Data from 0205_chest_Reflection__2__280.txt Node

Date: Fri Dec 15 18:46:15 CST 2023
User: ToomeyLab
Spectrometer: FLMS14357
Trigger mode: 0
Integration Time (sec): 1.000000E-2
Scans to average: 100
Electric dark correction enabled: true
Nonlinearity correction enabled: false
Boxcar width: 0
XAxis mode: Wavelengths
Number of Pixels in Spectrum: 2048
>>>>>Begin Spectral Data<<<<<
189.047	-37.86
189.435	-37.86
189.823	-37.86
190.211	94.64
190.599	117.77
190.987	91.12
191.375	35.9
191.763	-118.23
192.151	113.12
192.538	43.12
192.926	-204.71
193.314	1752
193.702	7.73
194.089	6.68
194.477	256.97
194.864	-127.68
195.252	124.82
195.639	135.81
196.027	79.69
196.414	-3458.54
196.801	103.27
197.189	105.55
197.576	149.37
197.963	-177.45
198.351	-11.03
198.738	-58.92
199.125	6.86
199.512	-14.54
199.899	-16.41
200.286	6.16
200.673	32.01
201.06	27.29
201.447	2.48
201.833	-37.35
202.22	41.13
202.607	56.6
202.994	8.18
203.38	-6.73
203.767	23.53
204.154	33.77
204.54	103.04
204.927	-13.6
205.313	-27.67
205.699	20.57
206.086	63.61
206.472	17.85
206.858	23.38
207.245	-3.78
207.631	32.66
208.017	4.45
208.403	-23.64
208.789	-3.72
209.175	38.34
209.561	11.1
209.947	-6.32
210.333	-24.57
210.719	11.05
211.105	-18.68
211.491	-39.73
211.876	14.42
212.262	12.12
212.648	17.34
213.034	16.71
213.419	3.56
213.805	20.79
214.19	-12.77
214.576	-6.15
214.961	-65.1
215.346	-29.59
215.732	-14.05
216.117	-4.77
216.502	-27.46
216.888	-32.24
217.273	-9.57
217.658	26.36
218.043	17.07
218.428	-42.63
218.813	-8.11
219.198	25.25
219.583	3.29
219.968	-5.42
220.353	-25.08
220.738	21.62
221.122	11.41
221.507	-20.01
221.892	-36.04
222.276	-33.2
222.661	13.27
223.046	3.37
223.43	4.14
223.815	8.58
224.199	-9.18
224.583	0.14
224.968	-2.06
225.352	12.62
225.736	-0.16
226.121	-10.57
226.505	-4.17
226.889	13.23
227.273	2.03
227.657	4.25
228.041	7.17
228.425	0.74
228.809	8.91
229.193	4.18
229.577	1.48
229.961	2.94
230.344	3.6
230.728	3.17
231.112	3.88
231.495	3.73
231.879	2.67
232.263	4.71
232.646	3.76
233.03	3.21
233.413	2.33
233.797	3.7
234.18	3.03
234.563	3.46
234.946	-1.11
235.33	3.67
235.713	3.03
236.096	3.44
236.479	5.19
236.862	2.74
237.245	4.65
237.628	3.69
238.011	5.5
238.394	5.5
238.777	2.45
239.16	1.44
239.543	2.72
239.925	4.56
240.308	4.46
240.691	5.52
241.073	4.49
241.456	3.79
241.838	2.55
242.221	2.83
242.603	4.18
242.986	3.42
243.368	3.43
243.75	4.46
244.133	3.42
244.515	3.97
244.897	3.59
245.279	3.52
245.661	3.75
246.043	3.04
246.425	2.85
246.807	4.48
247.189	4.67
247.571	3.23
247.953	3.69
248.335	3.38
248.717	3.97
249.098	3.88
249.48	4.02
249.862	4.25
250.243	4.25
250.625	3.77
251.006	4.12
251.388	3.07
251.769	4.24
252.151	4.52
252.532	4.81
252.913	3.21
253.295	3.12
253.676	3.16
254.057	3.64
254.438	3.3
254.819	3.48
255.2	3.72
255.581	3.74
255.962	3.6
256.343	3.16
256.724	2.98
257.105	3.13
257.486	3.66
257.867	2.95
258.247	3.52
258.628	3.41
259.009	2.72
259.389	3.38
259.77	3.43
260.15	3.02
260.531	2.96
260.911	3.85
261.292	3.43
261.672	3.8
262.052	3.73
262.432	3.91
262.813	3.97
263.193	3.09
263.573	3.27
263.953	3.6
264.333	3.72
264.713	3.81
265.093	3.16
265.473	3.53
265.853	2.69
266.233	4.25
266.612	1.77
266.992	3.17
267.372	3.53
267.752	3.71
268.131	3.08
268.511	3.99
268.89	3.51
269.27	3.34
269.649	3.49
270.029	3.41
270.408	4
270.787	3.59
271.167	3.87
271.546	4
271.925	3.07
272.304	3.72
272.683	3.59
273.062	3.45
273.441	3.81
273.82	3.3
274.199	3.45
274.578	3.31
274.957	3.73
275.336	3.31
275.715	3.07
276.093	3.25
276.472	3.9
276.851	3.25
277.229	2.76
277.608	2.7
277.986	3.83
278.365	3.57
278.743	2.59
279.122	3.46
279.5	3.69
279.878	3.66
280.257	3.5
280.635	3.51
281.013	2.92
281.391	3.39
281.769	3.45
282.147	3.32
282.525	3.69
282.903	3.07
283.281	3.67
283.659	3.83
284.037	3.31
284.415	3.74
284.792	3.73
285.17	2.84
285.548	3.15
285.925	3.62
286.303	3.18
286.68	3.23
287.058	3.63
287.435	3.62
287.813	3.38
288.19	3.3
288.567	3.15
288.945	3.57
289.322	3.73
289.699	3.69
290.076	3.57
290.453	3.59
290.83	3.09
291.207	3.23
291.584	3.44
291.961	3.7
292.338	3.28
292.715	3.92
293.092	3.33
293.469	3.81
293.845	4.01
294.222	3.61
294.599	3.37
294.975	3.56
295.352	4.02
295.728	3.32
296.105	3.63
296.481	4.09
296.858	3.49
297.234	3.69
297.61	3.72
297.986	4.05
298.363	3.7
298.739	3.7
299.115	3.88
299.491	3.58
299.867	3.81
300.243	4.04
300.619	3.63
300.995	3.74
301.371	4.12
301.746	3.6
302.122	4.65
302.498	3.77
302.874	4.15
303.249	4.26
303.625	4.32
304	3.74
304.376	3.92
304.751	3.17
305.127	4.37
305.502	3.69
305.878	2.81
306.253	4.01
306.628	4.56
307.003	3.53
307.378	4.5
307.754	4.14
308.129	3.41
308.504	3.76
308.879	4.3
309.254	4.46
309.629	4.32
310.003	3.72
310.378	4.13
310.753	4.34
311.128	3.66
311.502	3.94
311.877	4.36
312.252	3.66
312.626	4.02
313.001	3.96
313.375	4.14
313.75	3.74
314.124	4.35
314.498	3.95
314.873	3.87
315.247	4.14
315.621	3.97
315.995	3.63
316.369	3.57
316.743	4.11
317.117	4.22
317.491	4.03
317.865	4.22
318.239	3.91
318.613	4
318.987	4.47
319.361	3.01
319.734	4.05
320.108	4.29
320.482	4.58
320.855	4.27
321.229	4.55
321.602	4.26
321.976	3.87
322.349	3.75
322.723	3.56
323.096	4.9
323.469	3.51
323.843	3.99
324.216	4.45
324.589	4.38
324.962	4.51
325.335	3.84
325.708	3.75
326.081	4.05
326.454	4.38
326.827	3.88
327.2	4.11
327.573	4.6
327.945	4.51
328.318	4.29
328.691	4.06
329.063	4.32
329.436	3.87
329.809	4.56
330.181	3.71
330.553	3.94
330.926	4.44
331.298	4.3
331.671	3.83
332.043	4.78
332.415	4.4
332.787	4.28
333.159	4.75
333.532	4.25
333.904	4.31
334.276	4.31
334.648	4.51
335.02	4.7
335.391	4.33
335.763	4.04
336.135	4.22
336.507	4.68
336.879	4.3
337.25	3.55
337.622	4.16
337.993	4.24
338.365	4.44
338.736	4.68
339.108	4.2
339.479	4.01
339.851	4.32
340.222	4.58
340.593	4.21
340.964	4.17
341.336	4.68
341.707	3.96
342.078	4.56
342.449	4.5
342.82	3.57
343.191	4.5
343.562	4.6
343.933	4.38
344.303	4.3
344.674	4.15
345.045	4.61
345.416	4.66
345.786	3.93
346.157	4.58
346.527	3.94
346.898	4.08
347.268	4.74
347.639	4.51
348.009	4.44
348.38	4.14
348.75	4.29
349.12	4.19
349.49	4.55
349.861	4.32
350.231	4.43
350.601	4.18
350.971	4.56
351.341	4.53
351.711	4.43
352.081	4.4
352.45	3.97
352.82	4.28
353.19	4.24
353.56	4.51
353.929	4.69
354.299	4.8
354.669	4.01
355.038	4.47
355.408	4.38
355.777	4.44
356.147	4.27
356.516	4.47
356.885	4.67
357.254	4.13
357.624	4.43
357.993	4.48
358.362	4.2
358.731	3.78
359.1	4.42
359.469	4.46
359.838	4.61
360.207	4.08
360.576	4.11
360.945	4.4
361.314	4.81
361.682	4.29
362.051	4.51
362.42	4.57
362.788	4.39
363.157	4.49
363.525	4.53
363.894	4.58
364.262	4.62
364.631	4.67
364.999	4.58
365.367	4.16
365.735	5.22
366.104	4.58
366.472	4.43
366.84	4.31
367.208	4.4
367.576	4.79
367.944	4.44
368.312	4.25
368.68	4.08
369.048	4.83
369.416	4.61
369.783	4.1
370.151	4.67
370.519	4.69
370.886	4.7
371.254	4.58
371.621	4.88
371.989	4.81
372.356	4.44
372.724	4.57
373.091	4.42
373.458	4.56
373.826	4.89
374.193	4.74
374.56	4.81
374.927	4.63
375.294	4.57
375.661	4.36
376.028	4.57
376.395	4.42
376.762	4.48
377.129	4.67
377.496	4.48
377.863	4.38
378.229	4.15
378.596	4.46
378.963	4.72
379.329	4.33
379.696	4.73
380.062	4.89
380.429	4.33
380.795	4.48
381.161	4.62
381.528	5.29
381.894	4.76
382.26	4.46
382.626	4.85
382.993	4.46
383.359	4.91
383.725	4.83
384.091	4.38
384.457	4.77
384.823	4.65
385.188	4.88
385.554	4.74
385.92	4.63
386.286	4.6
386.651	4.75
387.017	5.03
387.383	5
387.748	4.83
388.114	4.48
388.479	4.44
388.845	4.88
389.21	4.98
389.575	5.12
389.94	4.48
390.306	4.7
390.671	4.91
391.036	4.58
391.401	4.45
391.766	4.48
392.131	4.77
392.496	4.88
392.861	4.57
393.226	5.07
393.591	4.77
393.956	4.67
394.32	4.71
394.685	4.58
395.05	4.55
395.414	4.66
395.779	4.5
396.143	4.77
396.508	4.98
396.872	4.78
397.236	4.74
397.601	4.69
397.965	4.78
398.329	4.84
398.694	4.9
399.058	4.75
399.422	4.75
399.786	4.86
400.15	4.85
400.514	4.98
400.878	4.76
401.242	5.14
401.605	4.92
401.969	4.93
402.333	4.92
402.697	4.67
403.06	4.87
403.424	4.7
403.787	4.72
404.151	4.99
404.514	4.73
404.878	4.77
405.241	4.88
405.604	4.82
405.968	4.84
406.331	4.99
406.694	5.1
407.057	4.71
407.42	4.8
407.783	4.76
408.146	4.78
408.509	4.86
408.872	4.8
409.235	5.06
409.598	5.17
409.961	5.05
410.323	4.98
410.686	4.92
411.049	4.8
411.411	4.91
411.774	4.97
412.136	4.87
412.499	4.77
412.861	4.93
413.223	4.94
413.586	5.22
413.948	5.17
414.31	4.88
414.672	4.9
415.035	4.94
415.397	5.13
415.759	4.76
416.121	5.05
416.483	4.82
416.845	5.05
417.206	4.92
417.568	5.1
417.93	4.86
418.292	4.98
418.653	5.03
419.015	5.05
419.377	4.85
419.738	5.08
420.1	4.98
420.461	5.06
420.822	5.03
421.184	4.93
421.545	5.02
421.906	4.77
422.267	4.9
422.629	4.92
422.99	4.79
423.351	4.88
423.712	5
424.073	4.94
424.434	4.89
424.795	4.87
425.155	4.96
425.516	4.88
425.877	4.89
426.238	4.84
426.598	4.97
426.959	4.93
427.32	4.92
427.68	5.04
428.041	4.85
428.401	5.09
428.761	5
429.122	5.07
429.482	4.79
429.842	5.19
430.202	5.16
430.563	5.15
430.923	4.83
431.283	5.22
431.643	5.05
432.003	5.06
432.363	5.06
432.722	5.08
433.082	5.05
433.442	5.15
433.802	4.86
434.161	4.97
434.521	5.29
434.881	5.17
435.24	4.92
435.6	4.95
435.959	5.17
436.319	5.02
436.678	4.97
437.037	5.09
437.396	5.06
437.756	5.11
438.115	4.96
438.474	5.25
438.833	4.91
439.192	5.3
439.551	5.29
439.91	5.09
440.269	5.15
440.628	5.03
440.987	5.11
441.345	4.9
441.704	5.26
442.063	5.09
442.421	5.1
442.78	5.11
443.138	5.13
443.497	5.21
443.855	5.01
444.214	5.19
444.572	5.32
444.93	5.25
445.288	5.24
445.647	5.38
446.005	5.22
446.363	5.24
446.721	5.23
447.079	4.93
447.437	5.11
447.795	5.13
448.153	5.03
448.51	5.11
448.868	5.18
449.226	5.2
449.584	5.14
449.941	5.18
450.299	5.21
450.656	5.28
451.014	5.12
451.371	5.28
451.729	5.22
452.086	5.36
452.443	5.3
452.801	5.24
453.158	5.29
453.515	5.17
453.872	5.4
454.229	5.18
454.586	5.17
454.943	5.22
455.3	5.27
455.657	5.25
456.014	5.08
456.371	5.26
456.727	5.3
457.084	5.55
457.441	5.12
457.797	5.36
458.154	5.56
458.51	5.32
458.867	5.45
459.223	5.39
459.58	5.33
459.936	5.36
460.292	5.33
460.648	5.33
461.005	5.2
461.361	5.38
461.717	5.22
462.073	5.17
462.429	5.34
462.785	5.34
463.141	5.35
463.496	5.45
463.852	5.66
464.208	5.25
464.564	5.52
464.919	5.42
465.275	5.37
465.631	5.48
465.986	5.38
466.342	5.4
466.697	5.33
467.052	5.45
467.408	5.38
467.763	5.52
468.118	5.37
468.473	5.43
468.829	5.51
469.184	5.34
469.539	5.32
469.894	5.31
470.249	5.48
470.603	5.62
470.958	5.58
471.313	5.53
471.668	5.55
472.023	5.42
472.377	5.5
472.732	5.44
473.086	5.4
473.441	5.44
473.795	5.56
474.15	5.41
474.504	5.49
474.859	5.6
475.213	5.18
475.567	5.54
475.921	5.39
476.275	5.5
476.63	5.57
476.984	5.6
477.338	5.57
477.692	5.35
478.045	5.53
478.399	5.45
478.753	5.68
479.107	5.74
479.461	5.63
479.814	5.64
480.168	5.49
480.521	5.48
480.875	5.56
481.228	5.6
481.582	5.6
481.935	5.69
482.289	5.63
482.642	5.62
482.995	5.35
483.348	5.52
483.701	5.57
484.055	5.57
484.408	5.52
484.761	5.43
485.114	5.34
485.466	5.19
485.819	5.17
486.172	5.21
486.525	5.31
486.878	5.35
487.23	5.42
487.583	5.49
487.936	5.52
488.288	5.46
488.641	5.47
488.993	5.31
489.345	5.37
489.698	5.3
490.05	5.33
490.402	5.41
490.754	5.43
491.107	5.56
491.459	5.58
491.811	5.61
492.163	5.61
492.515	5.51
492.866	5.55
493.218	5.49
493.57	5.39
493.922	5.46
494.274	5.55
494.625	5.72
494.977	5.7
495.328	5.74
495.68	5.69
496.031	5.74
496.383	5.76
496.734	5.85
497.086	5.86
497.437	5.79
497.788	5.74
498.139	5.77
498.49	5.77
498.842	5.67
499.193	5.68
499.544	5.78
499.894	5.79
500.245	5.87
500.596	5.75
500.947	5.91
501.298	5.75
501.648	5.87
501.999	5.99
502.35	5.95
502.7	5.93
503.051	5.88
503.401	5.82
503.752	6.16
504.102	5.91
504.452	5.98
504.803	5.98
505.153	5.94
505.503	5.89
505.853	6.02
506.203	5.92
506.553	5.85
506.903	6.03
507.253	5.94
507.603	5.85
507.953	5.99
508.303	6.08
508.652	5.73
509.002	6.06
509.352	6.05
509.701	5.97
510.051	5.89
510.4	5.92
510.75	5.88
511.099	6
511.449	5.95
511.798	6.09
512.147	5.93
512.496	5.95
512.846	6.09
513.195	6.06
513.544	6.08
513.893	6.11
514.242	6
514.591	6.16
514.939	5.98
515.288	6.08
515.637	6.17
515.986	6.17
516.334	6.18
516.683	6.15
517.032	6.17
517.38	6.2
517.729	6.08
518.077	6.04
518.426	6.33
518.774	6.24
519.122	6.16
519.47	6.24
519.819	6.06
520.167	6.03
520.515	6.09
520.863	6.06
521.211	6.18
521.559	6.21
521.907	6.22
522.255	6.27
522.602	6.28
522.95	6.27
523.298	6.26
523.645	6.31
523.993	6.22
524.341	6.53
524.688	6.38
525.036	6.36
525.383	6.4
525.73	6.41
526.078	6.31
526.425	6.29
526.772	6.35
527.119	6.31
527.466	6.25
527.814	6.3
528.161	6.25
528.508	6.34
528.854	6.26
529.201	6.26
529.548	6.3
529.895	6.23
530.242	6.07
530.588	6.09
530.935	6.14
531.282	6.22
531.628	6.2
531.975	6.35
532.321	6.36
532.667	6.5
533.014	6.42
533.36	6.49
533.706	6.55
534.052	6.53
534.399	6.37
534.745	6.39
535.091	6.38
535.437	6.42
535.783	6.43
536.129	6.48
536.474	6.54
536.82	6.59
537.166	6.71
537.512	6.64
537.857	6.6
538.203	6.64
538.549	6.63
538.894	6.61
539.239	6.72
539.585	6.66
539.93	6.69
540.276	6.8
540.621	6.88
540.966	6.83
541.311	6.76
541.656	6.64
542.001	6.71
542.346	6.79
542.691	6.64
543.036	6.66
543.381	6.55
543.726	6.68
544.071	6.74
544.415	6.79
544.76	6.81
545.105	6.89
545.449	6.83
545.794	6.9
546.138	6.94
546.483	6.89
546.827	7.03
547.171	7
547.516	7.18
547.86	6.87
548.204	7.01
548.548	6.95
548.892	7.07
549.236	7.08
549.58	7
549.924	7.08
550.268	7.29
550.612	7.28
550.956	7.4
551.3	7.18
551.643	7.44
551.987	7.34
552.33	7.37
552.674	7.57
553.017	7.46
553.361	7.32
553.704	7.5
554.048	7.18
554.391	7.27
554.734	7.34
555.077	7.34
555.42	7.42
555.764	7.45
556.107	7.26
556.45	7.43
556.793	7.59
557.135	7.59
557.478	7.72
557.821	7.66
558.164	7.67
558.507	7.64
558.849	7.71
559.192	7.6
559.534	7.68
559.877	7.97
560.219	7.78
560.562	7.98
560.904	7.9
561.246	7.72
561.589	7.76
561.931	7.8
562.273	7.63
562.615	7.98
562.957	7.73
563.299	7.82
563.641	7.78
563.983	8.07
564.325	7.82
564.667	7.99
565.008	7.85
565.35	8.04
565.692	7.84
566.033	7.93
566.375	8.26
566.716	8.12
567.058	8.07
567.399	8.04
567.741	7.88
568.082	8.01
568.423	8.06
568.764	8.11
569.105	8.16
569.447	8.37
569.788	8.06
570.129	8.26
570.47	8.11
570.811	8.27
571.151	8.39
571.492	8.51
571.833	8.3
572.174	8.31
572.514	8.39
572.855	8.39
573.195	8.31
573.536	8.42
573.876	8.33
574.217	8.25
574.557	8.52
574.898	8.57
575.238	8.57
575.578	8.52
575.918	8.8
576.258	8.65
576.598	8.73
576.938	8.67
577.278	8.77
577.618	8.54
577.958	8.62
578.298	8.75
578.638	8.8
578.977	8.62
579.317	8.87
579.657	8.71
579.996	8.91
580.336	8.91
580.675	8.83
581.014	8.9
581.354	8.92
581.693	9.16
582.032	9.01
582.372	9.17
582.711	9.39
583.05	8.79
583.389	9.13
583.728	8.83
584.067	9.28
584.406	9.32
584.745	9.29
585.083	9.3
585.422	9.26
585.761	9.46
586.1	9.38
586.438	9.18
586.777	9.48
587.115	9.54
587.454	9.36
587.792	9.28
588.13	9.51
588.469	9.43
588.807	9.4
589.145	9.33
589.483	9.73
589.821	9.39
590.159	9.58
590.497	9.87
590.835	9.85
591.173	9.63
591.511	9.89
591.849	9.81
592.187	9.76
592.524	9.7
592.862	9.75
593.2	9.75
593.537	9.9
593.875	9.96
594.212	9.91
594.55	9.79
594.887	9.96
595.224	9.96
595.561	9.83
595.899	9.86
596.236	9.87
596.573	10.17
596.91	9.66
597.247	9.87
597.584	10.28
597.921	10.28
598.258	10.09
598.594	10.28
598.931	10.09
599.268	10.14
599.604	10.33
599.941	10.33
600.277	10.29
600.614	10.36
600.95	10.34
601.287	10.44
601.623	10.1
601.959	10.41
602.296	10.47
602.632	10.47
602.968	10.42
603.304	10.46
603.64	10.59
603.976	10.74
604.312	10.6
604.648	10.49
604.984	10.65
605.319	10.7
605.655	10.64
605.991	10.74
606.326	10.76
606.662	10.69
606.998	10.47
607.333	10.75
607.668	10.68
608.004	10.98
608.339	10.94
608.674	10.94
609.01	10.86
609.345	11.03
609.68	11.15
610.015	11.04
610.35	10.87
610.685	11.33
611.02	11.09
611.355	11.28
611.689	11.13
612.024	11.13
612.359	11.1
612.694	11.31
613.028	11.06
613.363	11.5
613.697	11.49
614.032	11.36
614.366	11.28
614.7	11.68
615.035	11.43
615.369	11.56
615.703	11.29
616.037	11.5
616.371	11.5
616.705	11.29
617.039	11.91
617.373	11.2
617.707	11.57
618.041	11.69
618.375	11.67
618.709	11.92
619.042	11.6
619.376	12.11
619.71	11.99
620.043	12.06
620.377	11.81
620.71	12.08
621.043	11.76
621.377	11.67
621.71	11.76
622.043	11.73
622.376	11.97
622.709	12.14
623.043	12.01
623.376	12.19
623.709	11.89
624.041	12.58
624.374	12.39
624.707	12.21
625.04	12.63
625.373	12.19
625.705	12.51
626.038	12.21
626.37	12.53
626.703	12.41
627.035	12.75
627.368	12.96
627.7	12.41
628.032	12.62
628.365	12.77
628.697	12.76
629.029	12.53
629.361	12.48
629.693	12.66
630.025	12.56
630.357	12.83
630.689	12.55
631.021	12.92
631.353	12.88
631.684	13
632.016	12.59
632.348	13.07
632.679	12.83
633.011	12.99
633.342	12.91
633.674	12.82
634.005	13.5
634.336	12.89
634.668	13.7
634.999	12.78
635.33	13.14
635.661	13.25
635.992	13.21
636.323	13.21
636.654	13.32
636.985	13.16
637.316	13.06
637.647	13.13
637.977	13.55
638.308	13.76
638.639	13.03
638.969	13.28
639.3	13.24
639.63	13.24
639.961	13.44
640.291	13.22
640.622	13.69
640.952	13.67
641.282	14
641.612	13.9
641.943	13.71
642.273	13.8
642.603	14.5
642.933	13.71
643.263	14.06
643.592	13.98
643.922	13.61
644.252	13.69
644.582	13.99
644.911	13.67
645.241	13.93
645.571	13.96
645.9	14.03
646.23	14.01
646.559	13.83
646.888	14.02
647.218	14.18
647.547	14.56
647.876	14.47
648.205	14.01
648.534	14.37
648.863	14.05
649.192	14.33
649.521	14.61
649.85	13.92
650.179	14.28
650.508	14.21
650.837	13.92
651.165	13.86
651.494	14.57
651.822	14.19
652.151	14.14
652.479	15.08
652.808	14.48
653.136	14.66
653.465	13.85
653.793	14.53
654.121	14.46
654.449	14.9
654.777	15.87
655.105	15.07
655.433	14.53
655.761	14.96
656.089	14.57
656.417	14.74
656.745	15.04
657.073	14.83
657.4	15.44
657.728	14.65
658.056	14.94
658.383	15.38
658.711	15.2
659.038	15.39
659.365	15.06
659.693	14.91
660.02	15.11
660.347	15.39
660.674	15.27
661.001	15.21
661.329	14.73
661.656	15.56
661.982	15.52
662.309	15.16
662.636	15.3
662.963	15.6
663.29	15.32
663.616	15.9
663.943	15.21
664.27	15.4
664.596	15.45
664.923	15.5
665.249	15.34
665.576	15.48
665.902	16.25
666.228	15.5
666.554	16.26
666.881	15.52
667.207	16.3
667.533	15.86
667.859	15.76
668.185	16.59
668.511	15.59
668.837	15.35
669.162	16
669.488	15.17
669.814	16.23
670.139	16.18
670.465	16.32
670.791	16.26
671.116	16.64
671.442	16.1
671.767	16.4
672.092	16.29
672.418	16.55
672.743	16.36
673.068	16.19
673.393	16.88
673.718	16.3
674.043	16.36
674.368	16.25
674.693	17.35
675.018	16.72
675.343	16.08
675.667	16.6
675.992	17.11
676.317	17.17
676.641	17.12
676.966	16.99
677.29	17.29
677.615	17.3
677.939	16.64
678.264	17.27
678.588	16.65
678.912	17.58
679.236	17.08
679.56	16.59
679.885	16.62
680.209	17.25
680.532	17.16
680.856	17.43
681.18	16.81
681.504	16.78
681.828	17.26
682.152	16.78
682.475	17.29
682.799	17.43
683.122	17.34
683.446	17.05
683.769	17.72
684.093	17.28
684.416	17.87
684.739	17.42
685.062	17.36
685.386	17.48
685.709	16.59
686.032	17.41
