Data from 0205_crown_Reflection__1__284.txt Node

Date: Fri Dec 15 18:47:33 CST 2023
User: ToomeyLab
Spectrometer: FLMS14357
Trigger mode: 0
Integration Time (sec): 1.000000E-2
Scans to average: 100
Electric dark correction enabled: true
Nonlinearity correction enabled: false
Boxcar width: 0
XAxis mode: Wavelengths
Number of Pixels in Spectrum: 2048
>>>>>Begin Spectral Data<<<<<
189.047	-220.69
189.435	-220.69
189.823	-220.69
190.211	46.65
190.599	8.68
190.987	40.22
191.375	46.44
191.763	-68.59
192.151	-34.89
192.538	90.76
192.926	-256.18
193.314	5618.67
193.702	119.26
194.089	-352.89
194.477	152.02
194.864	-193.49
195.252	114.08
195.639	117.8
196.027	-148.06
196.414	-3962.6
196.801	123.08
197.189	63.9
197.576	249.04
197.963	-404.98
198.351	-30.81
198.738	-6.75
199.125	-6.95
199.512	22.68
199.899	1.56
200.286	12.19
200.673	-2.49
201.06	21.95
201.447	3.1
201.833	-8.39
202.22	7.14
202.607	26.04
202.994	-16.84
203.38	-13.13
203.767	-11.43
204.154	17.88
204.54	17.53
204.927	-23.9
205.313	-48.81
205.699	26.92
206.086	52.94
206.472	-19.56
206.858	-10.17
207.245	27.4
207.631	49.62
208.017	-31.4
208.403	-33.61
208.789	41.41
209.175	21.06
209.561	0.35
209.947	-9.32
210.333	17.72
210.719	3.77
211.105	18.03
211.491	-39.9
211.876	24.02
212.262	12.68
212.648	22.01
213.034	18.97
213.419	-38.17
213.805	9.96
214.19	-44.65
214.576	-7.98
214.961	-0.81
215.346	-76.37
215.732	-0.19
216.117	0.51
216.502	-29.6
216.888	10.92
217.273	20.27
217.658	10.97
218.043	-3.21
218.428	-89.88
218.813	-49.17
219.198	-19.73
219.583	49.44
219.968	7.06
220.353	6.32
220.738	7.53
221.122	50.77
221.507	-5.24
221.892	-10.42
222.276	-25.69
222.661	-2.3
223.046	18.4
223.43	12.01
223.815	13.89
224.199	-8.23
224.583	3.58
224.968	-6.12
225.352	3.77
225.736	7.18
226.121	-2.91
226.505	8.21
226.889	7.13
227.273	2.79
227.657	10.05
228.041	3.74
228.425	6.33
228.809	7.67
229.193	6.85
229.577	3.71
229.961	7.49
230.344	6.08
230.728	6.56
231.112	6.3
231.495	6.36
231.879	6.11
232.263	6.41
232.646	7.68
233.03	5.58
233.413	4.77
233.797	7.61
234.18	5.74
234.563	5.26
234.946	8.19
235.33	9.39
235.713	5.97
236.096	5.68
236.479	6.57
236.862	5.06
237.245	8.29
237.628	5.73
238.011	7.34
238.394	7.79
238.777	6
239.16	5.55
239.543	7.29
239.925	5.73
240.308	6.34
240.691	7.54
241.073	5.5
241.456	6.6
241.838	5.87
242.221	6.16
242.603	6.91
242.986	6.03
243.368	6.53
243.75	6.42
244.133	6.42
244.515	6.07
244.897	6.22
245.279	6.48
245.661	5.33
246.043	5.06
246.425	5.95
246.807	6.65
247.189	7.05
247.571	5.94
247.953	6.89
248.335	5.91
248.717	6.38
249.098	5.94
249.48	6.01
249.862	6.04
250.243	6.09
250.625	5.57
251.006	6.16
251.388	4.84
251.769	5.12
252.151	6.48
252.532	5.06
252.913	4.87
253.295	5.17
253.676	5.55
254.057	5.58
254.438	5.73
254.819	5.82
255.2	6.01
255.581	5.83
255.962	4.61
256.343	5.14
256.724	4.68
257.105	4.99
257.486	6.01
257.867	5.75
258.247	5.33
258.628	4.98
259.009	5.69
259.389	5.92
259.77	6.08
260.15	4.81
260.531	4.69
260.911	5.98
261.292	5.53
261.672	5.3
262.052	5.31
262.432	5.87
262.813	5.51
263.193	5.25
263.573	5.74
263.953	4.99
264.333	5.99
264.713	5.89
265.093	5.47
265.473	4.95
265.853	4.68
266.233	6.03
266.612	3.73
266.992	5.01
267.372	4.74
267.752	5.43
268.131	4.24
268.511	5.45
268.89	5.12
269.27	4.89
269.649	4.72
270.029	5.01
270.408	5.97
270.787	5.62
271.167	6.12
271.546	5.36
271.925	4.41
272.304	5.12
272.683	5.26
273.062	4.93
273.441	5.35
273.82	4.5
274.199	4.92
274.578	4.97
274.957	5.11
275.336	4.85
275.715	4.92
276.093	4.72
276.472	4.95
276.851	4.58
277.229	4.52
277.608	3.98
277.986	5.23
278.365	4.96
278.743	4.76
279.122	4.99
279.5	5.05
279.878	5.5
280.257	4.91
280.635	4.88
281.013	4.77
281.391	4.78
281.769	4.88
282.147	5.28
282.525	5.44
282.903	4.54
283.281	5.08
283.659	4.84
284.037	5.62
284.415	4.94
284.792	4.97
285.17	4.58
285.548	4.76
285.925	4.87
286.303	4.83
286.68	4.48
287.058	4.42
287.435	5.06
287.813	5.05
288.19	4.63
288.567	4.75
288.945	4.93
289.322	4.53
289.699	4.53
290.076	4.59
290.453	5.3
290.83	4.55
291.207	4.74
291.584	4.75
291.961	5.05
292.338	4.73
292.715	4.94
293.092	4.72
293.469	4.41
293.845	5.11
294.222	4.37
294.599	4.63
294.975	3.98
295.352	4.78
295.728	4.49
296.105	4.12
296.481	4.8
296.858	4.58
297.234	4.55
297.61	4.74
297.986	4.82
298.363	4.91
298.739	4.73
299.115	4.58
299.491	4.56
299.867	4.47
300.243	4.85
300.619	4.37
300.995	4.82
301.371	4.56
301.746	4.26
302.122	5.04
302.498	4.52
302.874	4.7
303.249	4.9
303.625	4.55
304	4.84
304.376	4.75
304.751	4.35
305.127	4.79
305.502	3.97
305.878	4.29
306.253	4.67
306.628	5.15
307.003	4.41
307.378	5.32
307.754	4.61
308.129	4.43
308.504	5.01
308.879	4.37
309.254	4.83
309.629	4.89
310.003	4.69
310.378	4.59
310.753	4.57
311.128	4.56
311.502	4.34
311.877	4.91
312.252	4.3
312.626	4.28
313.001	4.35
313.375	4.79
313.75	4.48
314.124	4.58
314.498	4.99
314.873	4.21
315.247	4.28
315.621	5.21
315.995	3.21
316.369	4.79
316.743	4.37
317.117	4.91
317.491	4.78
317.865	5.16
318.239	4.38
318.613	4.77
318.987	4.35
319.361	4.14
319.734	5.33
320.108	4.36
320.482	4.06
320.855	4.7
321.229	4.4
321.602	3.95
321.976	4.87
322.349	4.58
322.723	4.43
323.096	4.68
323.469	4.19
323.843	4.17
324.216	4.56
324.589	3.98
324.962	4.74
325.335	4.21
325.708	4.48
326.081	4.39
326.454	4.85
326.827	3.8
327.2	4.42
327.573	5.17
327.945	4.6
328.318	4.38
328.691	3.84
329.063	4.09
329.436	4.24
329.809	4.97
330.181	3.86
330.553	5.17
330.926	4.92
331.298	4.54
331.671	4.07
332.043	5.25
332.415	5.1
332.787	5.07
333.159	5.14
333.532	4.65
333.904	4.67
334.276	4.75
334.648	5.04
335.02	4.49
335.391	4.3
335.763	4.19
336.135	4.6
336.507	4.62
336.879	4.87
337.25	4.47
337.622	5.34
337.993	4.54
338.365	4.74
338.736	4.57
339.108	4.38
339.479	4.47
339.851	4.69
340.222	4.58
340.593	4.53
340.964	4.38
341.336	5.14
341.707	4.15
342.078	5.02
342.449	4.93
342.82	4.52
343.191	4.65
343.562	5.1
343.933	5.14
344.303	4.4
344.674	4.51
345.045	4.82
345.416	5.06
345.786	4.7
346.157	5.05
346.527	4.76
346.898	4.53
347.268	4.74
347.639	4.76
348.009	4.98
348.38	5.06
348.75	4.5
349.12	4.65
349.49	5
349.861	5.09
350.231	4.79
350.601	4.84
350.971	5.16
351.341	5.41
351.711	4.87
352.081	4.9
352.45	5.27
352.82	5.34
353.19	4.71
353.56	4.92
353.929	5.13
354.299	4.43
354.669	4.51
355.038	5.02
355.408	4.91
355.777	5.17
356.147	4.7
356.516	4.71
356.885	4.98
357.254	5.08
357.624	5.08
357.993	5.05
358.362	4.46
358.731	4.86
359.1	4.88
359.469	4.79
359.838	5.42
360.207	4.74
360.576	4.73
360.945	4.65
361.314	5.69
361.682	5.05
362.051	4.93
362.42	5.16
362.788	5.09
363.157	5.01
363.525	5.29
363.894	5.28
364.262	5.12
364.631	5.34
364.999	5.1
365.367	4.65
365.735	5.78
366.104	5.24
366.472	5.14
366.84	5.04
367.208	4.9
367.576	5.27
367.944	5.47
368.312	4.87
368.68	5.14
369.048	5.3
369.416	5.19
369.783	4.8
370.151	5.13
370.519	5.73
370.886	5.58
371.254	4.98
371.621	5.18
371.989	5.19
372.356	4.93
372.724	5.04
373.091	5.36
373.458	5.25
373.826	5.22
374.193	5.26
374.56	5.33
374.927	5.33
375.294	5.3
375.661	5.14
376.028	5.33
376.395	5.23
376.762	5.2
377.129	5.41
377.496	5.44
377.863	5.61
378.229	5.04
378.596	5.46
378.963	5.19
379.329	5.09
379.696	5.43
380.062	5.32
380.429	5.19
380.795	4.87
381.161	5.44
381.528	5.45
381.894	5.31
382.26	5.36
382.626	5.36
382.993	5.1
383.359	5.62
383.725	5.39
384.091	5.29
384.457	5.56
384.823	5.38
385.188	5.68
385.554	5.25
385.92	5.48
386.286	5.55
386.651	5.49
387.017	5.88
387.383	5.63
387.748	5.14
388.114	5.54
388.479	5.27
388.845	5.7
389.21	5.6
389.575	5.73
389.94	5.65
390.306	5.47
390.671	5.84
391.036	5.2
391.401	5.18
391.766	5.6
392.131	5.3
392.496	5.66
392.861	5.5
393.226	5.58
393.591	5.23
393.956	5.75
394.32	5.68
394.685	5.44
395.05	5.47
395.414	5.38
395.779	5.34
396.143	5.5
396.508	5.73
396.872	5.76
397.236	5.5
397.601	5.46
397.965	5.48
398.329	5.65
398.694	5.67
399.058	5.6
399.422	5.48
399.786	5.72
400.15	5.6
400.514	5.5
400.878	5.64
401.242	5.86
401.605	5.73
401.969	5.91
402.333	5.65
402.697	5.84
403.06	5.54
403.424	5.64
403.787	5.71
404.151	6.05
404.514	5.71
404.878	5.74
405.241	6.02
405.604	5.58
405.968	5.79
406.331	5.75
406.694	5.68
407.057	5.84
407.42	5.94
407.783	5.66
408.146	5.53
408.509	5.6
408.872	5.73
409.235	5.99
409.598	6
409.961	5.88
410.323	6.05
410.686	5.67
411.049	5.66
411.411	5.63
411.774	5.88
412.136	5.71
412.499	5.75
412.861	5.65
413.223	5.76
413.586	5.81
413.948	5.71
414.31	5.61
414.672	5.67
415.035	5.63
415.397	5.77
415.759	5.84
416.121	5.83
416.483	5.62
416.845	5.82
417.206	5.81
417.568	5.86
417.93	5.69
418.292	5.77
418.653	5.76
419.015	5.87
419.377	5.68
419.738	5.92
420.1	5.8
420.461	5.79
420.822	5.73
421.184	5.67
421.545	5.8
421.906	5.64
422.267	5.76
422.629	5.65
422.99	5.72
423.351	5.67
423.712	5.81
424.073	5.67
424.434	5.56
424.795	5.72
425.155	5.7
425.516	5.62
425.877	5.63
426.238	5.56
426.598	5.8
426.959	5.77
427.32	5.76
427.68	5.67
428.041	5.63
428.401	5.79
428.761	5.77
429.122	5.78
429.482	5.69
429.842	5.89
430.202	5.95
430.563	5.92
430.923	5.75
431.283	6.06
431.643	5.88
432.003	5.82
432.363	5.89
432.722	5.86
433.082	5.82
433.442	5.88
433.802	5.72
434.161	5.75
434.521	5.88
434.881	5.71
435.24	5.73
435.6	5.91
435.959	5.71
436.319	5.7
436.678	5.77
437.037	5.69
437.396	5.94
437.756	5.97
438.115	5.75
438.474	5.98
438.833	5.69
439.192	5.83
439.551	5.92
439.91	5.78
440.269	5.84
440.628	5.8
440.987	5.83
441.345	5.67
441.704	5.83
442.063	5.58
442.421	5.74
442.78	5.79
443.138	5.78
443.497	5.7
443.855	5.73
444.214	5.83
444.572	5.8
444.93	5.78
445.288	5.76
445.647	5.94
446.005	5.66
446.363	5.89
446.721	5.88
447.079	5.62
447.437	5.69
447.795	5.81
448.153	5.69
448.51	5.72
448.868	5.78
449.226	5.79
449.584	5.7
449.941	5.88
450.299	5.85
450.656	5.76
451.014	5.9
451.371	5.63
451.729	5.72
452.086	6.02
452.443	5.86
452.801	5.85
453.158	5.87
453.515	5.72
453.872	6.02
454.229	5.71
454.586	5.68
454.943	5.82
455.3	5.79
455.657	5.65
456.014	5.77
456.371	5.87
456.727	5.8
457.084	6.09
457.441	5.89
457.797	5.84
458.154	6.02
458.51	6.02
458.867	5.96
459.223	5.99
459.58	5.96
459.936	5.92
460.292	5.95
460.648	5.85
461.005	5.72
461.361	5.82
461.717	5.68
462.073	5.71
462.429	5.7
462.785	5.96
463.141	5.85
463.496	5.88
463.852	5.81
464.208	5.91
464.564	5.95
464.919	6.06
465.275	5.83
465.631	6.07
465.986	5.78
466.342	5.82
466.697	5.8
467.052	5.84
467.408	5.82
467.763	5.72
468.118	5.74
468.473	5.74
468.829	5.79
469.184	5.69
469.539	5.86
469.894	5.81
470.249	5.94
470.603	6
470.958	5.99
471.313	5.96
471.668	6.13
472.023	5.86
472.377	5.85
472.732	5.84
473.086	5.82
473.441	5.68
473.795	6.07
474.15	5.97
474.504	5.75
474.859	5.9
475.213	5.75
475.567	5.83
475.921	5.8
476.275	5.8
476.63	5.9
476.984	5.96
477.338	5.89
477.692	5.77
478.045	5.7
478.399	5.69
478.753	5.89
479.107	5.76
479.461	5.84
479.814	5.93
480.168	5.9
480.521	5.83
480.875	5.83
481.228	5.72
481.582	5.87
481.935	5.91
482.289	5.9
482.642	5.76
482.995	5.75
483.348	5.71
483.701	5.67
484.055	5.71
484.408	5.77
484.761	5.64
485.114	5.53
485.466	5.41
485.819	5.38
486.172	5.42
486.525	5.5
486.878	5.49
487.23	5.56
487.583	5.55
487.936	5.6
488.288	5.66
488.641	5.62
488.993	5.51
489.345	5.46
489.698	5.45
490.05	5.42
490.402	5.47
490.754	5.57
491.107	5.56
491.459	5.62
491.811	5.77
492.163	5.71
492.515	5.58
492.866	5.6
493.218	5.56
493.57	5.5
493.922	5.52
494.274	5.63
494.625	5.67
494.977	5.77
495.328	5.69
495.68	5.7
496.031	5.84
496.383	5.63
496.734	5.7
497.086	5.83
497.437	5.88
497.788	5.71
498.139	5.63
498.49	5.73
498.842	5.62
499.193	5.52
499.544	5.73
499.894	5.66
500.245	5.71
500.596	5.7
500.947	5.85
501.298	5.79
501.648	5.76
501.999	5.89
502.35	5.78
502.7	5.74
503.051	5.69
503.401	5.77
503.752	5.81
504.102	5.72
504.452	5.69
504.803	5.74
505.153	5.69
505.503	5.75
505.853	5.73
506.203	5.53
506.553	5.79
506.903	5.7
507.253	5.6
507.603	5.62
507.953	5.88
508.303	5.81
508.652	5.6
509.002	5.75
509.352	5.78
509.701	5.63
510.051	5.64
510.4	5.7
510.75	5.77
511.099	5.62
511.449	5.7
511.798	5.76
512.147	5.72
512.496	5.6
512.846	5.67
513.195	5.69
513.544	5.65
513.893	5.62
514.242	5.58
514.591	5.88
514.939	5.69
515.288	5.64
515.637	5.72
515.986	5.69
516.334	5.77
516.683	5.6
517.032	5.71
517.38	5.78
517.729	5.64
518.077	5.62
518.426	5.62
518.774	5.75
519.122	5.49
519.47	5.56
519.819	5.52
520.167	5.51
520.515	5.53
520.863	5.66
521.211	5.51
521.559	5.58
521.907	5.55
522.255	5.59
522.602	5.65
522.95	5.65
523.298	5.7
523.645	5.78
523.993	5.55
524.341	5.65
524.688	5.63
525.036	5.55
525.383	5.68
525.73	5.74
526.078	5.73
526.425	5.59
526.772	5.74
527.119	5.57
527.466	5.52
527.814	5.47
528.161	5.47
528.508	5.54
528.854	5.57
529.201	5.42
529.548	5.4
529.895	5.35
530.242	5.31
530.588	5.29
530.935	5.35
531.282	5.39
531.628	5.36
531.975	5.45
532.321	5.47
532.667	5.46
533.014	5.57
533.36	5.56
533.706	5.55
534.052	5.6
534.399	5.43
534.745	5.37
535.091	5.4
535.437	5.4
535.783	5.37
536.129	5.43
536.474	5.51
536.82	5.47
537.166	5.57
537.512	5.56
537.857	5.46
538.203	5.51
538.549	5.45
538.894	5.39
539.239	5.46
539.585	5.52
539.93	5.43
540.276	5.58
540.621	5.62
540.966	5.45
541.311	5.5
541.656	5.45
542.001	5.46
542.346	5.66
542.691	5.4
543.036	5.31
543.381	5.22
543.726	5.26
544.071	5.39
544.415	5.36
544.76	5.37
545.105	5.39
545.449	5.42
545.794	5.5
546.138	5.41
546.483	5.56
546.827	5.57
547.171	5.41
547.516	5.63
547.86	5.37
548.204	5.37
548.548	5.42
548.892	5.57
549.236	5.49
549.58	5.41
549.924	5.55
550.268	5.65
550.612	5.49
550.956	5.6
551.3	5.45
551.643	5.72
551.987	5.64
552.33	5.48
552.674	5.42
553.017	5.53
553.361	5.4
553.704	5.65
554.048	5.39
554.391	5.6
554.734	5.43
555.077	5.37
555.42	5.24
555.764	5.33
556.107	5.29
556.45	5.33
556.793	5.48
557.135	5.37
557.478	5.69
557.821	5.6
558.164	5.46
558.507	5.51
558.849	5.54
559.192	5.4
559.534	5.41
559.877	5.62
560.219	5.51
560.562	5.53
560.904	5.4
561.246	5.41
561.589	5.5
561.931	5.57
562.273	5.41
562.615	5.39
562.957	5.56
563.299	5.4
563.641	5.55
563.983	5.57
564.325	5.36
564.667	5.32
565.008	5.4
565.35	5.29
565.692	5.38
566.033	5.2
566.375	5.38
566.716	5.59
567.058	5.42
567.399	5.47
567.741	5.27
568.082	5.29
568.423	5.45
568.764	5.31
569.105	5.44
569.447	5.43
569.788	5.37
570.129	5.66
570.47	5.37
570.811	5.4
571.151	5.39
571.492	5.34
571.833	5.48
572.174	5.27
572.514	5.34
572.855	5.39
573.195	5.39
573.536	5.34
573.876	5.21
574.217	5.33
574.557	5.39
574.898	5.46
575.238	5.45
575.578	5.15
575.918	5.41
576.258	5.5
576.598	5.49
576.938	5.31
577.278	5.28
577.618	5.32
577.958	5.51
578.298	5.39
578.638	5.24
578.977	5.37
579.317	5.31
579.657	5.34
579.996	5.49
580.336	5.48
580.675	5.51
581.014	5.3
581.354	5.27
581.693	5.62
582.032	5.09
582.372	5.24
582.711	5.27
583.05	5.18
583.389	5.41
583.728	5.17
584.067	5.54
584.406	5.4
584.745	5.39
585.083	5.53
585.422	5.4
585.761	5.57
586.1	5.34
586.438	5.53
586.777	5.54
587.115	5.65
587.454	5.36
587.792	5.18
588.13	5.42
588.469	5.16
588.807	5.35
589.145	5.18
589.483	5.41
589.821	5.19
590.159	5.28
590.497	5.4
590.835	5.55
591.173	5.39
591.511	5.47
591.849	5.33
592.187	5.23
592.524	5.28
592.862	5.07
593.2	5.43
593.537	5.46
593.875	5.19
594.212	5.26
594.55	5.19
594.887	5.35
595.224	5.22
595.561	5.13
595.899	5.21
596.236	5.16
596.573	5.3
596.91	5.04
597.247	5.15
597.584	5.46
597.921	5.47
598.258	5.1
598.594	5.16
598.931	5.02
599.268	5.27
599.604	5.19
599.941	5.24
600.277	5.3
600.614	5.08
600.95	5.06
601.287	5.26
601.623	5.02
601.959	5.1
602.296	5.19
602.632	5.2
602.968	5.3
603.304	5.2
603.64	5.2
603.976	5.29
604.312	5.22
604.648	5.19
604.984	5.22
605.319	5.16
605.655	5.2
605.991	5.18
606.326	5.11
606.662	5.12
606.998	4.97
607.333	5.13
607.668	5.1
608.004	5.1
608.339	5.28
608.674	5.3
609.01	5
609.345	4.87
609.68	5.38
610.015	5.06
610.35	4.99
610.685	5.15
611.02	5.2
611.355	5.19
611.689	5.06
612.024	5.21
612.359	5.19
612.694	5.06
613.028	4.98
613.363	5.2
613.697	5.3
614.032	5.36
614.366	5.34
614.7	5.28
615.035	5.32
615.369	5.21
615.703	5.04
616.037	5.03
616.371	4.72
616.705	5.14
617.039	5.4
617.373	4.85
617.707	5.26
618.041	5.03
618.375	5.25
618.709	5.53
619.042	5.07
619.376	5.1
619.71	5.19
620.043	4.99
620.377	5.08
620.71	5.2
621.043	5.03
621.377	4.82
621.71	5.31
622.043	5.05
622.376	4.79
622.709	4.86
623.043	4.92
623.376	5.31
623.709	4.83
624.041	5.6
624.374	5.31
624.707	4.73
625.04	5.27
625.373	4.98
625.705	5.17
626.038	5.16
626.37	5.37
626.703	5.05
627.035	5.13
627.368	5.75
627.7	4.94
628.032	4.99
628.365	5.17
628.697	5.04
629.029	4.89
629.361	4.98
629.693	5.2
630.025	5.24
630.357	5.5
630.689	5.03
631.021	5.25
631.353	5.45
631.684	4.71
632.016	5.01
632.348	5.22
632.679	5
633.011	5.25
633.342	5.3
633.674	5.08
634.005	5.66
634.336	5.2
634.668	6.03
634.999	4.98
635.33	5.31
635.661	5.1
635.992	5.26
636.323	5.15
636.654	5.56
636.985	5.17
637.316	5.3
637.647	4.74
637.977	5.11
638.308	5.18
638.639	4.69
638.969	4.55
639.3	4.8
639.63	4.72
639.961	4.99
640.291	5.26
640.622	5.37
640.952	4.87
641.282	5.07
641.612	5.43
641.943	5.38
642.273	5.24
642.603	5.36
642.933	5.07
643.263	5.09
643.592	4.96
643.922	5.12
644.252	5.07
644.582	5.28
644.911	5.01
645.241	5.13
645.571	5.14
645.9	4.59
646.23	4.66
646.559	4.85
646.888	5.08
647.218	4.55
647.547	5.54
647.876	4.73
648.205	5.12
648.534	5.21
648.863	4.91
649.192	5.24
649.521	4.69
649.85	4.85
650.179	5.42
650.508	4.65
650.837	4.74
651.165	5.09
651.494	5.61
651.822	5.26
652.151	4.9
652.479	4.87
652.808	4.77
653.136	5.49
653.465	4.57
653.793	4.76
654.121	5.01
654.449	5.43
654.777	5.26
655.105	5.35
655.433	4.87
655.761	4.42
656.089	5.3
656.417	4.97
656.745	4.88
657.073	4.73
657.4	5.62
657.728	4.53
658.056	5.22
658.383	5.22
658.711	5.11
659.038	5.18
659.365	5.58
659.693	4.85
660.02	4.86
660.347	5.12
660.674	5.18
661.001	5.28
661.329	4.32
661.656	4.89
661.982	5.17
662.309	4.81
662.636	5.08
662.963	5.19
663.29	5.09
663.616	5.38
663.943	4.87
664.27	5.04
664.596	5.53
664.923	5.39
665.249	4.75
665.576	4.81
665.902	5.36
666.228	5.26
666.554	5.24
666.881	4.57
667.207	5.21
667.533	5.52
667.859	4.93
668.185	5.55
668.511	4.82
668.837	4.78
669.162	5.46
669.488	4.65
669.814	5.79
670.139	5.17
670.465	5.17
670.791	5.34
671.116	5.95
671.442	4.99
671.767	5.08
672.092	5.66
672.418	5.05
672.743	5.98
673.068	5.29
673.393	5.02
673.718	5.19
674.043	5.24
674.368	5.05
674.693	5.67
675.018	4.6
675.343	5.07
675.667	4.88
675.992	5.36
676.317	5.65
676.641	5.25
676.966	5.68
677.29	4.59
677.615	5.2
677.939	5.55
678.264	5.34
678.588	4.73
678.912	5.01
679.236	5.85
679.56	5
679.885	5.29
680.209	4.85
680.532	5.29
680.856	5.67
681.18	4.8
681.504	4.88
681.828	5.76
682.152	4.92
682.475	5.4
682.799	5.36
683.122	5.57
683.446	5.15
683.769	5.57
684.093	4.8
684.416	5.39
684.739	5.45
685.062	5.58
685.386	6.32
685.709	4.29
686.032	5.44
686.355	5.56
686.678	4.97
687.001	5.28
687.324	5.83
687.646	4.55
687.969	4.77
688.292	5.28
688.614	5.2
688.937	5.39
689.26	4.84
689.582	5.94
689.904	4.38
690.227	5.27
690.549	5.43
690.871	5.74
691.194	4.87
691.516	4.9
691.838	5.25
692.16	4.25
692.482	4.6
