Data from 0205_chest_Reflection__1__279.txt Node

Date: Fri Dec 15 18:46:05 CST 2023
User: ToomeyLab
Spectrometer: FLMS14357
Trigger mode: 0
Integration Time (sec): 1.000000E-2
Scans to average: 100
Electric dark correction enabled: true
Nonlinearity correction enabled: false
Boxcar width: 0
XAxis mode: Wavelengths
Number of Pixels in Spectrum: 2048
>>>>>Begin Spectral Data<<<<<
189.047	-257.09
189.435	-257.09
189.823	-257.09
190.211	21.22
190.599	-57.66
190.987	159.78
191.375	101.04
191.763	3.18
192.151	32.13
192.538	39.72
192.926	-289.32
193.314	5632
193.702	60.81
194.089	-2.61
194.477	124.74
194.864	55.7
195.252	70.02
195.639	122
196.027	495.45
196.414	-2471.54
196.801	105.69
197.189	93.97
197.576	247.53
197.963	-82.26
198.351	-192.6
198.738	-53.47
199.125	28.68
199.512	-14.73
199.899	2.83
200.286	-22.22
200.673	2.72
201.06	5.21
201.447	-2.59
201.833	23.04
202.22	20.05
202.607	27.03
202.994	-23.62
203.38	21.99
203.767	42.91
204.154	56.71
204.54	65.93
204.927	-38.73
205.313	-30.25
205.699	26.29
206.086	76.21
206.472	22.81
206.858	1.25
207.245	-0.56
207.631	6.86
208.017	33.39
208.403	-16.47
208.789	12.21
209.175	4.16
209.561	-26.4
209.947	-15.86
210.333	-26.85
210.719	12.7
211.105	11.43
211.491	1.37
211.876	5.08
212.262	6.39
212.648	0.95
213.034	1.98
213.419	-35.61
213.805	-21.61
214.19	-7.94
214.576	-16.17
214.961	-25.59
215.346	-126.48
215.732	25.61
216.117	12.34
216.502	-59.63
216.888	-9.62
217.273	6.6
217.658	11.69
218.043	24.47
218.428	-46.29
218.813	-23.38
219.198	-4.55
219.583	-3.78
219.968	-3.89
220.353	-1.81
220.738	4.88
221.122	19.72
221.507	6.17
221.892	-37.05
222.276	-48
222.661	-3.73
223.046	16.1
223.43	10.06
223.815	11.12
224.199	-2.17
224.583	8.48
224.968	-0.99
225.352	10.49
225.736	-8.44
226.121	-14.52
226.505	3.09
226.889	4.35
227.273	-5.84
227.657	2.9
228.041	5.49
228.425	-1.21
228.809	6.33
229.193	1.99
229.577	3.68
229.961	3.11
230.344	2.76
230.728	3.26
231.112	3.77
231.495	2.66
231.879	1.84
232.263	3.15
232.646	3.69
233.03	3.5
233.413	3.38
233.797	4.69
234.18	2.69
234.563	0.74
234.946	2.53
235.33	4.3
235.713	3.65
236.096	4.22
236.479	4.64
236.862	1.57
237.245	5.11
237.628	1.38
238.011	4.34
238.394	5.77
238.777	3.47
239.16	3.1
239.543	4.27
239.925	4.7
240.308	2.94
240.691	6.15
241.073	3.94
241.456	0.25
241.838	2.88
242.221	1.48
242.603	3.67
242.986	3.38
243.368	4.47
243.75	3.9
244.133	3.11
244.515	3.44
244.897	3.71
245.279	3.11
245.661	2.86
246.043	2.22
246.425	3.38
246.807	4.31
247.189	4.14
247.571	3.02
247.953	3.9
248.335	3.44
248.717	3.47
249.098	3.22
249.48	3.58
249.862	3.47
250.243	3.19
250.625	3.09
251.006	3.81
251.388	2.31
251.769	2.94
252.151	4.58
252.532	3.54
252.913	2.55
253.295	2.47
253.676	2.94
254.057	3.49
254.438	3.4
254.819	2.85
255.2	2.76
255.581	3.38
255.962	2.63
256.343	3.12
256.724	3.66
257.105	3.79
257.486	3.06
257.867	3.79
258.247	3.22
258.628	2.41
259.009	2.97
259.389	3.52
259.77	2.18
260.15	3.35
260.531	2.7
260.911	3.34
261.292	2.94
261.672	3.29
262.052	3.53
262.432	3.59
262.813	3.15
263.193	3.27
263.573	2.83
263.953	2.32
264.333	3.53
264.713	3.18
265.093	2.91
265.473	3.42
265.853	2.43
266.233	3.19
266.612	1.29
266.992	2.11
267.372	3.56
267.752	3.06
268.131	2.47
268.511	3.51
268.89	3.36
269.27	2.99
269.649	2.01
270.029	2.7
270.408	4.02
270.787	3.8
271.167	3.93
271.546	3.5
271.925	2.5
272.304	2.78
272.683	3.69
273.062	2.48
273.441	3.06
273.82	2.85
274.199	3.43
274.578	3.42
274.957	2.86
275.336	3.36
275.715	2.83
276.093	2.68
276.472	3.31
276.851	2.81
277.229	2.45
277.608	2.21
277.986	2.81
278.365	2.78
278.743	2.76
279.122	3.25
279.5	2.66
279.878	3.5
280.257	2.75
280.635	2.76
281.013	2.73
281.391	3.06
281.769	2.51
282.147	3.31
282.525	3.67
282.903	2.96
283.281	3.54
283.659	3.42
284.037	3.56
284.415	3.33
284.792	3.43
285.17	2.99
285.548	2.48
285.925	3.41
286.303	3.21
286.68	3.28
287.058	2.97
287.435	2.91
287.813	2.9
288.19	3.08
288.567	3.37
288.945	3.12
289.322	2.98
289.699	2.6
290.076	3.41
290.453	3.11
290.83	2.74
291.207	2.92
291.584	2.79
291.961	3.21
292.338	3.2
292.715	3.4
293.092	3.47
293.469	3.05
293.845	3.64
294.222	2.98
294.599	3.4
294.975	3.04
295.352	3.66
295.728	2.62
296.105	3.08
296.481	3.04
296.858	3.21
297.234	3.31
297.61	3.46
297.986	3.26
298.363	3.51
298.739	3.27
299.115	3.19
299.491	3.32
299.867	3.12
300.243	3.18
300.619	2.9
300.995	3.17
301.371	3.13
301.746	2.68
302.122	3.81
302.498	3.23
302.874	2.99
303.249	3.09
303.625	3.67
304	3.49
304.376	3.53
304.751	2.63
305.127	3.92
305.502	3.28
305.878	2.72
306.253	3.24
306.628	3.83
307.003	3.42
307.378	3.6
307.754	3.65
308.129	3.08
308.504	3.55
308.879	3.22
309.254	3.9
309.629	3.67
310.003	3.59
310.378	3.82
310.753	3.49
311.128	3.31
311.502	3.17
311.877	3.68
312.252	3.04
312.626	3.53
313.001	3.2
313.375	3.84
313.75	3.57
314.124	3.48
314.498	3.64
314.873	3.44
315.247	3.51
315.621	3.35
315.995	3.32
316.369	3.26
316.743	3.13
317.117	3.37
317.491	3.53
317.865	3.62
318.239	3.85
318.613	3.82
318.987	4.22
319.361	3.02
319.734	3.53
320.108	3.61
320.482	3.79
320.855	4.41
321.229	3.36
321.602	3.29
321.976	4.32
322.349	3.02
322.723	3.57
323.096	3.58
323.469	3.04
323.843	3.83
324.216	3.74
324.589	3.56
324.962	3.82
325.335	2.92
325.708	2.94
326.081	3.36
326.454	3.63
326.827	3.82
327.2	4
327.573	4.11
327.945	3.46
328.318	3.82
328.691	3.22
329.063	3.67
329.436	3.51
329.809	3.94
330.181	3.35
330.553	3.67
330.926	4
331.298	3.65
331.671	3.89
332.043	4.24
332.415	3.86
332.787	3.53
333.159	4.36
333.532	3.74
333.904	3.68
334.276	3.99
334.648	3.81
335.02	3.29
335.391	4.08
335.763	3.63
336.135	3.44
336.507	4.18
336.879	3.4
337.25	3.54
337.622	3.43
337.993	3.75
338.365	3.81
338.736	3.61
339.108	4.05
339.479	3.6
339.851	3.6
340.222	3.7
340.593	3.62
340.964	3.2
341.336	4.62
341.707	2.83
342.078	4.02
342.449	4.21
342.82	3.32
343.191	4.01
343.562	3.61
343.933	4.08
344.303	3.73
344.674	3.37
345.045	3.5
345.416	3.97
345.786	3.3
346.157	3.98
346.527	3.75
346.898	3.37
347.268	3.59
347.639	3.83
348.009	3.59
348.38	3.59
348.75	3.83
349.12	3.43
349.49	4.35
349.861	3.71
350.231	3.26
350.601	3.67
350.971	4.01
351.341	3.71
351.711	3.78
352.081	4.04
352.45	3.25
352.82	3.95
353.19	3.67
353.56	3.38
353.929	3.51
354.299	3.83
354.669	3.29
355.038	4.04
355.408	3.6
355.777	3.91
356.147	3.76
356.516	3.72
356.885	4.09
357.254	3.58
357.624	4.14
357.993	3.75
358.362	3.55
358.731	3.46
359.1	3.9
359.469	3.9
359.838	4.08
360.207	3.53
360.576	3.5
360.945	3.62
361.314	4.09
361.682	3.6
362.051	3.9
362.42	4.13
362.788	3.86
363.157	4.1
363.525	3.83
363.894	3.9
364.262	3.79
364.631	3.8
364.999	3.99
365.367	3.44
365.735	4.27
366.104	3.74
366.472	3.94
366.84	3.78
367.208	4.1
367.576	4.22
367.944	4.06
368.312	3.77
368.68	3.58
369.048	4.11
369.416	3.72
369.783	3.71
370.151	4.08
370.519	4.1
370.886	4.32
371.254	3.83
371.621	4.02
371.989	3.87
372.356	3.56
372.724	3.94
373.091	3.53
373.458	4.03
373.826	3.78
374.193	3.76
374.56	3.86
374.927	4.11
375.294	4.18
375.661	3.89
376.028	3.75
376.395	3.67
376.762	4.37
377.129	3.93
377.496	3.78
377.863	3.79
378.229	3.62
378.596	4.04
378.963	3.95
379.329	3.86
379.696	3.98
380.062	4.02
380.429	3.92
380.795	3.9
381.161	4.04
381.528	4.15
381.894	3.86
382.26	4
382.626	4.18
382.993	3.75
383.359	4.63
383.725	4.03
384.091	3.72
384.457	4.29
384.823	4.02
385.188	3.93
385.554	4.17
385.92	4.12
386.286	4.13
386.651	4.06
387.017	4.12
387.383	3.85
387.748	4.17
388.114	4.11
388.479	3.81
388.845	4.31
389.21	3.99
389.575	4.13
389.94	4.21
390.306	4.1
390.671	4.13
391.036	3.48
391.401	3.76
391.766	4.11
392.131	3.96
392.496	4.1
392.861	3.75
393.226	4.17
393.591	4.05
393.956	4.06
394.32	4.12
394.685	4.03
395.05	3.93
395.414	4.31
395.779	3.97
396.143	4.18
396.508	4.06
396.872	4.22
397.236	4.07
397.601	3.83
397.965	4.12
398.329	4.02
398.694	4.21
399.058	4.3
399.422	3.9
399.786	4.37
400.15	4.12
400.514	4.27
400.878	4.3
401.242	4.49
401.605	4.2
401.969	4.33
402.333	4.21
402.697	4.22
403.06	4.38
403.424	4.17
403.787	4.21
404.151	4.26
404.514	4.21
404.878	4.02
405.241	4.36
405.604	4.14
405.968	4.27
406.331	4.05
406.694	4.25
407.057	4.14
407.42	4.35
407.783	4.11
408.146	4.22
408.509	4.27
408.872	3.95
409.235	4.38
409.598	4.25
409.961	4.17
410.323	4.45
410.686	4.49
411.049	4.01
411.411	4.22
411.774	4.16
412.136	4.34
412.499	4.09
412.861	4.23
413.223	4
413.586	4.04
413.948	4.15
414.31	4.29
414.672	4.07
415.035	3.89
415.397	4.44
415.759	3.97
416.121	4.41
416.483	4
416.845	4.23
417.206	4.17
417.568	4.32
417.93	4.06
418.292	4.09
418.653	4.26
419.015	4.36
419.377	4.27
419.738	4.16
420.1	4.37
420.461	4.25
420.822	4.25
421.184	4.21
421.545	4.24
421.906	4.08
422.267	4.18
422.629	4.2
422.99	4.19
423.351	4.14
423.712	4.25
424.073	4.28
424.434	4.24
424.795	4.1
425.155	4.24
425.516	4.14
425.877	4.25
426.238	4.18
426.598	4.3
426.959	4.22
427.32	4.16
427.68	4.12
428.041	4.37
428.401	4.41
428.761	4.26
429.122	4.23
429.482	4.27
429.842	4.49
430.202	4.35
430.563	4.23
430.923	4.15
431.283	4.36
431.643	4
432.003	4.47
432.363	4.21
432.722	4.35
433.082	4.37
433.442	4.53
433.802	4.33
434.161	4.29
434.521	4.35
434.881	4.57
435.24	4.26
435.6	4.29
435.959	4.3
436.319	4.4
436.678	4.3
437.037	4.5
437.396	4.36
437.756	4.51
438.115	4.47
438.474	4.51
438.833	4.3
439.192	4.29
439.551	4.47
439.91	4.28
440.269	4.29
440.628	4.31
440.987	4.33
441.345	4.37
441.704	4.36
442.063	4.25
442.421	4.38
442.78	4.27
443.138	4.31
443.497	4.56
443.855	4.33
444.214	4.41
444.572	4.58
444.93	4.41
445.288	4.44
445.647	4.61
446.005	4.48
446.363	4.43
446.721	4.42
447.079	4.42
447.437	4.3
447.795	4.29
448.153	4.3
448.51	4.36
448.868	4.42
449.226	4.3
449.584	4.29
449.941	4.47
450.299	4.56
450.656	4.41
451.014	4.41
451.371	4.25
451.729	4.4
452.086	4.7
452.443	4.46
452.801	4.52
453.158	4.53
453.515	4.33
453.872	4.64
454.229	4.34
454.586	4.43
454.943	4.56
455.3	4.65
455.657	4.48
456.014	4.52
456.371	4.56
456.727	4.61
457.084	4.66
457.441	4.49
457.797	4.37
458.154	4.69
458.51	4.65
458.867	4.61
459.223	4.6
459.58	4.71
459.936	4.67
460.292	4.53
460.648	4.38
461.005	4.5
461.361	4.58
461.717	4.53
462.073	4.43
462.429	4.48
462.785	4.48
463.141	4.54
463.496	4.69
463.852	4.77
464.208	4.51
464.564	4.55
464.919	4.64
465.275	4.8
465.631	4.57
465.986	4.55
466.342	4.57
466.697	4.43
467.052	4.71
467.408	4.8
467.763	4.63
468.118	4.79
468.473	4.56
468.829	4.79
469.184	4.53
469.539	4.66
469.894	4.65
470.249	4.75
470.603	4.73
470.958	4.55
471.313	4.85
471.668	4.67
472.023	4.83
472.377	4.58
472.732	4.64
473.086	4.58
473.441	4.64
473.795	4.96
474.15	4.68
474.504	4.49
474.859	4.69
475.213	4.5
475.567	4.71
475.921	4.63
476.275	4.64
476.63	4.79
476.984	4.87
477.338	4.8
477.692	4.71
478.045	4.85
478.399	4.68
478.753	4.74
479.107	4.65
479.461	4.53
479.814	4.6
480.168	4.67
480.521	4.61
480.875	4.6
481.228	4.69
481.582	4.78
481.935	4.82
482.289	4.81
482.642	4.68
482.995	4.67
483.348	4.6
483.701	4.71
484.055	4.68
484.408	4.72
484.761	4.65
485.114	4.6
485.466	4.43
485.819	4.43
486.172	4.43
486.525	4.5
486.878	4.56
487.23	4.6
487.583	4.63
487.936	4.68
488.288	4.66
488.641	4.68
488.993	4.54
489.345	4.52
489.698	4.58
490.05	4.55
490.402	4.66
490.754	4.66
491.107	4.68
491.459	4.85
491.811	4.8
492.163	4.79
492.515	4.77
492.866	4.8
493.218	4.71
493.57	4.65
493.922	4.66
494.274	4.76
494.625	4.8
494.977	4.85
495.328	4.94
495.68	4.87
496.031	4.95
496.383	4.88
496.734	4.88
497.086	4.96
497.437	4.85
497.788	4.85
498.139	4.78
498.49	5.03
498.842	4.89
499.193	4.84
499.544	4.89
499.894	5.02
500.245	5.04
500.596	4.87
500.947	4.92
501.298	4.9
501.648	4.93
501.999	4.97
502.35	4.84
502.7	5.03
503.051	4.9
503.401	4.96
503.752	5.22
504.102	5.02
504.452	5.09
504.803	4.95
505.153	4.98
505.503	5.03
505.853	4.9
506.203	5.09
506.553	5
506.903	5.02
507.253	5.12
507.603	5.01
507.953	5.16
508.303	5.17
508.652	4.87
509.002	5.18
509.352	5.18
509.701	5.01
510.051	5.03
510.4	4.97
510.75	5.05
511.099	5.01
511.449	4.93
511.798	5.03
512.147	5.14
512.496	4.97
512.846	5.13
513.195	5.16
513.544	5.16
513.893	5.17
514.242	5.05
514.591	5.3
514.939	5.2
515.288	5.09
515.637	5.28
515.986	5.27
516.334	5.14
516.683	5.31
517.032	5.28
517.38	5.28
517.729	5.25
518.077	5.11
518.426	5.3
518.774	5.31
519.122	5.18
519.47	5.22
519.819	5.17
520.167	5.19
520.515	5.17
520.863	5.33
521.211	5.3
521.559	5.24
521.907	5.26
522.255	5.3
522.602	5.36
522.95	5.43
523.298	5.35
523.645	5.37
523.993	5.4
524.341	5.51
524.688	5.43
525.036	5.33
525.383	5.55
525.73	5.47
526.078	5.47
526.425	5.46
526.772	5.49
527.119	5.3
527.466	5.44
527.814	5.45
528.161	5.38
528.508	5.44
528.854	5.37
529.201	5.33
529.548	5.31
529.895	5.32
530.242	5.26
530.588	5.28
530.935	5.31
531.282	5.3
531.628	5.36
531.975	5.45
532.321	5.54
532.667	5.45
533.014	5.59
533.36	5.56
533.706	5.61
534.052	5.49
534.399	5.4
534.745	5.48
535.091	5.55
535.437	5.43
535.783	5.53
536.129	5.6
536.474	5.59
536.82	5.61
537.166	5.73
537.512	5.76
537.857	5.72
538.203	5.7
538.549	5.65
538.894	5.66
539.239	5.77
539.585	5.73
539.93	5.73
540.276	5.96
540.621	5.85
540.966	5.79
541.311	5.84
541.656	5.88
542.001	5.88
542.346	5.95
542.691	5.77
543.036	5.76
543.381	5.65
543.726	5.67
544.071	5.77
544.415	5.86
544.76	5.77
545.105	5.88
545.449	5.97
545.794	5.94
546.138	5.96
546.483	6.06
546.827	6.1
547.171	5.96
547.516	6.27
547.86	5.87
548.204	6.04
548.548	6.02
548.892	6.13
549.236	5.97
549.58	6.16
549.924	6.04
550.268	6.2
550.612	6.18
550.956	6.45
551.3	6.2
551.643	6.38
551.987	6.37
552.33	6.28
552.674	6.39
553.017	6.23
553.361	6.24
553.704	6.36
554.048	6.4
554.391	6.38
554.734	6.39
555.077	6.49
555.42	6.27
555.764	6.35
556.107	6.35
556.45	6.39
556.793	6.44
557.135	6.53
557.478	6.64
557.821	6.61
558.164	6.54
558.507	6.59
558.849	6.62
559.192	6.58
559.534	6.6
559.877	6.62
560.219	6.35
560.562	6.93
560.904	6.65
561.246	6.87
561.589	6.9
561.931	6.89
562.273	6.64
562.615	6.8
562.957	6.8
563.299	6.75
563.641	6.76
563.983	7.07
564.325	6.8
564.667	6.84
565.008	6.97
565.35	6.99
565.692	6.81
566.033	6.86
566.375	7.12
566.716	7.14
567.058	7.03
567.399	7
567.741	6.87
568.082	7.1
568.423	7.01
568.764	6.86
569.105	7.18
569.447	7.25
569.788	7.15
570.129	7.15
570.47	7.29
570.811	7.33
571.151	7.35
571.492	7.34
571.833	7.34
572.174	7.27
572.514	7.31
572.855	7.41
573.195	7.32
573.536	7.44
573.876	7.31
574.217	7.31
574.557	7.4
574.898	7.62
575.238	7.47
575.578	7.31
575.918	7.61
576.258	7.61
576.598	7.74
576.938	7.53
577.278	7.77
577.618	7.52
577.958	7.57
578.298	7.62
578.638	7.65
578.977	7.71
579.317	7.64
579.657	7.77
579.996	7.64
580.336	7.79
580.675	7.72
581.014	8.05
581.354	7.85
581.693	7.89
582.032	7.84
582.372	7.82
582.711	8.03
583.05	7.82
583.389	8.04
583.728	7.78
584.067	8.52
584.406	7.97
584.745	8.21
585.083	8.13
585.422	8.28
585.761	8.16
586.1	8.23
586.438	8.09
586.777	8.26
587.115	8.43
587.454	8.18
587.792	8.21
588.13	8.6
588.469	8.38
588.807	8.13
589.145	8.26
589.483	8.5
589.821	8.61
590.159	8.56
590.497	8.84
590.835	8.85
591.173	8.35
591.511	8.85
591.849	8.78
592.187	8.54
592.524	8.68
592.862	8.8
593.2	8.85
593.537	8.87
593.875	8.51
594.212	8.7
594.55	8.76
594.887	9
595.224	8.97
595.561	8.75
595.899	8.7
596.236	8.78
596.573	9.27
596.91	8.53
597.247	8.78
597.584	9.39
597.921	9.03
598.258	9.05
598.594	9.09
598.931	9.15
599.268	9.14
599.604	8.96
599.941	9.15
600.277	9.05
600.614	9.17
600.95	9.06
601.287	9.24
601.623	9.41
601.959	9.44
602.296	9.32
602.632	9.34
602.968	9.35
603.304	9.62
603.64	9.5
603.976	9.54
604.312	9.21
604.648	9.6
604.984	9.69
605.319	9.62
605.655	9.64
605.991	9.7
606.326	9.65
606.662	9.64
606.998	9.61
607.333	9.71
607.668	9.66
608.004	9.85
608.339	9.98
608.674	9.9
609.01	9.79
609.345	9.82
609.68	9.83
610.015	9.94
610.35	10.1
610.685	10.01
611.02	9.89
611.355	10.17
611.689	10.21
612.024	9.97
612.359	10.14
612.694	10.06
613.028	9.84
613.363	10.37
613.697	10.36
614.032	10.55
614.366	10.32
614.7	10.57
615.035	10.34
615.369	10.48
615.703	10.57
616.037	10.22
616.371	10.17
616.705	10.24
617.039	10.51
617.373	10.41
617.707	10.47
618.041	10.38
618.375	10.8
618.709	10.87
619.042	10.26
619.376	11.02
619.71	10.89
620.043	10.94
620.377	10.65
620.71	11.33
621.043	11.07
621.377	10.94
621.71	10.7
622.043	10.52
622.376	10.86
622.709	10.61
623.043	11.18
623.376	11.34
623.709	10.88
624.041	11.67
624.374	11.11
624.707	11.11
625.04	11.69
625.373	10.88
625.705	11.44
626.038	11.49
626.37	11.41
626.703	11.35
627.035	11.5
627.368	11.78
627.7	11.49
628.032	11.5
628.365	11.6
628.697	11.56
629.029	11.58
629.361	11.48
629.693	11.84
630.025	11.57
630.357	12.02
630.689	11.58
631.021	11.61
631.353	11.83
631.684	11.77
632.016	11.74
632.348	11.94
632.679	11.96
633.011	11.89
633.342	12.09
633.674	11.68
634.005	12.23
634.336	11.79
634.668	12.56
634.999	11.8
635.33	12.35
635.661	12.51
635.992	12.12
636.323	12.34
636.654	12.4
636.985	12.43
637.316	12.1
637.647	12.14
637.977	12.54
638.308	12.06
638.639	12.29
638.969	12.41
639.3	12.36
639.63	12.12
639.961	12.63
640.291	12.69
640.622	12.85
640.952	12.5
641.282	13.07
641.612	12.69
641.943	12.13
642.273	12.7
642.603	13.03
642.933	12.99
643.263	12.57
643.592	12.47
643.922	13.37
644.252	13.3
644.582	12.84
644.911	12.69
645.241	12.83
645.571	13.18
645.9	12.66
646.23	12.7
646.559	13.31
646.888	12.87
647.218	12.82
647.547	13.42
647.876	13.26
648.205	12.98
648.534	13.01
648.863	12.83
649.192	13.15
649.521	13.19
649.85	13.35
650.179	13.34
650.508	13.45
650.837	12.94
651.165	13.49
651.494	13.62
651.822	13.57
652.151	13.02
652.479	13.67
652.808	13.64
653.136	13.58
653.465	13.04
653.793	13.5
654.121	13.38
654.449	14.23
654.777	14.14
655.105	13.99
655.433	14
655.761	14.25
656.089	14.28
656.417	14.21
656.745	13.78
657.073	13.39
657.4	14.72
657.728	14.17
658.056	14.27
658.383	13.78
658.711	14.12
659.038	14.15
659.365	14.44
659.693	14.23
660.02	14.24
660.347	14.21
660.674	14.45
661.001	14.89
661.329	13.91
661.656	14.54
661.982	14.39
662.309	14.3
662.636	14.3
662.963	14.66
663.29	14.64
663.616	14.6
663.943	13.66
664.27	14.92
664.596	15.05
664.923	15.1
665.249	14.59
665.576	14.86
665.902	15.62
666.228	14.76
666.554	15.18
666.881	15.32
667.207	15.49
667.533	15.45
667.859	15.5
668.185	15.45
668.511	15.12
668.837	14.56
669.162	14.85
669.488	14.92
669.814	15.74
670.139	15.16
670.465	15.7
670.791	14.98
671.116	16.02
671.442	15.13
671.767	15.78
672.092	15.9
672.418	15.42
672.743	15.84
673.068	15.13
673.393	15.36
673.718	15.75
674.043	15.8
674.368	15.45
674.693	16.15
675.018	15.32
675.343	15.81
675.667	15.51
675.992	16.47
676.317	15.78
676.641	15.98
676.966	16.11
677.29	15.79
677.615	16.86
677.939	16.61
678.264	15.97
678.588	16.43
678.912	16.37
679.236	16.53
679.56	15.66
679.885	16.65
680.209	16.45
680.532	16.28
680.856	17.16
681.18	15.85
681.504	16.16
681.828	16.7
682.152	16.11
682.475	16.31
682.799	16.15
683.122	16.56
683.446	15.94
683.769	16.57
684.093	16.53
684.416	17.03
684.739	16.64
685.062	16.8
685.386	17.3
685.709	16.6
686.032	16.24
686.355	17.44
686.678	16.99
687.001	17.16
687.324	17.02
