Data from 0205_forehead_Reflection__0__288.txt Node

Date: Fri Dec 15 18:48:35 CST 2023
User: ToomeyLab
Spectrometer: FLMS14357
Trigger mode: 0
Integration Time (sec): 1.000000E-2
Scans to average: 100
Electric dark correction enabled: true
Nonlinearity correction enabled: false
Boxcar width: 0
XAxis mode: Wavelengths
Number of Pixels in Spectrum: 2048
>>>>>Begin Spectral Data<<<<<
189.047	-46.14
189.435	-46.14
189.823	-46.14
190.211	-102.59
190.599	-66.34
190.987	2.99
191.375	180.31
191.763	13.68
192.151	67.43
192.538	70.76
192.926	-77.54
193.314	1634.67
193.702	175.6
194.089	-50.04
194.477	35.08
194.864	-69.74
195.252	81.98
195.639	129.65
196.027	345.17
196.414	-3100.81
196.801	-61.43
197.189	53.84
197.576	111
197.963	-441.46
198.351	-98.73
198.738	7.3
199.125	52.41
199.512	-0.06
199.899	34.43
200.286	67.85
200.673	11.85
201.06	-9.62
201.447	14.53
201.833	20.17
202.22	25.19
202.607	39.86
202.994	3.95
203.38	62.14
203.767	31.28
204.154	6.79
204.54	51.04
204.927	60.71
205.313	-78.71
205.699	41.77
206.086	44.56
206.472	15.27
206.858	52.02
207.245	-30.74
207.631	23.42
208.017	55.37
208.403	26.15
208.789	29.01
209.175	52.11
209.561	19.2
209.947	40.45
210.333	29.4
210.719	50.1
211.105	41.13
211.491	-2.6
211.876	25.7
212.262	41.58
212.648	38.2
213.034	28.55
213.419	16.28
213.805	1.21
214.19	25.13
214.576	0.77
214.961	0.66
215.346	-55.71
215.732	48.55
216.117	26.45
216.502	6.48
216.888	55.32
217.273	15.42
217.658	-0.06
218.043	19.06
218.428	-25.14
218.813	-1.65
219.198	-36.69
219.583	36.37
219.968	15.79
220.353	34.35
220.738	35.76
221.122	31.4
221.507	5.15
221.892	-29.55
222.276	-25.27
222.661	13.24
223.046	-3.76
223.43	7.58
223.815	20.54
224.199	-17.01
224.583	1.61
224.968	-0.15
225.352	14.27
225.736	-0.42
226.121	-3.16
226.505	1.77
226.889	8.78
227.273	5.03
227.657	11.36
228.041	1.78
228.425	4.58
228.809	3.99
229.193	3.25
229.577	4.15
229.961	3.2
230.344	3.1
230.728	2.48
231.112	2.69
231.495	2.44
231.879	2.45
232.263	4.3
232.646	3.55
233.03	2.59
233.413	1.71
233.797	4.3
234.18	3.33
234.563	3.98
234.946	2.87
235.33	3.65
235.713	2.84
236.096	2.88
236.479	3.78
236.862	2.02
237.245	4.94
237.628	2.26
238.011	3.03
238.394	2.84
238.777	2.79
239.16	2.42
239.543	2.76
239.925	4.47
240.308	2.49
240.691	2.38
241.073	5.74
241.456	2.65
241.838	2.99
242.221	1.96
242.603	2.37
242.986	2.35
243.368	3.43
243.75	3.17
244.133	2.72
244.515	3.21
244.897	2.92
245.279	3.21
245.661	2.12
246.043	2.12
246.425	2.38
246.807	4.78
247.189	3.25
247.571	2.94
247.953	3.28
248.335	2.65
248.717	2.94
249.098	2.77
249.48	2.79
249.862	2.67
250.243	2.97
250.625	3.1
251.006	3.51
251.388	1.85
251.769	3.09
252.151	3.99
252.532	3.96
252.913	2.53
253.295	2.96
253.676	2.44
254.057	3.37
254.438	2.67
254.819	3.08
255.2	2.55
255.581	3.51
255.962	3.94
256.343	3.15
256.724	3.26
257.105	2.63
257.486	2.18
257.867	3.87
258.247	3.36
258.628	2.89
259.009	2.91
259.389	3.08
259.77	2.95
260.15	2.75
260.531	2.58
260.911	3.28
261.292	2.89
261.672	3.09
262.052	3.01
262.432	3.02
262.813	3.09
263.193	3.38
263.573	2.87
263.953	3.32
264.333	3.23
264.713	3.27
265.093	2.77
265.473	2.75
265.853	2.52
266.233	3.95
266.612	2.75
266.992	2.28
267.372	3.51
267.752	2.89
268.131	2.67
268.511	3.56
268.89	3.5
269.27	3.29
269.649	2.03
270.029	2.68
270.408	4.17
270.787	3.5
271.167	3.59
271.546	3.39
271.925	3.09
272.304	3.27
272.683	2.98
273.062	2.95
273.441	3.06
273.82	2.56
274.199	2.71
274.578	3.33
274.957	3.25
275.336	3.32
275.715	3.32
276.093	3.49
276.472	3.28
276.851	3.22
277.229	2.8
277.608	2.62
277.986	3.83
278.365	3.12
278.743	2.78
279.122	3.29
279.5	3.26
279.878	3.63
280.257	2.99
280.635	2.51
281.013	4.03
281.391	4.05
281.769	3.45
282.147	3
282.525	3.7
282.903	2.86
283.281	3.3
283.659	3.87
284.037	3.38
284.415	3.63
284.792	3.58
285.17	2.46
285.548	3.09
285.925	2.81
286.303	2.72
286.68	3.2
287.058	2.98
287.435	3.35
287.813	3.11
288.19	3.15
288.567	3.23
288.945	3.87
289.322	3.55
289.699	3.67
290.076	3.69
290.453	3.12
290.83	2.91
291.207	3.41
291.584	3.63
291.961	3.82
292.338	3.78
292.715	3.95
293.092	3.34
293.469	3.77
293.845	4.42
294.222	3.68
294.599	3.8
294.975	3.47
295.352	4.19
295.728	3.5
296.105	3.76
296.481	4.22
296.858	3.99
297.234	3.66
297.61	3.73
297.986	3.92
298.363	4.44
298.739	4.11
299.115	3.97
299.491	4.09
299.867	4.36
300.243	4.24
300.619	4.06
300.995	4.26
301.371	4.09
301.746	4.22
302.122	4.69
302.498	4.48
302.874	4.87
303.249	4.65
303.625	4.56
304	4.47
304.376	4.73
304.751	4.05
305.127	4.67
305.502	4.43
305.878	3.9
306.253	4.48
306.628	5.77
307.003	5.03
307.378	5.4
307.754	4.73
308.129	4.56
308.504	5.29
308.879	4.39
309.254	5.97
309.629	5.43
310.003	5.64
310.378	5.84
310.753	5.77
311.128	5.6
311.502	5.7
311.877	6.22
312.252	5.24
312.626	5.6
313.001	5.29
313.375	5.86
313.75	5.62
314.124	6.44
314.498	6.28
314.873	6.2
315.247	6.33
315.621	6.06
315.995	5.44
316.369	5.86
316.743	6.72
317.117	6.63
317.491	6.4
317.865	6.71
318.239	6.81
318.613	6.22
318.987	7.08
319.361	6.08
319.734	7.02
320.108	6.67
320.482	6.67
320.855	6.84
321.229	6.49
321.602	7.2
321.976	7.36
322.349	6.44
322.723	6.84
323.096	7.75
323.469	7
323.843	7.31
324.216	7.31
324.589	7.02
324.962	7.62
325.335	6.9
325.708	7.19
326.081	7.31
326.454	7.19
326.827	7.65
327.2	7.7
327.573	7.66
327.945	7.98
328.318	7.42
328.691	6.95
329.063	7.93
329.436	7.63
329.809	8.1
330.181	7.6
330.553	7.31
330.926	8.19
331.298	8.11
331.671	8.02
332.043	8.91
332.415	8.2
332.787	8.05
333.159	8.71
333.532	8.61
333.904	8.49
334.276	8.08
334.648	8.08
335.02	8.14
335.391	8.17
335.763	7.8
336.135	8.61
336.507	8.81
336.879	8.9
337.25	8.29
337.622	8.71
337.993	8.91
338.365	9.45
338.736	9.15
339.108	9.11
339.479	8.29
339.851	8.81
340.222	8.93
340.593	8.67
340.964	8.6
341.336	9.93
341.707	9.17
342.078	9.55
342.449	9.07
342.82	9.36
343.191	9.41
343.562	9.38
343.933	9.9
344.303	9.59
344.674	9.75
345.045	9.74
345.416	10.12
345.786	9.2
346.157	9.89
346.527	9.32
346.898	9.22
347.268	9.79
347.639	9.68
348.009	10.02
348.38	9.45
348.75	9.96
349.12	10.08
349.49	10.32
349.861	9.94
350.231	9.49
350.601	10.78
350.971	10.57
351.341	10.51
351.711	10.17
352.081	10.32
352.45	9.95
352.82	10.33
353.19	10.14
353.56	10.35
353.929	10.34
354.299	10.52
354.669	10.63
355.038	10.86
355.408	10.44
355.777	11.08
356.147	10.95
356.516	10.95
356.885	10.9
357.254	10.96
357.624	11.37
357.993	11.21
358.362	10.85
358.731	10.99
359.1	10.72
359.469	11.33
359.838	11.12
360.207	11.29
360.576	11.06
360.945	11.34
361.314	11.59
361.682	11.24
362.051	10.93
362.42	11.44
362.788	11.58
363.157	11.59
363.525	11.53
363.894	11.72
364.262	11.63
364.631	11.8
364.999	11.74
365.367	11.59
365.735	12.47
366.104	12.08
366.472	11.67
366.84	11.71
367.208	12.06
367.576	12.16
367.944	12.39
368.312	12.13
368.68	12.03
369.048	12.27
369.416	12.22
369.783	12.06
370.151	12.52
370.519	12.75
370.886	12.72
371.254	12.14
371.621	12.58
371.989	12.78
372.356	12.53
372.724	12.97
373.091	12.56
373.458	12.65
373.826	12.83
374.193	12.74
374.56	13.04
374.927	13.32
375.294	13.21
375.661	13.07
376.028	13.2
376.395	13.2
376.762	13.46
377.129	12.93
377.496	13.24
377.863	13.35
378.229	13.08
378.596	13.44
378.963	13.41
379.329	13.18
379.696	13.91
380.062	13.54
380.429	13.67
380.795	13.32
381.161	13.5
381.528	13.81
381.894	13.72
382.26	13.61
382.626	13.98
382.993	13.78
383.359	14.14
383.725	13.72
384.091	14.33
384.457	14.43
384.823	14.03
385.188	14.09
385.554	13.99
385.92	14.36
386.286	14.63
386.651	14.64
387.017	14.59
387.383	14.23
387.748	14.46
388.114	14.77
388.479	14.67
388.845	14.86
389.21	14.46
389.575	14.61
389.94	14.83
390.306	14.74
390.671	15.54
391.036	14.72
391.401	14.87
391.766	15.09
392.131	14.99
392.496	15.54
392.861	15.07
393.226	15.59
393.591	15.35
393.956	15.19
394.32	15.38
394.685	15.25
395.05	15.18
395.414	15.25
395.779	15.24
396.143	15.4
396.508	15.66
396.872	15.59
397.236	15.83
397.601	15.63
397.965	16.08
398.329	16.03
398.694	16.06
399.058	16.09
399.422	16.12
399.786	16.21
400.15	16.31
400.514	16.34
400.878	16.11
401.242	16.44
401.605	16.32
401.969	16.42
402.333	16.46
402.697	16.39
403.06	16.79
403.424	16.64
403.787	16.77
404.151	16.99
404.514	16.55
404.878	16.87
405.241	17.09
405.604	16.91
405.968	16.94
406.331	16.68
406.694	17
407.057	16.85
407.42	17.13
407.783	17.15
408.146	17.11
408.509	16.94
408.872	16.91
409.235	17.48
409.598	17.5
409.961	17.46
410.323	17.77
410.686	17.38
411.049	17.36
411.411	17.68
411.774	17.36
412.136	17.64
412.499	17.38
412.861	17.66
413.223	17.74
413.586	17.94
413.948	17.59
414.31	18.09
414.672	18.23
415.035	18.2
415.397	18.37
415.759	17.95
416.121	18.27
416.483	18.1
416.845	18.28
417.206	18.24
417.568	18.47
417.93	18.1
418.292	18.25
418.653	18.33
419.015	18.54
419.377	18.29
419.738	18.4
420.1	18.28
420.461	18.49
420.822	18.53
421.184	18.34
421.545	18.57
421.906	18.51
422.267	18.51
422.629	18.5
422.99	18.4
423.351	18.34
423.712	18.58
424.073	18.78
424.434	18.91
424.795	19.01
425.155	18.79
425.516	18.84
425.877	18.78
426.238	18.82
426.598	19.03
426.959	19.07
427.32	19.23
427.68	19.32
428.041	19.59
428.401	19.68
428.761	19.39
429.122	19.51
429.482	19.67
429.842	19.86
430.202	19.85
430.563	20.04
430.923	19.96
431.283	20
431.643	19.91
432.003	19.85
432.363	20.29
432.722	19.98
433.082	20.11
433.442	20.14
433.802	20.13
434.161	20.08
434.521	20.49
434.881	20.22
435.24	20.22
435.6	20.42
435.959	20.46
436.319	20.64
436.678	20.59
437.037	20.56
437.396	20.86
437.756	20.79
438.115	20.95
438.474	20.98
438.833	20.92
439.192	20.92
439.551	20.99
439.91	20.87
440.269	20.94
440.628	20.94
440.987	21.06
441.345	20.94
441.704	21.05
442.063	21.11
442.421	21.24
442.78	21.14
443.138	21.31
443.497	21.39
443.855	21.51
444.214	21.6
444.572	21.82
444.93	21.68
445.288	21.97
445.647	21.91
446.005	21.66
446.363	21.76
446.721	21.84
447.079	21.64
447.437	21.72
447.795	21.84
448.153	21.83
448.51	21.73
448.868	21.98
449.226	22.03
449.584	21.95
449.941	22.28
450.299	22.24
450.656	22.35
451.014	22.55
451.371	22.53
451.729	22.63
452.086	22.84
452.443	22.87
452.801	22.9
453.158	22.76
453.515	22.71
453.872	22.8
454.229	22.74
454.586	22.97
454.943	23.1
455.3	23.16
455.657	23.12
456.014	23.27
456.371	23.22
456.727	23.54
457.084	23.67
457.441	23.4
457.797	23.57
458.154	23.81
458.51	23.87
458.867	23.67
459.223	23.78
459.58	23.79
459.936	23.74
460.292	23.87
460.648	23.68
461.005	23.49
461.361	23.48
461.717	23.39
462.073	23.42
462.429	23.82
462.785	24.11
463.141	24.02
463.496	24.34
463.852	24.43
464.208	24.46
464.564	24.54
464.919	24.43
465.275	24.79
465.631	24.8
465.986	24.64
466.342	24.61
466.697	24.82
467.052	24.87
467.408	24.88
467.763	24.89
468.118	25.05
468.473	24.93
468.829	25.12
469.184	25.01
469.539	25.05
469.894	25.08
470.249	25.58
470.603	25.59
470.958	25.37
471.313	25.48
471.668	25.7
472.023	25.53
472.377	25.51
472.732	25.8
473.086	25.68
473.441	25.67
473.795	25.91
474.15	25.87
474.504	26.15
474.859	25.86
475.213	25.72
475.567	26.16
475.921	26.05
476.275	26.15
476.63	26.41
476.984	26.27
477.338	26.31
477.692	26.25
478.045	26.1
478.399	26.15
478.753	26.39
479.107	26.53
479.461	26.44
479.814	26.38
480.168	26.54
480.521	26.5
480.875	26.61
481.228	26.83
481.582	26.78
481.935	26.79
482.289	26.81
482.642	26.85
482.995	26.64
483.348	26.56
483.701	26.6
484.055	26.79
484.408	26.31
484.761	26.22
485.114	25.8
485.466	25.35
485.819	25.51
486.172	25.8
486.525	26.39
486.878	26.65
487.23	26.81
487.583	26.94
487.936	26.94
488.288	26.93
488.641	26.59
488.993	26.35
489.345	26.29
489.698	26.42
490.05	26.6
490.402	26.89
490.754	27.17
491.107	27.5
491.459	27.74
491.811	27.75
492.163	27.75
492.515	27.59
492.866	27.47
493.218	26.99
493.57	26.94
493.922	27.13
494.274	27.73
494.625	28.02
494.977	28.36
495.328	28.58
495.68	28.75
496.031	28.77
496.383	28.9
496.734	29
497.086	28.87
497.437	29.11
497.788	28.95
498.139	28.75
498.49	28.88
498.842	28.58
499.193	28.92
499.544	28.95
499.894	29.16
500.245	29.18
500.596	29.2
500.947	29.3
501.298	29.34
501.648	29.64
501.999	29.84
502.35	29.77
502.7	29.66
503.051	29.74
503.401	30.08
503.752	29.96
504.102	29.99
504.452	30.02
504.803	29.86
505.153	30.16
505.503	30.24
505.853	30.14
506.203	30.08
506.553	30.08
506.903	30.24
507.253	30.42
507.603	30.4
507.953	30.72
508.303	30.64
508.652	30.5
509.002	30.47
509.352	30.84
509.701	30.71
510.051	30.68
510.4	30.6
510.75	30.54
511.099	30.74
511.449	30.7
511.798	30.66
512.147	30.86
512.496	30.82
512.846	30.97
513.195	30.95
513.544	30.94
513.893	31.05
514.242	30.9
514.591	31.32
514.939	31.35
515.288	31.28
515.637	31.56
515.986	31.48
516.334	31.63
516.683	31.73
517.032	31.5
517.38	31.83
517.729	31.9
518.077	31.79
518.426	31.81
518.774	31.95
519.122	31.65
519.47	31.61
519.819	31.59
520.167	31.36
520.515	31.3
520.863	31.66
521.211	31.75
521.559	32.06
521.907	31.96
522.255	32.3
522.602	32.36
522.95	32.45
523.298	32.57
523.645	32.56
523.993	32.71
524.341	32.85
524.688	32.89
525.036	32.83
525.383	32.78
525.73	32.94
526.078	32.77
526.425	32.71
526.772	32.82
527.119	32.29
527.466	32.18
527.814	32.36
528.161	32.49
528.508	32.65
528.854	32.81
529.201	32.6
529.548	32.45
529.895	32.03
530.242	31.6
530.588	31.54
530.935	32.07
531.282	32.42
531.628	32.74
531.975	33.2
532.321	33.2
532.667	33.41
533.014	33.29
533.36	33.58
533.706	33.45
534.052	33.37
534.399	33.35
534.745	32.9
535.091	32.76
535.437	32.89
535.783	33.14
536.129	33.55
536.474	33.93
536.82	34.16
537.166	34.29
537.512	34.2
537.857	34.25
538.203	34.03
538.549	33.88
538.894	33.82
539.239	34.23
539.585	34.48
539.93	34.72
540.276	34.82
540.621	35.06
540.966	34.84
541.311	34.79
541.656	34.79
542.001	34.61
542.346	34.64
542.691	34.08
543.036	33.71
543.381	33.61
543.726	34.09
544.071	34.57
544.415	34.88
544.76	35.03
545.105	34.97
545.449	34.93
545.794	35.22
546.138	35.61
546.483	35.74
546.827	35.72
547.171	35.67
547.516	35.66
547.86	35.57
548.204	35.73
548.548	35.57
548.892	35.73
549.236	35.55
549.58	36.04
549.924	36.2
550.268	36.44
550.612	36.32
550.956	36.69
551.3	36.64
551.643	36.97
551.987	36.96
552.33	37.03
552.674	36.9
553.017	37.09
553.361	37.04
553.704	36.96
554.048	36.84
554.391	36.75
554.734	36.91
555.077	36.89
555.42	37.02
555.764	37.22
556.107	37.52
556.45	37.42
556.793	37.58
557.135	37.66
557.478	37.61
557.821	37.69
558.164	37.69
558.507	37.9
558.849	37.92
559.192	37.88
559.534	38.16
559.877	38.12
560.219	37.92
560.562	38.38
560.904	38.59
561.246	37.99
561.589	38.45
561.931	38.36
562.273	38.25
562.615	38.34
562.957	38.55
563.299	38.4
563.641	38.26
563.983	38.74
564.325	38.6
564.667	38.75
565.008	38.7
565.35	38.84
565.692	38.97
566.033	39.08
566.375	39.15
566.716	38.91
567.058	38.75
567.399	38.68
567.741	38.82
568.082	38.71
568.423	38.7
568.764	38.82
569.105	39.01
569.447	39.24
569.788	39.32
570.129	39.51
570.47	39.55
570.811	39.54
571.151	39.71
571.492	39.71
571.833	39.84
572.174	39.42
572.514	39.65
572.855	39.46
573.195	39.41
573.536	39.67
573.876	39.43
574.217	39.29
574.557	39.79
574.898	39.77
575.238	40.03
575.578	39.77
575.918	40.08
576.258	39.94
576.598	40
576.938	39.85
577.278	40.23
577.618	40.16
577.958	40.04
578.298	40.57
578.638	40.3
578.977	40.57
579.317	40.67
579.657	40.89
579.996	41
580.336	41.26
580.675	41.11
581.014	41.26
581.354	41.33
581.693	41.44
582.032	41.53
582.372	41.47
582.711	41.72
583.05	41.36
583.389	41.39
583.728	41.5
584.067	41.54
584.406	41.68
584.745	41.94
585.083	42.16
585.422	41.91
585.761	41.91
586.1	42.04
586.438	42.18
586.777	42.02
587.115	42.14
587.454	42.05
587.792	42.25
588.13	42.31
588.469	41.92
588.807	42.41
589.145	42.34
589.483	42.55
589.821	42.09
590.159	42.49
590.497	42.75
590.835	42.5
591.173	42.29
591.511	42.88
591.849	42.89
592.187	42.8
592.524	42.73
592.862	42.52
593.2	42.71
593.537	42.9
593.875	43.07
594.212	43.11
594.55	43.13
594.887	43.26
595.224	43.3
595.561	43.24
595.899	42.96
596.236	43.1
596.573	43.31
596.91	42.8
597.247	43.21
597.584	43.6
597.921	43.58
598.258	42.94
598.594	42.99
598.931	42.65
599.268	43.01
599.604	43.53
599.941	43.62
600.277	43.42
600.614	43.87
600.95	43.99
601.287	43.91
601.623	43.81
601.959	43.87
602.296	43.89
602.632	44.21
602.968	44.43
603.304	44.34
603.64	43.87
603.976	44.34
604.312	44.29
604.648	43.93
604.984	44.59
605.319	44.02
605.655	44.17
605.991	44.14
606.326	44.11
606.662	43.76
606.998	43.8
607.333	43.95
607.668	44.41
608.004	44.69
608.339	44.85
608.674	44.79
609.01	45
609.345	44.83
609.68	44.74
610.015	44.72
610.35	44.86
610.685	45.1
611.02	44.9
611.355	44.64
611.689	44.88
612.024	44.88
612.359	44.88
612.694	45.14
613.028	45.39
613.363	45.43
613.697	45.93
614.032	45.85
614.366	45.69
614.7	45.36
615.035	45.82
615.369	45.98
615.703	45.85
616.037	45.58
616.371	45.85
616.705	45.95
617.039	46.16
617.373	45.8
617.707	46.01
618.041	46.09
618.375	46.33
618.709	46.52
619.042	46.32
619.376	46.48
619.71	46.43
620.043	46.39
620.377	46.77
620.71	46.75
621.043	46.81
621.377	46.55
621.71	46.63
622.043	46.14
622.376	46.87
622.709	46.89
623.043	46.99
623.376	46.91
623.709	46.51
624.041	47.26
624.374	46.81
624.707	47.25
625.04	47.13
625.373	46.49
625.705	47.51
626.038	46.9
626.37	47.29
626.703	47.17
627.035	47.6
627.368	47.86
627.7	47.02
628.032	47.32
628.365	47.62
628.697	47.06
629.029	47.23
629.361	47.21
629.693	47.52
630.025	47.62
630.357	47.78
630.689	47.54
631.021	48.14
631.353	48.19
631.684	47.52
632.016	47.87
632.348	48.21
632.679	48.28
633.011	47.93
633.342	48.29
633.674	48.11
634.005	48.56
634.336	47.76
634.668	48.47
634.999	47.86
635.33	48.11
635.661	48.61
635.992	48.29
636.323	48.17
636.654	48.47
636.985	48.29
637.316	48.34
637.647	48.48
637.977	48.92
638.308	48.6
638.639	48.5
638.969	48.34
639.3	48.52
639.63	48.34
639.961	48.79
640.291	49.2
640.622	49.19
640.952	49.33
641.282	49.55
641.612	49.15
641.943	48.9
642.273	48.8
642.603	49.62
642.933	49.55
643.263	49.14
643.592	49.07
643.922	48.86
644.252	49.66
644.582	50.03
644.911	49.2
645.241	49.25
645.571	49.4
645.9	49.28
646.23	49.62
646.559	49.94
646.888	49.73
647.218	49.67
647.547	50.02
647.876	50
648.205	49.77
648.534	49.89
648.863	49.98
649.192	50.14
649.521	50.01
649.85	49.85
650.179	50.05
650.508	49.89
650.837	50.56
651.165	49.89
651.494	50.94
651.822	50.05
652.151	50.07
652.479	49.8
652.808	49.95
653.136	51.18
653.465	50.01
653.793	50.12
654.121	50.12
654.449	50.32
654.777	50.86
655.105	50.65
655.433	50.47
655.761	50.09
656.089	50.58
656.417	51.32
656.745	50.63
657.073	50.88
657.4	51.55
657.728	50.88
658.056	50.86
658.383	51.18
658.711	50.86
659.038	50.83
659.365	51.38
659.693	50.89
660.02	50.52
660.347	51.16
660.674	50.09
661.001	50.7
661.329	50.3
661.656	50.77
661.982	50.98
662.309	50.83
662.636	51.29
662.963	51.4
663.29	52.16
663.616	52.2
663.943	51.02
664.27	51.89
664.596	50.8
664.923	51.08
665.249	51.64
665.576	50.83
665.902	51.36
666.228	52.01
666.554	51.41
666.881	52.26
667.207	51.6
667.533	51.95
667.859	52
668.185	51.75
668.511	51.97
668.837	51.51
669.162	51.31
669.488	51.07
669.814	52.68
670.139	52.42
670.465	52.48
670.791	52.09
