Data from 0205_forehead_Reflection__1__289.txt Node

Date: Fri Dec 15 18:48:45 CST 2023
User: ToomeyLab
Spectrometer: FLMS14357
Trigger mode: 0
Integration Time (sec): 1.000000E-2
Scans to average: 100
Electric dark correction enabled: true
Nonlinearity correction enabled: false
Boxcar width: 0
XAxis mode: Wavelengths
Number of Pixels in Spectrum: 2048
>>>>>Begin Spectral Data<<<<<
189.047	-50.88
189.435	-50.88
189.823	-50.88
190.211	100.06
190.599	114.33
190.987	127.38
191.375	49.13
191.763	-34.12
192.151	60.39
192.538	28.43
192.926	-286.29
193.314	7760
193.702	12.65
194.089	-228.52
194.477	188.91
194.864	-99.49
195.252	91.92
195.639	63.86
196.027	265.04
196.414	-4152.85
196.801	186.86
197.189	137.52
197.576	228.63
197.963	301.82
198.351	94.67
198.738	-26.12
199.125	24.56
199.512	30.62
199.899	32.05
200.286	19.81
200.673	43.86
201.06	47.03
201.447	17.84
201.833	15.5
202.22	53.82
202.607	31.77
202.994	18.57
203.38	76.14
203.767	27.85
204.154	63.86
204.54	43.64
204.927	-1.43
205.313	-119.39
205.699	35.46
206.086	35.14
206.472	21.33
206.858	35.59
207.245	-8.51
207.631	30.96
208.017	22.97
208.403	-5.98
208.789	7.21
209.175	47.18
209.561	2.15
209.947	4.14
210.333	-42.29
210.719	28.95
211.105	20.26
211.491	-51.01
211.876	29.97
212.262	47.82
212.648	24.27
213.034	21.41
213.419	-21.47
213.805	-5.87
214.19	-30.06
214.576	11.84
214.961	14.34
215.346	-71.29
215.732	-22.55
216.117	18.91
216.502	-0.14
216.888	0.58
217.273	39.28
217.658	-7.68
218.043	18.05
218.428	-29.97
218.813	-16.01
219.198	-15.06
219.583	-9.86
219.968	-8.12
220.353	-3.77
220.738	29.7
221.122	18.82
221.507	-15.58
221.892	-40.25
222.276	-44.47
222.661	3.83
223.046	16.14
223.43	13.96
223.815	7.23
224.199	6.21
224.583	0.76
224.968	6.44
225.352	7.65
225.736	2.23
226.121	-7.33
226.505	6.79
226.889	6.39
227.273	4.6
227.657	12.97
228.041	4.18
228.425	5.08
228.809	10.58
229.193	2.6
229.577	4.03
229.961	5.53
230.344	4.25
230.728	4.26
231.112	5.18
231.495	4.19
231.879	4.38
232.263	6.03
232.646	4.38
233.03	5.06
233.413	4.27
233.797	3.48
234.18	4.75
234.563	6.09
234.946	4.01
235.33	5.84
235.713	3.94
236.096	4.33
236.479	5.45
236.862	4.27
237.245	5.24
237.628	4.4
238.011	5.1
238.394	7.61
238.777	5.22
239.16	4.5
239.543	6.28
239.925	4.86
240.308	6.65
240.691	5.92
241.073	6.86
241.456	5.82
241.838	4.02
242.221	4.15
242.603	5.09
242.986	4.74
243.368	4.62
243.75	4.9
244.133	5.16
244.515	5.31
244.897	4.79
245.279	4.89
245.661	5.01
246.043	3.9
246.425	3.26
246.807	6.35
247.189	5.91
247.571	5.45
247.953	5.08
248.335	5.27
248.717	5.21
249.098	5.02
249.48	4.91
249.862	5.3
250.243	5.13
250.625	5.31
251.006	4.88
251.388	4.63
251.769	4.84
252.151	5.17
252.532	5.24
252.913	5.17
253.295	4.32
253.676	5.06
254.057	5.58
254.438	4.93
254.819	4.61
255.2	4.49
255.581	5.99
255.962	4.45
256.343	3.66
256.724	5.72
257.105	5.97
257.486	5.01
257.867	6.17
258.247	4.08
258.628	4.84
259.009	5.14
259.389	5.96
259.77	4.5
260.15	4.84
260.531	4.54
260.911	5.56
261.292	5.03
261.672	5.27
262.052	5.17
262.432	5.13
262.813	5.56
263.193	4.88
263.573	5.14
263.953	5.12
264.333	5.49
264.713	5.35
265.093	4.81
265.473	5.6
265.853	4.18
266.233	5.5
266.612	4.01
266.992	4.38
267.372	5.49
267.752	5.04
268.131	4.52
268.511	5.87
268.89	5.45
269.27	5.1
269.649	5.41
270.029	5.4
270.408	5.95
270.787	4.87
271.167	5.2
271.546	5.72
271.925	4.41
272.304	5.07
272.683	5.75
273.062	4.72
273.441	4.98
273.82	4.58
274.199	5.14
274.578	5.37
274.957	4.77
275.336	5.29
275.715	5.06
276.093	5.35
276.472	4.69
276.851	4.57
277.229	4.71
277.608	4.71
277.986	5.19
278.365	5.04
278.743	4.9
279.122	4.94
279.5	6.03
279.878	5.55
280.257	5.37
280.635	5.2
281.013	5.27
281.391	5.5
281.769	5.45
282.147	5.55
282.525	5.95
282.903	4.95
283.281	5.28
283.659	5.5
284.037	5.3
284.415	5.62
284.792	5.17
285.17	4.69
285.548	5.26
285.925	5.42
286.303	5.17
286.68	5.27
287.058	5.48
287.435	5.4
287.813	5.52
288.19	5.19
288.567	5.26
288.945	5.49
289.322	5.63
289.699	5.01
290.076	5.57
290.453	5.23
290.83	5.43
291.207	5.72
291.584	6.17
291.961	5.8
292.338	5.68
292.715	6.05
293.092	5.74
293.469	5.79
293.845	6.1
294.222	5.91
294.599	5.88
294.975	6.04
295.352	6.69
295.728	6.24
296.105	6.42
296.481	5.57
296.858	6.36
297.234	6.33
297.61	5.96
297.986	6.29
298.363	6.71
298.739	6.63
299.115	6.34
299.491	6.36
299.867	6.8
300.243	6.64
300.619	6.15
300.995	6.68
301.371	7.24
301.746	7.01
302.122	7.14
302.498	7.01
302.874	6.96
303.249	7.39
303.625	7.58
304	7.39
304.376	7.28
304.751	7.09
305.127	8.07
305.502	7.16
305.878	7.14
306.253	7.52
306.628	7.88
307.003	7.51
307.378	8.05
307.754	7.68
308.129	7.6
308.504	7.84
308.879	7.51
309.254	7.93
309.629	8.99
310.003	8.51
310.378	8.83
310.753	8.49
311.128	9.04
311.502	8.79
311.877	8.72
312.252	8.45
312.626	8.94
313.001	8.68
313.375	8.99
313.75	8.6
314.124	9.25
314.498	9.23
314.873	9.06
315.247	9.16
315.621	9.49
315.995	8.48
316.369	9.54
316.743	9.45
317.117	9.58
317.491	9.86
317.865	9.94
318.239	9.68
318.613	10.19
318.987	10.38
319.361	9.69
319.734	10.38
320.108	10.15
320.482	10.24
320.855	10.93
321.229	9.55
321.602	11.18
321.976	10.9
322.349	10.9
322.723	10.63
323.096	11.17
323.469	10.12
323.843	10.75
324.216	10.89
324.589	10.79
324.962	11.08
325.335	10.82
325.708	11.15
326.081	11.46
326.454	11.17
326.827	10.93
327.2	11.38
327.573	11.68
327.945	11.64
328.318	11.65
328.691	10.62
329.063	11.53
329.436	11.38
329.809	12.39
330.181	11.98
330.553	12.39
330.926	11.92
331.298	12.47
331.671	12.19
332.043	12.58
332.415	12.1
332.787	12.25
333.159	13.07
333.532	12.73
333.904	13.01
334.276	12.39
334.648	12.48
335.02	12.7
335.391	12.62
335.763	12.59
336.135	12.22
336.507	13.24
336.879	12.96
337.25	13.05
337.622	13.11
337.993	12.86
338.365	13.52
338.736	13.15
339.108	13.03
339.479	13.08
339.851	13.32
340.222	13.18
340.593	13.39
340.964	13.29
341.336	13.74
341.707	13.23
342.078	14.16
342.449	13.83
342.82	14.1
343.191	13.39
343.562	13.85
343.933	14.02
344.303	13.88
344.674	13.9
345.045	13.7
345.416	14.14
345.786	14.12
346.157	14.61
346.527	13.99
346.898	14.22
347.268	14.35
347.639	14.36
348.009	14.39
348.38	13.92
348.75	14.48
349.12	14.14
349.49	14.97
349.861	15.01
350.231	14.83
350.601	15.34
350.971	15.36
351.341	15
351.711	14.55
352.081	15.86
352.45	15.37
352.82	15.47
353.19	15.59
353.56	15.01
353.929	15.48
354.299	15.45
354.669	15.61
355.038	15.55
355.408	15.43
355.777	15.79
356.147	15.74
356.516	15.8
356.885	16.07
357.254	16.08
357.624	16.34
357.993	16.28
358.362	15.92
358.731	16.11
359.1	15.9
359.469	16.05
359.838	16.29
360.207	16.33
360.576	16.29
360.945	16.61
361.314	16.62
361.682	16.52
362.051	16.29
362.42	16.71
362.788	16.51
363.157	17.09
363.525	17.07
363.894	16.9
364.262	16.87
364.631	16.82
364.999	16.91
365.367	17.14
365.735	17.95
366.104	17.39
366.472	16.99
366.84	17.22
367.208	17.14
367.576	17.41
367.944	17.91
368.312	18.12
368.68	17.38
369.048	17.61
369.416	17.76
369.783	17.58
370.151	17.97
370.519	18.27
370.886	18.29
371.254	17.73
371.621	18.44
371.989	18.26
372.356	17.99
372.724	18.56
373.091	18.26
373.458	18.52
373.826	18.45
374.193	18.63
374.56	18.52
374.927	18.85
375.294	18.97
375.661	18.89
376.028	18.6
376.395	18.75
376.762	18.96
377.129	19.11
377.496	19.27
377.863	19.29
378.229	19.08
378.596	19.29
378.963	19.14
379.329	19.35
379.696	19.31
380.062	19.23
380.429	19.33
380.795	19.29
381.161	19.9
381.528	19.68
381.894	19.85
382.26	19.84
382.626	19.82
382.993	19.73
383.359	20.15
383.725	20.08
384.091	19.92
384.457	20.73
384.823	20.31
385.188	20.43
385.554	20.11
385.92	20.26
386.286	20.65
386.651	20.82
387.017	20.83
387.383	20.86
387.748	20.62
388.114	20.65
388.479	20.67
388.845	20.97
389.21	21.07
389.575	21.1
389.94	20.84
390.306	20.91
390.671	21.21
391.036	20.84
391.401	20.91
391.766	21.58
392.131	21.18
392.496	21.8
392.861	21.33
393.226	21.75
393.591	21.4
393.956	21.69
394.32	21.75
394.685	21.48
395.05	21.33
395.414	22.12
395.779	21.67
396.143	21.87
396.508	22.22
396.872	22.3
397.236	21.95
397.601	21.92
397.965	22.58
398.329	22.53
398.694	22.39
399.058	22.29
399.422	22.3
399.786	22.66
400.15	22.75
400.514	22.44
400.878	22.63
401.242	23.08
401.605	22.98
401.969	23.04
402.333	23.07
402.697	23.11
403.06	23.37
403.424	23.03
403.787	23.3
404.151	23.41
404.514	23.16
404.878	23.12
405.241	23.68
405.604	23.67
405.968	23.55
406.331	23.39
406.694	23.77
407.057	23.67
407.42	23.79
407.783	23.69
408.146	23.85
408.509	23.9
408.872	23.72
409.235	23.79
409.598	24.13
409.961	23.96
410.323	24.17
410.686	24.22
411.049	24.06
411.411	24.28
411.774	24.52
412.136	24.46
412.499	24.42
412.861	24.44
413.223	24.66
413.586	24.72
413.948	24.83
414.31	24.74
414.672	25.13
415.035	25.17
415.397	25.26
415.759	25.17
416.121	25.54
416.483	25.22
416.845	25.07
417.206	25.55
417.568	25.5
417.93	25.31
418.292	25.53
418.653	25.28
419.015	25.45
419.377	25.43
419.738	25.6
420.1	25.62
420.461	25.54
420.822	25.49
421.184	25.52
421.545	25.69
421.906	25.63
422.267	25.64
422.629	25.75
422.99	25.65
423.351	25.6
423.712	25.68
424.073	25.84
424.434	25.79
424.795	25.92
425.155	25.94
425.516	26.17
425.877	26.17
426.238	26.26
426.598	26.36
426.959	26.21
427.32	26.27
427.68	26.36
428.041	26.55
428.401	26.83
428.761	26.71
429.122	26.81
429.482	26.94
429.842	27.3
430.202	27.05
430.563	27.34
430.923	27.19
431.283	27.53
431.643	27.36
432.003	27.3
432.363	27.71
432.722	27.74
433.082	27.61
433.442	27.81
433.802	27.44
434.161	27.78
434.521	28.14
434.881	27.93
435.24	27.61
435.6	27.81
435.959	27.93
436.319	28.22
436.678	28.06
437.037	28.13
437.396	28.39
437.756	28.33
438.115	28.4
438.474	28.5
438.833	28.23
439.192	28.51
439.551	28.45
439.91	28.52
440.269	28.58
440.628	28.68
440.987	28.67
441.345	28.72
441.704	28.63
442.063	28.64
442.421	28.77
442.78	28.9
443.138	28.66
443.497	28.71
443.855	28.91
444.214	29.01
444.572	29.31
444.93	29.12
445.288	29.25
445.647	29.42
446.005	29.42
446.363	29.59
446.721	29.65
447.079	29.36
447.437	29.5
447.795	29.52
448.153	29.46
448.51	29.47
448.868	29.38
449.226	29.45
449.584	29.73
449.941	29.64
450.299	29.88
450.656	29.84
451.014	30.11
451.371	30.02
451.729	30.11
452.086	30.39
452.443	30.51
452.801	30.62
453.158	30.53
453.515	30.48
453.872	30.87
454.229	30.81
454.586	30.78
454.943	30.84
455.3	30.91
455.657	30.76
456.014	30.95
456.371	31.31
456.727	31.22
457.084	31.56
457.441	31.26
457.797	31.29
458.154	31.54
458.51	31.52
458.867	31.62
459.223	31.81
459.58	31.7
459.936	31.74
460.292	31.82
460.648	31.5
461.005	31.77
461.361	31.72
461.717	31.45
462.073	31.45
462.429	31.4
462.785	31.54
463.141	31.78
463.496	31.85
463.852	32.19
464.208	32.33
464.564	32.48
464.919	32.2
465.275	32.41
465.631	32.63
465.986	32.59
466.342	32.41
466.697	32.74
467.052	32.87
467.408	32.6
467.763	32.77
468.118	33.2
468.473	33
468.829	33.14
469.184	33.06
469.539	32.97
469.894	32.98
470.249	33.08
470.603	33.07
470.958	33.46
471.313	33.13
471.668	33.67
472.023	33.69
472.377	33.35
472.732	33.31
473.086	33.72
473.441	33.63
473.795	33.78
474.15	33.85
474.504	33.63
474.859	33.75
475.213	33.85
475.567	34.1
475.921	34.18
476.275	34.15
476.63	34.38
476.984	34.12
477.338	34.46
477.692	34.37
478.045	34.4
478.399	34.39
478.753	34.56
479.107	34.43
479.461	34.58
479.814	34.76
480.168	34.63
480.521	34.65
480.875	34.61
481.228	34.54
481.582	34.53
481.935	34.71
482.289	34.9
482.642	34.77
482.995	34.88
483.348	34.86
483.701	34.77
484.055	34.91
484.408	34.6
484.761	34.6
485.114	34.41
485.466	34.16
485.819	34.26
486.172	34.2
486.525	34.02
486.878	34.03
487.23	34.24
487.583	34.53
487.936	34.68
488.288	34.97
488.641	34.91
488.993	34.85
489.345	34.83
489.698	34.7
490.05	34.74
490.402	34.84
490.754	35
491.107	35.11
491.459	35.39
491.811	35.56
492.163	35.71
492.515	35.73
492.866	35.76
493.218	35.64
493.57	35.47
493.922	35.46
494.274	35.37
494.625	35.65
494.977	35.95
495.328	36.15
495.68	36.44
496.031	36.41
496.383	36.85
496.734	37.02
497.086	37
497.437	37.06
497.788	37.02
498.139	36.98
498.49	37.2
498.842	36.83
499.193	37.09
499.544	37.06
499.894	37.13
500.245	37.24
500.596	37.1
500.947	37.39
501.298	37.34
501.648	37.44
501.999	37.52
502.35	37.68
502.7	37.64
503.051	37.67
503.401	37.89
503.752	38.1
504.102	38.09
504.452	38.11
504.803	38.01
505.153	38.3
505.503	38.41
505.853	38.37
506.203	38.27
506.553	38.37
506.903	38.19
507.253	38.47
507.603	38.32
507.953	38.6
508.303	38.73
508.652	38.66
509.002	38.64
509.352	38.89
509.701	38.79
510.051	38.67
510.4	38.76
510.75	38.77
511.099	38.81
511.449	38.79
511.798	38.88
512.147	38.98
512.496	39.06
512.846	38.87
513.195	39.04
513.544	39.01
513.893	39.24
514.242	39.12
514.591	39.25
514.939	39.27
515.288	39.39
515.637	39.33
515.986	39.65
516.334	39.4
516.683	39.65
517.032	39.77
517.38	39.88
517.729	39.67
518.077	39.79
518.426	40.13
518.774	39.8
519.122	40.12
519.47	39.81
519.819	39.96
520.167	39.8
520.515	39.65
520.863	39.72
521.211	39.76
521.559	39.81
521.907	39.98
522.255	40.09
522.602	40.18
522.95	40.46
523.298	40.46
523.645	40.68
523.993	40.54
524.341	40.87
524.688	40.81
525.036	40.74
525.383	40.57
525.73	40.74
526.078	40.91
526.425	40.87
526.772	40.98
527.119	40.88
527.466	40.52
527.814	40.63
528.161	40.55
528.508	40.47
528.854	40.65
529.201	40.57
529.548	40.68
529.895	40.58
530.242	40.46
530.588	40.46
530.935	40.54
531.282	40.28
531.628	40.26
531.975	40.63
532.321	40.77
532.667	41.1
533.014	41.18
533.36	41.32
533.706	41.42
534.052	41.55
534.399	41.57
534.745	41.31
535.091	41.22
535.437	41.26
535.783	41.16
536.129	41.39
536.474	41.47
536.82	41.58
537.166	41.82
537.512	42.17
537.857	42.13
538.203	42.09
538.549	42.07
538.894	42.03
539.239	42.31
539.585	42.18
539.93	42.31
540.276	42.42
540.621	42.64
540.966	42.9
541.311	42.61
541.656	42.71
542.001	42.94
542.346	42.89
542.691	42.46
543.036	42.54
543.381	42.26
543.726	42.26
544.071	42.25
544.415	42.33
544.76	42.59
545.105	42.72
545.449	42.8
545.794	42.94
546.138	43.14
546.483	43.17
546.827	43.3
547.171	43.54
547.516	43.54
547.86	43.54
548.204	43.74
548.548	43.68
548.892	43.86
549.236	43.51
549.58	43.79
549.924	43.78
550.268	44.2
550.612	43.99
550.956	44.34
551.3	44.2
551.643	44.67
551.987	44.67
552.33	44.74
552.674	44.79
553.017	44.7
553.361	44.58
553.704	44.97
554.048	44.82
554.391	45.02
554.734	44.77
555.077	44.93
555.42	44.85
555.764	45.05
556.107	45.03
556.45	45.23
556.793	45.25
557.135	45.22
557.478	45.18
557.821	45.33
558.164	45.14
558.507	45.38
558.849	45.67
559.192	45.4
559.534	45.63
559.877	45.56
560.219	45.7
560.562	46.25
560.904	46.14
561.246	46.02
561.589	46.26
561.931	45.69
562.273	45.86
562.615	46.09
562.957	46.26
563.299	46.1
563.641	46.05
563.983	46.41
564.325	46.17
564.667	46.36
565.008	46.48
565.35	46.53
565.692	46.82
566.033	46.39
566.375	46.61
566.716	46.5
567.058	46.59
567.399	46.48
567.741	46.59
568.082	46.32
568.423	46.46
568.764	46.53
569.105	46.51
569.447	46.62
569.788	46.83
570.129	46.71
570.47	47.12
570.811	47.02
571.151	47.35
571.492	47.09
571.833	47.15
572.174	47.08
572.514	47.3
572.855	47.1
573.195	47.23
573.536	47.39
573.876	47.21
574.217	47.27
574.557	47.38
574.898	47.58
575.238	47.64
575.578	47.31
575.918	47.59
576.258	47.69
576.598	47.71
576.938	47.55
577.278	48.09
577.618	47.92
577.958	47.68
578.298	47.71
578.638	48.02
578.977	47.86
579.317	47.87
579.657	48.39
579.996	48.15
580.336	48.51
580.675	48.32
581.014	48.23
581.354	48.54
581.693	48.65
582.032	48.8
582.372	48.6
582.711	48.71
583.05	48.61
583.389	48.81
583.728	48.8
584.067	49.13
584.406	49.1
584.745	49.53
585.083	49.34
585.422	49.47
585.761	49.39
586.1	49.27
586.438	49.33
586.777	49.53
587.115	49.55
587.454	49.57
587.792	49.46
588.13	49.62
588.469	49.54
588.807	49.43
589.145	49.65
589.483	49.56
589.821	49.53
590.159	49.78
590.497	50.06
590.835	49.91
591.173	49.79
591.511	50.09
591.849	49.95
592.187	49.85
592.524	49.95
592.862	49.91
593.2	49.93
593.537	49.74
593.875	50.13
594.212	50.24
594.55	49.97
594.887	50.48
595.224	50.7
595.561	50.47
595.899	50.41
596.236	50.09
596.573	50.49
596.91	50.03
597.247	50.37
597.584	50.84
597.921	50.54
598.258	50.33
598.594	50.71
598.931	50.65
599.268	50.53
599.604	50.51
599.941	50.54
600.277	50.54
600.614	50.46
600.95	50.89
601.287	50.71
601.623	50.85
601.959	50.89
602.296	50.96
602.632	51.36
602.968	51.34
603.304	51.49
603.64	51.06
603.976	51.22
604.312	51.85
604.648	51.5
604.984	51.81
605.319	51.5
605.655	51.32
605.991	51.16
606.326	51.13
606.662	51.42
606.998	50.96
607.333	51.43
607.668	51.46
608.004	51.41
608.339	51.39
608.674	51.61
609.01	51.32
609.345	51.61
609.68	51.77
610.015	51.45
610.35	51.74
610.685	52.06
611.02	52.34
611.355	52.15
611.689	52.21
612.024	52.02
612.359	51.97
612.694	51.78
613.028	51.69
613.363	52.18
613.697	52.09
614.032	52.39
614.366	52.43
614.7	52.72
615.035	52.4
615.369	52.83
615.703	52.52
616.037	52.73
616.371	53.08
616.705	52.97
617.039	53.38
617.373	52.65
617.707	52.75
618.041	53.18
618.375	53.26
618.709	53.42
619.042	52.94
619.376	53.4
619.71	53.25
620.043	53.7
620.377	53.58
620.71	53.76
621.043	53.5
621.377	53.41
621.71	53.39
622.043	53.69
622.376	53.49
622.709	53.43
623.043	53.7
623.376	53.46
623.709	53.41
624.041	53.73
624.374	53.93
624.707	53.82
625.04	54.04
625.373	53.45
625.705	54.21
626.038	54.07
626.37	54.45
626.703	54.25
627.035	53.88
627.368	54.45
627.7	53.93
628.032	54.35
628.365	54.21
628.697	53.98
629.029	54.55
629.361	54.23
629.693	54.84
630.025	53.74
630.357	53.99
630.689	54.33
631.021	54.48
631.353	54.92
631.684	54.83
632.016	54.31
632.348	54.05
632.679	54.25
633.011	54.9
633.342	54.7
633.674	54.92
634.005	55.19
634.336	54.93
634.668	55.29
634.999	55.25
635.33	54.91
635.661	55.14
635.992	54.87
636.323	55.35
636.654	55.35
636.985	55.08
637.316	54.77
637.647	54.96
637.977	55.13
638.308	55.35
638.639	55.02
638.969	55.3
639.3	55.01
639.63	54.73
639.961	55.35
640.291	55.56
640.622	55.8
640.952	55.85
641.282	55.73
641.612	55.86
641.943	55.22
642.273	55.87
642.603	56.07
642.933	55.39
643.263	55.73
643.592	55.87
643.922	55.24
644.252	55.38
644.582	56.32
644.911	55.61
645.241	55.24
645.571	55.77
645.9	55.43
646.23	55.63
646.559	56.18
646.888	55.99
647.218	55.85
647.547	55.99
647.876	56.36
648.205	55.96
648.534	56.26
648.863	56.05
649.192	56.41
649.521	57.2
649.85	56.27
650.179	56.21
650.508	56.27
650.837	55.91
651.165	56.43
651.494	56.95
651.822	56.72
652.151	56.26
652.479	55.88
652.808	56.66
653.136	56.98
653.465	56.61
653.793	56.4
654.121	56.71
654.449	56.62
654.777	56.84
655.105	56.49
655.433	56.94
655.761	56.88
656.089	57.53
656.417	56.94
656.745	56.34
657.073	56.83
657.4	57.73
657.728	56.86
658.056	57.26
658.383	57.3
658.711	57.37
659.038	56.93
659.365	57.34
659.693	56.99
660.02	57.29
660.347	56.92
660.674	57.53
661.001	56.75
661.329	57.2
661.656	57.57
661.982	57.25
662.309	57.48
662.636	57.53
662.963	57.43
663.29	57.89
663.616	57.83
663.943	57.32
664.27	57.93
664.596	56.58
664.923	57.07
665.249	58.02
665.576	58.23
665.902	57.53
666.228	57.49
666.554	57.95
666.881	58.85
667.207	58.55
667.533	58.35
667.859	58.37
668.185	57.72
