Data from 0205_forehead_Reflection__2__290.txt Node

Date: Fri Dec 15 18:48:55 CST 2023
User: ToomeyLab
Spectrometer: FLMS14357
Trigger mode: 0
Integration Time (sec): 1.000000E-2
Scans to average: 100
Electric dark correction enabled: true
Nonlinearity correction enabled: false
Boxcar width: 0
XAxis mode: Wavelengths
Number of Pixels in Spectrum: 2048
>>>>>Begin Spectral Data<<<<<
189.047	-74.5
189.435	-74.5
189.823	-74.5
190.211	123.93
190.599	358.39
190.987	94.04
191.375	-139.63
191.763	-40.39
192.151	91.16
192.538	62.68
192.926	210.6
193.314	7754.67
193.702	151.01
194.089	-168.87
194.477	-58.77
194.864	-224.14
195.252	102.42
195.639	87.06
196.027	501.66
196.414	-2152.85
196.801	57.25
197.189	34.97
197.576	209.74
197.963	-303.81
198.351	64.39
198.738	36.06
199.125	74.06
199.512	25.1
199.899	20.06
200.286	9.37
200.673	27.31
201.06	6.34
201.447	21.45
201.833	4.49
202.22	51.31
202.607	35.75
202.994	35.85
203.38	12.64
203.767	62.47
204.154	14.13
204.54	89.75
204.927	13.23
205.313	-26.15
205.699	28.62
206.086	50.27
206.472	49.48
206.858	36.35
207.245	37.23
207.631	11.9
208.017	14.2
208.403	64.19
208.789	27.3
209.175	27.71
209.561	18.16
209.947	56.73
210.333	-2.35
210.719	14.04
211.105	15.66
211.491	32.33
211.876	29.94
212.262	83.9
212.648	13.36
213.034	27.76
213.419	-3.93
213.805	-1.1
214.19	3.43
214.576	11.23
214.961	4.67
215.346	-82.55
215.732	15.03
216.117	57.24
216.502	13.11
216.888	64.6
217.273	62.94
217.658	64.28
218.043	29.06
218.428	25.57
218.813	6.9
219.198	1.81
219.583	36.35
219.968	8.34
220.353	5.61
220.738	26.45
221.122	52.98
221.507	-28.11
221.892	-23.46
222.276	-3.6
222.661	18.3
223.046	26.16
223.43	16.96
223.815	13.47
224.199	-7.93
224.583	9.31
224.968	-2.08
225.352	12.22
225.736	9.3
226.121	-6.2
226.505	3.54
226.889	10.39
227.273	4.85
227.657	17.89
228.041	5.83
228.425	7.62
228.809	10.54
229.193	8.29
229.577	7.69
229.961	6.19
230.344	4.66
230.728	4.86
231.112	4.78
231.495	4.65
231.879	4.51
232.263	6.27
232.646	5.08
233.03	5.75
233.413	4.26
233.797	6.31
234.18	6.16
234.563	5.54
234.946	4.22
235.33	5.91
235.713	4.49
236.096	4.67
236.479	7.3
236.862	4.31
237.245	4.95
237.628	6.78
238.011	4.69
238.394	6.4
238.777	6.52
239.16	3.29
239.543	7.36
239.925	7.92
240.308	7.27
240.691	7.7
241.073	8.78
241.456	5.47
241.838	4.69
242.221	5.03
242.603	4.87
242.986	5.27
243.368	5.29
243.75	5.27
244.133	5.13
244.515	5.58
244.897	5.18
245.279	5.09
245.661	4.51
246.043	4.53
246.425	5.3
246.807	6.73
247.189	6.66
247.571	5.9
247.953	5.43
248.335	5.32
248.717	5.42
249.098	4.94
249.48	5.07
249.862	5.09
250.243	5.13
250.625	5.44
251.006	5.53
251.388	4.83
251.769	5.71
252.151	5.75
252.532	5.8
252.913	4.71
253.295	4.25
253.676	5
254.057	5.36
254.438	5.16
254.819	4.63
255.2	5.45
255.581	5.89
255.962	4.74
256.343	7.15
256.724	4.95
257.105	6.14
257.486	5.62
257.867	5.98
258.247	4.92
258.628	5.91
259.009	5.92
259.389	6.35
259.77	5.61
260.15	5.1
260.531	4.97
260.911	5.73
261.292	5.42
261.672	5.44
262.052	5.09
262.432	5.4
262.813	5.32
263.193	5
263.573	5.38
263.953	4.76
264.333	5.47
264.713	5.79
265.093	5.1
265.473	5.97
265.853	5.48
266.233	5.54
266.612	3.41
266.992	4.98
267.372	5.9
267.752	4.86
268.131	5.4
268.511	5.96
268.89	5.45
269.27	4.88
269.649	5.36
270.029	5.05
270.408	6.02
270.787	5.58
271.167	5.42
271.546	5.59
271.925	4.66
272.304	5.59
272.683	5.37
273.062	5.55
273.441	5.63
273.82	4.88
274.199	5.09
274.578	5.61
274.957	4.71
275.336	5.26
275.715	4.76
276.093	4.85
276.472	5.13
276.851	4.72
277.229	4.97
277.608	4.75
277.986	5.27
278.365	5.71
278.743	5.18
279.122	5.22
279.5	5.81
279.878	5.83
280.257	5.71
280.635	4.72
281.013	5.41
281.391	5.81
281.769	5.51
282.147	4.94
282.525	6.32
282.903	4.93
283.281	5.56
283.659	5.71
284.037	6.09
284.415	5.76
284.792	5.76
285.17	4.73
285.548	5.06
285.925	5.79
286.303	5.38
286.68	5.62
287.058	5.47
287.435	5.53
287.813	5.52
288.19	5.5
288.567	5.43
288.945	6.1
289.322	5.66
289.699	5.72
290.076	5.72
290.453	6.17
290.83	5.68
291.207	5.83
291.584	6.16
291.961	6.43
292.338	6.11
292.715	6.24
293.092	6.35
293.469	6.12
293.845	6.23
294.222	6.19
294.599	6.19
294.975	6.17
295.352	6.55
295.728	6.13
296.105	6.18
296.481	6.66
296.858	6.25
297.234	6.6
297.61	6.71
297.986	6.37
298.363	6.93
298.739	6.88
299.115	6.47
299.491	6.56
299.867	6.96
300.243	6.95
300.619	6.48
300.995	6.77
301.371	7.52
301.746	7.09
302.122	7.35
302.498	7.53
302.874	7.36
303.249	7.58
303.625	7.87
304	8.15
304.376	7.75
304.751	7.3
305.127	8.51
305.502	8.15
305.878	7.28
306.253	7.76
306.628	7.67
307.003	7.85
307.378	8.28
307.754	8.1
308.129	7.64
308.504	8.57
308.879	7.91
309.254	8.52
309.629	8.74
310.003	8.61
310.378	8.88
310.753	8.95
311.128	8.96
311.502	9.02
311.877	9.09
312.252	8.54
312.626	8.6
313.001	8.52
313.375	8.94
313.75	8.81
314.124	9.19
314.498	9.34
314.873	9.52
315.247	9.5
315.621	8.97
315.995	9.28
316.369	9.16
316.743	9.66
317.117	10.15
317.491	9.6
317.865	10.08
318.239	9.73
318.613	10.8
318.987	10.4
319.361	9.18
319.734	10.49
320.108	10.13
320.482	10.34
320.855	10.96
321.229	10.82
321.602	10.25
321.976	11.05
322.349	10.29
322.723	10.89
323.096	11.42
323.469	10.48
323.843	11.06
324.216	11.54
324.589	11.41
324.962	11.15
325.335	11.5
325.708	11.3
326.081	11.02
326.454	11.12
326.827	10.92
327.2	11.86
327.573	11.81
327.945	11.76
328.318	11.59
328.691	10.72
329.063	11.54
329.436	11.22
329.809	12.05
330.181	11.17
330.553	11.67
330.926	11.9
331.298	11.69
331.671	11.45
332.043	12.5
332.415	12.84
332.787	12.66
333.159	12.72
333.532	12.4
333.904	12.38
334.276	12.86
334.648	12.61
335.02	12.89
335.391	12.46
335.763	12.54
336.135	12.72
336.507	13.43
336.879	12.64
337.25	12.48
337.622	12.82
337.993	12.63
338.365	13.54
338.736	13.32
339.108	13.09
339.479	13.25
339.851	13.26
340.222	13.25
340.593	13.11
340.964	13.11
341.336	14.26
341.707	13.45
342.078	14.2
342.449	13.73
342.82	13.81
343.191	13.82
343.562	13.95
343.933	14.52
344.303	14.17
344.674	13.98
345.045	14.03
345.416	14.56
345.786	13.94
346.157	14.54
346.527	14.17
346.898	14
347.268	14.28
347.639	14.49
348.009	14.57
348.38	14.48
348.75	14.5
349.12	14.25
349.49	14.75
349.861	14.63
350.231	15.12
350.601	14.7
350.971	15.2
351.341	14.93
351.711	15.2
352.081	15.09
352.45	14.66
352.82	15.58
353.19	15.16
353.56	15.03
353.929	15.43
354.299	15.68
354.669	15.5
355.038	15.52
355.408	15.4
355.777	16.02
356.147	15.39
356.516	15.86
356.885	15.99
357.254	15.64
357.624	15.61
357.993	16.02
358.362	15.98
358.731	15.87
359.1	16.17
359.469	16.11
359.838	16.15
360.207	16.1
360.576	16.45
360.945	16.4
361.314	16.53
361.682	16.25
362.051	16.3
362.42	16.9
362.788	16.33
363.157	16.53
363.525	16.78
363.894	16.68
364.262	16.65
364.631	16.64
364.999	16.98
365.367	16.83
365.735	17.73
366.104	16.98
366.472	17.29
366.84	16.99
367.208	17.08
367.576	17.54
367.944	17.51
368.312	17.08
368.68	17.62
369.048	17.77
369.416	17.69
369.783	17.42
370.151	17.98
370.519	18.38
370.886	18.32
371.254	17.68
371.621	18.24
371.989	17.98
372.356	17.41
372.724	18.02
373.091	18.05
373.458	18.26
373.826	18.33
374.193	17.94
374.56	18.44
374.927	18.55
375.294	19
375.661	18.45
376.028	18.71
376.395	18.52
376.762	18.97
377.129	19.06
377.496	19.04
377.863	19.01
378.229	18.62
378.596	18.99
378.963	18.98
379.329	19.18
379.696	19.22
380.062	19.2
380.429	19.19
380.795	19.25
381.161	19.6
381.528	19.66
381.894	19.63
382.26	19.42
382.626	20.06
382.993	19.65
383.359	19.89
383.725	19.79
384.091	20
384.457	20.31
384.823	20.15
385.188	20.2
385.554	20.12
385.92	20.35
386.286	20.29
386.651	20.36
387.017	20.59
387.383	20.46
387.748	20.2
388.114	20.77
388.479	20.52
388.845	20.9
389.21	21.05
389.575	21.12
389.94	20.95
390.306	21.08
390.671	21.2
391.036	20.77
391.401	21
391.766	21.21
392.131	21.34
392.496	21.25
392.861	21.22
393.226	21.42
393.591	21.57
393.956	21.36
394.32	21.49
394.685	21.21
395.05	21.56
395.414	21.71
395.779	21.69
396.143	21.64
396.508	21.76
396.872	22.02
397.236	22.11
397.601	21.68
397.965	22.01
398.329	22.28
398.694	22.46
399.058	22.24
399.422	22.25
399.786	22.42
400.15	22.38
400.514	22.59
400.878	22.38
401.242	22.79
401.605	22.72
401.969	22.9
402.333	22.85
402.697	22.65
403.06	22.92
403.424	22.87
403.787	23.09
404.151	23.33
404.514	23.12
404.878	23.14
405.241	23.53
405.604	23.26
405.968	23.5
406.331	23.34
406.694	23.36
407.057	23.65
407.42	23.59
407.783	23.41
408.146	23.62
408.509	23.58
408.872	23.48
409.235	23.85
409.598	23.98
409.961	23.93
410.323	24.39
410.686	24.2
411.049	23.93
411.411	23.95
411.774	24.44
412.136	24.38
412.499	24.28
412.861	24.37
413.223	24.38
413.586	24.59
413.948	24.47
414.31	24.75
414.672	24.52
415.035	24.9
415.397	25.1
415.759	25.21
416.121	25.03
416.483	24.76
416.845	25.01
417.206	25.2
417.568	25.31
417.93	25.12
418.292	25.2
418.653	25.01
419.015	25.25
419.377	24.99
419.738	25.41
420.1	25.26
420.461	25.45
420.822	25.29
421.184	25.53
421.545	25.46
421.906	25.33
422.267	25.55
422.629	25.53
422.99	25.32
423.351	25.37
423.712	25.67
424.073	25.76
424.434	25.66
424.795	25.9
425.155	25.96
425.516	25.9
425.877	25.89
426.238	25.96
426.598	25.97
426.959	26.01
427.32	26.16
427.68	26.15
428.041	26.41
428.401	26.62
428.761	26.47
429.122	26.87
429.482	26.77
429.842	27.12
430.202	27.26
430.563	27.2
430.923	27.23
431.283	27.19
431.643	27.28
432.003	27.33
432.363	27.63
432.722	27.57
433.082	27.65
433.442	27.48
433.802	27.39
434.161	27.43
434.521	27.87
434.881	27.68
435.24	27.61
435.6	27.64
435.959	27.78
436.319	27.9
436.678	27.74
437.037	27.9
437.396	28.09
437.756	28.15
438.115	28.11
438.474	28.35
438.833	28.3
439.192	28.23
439.551	28.45
439.91	28.38
440.269	28.27
440.628	28.53
440.987	28.55
441.345	28.36
441.704	28.55
442.063	28.47
442.421	28.45
442.78	28.61
443.138	28.83
443.497	28.82
443.855	28.73
444.214	28.89
444.572	29.24
444.93	29.04
445.288	29.14
445.647	29.41
446.005	29.21
446.363	29.39
446.721	29.28
447.079	29.23
447.437	29.37
447.795	29.38
448.153	29.3
448.51	29.31
448.868	29.31
449.226	29.38
449.584	29.54
449.941	29.69
450.299	29.85
450.656	29.7
451.014	29.84
451.371	30.09
451.729	30.05
452.086	30.45
452.443	30.06
452.801	30.59
453.158	30.39
453.515	30.45
453.872	30.77
454.229	30.58
454.586	30.65
454.943	30.95
455.3	30.9
455.657	30.85
456.014	31.01
456.371	30.96
456.727	31.21
457.084	31.12
457.441	31.25
457.797	31.36
458.154	31.26
458.51	31.46
458.867	31.51
459.223	31.6
459.58	31.82
459.936	31.6
460.292	31.74
460.648	31.31
461.005	31.53
461.361	31.45
461.717	31.22
462.073	31.27
462.429	31.38
462.785	31.59
463.141	31.8
463.496	31.85
463.852	31.86
464.208	32.34
464.564	32.3
464.919	32.41
465.275	32.45
465.631	32.73
465.986	32.47
466.342	32.57
466.697	32.67
467.052	32.96
467.408	32.72
467.763	32.76
468.118	32.84
468.473	32.98
468.829	33.07
469.184	33.09
469.539	33.21
469.894	33.07
470.249	33.38
470.603	33.28
470.958	33.41
471.313	33.39
471.668	33.82
472.023	33.44
472.377	33.55
472.732	33.53
473.086	33.57
473.441	33.54
473.795	34.05
474.15	33.82
474.504	33.98
474.859	34.01
475.213	33.96
475.567	34.19
475.921	34.01
476.275	34.33
476.63	34.28
476.984	34.22
477.338	34.38
477.692	34.54
478.045	34.3
478.399	34.18
478.753	34.33
479.107	34.5
479.461	34.46
479.814	34.45
480.168	34.7
480.521	34.68
480.875	34.59
481.228	34.67
481.582	34.8
481.935	34.71
482.289	34.95
482.642	34.91
482.995	34.94
483.348	34.83
483.701	34.66
484.055	34.94
484.408	34.8
484.761	34.47
485.114	34.21
485.466	33.95
485.819	34
486.172	33.95
486.525	33.9
486.878	34.02
487.23	34.25
487.583	34.48
487.936	34.68
488.288	34.78
488.641	34.93
488.993	34.7
489.345	34.62
489.698	34.58
490.05	34.6
490.402	34.72
490.754	34.87
491.107	35.18
491.459	35.24
491.811	35.51
492.163	35.61
492.515	35.66
492.866	35.72
493.218	35.59
493.57	35.33
493.922	35.35
494.274	35.58
494.625	35.71
494.977	36
495.328	36.16
495.68	36.45
496.031	36.62
496.383	36.68
496.734	36.92
497.086	36.94
497.437	37.26
497.788	37.19
498.139	37.15
498.49	37.13
498.842	36.89
499.193	37.04
499.544	37.05
499.894	37.12
500.245	37.36
500.596	37.34
500.947	37.38
501.298	37.51
501.648	37.8
501.999	37.8
502.35	37.89
502.7	37.75
503.051	37.9
503.401	38.3
503.752	38.14
504.102	38.13
504.452	38.42
504.803	38.26
505.153	38.43
505.503	38.4
505.853	38.33
506.203	38.38
506.553	38.29
506.903	38.5
507.253	38.45
507.603	38.6
507.953	38.74
508.303	38.64
508.652	38.86
509.002	38.71
509.352	38.8
509.701	38.86
510.051	38.64
510.4	38.78
510.75	38.97
511.099	39.06
511.449	38.8
511.798	39.05
512.147	39.17
512.496	39.06
512.846	39.1
513.195	39.23
513.544	39.16
513.893	39.45
514.242	39.22
514.591	39.52
514.939	39.53
515.288	39.58
515.637	39.62
515.986	39.86
516.334	39.86
516.683	39.95
517.032	39.73
517.38	40.17
517.729	40.27
518.077	39.88
518.426	40.07
518.774	40.39
519.122	40.02
519.47	40.01
519.819	40.06
520.167	39.86
520.515	39.67
520.863	39.93
521.211	39.79
521.559	40.03
521.907	40.24
522.255	40.22
522.602	40.44
522.95	40.35
523.298	40.7
523.645	40.86
523.993	40.82
524.341	40.87
524.688	40.92
525.036	41.01
525.383	40.85
525.73	41.08
526.078	41.16
526.425	41.14
526.772	41.03
527.119	41.06
527.466	40.79
527.814	40.57
528.161	40.81
528.508	40.68
528.854	40.81
529.201	40.85
529.548	40.78
529.895	40.75
530.242	40.48
530.588	40.4
530.935	40.46
531.282	40.43
531.628	40.5
531.975	40.74
532.321	40.87
532.667	41.24
533.014	41.44
533.36	41.44
533.706	41.54
534.052	41.65
534.399	41.66
534.745	41.47
535.091	41.33
535.437	41.46
535.783	41.35
536.129	41.68
536.474	41.74
536.82	41.88
537.166	42.12
537.512	42.35
537.857	42.49
538.203	42.32
538.549	42.24
538.894	42.26
539.239	42.26
539.585	42.35
539.93	42.36
540.276	42.9
540.621	42.9
540.966	43.01
541.311	43.16
541.656	43.09
542.001	43
542.346	43.03
542.691	42.72
543.036	42.52
543.381	42.29
543.726	42.4
544.071	42.46
544.415	42.74
544.76	42.73
545.105	43
545.449	43.06
545.794	43.13
546.138	43.33
546.483	43.65
546.827	43.66
547.171	43.63
547.516	43.89
547.86	43.78
548.204	43.94
548.548	43.9
548.892	43.86
549.236	44.06
549.58	43.92
549.924	44.17
550.268	44.6
550.612	44.24
550.956	44.57
551.3	44.77
551.643	45
551.987	45.2
552.33	45.12
552.674	45.41
553.017	45.13
553.361	45.16
553.704	45.33
554.048	45.08
554.391	45.23
554.734	45.22
555.077	45.1
555.42	45.28
555.764	45.03
556.107	45.35
556.45	45.42
556.793	45.33
557.135	45.56
557.478	45.53
557.821	45.82
558.164	45.69
558.507	46.18
558.849	46.1
559.192	45.7
559.534	46.03
559.877	45.8
560.219	46.07
560.562	46.31
560.904	46.14
561.246	45.97
561.589	46.33
561.931	46.38
562.273	46.26
562.615	46.34
562.957	46.55
563.299	46.34
563.641	46.59
563.983	46.41
564.325	46.7
564.667	46.79
565.008	46.9
565.35	46.84
565.692	46.89
566.033	46.96
566.375	46.91
566.716	46.9
567.058	46.87
567.399	46.77
567.741	46.89
568.082	46.64
568.423	46.87
568.764	46.83
569.105	46.86
569.447	46.86
569.788	47.06
570.129	47.04
570.47	47.28
570.811	47.6
571.151	47.69
571.492	47.4
571.833	47.51
572.174	47.56
572.514	47.46
572.855	47.57
573.195	47.52
573.536	47.72
573.876	47.82
574.217	47.59
574.557	47.47
574.898	47.56
575.238	47.67
575.578	47.66
575.918	47.92
576.258	48.13
576.598	48.3
576.938	47.84
577.278	48.13
577.618	48.23
577.958	47.94
578.298	48.17
578.638	48.01
578.977	48.25
579.317	48.22
579.657	48.52
579.996	48.49
580.336	48.73
580.675	48.82
581.014	48.83
581.354	48.82
581.693	48.97
582.032	49.14
582.372	49.34
582.711	49.42
583.05	49.17
583.389	49.2
583.728	49.23
584.067	49.8
584.406	49.46
584.745	49.74
585.083	49.8
585.422	50.07
585.761	49.65
586.1	49.63
586.438	49.69
586.777	49.77
587.115	49.58
587.454	49.75
587.792	50.18
588.13	50.04
588.469	49.72
588.807	50.14
589.145	49.87
589.483	50.13
589.821	49.92
590.159	50.18
590.497	50.36
590.835	50.39
591.173	50.29
591.511	50.73
591.849	50.58
592.187	50.09
592.524	50.22
592.862	50.11
593.2	50.36
593.537	50.37
593.875	50.58
594.212	50.85
594.55	50.4
594.887	50.81
595.224	51.17
595.561	50.79
595.899	50.88
596.236	50.86
596.573	51.1
596.91	50.69
597.247	50.83
597.584	51.18
597.921	51.06
598.258	50.75
598.594	50.98
598.931	50.5
599.268	50.94
599.604	50.61
599.941	50.75
600.277	50.63
600.614	51.07
600.95	51.25
601.287	50.65
601.623	51.43
601.959	51.44
602.296	51.64
602.632	51.5
602.968	51.88
603.304	51.97
603.64	51.47
603.976	51.57
604.312	51.97
604.648	51.95
604.984	51.85
605.319	51.6
605.655	51.44
605.991	51.48
606.326	51.53
606.662	51.49
606.998	51.27
607.333	51.65
607.668	51.84
608.004	51.76
608.339	51.86
608.674	51.89
609.01	52.2
609.345	52.1
609.68	52.37
610.015	51.86
610.35	52.43
610.685	52.62
611.02	52.71
611.355	52.32
611.689	52.49
612.024	52.47
612.359	52.17
612.694	52.29
613.028	52.28
613.363	52.55
613.697	52.85
614.032	52.82
614.366	52.86
614.7	52.94
615.035	53.05
615.369	53.24
615.703	53.15
616.037	53.05
616.371	53.6
616.705	53.26
617.039	53.8
617.373	53.18
617.707	53.38
618.041	52.94
618.375	53.55
618.709	53.75
619.042	53.15
619.376	53.72
619.71	53.84
620.043	53.43
620.377	53.84
620.71	54.28
621.043	54.17
621.377	53.8
621.71	53.76
622.043	53.44
622.376	53.7
622.709	53.61
623.043	54.17
623.376	53.95
623.709	53.97
624.041	53.88
624.374	53.82
624.707	54.3
625.04	54.69
625.373	53.79
625.705	54.48
626.038	54.37
626.37	54.29
626.703	54.45
627.035	54.7
627.368	54.72
627.7	54.5
628.032	54.56
628.365	55.13
628.697	54.48
629.029	54.54
629.361	54.68
629.693	54.4
630.025	54.15
630.357	54.5
630.689	54.73
631.021	55.06
631.353	55.23
631.684	54.44
632.016	54.86
632.348	55.15
632.679	55.2
633.011	54.95
633.342	54.91
633.674	54.81
634.005	55.43
634.336	54.64
634.668	55.72
634.999	55.43
635.33	55.31
635.661	55.43
635.992	55.02
636.323	55.61
636.654	55.4
636.985	55.08
637.316	55.44
637.647	55.16
637.977	55.55
638.308	55.33
638.639	55.01
638.969	55.4
639.3	55.29
639.63	55.52
639.961	55.96
640.291	56.09
640.622	56.21
640.952	56.18
641.282	56.21
641.612	56.23
641.943	55.49
642.273	56.44
642.603	56.45
642.933	55.89
643.263	55.83
643.592	55.88
643.922	55.85
644.252	56.17
644.582	56.18
644.911	56.35
645.241	56.41
645.571	55.8
645.9	55.69
646.23	56.52
646.559	56.08
646.888	56.94
647.218	56.37
647.547	56.55
647.876	56.2
648.205	56.22
648.534	57.25
648.863	56.21
649.192	56.78
649.521	56.84
649.85	56.73
650.179	56.52
650.508	57.44
650.837	56.77
651.165	56.69
651.494	57.32
651.822	56.48
652.151	56.86
652.479	56.69
652.808	56.67
653.136	57.32
653.465	56.74
653.793	56.92
654.121	56.56
654.449	56.58
654.777	57.59
655.105	57.25
655.433	57.07
655.761	56.62
656.089	57.37
656.417	57.01
656.745	57.21
657.073	57.16
657.4	57.87
657.728	57.05
658.056	57.43
658.383	57.25
658.711	57.54
659.038	57.75
659.365	57.25
659.693	57.13
660.02	57.23
660.347	57.79
660.674	57.48
661.001	57.92
661.329	57.3
661.656	57.27
661.982	57.56
662.309	57.5
662.636	57.51
662.963	57.57
663.29	57.93
663.616	57.77
663.943	57.32
664.27	57.88
664.596	57.27
664.923	57.3
665.249	57.97
665.576	57.51
665.902	58.28
666.228	58.36
666.554	58.28
666.881	57.99
667.207	59.16
667.533	57.58
667.859	57.45
668.185	58.12
668.511	58.12
668.837	57.73
669.162	57.89
669.488	57.24
