Data from 0205_forehead_Reflection__4__292.txt Node

Date: Fri Dec 15 18:49:19 CST 2023
User: ToomeyLab
Spectrometer: FLMS14357
Trigger mode: 0
Integration Time (sec): 1.000000E-2
Scans to average: 100
Electric dark correction enabled: true
Nonlinearity correction enabled: false
Boxcar width: 0
XAxis mode: Wavelengths
Number of Pixels in Spectrum: 2048
>>>>>Begin Spectral Data<<<<<
189.047	102.37
189.435	102.37
189.823	102.37
190.211	81.13
190.599	-120.72
190.987	79.93
191.375	32.72
191.763	3.93
192.151	105.19
192.538	70.29
192.926	324.14
193.314	6744
193.702	176.37
194.089	86.23
194.477	-445.88
194.864	-228.3
195.252	74.5
195.639	107.26
196.027	129.41
196.414	-3419.51
196.801	190.75
197.189	32.1
197.576	44.93
197.963	-246.43
198.351	-2.63
198.738	39.25
199.125	35.87
199.512	-2.72
199.899	26.44
200.286	55.16
200.673	0.19
201.06	39.63
201.447	24.35
201.833	39.12
202.22	43.95
202.607	38.89
202.994	13.76
203.38	60.49
203.767	55.77
204.154	29.83
204.54	49.63
204.927	58.67
205.313	8.8
205.699	64.06
206.086	43.47
206.472	20.29
206.858	36.31
207.245	17.32
207.631	30.44
208.017	33.97
208.403	10.32
208.789	62.41
209.175	47.11
209.561	16.21
209.947	62.44
210.333	47.52
210.719	46.19
211.105	34.22
211.491	-19.16
211.876	19.27
212.262	68.28
212.648	28.11
213.034	16.37
213.419	41.49
213.805	11.6
214.19	11.19
214.576	24.67
214.961	-6.74
215.346	-15.58
215.732	-5.24
216.117	19.23
216.502	14.55
216.888	36.47
217.273	41.12
217.658	-11.2
218.043	43.86
218.428	-13.52
218.813	4.96
219.198	-1.57
219.583	12.24
219.968	22.18
220.353	14.13
220.738	36.25
221.122	11.85
221.507	11.36
221.892	-19.06
222.276	-12.11
222.661	9.11
223.046	17.73
223.43	9.53
223.815	11.6
224.199	-11.55
224.583	4.15
224.968	3.64
225.352	24.65
225.736	6.09
226.121	-18.84
226.505	9.79
226.889	8.36
227.273	2.86
227.657	14.78
228.041	5.78
228.425	4.19
228.809	5.61
229.193	9.51
229.577	2.96
229.961	6.43
230.344	4.46
230.728	2.69
231.112	4.61
231.495	3.7
231.879	3.93
232.263	3.49
232.646	3.95
233.03	4.14
233.413	4.12
233.797	5.85
234.18	1.99
234.563	4.58
234.946	2.68
235.33	5.66
235.713	4.61
236.096	3.96
236.479	4.66
236.862	4.56
237.245	7
237.628	4.06
238.011	6.02
238.394	4.87
238.777	5.24
239.16	4.11
239.543	4.99
239.925	7.88
240.308	5.86
240.691	4.84
241.073	4.91
241.456	3.53
241.838	4.56
242.221	4.2
242.603	5.86
242.986	5.03
243.368	4.29
243.75	4.5
244.133	4.23
244.515	3.78
244.897	4.18
245.279	4.1
245.661	3.9
246.043	4.19
246.425	3.29
246.807	5.42
247.189	5.03
247.571	5.86
247.953	4.56
248.335	4.42
248.717	4.33
249.098	4.1
249.48	4.08
249.862	4.04
250.243	4.5
250.625	4.07
251.006	4.47
251.388	4.59
251.769	3.98
252.151	5.05
252.532	5.05
252.913	4.75
253.295	3.71
253.676	4.87
254.057	4.86
254.438	4.18
254.819	4.84
255.2	4.1
255.581	5.16
255.962	4.04
256.343	4.71
256.724	4.08
257.105	4.86
257.486	3.79
257.867	5.45
258.247	5.65
258.628	4.82
259.009	4.12
259.389	4.45
259.77	3.79
260.15	4.52
260.531	3.93
260.911	4.53
261.292	4.09
261.672	4.29
262.052	4.13
262.432	4.37
262.813	4.35
263.193	4.04
263.573	4.02
263.953	3.91
264.333	4.92
264.713	4.53
265.093	4.18
265.473	3.87
265.853	3.48
266.233	4.31
266.612	3.61
266.992	3.97
267.372	4.98
267.752	3.94
268.131	4.34
268.511	4.82
268.89	4.46
269.27	4.29
269.649	4.21
270.029	3.75
270.408	4.83
270.787	4.66
271.167	4.99
271.546	4.62
271.925	4.13
272.304	3.8
272.683	4.65
273.062	4.07
273.441	4.77
273.82	4.03
274.199	3.86
274.578	4.14
274.957	4.17
275.336	4.48
275.715	3.82
276.093	4.16
276.472	4.51
276.851	4.04
277.229	3.91
277.608	3.48
277.986	4.35
278.365	4.73
278.743	3.61
279.122	3.8
279.5	4.63
279.878	4.4
280.257	4.28
280.635	4.31
281.013	3.88
281.391	5.08
281.769	3.99
282.147	4.29
282.525	4.7
282.903	4.28
283.281	4.59
283.659	4.25
284.037	4.79
284.415	4.49
284.792	4.43
285.17	3.53
285.548	3.92
285.925	4.25
286.303	4.15
286.68	4.09
287.058	3.8
287.435	4.13
287.813	4.39
288.19	4.35
288.567	4.37
288.945	4.71
289.322	4.37
289.699	4.32
290.076	4.29
290.453	4.37
290.83	4.2
291.207	4.36
291.584	4.78
291.961	4.61
292.338	4.43
292.715	4.8
293.092	4.53
293.469	4.64
293.845	5.22
294.222	4.55
294.599	4.79
294.975	5.08
295.352	5.2
295.728	4.58
296.105	4.78
296.481	5.19
296.858	5.16
297.234	5.17
297.61	5.07
297.986	4.82
298.363	5.53
298.739	5.29
299.115	4.95
299.491	4.71
299.867	5.19
300.243	5.29
300.619	4.93
300.995	5.09
301.371	5.58
301.746	5.73
302.122	5.97
302.498	5.4
302.874	6.22
303.249	5.47
303.625	5.42
304	6.23
304.376	5.5
304.751	5.29
305.127	6.6
305.502	5.68
305.878	5.39
306.253	5.67
306.628	6.63
307.003	6.38
307.378	6.56
307.754	5.74
308.129	5.41
308.504	6.42
308.879	6.27
309.254	6.85
309.629	6.8
310.003	6.84
310.378	7.26
310.753	6.72
311.128	6.87
311.502	6.19
311.877	7.12
312.252	6.37
312.626	6.66
313.001	7.21
313.375	7.2
313.75	6.4
314.124	6.9
314.498	6.9
314.873	6.85
315.247	6.65
315.621	7.39
315.995	6.35
316.369	6.86
316.743	7.55
317.117	7.8
317.491	7.27
317.865	7.17
318.239	7.62
318.613	8.28
318.987	8.42
319.361	7.19
319.734	7.91
320.108	7.97
320.482	7.02
320.855	8.4
321.229	8.2
321.602	8.08
321.976	8.31
322.349	7.47
322.723	8.31
323.096	8.65
323.469	7.49
323.843	8.25
324.216	8.06
324.589	8.65
324.962	8.61
325.335	8.24
325.708	8.52
326.081	8.56
326.454	8.76
326.827	8.6
327.2	8.38
327.573	8.78
327.945	8.62
328.318	8.48
328.691	8.14
329.063	9.01
329.436	8.74
329.809	9.01
330.181	9.05
330.553	9.11
330.926	9.33
331.298	9.54
331.671	8.98
332.043	9.67
332.415	9.18
332.787	9.58
333.159	10.03
333.532	9.66
333.904	9.36
334.276	9.4
334.648	9.41
335.02	9.78
335.391	9.79
335.763	9.26
336.135	9.66
336.507	9.77
336.879	9.92
337.25	9.59
337.622	9.89
337.993	9.65
338.365	10.16
338.736	9.75
339.108	9.95
339.479	9.89
339.851	9.67
340.222	9.44
340.593	10.31
340.964	9.96
341.336	10.52
341.707	9.85
342.078	10.64
342.449	10.35
342.82	10.46
343.191	10.74
343.562	10.32
343.933	10.27
344.303	10.44
344.674	10.35
345.045	10.95
345.416	10.61
345.786	10.73
346.157	10.77
346.527	10.45
346.898	10.46
347.268	10.94
347.639	10.84
348.009	11.05
348.38	10.49
348.75	10.86
349.12	11.31
349.49	11.66
349.861	11.28
350.231	11.02
350.601	11.22
350.971	11.44
351.341	11.46
351.711	11.33
352.081	11.56
352.45	11.03
352.82	11.73
353.19	11.44
353.56	11.15
353.929	11.84
354.299	11.55
354.669	11.86
355.038	11.76
355.408	11.69
355.777	11.53
356.147	11.58
356.516	11.96
356.885	12.13
357.254	11.83
357.624	12.17
357.993	12.07
358.362	11.78
358.731	11.83
359.1	12.09
359.469	12.13
359.838	12.24
360.207	12.14
360.576	12.24
360.945	12.36
361.314	12.72
361.682	12.24
362.051	12.02
362.42	12.55
362.788	12.44
363.157	12.67
363.525	12.71
363.894	12.51
364.262	12.48
364.631	12.71
364.999	12.74
365.367	12.34
365.735	13.22
366.104	12.98
366.472	12.95
366.84	12.94
367.208	12.98
367.576	13.07
367.944	13.39
368.312	13.34
368.68	12.88
369.048	13.4
369.416	13.19
369.783	13
370.151	13.81
370.519	13.64
370.886	13.59
371.254	13.48
371.621	13.74
371.989	13.66
372.356	13.15
372.724	13.86
373.091	13.37
373.458	13.87
373.826	13.62
374.193	13.69
374.56	13.71
374.927	13.87
375.294	14.44
375.661	13.91
376.028	13.97
376.395	13.85
376.762	14.17
377.129	14.25
377.496	13.91
377.863	14.35
378.229	13.98
378.596	14.08
378.963	14.24
379.329	14.37
379.696	14.46
380.062	14.53
380.429	14.38
380.795	14.45
381.161	14.33
381.528	14.71
381.894	15
382.26	14.74
382.626	14.88
382.993	14.66
383.359	15.02
383.725	14.59
384.091	14.86
384.457	15.09
384.823	15.09
385.188	15.23
385.554	15.15
385.92	15.36
386.286	15.58
386.651	15.66
387.017	15.38
387.383	15.24
387.748	15.14
388.114	15.65
388.479	15.1
388.845	15.56
389.21	15.46
389.575	15.66
389.94	15.5
390.306	16.03
390.671	15.95
391.036	15.18
391.401	15.74
391.766	15.91
392.131	15.58
392.496	15.95
392.861	15.99
393.226	16.23
393.591	16.15
393.956	16.08
394.32	16.17
394.685	16.02
395.05	16.18
395.414	16.21
395.779	16.18
396.143	16.5
396.508	16.49
396.872	16.34
397.236	16.71
397.601	16.39
397.965	16.45
398.329	16.67
398.694	16.84
399.058	16.76
399.422	16.49
399.786	16.86
400.15	16.63
400.514	16.89
400.878	17.03
401.242	17.37
401.605	17.3
401.969	17.02
402.333	17.24
402.697	17.07
403.06	17.06
403.424	17.07
403.787	17.01
404.151	17.45
404.514	17.59
404.878	17.39
405.241	17.47
405.604	17.45
405.968	17.4
406.331	17.18
406.694	17.48
407.057	17.59
407.42	17.55
407.783	17.7
408.146	17.63
408.509	17.76
408.872	17.56
409.235	17.93
409.598	17.98
409.961	18.11
410.323	17.99
410.686	18.16
411.049	18.19
411.411	18.07
411.774	18.09
412.136	18.17
412.499	18.24
412.861	18.28
413.223	18.19
413.586	18.48
413.948	18.6
414.31	18.43
414.672	18.45
415.035	18.5
415.397	18.95
415.759	18.64
416.121	18.74
416.483	18.45
416.845	18.94
417.206	18.87
417.568	18.89
417.93	18.52
418.292	18.97
418.653	18.94
419.015	18.95
419.377	18.65
419.738	19.26
420.1	18.92
420.461	18.98
420.822	18.93
421.184	18.9
421.545	19.01
421.906	19
422.267	18.96
422.629	19.13
422.99	19.04
423.351	18.98
423.712	19.1
424.073	19.16
424.434	19.18
424.795	19.28
425.155	19.34
425.516	19.36
425.877	19.35
426.238	19.36
426.598	19.64
426.959	19.41
427.32	19.54
427.68	19.59
428.041	19.62
428.401	19.82
428.761	19.83
429.122	19.95
429.482	20.02
429.842	20.19
430.202	20.29
430.563	20.29
430.923	20.37
431.283	20.49
431.643	20.31
432.003	20.44
432.363	20.5
432.722	20.42
433.082	20.61
433.442	20.71
433.802	20.6
434.161	20.55
434.521	20.79
434.881	20.78
435.24	20.49
435.6	20.72
435.959	20.68
436.319	20.82
436.678	20.9
437.037	20.95
437.396	21.2
437.756	21.19
438.115	21.11
438.474	21.37
438.833	21.22
439.192	21.28
439.551	21.37
439.91	21.28
440.269	21.62
440.628	21.58
440.987	21.27
441.345	21.53
441.704	21.41
442.063	21.38
442.421	21.31
442.78	21.55
443.138	21.57
443.497	21.58
443.855	21.45
444.214	21.67
444.572	22.01
444.93	21.98
445.288	21.89
445.647	22.15
446.005	22.19
446.363	22.25
446.721	22.18
447.079	21.91
447.437	22.11
447.795	22.09
448.153	22.06
448.51	21.98
448.868	22.05
449.226	22.1
449.584	22.12
449.941	22.26
450.299	22.42
450.656	22.33
451.014	22.41
451.371	22.68
451.729	22.68
452.086	22.88
452.443	22.82
452.801	22.94
453.158	22.97
453.515	22.98
453.872	23.1
454.229	23.04
454.586	23.15
454.943	23.16
455.3	23.3
455.657	23.36
456.014	23.36
456.371	23.48
456.727	23.4
457.084	23.67
457.441	23.53
457.797	23.53
458.154	23.7
458.51	23.59
458.867	23.83
459.223	24.02
459.58	23.91
459.936	23.87
460.292	24.14
460.648	23.81
461.005	23.98
461.361	23.82
461.717	23.72
462.073	23.59
462.429	23.72
462.785	23.68
463.141	23.85
463.496	24.03
463.852	24.16
464.208	24.55
464.564	24.52
464.919	24.48
465.275	24.44
465.631	24.81
465.986	24.47
466.342	24.66
466.697	24.75
467.052	24.88
467.408	24.78
467.763	24.69
468.118	25.05
468.473	24.98
468.829	25.18
469.184	25.15
469.539	25.06
469.894	25.32
470.249	25.15
470.603	25.25
470.958	25.33
471.313	25.36
471.668	25.6
472.023	25.72
472.377	25.29
472.732	25.66
473.086	25.7
473.441	25.68
473.795	26
474.15	25.75
474.504	25.93
474.859	25.93
475.213	25.92
475.567	26.21
475.921	26.02
476.275	26.09
476.63	26.06
476.984	26.18
477.338	26.3
477.692	26.07
478.045	26.28
478.399	26.4
478.753	26.18
479.107	26.3
479.461	26.33
479.814	26.49
480.168	26.44
480.521	26.27
480.875	26.32
481.228	26.55
481.582	26.56
481.935	26.44
482.289	26.7
482.642	26.74
482.995	26.6
483.348	26.68
483.701	26.59
484.055	26.79
484.408	26.49
484.761	26.55
485.114	26.12
485.466	26.04
485.819	26.06
486.172	25.91
486.525	25.87
486.878	25.89
487.23	26.2
487.583	26.35
487.936	26.63
488.288	26.78
488.641	26.79
488.993	26.67
489.345	26.55
489.698	26.55
490.05	26.59
490.402	26.66
490.754	26.75
491.107	26.9
491.459	27.16
491.811	27.18
492.163	27.36
492.515	27.61
492.866	27.5
493.218	27.27
493.57	27.14
493.922	27.25
494.274	27.26
494.625	27.31
494.977	27.66
495.328	27.73
495.68	27.97
496.031	28.13
496.383	28.41
496.734	28.56
497.086	28.62
497.437	28.8
497.788	28.6
498.139	28.56
498.49	28.81
498.842	28.48
499.193	28.68
499.544	28.66
499.894	28.68
500.245	28.86
500.596	28.7
500.947	29.06
501.298	28.86
501.648	29.24
501.999	29.2
502.35	29.4
502.7	29.12
503.051	29.37
503.401	29.6
503.752	29.6
504.102	29.85
504.452	29.71
504.803	29.66
505.153	29.49
505.503	29.89
505.853	29.78
506.203	29.89
506.553	29.88
506.903	29.76
507.253	30.08
507.603	29.95
507.953	30.06
508.303	30.2
508.652	30.08
509.002	30.3
509.352	30.4
509.701	30.33
510.051	30.18
510.4	30.48
510.75	30.38
511.099	30.37
511.449	30.37
511.798	30.38
512.147	30.59
512.496	30.43
512.846	30.6
513.195	30.65
513.544	30.43
513.893	30.65
514.242	30.64
514.591	31.03
514.939	30.83
515.288	30.89
515.637	31.03
515.986	31.13
516.334	31.12
516.683	31.43
517.032	31.22
517.38	31.28
517.729	31.38
518.077	31.31
518.426	31.43
518.774	31.64
519.122	31.49
519.47	31.35
519.819	31.48
520.167	31.41
520.515	31.18
520.863	31.3
521.211	31.34
521.559	31.37
521.907	31.53
522.255	31.72
522.602	31.75
522.95	31.78
523.298	31.94
523.645	32.09
523.993	32.18
524.341	32.27
524.688	32.43
525.036	32.39
525.383	32.46
525.73	32.46
526.078	32.5
526.425	32.54
526.772	32.34
527.119	32.32
527.466	32.16
527.814	32.34
528.161	32.28
528.508	32.1
528.854	32.25
529.201	32.32
529.548	32.17
529.895	32.14
530.242	32.04
530.588	31.99
530.935	31.91
531.282	31.92
531.628	31.83
531.975	32.07
532.321	32.42
532.667	32.43
533.014	32.71
533.36	32.87
533.706	32.96
534.052	33.02
534.399	32.95
534.745	32.91
535.091	32.9
535.437	32.91
535.783	32.82
536.129	32.84
536.474	32.85
536.82	33.14
537.166	33.36
537.512	33.63
537.857	33.72
538.203	33.83
538.549	33.75
538.894	33.66
539.239	33.65
539.585	33.79
539.93	33.69
540.276	34.07
540.621	34.13
540.966	34.32
541.311	34.46
541.656	34.4
542.001	34.44
542.346	34.66
542.691	34.22
543.036	34.08
543.381	33.9
543.726	33.86
544.071	33.84
544.415	34
544.76	34.03
545.105	34.32
545.449	34.41
545.794	34.52
546.138	34.55
546.483	34.82
546.827	35.02
547.171	35.01
547.516	35.33
547.86	35.25
548.204	35.27
548.548	35.32
548.892	35.35
549.236	35.42
549.58	35.41
549.924	35.44
550.268	35.74
550.612	35.77
550.956	36.08
551.3	36.05
551.643	36.15
551.987	36.21
552.33	36.44
552.674	36.39
553.017	36.37
553.361	36.36
553.704	36.68
554.048	36.63
554.391	36.59
554.734	36.65
555.077	36.69
555.42	36.43
555.764	36.49
556.107	36.52
556.45	36.97
556.793	36.85
557.135	36.92
557.478	36.91
557.821	37.2
558.164	37
558.507	37.45
558.849	37.52
559.192	37.3
559.534	37.34
559.877	37.35
560.219	37.15
560.562	37.56
560.904	37.61
561.246	37.5
561.589	37.69
561.931	37.85
562.273	37.54
562.615	37.75
562.957	38.06
563.299	37.74
563.641	37.76
563.983	37.87
564.325	37.64
564.667	38
565.008	38.32
565.35	38.3
565.692	38.48
566.033	38.37
566.375	38.43
566.716	38.28
567.058	38.34
567.399	38.26
567.741	38.44
568.082	38.23
568.423	38.31
568.764	38.17
569.105	38.36
569.447	38.43
569.788	38.49
570.129	38.74
570.47	38.83
570.811	38.68
571.151	39
571.492	38.98
571.833	39.03
572.174	38.74
572.514	39.07
572.855	39.12
573.195	39.15
573.536	39.11
573.876	38.94
574.217	39.04
574.557	39
574.898	39.2
575.238	39.26
575.578	39.11
575.918	39.11
576.258	39.37
576.598	39.52
576.938	39.56
577.278	39.8
577.618	39.75
577.958	39.62
578.298	39.67
578.638	39.72
578.977	39.88
579.317	40.01
579.657	40.4
579.996	40.21
580.336	40.39
580.675	40.37
581.014	40.66
581.354	40.69
581.693	40.6
582.032	40.81
582.372	40.76
582.711	41
583.05	40.72
583.389	41.06
583.728	40.88
584.067	41.14
584.406	41.3
584.745	41.27
585.083	41.14
585.422	41.3
585.761	41.24
586.1	41.37
586.438	41.46
586.777	41.41
587.115	41.52
587.454	41.57
587.792	41.4
588.13	41.93
588.469	41.62
588.807	41.66
589.145	41.34
589.483	41.72
589.821	41.7
590.159	41.51
590.497	42.22
590.835	42.18
591.173	41.63
591.511	41.88
591.849	41.9
592.187	41.9
592.524	41.95
592.862	41.87
593.2	41.93
593.537	42.03
593.875	42.3
594.212	42.54
594.55	42.02
594.887	42.25
595.224	42.63
595.561	42.66
595.899	42.42
596.236	42.65
596.573	42.49
596.91	42.43
597.247	42.8
597.584	43
597.921	42.88
598.258	42.66
598.594	42.78
598.931	42.52
599.268	43.07
599.604	42.8
599.941	42.88
600.277	42.61
600.614	43.04
600.95	43.07
601.287	42.94
601.623	43.2
601.959	43.27
602.296	43.63
602.632	43.49
602.968	43.58
603.304	43.73
603.64	43.65
603.976	43.75
604.312	43.88
604.648	43.69
604.984	44.07
605.319	43.74
605.655	43.44
605.991	43.48
606.326	43.62
606.662	43.41
606.998	43.57
607.333	43.76
607.668	43.58
608.004	43.75
608.339	43.75
608.674	44.24
609.01	43.4
609.345	44.1
609.68	44.3
610.015	44.33
610.35	44.61
610.685	44.25
611.02	44.61
611.355	44.56
611.689	44.71
612.024	44.53
612.359	44.23
612.694	44.42
613.028	44.21
613.363	44.65
613.697	44.7
614.032	44.85
614.366	45.33
614.7	45.16
615.035	45.42
615.369	45.51
615.703	45.46
616.037	45.06
616.371	45.44
616.705	45.28
617.039	45.8
617.373	45.27
617.707	45.57
618.041	45.38
618.375	45.12
618.709	45.71
619.042	45.94
619.376	45.79
619.71	45.74
620.043	46.01
620.377	45.73
620.71	46.3
621.043	46.61
621.377	46.22
621.71	46.33
622.043	45.76
622.376	46.21
622.709	45.91
623.043	46.28
623.376	46.18
623.709	46.44
624.041	46.43
624.374	46.47
624.707	46.63
625.04	46.75
625.373	46.3
625.705	46.73
626.038	46.97
626.37	47.03
626.703	47.12
627.035	46.78
627.368	47.14
627.7	47.2
628.032	46.85
628.365	46.91
628.697	47.16
629.029	46.88
629.361	46.92
629.693	47.35
630.025	46.73
630.357	47.28
630.689	47.13
631.021	47.42
631.353	47.61
631.684	47.13
632.016	47.05
632.348	47
632.679	47.64
633.011	47.25
633.342	47.17
633.674	47.28
634.005	47.89
634.336	47.45
634.668	48.08
634.999	48.17
635.33	48.29
635.661	47.72
635.992	47.94
636.323	48.06
636.654	48.17
636.985	48.25
637.316	47.72
637.647	48.06
637.977	48.54
638.308	48.34
638.639	48.13
638.969	48.27
639.3	48.35
639.63	47.84
639.961	48.33
640.291	48.45
640.622	48.68
640.952	48.94
641.282	48.92
641.612	48.96
641.943	48.22
642.273	48.58
642.603	48.93
642.933	49.14
643.263	48.92
643.592	48.69
643.922	48.8
644.252	49.15
644.582	49.4
644.911	48.95
645.241	49.26
645.571	49.03
645.9	49.06
646.23	48.9
646.559	49.3
646.888	50.01
647.218	49.58
647.547	49.71
647.876	49.5
648.205	49.27
648.534	50.21
648.863	49.98
649.192	49.92
649.521	50.25
649.85	49.74
650.179	50.12
650.508	50.06
650.837	49.53
651.165	49.58
651.494	50.39
651.822	49.94
652.151	50.11
652.479	49.81
652.808	50.1
653.136	50.57
653.465	49.94
653.793	49.43
654.121	49.78
654.449	50.09
654.777	50.49
655.105	50.41
655.433	50.04
655.761	50.09
656.089	51.14
656.417	50.7
656.745	50.43
657.073	50.27
657.4	51.64
657.728	50.4
658.056	50.63
658.383	50.79
658.711	50.77
659.038	50.76
659.365	51.25
659.693	50.19
660.02	50.16
660.347	50.7
660.674	50.53
661.001	50.96
661.329	51.04
661.656	51.06
661.982	50.95
662.309	50.94
662.636	50.78
662.963	51.82
663.29	51.66
663.616	51.14
663.943	51.31
664.27	51.3
664.596	51.03
664.923	51.13
665.249	51.55
665.576	51.63
665.902	51.8
666.228	51.97
666.554	52.11
666.881	51.82
667.207	52.38
667.533	52.17
667.859	51.42
668.185	52.02
668.511	52.06
668.837	51.85
669.162	51.73
669.488	51.21
669.814	52.23
670.139	52.11
670.465	52.88
