Data from 0205_crown_Reflection__0__283.txt Node

Date: Fri Dec 15 18:47:24 CST 2023
User: ToomeyLab
Spectrometer: FLMS14357
Trigger mode: 0
Integration Time (sec): 1.000000E-2
Scans to average: 100
Electric dark correction enabled: true
Nonlinearity correction enabled: false
Boxcar width: 0
XAxis mode: Wavelengths
Number of Pixels in Spectrum: 2048
>>>>>Begin Spectral Data<<<<<
189.047	-258.25
189.435	-258.25
189.823	-258.25
190.211	213.92
190.599	-122.93
190.987	25.12
191.375	82.6
191.763	58.97
192.151	160.13
192.538	72.1
192.926	8.33
193.314	8102.67
193.702	75.53
194.089	-11.98
194.477	263.42
194.864	-58.23
195.252	90.24
195.639	174.38
196.027	-95.56
196.414	-1056.1
196.801	163.34
197.189	33.54
197.576	130.51
197.963	-762.02
198.351	-247.31
198.738	-46.39
199.125	-20.4
199.512	-0.55
199.899	13.68
200.286	-1.61
200.673	-70.65
201.06	0.14
201.447	-7.55
201.833	-28.95
202.22	9.55
202.607	-3.09
202.994	-32.66
203.38	-12.44
203.767	44.6
204.154	25.67
204.54	39.36
204.927	-111.59
205.313	-19.28
205.699	15.6
206.086	42.16
206.472	24.06
206.858	-16.24
207.245	-0.13
207.631	59.51
208.017	-17.49
208.403	68.64
208.789	-14.6
209.175	15.49
209.561	2.74
209.947	-4.64
210.333	-68.18
210.719	28.71
211.105	3.06
211.491	-48.02
211.876	-1.2
212.262	20.36
212.648	10.12
213.034	9.45
213.419	-30.24
213.805	4.78
214.19	3.07
214.576	-10.96
214.961	-20.29
215.346	-59.07
215.732	47.31
216.117	15.19
216.502	-28.06
216.888	7.11
217.273	-1.37
217.658	4.02
218.043	-1.87
218.428	-104.55
218.813	-41.99
219.198	-25.91
219.583	-15.52
219.968	-5.84
220.353	-28.26
220.738	18.22
221.122	1.51
221.507	3.56
221.892	-42.33
222.276	-32.74
222.661	-17.18
223.046	17.45
223.43	12.89
223.815	-8.11
224.199	-27.96
224.583	-1.99
224.968	-8.43
225.352	2.11
225.736	-2.49
226.121	-10.36
226.505	1.8
226.889	6.62
227.273	-1.58
227.657	9.32
228.041	2.06
228.425	6.06
228.809	10.2
229.193	1.81
229.577	2.63
229.961	4.58
230.344	3.84
230.728	4.14
231.112	4.12
231.495	3.73
231.879	4.23
232.263	5.79
232.646	3.97
233.03	3.73
233.413	3.38
233.797	3.47
234.18	3.14
234.563	2.55
234.946	0.75
235.33	7.98
235.713	3.46
236.096	3.07
236.479	4.64
236.862	4.1
237.245	5.26
237.628	2.4
238.011	3.46
238.394	4.85
238.777	5.32
239.16	2.27
239.543	2.88
239.925	5.25
240.308	4.44
240.691	4.57
241.073	2.46
241.456	4.97
241.838	4.23
242.221	2.99
242.603	5.05
242.986	3.81
243.368	5.06
243.75	4.67
244.133	4.54
244.515	4.68
244.897	4.66
245.279	5
245.661	4.36
246.043	3.25
246.425	3.99
246.807	5.25
247.189	4.8
247.571	3.86
247.953	5.18
248.335	4.27
248.717	4.34
249.098	4.47
249.48	4.51
249.862	4.48
250.243	4.38
250.625	4.8
251.006	4.9
251.388	3.48
251.769	4.35
252.151	4.26
252.532	4.13
252.913	3.96
253.295	3.61
253.676	3.97
254.057	4.14
254.438	4.44
254.819	3.76
255.2	3.95
255.581	3.27
255.962	2.99
256.343	3.51
256.724	2.47
257.105	3.94
257.486	3.54
257.867	3.62
258.247	3.86
258.628	3.73
259.009	2.19
259.389	4
259.77	3.52
260.15	3.66
260.531	3.17
260.911	4.39
261.292	4.14
261.672	4.23
262.052	4.22
262.432	4.15
262.813	4.77
263.193	3.98
263.573	3.75
263.953	3.68
264.333	4.33
264.713	4.06
265.093	3.83
265.473	3.77
265.853	2.89
266.233	3.78
266.612	2.19
266.992	2.61
267.372	4.48
267.752	3.97
268.131	3.75
268.511	4.04
268.89	4.23
269.27	3.81
269.649	3.27
270.029	4.12
270.408	4.9
270.787	4.06
271.167	4.56
271.546	3.71
271.925	3.3
272.304	3.89
272.683	4.06
273.062	3.18
273.441	3.94
273.82	3.38
274.199	3.72
274.578	4
274.957	4.18
275.336	3.84
275.715	3.37
276.093	3.32
276.472	3.76
276.851	3.42
277.229	3.71
277.608	3.89
277.986	3.77
278.365	3.57
278.743	3.22
279.122	3.61
279.5	3.8
279.878	4
280.257	3.57
280.635	2.92
281.013	3.82
281.391	4.52
281.769	3.65
282.147	3.54
282.525	4
282.903	3.2
283.281	3.84
283.659	3.95
284.037	3.97
284.415	3.89
284.792	4.05
285.17	3.04
285.548	3.17
285.925	3.62
286.303	3.44
286.68	3.28
287.058	3.92
287.435	3.6
287.813	3.62
288.19	3.82
288.567	3.64
288.945	3.93
289.322	3.66
289.699	3.53
290.076	3.52
290.453	3.55
290.83	3.51
291.207	3.7
291.584	4.15
291.961	3.84
292.338	3.75
292.715	4.06
293.092	3.49
293.469	3.43
293.845	3.77
294.222	3.43
294.599	3.5
294.975	3.06
295.352	3.69
295.728	3
296.105	3.4
296.481	4.23
296.858	3.45
297.234	3.87
297.61	3.73
297.986	3.34
298.363	3.78
298.739	4.23
299.115	3.46
299.491	3.61
299.867	3.47
300.243	3.57
300.619	3.2
300.995	3.08
301.371	3.77
301.746	2.89
302.122	3.59
302.498	3.88
302.874	3.48
303.249	3.24
303.625	3.49
304	3.67
304.376	3.08
304.751	3.03
305.127	4.33
305.502	2.93
305.878	3.09
306.253	3.35
306.628	3.81
307.003	3.05
307.378	3.98
307.754	3.68
308.129	2.79
308.504	3.06
308.879	2.91
309.254	4
309.629	3.21
310.003	3.04
310.378	3.8
310.753	3.52
311.128	3.42
311.502	3.65
311.877	3.8
312.252	3.28
312.626	3.32
313.001	3.69
313.375	3.55
313.75	3.26
314.124	3.63
314.498	3.54
314.873	3.73
315.247	2.89
315.621	3.43
315.995	2.51
316.369	3.54
316.743	3.14
317.117	3.79
317.491	3.26
317.865	3.23
318.239	3.18
318.613	3.26
318.987	3.93
319.361	3.18
319.734	3.51
320.108	3.39
320.482	3.35
320.855	3.46
321.229	3.24
321.602	3.05
321.976	2.94
322.349	2.97
322.723	3.19
323.096	3.82
323.469	2.7
323.843	3.81
324.216	3.55
324.589	2.89
324.962	3.77
325.335	3.74
325.708	2.99
326.081	2.95
326.454	3.52
326.827	3.25
327.2	3.74
327.573	3.83
327.945	3.49
328.318	3
328.691	3.09
329.063	3.29
329.436	3.5
329.809	3.89
330.181	3.1
330.553	3.48
330.926	3.5
331.298	4.02
331.671	3.05
332.043	4.4
332.415	3.92
332.787	3.55
333.159	4.02
333.532	3.7
333.904	3.34
334.276	3.31
334.648	3.52
335.02	3.34
335.391	3.36
335.763	3.82
336.135	3.6
336.507	3.97
336.879	2.98
337.25	3.04
337.622	3.6
337.993	3.49
338.365	3.6
338.736	3.39
339.108	3.69
339.479	3.09
339.851	3.38
340.222	3.77
340.593	3.54
340.964	3.47
341.336	3.86
341.707	3.39
342.078	3.73
342.449	4.06
342.82	3.38
343.191	3.74
343.562	3.75
343.933	3.39
344.303	3.54
344.674	3.14
345.045	3.39
345.416	3.53
345.786	3.1
346.157	3.71
346.527	3.14
346.898	3.39
347.268	3.47
347.639	3.19
348.009	4.12
348.38	3.37
348.75	3.55
349.12	3.42
349.49	4.05
349.861	3.66
350.231	2.94
350.601	3.87
350.971	3.81
351.341	3.43
351.711	3.41
352.081	3.62
352.45	3.24
352.82	4.03
353.19	3.23
353.56	3.52
353.929	3.48
354.299	3.71
354.669	3.05
355.038	4.1
355.408	3.34
355.777	3.57
356.147	3.75
356.516	3.71
356.885	3.8
357.254	3.7
357.624	3.81
357.993	3.87
358.362	3.2
358.731	3.66
359.1	3.75
359.469	3.72
359.838	3.97
360.207	3.46
360.576	3.87
360.945	3.6
361.314	3.9
361.682	3.39
362.051	3.17
362.42	3.93
362.788	3.89
363.157	3.78
363.525	4.02
363.894	3.55
364.262	3.83
364.631	3.93
364.999	3.67
365.367	3.64
365.735	4.33
366.104	3.77
366.472	3.83
366.84	3.57
367.208	3.93
367.576	3.82
367.944	3.85
368.312	3.46
368.68	3.59
369.048	3.96
369.416	3.8
369.783	3.63
370.151	3.65
370.519	4.17
370.886	4.16
371.254	3.56
371.621	4.12
371.989	3.95
372.356	3.2
372.724	3.93
373.091	3.71
373.458	3.63
373.826	3.97
374.193	3.73
374.56	3.68
374.927	3.91
375.294	3.71
375.661	3.72
376.028	3.8
376.395	4
376.762	3.86
377.129	3.79
377.496	3.54
377.863	3.79
378.229	3.11
378.596	3.94
378.963	3.79
379.329	3.58
379.696	4.11
380.062	3.93
380.429	3.94
380.795	3.81
381.161	3.72
381.528	3.86
381.894	3.97
382.26	3.75
382.626	3.68
382.993	3.74
383.359	4.21
383.725	3.59
384.091	3.84
384.457	4.02
384.823	3.78
385.188	3.9
385.554	3.79
385.92	4.28
386.286	4.09
386.651	4
387.017	4.51
387.383	4.02
387.748	3.9
388.114	4.06
388.479	3.9
388.845	4.24
389.21	4.02
389.575	4
389.94	4.1
390.306	4.12
390.671	4.08
391.036	3.81
391.401	3.83
391.766	4.09
392.131	3.9
392.496	4.02
392.861	3.89
393.226	4.37
393.591	3.97
393.956	3.97
394.32	3.94
394.685	3.86
395.05	3.91
395.414	4.34
395.779	3.8
396.143	4.12
396.508	4.11
396.872	4.05
397.236	3.94
397.601	3.77
397.965	4
398.329	3.92
398.694	4.17
399.058	4.06
399.422	4.04
399.786	4.35
400.15	4.31
400.514	4.04
400.878	4.2
401.242	4.27
401.605	4.11
401.969	4.23
402.333	4.08
402.697	4.18
403.06	4.17
403.424	4.2
403.787	4.1
404.151	4.36
404.514	4.26
404.878	4.13
405.241	4.15
405.604	4.16
405.968	4.41
406.331	4.2
406.694	4.34
407.057	4.34
407.42	4.2
407.783	4.04
408.146	4.13
408.509	4.16
408.872	3.99
409.235	3.98
409.598	4.32
409.961	4.18
410.323	4.66
410.686	4.11
411.049	4.19
411.411	4.05
411.774	4.17
412.136	4.25
412.499	4.25
412.861	4.12
413.223	4.23
413.586	4.36
413.948	4.46
414.31	4.26
414.672	4.27
415.035	4.29
415.397	4.58
415.759	4.15
416.121	4.41
416.483	4.07
416.845	4.4
417.206	4.18
417.568	4.4
417.93	4.14
418.292	4.27
418.653	4.19
419.015	4.31
419.377	4.31
419.738	4.36
420.1	4.38
420.461	4.48
420.822	4.15
421.184	4.3
421.545	4.21
421.906	4.17
422.267	4.23
422.629	4.23
422.99	4.21
423.351	4.17
423.712	4.16
424.073	4.31
424.434	4.23
424.795	4.27
425.155	4.38
425.516	4.17
425.877	4.14
426.238	4.13
426.598	4.37
426.959	4.27
427.32	4.27
427.68	4.3
428.041	4.22
428.401	4.34
428.761	4.33
429.122	4.52
429.482	4.26
429.842	4.42
430.202	4.51
430.563	4.41
430.923	4.14
431.283	4.32
431.643	4.25
432.003	4.45
432.363	4.37
432.722	4.34
433.082	4.58
433.442	4.4
433.802	4.25
434.161	4.35
434.521	4.6
434.881	4.32
435.24	4.14
435.6	4.33
435.959	4.38
436.319	4.26
436.678	4.35
437.037	4.26
437.396	4.48
437.756	4.56
438.115	4.42
438.474	4.61
438.833	4.29
439.192	4.35
439.551	4.49
439.91	4.35
440.269	4.39
440.628	4.27
440.987	4.42
441.345	4.22
441.704	4.44
442.063	4.29
442.421	4.34
442.78	4.42
443.138	4.39
443.497	4.4
443.855	4.42
444.214	4.45
444.572	4.42
444.93	4.42
445.288	4.47
445.647	4.52
446.005	4.36
446.363	4.47
446.721	4.48
447.079	4.19
447.437	4.39
447.795	4.4
448.153	4.34
448.51	4.35
448.868	4.35
449.226	4.36
449.584	4.46
449.941	4.57
450.299	4.39
450.656	4.42
451.014	4.46
451.371	4.42
451.729	4.43
452.086	4.8
452.443	4.36
452.801	4.47
453.158	4.46
453.515	4.41
453.872	4.54
454.229	4.45
454.586	4.51
454.943	4.56
455.3	4.56
455.657	4.45
456.014	4.45
456.371	4.45
456.727	4.51
457.084	4.62
457.441	4.53
457.797	4.54
458.154	4.77
458.51	4.56
458.867	4.57
459.223	4.57
459.58	4.36
459.936	4.5
460.292	4.53
460.648	4.36
461.005	4.55
461.361	4.42
461.717	4.45
462.073	4.43
462.429	4.52
462.785	4.55
463.141	4.58
463.496	4.68
463.852	4.59
464.208	4.6
464.564	4.65
464.919	4.52
465.275	4.45
465.631	4.7
465.986	4.38
466.342	4.5
466.697	4.42
467.052	4.72
467.408	4.52
467.763	4.61
468.118	4.39
468.473	4.55
468.829	4.51
469.184	4.44
469.539	4.66
469.894	4.44
470.249	4.74
470.603	4.73
470.958	4.69
471.313	4.55
471.668	4.63
472.023	4.45
472.377	4.53
472.732	4.46
473.086	4.51
473.441	4.47
473.795	4.79
474.15	4.68
474.504	4.45
474.859	4.77
475.213	4.53
475.567	4.62
475.921	4.55
476.275	4.67
476.63	4.73
476.984	4.63
477.338	4.64
477.692	4.34
478.045	4.76
478.399	4.67
478.753	4.54
479.107	4.67
479.461	4.57
479.814	4.7
480.168	4.66
480.521	4.49
480.875	4.61
481.228	4.68
481.582	4.51
481.935	4.6
482.289	4.58
482.642	4.53
482.995	4.38
483.348	4.47
483.701	4.55
484.055	4.59
484.408	4.51
484.761	4.45
485.114	4.38
485.466	4.26
485.819	4.24
486.172	4.27
486.525	4.46
486.878	4.49
487.23	4.56
487.583	4.54
487.936	4.54
488.288	4.5
488.641	4.48
488.993	4.34
489.345	4.36
489.698	4.44
490.05	4.42
490.402	4.51
490.754	4.52
491.107	4.57
491.459	4.65
491.811	4.58
492.163	4.6
492.515	4.59
492.866	4.52
493.218	4.46
493.57	4.38
493.922	4.45
494.274	4.58
494.625	4.66
494.977	4.68
495.328	4.72
495.68	4.7
496.031	4.84
496.383	4.61
496.734	4.82
497.086	4.79
497.437	4.61
497.788	4.63
498.139	4.71
498.49	4.67
498.842	4.49
499.193	4.6
499.544	4.73
499.894	4.66
500.245	4.65
500.596	4.59
500.947	4.73
501.298	4.61
501.648	4.78
501.999	4.84
502.35	4.78
502.7	4.71
503.051	4.54
503.401	4.61
503.752	4.84
504.102	4.79
504.452	4.87
504.803	4.6
505.153	4.69
505.503	4.7
505.853	4.68
506.203	4.79
506.553	4.61
506.903	4.64
507.253	4.64
507.603	4.66
507.953	4.8
508.303	4.86
508.652	4.59
509.002	4.77
509.352	4.81
509.701	4.66
510.051	4.77
510.4	4.65
510.75	4.69
511.099	4.64
511.449	4.73
511.798	4.8
512.147	4.78
512.496	4.57
512.846	4.75
513.195	4.68
513.544	4.73
513.893	4.82
514.242	4.67
514.591	4.81
514.939	4.77
515.288	4.59
515.637	4.87
515.986	4.8
516.334	4.87
516.683	4.84
517.032	4.75
517.38	4.83
517.729	4.82
518.077	4.63
518.426	4.66
518.774	4.78
519.122	4.75
519.47	4.69
519.819	4.67
520.167	4.63
520.515	4.7
520.863	4.71
521.211	4.71
521.559	4.89
521.907	4.81
522.255	4.73
522.602	4.84
522.95	4.68
523.298	4.79
523.645	4.91
523.993	4.78
524.341	4.85
524.688	4.79
525.036	4.72
525.383	4.75
525.73	4.96
526.078	4.74
526.425	4.77
526.772	4.78
527.119	4.71
527.466	4.61
527.814	4.7
528.161	4.67
528.508	4.81
528.854	4.59
529.201	4.71
529.548	4.65
529.895	4.56
530.242	4.5
530.588	4.52
530.935	4.57
531.282	4.6
531.628	4.66
531.975	4.74
532.321	4.78
532.667	4.81
533.014	4.83
533.36	4.78
533.706	4.74
534.052	4.77
534.399	4.7
534.745	4.65
535.091	4.64
535.437	4.66
535.783	4.66
536.129	4.77
536.474	4.76
536.82	4.91
537.166	4.87
537.512	4.82
537.857	4.82
538.203	4.75
538.549	4.71
538.894	4.69
539.239	4.83
539.585	4.83
539.93	4.65
540.276	4.89
540.621	4.93
540.966	4.85
541.311	4.64
541.656	4.75
542.001	4.82
542.346	4.91
542.691	4.65
543.036	4.66
543.381	4.58
543.726	4.61
544.071	4.78
544.415	4.86
544.76	4.87
545.105	4.92
545.449	4.82
545.794	4.86
546.138	4.85
546.483	4.92
546.827	4.8
547.171	4.83
547.516	4.91
547.86	4.83
548.204	4.78
548.548	4.85
548.892	4.85
549.236	4.76
549.58	4.89
549.924	4.98
550.268	4.95
550.612	4.95
550.956	5.21
551.3	4.96
551.643	5.08
551.987	4.93
552.33	4.82
552.674	4.92
553.017	4.93
553.361	4.9
553.704	4.98
554.048	4.93
554.391	4.8
554.734	4.81
555.077	4.94
555.42	4.77
555.764	4.8
556.107	4.7
556.45	4.83
556.793	4.84
557.135	5.03
557.478	5.09
557.821	5
558.164	4.79
558.507	4.88
558.849	4.93
559.192	5
559.534	4.91
559.877	4.93
560.219	4.84
560.562	5.26
560.904	5.05
561.246	4.85
561.589	4.82
561.931	4.84
562.273	4.83
562.615	5.14
562.957	5.07
563.299	4.77
563.641	4.87
563.983	4.94
564.325	4.9
564.667	4.82
565.008	4.85
565.35	5.01
565.692	4.84
566.033	5.02
566.375	5.15
566.716	5.18
567.058	4.91
567.399	4.92
567.741	4.76
568.082	4.94
568.423	4.95
568.764	5.04
569.105	5.03
569.447	5.19
569.788	4.89
570.129	4.99
570.47	5
570.811	4.95
571.151	5.15
571.492	5.1
571.833	4.88
572.174	4.95
572.514	4.85
572.855	4.96
573.195	5.03
573.536	5.06
573.876	4.85
574.217	4.9
574.557	5.06
574.898	5
575.238	5.06
575.578	4.88
575.918	5.18
576.258	4.99
576.598	4.98
576.938	4.86
577.278	5.14
577.618	5.06
577.958	5.01
578.298	5
578.638	4.89
578.977	4.94
579.317	5.07
579.657	5.26
579.996	5.02
580.336	5.13
580.675	5.02
581.014	4.94
581.354	5.15
581.693	5.19
582.032	5
582.372	4.86
582.711	4.97
583.05	4.71
583.389	4.9
583.728	4.93
584.067	5.08
584.406	5.02
584.745	5.14
585.083	5.04
585.422	4.98
585.761	5.12
586.1	5.17
586.438	5.05
586.777	5.1
587.115	5.1
587.454	5.22
587.792	4.87
588.13	5.08
588.469	4.79
588.807	4.84
589.145	4.82
589.483	5.03
589.821	4.83
590.159	5.07
590.497	5.03
590.835	5.42
591.173	5.06
591.511	5.29
591.849	5.22
592.187	5.17
592.524	5.12
592.862	5.03
593.2	5.12
593.537	5.14
593.875	5
594.212	4.95
594.55	5.04
594.887	5.29
595.224	4.94
595.561	5.06
595.899	5.14
596.236	4.97
596.573	5.28
596.91	4.81
597.247	4.76
597.584	5.19
597.921	5
598.258	4.7
598.594	4.89
598.931	4.95
599.268	5.03
599.604	5.12
599.941	5.09
600.277	5.06
600.614	5.05
600.95	4.82
601.287	5.26
601.623	4.97
601.959	4.86
602.296	5.04
602.632	5.18
602.968	4.94
603.304	4.92
603.64	5.05
603.976	5.05
604.312	4.96
604.648	4.97
604.984	5.29
605.319	4.91
605.655	4.94
605.991	5.04
606.326	5.22
606.662	5.08
606.998	4.78
607.333	5.05
607.668	4.9
608.004	5.15
608.339	5.3
608.674	5.08
609.01	4.94
609.345	5
609.68	5.3
610.015	4.89
610.35	5
610.685	4.83
611.02	5.1
611.355	5.09
611.689	5.08
612.024	5.04
612.359	5.02
612.694	5.07
613.028	5.17
613.363	5.25
613.697	5.18
614.032	5.15
614.366	5.13
614.7	5.05
615.035	5.06
615.369	5.08
615.703	5
616.037	4.96
616.371	4.72
616.705	5.09
617.039	5.24
617.373	4.71
617.707	4.7
618.041	4.72
618.375	5.17
618.709	5.09
619.042	4.93
619.376	5.1
619.71	5.23
620.043	5.44
620.377	5.17
620.71	5.41
621.043	4.93
621.377	5.34
621.71	5.37
622.043	4.81
622.376	4.64
622.709	5.14
623.043	5.37
623.376	5.41
623.709	4.81
624.041	5.07
624.374	4.96
624.707	4.87
625.04	5.17
625.373	4.7
625.705	5.03
626.038	4.94
626.37	5.02
626.703	4.93
627.035	5.41
627.368	5.68
627.7	5.33
628.032	4.84
628.365	5.34
628.697	4.97
629.029	4.89
629.361	4.85
629.693	5.13
630.025	4.94
630.357	5.42
630.689	4.93
631.021	5.1
631.353	5.54
631.684	5.17
632.016	5.02
632.348	5.42
632.679	4.84
633.011	5.54
633.342	5.19
633.674	5
634.005	5.2
634.336	5.14
634.668	5.72
634.999	4.82
635.33	5.07
635.661	5.65
635.992	5.12
636.323	5.48
636.654	5.47
636.985	5.52
637.316	5.14
637.647	4.96
637.977	5.17
638.308	5.25
638.639	4.85
638.969	4.99
639.3	4.79
639.63	4.47
639.961	5.22
640.291	4.81
640.622	5.46
640.952	5.01
641.282	5.72
641.612	5.29
641.943	5.01
642.273	5.15
642.603	5.32
642.933	5.12
643.263	5.25
643.592	5.07
643.922	4.76
644.252	4.94
644.582	5.38
644.911	4.67
645.241	4.89
645.571	4.62
645.9	5.12
646.23	5.57
646.559	5.26
646.888	4.71
647.218	5.04
647.547	5.39
647.876	5.05
648.205	5.4
648.534	4.82
648.863	4.94
649.192	5.95
649.521	5.02
649.85	5.04
650.179	5.1
650.508	4.9
650.837	5.11
651.165	4.44
651.494	5.12
651.822	4.99
652.151	4.78
652.479	4.87
652.808	4.85
653.136	5.36
653.465	4.54
653.793	5.09
654.121	5.18
654.449	5.48
654.777	5.35
655.105	5.73
655.433	5.18
655.761	4.85
656.089	4.94
656.417	5.4
656.745	4.93
657.073	5.66
657.4	5.64
657.728	5.13
658.056	5.1
658.383	5.2
658.711	4.54
659.038	5.07
659.365	5.41
659.693	5.34
660.02	5.01
660.347	5.29
660.674	4.97
661.001	5.54
661.329	5.04
661.656	5.29
661.982	5.62
662.309	5.34
662.636	5.13
662.963	5.49
663.29	5.47
663.616	5.26
663.943	4.7
664.27	4.75
664.596	5.26
664.923	5.62
665.249	5.1
665.576	5.38
665.902	5.78
666.228	5.68
666.554	5.77
666.881	4.98
667.207	5.68
667.533	4.68
667.859	5.98
668.185	5.76
668.511	4.61
668.837	4.8
669.162	5.44
669.488	4.45
669.814	5.33
670.139	5.28
670.465	5.18
670.791	5.29
671.116	6.21
671.442	5.15
671.767	5.56
672.092	5.65
672.418	5.53
672.743	5.48
673.068	5
673.393	5.21
673.718	5.16
674.043	5.42
674.368	5.04
674.693	5.93
675.018	4.95
675.343	5.31
675.667	5.16
675.992	5.38
676.317	5.54
676.641	5.59
676.966	4.96
677.29	4.92
677.615	5.85
677.939	5.86
678.264	5.59
678.588	5.28
678.912	5.52
679.236	5.8
679.56	4.87
679.885	5.95
680.209	5.45
680.532	5.04
680.856	5.98
681.18	5.5
681.504	5.46
681.828	5.96
682.152	5.56
682.475	5.72
682.799	5.57
683.122	5.92
683.446	5.22
683.769	5.92
684.093	5.03
684.416	5.83
684.739	5.26
685.062	5.08
685.386	5.99
685.709	5.43
686.032	5.39
686.355	5.69
686.678	5.39
687.001	5.61
687.324	5.49
687.646	5.56
687.969	5.27
688.292	5.96
688.614	5.28
688.937	5.7
689.26	5.22
689.582	5.94
689.904	5.23
690.227	5.74
690.549	5.98
690.871	6.13
691.194	4.79
691.516	5.17
691.838	5.97
692.16	4.56
692.482	4.91
692.804	5.39
