Data from 0205_chest_Reflection__4__282.txt Node

Date: Fri Dec 15 18:46:36 CST 2023
User: ToomeyLab
Spectrometer: FLMS14357
Trigger mode: 0
Integration Time (sec): 1.000000E-2
Scans to average: 100
Electric dark correction enabled: true
Nonlinearity correction enabled: false
Boxcar width: 0
XAxis mode: Wavelengths
Number of Pixels in Spectrum: 2048
>>>>>Begin Spectral Data<<<<<
189.047	-11.56
189.435	-11.56
189.823	-11.56
190.211	-6.63
190.599	-91.89
190.987	56.93
191.375	270.61
191.763	24.62
192.151	87.25
192.538	70.29
192.926	-171.07
193.314	-2813.33
193.702	-41.84
194.089	61.45
194.477	144.23
194.864	-200.45
195.252	84.47
195.639	67.46
196.027	287.46
196.414	-3120.33
196.801	129.1
197.189	76.12
197.576	128.6
197.963	-376.45
198.351	-99.69
198.738	20.6
199.125	-13.18
199.512	-12.66
199.899	47.53
200.286	-11.01
200.673	-14.27
201.06	-33.85
201.447	-26.43
201.833	-0.65
202.22	-8.43
202.607	13.62
202.994	-0.27
203.38	2.06
203.767	-2.17
204.154	32.23
204.54	53.92
204.927	-83.42
205.313	-2.79
205.699	4.36
206.086	60.55
206.472	4.11
206.858	15.33
207.245	-36.83
207.631	14.07
208.017	9.58
208.403	39.65
208.789	22.28
209.175	45.2
209.561	-28.86
209.947	-7.33
210.333	-28.32
210.719	50.04
211.105	-8.44
211.491	-32.19
211.876	9.94
212.262	-26.42
212.648	3.6
213.034	13.61
213.419	-67.04
213.805	-6.46
214.19	4.73
214.576	-6.85
214.961	-14.07
215.346	-71.42
215.732	28.02
216.117	-12.9
216.502	-11.43
216.888	-13.63
217.273	8.51
217.658	-53.12
218.043	20.22
218.428	-27.06
218.813	-7.1
219.198	-9.82
219.583	-19.89
219.968	-14.06
220.353	-21.71
220.738	18.02
221.122	-5.14
221.507	-37.71
221.892	-15.71
222.276	-9.65
222.661	7.52
223.046	-14.41
223.43	3.06
223.815	9.74
224.199	-9.87
224.583	-1.66
224.968	-0.04
225.352	7.01
225.736	-3.96
226.121	-14.74
226.505	21.89
226.889	11.53
227.273	-1.25
227.657	8.37
228.041	3.54
228.425	3.02
228.809	3.66
229.193	2.59
229.577	4.26
229.961	4.6
230.344	3.83
230.728	4.94
231.112	5.03
231.495	5.42
231.879	4.15
232.263	3.73
232.646	5.22
233.03	3.97
233.413	4.19
233.797	6.96
234.18	4.28
234.563	6.36
234.946	3.63
235.33	7.01
235.713	4.64
236.096	4.87
236.479	6.18
236.862	3.53
237.245	5.48
237.628	4.66
238.011	6.3
238.394	6.35
238.777	4.35
239.16	3.34
239.543	3.78
239.925	5.17
240.308	3.57
240.691	7.67
241.073	4.45
241.456	4.45
241.838	4.78
242.221	2.92
242.603	6.01
242.986	4.72
243.368	5.34
243.75	4.73
244.133	4.79
244.515	5.14
244.897	5.31
245.279	5.07
245.661	4.11
246.043	2.73
246.425	2.22
246.807	5.3
247.189	6.31
247.571	4.27
247.953	5.33
248.335	4.71
248.717	5.09
249.098	4.6
249.48	4.65
249.862	4.64
250.243	4.88
250.625	4.6
251.006	4.68
251.388	3.97
251.769	4.44
252.151	4.18
252.532	4.13
252.913	4.86
253.295	3.52
253.676	3.94
254.057	5.1
254.438	4.88
254.819	4.35
255.2	3.94
255.581	4.01
255.962	3.31
256.343	4.52
256.724	3.52
257.105	4.76
257.486	3.69
257.867	4.05
258.247	5.18
258.628	3.96
259.009	4.02
259.389	4.53
259.77	5.04
260.15	4.3
260.531	4.04
260.911	4.9
261.292	4.34
261.672	4.68
262.052	4.58
262.432	4.37
262.813	4.24
263.193	3.95
263.573	4.6
263.953	4.17
264.333	5
264.713	3.93
265.093	3.83
265.473	4.6
265.853	3.3
266.233	4.18
266.612	1.9
266.992	3.48
267.372	5.23
267.752	4.09
268.131	4.4
268.511	4.46
268.89	4.4
269.27	4.07
269.649	4.11
270.029	3.73
270.408	4.6
270.787	4.3
271.167	5.57
271.546	4.5
271.925	4.03
272.304	4.45
272.683	4.57
273.062	4.36
273.441	4.47
273.82	3.48
274.199	4.16
274.578	4.36
274.957	4.55
275.336	4.48
275.715	4.15
276.093	3.62
276.472	4.03
276.851	3.66
277.229	4.33
277.608	3.34
277.986	3.91
278.365	4.37
278.743	4.07
279.122	3.97
279.5	3.9
279.878	4.17
280.257	3.84
280.635	3.62
281.013	3.97
281.391	4.45
281.769	4.27
282.147	4.26
282.525	4.24
282.903	3.74
283.281	4.58
283.659	4.58
284.037	4.46
284.415	4.63
284.792	4.37
285.17	3.42
285.548	3.91
285.925	4.45
286.303	4.27
286.68	4.14
287.058	4.14
287.435	4.09
287.813	4.29
288.19	3.81
288.567	4.2
288.945	4.55
289.322	4.36
289.699	3.77
290.076	4.48
290.453	4.44
290.83	4.12
291.207	3.75
291.584	4.31
291.961	4.52
292.338	3.68
292.715	4.33
293.092	4.24
293.469	4.13
293.845	4.31
294.222	3.98
294.599	3.8
294.975	4.37
295.352	3.85
295.728	4.19
296.105	3.99
296.481	4.56
296.858	4.77
297.234	4.32
297.61	3.91
297.986	4.1
298.363	4.76
298.739	4.34
299.115	4.12
299.491	4.16
299.867	4.29
300.243	4.27
300.619	4
300.995	4.34
301.371	4.52
301.746	4.2
302.122	4.56
302.498	4.53
302.874	4.27
303.249	3.46
303.625	4.16
304	4.23
304.376	4.26
304.751	3.81
305.127	4.27
305.502	3.26
305.878	3.89
306.253	4.38
306.628	4.42
307.003	4.28
307.378	4.56
307.754	4.15
308.129	3.65
308.504	4.46
308.879	3.87
309.254	4.59
309.629	4.77
310.003	4.5
310.378	4.47
310.753	4.36
311.128	4.03
311.502	4.04
311.877	4.83
312.252	3.84
312.626	4.07
313.001	3.59
313.375	4.38
313.75	4.17
314.124	4.49
314.498	3.89
314.873	3.74
315.247	3.87
315.621	4.04
315.995	3.59
316.369	4.36
316.743	4.46
317.117	4.34
317.491	4.19
317.865	4.2
318.239	4.29
318.613	4.34
318.987	4.5
319.361	3.86
319.734	4.84
320.108	4.11
320.482	4.06
320.855	5.04
321.229	4.18
321.602	3.87
321.976	4.59
322.349	4.16
322.723	4.48
323.096	4.84
323.469	3.49
323.843	4.7
324.216	4.55
324.589	4.17
324.962	4.06
325.335	3.87
325.708	4.5
326.081	4.37
326.454	4.54
326.827	4.05
327.2	3.99
327.573	4.52
327.945	4.68
328.318	3.96
328.691	4.12
329.063	4.19
329.436	4.01
329.809	4.69
330.181	3.78
330.553	4.65
330.926	4.28
331.298	4.14
331.671	3.88
332.043	4.3
332.415	4.63
332.787	4.44
333.159	5.22
333.532	4.8
333.904	3.96
334.276	3.76
334.648	4.21
335.02	4.71
335.391	4.46
335.763	4.32
336.135	4.52
336.507	4.4
336.879	4.39
337.25	3.89
337.622	3.92
337.993	4.51
338.365	4.71
338.736	4.29
339.108	4.52
339.479	4.26
339.851	4.63
340.222	4.33
340.593	4.46
340.964	4.18
341.336	5.13
341.707	3.75
342.078	5.01
342.449	4.65
342.82	4.68
343.191	4.23
343.562	4.45
343.933	4.56
344.303	4.19
344.674	4.38
345.045	4.78
345.416	5.1
345.786	4.23
346.157	4.92
346.527	4.2
346.898	3.58
347.268	4.47
347.639	4.44
348.009	4.55
348.38	4.24
348.75	4.32
349.12	4.62
349.49	5.05
349.861	4.45
350.231	4.17
350.601	4.17
350.971	4.29
351.341	4.65
351.711	4.58
352.081	4.66
352.45	4.56
352.82	4.65
353.19	4.73
353.56	4.31
353.929	3.99
354.299	4.74
354.669	4.1
355.038	4.64
355.408	4.34
355.777	4.48
356.147	4.35
356.516	4.85
356.885	4.91
357.254	4.4
357.624	5.03
357.993	4.69
358.362	4.04
358.731	3.97
359.1	4.41
359.469	4.72
359.838	4.85
360.207	4.46
360.576	4.58
360.945	4.38
361.314	4.99
361.682	4.93
362.051	4.57
362.42	4.59
362.788	4.61
363.157	4.63
363.525	4.85
363.894	4.69
364.262	4.65
364.631	4.52
364.999	4.58
365.367	4.49
365.735	5.23
366.104	4.52
366.472	4.7
366.84	4.51
367.208	4.35
367.576	4.81
367.944	4.82
368.312	4.58
368.68	4.24
369.048	4.77
369.416	4.59
369.783	4.7
370.151	4.65
370.519	4.88
370.886	4.88
371.254	4.67
371.621	4.76
371.989	4.97
372.356	4.29
372.724	4.7
373.091	4.63
373.458	4.93
373.826	4.81
374.193	4.37
374.56	4.93
374.927	4.67
375.294	4.9
375.661	4.59
376.028	4.4
376.395	4.6
376.762	5.09
377.129	4.73
377.496	4.46
377.863	4.88
378.229	4.47
378.596	4.91
378.963	4.52
379.329	4.46
379.696	4.96
380.062	4.91
380.429	4.81
380.795	4.82
381.161	4.62
381.528	5.13
381.894	4.68
382.26	4.54
382.626	4.99
382.993	4.56
383.359	5.22
383.725	4.77
384.091	4.75
384.457	5.03
384.823	4.74
385.188	4.66
385.554	4.94
385.92	4.93
386.286	4.97
386.651	5.02
387.017	4.93
387.383	4.91
387.748	4.26
388.114	5.35
388.479	4.53
388.845	5.19
389.21	4.75
389.575	5.17
389.94	4.85
390.306	5.03
390.671	5.14
391.036	4.55
391.401	4.44
391.766	4.8
392.131	4.8
392.496	4.89
392.861	4.81
393.226	5.07
393.591	4.91
393.956	5.13
394.32	4.99
394.685	4.66
395.05	4.9
395.414	4.95
395.779	4.7
396.143	4.96
396.508	4.92
396.872	4.98
397.236	5.02
397.601	4.4
397.965	4.95
398.329	4.65
398.694	4.96
399.058	5.21
399.422	4.84
399.786	5.08
400.15	5.11
400.514	4.81
400.878	5.24
401.242	5.33
401.605	5.08
401.969	5.11
402.333	4.97
402.697	4.99
403.06	5.08
403.424	5.1
403.787	4.77
404.151	5.24
404.514	5.01
404.878	4.89
405.241	5.11
405.604	4.82
405.968	5.03
406.331	5.05
406.694	5.17
407.057	4.97
407.42	5.15
407.783	4.81
408.146	5.05
408.509	4.91
408.872	4.96
409.235	4.88
409.598	5.12
409.961	4.96
410.323	5.07
410.686	4.93
411.049	4.72
411.411	4.88
411.774	5
412.136	5.21
412.499	5.09
412.861	4.92
413.223	4.96
413.586	5.13
413.948	4.96
414.31	5.15
414.672	5.05
415.035	4.78
415.397	5.17
415.759	4.76
416.121	5.11
416.483	4.9
416.845	4.99
417.206	4.93
417.568	5.18
417.93	4.95
418.292	5
418.653	5.12
419.015	5.11
419.377	5.07
419.738	5.18
420.1	5.06
420.461	5.11
420.822	5.18
421.184	4.99
421.545	5.04
421.906	5.01
422.267	5.03
422.629	4.91
422.99	4.99
423.351	5.02
423.712	5.06
424.073	4.97
424.434	5.04
424.795	5.01
425.155	4.97
425.516	4.83
425.877	5.1
426.238	4.98
426.598	5.09
426.959	5.11
427.32	4.97
427.68	5.08
428.041	4.95
428.401	5
428.761	5.11
429.122	5.1
429.482	4.91
429.842	5.18
430.202	5.17
430.563	4.95
430.923	4.92
431.283	5.26
431.643	5.17
432.003	5.01
432.363	5.22
432.722	5.07
433.082	5.21
433.442	5.17
433.802	4.89
434.161	5.19
434.521	5.41
434.881	5.22
435.24	4.99
435.6	5.1
435.959	5.19
436.319	5.19
436.678	5.14
437.037	5.15
437.396	5.14
437.756	5.05
438.115	5.15
438.474	5.42
438.833	5
439.192	5.03
439.551	5.15
439.91	5.18
440.269	5.2
440.628	5.12
440.987	5.08
441.345	5.13
441.704	5.27
442.063	5.08
442.421	5.1
442.78	5.1
443.138	5.17
443.497	5.03
443.855	5.05
444.214	5.13
444.572	5.35
444.93	5.1
445.288	5.28
445.647	5.16
446.005	5.1
446.363	5.2
446.721	5.25
447.079	5.02
447.437	5.17
447.795	5.17
448.153	5.07
448.51	5.08
448.868	5.21
449.226	5.11
449.584	5.15
449.941	5.23
450.299	5.27
450.656	5.19
451.014	5.25
451.371	5.2
451.729	5.13
452.086	5.38
452.443	5.28
452.801	5.37
453.158	5.19
453.515	5.07
453.872	5.35
454.229	5.18
454.586	5.17
454.943	5.24
455.3	5.33
455.657	5.21
456.014	5.2
456.371	5.34
456.727	5.42
457.084	5.47
457.441	5.29
457.797	5.26
458.154	5.53
458.51	5.34
458.867	5.38
459.223	5.43
459.58	5.52
459.936	5.3
460.292	5.39
460.648	5.14
461.005	5.35
461.361	5.3
461.717	5.27
462.073	5.14
462.429	5.16
462.785	5.27
463.141	5.25
463.496	5.31
463.852	5.39
464.208	5.35
464.564	5.46
464.919	5.29
465.275	5.31
465.631	5.44
465.986	5.2
466.342	5.2
466.697	5.31
467.052	5.42
467.408	5.57
467.763	5.29
468.118	5.36
468.473	5.24
468.829	5.37
469.184	5.12
469.539	5.27
469.894	5.28
470.249	5.55
470.603	5.59
470.958	5.56
471.313	5.54
471.668	5.46
472.023	5.41
472.377	5.47
472.732	5.44
473.086	5.29
473.441	5.27
473.795	5.46
474.15	5.34
474.504	5.32
474.859	5.47
475.213	5.5
475.567	5.49
475.921	5.32
476.275	5.47
476.63	5.46
476.984	5.45
477.338	5.58
477.692	5.35
478.045	5.49
478.399	5.44
478.753	5.65
479.107	5.36
479.461	5.43
479.814	5.5
480.168	5.43
480.521	5.45
480.875	5.54
481.228	5.47
481.582	5.45
481.935	5.49
482.289	5.52
482.642	5.39
482.995	5.42
483.348	5.33
483.701	5.49
484.055	5.43
484.408	5.44
484.761	5.31
485.114	5.37
485.466	5.19
485.819	5.23
486.172	5.12
486.525	5.15
486.878	5.16
487.23	5.19
487.583	5.33
487.936	5.35
488.288	5.3
488.641	5.37
488.993	5.3
489.345	5.25
489.698	5.23
490.05	5.26
490.402	5.24
490.754	5.33
491.107	5.37
491.459	5.4
491.811	5.39
492.163	5.49
492.515	5.43
492.866	5.39
493.218	5.41
493.57	5.33
493.922	5.28
494.274	5.38
494.625	5.44
494.977	5.46
495.328	5.48
495.68	5.54
496.031	5.62
496.383	5.42
496.734	5.67
497.086	5.66
497.437	5.69
497.788	5.69
498.139	5.5
498.49	5.59
498.842	5.42
499.193	5.58
499.544	5.57
499.894	5.59
500.245	5.63
500.596	5.48
500.947	5.61
501.298	5.54
501.648	5.72
501.999	5.79
502.35	5.68
502.7	5.61
503.051	5.45
503.401	5.66
503.752	5.85
504.102	5.8
504.452	5.7
504.803	5.64
505.153	5.72
505.503	5.6
505.853	5.77
506.203	5.66
506.553	5.6
506.903	5.6
507.253	5.66
507.603	5.61
507.953	5.72
508.303	5.78
508.652	5.48
509.002	5.81
509.352	5.77
509.701	5.8
510.051	5.74
510.4	5.8
510.75	5.81
511.099	5.78
511.449	5.68
511.798	5.74
512.147	5.77
512.496	5.72
512.846	5.76
513.195	5.66
513.544	5.74
513.893	5.79
514.242	5.74
514.591	5.92
514.939	5.81
515.288	5.72
515.637	5.86
515.986	5.8
516.334	5.79
516.683	5.9
517.032	5.83
517.38	5.95
517.729	5.88
518.077	5.91
518.426	5.97
518.774	6.03
519.122	5.95
519.47	5.8
519.819	5.79
520.167	5.81
520.515	5.8
520.863	5.76
521.211	5.78
521.559	5.87
521.907	5.83
522.255	5.74
522.602	5.94
522.95	5.88
523.298	5.94
523.645	6.09
523.993	5.91
524.341	6.04
524.688	5.98
525.036	5.92
525.383	6.05
525.73	6.06
526.078	5.94
526.425	5.88
526.772	6.11
527.119	6.04
527.466	5.94
527.814	6.07
528.161	6.01
528.508	5.96
528.854	5.9
529.201	5.91
529.548	5.85
529.895	5.96
530.242	5.82
530.588	5.81
530.935	5.85
531.282	5.87
531.628	5.85
531.975	5.97
532.321	5.95
532.667	6.11
533.014	6.09
533.36	6.16
533.706	6.08
534.052	6.14
534.399	6.02
534.745	6.05
535.091	6.1
535.437	6.05
535.783	5.99
536.129	6.11
536.474	6.1
536.82	6.14
537.166	6.14
537.512	6.4
537.857	6.2
538.203	6.21
538.549	6.2
538.894	6.25
539.239	6.32
539.585	6.24
539.93	6.25
540.276	6.34
540.621	6.36
540.966	6.46
541.311	6.26
541.656	6.39
542.001	6.41
542.346	6.36
542.691	6.31
543.036	6.28
543.381	6.21
543.726	6.21
544.071	6.29
544.415	6.34
544.76	6.3
545.105	6.4
545.449	6.34
545.794	6.44
546.138	6.43
546.483	6.55
546.827	6.61
547.171	6.66
547.516	6.73
547.86	6.45
548.204	6.54
548.548	6.52
548.892	6.61
549.236	6.63
549.58	6.63
549.924	6.7
550.268	6.78
550.612	6.76
550.956	6.87
551.3	6.75
551.643	6.95
551.987	6.95
552.33	6.84
552.674	6.95
553.017	6.83
553.361	6.73
553.704	6.96
554.048	7.1
554.391	6.86
554.734	6.81
555.077	6.96
555.42	6.92
555.764	6.83
556.107	6.9
556.45	6.98
556.793	7.05
557.135	7.1
557.478	7.09
557.821	6.97
558.164	7.08
558.507	7.2
558.849	6.92
559.192	7.16
559.534	7.15
559.877	7.36
560.219	7.15
560.562	7.39
560.904	7.41
561.246	7.07
561.589	7.35
561.931	7.16
562.273	7.33
562.615	7.27
562.957	7.23
563.299	7.2
563.641	7.43
563.983	7.3
564.325	7.42
564.667	7.26
565.008	7.51
565.35	7.36
565.692	7.32
566.033	7.49
566.375	7.71
566.716	7.56
567.058	7.51
567.399	7.51
567.741	7.5
568.082	7.5
568.423	7.52
568.764	7.48
569.105	7.58
569.447	7.66
569.788	7.74
570.129	7.82
570.47	7.59
570.811	7.68
571.151	7.81
571.492	7.85
571.833	7.69
572.174	7.77
572.514	7.76
572.855	7.86
573.195	7.69
573.536	7.86
573.876	7.72
574.217	7.81
574.557	7.98
574.898	8.1
575.238	8.11
575.578	7.89
575.918	8.06
576.258	8.09
576.598	8.15
576.938	7.95
577.278	8.05
577.618	8.06
577.958	8.08
578.298	8.01
578.638	8.19
578.977	7.96
579.317	8.05
579.657	8.25
579.996	8.03
580.336	8.38
580.675	8.15
581.014	8.3
581.354	8.39
581.693	8.48
582.032	8.14
582.372	8.48
582.711	8.52
583.05	8.43
583.389	8.51
583.728	8.38
584.067	8.8
584.406	8.61
584.745	8.4
585.083	8.91
585.422	8.69
585.761	8.79
586.1	8.84
586.438	8.81
586.777	8.95
587.115	8.94
587.454	8.9
587.792	8.72
588.13	9.02
588.469	8.77
588.807	8.72
589.145	8.74
589.483	8.88
589.821	8.81
590.159	8.83
590.497	9.2
590.835	9.4
591.173	9.17
591.511	9.14
591.849	9.2
592.187	9.15
592.524	9.39
592.862	9.1
593.2	9.4
593.537	9.27
593.875	9.25
594.212	9.13
594.55	9.38
594.887	9.38
595.224	9.32
595.561	9.32
595.899	9.68
596.236	9.49
596.573	9.57
596.91	9.05
597.247	9.3
597.584	9.71
597.921	9.67
598.258	9.47
598.594	9.56
598.931	9.55
599.268	9.75
599.604	9.65
599.941	9.69
600.277	9.47
600.614	9.57
600.95	9.41
601.287	9.86
601.623	9.94
601.959	9.68
602.296	10.14
602.632	9.88
602.968	10
603.304	9.94
603.64	10.31
603.976	10.04
604.312	9.98
604.648	10.01
604.984	10.38
605.319	10.31
605.655	10.34
605.991	10.15
606.326	10.18
606.662	10.15
606.998	10.07
607.333	10.43
607.668	10.25
608.004	10.37
608.339	10.47
608.674	10.62
609.01	10.36
609.345	10.33
609.68	10.53
610.015	10.35
610.35	10.52
610.685	10.69
611.02	10.62
611.355	10.74
611.689	10.65
612.024	10.87
612.359	10.96
612.694	10.76
613.028	10.86
613.363	10.85
613.697	10.95
614.032	10.93
614.366	11.2
614.7	10.84
615.035	10.86
615.369	10.72
615.703	11.1
616.037	11.2
616.371	10.77
616.705	10.92
617.039	11.43
617.373	10.69
617.707	11.1
618.041	10.97
618.375	11.31
618.709	11.42
619.042	11.07
619.376	11.45
619.71	11.51
620.043	11.66
620.377	11.34
620.71	11.77
621.043	11.32
621.377	11.59
621.71	11.55
622.043	11.53
622.376	11.45
622.709	11.73
623.043	11.92
623.376	11.73
623.709	11.69
624.041	11.93
624.374	12.04
624.707	12.04
625.04	12.12
625.373	11.61
625.705	12.29
626.038	11.95
626.37	11.93
626.703	12.19
627.035	12.04
627.368	12.5
627.7	12.21
628.032	12.54
628.365	12.32
628.697	12.15
629.029	12.21
629.361	12.08
629.693	12.67
630.025	12.39
630.357	12.69
630.689	12.26
631.021	12.48
631.353	13.14
631.684	12.4
632.016	12.46
632.348	12.76
632.679	12.47
633.011	12.71
633.342	12.82
633.674	12.56
634.005	13.29
634.336	12.94
634.668	13.14
634.999	12.68
635.33	13.07
635.661	13.07
635.992	12.59
636.323	13.29
636.654	13.09
636.985	13.04
637.316	12.98
637.647	13.18
637.977	13.16
638.308	13.58
638.639	12.59
638.969	12.87
639.3	13.3
639.63	12.85
639.961	12.88
640.291	13.65
640.622	13.39
640.952	12.94
641.282	14.33
641.612	13.9
641.943	13.03
642.273	13.26
642.603	13.83
642.933	14.23
643.263	13.52
643.592	13.95
643.922	13.78
644.252	13.94
644.582	13.97
644.911	13.28
645.241	13.66
645.571	14.11
645.9	13.97
646.23	13.81
646.559	14.05
646.888	13.79
647.218	13.97
647.547	14.59
647.876	13.61
648.205	14.1
648.534	14.21
648.863	13.51
649.192	14.21
649.521	14.57
649.85	14.13
650.179	14.55
650.508	14.39
650.837	14.38
651.165	14.09
651.494	14.79
651.822	14.44
652.151	14.25
652.479	14.79
652.808	14.14
653.136	14.78
653.465	14.05
653.793	14.54
654.121	14.6
654.449	14.87
654.777	15.31
655.105	14.87
655.433	14.53
655.761	14.69
656.089	15.08
656.417	14.72
656.745	14.44
657.073	14.86
657.4	15.5
657.728	15.16
658.056	15.28
658.383	14.68
658.711	15.59
659.038	15.32
659.365	15.87
659.693	15.87
660.02	15.13
660.347	15.25
660.674	15.65
661.001	15.88
661.329	14.84
661.656	15.8
661.982	15.83
662.309	15.7
662.636	14.93
662.963	15.77
663.29	16.18
663.616	15.68
663.943	15.07
664.27	16.02
664.596	15.93
664.923	15.64
665.249	16.14
665.576	15.98
665.902	16.8
666.228	16.64
666.554	16.19
666.881	15.42
667.207	16.48
667.533	16.41
667.859	16.37
668.185	16.76
668.511	15.89
668.837	15.23
669.162	16.13
669.488	15.67
669.814	16.95
670.139	16.77
670.465	16.8
670.791	16.74
671.116	17.54
671.442	16.31
671.767	17.06
672.092	17.52
672.418	16.61
672.743	16.81
673.068	17.05
673.393	17.18
673.718	16.6
674.043	17.15
674.368	16.33
674.693	17.49
675.018	17.12
675.343	16.59
675.667	17.23
675.992	17.95
676.317	17.49
676.641	17.28
676.966	16.9
677.29	16.7
677.615	17.62
677.939	17.63
678.264	17.52
678.588	17.75
678.912	17.85
679.236	18.2
679.56	16.86
679.885	18.06
680.209	17.62
680.532	17.84
680.856	17.94
681.18	18.26
681.504	17.46
681.828	18.23
682.152	18.21
682.475	18.04
682.799	18.01
683.122	18.31
683.446	17.58
683.769	17.98
684.093	18.06
684.416	18.31
684.739	18.3
685.062	18.21
685.386	18.11
685.709	18.37
686.032	18.82
