Data from 0273_chest_Reflection__0__246.txt Node

Date: Fri Oct 20 22:38:30 CDT 2023
User: ToomeyLab
Spectrometer: FLMS14357
Trigger mode: 0
Integration Time (sec): 1.000000E-2
Scans to average: 100
Electric dark correction enabled: true
Nonlinearity correction enabled: false
Boxcar width: 0
XAxis mode: Wavelengths
Number of Pixels in Spectrum: 2048
>>>>>Begin Spectral Data<<<<<
189.047	81.89
189.435	81.89
189.823	81.89
190.211	1918.31
190.599	52.76
190.987	47.14
191.375	88.33
191.763	160.74
192.151	177.85
192.538	20.09
192.926	59.02
193.314	155.5
193.702	62.85
194.089	365.91
194.477	-17.76
194.864	262.41
195.252	109.71
195.639	502.6
196.027	70.41
196.414	-152.74
196.801	-25.97
197.189	-16.96
197.576	69.75
197.963	67.96
198.351	37.62
198.738	37.73
199.125	35.47
199.512	39.86
199.899	13.11
200.286	-7.34
200.673	26.65
201.06	15.08
201.447	14.69
201.833	40.17
202.22	50.21
202.607	59.8
202.994	37.2
203.38	16.42
203.767	23.46
204.154	27.49
204.54	86.36
204.927	-2.66
205.313	6.9
205.699	31.34
206.086	31.7
206.472	46.2
206.858	47.2
207.245	-15.4
207.631	26.65
208.017	20.69
208.403	25.84
208.789	26.73
209.175	-0.18
209.561	3.32
209.947	1.41
210.333	2.53
210.719	-2.56
211.105	32.67
211.491	14.13
211.876	-9.94
212.262	-9.94
212.648	12.17
213.034	-25.84
213.419	10.03
213.805	2.73
214.19	-27.64
214.576	37.86
214.961	-13.32
215.346	46.14
215.732	13.55
216.117	13.51
216.502	8.46
216.888	-5.56
217.273	-38.81
217.658	17.01
218.043	4.33
218.428	23.9
218.813	4.35
219.198	4.03
219.583	11.69
219.968	1.38
220.353	18.82
220.738	20.94
221.122	0.67
221.507	9.6
221.892	4.83
222.276	11.19
222.661	19.45
223.046	5.02
223.43	7.73
223.815	19.78
224.199	10.56
224.583	4.17
224.968	0.79
225.352	1.33
225.736	9.53
226.121	9.41
226.505	-4.02
226.889	10.96
227.273	9.36
227.657	8.93
228.041	10.49
228.425	8.38
228.809	6.5
229.193	5.82
229.577	6.03
229.961	3.97
230.344	5.11
230.728	4.24
231.112	4.73
231.495	4.34
231.879	5.03
232.263	5.13
232.646	4.61
233.03	4.83
233.413	3.84
233.797	5.08
234.18	5.5
234.563	6.98
234.946	6.38
235.33	5.79
235.713	6.05
236.096	6.72
236.479	4.63
236.862	4.71
237.245	3.77
237.628	4.32
238.011	5.45
238.394	5.39
238.777	5.77
239.16	3.5
239.543	5.22
239.925	5.96
240.308	4.66
240.691	4.52
241.073	5.84
241.456	5.93
241.838	5.36
242.221	5.39
242.603	5.7
242.986	6.04
243.368	5.11
243.75	5.15
244.133	4.13
244.515	4.51
244.897	4.64
245.279	4.51
245.661	4.56
246.043	4.47
246.425	5.07
246.807	4.83
247.189	4.99
247.571	4.46
247.953	4.4
248.335	4.86
248.717	4.31
249.098	4.16
249.48	4.5
249.862	4.58
250.243	4.67
250.625	4.48
251.006	4.9
251.388	4.69
251.769	5.16
252.151	3.43
252.532	4.49
252.913	4.71
253.295	3.81
253.676	4.78
254.057	3.82
254.438	4.43
254.819	4.63
255.2	4.36
255.581	4.22
255.962	4.49
256.343	4.97
256.724	3.86
257.105	4.14
257.486	5.41
257.867	4.54
258.247	4.7
258.628	4.14
259.009	4.45
259.389	4.12
259.77	3.82
260.15	4.38
260.531	4.33
260.911	4.39
261.292	3.93
261.672	4.52
262.052	4.29
262.432	4.25
262.813	4.5
263.193	4.32
263.573	4.24
263.953	4.61
264.333	4.66
264.713	4.23
265.093	4.58
265.473	5.02
265.853	4.62
266.233	4.63
266.612	3.55
266.992	4.05
267.372	4.02
267.752	3.67
268.131	4.94
268.511	4.46
268.89	4.57
269.27	4.24
269.649	4
270.029	3.94
270.408	5.04
270.787	4.16
271.167	4.26
271.546	4.23
271.925	4.67
272.304	4.93
272.683	3.99
273.062	4.03
273.441	4.16
273.82	4.34
274.199	4.5
274.578	4.42
274.957	4.38
275.336	4.34
275.715	4.59
276.093	3.93
276.472	4
276.851	4.28
277.229	4.42
277.608	3.8
277.986	3.62
278.365	4.17
278.743	3.97
279.122	4.19
279.5	3.8
279.878	3.96
280.257	4.43
280.635	4.16
281.013	4.51
281.391	4.39
281.769	4.28
282.147	3.8
282.525	4.35
282.903	4.27
283.281	4.03
283.659	4.52
284.037	4.24
284.415	3.69
284.792	3.69
285.17	4.14
285.548	3.99
285.925	3.6
286.303	3.79
286.68	3.85
287.058	3.89
287.435	4.19
287.813	3.83
288.19	4.08
288.567	4.14
288.945	4.3
289.322	4.51
289.699	3.76
290.076	4.71
290.453	4.46
290.83	3.64
291.207	4.71
291.584	3.95
291.961	3.97
292.338	4.03
292.715	4.34
293.092	4.2
293.469	4.17
293.845	4.28
294.222	4.18
294.599	3.99
294.975	4.61
295.352	4.32
295.728	4.4
296.105	3.96
296.481	4.62
296.858	4.4
297.234	4.38
297.61	3.83
297.986	4.16
298.363	4.57
298.739	4.18
299.115	3.94
299.491	4.08
299.867	4.15
300.243	4.43
300.619	4.38
300.995	4.02
301.371	4.52
301.746	4.33
302.122	4.36
302.498	4
302.874	4.09
303.249	4.19
303.625	4.25
304	4.5
304.376	3.99
304.751	3.43
305.127	3.96
305.502	4.64
305.878	4.7
306.253	4.65
306.628	4.52
307.003	3.97
307.378	3.86
307.754	4.35
308.129	4.77
308.504	5.13
308.879	4.55
309.254	5.26
309.629	4.08
310.003	4.29
310.378	4.76
310.753	4.52
311.128	4.6
311.502	4.44
311.877	4.23
312.252	3.99
312.626	4.74
313.001	4.28
313.375	4.45
313.75	3.95
314.124	4
314.498	4.36
314.873	4.24
315.247	4.49
315.621	4.23
315.995	4.48
316.369	4.16
316.743	4.41
317.117	4.03
317.491	3.83
317.865	4.34
318.239	4.79
318.613	4.82
318.987	4.19
319.361	3.74
319.734	3.97
320.108	3.95
320.482	4.51
320.855	4.69
321.229	4.98
321.602	4.59
321.976	3.89
322.349	4.78
322.723	4.33
323.096	4.42
323.469	4.43
323.843	4.49
324.216	4.73
324.589	4.66
324.962	5.45
325.335	4.58
325.708	4.14
326.081	4.39
326.454	4.56
326.827	5.08
327.2	4.87
327.573	4.68
327.945	4.59
328.318	4.35
328.691	4.01
329.063	5.09
329.436	4.47
329.809	5.21
330.181	4.68
330.553	5.02
330.926	4.43
331.298	4.51
331.671	4.73
332.043	4.45
332.415	4.51
332.787	5
333.159	3.76
333.532	4.6
333.904	4.89
334.276	4.39
334.648	4.89
335.02	4.48
335.391	4.22
335.763	4.61
336.135	4.29
336.507	4.31
336.879	4.29
337.25	4.36
337.622	4.8
337.993	4.67
338.365	4.43
338.736	4.39
339.108	4.46
339.479	4.46
339.851	4.68
340.222	4.11
340.593	3.88
340.964	4.35
341.336	4.73
341.707	4.27
342.078	4.68
342.449	4.1
342.82	4.36
343.191	4.39
343.562	4.63
343.933	4.38
344.303	3.94
344.674	4.62
345.045	4.56
345.416	4.82
345.786	4.18
346.157	4.65
346.527	4.23
346.898	4.66
347.268	4.72
347.639	4.77
348.009	4.21
348.38	4.86
348.75	4.66
349.12	4.65
349.49	4.33
349.861	4.75
350.231	4.31
350.601	4.64
350.971	4.94
351.341	4.72
351.711	5.1
352.081	4.48
352.45	4.04
352.82	4.73
353.19	4.88
353.56	4.65
353.929	4.48
354.299	4.59
354.669	4.45
355.038	4.68
355.408	4.72
355.777	4.32
356.147	4.11
356.516	4.31
356.885	4.51
357.254	4.63
357.624	4.58
357.993	4.34
358.362	4.45
358.731	4.49
359.1	3.94
359.469	4.09
359.838	4.4
360.207	4.68
360.576	4.61
360.945	4.32
361.314	4.41
361.682	4.41
362.051	4.8
362.42	4.25
362.788	4.62
363.157	4.58
363.525	4.53
363.894	4.45
364.262	4.36
364.631	4.71
364.999	4.55
365.367	4.81
365.735	4.46
366.104	4.38
366.472	4.86
366.84	4.79
367.208	4.58
367.576	4.35
367.944	4.57
368.312	4.52
368.68	4.25
369.048	4.54
369.416	4.91
369.783	4.83
370.151	4.56
370.519	4.45
370.886	4.84
371.254	4.88
371.621	4.86
371.989	4.36
372.356	4.64
372.724	4.94
373.091	4.44
373.458	4.39
373.826	4.46
374.193	4.25
374.56	4.7
374.927	4.39
375.294	4.83
375.661	4.56
376.028	4.95
376.395	4.94
376.762	4.3
377.129	4.82
377.496	4.93
377.863	5.1
378.229	4.92
378.596	4.68
378.963	4.38
379.329	4.75
379.696	4.61
380.062	4.77
380.429	4.59
380.795	4.09
381.161	4.53
381.528	5.08
381.894	4.59
382.26	4.85
382.626	4.86
382.993	4.71
383.359	4.88
383.725	4.8
384.091	4.82
384.457	4.72
384.823	4.66
385.188	4.85
385.554	4.8
385.92	4.7
386.286	5.01
386.651	4.24
387.017	4.76
387.383	4.74
387.748	4.7
388.114	4.56
388.479	4.69
388.845	4.96
389.21	4.82
389.575	4.27
389.94	4.9
390.306	4.89
390.671	4.78
391.036	4.76
391.401	4.61
391.766	4.76
392.131	4.53
392.496	4.7
392.861	4.95
393.226	4.86
393.591	4.67
393.956	4.76
394.32	5.05
394.685	4.64
395.05	5.11
395.414	4.91
395.779	4.53
396.143	4.69
396.508	4.8
396.872	4.59
397.236	4.95
397.601	4.57
397.965	4.73
398.329	4.71
398.694	4.68
399.058	4.46
399.422	4.75
399.786	4.89
400.15	4.73
400.514	4.88
400.878	4.77
401.242	4.98
401.605	4.71
401.969	4.69
402.333	4.82
402.697	4.81
403.06	4.68
403.424	4.67
403.787	4.87
404.151	4.82
404.514	5.01
404.878	4.78
405.241	4.75
405.604	4.79
405.968	4.89
406.331	4.69
406.694	4.58
407.057	4.71
407.42	5.05
407.783	4.79
408.146	4.68
408.509	4.7
408.872	4.96
409.235	4.92
409.598	4.98
409.961	4.82
410.323	4.93
410.686	4.69
411.049	5
411.411	4.99
411.774	4.95
412.136	4.9
412.499	4.95
412.861	5.02
413.223	4.98
413.586	4.69
413.948	5
414.31	5.22
414.672	4.84
415.035	4.71
415.397	4.93
415.759	4.76
416.121	4.71
416.483	4.98
416.845	4.71
417.206	4.88
417.568	4.94
417.93	4.89
418.292	4.66
418.653	4.86
419.015	4.8
419.377	4.71
419.738	4.85
420.1	4.67
420.461	4.79
420.822	4.68
421.184	4.76
421.545	4.83
421.906	4.71
422.267	4.73
422.629	4.73
422.99	4.71
423.351	4.69
423.712	4.7
424.073	4.75
424.434	4.69
424.795	4.74
425.155	4.65
425.516	4.69
425.877	4.73
426.238	4.71
426.598	4.74
426.959	4.71
427.32	4.76
427.68	4.81
428.041	4.75
428.401	4.8
428.761	4.81
429.122	4.78
429.482	4.83
429.842	4.75
430.202	5.09
430.563	4.89
430.923	5.05
431.283	4.88
431.643	5.06
432.003	4.98
432.363	4.91
432.722	5.01
433.082	4.85
433.442	4.96
433.802	5.15
434.161	4.89
434.521	5.11
434.881	4.83
435.24	4.88
435.6	4.95
435.959	4.87
436.319	4.96
436.678	4.96
437.037	4.91
437.396	5.11
437.756	4.95
438.115	4.88
438.474	4.98
438.833	4.91
439.192	4.74
439.551	4.9
439.91	4.94
440.269	4.97
440.628	4.93
440.987	4.98
441.345	4.94
441.704	4.99
442.063	4.91
442.421	4.86
442.78	4.91
443.138	4.95
443.497	4.97
443.855	5.06
444.214	4.94
444.572	4.96
444.93	5.01
445.288	5.14
445.647	5.15
446.005	4.75
446.363	4.83
446.721	4.85
447.079	4.97
447.437	4.97
447.795	4.81
448.153	4.84
448.51	4.88
448.868	4.91
449.226	4.88
449.584	4.86
449.941	4.88
450.299	4.98
450.656	4.94
451.014	5.09
451.371	5.03
451.729	4.99
452.086	5.02
452.443	4.99
452.801	4.99
453.158	5.1
453.515	5.08
453.872	5.08
454.229	5.13
454.586	5.12
454.943	5
455.3	4.97
455.657	5.11
456.014	4.95
456.371	4.95
456.727	4.99
457.084	5.02
457.441	5.03
457.797	5.15
458.154	4.94
458.51	4.99
458.867	5.03
459.223	5.05
459.58	5
459.936	5.19
460.292	4.99
460.648	4.96
461.005	4.89
461.361	4.94
461.717	4.9
462.073	4.94
462.429	4.94
462.785	4.97
463.141	5.05
463.496	5.06
463.852	5.01
464.208	5.12
464.564	5.27
464.919	4.99
465.275	5.31
465.631	5.2
465.986	5.11
466.342	5.17
466.697	5.1
467.052	5.11
467.408	5.07
467.763	5.26
468.118	5.19
468.473	5.17
468.829	5.1
469.184	5.11
469.539	5.25
469.894	5.19
470.249	5.21
470.603	5.18
470.958	5.09
471.313	5.33
471.668	5.16
472.023	5.26
472.377	5.28
472.732	5.18
473.086	5.23
473.441	5.43
473.795	5.39
474.15	5.17
474.504	5.08
474.859	5.25
475.213	5.17
475.567	5.29
475.921	5.1
476.275	5.09
476.63	5.42
476.984	5.36
477.338	5.15
477.692	5.16
478.045	5.3
478.399	5.19
478.753	5.3
479.107	5.14
479.461	5.23
479.814	5.36
480.168	5.3
480.521	5.38
480.875	5.31
481.228	5.33
481.582	5.32
481.935	5.31
482.289	5.32
482.642	5.21
482.995	5.26
483.348	5.32
483.701	5.24
484.055	5.25
484.408	5.11
484.761	5.14
485.114	5.06
485.466	5.04
485.819	4.98
486.172	4.88
486.525	4.96
486.878	4.96
487.23	5.05
487.583	5.06
487.936	5.07
488.288	5.11
488.641	5.19
488.993	5.15
489.345	5.08
489.698	5.09
490.05	5.02
490.402	5.06
490.754	5.04
491.107	5.11
491.459	5.18
491.811	5.23
492.163	5.22
492.515	5.27
492.866	5.33
493.218	5.23
493.57	5.09
493.922	5.09
494.274	5.16
494.625	5.21
494.977	5.19
495.328	5.28
495.68	5.38
496.031	5.34
496.383	5.53
496.734	5.5
497.086	5.44
497.437	5.46
497.788	5.32
498.139	5.46
498.49	5.44
498.842	5.4
499.193	5.52
499.544	5.44
499.894	5.49
500.245	5.39
500.596	5.55
500.947	5.46
501.298	5.48
501.648	5.46
501.999	5.63
502.35	5.52
502.7	5.64
503.051	5.57
503.401	5.64
503.752	5.56
504.102	5.58
504.452	5.43
504.803	5.62
505.153	5.55
505.503	5.63
505.853	5.69
506.203	5.46
506.553	5.59
506.903	5.61
507.253	5.67
507.603	5.57
507.953	5.71
508.303	5.57
508.652	5.65
509.002	5.64
509.352	5.58
509.701	5.62
510.051	5.66
510.4	5.6
510.75	5.76
511.099	5.65
511.449	5.59
511.798	5.66
512.147	5.67
512.496	5.64
512.846	5.56
513.195	5.67
513.544	5.74
513.893	5.61
514.242	5.7
514.591	5.7
514.939	5.69
515.288	5.61
515.637	5.76
515.986	5.8
516.334	5.8
516.683	5.89
517.032	5.73
517.38	5.7
517.729	5.85
518.077	5.81
518.426	5.79
518.774	5.51
519.122	5.7
519.47	5.72
519.819	5.67
520.167	5.69
520.515	5.79
520.863	5.71
521.211	5.78
521.559	5.82
521.907	5.8
522.255	5.81
522.602	5.86
522.95	5.87
523.298	5.86
523.645	6.02
523.993	5.84
524.341	6
524.688	6.07
525.036	5.99
525.383	5.8
525.73	6.07
526.078	6.03
526.425	6.09
526.772	5.91
527.119	5.88
527.466	5.93
527.814	5.87
528.161	5.82
528.508	5.89
528.854	5.88
529.201	5.87
529.548	5.91
529.895	5.84
530.242	5.85
530.588	5.73
530.935	5.71
531.282	5.77
531.628	5.8
531.975	5.78
532.321	5.87
532.667	5.93
533.014	5.97
533.36	5.99
533.706	6.08
534.052	6.08
534.399	6.02
534.745	6.03
535.091	5.98
535.437	5.97
535.783	5.98
536.129	6.02
536.474	6.12
536.82	6.1
537.166	6.04
537.512	6.19
537.857	6.19
538.203	6.14
538.549	6.34
538.894	6.12
539.239	6.12
539.585	6.28
539.93	6.29
540.276	6.49
540.621	6.26
540.966	6.39
541.311	6.36
541.656	6.47
542.001	6.35
542.346	6.44
542.691	6.28
543.036	6.37
543.381	6.21
543.726	6.22
544.071	6.19
544.415	6.24
544.76	6.31
545.105	6.36
545.449	6.43
545.794	6.41
546.138	6.39
546.483	6.5
546.827	6.54
547.171	6.63
547.516	6.52
547.86	6.66
548.204	6.56
548.548	6.64
548.892	6.61
549.236	6.71
549.58	6.57
549.924	6.64
550.268	6.72
550.612	6.8
550.956	6.86
551.3	6.85
551.643	6.8
551.987	7.01
552.33	6.92
552.674	6.92
553.017	6.86
553.361	7.02
553.704	7.08
554.048	6.99
554.391	7.01
554.734	7.08
555.077	6.96
555.42	6.91
555.764	6.87
556.107	7.24
556.45	7.13
556.793	6.95
557.135	6.93
557.478	7.08
557.821	7.21
558.164	7.35
558.507	7.31
558.849	7.38
559.192	7.19
559.534	7.39
559.877	7.12
560.219	7.34
560.562	7.41
560.904	7.08
561.246	7.45
561.589	7.23
561.931	7.53
562.273	7.47
562.615	7.54
562.957	7.49
563.299	7.52
563.641	7.43
563.983	7.42
564.325	7.52
564.667	7.54
565.008	7.33
565.35	7.46
565.692	7.55
566.033	7.77
566.375	7.76
566.716	7.77
567.058	7.71
567.399	7.78
567.741	7.66
568.082	7.7
568.423	7.85
568.764	7.57
569.105	8.01
569.447	7.68
569.788	7.89
570.129	7.81
570.47	7.79
570.811	7.84
571.151	7.93
571.492	7.9
571.833	8.1
572.174	7.92
572.514	8.01
572.855	7.94
573.195	8.14
573.536	7.93
573.876	8.13
574.217	8.04
574.557	7.93
574.898	7.99
575.238	7.9
575.578	8.1
575.918	8.1
576.258	8.44
576.598	8.43
576.938	8.19
577.278	8.31
577.618	8.04
577.958	8.37
578.298	8.19
578.638	8.35
578.977	8.37
579.317	8.34
579.657	8.37
579.996	8.57
580.336	8.49
580.675	8.47
581.014	8.57
581.354	8.53
581.693	8.6
582.032	8.86
582.372	8.73
582.711	8.95
583.05	8.91
583.389	8.93
583.728	8.9
584.067	8.98
584.406	8.83
584.745	8.97
585.083	8.97
585.422	8.83
585.761	8.8
586.1	8.97
586.438	8.84
586.777	9.08
587.115	8.99
587.454	9.15
587.792	9.19
588.13	9.12
588.469	9.15
588.807	8.8
589.145	9.24
589.483	9.33
589.821	8.92
590.159	9.6
590.497	9.37
590.835	9.47
591.173	9.28
591.511	9.3
591.849	9.32
592.187	9.22
592.524	9.34
592.862	9.29
593.2	9.58
593.537	9.38
593.875	9.54
594.212	10.01
594.55	9.65
594.887	9.86
595.224	9.63
595.561	9.5
595.899	9.63
596.236	9.65
596.573	9.78
596.91	9.87
597.247	9.84
597.584	9.62
597.921	9.65
598.258	9.87
598.594	9.82
598.931	9.69
599.268	9.76
599.604	9.96
599.941	9.99
600.277	9.95
600.614	10.09
600.95	9.98
601.287	10
601.623	10.23
601.959	10.39
602.296	10.25
602.632	10.03
602.968	10.26
603.304	10.55
603.64	10.42
603.976	10.32
604.312	10.83
604.648	10.6
604.984	10.77
605.319	10.54
605.655	10.41
605.991	10.54
606.326	10.5
606.662	10.21
606.998	10.48
607.333	10.42
607.668	10.38
608.004	10.81
608.339	10.42
608.674	10.92
609.01	10.55
609.345	11.12
609.68	11
610.015	11.05
610.35	11.02
610.685	11.12
611.02	11.05
611.355	10.95
611.689	11.1
612.024	11.12
612.359	11.05
612.694	11.34
613.028	11.26
613.363	11.01
613.697	11.32
614.032	11.51
614.366	11.15
614.7	11.64
615.035	11.41
615.369	11.85
615.703	11.39
616.037	11.54
616.371	11.75
616.705	11.73
617.039	11.82
617.373	11.74
617.707	11.88
618.041	12.01
618.375	11.46
618.709	11.55
619.042	11.9
619.376	12.23
619.71	12.13
620.043	12.16
620.377	12.28
620.71	12.02
621.043	12.39
621.377	12.2
621.71	12.08
622.043	12.2
622.376	12.09
622.709	12.41
623.043	12.25
623.376	12.4
623.709	12.01
624.041	11.99
624.374	12.48
624.707	12.38
625.04	12.7
625.373	12.55
625.705	12.66
626.038	12.98
626.37	11.97
626.703	12.85
627.035	12.55
627.368	12.74
627.7	13.04
628.032	12.43
628.365	12.68
628.697	12.87
629.029	12.5
629.361	12.78
629.693	12.87
630.025	12.97
630.357	13.03
630.689	12.82
631.021	13
631.353	12.95
631.684	12.74
632.016	13.09
632.348	13.17
632.679	13.06
633.011	13.24
633.342	13.02
633.674	13.33
634.005	13.28
634.336	13.93
634.668	13.48
634.999	13.18
635.33	13.02
635.661	13.74
635.992	13.82
636.323	14.08
636.654	13.78
636.985	13.56
637.316	13.76
637.647	13.77
637.977	13.73
638.308	13.95
638.639	13.57
638.969	13.84
639.3	13.82
639.63	13.85
639.961	13.59
640.291	13.9
640.622	13.99
640.952	14.2
641.282	14.32
641.612	14.18
641.943	14.45
642.273	13.97
642.603	14.2
642.933	14.39
643.263	14.96
643.592	14.49
643.922	14.81
644.252	14.18
644.582	14.47
644.911	14.61
645.241	14.9
645.571	15.04
645.9	14.14
646.23	14.36
646.559	14.53
646.888	14.99
647.218	14.71
647.547	14.49
647.876	14.65
648.205	15.03
648.534	14.76
648.863	15.3
649.192	14.52
649.521	15.11
649.85	15.3
650.179	15.27
650.508	15.14
650.837	15.41
651.165	15.43
651.494	14.92
651.822	14.91
652.151	15.84
652.479	15.52
652.808	15.7
653.136	15.59
653.465	15.52
653.793	15.52
654.121	15.57
654.449	16.06
654.777	15.79
655.105	15.97
655.433	16.24
655.761	16.17
656.089	16.42
656.417	15.72
656.745	15.84
657.073	15.57
657.4	16.72
657.728	16.43
658.056	16.26
658.383	16.28
658.711	15.83
659.038	16.31
659.365	16.24
659.693	15.99
660.02	16.29
660.347	16.42
660.674	16.36
661.001	16.47
661.329	16.37
661.656	16.72
661.982	16.33
662.309	16.45
662.636	16.55
662.963	16.72
663.29	16.39
663.616	16.6
663.943	16.46
664.27	16.72
664.596	16.73
664.923	16.32
665.249	17.03
665.576	16.38
665.902	16.7
666.228	17.02
666.554	17.18
666.881	16.69
667.207	17.33
667.533	16.71
667.859	17.68
668.185	18.02
668.511	17.77
668.837	18.1
669.162	17.58
669.488	17.81
669.814	17.24
670.139	17.2
670.465	17.5
670.791	17.99
671.116	17.61
671.442	17.63
671.767	17.57
672.092	17.5
672.418	17.88
672.743	18.12
673.068	18.05
673.393	17.89
673.718	17.26
674.043	18.01
674.368	17.84
674.693	18.5
675.018	18.54
675.343	18.08
675.667	18.57
675.992	17.65
676.317	18.26
676.641	18.22
676.966	18.41
677.29	18.07
677.615	18.8
677.939	17.81
678.264	18.77
678.588	18.21
678.912	19.06
679.236	18.54
679.56	18.64
679.885	18.85
680.209	18.81
680.532	18.78
680.856	18.76
681.18	19.08
681.504	19.14
681.828	19.51
682.152	19.3
682.475	18.62
682.799	19.09
683.122	19.19
683.446	19.1
683.769	19.23
684.093	19.42
684.416	18.89
684.739	18.91
685.062	18.44
685.386	19
685.709	19.68
686.032	19.26
686.355	19.29
686.678	19.23
687.001	19.5
