Data from 0273_chest_Reflection__4__250.txt Node

Date: Fri Oct 20 22:39:18 CDT 2023
User: ToomeyLab
Spectrometer: FLMS14357
Trigger mode: 0
Integration Time (sec): 1.000000E-2
Scans to average: 100
Electric dark correction enabled: true
Nonlinearity correction enabled: false
Boxcar width: 0
XAxis mode: Wavelengths
Number of Pixels in Spectrum: 2048
>>>>>Begin Spectral Data<<<<<
189.047	41.6
189.435	41.6
189.823	41.6
190.211	1524.41
190.599	63.71
190.987	69
191.375	-3.36
191.763	82.75
192.151	94
192.538	-91.04
192.926	49.7
193.314	185.9
193.702	137.02
194.089	157.75
194.477	5.65
194.864	89.7
195.252	18.69
195.639	70.18
196.027	33.44
196.414	-384.86
196.801	34.88
197.189	12.92
197.576	93.62
197.963	-57.29
198.351	28.56
198.738	11.04
199.125	-8.8
199.512	27.61
199.899	45.83
200.286	-56.64
200.673	41.05
201.06	-8.83
201.447	23.23
201.833	51.47
202.22	46.3
202.607	47.2
202.994	36.15
203.38	11.92
203.767	6.99
204.154	29.82
204.54	74.55
204.927	24
205.313	-5.72
205.699	33
206.086	7.26
206.472	41.19
206.858	44.6
207.245	10.65
207.631	30.68
208.017	14.8
208.403	30.84
208.789	47.08
209.175	33.64
209.561	5.38
209.947	32.18
210.333	13.33
210.719	9.45
211.105	3.61
211.491	24.7
211.876	-4.43
212.262	4.62
212.648	17.85
213.034	7.1
213.419	2.8
213.805	9.15
214.19	24.31
214.576	-2.36
214.961	24.41
215.346	30.05
215.732	8.85
216.117	-38.65
216.502	27.12
216.888	6.16
217.273	16.49
217.658	5.18
218.043	-3.17
218.428	-30.39
218.813	20.76
219.198	0.43
219.583	-22.97
219.968	-16.17
220.353	19.56
220.738	13.38
221.122	-6.22
221.507	4.52
221.892	14.15
222.276	4.17
222.661	10.36
223.046	20.96
223.43	11.12
223.815	20.95
224.199	20.05
224.583	-10.59
224.968	2.06
225.352	-0.32
225.736	1.08
226.121	5.56
226.505	1.33
226.889	8.11
227.273	7.15
227.657	10.62
228.041	9.75
228.425	5.74
228.809	5.88
229.193	3.46
229.577	6.62
229.961	3.97
230.344	3.1
230.728	3.15
231.112	3.92
231.495	3.08
231.879	3.51
232.263	3.84
232.646	2.43
233.03	2.65
233.413	2.56
233.797	2.99
234.18	3.41
234.563	3.69
234.946	5.28
235.33	6.02
235.713	4.39
236.096	4.72
236.479	3.99
236.862	4.3
237.245	2.87
237.628	2.19
238.011	5.61
238.394	2.68
238.777	4.96
239.16	2.75
239.543	5.01
239.925	6.14
240.308	4.63
240.691	3.83
241.073	4.08
241.456	3.43
241.838	4.11
242.221	4.75
242.603	3.81
242.986	3.04
243.368	3.38
243.75	3.02
244.133	2.66
244.515	3.15
244.897	2.9
245.279	3.37
245.661	3.36
246.043	2.57
246.425	2.61
246.807	3.03
247.189	3.2
247.571	2.07
247.953	2.66
248.335	3.04
248.717	2.69
249.098	2.73
249.48	2.9
249.862	3.16
250.243	3.2
250.625	2.98
251.006	2.91
251.388	2.87
251.769	3.1
252.151	2.74
252.532	2.57
252.913	3.3
253.295	2.31
253.676	3.36
254.057	2.32
254.438	2.86
254.819	3.19
255.2	2.97
255.581	3.26
255.962	3.15
256.343	3.38
256.724	2.67
257.105	2.33
257.486	3.82
257.867	2.7
258.247	3.09
258.628	2.65
259.009	2.13
259.389	2.39
259.77	2.73
260.15	2.96
260.531	3.3
260.911	3.13
261.292	3.03
261.672	2.85
262.052	3.12
262.432	2.86
262.813	2.82
263.193	3.14
263.573	2.87
263.953	2.79
264.333	3.1
264.713	3.55
265.093	3.82
265.473	3.1
265.853	3.01
266.233	3.49
266.612	2.76
266.992	3.01
267.372	3.24
267.752	2.99
268.131	3.61
268.511	3
268.89	3.28
269.27	3.03
269.649	2.55
270.029	2.67
270.408	3.24
270.787	2.94
271.167	2.75
271.546	2.98
271.925	3.23
272.304	3.5
272.683	2.98
273.062	3.04
273.441	2.89
273.82	3.07
274.199	3.23
274.578	3.02
274.957	2.73
275.336	2.99
275.715	2.76
276.093	2.9
276.472	2.82
276.851	2.73
277.229	2.54
277.608	2.32
277.986	2.14
278.365	3.33
278.743	2.67
279.122	2.34
279.5	2.47
279.878	2.3
280.257	2.88
280.635	3.05
281.013	2.71
281.391	3.37
281.769	2.62
282.147	2.96
282.525	2.71
282.903	2.61
283.281	2.48
283.659	2.84
284.037	3
284.415	2.6
284.792	2.91
285.17	2.73
285.548	3.03
285.925	2.44
286.303	2.85
286.68	2.52
287.058	3.1
287.435	3.04
287.813	2.77
288.19	2.59
288.567	2.86
288.945	2.63
289.322	3.42
289.699	2.22
290.076	3.38
290.453	2.82
290.83	2.72
291.207	3.38
291.584	2.48
291.961	2.73
292.338	2.69
292.715	3.17
293.092	2.68
293.469	2.97
293.845	2.64
294.222	2.64
294.599	2.77
294.975	3.37
295.352	2.74
295.728	3.11
296.105	2.62
296.481	2.72
296.858	2.78
297.234	3.07
297.61	2.37
297.986	2.33
298.363	2.92
298.739	2.78
299.115	2.47
299.491	2.87
299.867	2.71
300.243	2.83
300.619	2.67
300.995	2.65
301.371	2.73
301.746	2.95
302.122	3.31
302.498	2.68
302.874	2.96
303.249	2.53
303.625	3.28
304	3.13
304.376	2.49
304.751	2.91
305.127	2.62
305.502	3.51
305.878	2.57
306.253	2.85
306.628	3.04
307.003	2.73
307.378	3.06
307.754	3.08
308.129	3.06
308.504	2.88
308.879	2.85
309.254	3.26
309.629	2.81
310.003	2.35
310.378	2.65
310.753	2.91
311.128	2.96
311.502	2.9
311.877	2.91
312.252	3.01
312.626	2.93
313.001	3.19
313.375	2.87
313.75	2.82
314.124	2.57
314.498	3.26
314.873	3.05
315.247	2.99
315.621	3.07
315.995	3.37
316.369	2.67
316.743	2.89
317.117	3.2
317.491	2.63
317.865	3.61
318.239	3.21
318.613	2.78
318.987	2.8
319.361	2.58
319.734	3.39
320.108	2.2
320.482	3.24
320.855	3.6
321.229	3.46
321.602	3.29
321.976	2.82
322.349	3.43
322.723	2.73
323.096	3.19
323.469	2.9
323.843	3.25
324.216	3.22
324.589	3.09
324.962	3.08
325.335	3.07
325.708	3.01
326.081	3.32
326.454	3.09
326.827	3.43
327.2	3.58
327.573	3.42
327.945	2.8
328.318	3
328.691	3.19
329.063	2.84
329.436	2.9
329.809	3.04
330.181	3.56
330.553	3.24
330.926	2.84
331.298	3.02
331.671	3.25
332.043	2.9
332.415	3.32
332.787	3.64
333.159	2.92
333.532	3.34
333.904	3.17
334.276	2.73
334.648	3.34
335.02	3.23
335.391	2.85
335.763	3.59
336.135	2.97
336.507	3.32
336.879	3.11
337.25	3.4
337.622	3.11
337.993	3.48
338.365	3.12
338.736	3.24
339.108	3.34
339.479	2.81
339.851	3.6
340.222	3.17
340.593	2.82
340.964	2.81
341.336	3.39
341.707	2.92
342.078	3.48
342.449	3.14
342.82	3.08
343.191	2.95
343.562	3.17
343.933	3.18
344.303	3.25
344.674	3.46
345.045	3.11
345.416	3.32
345.786	3.05
346.157	3.61
346.527	3.24
346.898	3.2
347.268	3.28
347.639	3.46
348.009	2.71
348.38	3.65
348.75	3.09
349.12	3.08
349.49	3.33
349.861	3.57
350.231	2.82
350.601	2.98
350.971	3.53
351.341	3.06
351.711	3.49
352.081	2.7
352.45	3.07
352.82	3.33
353.19	3.32
353.56	3.51
353.929	3.17
354.299	3.18
354.669	2.73
355.038	3.22
355.408	3.1
355.777	3.06
356.147	3.01
356.516	2.81
356.885	3.36
357.254	3.24
357.624	3.13
357.993	2.93
358.362	3.35
358.731	2.93
359.1	2.93
359.469	3.23
359.838	3.39
360.207	3.22
360.576	3.7
360.945	3.08
361.314	3.28
361.682	3.25
362.051	2.8
362.42	2.96
362.788	3.44
363.157	3.14
363.525	3.08
363.894	3.04
364.262	3.02
364.631	3.24
364.999	3.21
365.367	3.19
365.735	2.94
366.104	3.13
366.472	3.24
366.84	3.05
367.208	3.48
367.576	3.4
367.944	3.42
368.312	3.23
368.68	3.23
369.048	3.33
369.416	3.24
369.783	3.34
370.151	3.12
370.519	3.02
370.886	3.31
371.254	3.52
371.621	3.57
371.989	3.15
372.356	3.29
372.724	3.41
373.091	3.28
373.458	2.89
373.826	3.41
374.193	3.17
374.56	3.53
374.927	3.01
375.294	3.34
375.661	3.37
376.028	3.49
376.395	3.41
376.762	3.22
377.129	3.25
377.496	3.07
377.863	3.47
378.229	3.48
378.596	3.32
378.963	3.26
379.329	3.37
379.696	3.36
380.062	3.55
380.429	3.29
380.795	3.35
381.161	3.19
381.528	3.39
381.894	3.15
382.26	3.26
382.626	3.31
382.993	3.07
383.359	3.22
383.725	3.17
384.091	3.38
384.457	3.48
384.823	3.55
385.188	3.41
385.554	3.17
385.92	3.35
386.286	3.41
386.651	3.07
387.017	3.37
387.383	3.4
387.748	2.92
388.114	3.04
388.479	3.31
388.845	3.56
389.21	3.33
389.575	3.24
389.94	3.14
390.306	3.37
390.671	3.4
391.036	3.21
391.401	3.38
391.766	3.36
392.131	3.56
392.496	3.53
392.861	3.34
393.226	3.33
393.591	3.23
393.956	3.54
394.32	3.45
394.685	3.22
395.05	3.26
395.414	3.55
395.779	3.28
396.143	3.36
396.508	3.47
396.872	3.39
397.236	3.4
397.601	3.48
397.965	3.19
398.329	3.15
398.694	3.52
399.058	3.07
399.422	3.51
399.786	3.37
400.15	3.43
400.514	3.54
400.878	3.53
401.242	3.46
401.605	3.38
401.969	3.16
402.333	3.3
402.697	3.42
403.06	3.5
403.424	3.43
403.787	3.35
404.151	3.4
404.514	3.52
404.878	3.64
405.241	3.57
405.604	3.45
405.968	3.4
406.331	3.43
406.694	3.35
407.057	3.3
407.42	3.6
407.783	3.33
408.146	3.45
408.509	3.19
408.872	3.48
409.235	3.44
409.598	3.59
409.961	3.78
410.323	3.42
410.686	3.17
411.049	3.5
411.411	3.52
411.774	3.46
412.136	3.5
412.499	3.46
412.861	3.54
413.223	3.5
413.586	3.57
413.948	3.46
414.31	3.87
414.672	3.53
415.035	3.31
415.397	3.71
415.759	3.63
416.121	3.61
416.483	3.7
416.845	3.42
417.206	3.54
417.568	3.73
417.93	3.54
418.292	3.33
418.653	3.59
419.015	3.37
419.377	3.46
419.738	3.37
420.1	3.29
420.461	3.5
420.822	3.4
421.184	3.37
421.545	3.39
421.906	3.25
422.267	3.4
422.629	3.42
422.99	3.21
423.351	3.45
423.712	3.31
424.073	3.42
424.434	3.34
424.795	3.35
425.155	3.43
425.516	3.35
425.877	3.4
426.238	3.35
426.598	3.42
426.959	3.25
427.32	3.34
427.68	3.42
428.041	3.43
428.401	3.35
428.761	3.43
429.122	3.45
429.482	3.5
429.842	3.55
430.202	3.53
430.563	3.55
430.923	3.61
431.283	3.48
431.643	3.62
432.003	3.6
432.363	3.5
432.722	3.66
433.082	3.57
433.442	3.44
433.802	3.61
434.161	3.43
434.521	3.49
434.881	3.46
435.24	3.45
435.6	3.49
435.959	3.47
436.319	3.44
436.678	3.54
437.037	3.55
437.396	3.63
437.756	3.49
438.115	3.42
438.474	3.51
438.833	3.74
439.192	3.36
439.551	3.62
439.91	3.43
440.269	3.82
440.628	3.54
440.987	3.56
441.345	3.51
441.704	3.55
442.063	3.65
442.421	3.38
442.78	3.41
443.138	3.6
443.497	3.51
443.855	3.57
444.214	3.63
444.572	3.55
444.93	3.74
445.288	3.54
445.647	3.84
446.005	3.43
446.363	3.62
446.721	3.56
447.079	3.71
447.437	3.59
447.795	3.57
448.153	3.57
448.51	3.56
448.868	3.61
449.226	3.54
449.584	3.52
449.941	3.5
450.299	3.51
450.656	3.44
451.014	3.5
451.371	3.56
451.729	3.6
452.086	3.73
452.443	3.66
452.801	3.63
453.158	3.75
453.515	3.56
453.872	3.75
454.229	3.83
454.586	3.72
454.943	3.57
455.3	3.66
455.657	3.62
456.014	3.53
456.371	3.7
456.727	3.84
457.084	3.81
457.441	3.82
457.797	3.78
458.154	3.5
458.51	3.75
458.867	3.67
459.223	3.58
459.58	3.63
459.936	3.67
460.292	3.71
460.648	3.49
461.005	3.6
461.361	3.74
461.717	3.49
462.073	3.65
462.429	3.64
462.785	3.7
463.141	3.69
463.496	3.64
463.852	3.75
464.208	3.69
464.564	3.73
464.919	3.67
465.275	3.88
465.631	3.8
465.986	3.75
466.342	3.78
466.697	3.68
467.052	3.77
467.408	3.72
467.763	3.79
468.118	4.11
468.473	3.76
468.829	3.75
469.184	3.74
469.539	3.75
469.894	3.81
470.249	3.8
470.603	3.73
470.958	3.78
471.313	3.93
471.668	3.83
472.023	3.91
472.377	3.81
472.732	3.72
473.086	3.95
473.441	3.89
473.795	4.07
474.15	3.7
474.504	3.78
474.859	3.86
475.213	3.94
475.567	3.83
475.921	3.8
476.275	3.92
476.63	4.07
476.984	3.96
477.338	3.7
477.692	3.84
478.045	3.83
478.399	3.86
478.753	3.9
479.107	3.94
479.461	3.89
479.814	3.94
480.168	3.85
480.521	3.87
480.875	3.88
481.228	3.95
481.582	3.95
481.935	3.84
482.289	3.87
482.642	3.88
482.995	3.84
483.348	3.87
483.701	3.91
484.055	3.85
484.408	3.83
484.761	3.7
485.114	3.72
485.466	3.69
485.819	3.64
486.172	3.53
486.525	3.6
486.878	3.66
487.23	3.73
487.583	3.76
487.936	3.78
488.288	3.82
488.641	3.83
488.993	3.75
489.345	3.73
489.698	3.73
490.05	3.7
490.402	3.66
490.754	3.75
491.107	3.75
491.459	3.84
491.811	3.82
492.163	3.79
492.515	3.91
492.866	3.94
493.218	3.81
493.57	3.74
493.922	3.7
494.274	3.77
494.625	3.84
494.977	3.82
495.328	3.9
495.68	3.93
496.031	3.96
496.383	4.02
496.734	4.02
497.086	3.99
497.437	4.07
497.788	3.91
498.139	4.2
498.49	4.08
498.842	3.92
499.193	4.06
499.544	3.98
499.894	4.12
500.245	3.96
500.596	4.08
500.947	4.09
501.298	3.94
501.648	4.02
501.999	4.14
502.35	4.06
502.7	4.1
503.051	4.08
503.401	4.11
503.752	4.2
504.102	4.26
504.452	4.08
504.803	4.07
505.153	4.05
505.503	4.14
505.853	4.27
506.203	4.04
506.553	4.1
506.903	4.11
507.253	4.17
507.603	4.11
507.953	4.26
508.303	4.1
508.652	4.2
509.002	4.15
509.352	4.16
509.701	4.17
510.051	4.11
510.4	4.29
510.75	4.18
511.099	4.18
511.449	4.29
511.798	4.28
512.147	4.3
512.496	4.32
512.846	4.15
513.195	4.24
513.544	4.18
513.893	4.19
514.242	4.21
514.591	4.16
514.939	4.22
515.288	4.12
515.637	4.29
515.986	4.29
516.334	4.28
516.683	4.27
517.032	4.22
517.38	4.31
517.729	4.25
518.077	4.3
518.426	4.24
518.774	4.07
519.122	4.32
519.47	4.26
519.819	4.28
520.167	4.28
520.515	4.27
520.863	4.31
521.211	4.31
521.559	4.34
521.907	4.29
522.255	4.3
522.602	4.48
522.95	4.34
523.298	4.3
523.645	4.41
523.993	4.42
524.341	4.44
524.688	4.37
525.036	4.47
525.383	4.36
525.73	4.46
526.078	4.58
526.425	4.55
526.772	4.41
527.119	4.4
527.466	4.37
527.814	4.39
528.161	4.39
528.508	4.46
528.854	4.35
529.201	4.41
529.548	4.49
529.895	4.39
530.242	4.32
530.588	4.27
530.935	4.27
531.282	4.37
531.628	4.42
531.975	4.33
532.321	4.41
532.667	4.47
533.014	4.56
533.36	4.54
533.706	4.54
534.052	4.59
534.399	4.5
534.745	4.48
535.091	4.47
535.437	4.53
535.783	4.51
536.129	4.61
536.474	4.57
536.82	4.63
537.166	4.61
537.512	4.77
537.857	4.75
538.203	4.6
538.549	4.74
538.894	4.65
539.239	4.67
539.585	4.64
539.93	4.76
540.276	4.95
540.621	4.93
540.966	4.78
541.311	4.96
541.656	4.86
542.001	4.9
542.346	4.81
542.691	4.82
543.036	4.72
543.381	4.68
543.726	4.68
544.071	4.76
544.415	4.77
544.76	4.81
545.105	4.85
545.449	4.88
545.794	4.9
546.138	4.95
546.483	4.92
546.827	5.01
547.171	5.02
547.516	4.85
547.86	5.18
548.204	4.99
548.548	5.02
548.892	5.06
549.236	5.05
549.58	5.02
549.924	5.01
550.268	5.12
550.612	5.1
550.956	5.27
551.3	5.18
551.643	5.25
551.987	5.29
552.33	5.29
552.674	5.23
553.017	5.3
553.361	5.45
553.704	5.3
554.048	5.43
554.391	5.43
554.734	5.43
555.077	5.39
555.42	5.27
555.764	5.33
556.107	5.6
556.45	5.66
556.793	5.37
557.135	5.55
557.478	5.38
557.821	5.65
558.164	5.63
558.507	5.57
558.849	5.74
559.192	5.78
559.534	5.71
559.877	5.5
560.219	5.72
560.562	5.76
560.904	5.54
561.246	5.74
561.589	5.59
561.931	5.7
562.273	5.76
562.615	5.96
562.957	5.58
563.299	5.72
563.641	5.82
563.983	5.73
564.325	5.67
564.667	5.97
565.008	5.84
565.35	5.93
565.692	5.96
566.033	6.07
566.375	5.89
566.716	5.89
567.058	5.93
567.399	6.08
567.741	5.9
568.082	6.06
568.423	6
568.764	5.91
569.105	6.09
569.447	5.96
569.788	5.96
570.129	6.07
570.47	6.23
570.811	6.31
571.151	6.08
571.492	6.23
571.833	6.31
572.174	6.34
572.514	6.18
572.855	6.31
573.195	6.25
573.536	6.18
573.876	6.41
574.217	6.27
574.557	6.24
574.898	6.27
575.238	6.34
575.578	6.42
575.918	6.35
576.258	6.34
576.598	6.47
576.938	6.47
577.278	6.54
577.618	6.41
577.958	6.56
578.298	6.57
578.638	6.64
578.977	6.74
579.317	6.53
579.657	6.67
579.996	6.63
580.336	6.85
580.675	6.73
581.014	6.88
581.354	6.76
581.693	6.86
582.032	6.92
582.372	7.07
582.711	7.01
583.05	7.28
583.389	7.09
583.728	6.97
584.067	7.09
584.406	7.11
584.745	7.26
585.083	7.11
585.422	6.84
585.761	6.89
586.1	7.27
586.438	6.84
586.777	7.14
587.115	7.36
587.454	7.22
587.792	7.21
588.13	7.55
588.469	7.37
588.807	7.17
589.145	7.14
589.483	7.29
589.821	7.45
590.159	7.38
590.497	7.32
590.835	7.41
591.173	7.27
591.511	7.45
591.849	7.32
592.187	7.64
592.524	7.52
592.862	7.36
593.2	7.53
593.537	7.59
593.875	7.31
594.212	7.67
594.55	7.6
594.887	7.64
595.224	7.66
595.561	7.4
595.899	7.71
596.236	7.85
596.573	7.78
596.91	7.72
597.247	7.76
597.584	7.6
597.921	8.01
598.258	7.74
598.594	7.87
598.931	7.84
599.268	7.58
599.604	7.84
599.941	7.78
600.277	7.89
600.614	8.07
600.95	8.11
601.287	8.09
601.623	8.14
601.959	8.19
602.296	8.1
602.632	7.91
602.968	8.21
603.304	8.26
603.64	8.14
603.976	8.25
604.312	8.51
604.648	8.22
604.984	8.47
605.319	8.39
605.655	8.22
605.991	8.34
606.326	8.48
606.662	8.26
606.998	8.27
607.333	8.44
607.668	8.28
608.004	8.38
608.339	8.32
608.674	8.75
609.01	8.81
609.345	8.77
609.68	8.64
610.015	8.71
610.35	8.68
610.685	8.97
611.02	8.73
611.355	8.76
611.689	8.87
612.024	8.89
612.359	9.06
612.694	9.01
613.028	9.25
613.363	8.93
613.697	8.93
614.032	9.01
614.366	9.38
614.7	9.02
615.035	9.33
615.369	9.36
615.703	8.63
616.037	9.58
616.371	9.32
616.705	9.35
617.039	9.22
617.373	9.24
617.707	9.48
618.041	9.54
618.375	9.41
618.709	9.42
619.042	9.7
619.376	9.56
619.71	9.76
620.043	9.68
620.377	9.69
620.71	9.54
621.043	9.55
621.377	9.54
621.71	9.58
622.043	9.78
622.376	9.9
622.709	9.97
623.043	9.65
623.376	9.89
623.709	9.75
624.041	9.93
624.374	10.25
624.707	10.03
625.04	9.9
625.373	10.38
625.705	9.63
626.038	10.32
626.37	9.86
626.703	9.91
627.035	9.75
627.368	10.22
627.7	9.83
628.032	10.41
628.365	10.22
628.697	10.12
629.029	10.23
629.361	10.34
629.693	10.02
630.025	10.25
630.357	10.47
630.689	10.32
631.021	10.73
631.353	10.42
631.684	10.53
632.016	10.63
632.348	10.69
632.679	10.72
633.011	10.39
633.342	10.48
633.674	10.57
634.005	10.87
634.336	11.12
634.668	10.55
634.999	10.85
635.33	10.78
635.661	10.9
635.992	11.32
636.323	11.03
636.654	10.94
636.985	10.64
637.316	10.98
637.647	10.96
637.977	10.71
638.308	10.94
638.639	11.41
638.969	11.37
639.3	10.76
639.63	11.11
639.961	11.35
640.291	11.11
640.622	11.58
640.952	11.49
641.282	11.64
641.612	11.67
641.943	11.4
642.273	11.22
642.603	12.1
642.933	11.72
643.263	11.73
643.592	11.83
643.922	12.42
644.252	11.76
644.582	11.61
644.911	11.72
645.241	12.04
645.571	12.35
645.9	11.57
646.23	11.56
646.559	11.39
646.888	11.98
647.218	11.87
647.547	11.71
647.876	11.75
648.205	12.02
648.534	11.9
648.863	12.32
649.192	12.2
649.521	12.36
649.85	12.68
650.179	12.15
650.508	12.14
650.837	12.41
651.165	12.75
651.494	11.84
651.822	12.25
652.151	12.77
652.479	12.35
652.808	12.35
653.136	12.09
653.465	12.85
653.793	12.84
654.121	12.81
654.449	12.72
654.777	12.55
655.105	13.12
655.433	12.98
655.761	13.19
656.089	13.06
656.417	12.6
656.745	13.4
657.073	12.93
657.4	13.62
657.728	12.77
658.056	13.36
658.383	13.08
658.711	12.62
659.038	13.58
659.365	13.37
659.693	13.16
660.02	12.82
660.347	12.88
660.674	12.88
661.001	12.81
661.329	13.06
661.656	13.27
661.982	13.16
662.309	13.6
662.636	13.19
662.963	13.38
663.29	13.57
663.616	13.78
663.943	13.83
664.27	13.52
664.596	12.83
664.923	13.13
665.249	13.23
665.576	13.45
665.902	13.37
666.228	13.88
666.554	13.63
666.881	13.73
667.207	13.91
667.533	13.63
667.859	14.11
668.185	14.35
668.511	14.7
668.837	14.81
669.162	14.43
669.488	14.48
669.814	13.94
670.139	13.31
670.465	14.51
670.791	14.65
671.116	13.63
671.442	14.61
671.767	14.26
672.092	14.72
672.418	14.59
672.743	14.08
673.068	15.02
673.393	13.93
673.718	14.77
674.043	15.31
674.368	14.73
674.693	14.75
675.018	14.77
675.343	14.62
675.667	14.4
675.992	14.74
676.317	14.42
676.641	14.98
676.966	15.15
677.29	14.68
677.615	14.95
677.939	14.69
678.264	15.02
678.588	14.62
678.912	15.12
679.236	15.57
679.56	14.52
679.885	15.53
680.209	15.15
680.532	15.37
680.856	15.47
681.18	15.38
681.504	15.72
681.828	15.13
682.152	15.55
682.475	15.4
682.799	15.53
683.122	15.08
683.446	15.67
683.769	15.5
684.093	15.94
684.416	15.26
684.739	14.59
685.062	15.1
685.386	16.02
685.709	15.83
686.032	15.58
686.355	15.7
686.678	15.33
687.001	15.61
687.324	15.4
687.646	16.55
687.969	16.47
688.292	16.17
688.614	16.12
