Data from 0273_crown_Reflection__3__254.txt Node

Date: Fri Oct 20 22:41:44 CDT 2023
User: ToomeyLab
Spectrometer: FLMS14357
Trigger mode: 0
Integration Time (sec): 1.000000E-2
Scans to average: 100
Electric dark correction enabled: true
Nonlinearity correction enabled: false
Boxcar width: 0
XAxis mode: Wavelengths
Number of Pixels in Spectrum: 2048
>>>>>Begin Spectral Data<<<<<
189.047	-360.36
189.435	-360.36
189.823	-360.36
190.211	1193.9
190.599	-2.89
190.987	65.94
191.375	-6.98
191.763	-25.12
192.151	110.01
192.538	133.14
192.926	-10.59
193.314	91.88
193.702	160.36
194.089	164.55
194.477	13.9
194.864	111.84
195.252	129.62
195.639	46.1
196.027	-62.91
196.414	-193.58
196.801	-10.67
197.189	26.68
197.576	90.05
197.963	-148.44
198.351	26.11
198.738	9.96
199.125	56.45
199.512	29.11
199.899	22.29
200.286	3.74
200.673	34.68
201.06	-5.52
201.447	-42.1
201.833	41.26
202.22	24.29
202.607	24.54
202.994	30.06
203.38	-21.27
203.767	25.82
204.154	19.63
204.54	67.23
204.927	21.5
205.313	12.68
205.699	27.28
206.086	33.67
206.472	29.83
206.858	30.22
207.245	-17.49
207.631	5.95
208.017	9.05
208.403	6.71
208.789	20.97
209.175	13.1
209.561	28.74
209.947	-6.54
210.333	17.99
210.719	-3.81
211.105	33.17
211.491	19.75
211.876	-25.28
212.262	6.97
212.648	15.9
213.034	1.62
213.419	9.77
213.805	1.47
214.19	7.05
214.576	-30.01
214.961	10.87
215.346	28.97
215.732	25.99
216.117	-58.82
216.502	15.45
216.888	8.81
217.273	11.99
217.658	-10.49
218.043	28.8
218.428	-21.63
218.813	6.29
219.198	7.12
219.583	-15.8
219.968	4.31
220.353	3.77
220.738	22.07
221.122	14.5
221.507	9.24
221.892	-7.16
222.276	21.22
222.661	22.92
223.046	14.08
223.43	2.05
223.815	10.59
224.199	21.74
224.583	8.54
224.968	-2.85
225.352	0.09
225.736	7.23
226.121	9.11
226.505	-0.08
226.889	9.86
227.273	4.74
227.657	14.75
228.041	9.56
228.425	6.89
228.809	8.59
229.193	4.54
229.577	8.39
229.961	5.48
230.344	6.31
230.728	5.13
231.112	6.53
231.495	5.74
231.879	6.71
232.263	6.29
232.646	5.38
233.03	4.96
233.413	5.19
233.797	6.37
234.18	4.8
234.563	7.39
234.946	7.84
235.33	5.9
235.713	5.99
236.096	7.26
236.479	7.08
236.862	6.42
237.245	4.23
237.628	6.19
238.011	7
238.394	3.9
238.777	6.17
239.16	5.82
239.543	6.89
239.925	7.51
240.308	5.66
240.691	6.19
241.073	5.92
241.456	6.61
241.838	5.4
242.221	6.34
242.603	5.48
242.986	5.86
243.368	6.13
243.75	6.63
244.133	5.62
244.515	5.61
244.897	5.71
245.279	6.34
245.661	5.68
246.043	5.82
246.425	5.78
246.807	6.04
247.189	5.52
247.571	4.49
247.953	5.73
248.335	6.32
248.717	5.42
249.098	5.49
249.48	5.59
249.862	5.77
250.243	5.93
250.625	5.98
251.006	6.21
251.388	5.59
251.769	6.36
252.151	4.73
252.532	6.13
252.913	4.96
253.295	4.57
253.676	5.59
254.057	5.2
254.438	5.44
254.819	5.69
255.2	5.95
255.581	4.35
255.962	6.81
256.343	6.39
256.724	4.11
257.105	5.97
257.486	5.76
257.867	5.71
258.247	5.82
258.628	5.26
259.009	5.1
259.389	5.66
259.77	5.43
260.15	4.96
260.531	5.03
260.911	5.99
261.292	5.18
261.672	5.38
262.052	5.44
262.432	5.39
262.813	5.23
263.193	5.39
263.573	5.02
263.953	5.61
264.333	5.77
264.713	5.53
265.093	5.76
265.473	5.41
265.853	4.83
266.233	5.55
266.612	4.79
266.992	5.16
267.372	5.37
267.752	5.6
268.131	5.68
268.511	5.67
268.89	5.3
269.27	5.32
269.649	4.72
270.029	5.15
270.408	5.68
270.787	5.27
271.167	5.1
271.546	5.76
271.925	5.47
272.304	6.18
272.683	5.47
273.062	5.35
273.441	5.61
273.82	5.52
274.199	5.52
274.578	5.46
274.957	5.33
275.336	5.45
275.715	5.44
276.093	5.26
276.472	5.35
276.851	5.52
277.229	5.21
277.608	4.69
277.986	4.79
278.365	5.83
278.743	4.93
279.122	4.89
279.5	5.19
279.878	4.7
280.257	4.67
280.635	5.26
281.013	5.95
281.391	5.56
281.769	4.79
282.147	4.66
282.525	5.41
282.903	4.82
283.281	4.99
283.659	5.07
284.037	4.68
284.415	4.86
284.792	4.52
285.17	4.84
285.548	5.01
285.925	4.45
286.303	4.35
286.68	4.59
287.058	5.19
287.435	5.17
287.813	4.73
288.19	5.05
288.567	4.81
288.945	5.05
289.322	4.85
289.699	4.41
290.076	5.25
290.453	4.95
290.83	5.01
291.207	4.93
291.584	4.56
291.961	4.86
292.338	4.2
292.715	4.53
293.092	4.57
293.469	4.66
293.845	4.73
294.222	5.17
294.599	4.41
294.975	5.44
295.352	4.49
295.728	4.22
296.105	4.55
296.481	4.75
296.858	4.99
297.234	4.62
297.61	4.06
297.986	4.34
298.363	4.95
298.739	4.69
299.115	4.59
299.491	4.62
299.867	4.59
300.243	4.65
300.619	4.42
300.995	4.19
301.371	5.07
301.746	4.45
302.122	4.71
302.498	4.46
302.874	4.65
303.249	5.07
303.625	4.45
304	5.05
304.376	4.19
304.751	3.9
305.127	4.36
305.502	5.02
305.878	4.26
306.253	4.41
306.628	4.41
307.003	4.17
307.378	4.54
307.754	3.93
308.129	5.02
308.504	4.78
308.879	4.59
309.254	4.73
309.629	4.17
310.003	4.09
310.378	4.57
310.753	4.56
311.128	4.33
311.502	4.59
311.877	4.41
312.252	4.3
312.626	4.94
313.001	4.71
313.375	4.43
313.75	4.5
314.124	4.18
314.498	4.72
314.873	4.57
315.247	4.29
315.621	4.21
315.995	4.36
316.369	3.78
316.743	4.56
317.117	4.58
317.491	3.97
317.865	4.51
318.239	4.96
318.613	4.34
318.987	4.12
319.361	3.44
319.734	3.94
320.108	3.93
320.482	4.08
320.855	4.35
321.229	5
321.602	4.66
321.976	4.43
322.349	3.98
322.723	4.09
323.096	4.36
323.469	4
323.843	4.57
324.216	4.39
324.589	4.35
324.962	4.66
325.335	4.37
325.708	3.89
326.081	4.16
326.454	4.07
326.827	4.87
327.2	4.61
327.573	4.5
327.945	4.49
328.318	3.72
328.691	4.32
329.063	4.67
329.436	4.23
329.809	3.69
330.181	4.18
330.553	4.58
330.926	4.19
331.298	3.88
331.671	3.2
332.043	4.37
332.415	4.17
332.787	4.36
333.159	3.85
333.532	4.41
333.904	3.96
334.276	3.63
334.648	4.22
335.02	4.38
335.391	3.91
335.763	4.5
336.135	3.98
336.507	4.64
336.879	4.16
337.25	4.73
337.622	4.18
337.993	4.29
338.365	4.1
338.736	4.19
339.108	4.33
339.479	3.76
339.851	4.21
340.222	4.51
340.593	3.94
340.964	4.43
341.336	4.76
341.707	4.4
342.078	4.46
342.449	3.66
342.82	4.2
343.191	4.19
343.562	4.18
343.933	4.01
344.303	4.37
344.674	4.52
345.045	4.36
345.416	4.21
345.786	4.21
346.157	4.1
346.527	4.31
346.898	4.43
347.268	4.24
347.639	4.43
348.009	4.26
348.38	4.51
348.75	4.01
349.12	4.52
349.49	3.98
349.861	4.38
350.231	4.08
350.601	4.27
350.971	4.52
351.341	4.26
351.711	4.79
352.081	4.13
352.45	4.17
352.82	4.4
353.19	4.69
353.56	4.37
353.929	4.36
354.299	4.19
354.669	4.16
355.038	4.47
355.408	4.45
355.777	4.13
356.147	4.19
356.516	4.05
356.885	4.2
357.254	4.04
357.624	4.26
357.993	3.83
358.362	4.66
358.731	4.01
359.1	3.88
359.469	4.14
359.838	4.53
360.207	4.47
360.576	4.62
360.945	4.03
361.314	4.23
361.682	4.43
362.051	4.26
362.42	4.19
362.788	4.38
363.157	4.54
363.525	4.38
363.894	4.37
364.262	4.26
364.631	4.56
364.999	4.26
365.367	4.28
365.735	4.43
366.104	4.42
366.472	4.4
366.84	4.27
367.208	4.49
367.576	4.41
367.944	4.38
368.312	4.17
368.68	4.49
369.048	4.39
369.416	4.45
369.783	4.78
370.151	4.59
370.519	4.37
370.886	4.38
371.254	4.74
371.621	4.97
371.989	4.27
372.356	4.49
372.724	4.81
373.091	4.22
373.458	4.28
373.826	4.41
374.193	4.56
374.56	4.52
374.927	4.56
375.294	4.6
375.661	4.38
376.028	4.68
376.395	4.79
376.762	4.52
377.129	4.64
377.496	4.66
377.863	4.65
378.229	4.53
378.596	4.6
378.963	4.85
379.329	4.34
379.696	4.69
380.062	4.61
380.429	4.48
380.795	4.64
381.161	4.74
381.528	5.02
381.894	4.67
382.26	4.77
382.626	4.79
382.993	4.84
383.359	4.81
383.725	4.69
384.091	4.63
384.457	4.44
384.823	4.57
385.188	5.12
385.554	4.72
385.92	4.72
386.286	5.01
386.651	4.4
387.017	4.64
387.383	4.73
387.748	4.29
388.114	4.42
388.479	4.69
388.845	4.77
389.21	4.57
389.575	4.7
389.94	4.97
390.306	4.7
390.671	4.6
391.036	4.71
391.401	5
391.766	4.67
392.131	4.76
392.496	4.81
392.861	4.72
393.226	4.88
393.591	4.73
393.956	4.81
394.32	4.92
394.685	4.68
395.05	5.05
395.414	5.23
395.779	4.51
396.143	4.7
396.508	4.67
396.872	4.85
397.236	4.73
397.601	4.81
397.965	4.65
398.329	4.55
398.694	5.25
399.058	4.63
399.422	4.86
399.786	4.8
400.15	4.84
400.514	4.81
400.878	4.99
401.242	5.03
401.605	5.11
401.969	4.91
402.333	4.96
402.697	5.11
403.06	4.98
403.424	4.95
403.787	5.08
404.151	4.42
404.514	4.88
404.878	4.77
405.241	5.03
405.604	4.82
405.968	5.07
406.331	4.89
406.694	4.75
407.057	4.87
407.42	5.08
407.783	5.16
408.146	4.85
408.509	4.84
408.872	5.07
409.235	5.02
409.598	5.28
409.961	4.96
410.323	5
410.686	4.97
411.049	5
411.411	4.98
411.774	5.01
412.136	5.07
412.499	5.27
412.861	4.99
413.223	5.19
413.586	5.13
413.948	5.11
414.31	5.1
414.672	5.03
415.035	4.98
415.397	5.04
415.759	5.16
416.121	4.99
416.483	5.07
416.845	5.04
417.206	5.29
417.568	5.18
417.93	4.83
418.292	4.96
418.653	5.14
419.015	4.91
419.377	5.08
419.738	4.95
420.1	4.87
420.461	4.94
420.822	5.06
421.184	4.98
421.545	5.06
421.906	5.04
422.267	5.02
422.629	5.04
422.99	5.03
423.351	5.04
423.712	4.95
424.073	5.12
424.434	4.99
424.795	5.16
425.155	5.06
425.516	5
425.877	5.14
426.238	4.96
426.598	5.07
426.959	5.04
427.32	5.02
427.68	5.14
428.041	5.06
428.401	5.07
428.761	5.25
429.122	5.09
429.482	5.24
429.842	5.13
430.202	5.29
430.563	5.12
430.923	5.25
431.283	5.32
431.643	5.19
432.003	5.39
432.363	5.22
432.722	5.21
433.082	5.36
433.442	5.03
433.802	5.35
434.161	5.09
434.521	5.27
434.881	5.22
435.24	5.34
435.6	5.21
435.959	5.2
436.319	5.16
436.678	5.36
437.037	5.13
437.396	5.47
437.756	5.31
438.115	5.13
438.474	5.47
438.833	5.28
439.192	5.17
439.551	5.19
439.91	5.18
440.269	5.37
440.628	5.46
440.987	5.22
441.345	5.12
441.704	5.17
442.063	5.32
442.421	5.22
442.78	5.17
443.138	5.34
443.497	5.25
443.855	5.29
444.214	5.2
444.572	5.29
444.93	5.42
445.288	5.37
445.647	5.5
446.005	5.04
446.363	5.1
446.721	5.27
447.079	5.5
447.437	5.21
447.795	5.28
448.153	5.24
448.51	5.25
448.868	5.22
449.226	5.3
449.584	5.27
449.941	5.22
450.299	5.42
450.656	5.33
451.014	5.31
451.371	5.4
451.729	5.37
452.086	5.4
452.443	5.44
452.801	5.29
453.158	5.5
453.515	5.36
453.872	5.38
454.229	5.49
454.586	5.47
454.943	5.26
455.3	5.31
455.657	5.36
456.014	5.32
456.371	5.32
456.727	5.58
457.084	5.52
457.441	5.32
457.797	5.58
458.154	5.48
458.51	5.36
458.867	5.45
459.223	5.44
459.58	5.41
459.936	5.34
460.292	5.36
460.648	5.3
461.005	5.18
461.361	5.32
461.717	5.14
462.073	5.26
462.429	5.34
462.785	5.29
463.141	5.42
463.496	5.42
463.852	5.44
464.208	5.55
464.564	5.5
464.919	5.5
465.275	5.63
465.631	5.5
465.986	5.66
466.342	5.54
466.697	5.55
467.052	5.55
467.408	5.53
467.763	5.63
468.118	5.55
468.473	5.62
468.829	5.45
469.184	5.61
469.539	5.55
469.894	5.38
470.249	5.45
470.603	5.55
470.958	5.53
471.313	5.53
471.668	5.56
472.023	5.59
472.377	5.52
472.732	5.42
473.086	5.67
473.441	5.68
473.795	5.67
474.15	5.66
474.504	5.5
474.859	5.43
475.213	5.59
475.567	5.5
475.921	5.57
476.275	5.61
476.63	5.64
476.984	5.61
477.338	5.47
477.692	5.61
478.045	5.65
478.399	5.42
478.753	5.58
479.107	5.67
479.461	5.53
479.814	5.72
480.168	5.7
480.521	5.68
480.875	5.69
481.228	5.77
481.582	5.77
481.935	5.54
482.289	5.62
482.642	5.67
482.995	5.56
483.348	5.67
483.701	5.65
484.055	5.56
484.408	5.46
484.761	5.42
485.114	5.36
485.466	5.31
485.819	5.24
486.172	5.21
486.525	5.21
486.878	5.31
487.23	5.37
487.583	5.39
487.936	5.44
488.288	5.53
488.641	5.52
488.993	5.4
489.345	5.38
489.698	5.38
490.05	5.37
490.402	5.39
490.754	5.41
491.107	5.39
491.459	5.48
491.811	5.57
492.163	5.49
492.515	5.53
492.866	5.54
493.218	5.51
493.57	5.45
493.922	5.42
494.274	5.43
494.625	5.46
494.977	5.48
495.328	5.49
495.68	5.75
496.031	5.56
496.383	5.7
496.734	5.79
497.086	5.7
497.437	5.74
497.788	5.69
498.139	5.71
498.49	5.66
498.842	5.56
499.193	5.67
499.544	5.69
499.894	5.69
500.245	5.62
500.596	5.72
500.947	5.73
501.298	5.64
501.648	5.67
501.999	5.68
502.35	5.83
502.7	5.84
503.051	5.81
503.401	5.72
503.752	5.81
504.102	5.77
504.452	5.78
504.803	5.79
505.153	5.71
505.503	5.67
505.853	5.85
506.203	5.66
506.553	5.64
506.903	5.65
507.253	5.74
507.603	5.68
507.953	5.81
508.303	5.63
508.652	5.9
509.002	5.75
509.352	5.74
509.701	5.85
510.051	5.74
510.4	5.78
510.75	5.76
511.099	5.63
511.449	5.81
511.798	5.79
512.147	5.75
512.496	5.69
512.846	5.72
513.195	5.83
513.544	5.76
513.893	5.75
514.242	5.77
514.591	5.68
514.939	5.68
515.288	5.7
515.637	5.75
515.986	5.87
516.334	5.72
516.683	5.84
517.032	5.69
517.38	5.79
517.729	5.95
518.077	5.82
518.426	5.82
518.774	5.7
519.122	5.81
519.47	5.72
519.819	5.74
520.167	5.71
520.515	5.72
520.863	5.75
521.211	5.76
521.559	5.76
521.907	5.77
522.255	5.68
522.602	5.85
522.95	5.88
523.298	5.84
523.645	5.93
523.993	5.71
524.341	5.88
524.688	5.81
525.036	5.92
525.383	5.86
525.73	5.97
526.078	5.84
526.425	5.95
526.772	5.79
527.119	5.82
527.466	5.71
527.814	5.75
528.161	5.81
528.508	5.76
528.854	5.78
529.201	5.77
529.548	5.76
529.895	5.74
530.242	5.7
530.588	5.6
530.935	5.51
531.282	5.59
531.628	5.62
531.975	5.58
532.321	5.71
532.667	5.72
533.014	5.75
533.36	5.76
533.706	5.88
534.052	5.82
534.399	5.78
534.745	5.71
535.091	5.71
535.437	5.7
535.783	5.69
536.129	5.74
536.474	5.74
536.82	5.84
537.166	5.8
537.512	5.82
537.857	5.87
538.203	5.84
538.549	5.86
538.894	5.79
539.239	5.74
539.585	5.75
539.93	5.9
540.276	5.95
540.621	5.89
540.966	5.96
541.311	5.9
541.656	5.99
542.001	6
542.346	5.88
542.691	5.75
543.036	5.84
543.381	5.66
543.726	5.57
544.071	5.71
544.415	5.72
544.76	5.75
545.105	5.88
545.449	5.79
545.794	5.88
546.138	5.78
546.483	5.88
546.827	5.9
547.171	5.95
547.516	5.86
547.86	5.97
548.204	5.94
548.548	5.79
548.892	5.77
549.236	5.93
549.58	5.85
549.924	5.79
550.268	5.85
550.612	5.85
550.956	6.06
551.3	6.09
551.643	5.97
551.987	6.15
552.33	5.88
552.674	6.16
553.017	6.09
553.361	5.98
553.704	6.14
554.048	5.94
554.391	6.11
554.734	6.21
555.077	6.14
555.42	5.92
555.764	5.88
556.107	6.14
556.45	6.03
556.793	5.77
557.135	5.93
557.478	6.07
557.821	6.21
558.164	6.13
558.507	6.11
558.849	6.14
559.192	6.24
559.534	6.16
559.877	5.86
560.219	6.12
560.562	6.14
560.904	5.81
561.246	6.05
561.589	6.02
561.931	6.12
562.273	6.06
562.615	6.25
562.957	6.2
563.299	6
563.641	6.19
563.983	6
564.325	6.01
564.667	5.99
565.008	6.19
565.35	6.18
565.692	6.02
566.033	6.16
566.375	5.98
566.716	6.16
567.058	6.12
567.399	6.15
567.741	5.99
568.082	6.15
568.423	6.12
568.764	5.98
569.105	6.14
569.447	6.08
569.788	6.03
570.129	6.08
570.47	6.14
570.811	6.2
571.151	6.14
571.492	6.14
571.833	6.21
572.174	6.3
572.514	6.15
572.855	6.07
573.195	6.21
573.536	6.06
573.876	6.22
574.217	5.92
574.557	5.96
574.898	5.97
575.238	6.03
575.578	6.07
575.918	6.02
576.258	6.08
576.598	6.17
576.938	6.25
577.278	6.17
577.618	6.02
577.958	6.08
578.298	6.22
578.638	6.13
578.977	6.22
579.317	5.96
579.657	6.1
579.996	6.12
580.336	6.18
580.675	6.02
581.014	6.23
581.354	6.18
581.693	6.27
582.032	6.28
582.372	6.23
582.711	6.27
583.05	6.43
583.389	6.27
583.728	6.18
584.067	6.14
584.406	6.27
584.745	6.38
585.083	6.28
585.422	6.19
585.761	5.91
586.1	6.17
586.438	5.87
586.777	6.37
587.115	6.2
587.454	6.38
587.792	6.04
588.13	6.36
588.469	6.3
588.807	5.97
589.145	6.18
589.483	6
589.821	6.24
590.159	6.29
590.497	6.05
590.835	6.11
591.173	6.2
591.511	6.28
591.849	6.3
592.187	6.22
592.524	6.05
592.862	6.3
593.2	6.24
593.537	5.93
593.875	6.14
594.212	6.28
594.55	6.11
594.887	6.32
595.224	6.13
595.561	6.32
595.899	6.11
596.236	6.11
596.573	6.12
596.91	6.19
597.247	6.2
597.584	5.95
597.921	6.44
598.258	6.37
598.594	6.14
598.931	6.12
599.268	6.13
599.604	6.16
599.941	6.12
600.277	6.15
600.614	6.23
600.95	6.03
601.287	6.04
601.623	6.24
601.959	6.24
602.296	6.11
602.632	6.07
602.968	6.04
603.304	6.26
603.64	6.13
603.976	5.97
604.312	6.08
604.648	6.23
604.984	6.18
605.319	6
605.655	5.81
605.991	6.2
606.326	6.1
606.662	6.03
606.998	5.96
607.333	6.09
607.668	5.97
608.004	6.07
608.339	5.96
608.674	6.43
609.01	6.33
609.345	6.35
609.68	6.2
610.015	6.06
610.35	6.24
610.685	6.37
611.02	6.1
611.355	6.04
611.689	6.13
612.024	6.17
612.359	6.31
612.694	6.24
613.028	6.32
613.363	6.25
613.697	6.34
614.032	6.29
614.366	6.25
614.7	6.28
615.035	6.4
615.369	6.02
615.703	5.92
616.037	6.15
616.371	6.36
616.705	6.49
617.039	5.98
617.373	6.3
617.707	6.31
618.041	6.43
618.375	6.18
618.709	6.12
619.042	6.18
619.376	6.56
619.71	6.28
620.043	6.51
620.377	6.33
620.71	6.32
621.043	6.41
621.377	6.19
621.71	6.14
622.043	6.36
622.376	6.43
622.709	6.48
623.043	6.05
623.376	6.24
623.709	6.18
624.041	6.34
624.374	6.49
624.707	6.29
625.04	6.34
625.373	6.45
625.705	5.94
626.038	6.36
626.37	6.1
626.703	6.3
627.035	5.79
627.368	6.14
627.7	6.32
628.032	6.07
628.365	6.37
628.697	6.01
629.029	6.14
629.361	6.14
629.693	6.06
630.025	6.26
630.357	6.14
630.689	6.13
631.021	6.71
631.353	6.34
631.684	6.03
632.016	6.23
632.348	6.06
632.679	6.09
633.011	6.29
633.342	6.19
633.674	6.16
634.005	6.56
634.336	6.29
634.668	5.95
634.999	5.92
635.33	5.87
635.661	6.61
635.992	6.31
636.323	6.41
636.654	6.18
636.985	6.16
637.316	6.35
637.647	6.11
637.977	5.94
638.308	6.29
638.639	6.17
638.969	6.25
639.3	6.1
639.63	6.11
639.961	6.12
640.291	6.17
640.622	6.02
640.952	6.65
641.282	6.12
641.612	6.13
641.943	6.41
642.273	5.69
642.603	6.4
642.933	5.95
643.263	6.64
643.592	6.35
643.922	6.67
644.252	5.9
644.582	6.05
644.911	6.29
645.241	6.63
645.571	6.88
645.9	6.06
646.23	6.32
646.559	6.02
646.888	6.36
647.218	6.23
647.547	5.64
647.876	6.62
648.205	6.03
648.534	6.42
648.863	5.99
649.192	6.33
649.521	6.05
649.85	6.48
650.179	6.25
650.508	6.32
650.837	6.44
651.165	6.68
651.494	5.88
651.822	6.33
652.151	6.83
652.479	5.93
652.808	6.85
653.136	6.02
653.465	6.73
653.793	6.08
654.121	6.58
654.449	6.66
654.777	6.27
655.105	6.32
655.433	6.63
655.761	6.54
656.089	6.52
656.417	6.18
656.745	6.23
657.073	6.28
657.4	7.23
657.728	6.48
658.056	6.84
658.383	6.35
658.711	6.31
659.038	6.75
659.365	6.32
659.693	6.04
660.02	6.59
660.347	6.29
660.674	6.25
661.001	6.61
661.329	6.49
661.656	6.64
661.982	6.07
662.309	6.29
662.636	6.42
662.963	6.45
663.29	7
663.616	6.46
663.943	6.17
664.27	6.15
664.596	6.41
664.923	6.07
665.249	6.3
665.576	5.93
665.902	6.32
666.228	6.45
666.554	6.84
666.881	6.21
667.207	7.03
667.533	6.79
667.859	6.76
668.185	6.89
668.511	6.79
668.837	6.53
669.162	6.75
669.488	6.34
669.814	6.5
670.139	6.6
670.465	6.78
670.791	7.22
671.116	6.82
671.442	6.6
671.767	6.61
672.092	6.54
672.418	6.56
672.743	6.69
673.068	7.13
673.393	6.42
673.718	6.39
674.043	6.63
674.368	6.76
674.693	6.91
675.018	6.99
675.343	6.41
675.667	6.58
675.992	6.54
676.317	6.49
676.641	6.51
676.966	6.55
677.29	6.54
677.615	6.87
677.939	6.06
678.264	6.2
678.588	5.68
678.912	6.67
679.236	6.69
679.56	6.42
679.885	7.09
680.209	7
680.532	6.33
680.856	6.18
681.18	6.59
681.504	7.19
681.828	6.86
682.152	6.44
682.475	6.03
682.799	6.5
683.122	6.14
683.446	6.7
683.769	6.4
684.093	7.46
684.416	6.46
684.739	6.47
685.062	6.24
685.386	6.97
685.709	6.68
686.032	6.15
686.355	7.06
686.678	6.65
687.001	7.03
687.324	6.09
687.646	6.32
687.969	7.79
688.292	7.14
688.614	6.34
688.937	7.15
689.26	6.01
689.582	6.55
689.904	6.39
690.227	7.07
690.549	6.98
690.871	6.82
691.194	6.62
691.516	6.55
691.838	6.95
692.16	6.67
692.482	6.84
