Data from 0273_chest_Reflection__2__248.txt Node

Date: Fri Oct 20 22:38:55 CDT 2023
User: ToomeyLab
Spectrometer: FLMS14357
Trigger mode: 0
Integration Time (sec): 1.000000E-2
Scans to average: 100
Electric dark correction enabled: true
Nonlinearity correction enabled: false
Boxcar width: 0
XAxis mode: Wavelengths
Number of Pixels in Spectrum: 2048
>>>>>Begin Spectral Data<<<<<
189.047	-298.86
189.435	-298.86
189.823	-298.86
190.211	-18.78
190.599	68.56
190.987	34.37
191.375	26.02
191.763	156.29
192.151	-20.81
192.538	-104.93
192.926	-154.16
193.314	234.8
193.702	138.56
194.089	393.66
194.477	173.05
194.864	-276.1
195.252	122.02
195.639	141.18
196.027	47.21
196.414	-108.39
196.801	22.35
197.189	60.69
197.576	69.06
197.963	-83.14
198.351	25.94
198.738	3.09
199.125	26.09
199.512	1.34
199.899	-5.96
200.286	-10.11
200.673	21.66
201.06	-8.07
201.447	19.1
201.833	36.47
202.22	10.65
202.607	58.37
202.994	20.7
203.38	14.47
203.767	16.93
204.154	15.11
204.54	47.41
204.927	16.99
205.313	9.83
205.699	30.7
206.086	28.75
206.472	29.5
206.858	51.17
207.245	-0.54
207.631	8.42
208.017	40.04
208.403	-16.4
208.789	29.27
209.175	-30.97
209.561	29.19
209.947	-20.1
210.333	24.23
210.719	5.52
211.105	12.1
211.491	12.49
211.876	-44.55
212.262	4.76
212.648	23.96
213.034	1.47
213.419	1.55
213.805	-5.68
214.19	-17.54
214.576	-13.55
214.961	8.35
215.346	11.37
215.732	1.41
216.117	-69.21
216.502	1.44
216.888	-9.72
217.273	-39.17
217.658	22.32
218.043	-5.72
218.428	13.83
218.813	3.15
219.198	-6.36
219.583	-27.84
219.968	-12.71
220.353	16.8
220.738	12.12
221.122	12.96
221.507	5.53
221.892	10.85
222.276	6.92
222.661	13.51
223.046	6.75
223.43	-1.26
223.815	6.44
224.199	8.81
224.583	-18.61
224.968	-4.56
225.352	-3.58
225.736	7.36
226.121	8.23
226.505	2.24
226.889	2.32
227.273	4.07
227.657	6.11
228.041	6.68
228.425	0.28
228.809	6.87
229.193	1.27
229.577	5.47
229.961	3.31
230.344	2.12
230.728	2.15
231.112	3.17
231.495	2.22
231.879	2.6
232.263	2.77
232.646	0.99
233.03	1.44
233.413	1.16
233.797	3.34
234.18	4.2
234.563	3.92
234.946	3.12
235.33	3.13
235.713	2.46
236.096	3.66
236.479	2.11
236.862	2.87
237.245	2.71
237.628	2.04
238.011	4.52
238.394	2.49
238.777	3.01
239.16	2.4
239.543	4.88
239.925	3.6
240.308	3.31
240.691	2.53
241.073	2.72
241.456	3.3
241.838	2.6
242.221	4.04
242.603	2.74
242.986	2.23
243.368	2.27
243.75	2.59
244.133	2.03
244.515	1.9
244.897	2.33
245.279	2.95
245.661	2.18
246.043	2.48
246.425	2.23
246.807	2.42
247.189	2.65
247.571	2.39
247.953	3.07
248.335	2.41
248.717	2.28
249.098	2.06
249.48	2.32
249.862	2.74
250.243	2.72
250.625	2.61
251.006	2.69
251.388	2.85
251.769	3.1
252.151	2.12
252.532	3.18
252.913	2.34
253.295	1.44
253.676	2.16
254.057	2.87
254.438	2.4
254.819	2.35
255.2	2.04
255.581	2.26
255.962	2.19
256.343	2.01
256.724	1.68
257.105	1.92
257.486	3.39
257.867	3.14
258.247	2.05
258.628	2.74
259.009	2.23
259.389	2.3
259.77	2.18
260.15	2.47
260.531	2.58
260.911	2.77
261.292	1.97
261.672	2.52
262.052	2.46
262.432	2.48
262.813	2.47
263.193	2.69
263.573	1.78
263.953	2.41
264.333	3.29
264.713	2.88
265.093	2.55
265.473	3.43
265.853	1.93
266.233	2.32
266.612	2.23
266.992	2.53
267.372	1.78
267.752	2.22
268.131	2.85
268.511	2.65
268.89	2.39
269.27	1.82
269.649	1.91
270.029	2.48
270.408	2.24
270.787	2.55
271.167	2.07
271.546	2.61
271.925	2.52
272.304	2.69
272.683	2.74
273.062	2.65
273.441	2.34
273.82	2.75
274.199	2.54
274.578	2.27
274.957	2.85
275.336	2.51
275.715	2.45
276.093	2.27
276.472	2.47
276.851	2.65
277.229	2.44
277.608	2.02
277.986	1.86
278.365	2.28
278.743	1.93
279.122	2.3
279.5	1.76
279.878	1.84
280.257	1.78
280.635	2.55
281.013	2.22
281.391	2.45
281.769	1.76
282.147	2.18
282.525	2.16
282.903	2.53
283.281	2.12
283.659	2.2
284.037	2.75
284.415	1.69
284.792	2.32
285.17	2.2
285.548	2.32
285.925	2.3
286.303	1.82
286.68	2.27
287.058	2.68
287.435	2.47
287.813	1.7
288.19	2
288.567	2.34
288.945	2.58
289.322	2.62
289.699	1.67
290.076	2.71
290.453	2.62
290.83	1.81
291.207	3.02
291.584	2.25
291.961	2.3
292.338	2.4
292.715	2.18
293.092	2.05
293.469	2.64
293.845	2.37
294.222	2.52
294.599	2.35
294.975	2.92
295.352	2.27
295.728	2.35
296.105	2.38
296.481	2.04
296.858	2.23
297.234	1.97
297.61	2.21
297.986	2.12
298.363	2.47
298.739	2.39
299.115	2.3
299.491	2.46
299.867	2.44
300.243	2.34
300.619	2.48
300.995	2.65
301.371	2.43
301.746	2.27
302.122	2.55
302.498	2.08
302.874	2.38
303.249	1.79
303.625	2.22
304	2.48
304.376	1.98
304.751	1.89
305.127	1.99
305.502	2.57
305.878	2.54
306.253	2.3
306.628	2.56
307.003	2.27
307.378	2.12
307.754	1.93
308.129	2.57
308.504	2.7
308.879	2.74
309.254	2.69
309.629	2.2
310.003	1.82
310.378	2.57
310.753	2.25
311.128	2.74
311.502	2.45
311.877	2.38
312.252	2.21
312.626	2.37
313.001	2.5
313.375	2.74
313.75	2.28
314.124	1.85
314.498	2.44
314.873	1.73
315.247	2.29
315.621	2.49
315.995	2.62
316.369	2.37
316.743	2.3
317.117	2.31
317.491	1.4
317.865	2.29
318.239	2.5
318.613	2.99
318.987	1.96
319.361	1.5
319.734	2.22
320.108	2.1
320.482	2.35
320.855	2.18
321.229	3.25
321.602	1.99
321.976	2.36
322.349	2.71
322.723	1.95
323.096	2.81
323.469	2.21
323.843	2.29
324.216	2.35
324.589	2.77
324.962	3.09
325.335	2.42
325.708	1.98
326.081	2.59
326.454	2.57
326.827	2.87
327.2	2.6
327.573	2.56
327.945	1.93
328.318	2.68
328.691	2.44
329.063	3.03
329.436	2.39
329.809	2.17
330.181	2.83
330.553	2.52
330.926	2.45
331.298	2.41
331.671	2.23
332.043	2.35
332.415	2.52
332.787	3.04
333.159	2
333.532	2.47
333.904	2.46
334.276	2.76
334.648	2.89
335.02	2.83
335.391	2.52
335.763	2.71
336.135	2.53
336.507	2.29
336.879	3.06
337.25	2.16
337.622	2.94
337.993	2.99
338.365	2.49
338.736	2.99
339.108	3.17
339.479	2.65
339.851	2.74
340.222	2.42
340.593	1.89
340.964	2.2
341.336	2.85
341.707	2.56
342.078	2.41
342.449	2.74
342.82	2.75
343.191	2.65
343.562	2.49
343.933	2.31
344.303	2.5
344.674	3.01
345.045	2.68
345.416	3.24
345.786	2.27
346.157	2.61
346.527	2.43
346.898	2.44
347.268	2.55
347.639	2.89
348.009	2.55
348.38	2.58
348.75	2.73
349.12	2.54
349.49	2.67
349.861	3.1
350.231	2.38
350.601	2.54
350.971	2.8
351.341	2.5
351.711	3.36
352.081	2.62
352.45	2.54
352.82	2.64
353.19	2.74
353.56	2.8
353.929	2.62
354.299	2.61
354.669	2.91
355.038	2.63
355.408	3.12
355.777	2.85
356.147	2.16
356.516	2.76
356.885	2.5
357.254	2.89
357.624	2.65
357.993	2.43
358.362	2.61
358.731	2.09
359.1	2.3
359.469	2.39
359.838	2.75
360.207	2.92
360.576	2.98
360.945	2.62
361.314	2.79
361.682	2.58
362.051	2.45
362.42	2.21
362.788	2.96
363.157	2.45
363.525	2.44
363.894	2.48
364.262	2.43
364.631	2.69
364.999	2.7
365.367	2.64
365.735	2.52
366.104	2.66
366.472	2.88
366.84	2.76
367.208	2.62
367.576	2.63
367.944	2.67
368.312	2.51
368.68	2.79
369.048	2.72
369.416	2.69
369.783	2.82
370.151	2.51
370.519	2.54
370.886	2.91
371.254	3.01
371.621	2.74
371.989	2.39
372.356	2.64
372.724	2.78
373.091	2.61
373.458	2.37
373.826	2.81
374.193	2.58
374.56	2.5
374.927	2.89
375.294	3.03
375.661	2.87
376.028	2.82
376.395	3.01
376.762	2.64
377.129	2.55
377.496	2.99
377.863	2.98
378.229	2.89
378.596	2.87
378.963	2.82
379.329	2.89
379.696	2.81
380.062	2.68
380.429	2.76
380.795	2.56
381.161	2.84
381.528	2.92
381.894	2.93
382.26	2.66
382.626	3.09
382.993	3.2
383.359	2.71
383.725	2.8
384.091	2.96
384.457	2.85
384.823	2.67
385.188	2.86
385.554	3.08
385.92	2.8
386.286	3.09
386.651	2.75
387.017	2.91
387.383	2.93
387.748	2.72
388.114	2.37
388.479	2.75
388.845	3.07
389.21	2.66
389.575	2.46
389.94	2.63
390.306	2.61
390.671	2.75
391.036	3.12
391.401	2.87
391.766	3.08
392.131	2.93
392.496	2.74
392.861	2.94
393.226	2.68
393.591	2.86
393.956	3.03
394.32	3.21
394.685	2.69
395.05	2.89
395.414	2.87
395.779	2.69
396.143	2.66
396.508	2.51
396.872	2.96
397.236	2.82
397.601	2.73
397.965	2.71
398.329	2.88
398.694	2.9
399.058	2.46
399.422	3.01
399.786	3.05
400.15	2.83
400.514	2.83
400.878	3
401.242	3.13
401.605	2.91
401.969	2.64
402.333	2.85
402.697	3.03
403.06	2.81
403.424	2.58
403.787	2.92
404.151	2.87
404.514	2.93
404.878	3.02
405.241	2.77
405.604	2.99
405.968	2.9
406.331	2.8
406.694	2.93
407.057	2.85
407.42	3.02
407.783	2.83
408.146	2.89
408.509	2.92
408.872	2.94
409.235	2.93
409.598	3.14
409.961	2.99
410.323	2.9
410.686	2.91
411.049	2.95
411.411	2.94
411.774	2.77
412.136	2.91
412.499	3.06
412.861	2.92
413.223	3.12
413.586	2.83
413.948	3.08
414.31	3.18
414.672	2.89
415.035	3.05
415.397	2.84
415.759	3.03
416.121	2.88
416.483	2.95
416.845	2.86
417.206	2.93
417.568	3.16
417.93	2.98
418.292	2.73
418.653	3.08
419.015	2.81
419.377	2.91
419.738	2.88
420.1	2.74
420.461	2.89
420.822	2.87
421.184	2.84
421.545	2.95
421.906	2.84
422.267	2.78
422.629	2.94
422.99	2.79
423.351	2.81
423.712	2.7
424.073	3.04
424.434	2.84
424.795	2.75
425.155	2.94
425.516	2.9
425.877	2.99
426.238	2.81
426.598	2.87
426.959	2.72
427.32	2.81
427.68	2.96
428.041	2.9
428.401	2.91
428.761	2.86
429.122	2.97
429.482	2.9
429.842	2.85
430.202	3
430.563	2.96
430.923	3.2
431.283	3.02
431.643	3.12
432.003	3.09
432.363	2.73
432.722	2.96
433.082	3.05
433.442	2.95
433.802	3.06
434.161	2.84
434.521	3.12
434.881	2.88
435.24	2.96
435.6	2.97
435.959	2.98
436.319	2.94
436.678	3.04
437.037	3.05
437.396	3.14
437.756	3.25
438.115	2.84
438.474	3.13
438.833	2.99
439.192	2.8
439.551	2.87
439.91	3.08
440.269	3.13
440.628	3
440.987	3.13
441.345	2.93
441.704	3.09
442.063	3.09
442.421	2.93
442.78	3.02
443.138	3.04
443.497	3.12
443.855	3.05
444.214	2.95
444.572	2.96
444.93	3.11
445.288	3.1
445.647	3.23
446.005	2.86
446.363	3.01
446.721	3.07
447.079	3.12
447.437	3.09
447.795	2.88
448.153	2.95
448.51	3.01
448.868	2.99
449.226	2.94
449.584	3.01
449.941	2.92
450.299	3.05
450.656	2.89
451.014	2.99
451.371	3.08
451.729	3.11
452.086	3.02
452.443	3.1
452.801	3.05
453.158	3.19
453.515	3.2
453.872	3.08
454.229	3.12
454.586	3.17
454.943	3.16
455.3	3.04
455.657	3.05
456.014	2.9
456.371	3.05
456.727	3.17
457.084	3.03
457.441	3.1
457.797	3.12
458.154	3.05
458.51	3.05
458.867	3.08
459.223	3.19
459.58	3.15
459.936	3.24
460.292	3
460.648	2.86
461.005	2.94
461.361	3.02
461.717	2.93
462.073	3.06
462.429	3.08
462.785	3.06
463.141	3.05
463.496	3.16
463.852	3.15
464.208	3.21
464.564	3.09
464.919	3.24
465.275	3.45
465.631	3.21
465.986	3.22
466.342	3.19
466.697	3.11
467.052	3.29
467.408	3.2
467.763	3.3
468.118	3.37
468.473	3.24
468.829	3.08
469.184	3.11
469.539	3.18
469.894	3.23
470.249	3.07
470.603	3.26
470.958	3.23
471.313	3.33
471.668	3.26
472.023	3.12
472.377	3.21
472.732	3.06
473.086	3.42
473.441	3.26
473.795	3.55
474.15	3.24
474.504	3.1
474.859	3.27
475.213	3.24
475.567	3.36
475.921	3.23
476.275	3.2
476.63	3.4
476.984	3.25
477.338	3.34
477.692	3.32
478.045	3.29
478.399	3.23
478.753	3.31
479.107	3.24
479.461	3.25
479.814	3.41
480.168	3.35
480.521	3.3
480.875	3.38
481.228	3.33
481.582	3.35
481.935	3.14
482.289	3.33
482.642	3.45
482.995	3.17
483.348	3.24
483.701	3.19
484.055	3.2
484.408	3.22
484.761	3.17
485.114	3.07
485.466	3.07
485.819	3
486.172	2.93
486.525	3.02
486.878	3.06
487.23	3.14
487.583	3.12
487.936	3.16
488.288	3.16
488.641	3.24
488.993	3.07
489.345	3.09
489.698	3.1
490.05	3.1
490.402	3.07
490.754	3.12
491.107	3.14
491.459	3.25
491.811	3.21
492.163	3.18
492.515	3.36
492.866	3.32
493.218	3.18
493.57	3.11
493.922	3.13
494.274	3.2
494.625	3.22
494.977	3.18
495.328	3.3
495.68	3.4
496.031	3.3
496.383	3.34
496.734	3.4
497.086	3.42
497.437	3.43
497.788	3.26
498.139	3.56
498.49	3.46
498.842	3.27
499.193	3.38
499.544	3.39
499.894	3.39
500.245	3.25
500.596	3.35
500.947	3.5
501.298	3.39
501.648	3.34
501.999	3.3
502.35	3.44
502.7	3.57
503.051	3.42
503.401	3.43
503.752	3.64
504.102	3.53
504.452	3.57
504.803	3.4
505.153	3.45
505.503	3.41
505.853	3.58
506.203	3.48
506.553	3.32
506.903	3.4
507.253	3.61
507.603	3.52
507.953	3.45
508.303	3.44
508.652	3.56
509.002	3.48
509.352	3.57
509.701	3.61
510.051	3.4
510.4	3.4
510.75	3.55
511.099	3.47
511.449	3.57
511.798	3.5
512.147	3.43
512.496	3.52
512.846	3.44
513.195	3.55
513.544	3.51
513.893	3.52
514.242	3.52
514.591	3.46
514.939	3.55
515.288	3.37
515.637	3.47
515.986	3.65
516.334	3.55
516.683	3.58
517.032	3.4
517.38	3.6
517.729	3.59
518.077	3.58
518.426	3.57
518.774	3.43
519.122	3.45
519.47	3.54
519.819	3.58
520.167	3.58
520.515	3.49
520.863	3.6
521.211	3.48
521.559	3.55
521.907	3.54
522.255	3.63
522.602	3.74
522.95	3.5
523.298	3.55
523.645	3.76
523.993	3.64
524.341	3.66
524.688	3.73
525.036	3.66
525.383	3.49
525.73	3.67
526.078	3.63
526.425	3.78
526.772	3.6
527.119	3.64
527.466	3.62
527.814	3.67
528.161	3.65
528.508	3.63
528.854	3.66
529.201	3.59
529.548	3.65
529.895	3.64
530.242	3.59
530.588	3.46
530.935	3.52
531.282	3.56
531.628	3.58
531.975	3.58
532.321	3.63
532.667	3.71
533.014	3.72
533.36	3.81
533.706	3.84
534.052	3.76
534.399	3.75
534.745	3.74
535.091	3.7
535.437	3.7
535.783	3.75
536.129	3.76
536.474	3.74
536.82	3.88
537.166	3.9
537.512	3.81
537.857	3.88
538.203	3.91
538.549	3.97
538.894	3.84
539.239	3.83
539.585	3.85
539.93	3.93
540.276	4.07
540.621	4.1
540.966	4.07
541.311	4.09
541.656	4.01
542.001	4.1
542.346	4.01
542.691	3.9
543.036	3.96
543.381	3.88
543.726	3.83
544.071	3.85
544.415	3.93
544.76	3.95
545.105	4
545.449	3.99
545.794	4.03
546.138	4.03
546.483	4.07
546.827	4.16
547.171	4.15
547.516	4.04
547.86	4.3
548.204	4.03
548.548	4.03
548.892	4.2
549.236	4.17
549.58	4.12
549.924	4.02
550.268	4.14
550.612	4.28
550.956	4.45
551.3	4.38
551.643	4.43
551.987	4.54
552.33	4.45
552.674	4.46
553.017	4.33
553.361	4.48
553.704	4.53
554.048	4.37
554.391	4.39
554.734	4.28
555.077	4.5
555.42	4.36
555.764	4.35
556.107	4.67
556.45	4.61
556.793	4.42
557.135	4.32
557.478	4.44
557.821	4.58
558.164	4.82
558.507	4.85
558.849	4.67
559.192	4.73
559.534	4.82
559.877	4.52
560.219	4.88
560.562	4.71
560.904	4.54
561.246	4.86
561.589	4.69
561.931	4.71
562.273	4.86
562.615	4.94
562.957	4.83
563.299	4.8
563.641	4.86
563.983	4.77
564.325	4.73
564.667	4.98
565.008	4.74
565.35	4.73
565.692	4.77
566.033	4.91
566.375	4.75
566.716	5.02
567.058	4.89
567.399	5.07
567.741	4.96
568.082	5
568.423	4.92
568.764	4.85
569.105	5.08
569.447	4.89
569.788	4.92
570.129	5.05
570.47	4.98
570.811	5.11
571.151	4.9
571.492	5.22
571.833	5.22
572.174	5.12
572.514	5.24
572.855	5.15
573.195	5.15
573.536	5.22
573.876	5.38
574.217	5.2
574.557	5.17
574.898	5.12
575.238	5.25
575.578	5.24
575.918	5.09
576.258	5.29
576.598	5.56
576.938	5.38
577.278	5.45
577.618	5.18
577.958	5.34
578.298	5.39
578.638	5.43
578.977	5.5
579.317	5.49
579.657	5.67
579.996	5.47
580.336	5.74
580.675	5.59
581.014	5.49
581.354	5.59
581.693	5.74
582.032	5.64
582.372	5.74
582.711	5.76
583.05	5.93
583.389	5.7
583.728	5.72
584.067	5.81
584.406	6.08
584.745	5.75
585.083	5.65
585.422	5.9
585.761	5.74
586.1	6.23
586.438	5.81
586.777	6.04
587.115	5.92
587.454	5.77
587.792	5.83
588.13	6.15
588.469	6.38
588.807	5.82
589.145	6.13
589.483	5.88
589.821	5.85
590.159	6.25
590.497	6.17
590.835	6.38
591.173	6.08
591.511	6.24
591.849	6.1
592.187	6.47
592.524	6.27
592.862	6.31
593.2	6.48
593.537	6.32
593.875	6.41
594.212	6.31
594.55	6.45
594.887	6.63
595.224	6.34
595.561	6.36
595.899	6.57
596.236	6.62
596.573	6.47
596.91	6.69
597.247	6.54
597.584	6.45
597.921	6.74
598.258	6.59
598.594	6.78
598.931	6.45
599.268	6.44
599.604	6.65
599.941	6.63
600.277	6.91
600.614	6.7
600.95	6.78
601.287	6.8
601.623	7.11
601.959	6.68
602.296	7.04
602.632	6.88
602.968	6.76
603.304	7.2
603.64	6.93
603.976	7.08
604.312	7.4
604.648	7.11
604.984	7.15
605.319	6.92
605.655	7.03
605.991	7.13
606.326	7.03
606.662	6.97
606.998	7.02
607.333	7.26
607.668	7.14
608.004	7.37
608.339	7.06
608.674	7.28
609.01	7.37
609.345	7.31
609.68	7.53
610.015	7.26
610.35	7.34
610.685	7.66
611.02	7.28
611.355	7.45
611.689	7.29
612.024	7.59
612.359	7.74
612.694	7.52
613.028	7.59
613.363	7.43
613.697	7.88
614.032	7.81
614.366	7.82
614.7	7.81
615.035	7.93
615.369	7.85
615.703	7.7
616.037	8.07
616.371	7.91
616.705	7.94
617.039	7.93
617.373	8.23
617.707	8.16
618.041	8.24
618.375	7.91
618.709	7.74
619.042	8.2
619.376	8.13
619.71	8.4
620.043	8.3
620.377	7.91
620.71	8.57
621.043	8.56
621.377	8
621.71	8.2
622.043	8.29
622.376	8.85
622.709	8.56
623.043	8.46
623.376	8.74
623.709	8.15
624.041	8.5
624.374	8.71
624.707	8.56
625.04	8.9
625.373	8.64
625.705	8.6
626.038	8.76
626.37	8.72
626.703	8.89
627.035	8.63
627.368	8.76
627.7	8.83
628.032	8.74
628.365	8.83
628.697	8.99
629.029	8.78
629.361	8.87
629.693	8.81
630.025	9.04
630.357	8.98
630.689	8.93
631.021	9.44
631.353	9.1
631.684	8.99
632.016	9.31
632.348	8.82
632.679	8.86
633.011	9.08
633.342	9.15
633.674	9.48
634.005	9.37
634.336	10.05
634.668	9.34
634.999	9.49
635.33	9.42
635.661	9.64
635.992	9.26
636.323	9.82
636.654	9.79
636.985	9.63
637.316	9.64
637.647	9.48
637.977	9.46
638.308	9.97
638.639	9.81
638.969	10.03
639.3	9.65
639.63	9.42
639.961	9.92
640.291	10.08
640.622	10.03
640.952	10.35
641.282	9.91
641.612	9.96
641.943	10.31
642.273	10.15
642.603	10.44
642.933	10.07
643.263	10.47
643.592	10.3
643.922	10.66
644.252	10.36
644.582	10.21
644.911	9.97
645.241	10.86
645.571	10.51
645.9	10.44
646.23	10.49
646.559	10.42
646.888	10.71
647.218	10.63
647.547	10.65
647.876	10.84
648.205	10.62
648.534	10.46
648.863	10.56
649.192	10.42
649.521	10.63
649.85	10.92
650.179	10.65
650.508	10.79
650.837	11.3
651.165	10.86
651.494	10.63
651.822	10.82
652.151	11.29
652.479	11.08
652.808	10.86
653.136	11.08
653.465	11.21
653.793	11.46
654.121	11.84
654.449	11.36
654.777	11.17
655.105	11.2
655.433	12.02
655.761	11.4
656.089	11.84
656.417	11.35
656.745	11.62
657.073	11.72
657.4	12.48
657.728	11.56
658.056	11.8
658.383	11.85
658.711	11.33
659.038	12.28
659.365	11.99
659.693	11.53
660.02	11.9
660.347	11.6
660.674	12.03
661.001	11.58
661.329	11.96
661.656	11.93
661.982	11.79
662.309	11.73
662.636	12.15
662.963	12.24
663.29	12.21
663.616	12.23
663.943	11.78
664.27	12.08
664.596	12.27
664.923	12.05
665.249	12.68
665.576	12.34
665.902	12.57
666.228	12.89
666.554	12.37
666.881	12.29
667.207	12.91
667.533	12.3
667.859	12.54
668.185	12.76
668.511	13.16
668.837	13.29
669.162	13
669.488	12.48
669.814	12.81
670.139	12.65
670.465	12.34
670.791	12.89
671.116	12.99
671.442	13.01
671.767	12.71
672.092	13.42
672.418	13
672.743	12.83
673.068	13.65
673.393	13.45
673.718	12.44
674.043	13
674.368	13.01
674.693	13.42
675.018	13.58
675.343	13.61
675.667	13.21
675.992	13.94
676.317	13.68
676.641	13.45
676.966	13.76
677.29	13.44
677.615	13.53
677.939	13.58
678.264	13.41
678.588	13.41
678.912	14.09
679.236	13.12
679.56	13.72
679.885	14.15
680.209	14.09
680.532	13.53
680.856	14.18
681.18	14.24
681.504	14.21
681.828	14.57
682.152	14.18
682.475	13.73
682.799	13.93
683.122	14.65
683.446	13.98
683.769	14.13
684.093	14.51
684.416	14.54
684.739	14.1
685.062	13.89
685.386	14.06
685.709	14.43
686.032	14.41
686.355	15.06
686.678	14.76
687.001	14.97
687.324	15.11
687.646	14.64
687.969	15.1
688.292	14.78
688.614	14.82
688.937	14.67
689.26	14.92
689.582	15.1
