Data from 0273_crown_Reflection__4__255.txt Node

Date: Fri Oct 20 22:41:53 CDT 2023
User: ToomeyLab
Spectrometer: FLMS14357
Trigger mode: 0
Integration Time (sec): 1.000000E-2
Scans to average: 100
Electric dark correction enabled: true
Nonlinearity correction enabled: false
Boxcar width: 0
XAxis mode: Wavelengths
Number of Pixels in Spectrum: 2048
>>>>>Begin Spectral Data<<<<<
189.047	571.94
189.435	571.94
189.823	571.94
190.211	1202.82
190.599	129.65
190.987	37.05
191.375	63.77
191.763	210.79
192.151	-71.65
192.538	-92.26
192.926	-25.84
193.314	48.66
193.702	107.7
194.089	182.37
194.477	76.82
194.864	113.3
195.252	211.09
195.639	214.23
196.027	48.74
196.414	-190.44
196.801	77.56
197.189	11.59
197.576	34.73
197.963	-70.48
198.351	32.21
198.738	27.96
199.125	64.79
199.512	23.13
199.899	27.6
200.286	-6.64
200.673	43.34
201.06	-9.91
201.447	10.26
201.833	19.61
202.22	63.77
202.607	52.22
202.994	44.28
203.38	-0.4
203.767	18.38
204.154	38.79
204.54	92.47
204.927	28.38
205.313	-4.68
205.699	33.2
206.086	11.87
206.472	60.63
206.858	53.44
207.245	3.61
207.631	30.23
208.017	31.23
208.403	-13.69
208.789	25.87
209.175	15.53
209.561	-4.57
209.947	14.08
210.333	22.13
210.719	12.9
211.105	41.4
211.491	24.29
211.876	-1.12
212.262	18.59
212.648	28.85
213.034	0.42
213.419	1.07
213.805	37.45
214.19	-15.79
214.576	-5.77
214.961	33.11
215.346	40.1
215.732	14.26
216.117	-45.34
216.502	19.05
216.888	4.37
217.273	-5.23
217.658	31.57
218.043	1.39
218.428	10.94
218.813	37.68
219.198	9.97
219.583	-0.16
219.968	-9.87
220.353	36.97
220.738	15.36
221.122	4.55
221.507	24.19
221.892	-1.09
222.276	9.95
222.661	19.52
223.046	22.1
223.43	10.47
223.815	16.07
224.199	30.41
224.583	1.55
224.968	10.43
225.352	13.57
225.736	8.78
226.121	10.65
226.505	8.82
226.889	14.05
227.273	12.08
227.657	12.37
228.041	13.42
228.425	6.06
228.809	12.21
229.193	10.73
229.577	11.94
229.961	7.09
230.344	7.74
230.728	7.45
231.112	8.41
231.495	8.13
231.879	8.57
232.263	9.55
232.646	7.68
233.03	7.29
233.413	7.53
233.797	8.41
234.18	8.45
234.563	11.44
234.946	8.34
235.33	9.04
235.713	9.45
236.096	9.21
236.479	8.88
236.862	9.13
237.245	8.07
237.628	8.08
238.011	9.44
238.394	7.24
238.777	9.41
239.16	8.67
239.543	9.47
239.925	10.23
240.308	9.07
240.691	8.23
241.073	8.9
241.456	9.43
241.838	9.02
242.221	8.87
242.603	8.13
242.986	8.4
243.368	8.63
243.75	7.75
244.133	7.72
244.515	8.03
244.897	7.77
245.279	8.2
245.661	7.68
246.043	7.79
246.425	7.84
246.807	7.67
247.189	7.37
247.571	6.56
247.953	7.42
248.335	7.85
248.717	7.29
249.098	7.13
249.48	7.41
249.862	7.69
250.243	7.89
250.625	7.56
251.006	7.35
251.388	7.65
251.769	8.34
252.151	7.29
252.532	7.59
252.913	7.04
253.295	5.83
253.676	7.82
254.057	7.41
254.438	7.25
254.819	7.76
255.2	8.28
255.581	7.06
255.962	6.89
256.343	7.57
256.724	6.61
257.105	7.82
257.486	7.61
257.867	6.9
258.247	8.27
258.628	6.46
259.009	7.43
259.389	7.04
259.77	6.71
260.15	7.12
260.531	6.95
260.911	7.38
261.292	7.31
261.672	7.02
262.052	7.12
262.432	6.93
262.813	7.14
263.193	7.39
263.573	6.62
263.953	7.12
264.333	7.3
264.713	7.47
265.093	7.23
265.473	8.02
265.853	7.19
266.233	7.08
266.612	7.4
266.992	6.75
267.372	7.48
267.752	6.71
268.131	7.22
268.511	6.94
268.89	6.65
269.27	6.69
269.649	6.45
270.029	6.43
270.408	6.85
270.787	7
271.167	6.63
271.546	6.89
271.925	7.08
272.304	7.31
272.683	6.94
273.062	6.62
273.441	6.83
273.82	6.68
274.199	6.39
274.578	6.66
274.957	6.9
275.336	6.74
275.715	6.53
276.093	6.17
276.472	6.71
276.851	6.18
277.229	6.43
277.608	6.23
277.986	6
278.365	6.63
278.743	6.06
279.122	6.08
279.5	6.72
279.878	6.34
280.257	6.69
280.635	6.38
281.013	6.61
281.391	6.37
281.769	5.71
282.147	6.17
282.525	6.34
282.903	6.1
283.281	6.48
283.659	6.35
284.037	6.49
284.415	5.8
284.792	6.21
285.17	6.09
285.548	5.91
285.925	5.77
286.303	6.06
286.68	5.93
287.058	6.45
287.435	5.86
287.813	5.82
288.19	5.93
288.567	6.2
288.945	6.48
289.322	6.34
289.699	5.43
290.076	6.29
290.453	6.08
290.83	5.9
291.207	6.13
291.584	5.76
291.961	5.75
292.338	5.88
292.715	6.13
293.092	5.96
293.469	5.95
293.845	5.71
294.222	6.1
294.599	5.17
294.975	6.29
295.352	6.02
295.728	5.91
296.105	5.3
296.481	5.46
296.858	6.06
297.234	5.58
297.61	5.01
297.986	5.77
298.363	5.97
298.739	5.41
299.115	5.26
299.491	5.4
299.867	5.69
300.243	5.26
300.619	5.74
300.995	5.34
301.371	5.83
301.746	5.64
302.122	5.72
302.498	5.11
302.874	5.28
303.249	5.53
303.625	5.36
304	5.5
304.376	5.51
304.751	5.09
305.127	5.25
305.502	5.8
305.878	5.55
306.253	5.72
306.628	5.52
307.003	5.22
307.378	5.6
307.754	5.53
308.129	5.7
308.504	5.43
308.879	5.52
309.254	6.21
309.629	4.98
310.003	4.87
310.378	5.53
310.753	5.59
311.128	5.35
311.502	5.29
311.877	5.12
312.252	5.49
312.626	5.19
313.001	5.13
313.375	5.47
313.75	5.08
314.124	4.86
314.498	5.44
314.873	4.69
315.247	5.17
315.621	4.96
315.995	5.81
316.369	5.25
316.743	5.16
317.117	5.26
317.491	4.45
317.865	5.69
318.239	5.66
318.613	5.26
318.987	5.03
319.361	4.96
319.734	5.03
320.108	4.95
320.482	5.25
320.855	5.51
321.229	6.16
321.602	5.36
321.976	5.34
322.349	5.51
322.723	4.86
323.096	5.46
323.469	4.89
323.843	5.47
324.216	5.24
324.589	4.99
324.962	5.41
325.335	5.48
325.708	5.01
326.081	5.17
326.454	5.2
326.827	5.2
327.2	5.66
327.573	5.29
327.945	4.99
328.318	5.19
328.691	5.16
329.063	5.53
329.436	5.06
329.809	4.96
330.181	5.65
330.553	5.58
330.926	5.37
331.298	4.67
331.671	4.61
332.043	4.51
332.415	4.91
332.787	5.12
333.159	4.87
333.532	5.36
333.904	5.3
334.276	5.17
334.648	4.93
335.02	5.19
335.391	5.01
335.763	5.74
336.135	5.16
336.507	5.58
336.879	4.41
337.25	5.04
337.622	5.58
337.993	5.83
338.365	5.49
338.736	5.36
339.108	5.6
339.479	5.07
339.851	5.32
340.222	5.25
340.593	4.79
340.964	5.18
341.336	5.84
341.707	5.03
342.078	5.29
342.449	4.86
342.82	4.9
343.191	5.42
343.562	5.22
343.933	5.61
344.303	5.3
344.674	5.83
345.045	5.27
345.416	5.47
345.786	5.31
346.157	5.61
346.527	5.19
346.898	5.25
347.268	5.65
347.639	5.49
348.009	5.28
348.38	5.71
348.75	5.29
349.12	5.37
349.49	5.12
349.861	5.47
350.231	5.2
350.601	5.3
350.971	5.77
351.341	5.38
351.711	6.04
352.081	5.43
352.45	5.15
352.82	5.68
353.19	5.52
353.56	5.74
353.929	5.38
354.299	5.09
354.669	5.52
355.038	5.66
355.408	5.62
355.777	5.78
356.147	5.58
356.516	5.36
356.885	5.45
357.254	5.68
357.624	5.55
357.993	5.72
358.362	5.67
358.731	5.04
359.1	5.31
359.469	5.28
359.838	5.67
360.207	5.54
360.576	5.65
360.945	5.29
361.314	5.37
361.682	5.45
362.051	5.52
362.42	5.62
362.788	5.62
363.157	5.84
363.525	5.36
363.894	5.38
364.262	5.37
364.631	5.78
364.999	5.69
365.367	5.79
365.735	5.56
366.104	5.81
366.472	5.68
366.84	5.91
367.208	5.82
367.576	5.65
367.944	5.74
368.312	5.78
368.68	5.77
369.048	5.8
369.416	5.9
369.783	5.77
370.151	5.78
370.519	5.63
370.886	5.82
371.254	5.85
371.621	6.25
371.989	5.97
372.356	5.88
372.724	6.19
373.091	5.96
373.458	5.77
373.826	5.78
374.193	5.63
374.56	5.8
374.927	5.89
375.294	5.99
375.661	5.85
376.028	5.91
376.395	6.07
376.762	5.72
377.129	5.86
377.496	6.1
377.863	6.32
378.229	6.08
378.596	5.82
378.963	5.84
379.329	5.96
379.696	5.9
380.062	5.85
380.429	5.89
380.795	5.91
381.161	5.92
381.528	6.31
381.894	5.88
382.26	6.23
382.626	6.36
382.993	6.04
383.359	6.04
383.725	6.13
384.091	6.03
384.457	6.01
384.823	6.04
385.188	6.25
385.554	6.31
385.92	6.06
386.286	6.2
386.651	6.03
387.017	5.96
387.383	6.18
387.748	5.98
388.114	5.6
388.479	6.02
388.845	6.28
389.21	6.01
389.575	6.06
389.94	6.14
390.306	6.01
390.671	6.31
391.036	6.47
391.401	6.28
391.766	6.12
392.131	6.21
392.496	6.27
392.861	6.32
393.226	6.21
393.591	5.92
393.956	6.48
394.32	6.34
394.685	6.26
395.05	6.54
395.414	6.51
395.779	6.13
396.143	6.35
396.508	6.22
396.872	6.28
397.236	6.33
397.601	6.21
397.965	6.02
398.329	6.31
398.694	6.33
399.058	6.25
399.422	6.54
399.786	6.42
400.15	6.36
400.514	6.42
400.878	6.63
401.242	6.65
401.605	6.42
401.969	6.5
402.333	6.26
402.697	6.62
403.06	6.47
403.424	6.44
403.787	6.3
404.151	6.54
404.514	6.6
404.878	6.44
405.241	6.42
405.604	6.47
405.968	6.77
406.331	6.3
406.694	6.4
407.057	6.38
407.42	6.7
407.783	6.49
408.146	6.16
408.509	6.54
408.872	6.57
409.235	6.62
409.598	6.59
409.961	6.63
410.323	6.7
410.686	6.47
411.049	6.43
411.411	6.6
411.774	6.63
412.136	6.53
412.499	6.69
412.861	6.77
413.223	6.61
413.586	6.59
413.948	6.56
414.31	6.79
414.672	6.74
415.035	6.38
415.397	6.75
415.759	6.7
416.121	6.65
416.483	6.65
416.845	6.65
417.206	6.61
417.568	6.76
417.93	6.64
418.292	6.42
418.653	6.66
419.015	6.68
419.377	6.71
419.738	6.6
420.1	6.39
420.461	6.61
420.822	6.57
421.184	6.53
421.545	6.79
421.906	6.46
422.267	6.4
422.629	6.59
422.99	6.34
423.351	6.44
423.712	6.33
424.073	6.48
424.434	6.42
424.795	6.52
425.155	6.57
425.516	6.43
425.877	6.51
426.238	6.39
426.598	6.49
426.959	6.34
427.32	6.51
427.68	6.48
428.041	6.44
428.401	6.55
428.761	6.61
429.122	6.6
429.482	6.63
429.842	6.81
430.202	6.8
430.563	6.62
430.923	6.78
431.283	6.75
431.643	6.79
432.003	6.86
432.363	6.63
432.722	6.73
433.082	6.69
433.442	6.58
433.802	6.87
434.161	6.63
434.521	6.69
434.881	6.66
435.24	6.77
435.6	6.73
435.959	6.67
436.319	6.72
436.678	6.87
437.037	6.76
437.396	6.93
437.756	6.75
438.115	6.58
438.474	6.7
438.833	6.88
439.192	6.53
439.551	6.68
439.91	6.86
440.269	6.86
440.628	6.79
440.987	6.84
441.345	6.56
441.704	6.8
442.063	6.78
442.421	6.78
442.78	6.66
443.138	6.68
443.497	6.78
443.855	6.92
444.214	6.72
444.572	6.75
444.93	6.92
445.288	6.86
445.647	6.84
446.005	6.72
446.363	6.71
446.721	6.79
447.079	6.9
447.437	6.75
447.795	6.56
448.153	6.75
448.51	6.67
448.868	6.6
449.226	6.67
449.584	6.62
449.941	6.69
450.299	6.83
450.656	6.65
451.014	6.92
451.371	6.77
451.729	6.74
452.086	6.77
452.443	6.72
452.801	6.75
453.158	6.98
453.515	7.05
453.872	6.9
454.229	6.99
454.586	6.79
454.943	6.76
455.3	6.71
455.657	6.98
456.014	6.74
456.371	6.84
456.727	7
457.084	6.88
457.441	7.02
457.797	7.14
458.154	6.83
458.51	6.88
458.867	6.86
459.223	6.87
459.58	6.82
459.936	6.84
460.292	6.87
460.648	6.76
461.005	6.68
461.361	6.66
461.717	6.69
462.073	6.78
462.429	6.75
462.785	6.81
463.141	6.95
463.496	6.83
463.852	6.91
464.208	6.93
464.564	7.08
464.919	7
465.275	7.11
465.631	6.99
465.986	7.05
466.342	7.02
466.697	7.03
467.052	6.96
467.408	6.91
467.763	6.96
468.118	7.05
468.473	6.97
468.829	6.95
469.184	7.12
469.539	7.05
469.894	7.07
470.249	7.01
470.603	6.83
470.958	7.05
471.313	7.21
471.668	6.99
472.023	7.12
472.377	7.19
472.732	6.87
473.086	7.08
473.441	7.16
473.795	7.2
474.15	7.05
474.504	6.82
474.859	6.86
475.213	7.07
475.567	7.16
475.921	6.93
476.275	7.01
476.63	7.1
476.984	7.23
477.338	6.9
477.692	6.96
478.045	7.09
478.399	6.87
478.753	7.1
479.107	6.99
479.461	6.99
479.814	7.13
480.168	7.01
480.521	7.12
480.875	6.91
481.228	7.12
481.582	7.11
481.935	7.04
482.289	6.98
482.642	6.93
482.995	6.95
483.348	6.93
483.701	7.02
484.055	6.85
484.408	6.85
484.761	6.82
485.114	6.65
485.466	6.63
485.819	6.55
486.172	6.47
486.525	6.48
486.878	6.54
487.23	6.61
487.583	6.64
487.936	6.66
488.288	6.75
488.641	6.81
488.993	6.68
489.345	6.68
489.698	6.63
490.05	6.61
490.402	6.58
490.754	6.66
491.107	6.67
491.459	6.79
491.811	6.84
492.163	6.77
492.515	6.83
492.866	6.83
493.218	6.74
493.57	6.7
493.922	6.59
494.274	6.69
494.625	6.7
494.977	6.78
495.328	6.86
495.68	6.96
496.031	6.93
496.383	7
496.734	6.93
497.086	6.99
497.437	7.08
497.788	6.94
498.139	7.14
498.49	6.96
498.842	6.92
499.193	7
499.544	6.9
499.894	6.98
500.245	6.95
500.596	7.01
500.947	7.01
501.298	6.86
501.648	6.89
501.999	7.05
502.35	6.97
502.7	7.16
503.051	7.05
503.401	7.1
503.752	6.97
504.102	7.12
504.452	7.06
504.803	6.81
505.153	7.01
505.503	7.05
505.853	7.01
506.203	6.82
506.553	6.92
506.903	7.07
507.253	6.89
507.603	7.07
507.953	7.01
508.303	7.03
508.652	6.99
509.002	7.08
509.352	7
509.701	6.98
510.051	6.98
510.4	6.97
510.75	6.93
511.099	7.01
511.449	6.91
511.798	7.01
512.147	6.98
512.496	7
512.846	6.99
513.195	6.92
513.544	6.97
513.893	7
514.242	6.95
514.591	6.91
514.939	6.91
515.288	6.9
515.637	6.91
515.986	6.98
516.334	7.05
516.683	7.03
517.032	6.9
517.38	6.78
517.729	6.94
518.077	6.87
518.426	6.96
518.774	6.89
519.122	7.03
519.47	6.88
519.819	6.83
520.167	6.84
520.515	6.88
520.863	7.01
521.211	6.83
521.559	6.83
521.907	6.83
522.255	6.89
522.602	6.97
522.95	6.8
523.298	6.82
523.645	7.05
523.993	6.84
524.341	6.97
524.688	6.9
525.036	7.07
525.383	6.87
525.73	6.99
526.078	6.97
526.425	7.04
526.772	6.76
527.119	6.85
527.466	6.74
527.814	6.83
528.161	6.86
528.508	6.8
528.854	6.77
529.201	6.7
529.548	6.83
529.895	6.77
530.242	6.6
530.588	6.53
530.935	6.51
531.282	6.58
531.628	6.59
531.975	6.57
532.321	6.68
532.667	6.7
533.014	6.77
533.36	6.87
533.706	6.81
534.052	6.81
534.399	6.69
534.745	6.61
535.091	6.67
535.437	6.72
535.783	6.66
536.129	6.71
536.474	6.73
536.82	6.78
537.166	6.82
537.512	6.8
537.857	6.82
538.203	6.71
538.549	6.86
538.894	6.72
539.239	6.72
539.585	6.77
539.93	6.79
540.276	6.82
540.621	6.81
540.966	6.97
541.311	7.02
541.656	6.94
542.001	6.9
542.346	6.75
542.691	6.8
543.036	6.67
543.381	6.6
543.726	6.47
544.071	6.58
544.415	6.6
544.76	6.62
545.105	6.65
545.449	6.6
545.794	6.74
546.138	6.66
546.483	6.67
546.827	6.8
547.171	6.86
547.516	6.7
547.86	6.96
548.204	6.82
548.548	6.76
548.892	6.69
549.236	6.69
549.58	6.69
549.924	6.64
550.268	6.72
550.612	6.8
550.956	7
551.3	6.87
551.643	6.88
551.987	6.98
552.33	6.91
552.674	6.97
553.017	6.81
553.361	7.03
553.704	6.94
554.048	6.91
554.391	6.89
554.734	6.93
555.077	6.86
555.42	6.71
555.764	6.78
556.107	6.81
556.45	6.93
556.793	6.74
557.135	6.85
557.478	6.66
557.821	6.88
558.164	7.01
558.507	6.88
558.849	6.94
559.192	6.77
559.534	7.01
559.877	6.7
560.219	6.84
560.562	6.77
560.904	6.59
561.246	6.91
561.589	6.79
561.931	6.94
562.273	6.88
562.615	6.94
562.957	6.91
563.299	6.8
563.641	6.84
563.983	6.8
564.325	6.69
564.667	6.91
565.008	6.67
565.35	6.8
565.692	6.83
566.033	6.91
566.375	6.87
566.716	6.71
567.058	6.67
567.399	6.8
567.741	6.71
568.082	6.78
568.423	6.69
568.764	6.68
569.105	6.87
569.447	6.7
569.788	6.72
570.129	6.66
570.47	6.64
570.811	6.81
571.151	6.79
571.492	6.77
571.833	6.81
572.174	6.79
572.514	6.84
572.855	6.65
573.195	6.78
573.536	6.49
573.876	6.85
574.217	6.62
574.557	6.52
574.898	6.48
575.238	6.6
575.578	6.57
575.918	6.49
576.258	6.53
576.598	6.73
576.938	6.67
577.278	6.61
577.618	6.51
577.958	6.56
578.298	6.59
578.638	6.64
578.977	6.68
579.317	6.62
579.657	6.69
579.996	6.64
580.336	6.91
580.675	6.64
581.014	6.73
581.354	6.71
581.693	6.63
582.032	6.88
582.372	6.73
582.711	6.78
583.05	6.96
583.389	6.62
583.728	6.73
584.067	6.65
584.406	6.66
584.745	6.65
585.083	6.54
585.422	6.79
585.761	6.57
586.1	6.77
586.438	6.48
586.777	6.72
587.115	6.82
587.454	6.61
587.792	6.73
588.13	6.81
588.469	6.71
588.807	6.36
589.145	6.72
589.483	6.4
589.821	6.43
590.159	6.54
590.497	6.62
590.835	6.57
591.173	6.68
591.511	6.58
591.849	6.36
592.187	6.61
592.524	6.47
592.862	6.53
593.2	6.64
593.537	6.27
593.875	6.19
594.212	6.67
594.55	6.72
594.887	6.69
595.224	6.59
595.561	6.56
595.899	6.39
596.236	6.62
596.573	6.39
596.91	6.81
597.247	6.47
597.584	6.32
597.921	6.69
598.258	6.47
598.594	6.52
598.931	6.13
599.268	6.21
599.604	6.43
599.941	6.39
600.277	6.27
600.614	6.26
600.95	6.42
601.287	6.38
601.623	6.45
601.959	6.5
602.296	6.38
602.632	6.59
602.968	6.5
603.304	6.58
603.64	6.19
603.976	6.41
604.312	6.73
604.648	6.59
604.984	6.64
605.319	6.16
605.655	6.2
605.991	6.44
606.326	6.41
606.662	6.16
606.998	6.07
607.333	6.4
607.668	6.19
608.004	6.25
608.339	6.34
608.674	6.52
609.01	6.35
609.345	6.5
609.68	6.43
610.015	6.38
610.35	6.44
610.685	6.49
611.02	6.29
611.355	6.36
611.689	6.22
612.024	6.29
612.359	6.24
612.694	6.26
613.028	6.31
613.363	6.27
613.697	6.43
614.032	6.36
614.366	6.59
614.7	6.5
615.035	6.33
615.369	6.38
615.703	5.93
616.037	6.43
616.371	6.14
616.705	6.41
617.039	6.23
617.373	6.46
617.707	6.66
618.041	6.62
618.375	6.33
618.709	6.1
619.042	6.39
619.376	6.57
619.71	6.27
620.043	6.52
620.377	6.12
620.71	6.31
621.043	6.56
621.377	6.57
621.71	6.21
622.043	6.13
622.376	6.17
622.709	6.66
623.043	6.27
623.376	6.78
623.709	5.97
624.041	6.36
624.374	6.22
624.707	6.01
625.04	6.65
625.373	6.48
625.705	6.21
626.038	6.64
626.37	6.19
626.703	6.56
627.035	6.2
627.368	6.28
627.7	6.53
628.032	6.14
628.365	6.63
628.697	6.29
629.029	5.93
629.361	6.15
629.693	6.26
630.025	6.16
630.357	6.43
630.689	6.31
631.021	6.35
631.353	6.16
631.684	6.03
632.016	6.36
632.348	6.25
632.679	6.04
633.011	6.36
633.342	6.13
633.674	6.22
634.005	6.09
634.336	6.53
634.668	6.11
634.999	6.32
635.33	5.93
635.661	6.42
635.992	6.13
636.323	6.14
636.654	6.15
636.985	6.1
637.316	5.96
637.647	5.94
637.977	5.69
638.308	6.36
638.639	5.96
638.969	6.17
639.3	5.9
639.63	6.24
639.961	6.36
640.291	5.83
640.622	6.42
640.952	6.39
641.282	6.3
641.612	6.26
641.943	6.53
642.273	5.71
642.603	6.07
642.933	6.17
643.263	6.34
643.592	6.1
643.922	6.63
644.252	5.92
644.582	6.34
644.911	6.54
645.241	6.59
645.571	6.62
645.9	6.03
646.23	6.41
646.559	5.73
646.888	6.76
647.218	6.55
647.547	6.1
647.876	6.08
648.205	6.17
648.534	6.24
648.863	6.07
649.192	5.89
649.521	6.03
649.85	6.23
650.179	5.89
650.508	6.16
650.837	6.22
651.165	6.53
651.494	5.92
651.822	6.21
652.151	6.58
652.479	6.07
652.808	6
653.136	6.06
653.465	6.38
653.793	6.41
654.121	6.75
654.449	6.45
654.777	6.17
655.105	5.74
655.433	6.15
655.761	6.57
656.089	6.28
656.417	5.85
656.745	6.1
657.073	6.15
657.4	6.68
657.728	6.42
658.056	5.94
658.383	6.54
658.711	5.55
659.038	6.07
659.365	6.27
659.693	6.21
660.02	6.06
660.347	5.84
660.674	5.89
661.001	5.87
661.329	6.3
661.656	6.46
661.982	6.23
662.309	6.44
662.636	6.21
662.963	6.11
663.29	6.38
663.616	6.17
663.943	5.81
664.27	6.32
664.596	6.03
664.923	6.31
665.249	6.38
665.576	5.65
665.902	6.08
666.228	6.23
666.554	6.56
666.881	6.16
667.207	6.06
667.533	5.9
667.859	6.53
668.185	6.62
668.511	5.75
668.837	6.77
669.162	6.3
669.488	5.85
669.814	6.36
670.139	6.4
670.465	6.1
670.791	6.24
671.116	6.4
671.442	6.45
671.767	5.97
672.092	6.06
672.418	6.4
672.743	6.35
673.068	6.49
673.393	6.04
673.718	6.03
674.043	5.84
674.368	6.08
674.693	6.12
675.018	6.71
675.343	6.15
675.667	6.29
675.992	6.44
676.317	6.07
676.641	6.42
676.966	6.62
677.29	6.34
677.615	6.4
677.939	5.56
678.264	6.3
678.588	5.87
678.912	6.38
679.236	6.22
679.56	5.89
679.885	6.11
680.209	6.24
680.532	5.63
680.856	6.4
681.18	6.76
681.504	6.26
681.828	6.76
682.152	5.66
682.475	5.99
682.799	6.25
683.122	6.24
683.446	6.18
683.769	6.3
684.093	6.36
684.416	5.86
684.739	5.39
685.062	5.83
685.386	5.59
685.709	6.49
686.032	6.06
686.355	6.31
686.678	6.1
687.001	6.47
687.324	6.07
687.646	6.03
687.969	6.97
688.292	6.58
688.614	7.18
688.937	5.66
689.26	6.1
689.582	6.33
689.904	5.91
690.227	7.05
690.549	6.14
690.871	6.27
691.194	6.48
691.516	6.47
691.838	7.45
692.16	6.66
692.482	6.23
