Data from 0273_forehead_Reflection__1__257.txt Node

Date: Fri Oct 20 22:42:34 CDT 2023
User: ToomeyLab
Spectrometer: FLMS14357
Trigger mode: 0
Integration Time (sec): 1.000000E-2
Scans to average: 100
Electric dark correction enabled: true
Nonlinearity correction enabled: false
Boxcar width: 0
XAxis mode: Wavelengths
Number of Pixels in Spectrum: 2048
>>>>>Begin Spectral Data<<<<<
189.047	-873.08
189.435	-873.08
189.823	-873.08
190.211	-469.48
190.599	17.01
190.987	102
191.375	-48.01
191.763	108.62
192.151	169.18
192.538	-75.24
192.926	18.77
193.314	141.83
193.702	73.28
194.089	2.78
194.477	45.93
194.864	114.99
195.252	145.09
195.639	82.08
196.027	88.32
196.414	-129.4
196.801	47.65
197.189	27.11
197.576	116.51
197.963	-87.72
198.351	38.26
198.738	26.05
199.125	48.79
199.512	30.13
199.899	12.29
200.286	20.75
200.673	59.31
201.06	16.34
201.447	1.38
201.833	57.31
202.22	16.18
202.607	24.82
202.994	58.42
203.38	8.56
203.767	71.79
204.154	22.45
204.54	50.18
204.927	-8.99
205.313	19.35
205.699	14.45
206.086	9.81
206.472	42.99
206.858	39.91
207.245	-7.24
207.631	31.51
208.017	27.11
208.403	-4.73
208.789	41.56
209.175	-3
209.561	9.68
209.947	31.59
210.333	30.2
210.719	14.51
211.105	19.65
211.491	50.16
211.876	47.83
212.262	40.29
212.648	23.75
213.034	-21.16
213.419	12.32
213.805	10.75
214.19	9.58
214.576	11.3
214.961	22.75
215.346	22.84
215.732	28.94
216.117	-20.26
216.502	18.23
216.888	21.77
217.273	-8.06
217.658	-0.7
218.043	32.82
218.428	27.63
218.813	0.19
219.198	3.96
219.583	-27.07
219.968	19.63
220.353	36.78
220.738	15.86
221.122	11.04
221.507	9.15
221.892	5.05
222.276	11.84
222.661	15.41
223.046	4.27
223.43	9.21
223.815	11.06
224.199	9.39
224.583	3.37
224.968	2.24
225.352	1.95
225.736	0.73
226.121	10.76
226.505	2.82
226.889	9.85
227.273	10.11
227.657	2.63
228.041	9.9
228.425	0.84
228.809	3.99
229.193	2.59
229.577	4.28
229.961	1.13
230.344	1.46
230.728	2.12
231.112	2.01
231.495	1.8
231.879	2.13
232.263	2.37
232.646	1.67
233.03	0.16
233.413	0.51
233.797	2.11
234.18	2.53
234.563	2.6
234.946	4.51
235.33	3.36
235.713	3.9
236.096	2.59
236.479	2.52
236.862	2.63
237.245	3.02
237.628	2.31
238.011	2.76
238.394	3.24
238.777	2.54
239.16	2.9
239.543	3.13
239.925	4.57
240.308	2.86
240.691	1.67
241.073	3.31
241.456	2.46
241.838	2.35
242.221	2.1
242.603	2.13
242.986	2.49
243.368	2.83
243.75	2.04
244.133	1.91
244.515	2.04
244.897	2.14
245.279	2.4
245.661	1.93
246.043	1.86
246.425	2.08
246.807	1.56
247.189	2.04
247.571	2.14
247.953	2.57
248.335	2.64
248.717	1.96
249.098	1.78
249.48	1.87
249.862	2.23
250.243	2.36
250.625	2.66
251.006	2.39
251.388	2.04
251.769	2.33
252.151	1.28
252.532	1.93
252.913	1.58
253.295	1.89
253.676	2.15
254.057	2.17
254.438	2.49
254.819	2.14
255.2	2.41
255.581	1.84
255.962	2.81
256.343	2.05
256.724	0.44
257.105	2.41
257.486	3.5
257.867	2.63
258.247	2.82
258.628	2.86
259.009	1.38
259.389	2.11
259.77	1.67
260.15	2.54
260.531	2.01
260.911	2.38
261.292	2.17
261.672	2.06
262.052	2.45
262.432	2.01
262.813	2.15
263.193	2.37
263.573	2.22
263.953	2.59
264.333	2.54
264.713	2.76
265.093	3.03
265.473	2.71
265.853	2.16
266.233	3.09
266.612	2.71
266.992	2.36
267.372	2.16
267.752	1.92
268.131	2.11
268.511	2.46
268.89	2.01
269.27	2.28
269.649	1.91
270.029	1.84
270.408	2.49
270.787	2.17
271.167	2.23
271.546	2.74
271.925	2.74
272.304	2.31
272.683	2.35
273.062	2.41
273.441	2.42
273.82	2.47
274.199	2.72
274.578	2.29
274.957	2.4
275.336	2.44
275.715	2.53
276.093	1.87
276.472	2.69
276.851	2.28
277.229	2.47
277.608	2.13
277.986	1.86
278.365	2.48
278.743	1.87
279.122	2.36
279.5	2.08
279.878	1.83
280.257	2.09
280.635	2.57
281.013	2.25
281.391	2.47
281.769	2.52
282.147	2.15
282.525	2.55
282.903	2.15
283.281	2.45
283.659	2.42
284.037	2.08
284.415	1.28
284.792	1.9
285.17	2.6
285.548	2.18
285.925	1.99
286.303	1.82
286.68	2.29
287.058	2.73
287.435	2.6
287.813	2.07
288.19	2.26
288.567	2.04
288.945	2.17
289.322	2.72
289.699	2.28
290.076	2.83
290.453	2.46
290.83	2.3
291.207	2.85
291.584	2.35
291.961	2.28
292.338	2.15
292.715	2.3
293.092	2.49
293.469	2.84
293.845	2.6
294.222	2.43
294.599	2.56
294.975	3.28
295.352	2.57
295.728	2.67
296.105	2.43
296.481	2.66
296.858	2.73
297.234	3.24
297.61	2.48
297.986	2.47
298.363	2.77
298.739	2.81
299.115	2.7
299.491	3.18
299.867	2.96
300.243	2.73
300.619	3.05
300.995	2.68
301.371	3.27
301.746	3.04
302.122	3.48
302.498	3
302.874	3.39
303.249	3.24
303.625	2.98
304	3.56
304.376	3.19
304.751	3.1
305.127	2.84
305.502	3.52
305.878	3.78
306.253	3.6
306.628	3.71
307.003	3.57
307.378	3.44
307.754	3.85
308.129	4.25
308.504	3.96
308.879	3.46
309.254	4.48
309.629	3.51
310.003	3.36
310.378	4.04
310.753	3.81
311.128	4.08
311.502	3.89
311.877	4.01
312.252	3.95
312.626	3.92
313.001	3.52
313.375	4.13
313.75	3.94
314.124	3.8
314.498	4.17
314.873	3.92
315.247	4.2
315.621	4.58
315.995	4.96
316.369	4.4
316.743	4.5
317.117	4.53
317.491	3.95
317.865	4.45
318.239	5.04
318.613	4.09
318.987	4.1
319.361	3.87
319.734	4.21
320.108	4.18
320.482	4.63
320.855	5.08
321.229	5.46
321.602	4.44
321.976	4.69
322.349	5.02
322.723	4.89
323.096	4.78
323.469	4.87
323.843	4.76
324.216	4.85
324.589	5.09
324.962	5.54
325.335	5.47
325.708	5.18
326.081	5.56
326.454	5.23
326.827	5.47
327.2	5.13
327.573	5.61
327.945	5.56
328.318	5.03
328.691	5.31
329.063	6.1
329.436	5.12
329.809	5.48
330.181	6.21
330.553	6.09
330.926	5.77
331.298	5.24
331.671	5.14
332.043	4.83
332.415	5.76
332.787	6.2
333.159	5.47
333.532	6.19
333.904	6.08
334.276	5.36
334.648	5.82
335.02	6.39
335.391	6.17
335.763	5.94
336.135	5.93
336.507	6.1
336.879	6.16
337.25	6.15
337.622	6.34
337.993	6.39
338.365	5.93
338.736	6.15
339.108	6.72
339.479	6.03
339.851	6.1
340.222	6.02
340.593	5.34
340.964	5.78
341.336	6.56
341.707	6.08
342.078	6.46
342.449	6.11
342.82	5.93
343.191	6.39
343.562	6.27
343.933	6.41
344.303	6.39
344.674	6.63
345.045	7.18
345.416	6.66
345.786	6.57
346.157	6.73
346.527	6.61
346.898	6.47
347.268	6.49
347.639	6.96
348.009	6.64
348.38	6.74
348.75	6.86
349.12	6.86
349.49	6.86
349.861	7.03
350.231	6.43
350.601	6.89
350.971	7.54
351.341	6.88
351.711	7.56
352.081	6.85
352.45	7.16
352.82	6.86
353.19	7.41
353.56	7.11
353.929	6.7
354.299	6.99
354.669	7.56
355.038	7.24
355.408	7.93
355.777	7.02
356.147	7.13
356.516	7.14
356.885	7.21
357.254	7.42
357.624	7.69
357.993	7.21
358.362	7.51
358.731	7.04
359.1	7
359.469	7.2
359.838	7.39
360.207	7.28
360.576	7.62
360.945	7.4
361.314	7.54
361.682	7.61
362.051	7.55
362.42	7.24
362.788	7.41
363.157	7.48
363.525	7.37
363.894	7.41
364.262	7.52
364.631	7.63
364.999	7.82
365.367	7.63
365.735	7.51
366.104	7.58
366.472	8.07
366.84	8.15
367.208	8.11
367.576	7.88
367.944	8.2
368.312	8.25
368.68	7.99
369.048	7.98
369.416	8.15
369.783	8.39
370.151	8.4
370.519	8.36
370.886	8.43
371.254	8.47
371.621	8.97
371.989	8.24
372.356	8.49
372.724	8.57
373.091	8.16
373.458	8.23
373.826	8.26
374.193	8.42
374.56	8.55
374.927	8.51
375.294	8.77
375.661	8.65
376.028	8.64
376.395	8.99
376.762	8.8
377.129	8.51
377.496	8.71
377.863	9.14
378.229	8.9
378.596	9.19
378.963	8.79
379.329	9
379.696	8.68
380.062	8.69
380.429	8.61
380.795	8.94
381.161	8.98
381.528	9.39
381.894	9.23
382.26	9.26
382.626	9.66
382.993	9.36
383.359	9.22
383.725	9.21
384.091	9.1
384.457	9.42
384.823	9.3
385.188	9.42
385.554	9.67
385.92	9.56
386.286	9.76
386.651	9.2
387.017	9.48
387.383	9.28
387.748	9.44
388.114	9.36
388.479	9.54
388.845	9.72
389.21	9.46
389.575	9.47
389.94	9.75
390.306	9.48
390.671	9.73
391.036	9.58
391.401	9.83
391.766	10.09
392.131	10.09
392.496	9.64
392.861	9.81
393.226	10.04
393.591	10.12
393.956	10.04
394.32	10.16
394.685	10.07
395.05	10.15
395.414	10.03
395.779	10.1
396.143	9.96
396.508	10.28
396.872	10.38
397.236	10.3
397.601	10.17
397.965	10.2
398.329	10.42
398.694	10.5
399.058	10.23
399.422	10.44
399.786	10.31
400.15	10.51
400.514	10.44
400.878	10.63
401.242	10.71
401.605	10.74
401.969	10.4
402.333	10.68
402.697	10.71
403.06	10.91
403.424	10.62
403.787	10.74
404.151	10.89
404.514	10.9
404.878	10.76
405.241	10.9
405.604	10.9
405.968	10.92
406.331	11.02
406.694	10.94
407.057	10.89
407.42	11.21
407.783	11.12
408.146	11.09
408.509	10.95
408.872	11.25
409.235	11.07
409.598	11.19
409.961	11.14
410.323	11.35
410.686	11.09
411.049	11.41
411.411	11.36
411.774	11.49
412.136	11.43
412.499	11.59
412.861	11.69
413.223	11.44
413.586	11.64
413.948	11.64
414.31	11.77
414.672	11.47
415.035	11.75
415.397	11.74
415.759	11.73
416.121	11.7
416.483	12.02
416.845	11.68
417.206	11.81
417.568	11.88
417.93	11.98
418.292	11.53
418.653	11.86
419.015	11.97
419.377	11.91
419.738	12.02
420.1	11.68
420.461	11.79
420.822	11.77
421.184	11.79
421.545	11.96
421.906	11.78
422.267	11.91
422.629	11.82
422.99	11.79
423.351	11.87
423.712	11.74
424.073	11.94
424.434	11.91
424.795	12.05
425.155	12.11
425.516	12.16
425.877	12.1
426.238	11.96
426.598	12.2
426.959	12.16
427.32	12.28
427.68	12.4
428.041	12.37
428.401	12.38
428.761	12.48
429.122	12.62
429.482	12.61
429.842	12.74
430.202	12.85
430.563	12.93
430.923	12.83
431.283	12.72
431.643	12.98
432.003	12.86
432.363	12.92
432.722	13.07
433.082	13.11
433.442	13.11
433.802	13.24
434.161	12.87
434.521	13.16
434.881	13.12
435.24	13.12
435.6	13.05
435.959	13.11
436.319	13.2
436.678	13.4
437.037	13.25
437.396	13.45
437.756	13.38
438.115	13.22
438.474	13.53
438.833	13.45
439.192	13.45
439.551	13.58
439.91	13.52
440.269	13.7
440.628	13.57
440.987	13.64
441.345	13.72
441.704	13.69
442.063	13.74
442.421	13.67
442.78	13.6
443.138	13.76
443.497	13.66
443.855	13.75
444.214	13.95
444.572	13.77
444.93	14.02
445.288	14.08
445.647	14.2
446.005	13.85
446.363	14.04
446.721	13.95
447.079	14.12
447.437	14.01
447.795	14.02
448.153	13.97
448.51	13.94
448.868	14.02
449.226	14.07
449.584	14.36
449.941	14.14
450.299	14.15
450.656	14.32
451.014	14.51
451.371	14.42
451.729	14.46
452.086	14.72
452.443	14.71
452.801	14.7
453.158	14.91
453.515	14.75
453.872	14.93
454.229	14.96
454.586	14.77
454.943	14.91
455.3	14.83
455.657	15.04
456.014	14.86
456.371	15.01
456.727	15.04
457.084	14.89
457.441	15.12
457.797	15.3
458.154	15.19
458.51	15.22
458.867	15.02
459.223	15.24
459.58	15.34
459.936	15.28
460.292	15.38
460.648	15.17
461.005	15.13
461.361	15.14
461.717	15.06
462.073	15.1
462.429	15.17
462.785	15.38
463.141	15.47
463.496	15.49
463.852	15.73
464.208	15.74
464.564	15.78
464.919	15.88
465.275	15.94
465.631	16.12
465.986	16.05
466.342	16.02
466.697	16.02
467.052	15.91
467.408	15.96
467.763	16.3
468.118	16.37
468.473	16.19
468.829	16.03
469.184	16.34
469.539	16.28
469.894	16.27
470.249	16.34
470.603	16.54
470.958	16.57
471.313	16.61
471.668	16.57
472.023	16.56
472.377	16.49
472.732	16.6
473.086	16.87
473.441	16.78
473.795	16.93
474.15	16.9
474.504	16.75
474.859	16.68
475.213	16.85
475.567	16.91
475.921	16.93
476.275	16.85
476.63	17.15
476.984	17
477.338	17.1
477.692	17.08
478.045	17.23
478.399	17.22
478.753	17.07
479.107	17.05
479.461	17
479.814	17.46
480.168	17.36
480.521	17.29
480.875	17.33
481.228	17.36
481.582	17.4
481.935	17.32
482.289	17.33
482.642	17.38
482.995	17.35
483.348	17.42
483.701	17.39
484.055	17.47
484.408	17.38
484.761	17.17
485.114	16.98
485.466	16.75
485.819	16.4
486.172	16.45
486.525	16.57
486.878	16.86
487.23	17.1
487.583	17.17
487.936	17.33
488.288	17.41
488.641	17.4
488.993	17.19
489.345	17.1
489.698	17.09
490.05	17.01
490.402	17.2
490.754	17.34
491.107	17.44
491.459	17.71
491.811	17.77
492.163	17.91
492.515	18.02
492.866	17.89
493.218	17.77
493.57	17.5
493.922	17.5
494.274	17.65
494.625	17.92
494.977	18.06
495.328	18.25
495.68	18.41
496.031	18.6
496.383	18.65
496.734	18.84
497.086	18.76
497.437	19.02
497.788	18.76
498.139	18.9
498.49	18.93
498.842	18.74
499.193	18.8
499.544	18.83
499.894	18.87
500.245	18.8
500.596	19.05
500.947	19.09
501.298	19.12
501.648	19.18
501.999	19.25
502.35	19.34
502.7	19.39
503.051	19.42
503.401	19.6
503.752	19.58
504.102	19.65
504.452	19.63
504.803	19.58
505.153	19.67
505.503	19.76
505.853	19.81
506.203	19.7
506.553	19.7
506.903	19.64
507.253	19.81
507.603	19.94
507.953	19.89
508.303	19.93
508.652	20.08
509.002	19.94
509.352	20.1
509.701	20.19
510.051	20.01
510.4	20.06
510.75	19.88
511.099	20.22
511.449	20.1
511.798	20.21
512.147	20.14
512.496	20.08
512.846	20.13
513.195	20.22
513.544	20.26
513.893	20.24
514.242	20.28
514.591	20.24
514.939	20.24
515.288	20.45
515.637	20.57
515.986	20.61
516.334	20.71
516.683	20.74
517.032	20.69
517.38	20.59
517.729	20.92
518.077	20.74
518.426	21
518.774	20.77
519.122	20.91
519.47	20.73
519.819	20.7
520.167	20.71
520.515	20.55
520.863	20.53
521.211	20.6
521.559	20.88
521.907	20.9
522.255	21.04
522.602	21.1
522.95	21.08
523.298	21.32
523.645	21.36
523.993	21.37
524.341	21.58
524.688	21.47
525.036	21.66
525.383	21.59
525.73	21.87
526.078	21.62
526.425	21.58
526.772	21.65
527.119	21.48
527.466	21.35
527.814	21.27
528.161	21.31
528.508	21.31
528.854	21.38
529.201	21.42
529.548	21.34
529.895	21.29
530.242	21.14
530.588	20.8
530.935	20.89
531.282	20.97
531.628	21.27
531.975	21.4
532.321	21.53
532.667	21.6
533.014	21.82
533.36	21.92
533.706	22.02
534.052	22.13
534.399	21.96
534.745	21.79
535.091	21.8
535.437	21.64
535.783	21.67
536.129	21.82
536.474	22.18
536.82	22.27
537.166	22.39
537.512	22.52
537.857	22.48
538.203	22.47
538.549	22.39
538.894	22.4
539.239	22.46
539.585	22.58
539.93	22.77
540.276	22.88
540.621	23.06
540.966	23.11
541.311	23.12
541.656	23.29
542.001	23.17
542.346	23.19
542.691	22.86
543.036	22.63
543.381	22.35
543.726	22.33
544.071	22.52
544.415	22.76
544.76	22.85
545.105	23.07
545.449	22.95
545.794	23.12
546.138	23.29
546.483	23.44
546.827	23.6
547.171	23.7
547.516	23.74
547.86	23.7
548.204	23.72
548.548	23.75
548.892	23.69
549.236	23.68
549.58	23.88
549.924	23.86
550.268	24.03
550.612	24.28
550.956	24.39
551.3	24.37
551.643	24.54
551.987	24.65
552.33	24.68
552.674	24.87
553.017	24.7
553.361	24.91
553.704	24.8
554.048	24.72
554.391	24.75
554.734	24.98
555.077	24.67
555.42	24.75
555.764	24.85
556.107	25.01
556.45	24.88
556.793	25.04
557.135	25.01
557.478	25.13
557.821	25.38
558.164	25.46
558.507	25.48
558.849	25.34
559.192	25.65
559.534	25.67
559.877	25.5
560.219	25.67
560.562	25.73
560.904	25.58
561.246	25.99
561.589	25.43
561.931	25.99
562.273	26.13
562.615	25.89
562.957	25.86
563.299	25.78
563.641	25.8
563.983	25.86
564.325	26.14
564.667	26.2
565.008	26.01
565.35	26.02
565.692	26.19
566.033	26.14
566.375	26.12
566.716	26.04
567.058	26.44
567.399	26.27
567.741	26.3
568.082	26.48
568.423	26.09
568.764	26.29
569.105	26.29
569.447	26.32
569.788	26.49
570.129	26.68
570.47	26.63
570.811	26.74
571.151	26.77
571.492	26.73
571.833	26.96
572.174	26.95
572.514	27.07
572.855	26.88
573.195	26.96
573.536	26.86
573.876	26.91
574.217	26.64
574.557	26.71
574.898	26.76
575.238	26.72
575.578	26.95
575.918	26.87
576.258	27.28
576.598	27.16
576.938	27.2
577.278	27.22
577.618	27.07
577.958	27.21
578.298	27.52
578.638	27.6
578.977	27.51
579.317	27.52
579.657	27.7
579.996	27.85
580.336	27.85
580.675	27.97
581.014	27.99
581.354	27.84
581.693	27.93
582.032	28.24
582.372	28.05
582.711	28.26
583.05	28.56
583.389	28.18
583.728	28.18
584.067	28.18
584.406	28.49
584.745	28.74
585.083	28.48
585.422	28.76
585.761	28.43
586.1	28.54
586.438	28.22
586.777	28.71
587.115	29
587.454	28.95
587.792	28.48
588.13	29.01
588.469	28.87
588.807	28.46
589.145	29.14
589.483	29.05
589.821	29.03
590.159	29.15
590.497	29.17
590.835	28.72
591.173	29.25
591.511	28.91
591.849	28.93
592.187	29.28
592.524	29.22
592.862	29.24
593.2	29.22
593.537	29.33
593.875	29.49
594.212	29.57
594.55	29.41
594.887	29.43
595.224	29.18
595.561	29.64
595.899	29.81
596.236	29.51
596.573	29.75
596.91	29.55
597.247	29.74
597.584	29.82
597.921	29.79
598.258	29.76
598.594	29.58
598.931	29.46
599.268	29.5
599.604	29.41
599.941	29.87
600.277	29.92
600.614	30.28
600.95	30.18
601.287	29.97
601.623	30.02
601.959	30.4
602.296	30.17
602.632	30.41
602.968	30.42
603.304	30.53
603.64	30.08
603.976	30.61
604.312	30.79
604.648	30.49
604.984	30.61
605.319	30.38
605.655	30.74
605.991	30.43
606.326	30.37
606.662	30.31
606.998	30.36
607.333	30.4
607.668	30.5
608.004	30.57
608.339	30.35
608.674	30.8
609.01	31.24
609.345	30.93
609.68	30.84
610.015	31.17
610.35	31.09
610.685	31.37
611.02	30.88
611.355	31.09
611.689	31.05
612.024	31.43
612.359	31.27
612.694	31.24
613.028	31.37
613.363	31.38
613.697	31.65
614.032	31.33
614.366	31.51
614.7	31.77
615.035	31.74
615.369	31.88
615.703	32.1
616.037	32
616.371	31.9
616.705	31.85
617.039	32.28
617.373	32.2
617.707	32.16
618.041	32.14
618.375	32.05
618.709	32.08
619.042	32.19
619.376	32.59
619.71	32.29
620.043	32.42
620.377	31.96
620.71	32.34
621.043	32.52
621.377	32.01
621.71	32.13
622.043	32.72
622.376	32.51
622.709	32.59
623.043	32.6
623.376	32.74
623.709	32.77
624.041	33.22
624.374	32.74
624.707	32.5
625.04	32.93
625.373	32.74
625.705	32.97
626.038	32.93
626.37	32.9
626.703	33.14
627.035	32.82
627.368	33.29
627.7	33.22
628.032	32.96
628.365	32.97
628.697	33.24
629.029	33.05
629.361	32.97
629.693	33.71
630.025	33.26
630.357	33.26
630.689	33
631.021	33.52
631.353	33.66
631.684	33.75
632.016	33.56
632.348	33.75
632.679	33.68
633.011	33.76
633.342	33.47
633.674	34
634.005	34.13
634.336	34.02
634.668	33.86
634.999	33.94
635.33	34.01
635.661	33.81
635.992	34.05
636.323	33.82
636.654	34.05
636.985	34.21
637.316	34.45
637.647	34.29
637.977	33.74
638.308	34.24
638.639	34.34
638.969	34.51
639.3	34.07
639.63	34.41
639.961	34.46
640.291	34.04
640.622	34.72
640.952	34.89
641.282	34.66
641.612	34.74
641.943	34.41
642.273	34.61
642.603	35.04
642.933	34.85
643.263	34.9
643.592	34.93
643.922	35.7
644.252	34.97
644.582	35.47
644.911	34.71
645.241	34.82
645.571	35.27
645.9	35.07
646.23	34.93
646.559	35.13
646.888	35.46
647.218	35.46
647.547	34.75
647.876	35.23
648.205	34.95
648.534	35.32
648.863	36.04
649.192	35.63
649.521	35.75
649.85	35.68
650.179	35.24
650.508	35.73
650.837	35.48
651.165	35.45
651.494	35.18
651.822	35.54
652.151	35.71
652.479	35.79
652.808	35.61
653.136	35.68
653.465	36
653.793	36.15
654.121	36.07
654.449	35.72
654.777	35.84
655.105	36.55
655.433	36.3
655.761	36.35
656.089	36.62
656.417	36.16
656.745	36.53
657.073	36.48
657.4	36.74
657.728	36.54
658.056	36.52
658.383	36.24
658.711	36.28
659.038	36.79
659.365	36.11
659.693	36.45
660.02	36.73
660.347	36.62
660.674	36
661.001	36.33
661.329	36.91
661.656	36.69
661.982	36.56
662.309	36.57
662.636	36.64
662.963	36.9
663.29	36.6
663.616	36.64
663.943	36.76
664.27	36.45
664.596	37.46
664.923	37.32
665.249	37.11
665.576	36.86
665.902	37.02
666.228	37.25
666.554	37.27
666.881	37.21
667.207	37.2
667.533	36.95
667.859	37.41
668.185	37.73
668.511	38.12
668.837	37.83
669.162	37.51
669.488	37.8
669.814	37.39
670.139	37.59
670.465	37.81
670.791	38.08
671.116	38.28
671.442	37.6
671.767	37.82
672.092	37.76
672.418	38.32
672.743	38.34
673.068	38.82
673.393	38.69
673.718	37.7
674.043	38.18
