Data from 0273_crown_Reflection__2__253.txt Node

Date: Fri Oct 20 22:41:36 CDT 2023
User: ToomeyLab
Spectrometer: FLMS14357
Trigger mode: 0
Integration Time (sec): 1.000000E-2
Scans to average: 100
Electric dark correction enabled: true
Nonlinearity correction enabled: false
Boxcar width: 0
XAxis mode: Wavelengths
Number of Pixels in Spectrum: 2048
>>>>>Begin Spectral Data<<<<<
189.047	-146.33
189.435	-146.33
189.823	-146.33
190.211	2418.31
190.599	61.92
190.987	102.96
191.375	10.84
191.763	157.01
192.151	112.14
192.538	-129.94
192.926	68.67
193.314	48.56
193.702	62.66
194.089	4.37
194.477	75.77
194.864	-78.79
195.252	154.46
195.639	-50.21
196.027	-82.18
196.414	-156.07
196.801	82.96
197.189	69.07
197.576	84.2
197.963	-48.58
198.351	40.18
198.738	2.81
199.125	36.01
199.512	44.2
199.899	27.47
200.286	-1.46
200.673	31.27
201.06	4.95
201.447	-1.96
201.833	40.54
202.22	17.56
202.607	55.31
202.994	-0.19
203.38	-1.77
203.767	13.42
204.154	20.93
204.54	37.57
204.927	4.57
205.313	10.39
205.699	27.74
206.086	-2.78
206.472	29.39
206.858	33.28
207.245	12.08
207.631	26.07
208.017	59.13
208.403	11.04
208.789	33.26
209.175	-4.16
209.561	21.11
209.947	-11.41
210.333	-11.93
210.719	6.86
211.105	-4.39
211.491	22.36
211.876	-38.8
212.262	-1.18
212.648	16.41
213.034	-3.56
213.419	23.26
213.805	6.13
214.19	-11.33
214.576	-18.76
214.961	7.15
215.346	40.59
215.732	6.76
216.117	-19.09
216.502	-0.14
216.888	14.98
217.273	12.49
217.658	-7.03
218.043	-8.77
218.428	12.78
218.813	3.94
219.198	11.7
219.583	0.17
219.968	4.04
220.353	10.55
220.738	2.64
221.122	-11.8
221.507	27.03
221.892	3.27
222.276	23.31
222.661	18.22
223.046	19.35
223.43	3.56
223.815	19.93
224.199	18.84
224.583	10.68
224.968	5.07
225.352	8.1
225.736	9.78
226.121	11.61
226.505	4.3
226.889	12.34
227.273	5.01
227.657	13.33
228.041	14.6
228.425	8.57
228.809	10.07
229.193	8.29
229.577	12.5
229.961	9.25
230.344	10.8
230.728	10.5
231.112	11.45
231.495	10.59
231.879	10.27
232.263	11.23
232.646	8.15
233.03	9.04
233.413	9.73
233.797	9.71
234.18	10.2
234.563	12.25
234.946	9.43
235.33	8.99
235.713	9.52
236.096	13.02
236.479	10.28
236.862	10.24
237.245	9.2
237.628	10.66
238.011	10.32
238.394	9.99
238.777	12.21
239.16	9.75
239.543	12.6
239.925	12.96
240.308	10.82
240.691	9.77
241.073	12.23
241.456	11.43
241.838	10.62
242.221	10.36
242.603	11.71
242.986	11.13
243.368	10.89
243.75	10.04
244.133	10.28
244.515	10.22
244.897	10.16
245.279	10.54
245.661	10.14
246.043	9.7
246.425	9.99
246.807	9.62
247.189	9.61
247.571	9.74
247.953	10.53
248.335	9.99
248.717	9.7
249.098	9.66
249.48	9.67
249.862	9.98
250.243	10.09
250.625	10.12
251.006	10.09
251.388	9.81
251.769	10.31
252.151	8.99
252.532	10
252.913	8.81
253.295	8.75
253.676	9.35
254.057	9.53
254.438	9.32
254.819	9.54
255.2	9.03
255.581	8.82
255.962	9.22
256.343	9.44
256.724	8.68
257.105	9.55
257.486	10.47
257.867	8.69
258.247	10.19
258.628	8.44
259.009	8.68
259.389	9.04
259.77	9.35
260.15	9.4
260.531	8.95
260.911	8.86
261.292	9.16
261.672	9.05
262.052	9.08
262.432	8.98
262.813	9.14
263.193	9.06
263.573	8.84
263.953	8.97
264.333	9.24
264.713	9.87
265.093	9.29
265.473	9.03
265.853	8.26
266.233	9.51
266.612	8.46
266.992	8.34
267.372	8.64
267.752	7.98
268.131	9.06
268.511	8.95
268.89	8.44
269.27	8.51
269.649	8.42
270.029	9.07
270.408	8.59
270.787	8.95
271.167	8.44
271.546	9.1
271.925	8.87
272.304	8.77
272.683	8.51
273.062	8.61
273.441	8.83
273.82	8.36
274.199	8.86
274.578	8.39
274.957	8.35
275.336	8.64
275.715	8.68
276.093	8.32
276.472	8.47
276.851	8.18
277.229	8.45
277.608	7.94
277.986	8.26
278.365	8.45
278.743	7.87
279.122	7.7
279.5	7.75
279.878	8.44
280.257	8.07
280.635	7.66
281.013	8.26
281.391	8.37
281.769	7.82
282.147	8.11
282.525	8.23
282.903	7.9
283.281	8.23
283.659	8.12
284.037	8.06
284.415	7.41
284.792	7.6
285.17	8.22
285.548	7.86
285.925	7.71
286.303	7.37
286.68	7.63
287.058	8.34
287.435	7.77
287.813	7.42
288.19	7.51
288.567	7.73
288.945	7.86
289.322	8.01
289.699	7.4
290.076	8.03
290.453	7.53
290.83	7.31
291.207	7.82
291.584	7.52
291.961	7.42
292.338	7.68
292.715	7.35
293.092	7.51
293.469	7.68
293.845	6.96
294.222	7.25
294.599	7.23
294.975	7.75
295.352	7.47
295.728	7.53
296.105	7.18
296.481	7.56
296.858	7.04
297.234	7.35
297.61	7.42
297.986	7.17
298.363	7.33
298.739	7.37
299.115	6.91
299.491	7.2
299.867	7.23
300.243	7.26
300.619	6.88
300.995	6.98
301.371	7.25
301.746	6.91
302.122	7.36
302.498	7.07
302.874	6.43
303.249	6.86
303.625	6.92
304	7.28
304.376	6.87
304.751	6.63
305.127	6.66
305.502	7.11
305.878	6.74
306.253	6.82
306.628	6.99
307.003	7.03
307.378	6.85
307.754	6.81
308.129	7.08
308.504	7.11
308.879	7.01
309.254	7.46
309.629	6.6
310.003	6.43
310.378	7
310.753	6.49
311.128	7.09
311.502	6.65
311.877	6.92
312.252	6.8
312.626	7.09
313.001	7.09
313.375	6.58
313.75	6.77
314.124	6.77
314.498	6.88
314.873	6.79
315.247	6.9
315.621	6.9
315.995	7.08
316.369	6.74
316.743	6.79
317.117	6.92
317.491	6.01
317.865	7.21
318.239	7.04
318.613	6.16
318.987	6.62
319.361	5.73
319.734	6.19
320.108	6.71
320.482	6.73
320.855	6.67
321.229	7.21
321.602	6.48
321.976	7.01
322.349	6.95
322.723	6.54
323.096	6.64
323.469	6.55
323.843	6.62
324.216	6.16
324.589	6.4
324.962	6.9
325.335	6.63
325.708	6.53
326.081	6.76
326.454	6.5
326.827	6.94
327.2	6.77
327.573	7
327.945	6.23
328.318	6.43
328.691	6.63
329.063	6.96
329.436	6.07
329.809	6.96
330.181	6.98
330.553	6.47
330.926	6.35
331.298	5.94
331.671	6.33
332.043	6.55
332.415	7.07
332.787	6.82
333.159	6.46
333.532	6.9
333.904	6.88
334.276	6.44
334.648	6.5
335.02	6.81
335.391	6.63
335.763	6.96
336.135	6.52
336.507	6.73
336.879	6.03
337.25	6.35
337.622	7.01
337.993	6.56
338.365	6.33
338.736	6.98
339.108	6.95
339.479	6.53
339.851	6.67
340.222	6.78
340.593	6.44
340.964	6.58
341.336	7.33
341.707	6.72
342.078	7.06
342.449	6.57
342.82	6.07
343.191	6.63
343.562	6.63
343.933	6.84
344.303	6.83
344.674	6.91
345.045	6.79
345.416	6.98
345.786	6.54
346.157	6.44
346.527	6.75
346.898	6.77
347.268	6.97
347.639	6.97
348.009	6.47
348.38	7.01
348.75	6.8
349.12	6.75
349.49	6.61
349.861	6.89
350.231	6.39
350.601	6.9
350.971	7.11
351.341	6.67
351.711	7.6
352.081	7.05
352.45	6.9
352.82	7.4
353.19	7.09
353.56	6.82
353.929	6.6
354.299	6.76
354.669	6.91
355.038	6.99
355.408	7.29
355.777	6.77
356.147	6.57
356.516	6.95
356.885	7.02
357.254	7.4
357.624	6.88
357.993	6.85
358.362	6.81
358.731	6.81
359.1	6.57
359.469	6.75
359.838	7.11
360.207	6.98
360.576	7.25
360.945	6.47
361.314	7.37
361.682	7.3
362.051	6.91
362.42	7.08
362.788	7.36
363.157	7.15
363.525	6.85
363.894	7.15
364.262	7.22
364.631	7.08
364.999	6.8
365.367	6.98
365.735	7.12
366.104	6.99
366.472	7.23
366.84	7.36
367.208	7.22
367.576	7.24
367.944	7.39
368.312	7.15
368.68	7.42
369.048	7.16
369.416	7.55
369.783	7.52
370.151	7.34
370.519	6.9
370.886	7.52
371.254	7.57
371.621	7.82
371.989	7.33
372.356	7.41
372.724	7.39
373.091	7.27
373.458	7.22
373.826	7.33
374.193	7.41
374.56	7.43
374.927	7.5
375.294	7.59
375.661	7.5
376.028	7.64
376.395	7.66
376.762	7.28
377.129	7.47
377.496	7.78
377.863	7.62
378.229	7.43
378.596	7.64
378.963	7.66
379.329	7.53
379.696	7.71
380.062	7.56
380.429	7.54
380.795	7.48
381.161	7.58
381.528	8.02
381.894	7.66
382.26	7.75
382.626	7.94
382.993	7.74
383.359	7.75
383.725	7.91
384.091	7.72
384.457	7.81
384.823	7.61
385.188	7.99
385.554	7.63
385.92	7.59
386.286	8.07
386.651	7.58
387.017	7.9
387.383	7.87
387.748	7.67
388.114	7.34
388.479	7.9
388.845	7.78
389.21	8.03
389.575	7.65
389.94	7.81
390.306	8.01
390.671	8.12
391.036	7.84
391.401	7.88
391.766	8.04
392.131	7.87
392.496	7.93
392.861	8.04
393.226	7.98
393.591	7.89
393.956	8.05
394.32	8.25
394.685	7.73
395.05	8.19
395.414	8.05
395.779	7.87
396.143	7.95
396.508	7.91
396.872	7.95
397.236	8.08
397.601	7.76
397.965	7.57
398.329	8.04
398.694	8.09
399.058	7.88
399.422	8.09
399.786	8.14
400.15	7.75
400.514	8.02
400.878	8.17
401.242	8.16
401.605	8.13
401.969	8.11
402.333	8.28
402.697	8.43
403.06	8.18
403.424	8.18
403.787	7.95
404.151	8.2
404.514	8.22
404.878	8.22
405.241	8.16
405.604	8.09
405.968	8.23
406.331	8.02
406.694	8.19
407.057	8.04
407.42	8.3
407.783	8.19
408.146	8.37
408.509	8.3
408.872	8.39
409.235	8.23
409.598	8.42
409.961	8.47
410.323	8.42
410.686	8.14
411.049	8.56
411.411	8.47
411.774	8.43
412.136	8.41
412.499	8.48
412.861	8.46
413.223	8.34
413.586	8.45
413.948	8.52
414.31	8.48
414.672	8.52
415.035	8.5
415.397	8.63
415.759	8.42
416.121	8.59
416.483	8.53
416.845	8.45
417.206	8.35
417.568	8.61
417.93	8.48
418.292	8.5
418.653	8.48
419.015	8.38
419.377	8.46
419.738	8.49
420.1	8.27
420.461	8.48
420.822	8.38
421.184	8.43
421.545	8.43
421.906	8.56
422.267	8.2
422.629	8.34
422.99	8.34
423.351	8.41
423.712	8.27
424.073	8.39
424.434	8.24
424.795	8.34
425.155	8.34
425.516	8.36
425.877	8.34
426.238	8.25
426.598	8.47
426.959	8.33
427.32	8.52
427.68	8.45
428.041	8.35
428.401	8.51
428.761	8.51
429.122	8.38
429.482	8.52
429.842	8.45
430.202	8.53
430.563	8.59
430.923	8.74
431.283	8.63
431.643	8.66
432.003	8.78
432.363	8.67
432.722	8.58
433.082	8.74
433.442	8.61
433.802	8.88
434.161	8.6
434.521	8.71
434.881	8.62
435.24	8.55
435.6	8.46
435.959	8.54
436.319	8.56
436.678	8.78
437.037	8.53
437.396	8.67
437.756	8.73
438.115	8.62
438.474	8.7
438.833	8.77
439.192	8.59
439.551	8.67
439.91	8.58
440.269	8.88
440.628	8.61
440.987	8.65
441.345	8.65
441.704	8.62
442.063	8.72
442.421	8.6
442.78	8.49
443.138	8.71
443.497	8.67
443.855	8.64
444.214	8.67
444.572	8.58
444.93	8.61
445.288	8.6
445.647	8.83
446.005	8.56
446.363	8.68
446.721	8.73
447.079	8.77
447.437	8.62
447.795	8.58
448.153	8.62
448.51	8.72
448.868	8.59
449.226	8.61
449.584	8.61
449.941	8.58
450.299	8.61
450.656	8.62
451.014	8.73
451.371	8.69
451.729	8.72
452.086	8.72
452.443	8.75
452.801	8.66
453.158	8.87
453.515	8.8
453.872	8.82
454.229	8.95
454.586	8.86
454.943	8.74
455.3	8.69
455.657	8.84
456.014	8.62
456.371	8.81
456.727	8.79
457.084	8.8
457.441	8.84
457.797	8.87
458.154	8.74
458.51	8.87
458.867	8.83
459.223	8.79
459.58	8.61
459.936	8.71
460.292	8.74
460.648	8.58
461.005	8.78
461.361	8.73
461.717	8.63
462.073	8.8
462.429	8.63
462.785	8.72
463.141	8.89
463.496	8.88
463.852	8.89
464.208	8.94
464.564	8.86
464.919	8.8
465.275	9.03
465.631	8.87
465.986	8.82
466.342	8.75
466.697	8.96
467.052	8.85
467.408	8.85
467.763	9.05
468.118	9.07
468.473	8.8
468.829	8.94
469.184	8.81
469.539	8.7
469.894	8.97
470.249	8.87
470.603	8.9
470.958	8.87
471.313	9.2
471.668	8.84
472.023	9.03
472.377	9.07
472.732	8.78
473.086	8.98
473.441	8.87
473.795	9.13
474.15	8.91
474.504	8.87
474.859	8.92
475.213	8.8
475.567	8.75
475.921	8.78
476.275	8.89
476.63	8.9
476.984	8.87
477.338	8.69
477.692	8.71
478.045	8.99
478.399	9.01
478.753	8.97
479.107	8.86
479.461	8.93
479.814	8.88
480.168	9.01
480.521	9
480.875	8.83
481.228	8.99
481.582	8.92
481.935	8.97
482.289	8.96
482.642	8.84
482.995	8.82
483.348	8.86
483.701	8.82
484.055	8.8
484.408	8.78
484.761	8.7
485.114	8.67
485.466	8.53
485.819	8.49
486.172	8.42
486.525	8.41
486.878	8.4
487.23	8.47
487.583	8.49
487.936	8.6
488.288	8.65
488.641	8.7
488.993	8.69
489.345	8.56
489.698	8.56
490.05	8.47
490.402	8.52
490.754	8.46
491.107	8.5
491.459	8.6
491.811	8.59
492.163	8.68
492.515	8.73
492.866	8.75
493.218	8.65
493.57	8.66
493.922	8.64
494.274	8.59
494.625	8.57
494.977	8.67
495.328	8.63
495.68	8.73
496.031	8.62
496.383	8.88
496.734	8.81
497.086	8.83
497.437	8.85
497.788	8.78
498.139	8.93
498.49	8.84
498.842	8.75
499.193	8.87
499.544	8.89
499.894	8.88
500.245	8.77
500.596	8.86
500.947	9.04
501.298	8.76
501.648	8.73
501.999	8.9
502.35	8.83
502.7	8.97
503.051	8.87
503.401	9.01
503.752	8.86
504.102	8.98
504.452	8.92
504.803	8.98
505.153	8.82
505.503	8.99
505.853	8.93
506.203	8.87
506.553	8.88
506.903	8.94
507.253	8.86
507.603	8.95
507.953	8.96
508.303	8.95
508.652	9.05
509.002	8.87
509.352	8.99
509.701	8.96
510.051	8.89
510.4	8.94
510.75	8.86
511.099	8.9
511.449	8.94
511.798	8.96
512.147	8.77
512.496	8.8
512.846	8.82
513.195	8.89
513.544	8.79
513.893	8.84
514.242	8.85
514.591	8.85
514.939	8.77
515.288	8.83
515.637	8.98
515.986	8.93
516.334	8.89
516.683	8.89
517.032	8.69
517.38	8.87
517.729	8.89
518.077	8.88
518.426	8.77
518.774	8.76
519.122	8.82
519.47	8.85
519.819	8.83
520.167	8.79
520.515	8.74
520.863	8.78
521.211	8.77
521.559	8.84
521.907	8.76
522.255	8.8
522.602	8.88
522.95	8.81
523.298	8.68
523.645	8.76
523.993	8.86
524.341	8.82
524.688	8.8
525.036	8.85
525.383	8.78
525.73	8.92
526.078	8.83
526.425	8.91
526.772	8.83
527.119	8.78
527.466	8.71
527.814	8.7
528.161	8.78
528.508	8.64
528.854	8.64
529.201	8.59
529.548	8.65
529.895	8.61
530.242	8.58
530.588	8.44
530.935	8.46
531.282	8.48
531.628	8.48
531.975	8.45
532.321	8.52
532.667	8.58
533.014	8.68
533.36	8.67
533.706	8.68
534.052	8.81
534.399	8.67
534.745	8.63
535.091	8.59
535.437	8.58
535.783	8.54
536.129	8.62
536.474	8.64
536.82	8.71
537.166	8.64
537.512	8.65
537.857	8.78
538.203	8.67
538.549	8.69
538.894	8.63
539.239	8.63
539.585	8.64
539.93	8.65
540.276	8.75
540.621	8.68
540.966	8.75
541.311	8.72
541.656	8.76
542.001	8.85
542.346	8.73
542.691	8.65
543.036	8.65
543.381	8.57
543.726	8.46
544.071	8.47
544.415	8.53
544.76	8.53
545.105	8.59
545.449	8.58
545.794	8.69
546.138	8.61
546.483	8.68
546.827	8.66
547.171	8.74
547.516	8.66
547.86	8.75
548.204	8.65
548.548	8.73
548.892	8.62
549.236	8.71
549.58	8.71
549.924	8.49
550.268	8.61
550.612	8.73
550.956	8.97
551.3	8.85
551.643	8.69
551.987	8.93
552.33	8.69
552.674	8.83
553.017	8.71
553.361	9.01
553.704	8.78
554.048	8.75
554.391	8.8
554.734	8.84
555.077	8.71
555.42	8.63
555.764	8.74
556.107	8.8
556.45	8.76
556.793	8.62
557.135	8.5
557.478	8.46
557.821	8.73
558.164	8.79
558.507	8.7
558.849	8.85
559.192	8.86
559.534	8.87
559.877	8.47
560.219	8.89
560.562	8.86
560.904	8.56
561.246	8.84
561.589	8.61
561.931	8.8
562.273	8.92
562.615	8.73
562.957	8.74
563.299	8.69
563.641	8.83
563.983	8.67
564.325	8.51
564.667	8.71
565.008	8.61
565.35	8.61
565.692	8.59
566.033	8.78
566.375	8.76
566.716	8.74
567.058	8.63
567.399	8.79
567.741	8.68
568.082	8.58
568.423	8.74
568.764	8.57
569.105	8.66
569.447	8.75
569.788	8.62
570.129	8.54
570.47	8.68
570.811	8.71
571.151	8.65
571.492	8.78
571.833	8.97
572.174	8.77
572.514	8.5
572.855	8.7
573.195	8.61
573.536	8.51
573.876	8.64
574.217	8.56
574.557	8.65
574.898	8.45
575.238	8.36
575.578	8.52
575.918	8.43
576.258	8.53
576.598	8.8
576.938	8.51
577.278	8.55
577.618	8.47
577.958	8.36
578.298	8.41
578.638	8.36
578.977	8.54
579.317	8.39
579.657	8.43
579.996	8.57
580.336	8.75
580.675	8.56
581.014	8.51
581.354	8.48
581.693	8.69
582.032	8.7
582.372	8.54
582.711	8.68
583.05	8.69
583.389	8.65
583.728	8.35
584.067	8.73
584.406	8.64
584.745	8.63
585.083	8.43
585.422	8.33
585.761	8.41
586.1	8.73
586.438	8.3
586.777	8.6
587.115	8.56
587.454	8.48
587.792	8.74
588.13	8.51
588.469	8.63
588.807	8.07
589.145	8.27
589.483	8.21
589.821	8.42
590.159	8.58
590.497	8.5
590.835	8.31
591.173	8.26
591.511	8.47
591.849	8.37
592.187	8.29
592.524	8.24
592.862	8.35
593.2	8.69
593.537	8.31
593.875	8.41
594.212	8.52
594.55	8.4
594.887	8.43
595.224	8.32
595.561	8.25
595.899	8.35
596.236	8.43
596.573	8.33
596.91	8.52
597.247	8.32
597.584	8.01
597.921	8.6
598.258	8.43
598.594	8.51
598.931	8.29
599.268	8.02
599.604	8.26
599.941	8.09
600.277	7.92
600.614	8.36
600.95	8.22
601.287	8.22
601.623	8.33
601.959	8.62
602.296	8.37
602.632	8.4
602.968	8.05
603.304	8.46
603.64	8.33
603.976	8.16
604.312	8.7
604.648	8.43
604.984	8.52
605.319	8.24
605.655	8.22
605.991	8.2
606.326	8.3
606.662	8.05
606.998	8.04
607.333	8.11
607.668	7.96
608.004	8.09
608.339	8.08
608.674	8.26
609.01	8.41
609.345	8.33
609.68	8.03
610.015	8.19
610.35	8.11
610.685	8.46
611.02	8
611.355	8.01
611.689	7.96
612.024	8.19
612.359	8.23
612.694	8.22
613.028	8.26
613.363	8.28
613.697	8.15
614.032	8.39
614.366	7.91
614.7	8.23
615.035	8.12
615.369	8.28
615.703	8.12
616.037	8.09
616.371	8.43
616.705	8.29
617.039	8.32
617.373	7.94
617.707	8.27
618.041	8.37
618.375	7.94
618.709	8.27
619.042	8.27
619.376	8.37
619.71	8.27
620.043	8.35
620.377	8.13
620.71	8.2
621.043	8.39
621.377	7.85
621.71	7.92
622.043	7.72
622.376	8.3
622.709	8.4
623.043	8.08
623.376	7.68
623.709	8.02
624.041	7.86
624.374	8.16
624.707	8.09
625.04	8.16
625.373	8.28
625.705	8.08
626.038	8.47
626.37	7.72
626.703	8.01
627.035	7.84
627.368	8.08
627.7	8.08
628.032	8.05
628.365	8.19
628.697	7.8
629.029	7.79
629.361	8.06
629.693	7.84
630.025	7.98
630.357	7.88
630.689	7.84
631.021	8.1
631.353	8.17
631.684	7.55
632.016	8.13
632.348	7.81
632.679	7.93
633.011	8.23
633.342	7.94
633.674	7.98
634.005	7.97
634.336	8.52
634.668	7.62
634.999	8.07
635.33	7.69
635.661	8.19
635.992	8.32
636.323	8.2
636.654	8.04
636.985	7.98
637.316	8.17
637.647	7.65
637.977	7.57
638.308	7.66
638.639	7.87
638.969	7.93
639.3	7.45
639.63	8.01
639.961	7.88
640.291	7.79
640.622	7.78
640.952	8.02
641.282	7.77
641.612	7.93
641.943	8.05
642.273	7.46
642.603	8.01
642.933	7.71
643.263	8.2
643.592	7.7
643.922	8.16
644.252	7.67
644.582	7.7
644.911	8.05
645.241	8.06
645.571	8.34
645.9	7.51
646.23	7.54
646.559	7.58
646.888	7.48
647.218	7.97
647.547	7.94
647.876	8.14
648.205	7.85
648.534	7.86
648.863	8.24
649.192	7.67
649.521	7.97
649.85	7.62
650.179	7.88
650.508	7.9
650.837	8.18
651.165	7.7
651.494	7.31
651.822	7.99
652.151	8.06
652.479	8.11
652.808	7.7
653.136	7.9
653.465	8.06
653.793	7.51
654.121	7.89
654.449	8.02
654.777	7.92
655.105	8.04
655.433	7.96
655.761	8.06
656.089	8.14
656.417	7.77
656.745	7.86
657.073	7.81
657.4	8
657.728	8.16
658.056	7.63
658.383	7.88
658.711	7.7
659.038	8.18
659.365	7.86
659.693	8.33
660.02	7.33
660.347	7.47
660.674	7.55
661.001	7.93
661.329	7.88
661.656	7.92
661.982	7.88
662.309	7.86
662.636	7.78
662.963	8.06
663.29	8.04
663.616	7.92
663.943	7.61
664.27	7.77
664.596	7.96
664.923	7.45
665.249	7.65
665.576	7.73
665.902	7.42
666.228	7.75
666.554	8.05
666.881	7.6
667.207	7.89
667.533	7.67
667.859	8.09
668.185	8.12
668.511	8.04
668.837	8.28
669.162	8.1
669.488	8.21
669.814	7.48
670.139	7.78
670.465	7.62
670.791	8.33
671.116	7.81
671.442	7.49
671.767	7.65
672.092	8.12
672.418	8.08
672.743	7.98
673.068	7.93
673.393	7.67
673.718	7.54
674.043	7.51
674.368	7.79
674.693	8.14
675.018	8.58
675.343	7.9
675.667	7.65
675.992	7.67
676.317	7.94
676.641	8.21
676.966	7.85
677.29	7.89
677.615	8
677.939	7.63
678.264	7.5
678.588	7.4
678.912	8.52
679.236	8.23
679.56	7.44
679.885	8.26
680.209	7.97
680.532	7.75
680.856	7.73
681.18	7.62
681.504	7.88
681.828	8.37
682.152	7.81
682.475	7.91
682.799	8.06
683.122	8.15
683.446	7.95
683.769	8.09
684.093	8.2
684.416	7.89
684.739	7.27
685.062	7.15
685.386	7.93
685.709	7.25
686.032	7.49
686.355	7.87
686.678	7.86
687.001	8.14
687.324	7.17
687.646	7.7
687.969	8.06
688.292	7.69
688.614	7.74
688.937	8.34
689.26	7.68
689.582	7.4
689.904	7.55
690.227	8.03
690.549	7.12
690.871	8.28
691.194	7.31
691.516	7.99
