Data from 0273_forehead_Reflection__0__256.txt Node

Date: Fri Oct 20 22:42:24 CDT 2023
User: ToomeyLab
Spectrometer: FLMS14357
Trigger mode: 0
Integration Time (sec): 1.000000E-2
Scans to average: 100
Electric dark correction enabled: true
Nonlinearity correction enabled: false
Boxcar width: 0
XAxis mode: Wavelengths
Number of Pixels in Spectrum: 2048
>>>>>Begin Spectral Data<<<<<
189.047	-239.97
189.435	-239.97
189.823	-239.97
190.211	361.03
190.599	52.65
190.987	40.65
191.375	-11.95
191.763	207.24
192.151	147.23
192.538	-120.86
192.926	-57.29
193.314	88.78
193.702	169.93
194.089	233.13
194.477	86.22
194.864	19.75
195.252	45.2
195.639	374.15
196.027	67.4
196.414	-126.72
196.801	34.28
197.189	15.16
197.576	59.13
197.963	-150.67
198.351	30.74
198.738	-8.33
199.125	40.54
199.512	26.76
199.899	21.37
200.286	-17.78
200.673	25.37
201.06	16.83
201.447	17.07
201.833	58.91
202.22	59.43
202.607	29.66
202.994	33.67
203.38	19.92
203.767	58.2
204.154	26.4
204.54	66.06
204.927	17.57
205.313	-16.23
205.699	36.19
206.086	17.03
206.472	27.71
206.858	19.67
207.245	18.44
207.631	20.28
208.017	29.81
208.403	-0.35
208.789	55.17
209.175	-7.64
209.561	10.2
209.947	-3.77
210.333	18.55
210.719	19.76
211.105	1.87
211.491	19.93
211.876	11
212.262	45.6
212.648	26.9
213.034	21.01
213.419	-5.98
213.805	13.17
214.19	32.51
214.576	17.36
214.961	6.02
215.346	22.45
215.732	-7.64
216.117	-20.95
216.502	2.53
216.888	9.4
217.273	-7.36
217.658	-8.31
218.043	3.09
218.428	6.28
218.813	15.16
219.198	15.2
219.583	8.21
219.968	1.17
220.353	6.78
220.738	27.1
221.122	11.49
221.507	13.65
221.892	5.3
222.276	6.95
222.661	17.74
223.046	15.16
223.43	0.51
223.815	0.75
224.199	17.72
224.583	-10.18
224.968	-5.7
225.352	-3.18
225.736	3.38
226.121	2.64
226.505	-1.2
226.889	15.81
227.273	9.85
227.657	8.19
228.041	3.7
228.425	1.35
228.809	3.81
229.193	2.06
229.577	4.36
229.961	0.72
230.344	2.22
230.728	2.46
231.112	2.68
231.495	1.64
231.879	2.42
232.263	2.38
232.646	0.96
233.03	3.09
233.413	0.65
233.797	1.06
234.18	3
234.563	4.5
234.946	4.09
235.33	0.39
235.713	2.86
236.096	2.9
236.479	3.17
236.862	2.78
237.245	1.57
237.628	2.29
238.011	4.18
238.394	1.37
238.777	2.65
239.16	3.17
239.543	4.92
239.925	5.29
240.308	1.72
240.691	2.42
241.073	3.47
241.456	3.18
241.838	3.57
242.221	3.83
242.603	3.23
242.986	2.06
243.368	2.46
243.75	2.19
244.133	1.96
244.515	1.91
244.897	2.04
245.279	2.35
245.661	1.47
246.043	2.02
246.425	2.41
246.807	2.85
247.189	1.88
247.571	1.69
247.953	1.94
248.335	2.74
248.717	2.01
249.098	2.08
249.48	1.72
249.862	2.2
250.243	2.35
250.625	2.22
251.006	2.44
251.388	2.92
251.769	2.23
252.151	1.59
252.532	2.42
252.913	2.34
253.295	1.09
253.676	2.57
254.057	1.91
254.438	2.04
254.819	2.45
255.2	1.3
255.581	1.43
255.962	2.32
256.343	2.4
256.724	0.56
257.105	3.4
257.486	2.73
257.867	1.66
258.247	2.6
258.628	3.22
259.009	2.25
259.389	1.52
259.77	1.78
260.15	2.3
260.531	2.5
260.911	1.89
261.292	2.02
261.672	2.19
262.052	2.31
262.432	2.16
262.813	1.85
263.193	2.69
263.573	1.82
263.953	2.84
264.333	2.51
264.713	2.39
265.093	2.26
265.473	2.77
265.853	2.14
266.233	2.17
266.612	2.39
266.992	2.57
267.372	2.31
267.752	1.82
268.131	2.25
268.511	2.09
268.89	1.79
269.27	2.08
269.649	2.12
270.029	1.7
270.408	2.4
270.787	2.29
271.167	1.82
271.546	2.7
271.925	2.71
272.304	2.53
272.683	2.28
273.062	2.01
273.441	2.39
273.82	2.25
274.199	2.69
274.578	1.91
274.957	2.4
275.336	2.25
275.715	2.56
276.093	2.03
276.472	2.45
276.851	2.38
277.229	2.54
277.608	1.86
277.986	1.51
278.365	2.39
278.743	1.97
279.122	2.25
279.5	2.38
279.878	2.14
280.257	1.77
280.635	2.33
281.013	2.69
281.391	2.45
281.769	2.03
282.147	2.05
282.525	1.85
282.903	2.28
283.281	1.96
283.659	1.93
284.037	2.24
284.415	1.92
284.792	1.96
285.17	2.12
285.548	2.31
285.925	1.84
286.303	2.03
286.68	1.73
287.058	2.6
287.435	2.12
287.813	1.98
288.19	2.03
288.567	2.12
288.945	2.33
289.322	2.55
289.699	1.89
290.076	2.66
290.453	2.25
290.83	1.95
291.207	2.96
291.584	2.19
291.961	2.16
292.338	1.91
292.715	1.82
293.092	2.21
293.469	2.61
293.845	1.99
294.222	2.44
294.599	2.34
294.975	3.26
295.352	2.65
295.728	2.81
296.105	2.2
296.481	2.72
296.858	2.68
297.234	2.58
297.61	2.16
297.986	2.37
298.363	2.43
298.739	2.43
299.115	2.25
299.491	2.82
299.867	2.72
300.243	2.92
300.619	2.79
300.995	2.6
301.371	3.07
301.746	2.62
302.122	3.05
302.498	2.51
302.874	2.97
303.249	3.16
303.625	3.12
304	3.37
304.376	2.91
304.751	2.15
305.127	2.8
305.502	3.41
305.878	3.06
306.253	3.18
306.628	3.39
307.003	3.19
307.378	2.9
307.754	3.13
308.129	3.83
308.504	3.44
308.879	3.56
309.254	3.76
309.629	2.84
310.003	3.08
310.378	3.78
310.753	3.03
311.128	3.45
311.502	3.49
311.877	3.41
312.252	3.5
312.626	4.03
313.001	3.29
313.375	3.68
313.75	3.5
314.124	3.44
314.498	3.78
314.873	3.11
315.247	3.66
315.621	3.74
315.995	4.1
316.369	3.36
316.743	3.77
317.117	3.98
317.491	2.98
317.865	4.41
318.239	4.58
318.613	4
318.987	3.84
319.361	3.38
319.734	4.11
320.108	3.88
320.482	3.97
320.855	4.21
321.229	5.13
321.602	4.28
321.976	4.24
322.349	5.1
322.723	4.62
323.096	4.5
323.469	4.14
323.843	4.36
324.216	4.71
324.589	4.49
324.962	4.88
325.335	4.95
325.708	4.41
326.081	4.97
326.454	4.97
326.827	4.99
327.2	4.91
327.573	4.76
327.945	4.63
328.318	4.74
328.691	5.09
329.063	5.74
329.436	4.84
329.809	5.16
330.181	5.58
330.553	5.62
330.926	5.33
331.298	4.54
331.671	5.32
332.043	4.95
332.415	5.24
332.787	5.24
333.159	4.48
333.532	5.47
333.904	5.68
334.276	5.25
334.648	6
335.02	5.6
335.391	5.14
335.763	5.99
336.135	5.44
336.507	5.59
336.879	5.14
337.25	5.43
337.622	6.08
337.993	6.03
338.365	6.23
338.736	5.64
339.108	6.17
339.479	5.44
339.851	5.76
340.222	5.65
340.593	5.1
340.964	5.5
341.336	6.09
341.707	6.04
342.078	5.71
342.449	5.91
342.82	5.9
343.191	5.96
343.562	5.78
343.933	5.91
344.303	5.69
344.674	6.13
345.045	5.87
345.416	6.31
345.786	6.02
346.157	6.02
346.527	5.8
346.898	6.28
347.268	6.23
347.639	6.84
348.009	6.17
348.38	6.59
348.75	6.54
349.12	6.02
349.49	6.15
349.861	6.75
350.231	6.13
350.601	6.48
350.971	6.94
351.341	6.54
351.711	7.14
352.081	6.79
352.45	6.44
352.82	7.14
353.19	6.63
353.56	6.83
353.929	6.72
354.299	6.68
354.669	6.83
355.038	7.15
355.408	7.34
355.777	7.12
356.147	6.67
356.516	6.85
356.885	7.04
357.254	7.13
357.624	7.13
357.993	6.84
358.362	7.09
358.731	6.91
359.1	6.73
359.469	7.03
359.838	7.16
360.207	7.17
360.576	7.49
360.945	7.03
361.314	7.64
361.682	7.45
362.051	7.15
362.42	7.22
362.788	7.72
363.157	7.49
363.525	7.39
363.894	7.35
364.262	7.3
364.631	7.6
364.999	7.49
365.367	7.58
365.735	7.36
366.104	7.69
366.472	7.78
366.84	7.9
367.208	7.95
367.576	7.87
367.944	8.15
368.312	7.94
368.68	7.97
369.048	7.61
369.416	8.15
369.783	8.31
370.151	8.3
370.519	8.04
370.886	8.15
371.254	8.41
371.621	8.61
371.989	8.3
372.356	8.4
372.724	8.55
373.091	8.62
373.458	8.21
373.826	8.07
374.193	8.12
374.56	8.48
374.927	8.44
375.294	8.78
375.661	8.79
376.028	8.8
376.395	8.71
376.762	8.31
377.129	8.58
377.496	8.7
377.863	8.91
378.229	8.85
378.596	8.97
378.963	8.99
379.329	9.12
379.696	9.09
380.062	9.14
380.429	8.77
380.795	8.9
381.161	8.93
381.528	9.34
381.894	8.93
382.26	9.13
382.626	9.47
382.993	9.13
383.359	9.28
383.725	9.39
384.091	9.32
384.457	9.65
384.823	9.19
385.188	9.6
385.554	9.53
385.92	9.51
386.286	9.39
386.651	9.42
387.017	9.58
387.383	9.71
387.748	9.52
388.114	9.39
388.479	9.77
388.845	9.95
389.21	9.61
389.575	9.6
389.94	9.7
390.306	9.64
390.671	10.04
391.036	10.2
391.401	10.06
391.766	10.16
392.131	10.18
392.496	10.19
392.861	10.14
393.226	10.12
393.591	10.22
393.956	10.4
394.32	10.61
394.685	10.27
395.05	10.46
395.414	10.2
395.779	10.15
396.143	10.31
396.508	10.63
396.872	10.6
397.236	10.55
397.601	10.6
397.965	10.61
398.329	10.58
398.694	10.49
399.058	10.79
399.422	10.57
399.786	10.82
400.15	10.73
400.514	10.82
400.878	11.03
401.242	10.81
401.605	11.16
401.969	11
402.333	11.08
402.697	11.35
403.06	11.13
403.424	10.93
403.787	11.05
404.151	11.23
404.514	11.29
404.878	11.37
405.241	11.25
405.604	11.17
405.968	11.29
406.331	11.23
406.694	11.43
407.057	11.48
407.42	11.56
407.783	11.45
408.146	11.56
408.509	11.67
408.872	11.82
409.235	11.51
409.598	11.83
409.961	11.88
410.323	11.93
410.686	11.78
411.049	11.94
411.411	11.78
411.774	11.98
412.136	11.63
412.499	11.96
412.861	12.05
413.223	11.98
413.586	11.92
413.948	12.12
414.31	12.16
414.672	12.01
415.035	12.39
415.397	12.25
415.759	12.55
416.121	12.31
416.483	12.42
416.845	12.3
417.206	12.45
417.568	12.76
417.93	12.65
418.292	12.39
418.653	12.45
419.015	12.53
419.377	12.61
419.738	12.45
420.1	12.35
420.461	12.39
420.822	12.47
421.184	12.47
421.545	12.61
421.906	12.63
422.267	12.62
422.629	12.65
422.99	12.48
423.351	12.59
423.712	12.62
424.073	12.71
424.434	12.78
424.795	12.77
425.155	12.8
425.516	12.81
425.877	12.88
426.238	12.83
426.598	12.9
426.959	12.97
427.32	13.03
427.68	13.13
428.041	13.02
428.401	13.22
428.761	13.37
429.122	13.48
429.482	13.5
429.842	13.53
430.202	13.69
430.563	13.8
430.923	13.67
431.283	13.8
431.643	13.93
432.003	14.06
432.363	13.66
432.722	13.98
433.082	14.01
433.442	13.85
433.802	14.06
434.161	13.97
434.521	14.17
434.881	14.09
435.24	14
435.6	14.24
435.959	14.17
436.319	14.17
436.678	14.24
437.037	14.23
437.396	14.45
437.756	14.54
438.115	14.39
438.474	14.47
438.833	14.51
439.192	14.41
439.551	14.68
439.91	14.7
440.269	14.78
440.628	14.65
440.987	14.74
441.345	14.55
441.704	14.75
442.063	14.78
442.421	14.6
442.78	14.76
443.138	14.94
443.497	14.85
443.855	14.88
444.214	14.84
444.572	14.97
444.93	15.2
445.288	15.23
445.647	15.29
446.005	15.16
446.363	15.26
446.721	15.28
447.079	15.33
447.437	15.26
447.795	15.18
448.153	15.2
448.51	15.25
448.868	15.19
449.226	15.24
449.584	15.37
449.941	15.47
450.299	15.48
450.656	15.59
451.014	15.79
451.371	15.77
451.729	15.84
452.086	16.06
452.443	16
452.801	15.98
453.158	16.06
453.515	16.06
453.872	16.25
454.229	16.25
454.586	16.21
454.943	16.05
455.3	16.1
455.657	16.37
456.014	16.22
456.371	16.43
456.727	16.5
457.084	16.38
457.441	16.76
457.797	16.61
458.154	16.65
458.51	16.59
458.867	16.9
459.223	16.66
459.58	16.84
459.936	16.82
460.292	16.85
460.648	16.78
461.005	16.78
461.361	16.75
461.717	16.58
462.073	16.75
462.429	16.73
462.785	16.73
463.141	17.01
463.496	17.02
463.852	17.25
464.208	17.18
464.564	17.22
464.919	17.44
465.275	17.71
465.631	17.59
465.986	17.59
466.342	17.63
466.697	17.7
467.052	17.61
467.408	17.75
467.763	17.71
468.118	17.95
468.473	17.71
468.829	17.76
469.184	17.82
469.539	17.74
469.894	17.92
470.249	18
470.603	18.04
470.958	18.17
471.313	18.22
471.668	18.16
472.023	18.41
472.377	18.24
472.732	18.07
473.086	18.33
473.441	18.53
473.795	18.75
474.15	18.46
474.504	18.31
474.859	18.28
475.213	18.56
475.567	18.57
475.921	18.63
476.275	18.69
476.63	18.95
476.984	18.96
477.338	18.7
477.692	18.74
478.045	18.92
478.399	19.04
478.753	19.08
479.107	18.91
479.461	19.02
479.814	19.15
480.168	19.05
480.521	19.16
480.875	18.98
481.228	19.1
481.582	19.27
481.935	19.21
482.289	19.41
482.642	19.28
482.995	19.28
483.348	19.24
483.701	19.13
484.055	19.18
484.408	19.09
484.761	18.94
485.114	18.87
485.466	18.6
485.819	18.45
486.172	18.44
486.525	18.46
486.878	18.57
487.23	18.72
487.583	18.84
487.936	19.05
488.288	19.26
488.641	19.27
488.993	19.08
489.345	19.05
489.698	19.07
490.05	18.99
490.402	18.94
490.754	19.23
491.107	19.4
491.459	19.53
491.811	19.71
492.163	19.72
492.515	19.93
492.866	19.87
493.218	19.81
493.57	19.58
493.922	19.56
494.274	19.65
494.625	19.77
494.977	19.91
495.328	20.09
495.68	20.37
496.031	20.39
496.383	20.61
496.734	20.67
497.086	20.87
497.437	20.95
497.788	20.8
498.139	20.9
498.49	20.87
498.842	20.85
499.193	20.84
499.544	20.95
499.894	20.92
500.245	20.97
500.596	20.98
500.947	21.24
501.298	21.16
501.648	21.21
501.999	21.37
502.35	21.4
502.7	21.44
503.051	21.53
503.401	21.54
503.752	21.6
504.102	21.71
504.452	21.74
504.803	21.81
505.153	21.72
505.503	21.84
505.853	21.98
506.203	21.83
506.553	21.96
506.903	21.67
507.253	21.92
507.603	21.92
507.953	22.16
508.303	22.11
508.652	22.17
509.002	22.28
509.352	22.38
509.701	22.22
510.051	22.14
510.4	22.22
510.75	22.16
511.099	22.2
511.449	22.25
511.798	22.29
512.147	22.33
512.496	22.21
512.846	22.45
513.195	22.47
513.544	22.5
513.893	22.45
514.242	22.61
514.591	22.51
514.939	22.48
515.288	22.72
515.637	22.76
515.986	22.86
516.334	22.91
516.683	22.81
517.032	22.93
517.38	22.85
517.729	23.07
518.077	23.03
518.426	23.2
518.774	22.91
519.122	23
519.47	23.02
519.819	23.16
520.167	23.02
520.515	22.96
520.863	22.92
521.211	22.86
521.559	22.89
521.907	23.13
522.255	23.21
522.602	23.38
522.95	23.45
523.298	23.44
523.645	23.66
523.993	23.67
524.341	23.85
524.688	23.6
525.036	23.82
525.383	23.78
525.73	23.91
526.078	23.87
526.425	23.92
526.772	23.79
527.119	23.58
527.466	23.59
527.814	23.63
528.161	23.44
528.508	23.57
528.854	23.51
529.201	23.63
529.548	23.62
529.895	23.55
530.242	23.28
530.588	23.17
530.935	23.13
531.282	23.27
531.628	23.3
531.975	23.42
532.321	23.59
532.667	23.69
533.014	23.93
533.36	23.95
533.706	24.19
534.052	24.25
534.399	24.21
534.745	24.12
535.091	24.02
535.437	23.88
535.783	23.96
536.129	24.01
536.474	24.17
536.82	24.33
537.166	24.55
537.512	24.7
537.857	24.76
538.203	24.71
538.549	24.9
538.894	24.62
539.239	24.61
539.585	24.78
539.93	24.97
540.276	25.26
540.621	25.08
540.966	25.25
541.311	25.45
541.656	25.38
542.001	25.28
542.346	25.34
542.691	25.16
543.036	25.02
543.381	24.66
543.726	24.6
544.071	24.78
544.415	24.83
544.76	24.93
545.105	25.09
545.449	25.15
545.794	25.35
546.138	25.38
546.483	25.55
546.827	25.71
547.171	25.91
547.516	25.81
547.86	26.03
548.204	25.81
548.548	25.99
548.892	25.77
549.236	25.95
549.58	25.87
549.924	25.99
550.268	26.29
550.612	26.22
550.956	26.58
551.3	26.64
551.643	26.73
551.987	26.77
552.33	26.68
552.674	27.06
553.017	26.93
553.361	27.1
553.704	27.21
554.048	27.09
554.391	27
554.734	27.01
555.077	26.92
555.42	26.95
555.764	27.04
556.107	27.29
556.45	27.27
556.793	27.14
557.135	27.21
557.478	27.36
557.821	27.43
558.164	27.61
558.507	27.71
558.849	27.74
559.192	27.89
559.534	28
559.877	27.67
560.219	27.72
560.562	27.77
560.904	27.88
561.246	27.83
561.589	27.83
561.931	28.1
562.273	28.25
562.615	28.17
562.957	28.21
563.299	28.15
563.641	28.1
563.983	28.05
564.325	28.08
564.667	28.27
565.008	28.11
565.35	28.1
565.692	28.24
566.033	28.46
566.375	28.58
566.716	28.43
567.058	28.45
567.399	28.49
567.741	28.62
568.082	28.61
568.423	28.34
568.764	28.44
569.105	28.68
569.447	28.47
569.788	28.51
570.129	28.67
570.47	28.47
570.811	28.86
571.151	28.91
571.492	28.76
571.833	29.06
572.174	28.88
572.514	29.12
572.855	28.98
573.195	29.02
573.536	29.11
573.876	29.17
574.217	29.02
574.557	28.86
574.898	28.78
575.238	29.01
575.578	29.05
575.918	29.02
576.258	29.33
576.598	29.52
576.938	29.42
577.278	29.39
577.618	29.25
577.958	29.49
578.298	29.43
578.638	29.39
578.977	29.56
579.317	29.59
579.657	29.89
579.996	29.93
580.336	29.72
580.675	30.05
581.014	29.87
581.354	30.27
581.693	30.31
582.032	30.46
582.372	30.32
582.711	30.46
583.05	30.71
583.389	30.28
583.728	30.37
584.067	30.56
584.406	30.41
584.745	30.96
585.083	30.59
585.422	30.46
585.761	30.67
586.1	30.65
586.438	30.11
586.777	31.1
587.115	30.86
587.454	30.9
587.792	30.89
588.13	31.09
588.469	31.04
588.807	30.58
589.145	31.12
589.483	31.01
589.821	31.03
590.159	31.42
590.497	31.16
590.835	30.95
591.173	31.17
591.511	31.02
591.849	31.12
592.187	31.28
592.524	31.13
592.862	31.53
593.2	31.53
593.537	31.28
593.875	31.69
594.212	31.68
594.55	31.59
594.887	31.98
595.224	31.48
595.561	31.44
595.899	31.46
596.236	31.69
596.573	31.47
596.91	31.6
597.247	31.53
597.584	31.66
597.921	31.95
598.258	32.18
598.594	31.6
598.931	31.66
599.268	31.53
599.604	31.85
599.941	31.89
600.277	31.7
600.614	31.96
600.95	32.2
601.287	32.2
601.623	32.1
601.959	32.32
602.296	32.37
602.632	32.34
602.968	32.63
603.304	32.53
603.64	32.94
603.976	32.63
604.312	32.51
604.648	32.53
604.984	32.72
605.319	32.58
605.655	32.46
605.991	32.46
606.326	32.43
606.662	32.17
606.998	32.48
607.333	32.46
607.668	32.32
608.004	32.45
608.339	32.57
608.674	32.94
609.01	32.77
609.345	33.16
609.68	33.15
610.015	33.26
610.35	32.92
610.685	33.62
611.02	32.92
611.355	32.93
611.689	32.83
612.024	33.04
612.359	33.23
612.694	33.35
613.028	33.21
613.363	33.42
613.697	33.43
614.032	33.49
614.366	33.52
614.7	33.51
615.035	34.01
615.369	33.4
615.703	33.89
616.037	33.97
616.371	33.81
616.705	33.77
617.039	34.1
617.373	34.18
617.707	34.35
618.041	34.26
618.375	34.03
618.709	33.89
619.042	34.14
619.376	34.26
619.71	34.63
620.043	34.43
620.377	33.8
620.71	34.55
621.043	34.76
621.377	33.88
621.71	34.51
622.043	34.46
622.376	34.59
622.709	34.56
623.043	34.45
623.376	34.61
623.709	34.55
624.041	35.16
624.374	35.23
624.707	34.3
625.04	34.77
625.373	34.67
625.705	35.06
626.038	35.14
626.37	34.81
626.703	34.81
627.035	34.48
627.368	35.03
627.7	35.06
628.032	34.89
628.365	34.98
628.697	34.85
629.029	35.41
629.361	35.11
629.693	35.2
630.025	35.41
630.357	35.27
630.689	35.12
631.021	35.68
631.353	35.17
631.684	35.55
632.016	35.54
632.348	35.71
632.679	35.74
633.011	35.38
633.342	35.47
633.674	35.35
634.005	35.58
634.336	35.58
634.668	35.93
634.999	35.94
635.33	35.33
635.661	36.41
635.992	36.03
636.323	35.88
636.654	35.82
636.985	35.75
637.316	36.06
637.647	36.16
637.977	35.78
638.308	35.91
638.639	36.03
638.969	36.11
639.3	35.72
639.63	36.07
639.961	36.4
640.291	36.01
640.622	36.09
640.952	36.39
641.282	36.15
641.612	36.13
641.943	36.31
642.273	36.66
642.603	36.62
642.933	36.99
643.263	36.65
643.592	36.96
643.922	36.78
644.252	36.85
644.582	36.7
644.911	36.78
645.241	36.75
645.571	37.6
645.9	36.96
646.23	36.92
646.559	36.99
646.888	37.44
647.218	37.55
647.547	36.92
647.876	37.22
648.205	37.03
648.534	37.55
648.863	37.39
649.192	37.32
649.521	37.31
649.85	37.37
650.179	37.22
650.508	37.6
650.837	37.3
651.165	37.53
651.494	37.55
651.822	37.06
652.151	37.65
652.479	37.73
652.808	37.46
653.136	37.41
653.465	37.75
653.793	37.64
654.121	38.17
654.449	37.78
654.777	37.68
655.105	38.24
655.433	38
655.761	37.88
656.089	38.05
656.417	37.69
656.745	38.5
657.073	37.49
657.4	38.56
657.728	38.66
658.056	38.45
658.383	37.95
658.711	37.68
659.038	38.06
659.365	38.65
659.693	37.61
660.02	38.86
660.347	38.08
660.674	38.1
661.001	37.6
661.329	38.48
661.656	38.45
661.982	37.87
662.309	38.48
662.636	38.68
662.963	38.08
663.29	38.86
663.616	38.48
663.943	38.83
664.27	38.6
664.596	38.54
664.923	38.71
665.249	39.1
665.576	38.93
665.902	38.62
666.228	39.42
666.554	38.58
666.881	38.67
667.207	38.9
667.533	38.43
667.859	39.37
668.185	39.11
668.511	39.94
668.837	40.23
669.162	39.55
669.488	39.38
669.814	39.02
670.139	38.89
670.465	39.79
670.791	39.78
671.116	39.54
671.442	39.81
671.767	40.07
672.092	39.34
672.418	39.81
672.743	39.08
673.068	40.27
673.393	39.4
673.718	39.44
