Data from 0273_chest_Reflection__3__249.txt Node

Date: Fri Oct 20 22:39:08 CDT 2023
User: ToomeyLab
Spectrometer: FLMS14357
Trigger mode: 0
Integration Time (sec): 1.000000E-2
Scans to average: 100
Electric dark correction enabled: true
Nonlinearity correction enabled: false
Boxcar width: 0
XAxis mode: Wavelengths
Number of Pixels in Spectrum: 2048
>>>>>Begin Spectral Data<<<<<
189.047	431.65
189.435	431.65
189.823	431.65
190.211	1993.43
190.599	125.08
190.987	60.5
191.375	16.25
191.763	99.53
192.151	-74.05
192.538	73.32
192.926	48.4
193.314	77.85
193.702	107.38
194.089	317.67
194.477	26.48
194.864	419.83
195.252	177.15
195.639	517.92
196.027	-128.7
196.414	-40.23
196.801	58.37
197.189	-29.9
197.576	78.2
197.963	8.87
198.351	47.14
198.738	-10.14
199.125	36.18
199.512	64.26
199.899	20.88
200.286	4.52
200.673	33.71
201.06	-0.22
201.447	14.04
201.833	27.48
202.22	6.06
202.607	49.8
202.994	19.03
203.38	7.61
203.767	45.03
204.154	25.61
204.54	41.07
204.927	5.03
205.313	-1.86
205.699	19.32
206.086	16.97
206.472	47.3
206.858	23.09
207.245	13.09
207.631	19.99
208.017	43.89
208.403	14.79
208.789	35.49
209.175	17.74
209.561	-10.17
209.947	8.59
210.333	44.28
210.719	-12.76
211.105	18
211.491	24.4
211.876	25.7
212.262	23.42
212.648	22.29
213.034	15.46
213.419	-2.09
213.805	11.07
214.19	-15.65
214.576	12.36
214.961	-5.12
215.346	8.42
215.732	22.09
216.117	-43.11
216.502	1.92
216.888	12.37
217.273	-6.45
217.658	-19.3
218.043	-7.6
218.428	2.82
218.813	16.7
219.198	18.42
219.583	-3.33
219.968	1.65
220.353	34.47
220.738	-20.62
221.122	14.06
221.507	2.81
221.892	15.65
222.276	4.46
222.661	25.45
223.046	-0.46
223.43	1.53
223.815	14.72
224.199	19.23
224.583	-7.83
224.968	-3.93
225.352	2.91
225.736	-0.85
226.121	6.38
226.505	-2.17
226.889	2.7
227.273	6.16
227.657	0.17
228.041	8.43
228.425	2.68
228.809	2.61
229.193	4.66
229.577	3.22
229.961	2.08
230.344	3.04
230.728	2.11
231.112	3.45
231.495	2.38
231.879	3.03
232.263	3.53
232.646	1.55
233.03	1.67
233.413	1.66
233.797	3.35
234.18	2.33
234.563	4.73
234.946	4.81
235.33	1.89
235.713	2.69
236.096	4.29
236.479	3.57
236.862	2.53
237.245	2.01
237.628	0.97
238.011	3.49
238.394	2.46
238.777	3.79
239.16	2.62
239.543	4.11
239.925	3.93
240.308	2.46
240.691	2.58
241.073	4.49
241.456	2.68
241.838	2.86
242.221	3.96
242.603	2.69
242.986	2.91
243.368	3.68
243.75	2.78
244.133	2.51
244.515	2.49
244.897	2.27
245.279	3.26
245.661	2.69
246.043	1.68
246.425	1.31
246.807	3.35
247.189	2.44
247.571	2.39
247.953	2.69
248.335	2.74
248.717	2.4
249.098	2.32
249.48	2.45
249.862	2.46
250.243	2.86
250.625	2.55
251.006	3.05
251.388	2.32
251.769	3.03
252.151	2.53
252.532	3.19
252.913	1.97
253.295	1.84
253.676	2.19
254.057	2.79
254.438	2.78
254.819	2.68
255.2	2.25
255.581	2.17
255.962	2.16
256.343	3.14
256.724	2.24
257.105	2.65
257.486	2.79
257.867	2.36
258.247	2.74
258.628	2.66
259.009	2.66
259.389	2.22
259.77	2.13
260.15	2.85
260.531	3.14
260.911	2.84
261.292	2.53
261.672	2.59
262.052	2.85
262.432	2.64
262.813	2.51
263.193	2.51
263.573	2.29
263.953	2.84
264.333	2.49
264.713	2.99
265.093	3.44
265.473	3.34
265.853	2.67
266.233	3.27
266.612	3.11
266.992	2.6
267.372	2.41
267.752	3.02
268.131	3.02
268.511	2.84
268.89	2.28
269.27	2.34
269.649	2.01
270.029	2.14
270.408	2.96
270.787	2.43
271.167	2.59
271.546	2.63
271.925	3.08
272.304	3.08
272.683	2.57
273.062	2.74
273.441	2.63
273.82	2.61
274.199	2.63
274.578	2.76
274.957	2.57
275.336	2.52
275.715	2.88
276.093	2.37
276.472	2.51
276.851	2.38
277.229	2.64
277.608	2.11
277.986	2.23
278.365	2.56
278.743	2.03
279.122	2.39
279.5	2.33
279.878	1.95
280.257	2.16
280.635	2.4
281.013	2.92
281.391	2.77
281.769	2.42
282.147	2.41
282.525	2.87
282.903	2.5
283.281	3.11
283.659	3.14
284.037	2.91
284.415	2.12
284.792	2.22
285.17	2.96
285.548	2.59
285.925	2.2
286.303	2.17
286.68	2.07
287.058	3.09
287.435	2.79
287.813	2.19
288.19	2.5
288.567	2.57
288.945	2.82
289.322	2.62
289.699	1.89
290.076	2.88
290.453	2.77
290.83	2.6
291.207	2.66
291.584	2.6
291.961	2.4
292.338	2.47
292.715	2.32
293.092	2.59
293.469	2.74
293.845	2.28
294.222	2.45
294.599	2.26
294.975	3.46
295.352	2.63
295.728	2.81
296.105	2.68
296.481	2.57
296.858	2.52
297.234	2.66
297.61	2.21
297.986	2.67
298.363	2.54
298.739	2.27
299.115	2.26
299.491	2.68
299.867	2.5
300.243	2.46
300.619	2.5
300.995	2.28
301.371	3.3
301.746	2.49
302.122	2.79
302.498	2.4
302.874	2.46
303.249	2.79
303.625	2.5
304	2.9
304.376	2.16
304.751	2.36
305.127	2.1
305.502	3.56
305.878	2.79
306.253	2.69
306.628	3.01
307.003	3.06
307.378	3.13
307.754	2.85
308.129	3.09
308.504	3.01
308.879	2.77
309.254	3.13
309.629	2.71
310.003	2.3
310.378	3.19
310.753	2.63
311.128	3.01
311.502	2.8
311.877	2.99
312.252	2.98
312.626	3.04
313.001	3
313.375	2.76
313.75	2.87
314.124	2.66
314.498	2.98
314.873	2.62
315.247	2.75
315.621	3.17
315.995	3.11
316.369	2.55
316.743	3.04
317.117	2.85
317.491	1.69
317.865	3.41
318.239	3.75
318.613	2.72
318.987	3.28
319.361	2.53
319.734	2.69
320.108	2.79
320.482	3.04
320.855	2.85
321.229	3.63
321.602	3.1
321.976	3.38
322.349	3.33
322.723	2.88
323.096	3.27
323.469	2.4
323.843	3.39
324.216	3.48
324.589	3.08
324.962	3.37
325.335	3.09
325.708	3.21
326.081	2.68
326.454	3.18
326.827	3.32
327.2	3.6
327.573	3.24
327.945	3.29
328.318	2.47
328.691	2.91
329.063	3.9
329.436	2.85
329.809	3.16
330.181	3.22
330.553	3.83
330.926	3.35
331.298	2.9
331.671	3.27
332.043	2.6
332.415	3.38
332.787	3.25
333.159	2.23
333.532	3.2
333.904	3.06
334.276	2.97
334.648	2.76
335.02	3.19
335.391	3.22
335.763	3.29
336.135	3.33
336.507	3.42
336.879	3.09
337.25	3.25
337.622	3.36
337.993	3.35
338.365	3.15
338.736	2.89
339.108	2.94
339.479	2.84
339.851	3.59
340.222	2.74
340.593	2.85
340.964	3.09
341.336	3.25
341.707	3.42
342.078	3.11
342.449	2.95
342.82	3.12
343.191	3.16
343.562	3.45
343.933	3.18
344.303	2.98
344.674	3.03
345.045	3.37
345.416	2.98
345.786	3.02
346.157	3.01
346.527	2.65
346.898	3.31
347.268	3.06
347.639	3.66
348.009	2.84
348.38	3.16
348.75	3.39
349.12	3.06
349.49	3.13
349.861	3.24
350.231	2.74
350.601	2.97
350.971	3.19
351.341	3.18
351.711	3.89
352.081	3.19
352.45	2.95
352.82	3.09
353.19	3.36
353.56	3.16
353.929	2.92
354.299	3.15
354.669	3.28
355.038	3.25
355.408	3.09
355.777	3.18
356.147	2.85
356.516	2.88
356.885	3.27
357.254	2.86
357.624	2.85
357.993	3.01
358.362	3.08
358.731	2.92
359.1	2.75
359.469	2.93
359.838	3.12
360.207	3.29
360.576	3.39
360.945	3.05
361.314	3.38
361.682	3.19
362.051	3
362.42	3.09
362.788	3.44
363.157	3.2
363.525	2.96
363.894	3.17
364.262	3.1
364.631	3.24
364.999	3.17
365.367	3.46
365.735	2.95
366.104	3.09
366.472	3.36
366.84	3.34
367.208	3.02
367.576	3.09
367.944	3.01
368.312	3.02
368.68	3.28
369.048	3.07
369.416	3.43
369.783	3.24
370.151	3.15
370.519	3.2
370.886	3.63
371.254	3.29
371.621	3.42
371.989	3.39
372.356	3.3
372.724	3.5
373.091	3.27
373.458	2.97
373.826	3.43
374.193	3.03
374.56	3.12
374.927	3.43
375.294	3.43
375.661	3.35
376.028	3.49
376.395	3.41
376.762	3.21
377.129	3.02
377.496	3.42
377.863	3.88
378.229	3.24
378.596	3.34
378.963	3.3
379.329	3.23
379.696	3.3
380.062	3.3
380.429	3.1
380.795	3.14
381.161	3.18
381.528	3.49
381.894	3.14
382.26	3.31
382.626	3.73
382.993	3.48
383.359	3.44
383.725	3.29
384.091	3.2
384.457	3.57
384.823	3.49
385.188	3.54
385.554	3.38
385.92	3.56
386.286	3.35
386.651	3.15
387.017	3.29
387.383	3.33
387.748	3.05
388.114	2.97
388.479	3.47
388.845	3.42
389.21	3.4
389.575	3.09
389.94	3.38
390.306	3.15
390.671	3.25
391.036	3.13
391.401	3.66
391.766	3.42
392.131	3.22
392.496	3.33
392.861	3.4
393.226	3.32
393.591	3.29
393.956	3.37
394.32	3.61
394.685	3.33
395.05	3.73
395.414	3.72
395.779	3.2
396.143	3.33
396.508	3.45
396.872	3.45
397.236	3.38
397.601	3.23
397.965	3.28
398.329	3.38
398.694	3.34
399.058	3.23
399.422	3.22
399.786	3.43
400.15	3.45
400.514	3.5
400.878	3.69
401.242	3.58
401.605	3.44
401.969	3.08
402.333	3.5
402.697	3.44
403.06	3.22
403.424	3.45
403.787	3.41
404.151	3.43
404.514	3.43
404.878	3.42
405.241	3.35
405.604	3.51
405.968	3.6
406.331	3.23
406.694	3.21
407.057	3.42
407.42	3.66
407.783	3.49
408.146	3.5
408.509	3.39
408.872	3.45
409.235	3.54
409.598	3.64
409.961	3.56
410.323	3.44
410.686	3.37
411.049	3.22
411.411	3.45
411.774	3.47
412.136	3.29
412.499	3.66
412.861	3.52
413.223	3.56
413.586	3.61
413.948	3.56
414.31	3.62
414.672	3.47
415.035	3.49
415.397	3.37
415.759	3.42
416.121	3.49
416.483	3.6
416.845	3.5
417.206	3.49
417.568	3.59
417.93	3.59
418.292	3.26
418.653	3.63
419.015	3.52
419.377	3.51
419.738	3.45
420.1	3.4
420.461	3.41
420.822	3.46
421.184	3.56
421.545	3.43
421.906	3.52
422.267	3.41
422.629	3.47
422.99	3.27
423.351	3.37
423.712	3.35
424.073	3.44
424.434	3.44
424.795	3.34
425.155	3.47
425.516	3.46
425.877	3.39
426.238	3.37
426.598	3.38
426.959	3.48
427.32	3.47
427.68	3.51
428.041	3.52
428.401	3.48
428.761	3.45
429.122	3.54
429.482	3.52
429.842	3.52
430.202	3.6
430.563	3.61
430.923	3.77
431.283	3.63
431.643	3.76
432.003	3.8
432.363	3.53
432.722	3.72
433.082	3.62
433.442	3.45
433.802	3.66
434.161	3.43
434.521	3.67
434.881	3.69
435.24	3.57
435.6	3.63
435.959	3.65
436.319	3.67
436.678	3.62
437.037	3.48
437.396	3.75
437.756	3.63
438.115	3.66
438.474	3.66
438.833	3.87
439.192	3.56
439.551	3.63
439.91	3.6
440.269	3.81
440.628	3.61
440.987	3.52
441.345	3.43
441.704	3.69
442.063	3.61
442.421	3.51
442.78	3.6
443.138	3.64
443.497	3.64
443.855	3.63
444.214	3.56
444.572	3.47
444.93	3.74
445.288	3.67
445.647	3.9
446.005	3.54
446.363	3.73
446.721	3.65
447.079	3.83
447.437	3.63
447.795	3.58
448.153	3.49
448.51	3.54
448.868	3.58
449.226	3.59
449.584	3.79
449.941	3.57
450.299	3.68
450.656	3.58
451.014	3.65
451.371	3.64
451.729	3.69
452.086	3.72
452.443	3.63
452.801	3.62
453.158	3.72
453.515	3.69
453.872	3.67
454.229	3.84
454.586	3.83
454.943	3.65
455.3	3.72
455.657	3.86
456.014	3.63
456.371	3.71
456.727	3.75
457.084	3.81
457.441	3.81
457.797	3.81
458.154	3.75
458.51	3.76
458.867	3.78
459.223	3.81
459.58	3.85
459.936	3.79
460.292	3.78
460.648	3.73
461.005	3.68
461.361	3.8
461.717	3.59
462.073	3.7
462.429	3.73
462.785	3.81
463.141	3.79
463.496	3.9
463.852	3.89
464.208	3.92
464.564	4.02
464.919	3.66
465.275	4.05
465.631	4.02
465.986	3.95
466.342	3.89
466.697	3.92
467.052	3.84
467.408	3.73
467.763	4.06
468.118	4.02
468.473	4.02
468.829	3.93
469.184	3.86
469.539	3.95
469.894	3.94
470.249	3.8
470.603	3.83
470.958	3.99
471.313	4.1
471.668	4
472.023	4.01
472.377	4.06
472.732	3.94
473.086	4.04
473.441	4.05
473.795	4.06
474.15	3.83
474.504	3.82
474.859	4.09
475.213	4.07
475.567	4.05
475.921	3.93
476.275	4.04
476.63	4.14
476.984	4.24
477.338	3.91
477.692	3.83
478.045	4.1
478.399	3.94
478.753	4.04
479.107	3.97
479.461	4.05
479.814	4.18
480.168	4.15
480.521	4.01
480.875	3.94
481.228	4.1
481.582	4.14
481.935	4.07
482.289	4.19
482.642	3.96
482.995	4.07
483.348	4.07
483.701	4.1
484.055	4.06
484.408	4.01
484.761	3.93
485.114	3.9
485.466	3.85
485.819	3.78
486.172	3.67
486.525	3.75
486.878	3.84
487.23	3.95
487.583	3.88
487.936	3.95
488.288	3.99
488.641	4.05
488.993	3.94
489.345	3.95
489.698	3.9
490.05	3.88
490.402	3.89
490.754	3.95
491.107	3.99
491.459	3.97
491.811	4.06
492.163	4.1
492.515	4.06
492.866	4.04
493.218	3.95
493.57	3.95
493.922	3.92
494.274	3.97
494.625	4.03
494.977	4.07
495.328	4.16
495.68	4.21
496.031	4.21
496.383	4.22
496.734	4.36
497.086	4.25
497.437	4.37
497.788	4.18
498.139	4.33
498.49	4.24
498.842	4.12
499.193	4.22
499.544	4.24
499.894	4.31
500.245	4.23
500.596	4.31
500.947	4.37
501.298	4.28
501.648	4.25
501.999	4.34
502.35	4.42
502.7	4.45
503.051	4.43
503.401	4.38
503.752	4.44
504.102	4.43
504.452	4.35
504.803	4.3
505.153	4.48
505.503	4.43
505.853	4.59
506.203	4.43
506.553	4.38
506.903	4.63
507.253	4.39
507.603	4.39
507.953	4.5
508.303	4.43
508.652	4.5
509.002	4.59
509.352	4.58
509.701	4.55
510.051	4.55
510.4	4.44
510.75	4.45
511.099	4.4
511.449	4.48
511.798	4.53
512.147	4.41
512.496	4.41
512.846	4.46
513.195	4.53
513.544	4.48
513.893	4.48
514.242	4.51
514.591	4.51
514.939	4.43
515.288	4.44
515.637	4.47
515.986	4.59
516.334	4.62
516.683	4.65
517.032	4.58
517.38	4.54
517.729	4.68
518.077	4.47
518.426	4.56
518.774	4.51
519.122	4.62
519.47	4.61
519.819	4.56
520.167	4.61
520.515	4.6
520.863	4.62
521.211	4.62
521.559	4.71
521.907	4.65
522.255	4.75
522.602	4.81
522.95	4.66
523.298	4.8
523.645	4.91
523.993	4.77
524.341	4.82
524.688	4.79
525.036	4.84
525.383	4.79
525.73	5.04
526.078	4.77
526.425	4.92
526.772	4.82
527.119	4.85
527.466	4.72
527.814	4.82
528.161	4.77
528.508	4.72
528.854	4.74
529.201	4.86
529.548	4.78
529.895	4.81
530.242	4.71
530.588	4.65
530.935	4.58
531.282	4.69
531.628	4.8
531.975	4.76
532.321	4.85
532.667	4.85
533.014	4.94
533.36	4.93
533.706	5.01
534.052	5.03
534.399	4.85
534.745	4.87
535.091	4.9
535.437	4.88
535.783	4.89
536.129	5
536.474	5.09
536.82	5.06
537.166	5.04
537.512	5.17
537.857	5.25
538.203	5.12
538.549	5.2
538.894	5.06
539.239	5.11
539.585	5.19
539.93	5.28
540.276	5.39
540.621	5.34
540.966	5.27
541.311	5.45
541.656	5.38
542.001	5.38
542.346	5.31
542.691	5.15
543.036	5.27
543.381	5.09
543.726	5.12
544.071	5.22
544.415	5.24
544.76	5.32
545.105	5.39
545.449	5.38
545.794	5.42
546.138	5.43
546.483	5.48
546.827	5.53
547.171	5.62
547.516	5.5
547.86	5.58
548.204	5.5
548.548	5.47
548.892	5.57
549.236	5.59
549.58	5.53
549.924	5.63
550.268	5.62
550.612	5.73
550.956	5.88
551.3	5.78
551.643	5.77
551.987	5.89
552.33	5.9
552.674	5.93
553.017	5.81
553.361	5.92
553.704	5.88
554.048	5.92
554.391	6.1
554.734	6.09
555.077	6
555.42	5.87
555.764	5.88
556.107	6.04
556.45	6.07
556.793	6.11
557.135	6.05
557.478	5.79
557.821	6.05
558.164	6.19
558.507	6.03
558.849	6.25
559.192	6.24
559.534	6.31
559.877	6.21
560.219	6.2
560.562	6.23
560.904	6.14
561.246	6.32
561.589	6.23
561.931	6.34
562.273	6.43
562.615	6.56
562.957	6.43
563.299	6.6
563.641	6.71
563.983	6.46
564.325	6.48
564.667	6.57
565.008	6.41
565.35	6.56
565.692	6.57
566.033	6.75
566.375	6.72
566.716	6.62
567.058	6.52
567.399	6.73
567.741	6.47
568.082	6.74
568.423	6.76
568.764	6.63
569.105	6.82
569.447	6.61
569.788	6.77
570.129	6.78
570.47	6.73
570.811	6.78
571.151	6.79
571.492	6.94
571.833	7.11
572.174	6.89
572.514	7.09
572.855	7.07
573.195	7.06
573.536	6.82
573.876	7.15
574.217	6.9
574.557	7.06
574.898	6.9
575.238	7.06
575.578	7.07
575.918	7.04
576.258	7.29
576.598	7.35
576.938	7.25
577.278	7.23
577.618	7.09
577.958	7.12
578.298	7.15
578.638	7.35
578.977	7.46
579.317	7.46
579.657	7.33
579.996	7.46
580.336	7.67
580.675	7.55
581.014	7.49
581.354	7.55
581.693	7.46
582.032	7.71
582.372	7.79
582.711	7.73
583.05	8.04
583.389	7.69
583.728	7.9
584.067	7.82
584.406	7.98
584.745	7.72
585.083	7.89
585.422	8.01
585.761	7.91
586.1	8
586.438	7.63
586.777	7.95
587.115	8.08
587.454	8.27
587.792	8.19
588.13	8.28
588.469	8.22
588.807	7.65
589.145	8.12
589.483	8.06
589.821	8.08
590.159	8.35
590.497	8.28
590.835	8.46
591.173	8.24
591.511	8.26
591.849	8.12
592.187	8.54
592.524	8.37
592.862	8.32
593.2	8.46
593.537	8.33
593.875	8.4
594.212	8.72
594.55	8.81
594.887	8.62
595.224	8.73
595.561	8.47
595.899	8.71
596.236	8.75
596.573	8.68
596.91	8.91
597.247	8.95
597.584	8.78
597.921	8.74
598.258	8.69
598.594	9.01
598.931	8.86
599.268	8.63
599.604	8.89
599.941	8.78
600.277	8.95
600.614	9.19
600.95	9.15
601.287	8.99
601.623	9.07
601.959	9.24
602.296	9.32
602.632	9.15
602.968	9.27
603.304	9.26
603.64	9.19
603.976	9.13
604.312	9.6
604.648	9.21
604.984	9.27
605.319	9.43
605.655	9.43
605.991	9.49
606.326	9.44
606.662	9.29
606.998	9.37
607.333	9.32
607.668	9.39
608.004	9.59
608.339	9.42
608.674	9.67
609.01	10.03
609.345	9.95
609.68	9.95
610.015	9.67
610.35	9.74
610.685	10.09
611.02	9.83
611.355	9.97
611.689	9.78
612.024	9.97
612.359	10.13
612.694	10.12
613.028	10.24
613.363	10.14
613.697	9.96
614.032	10.19
614.366	10.32
614.7	10.53
615.035	10.28
615.369	10.7
615.703	10.56
616.037	10.6
616.371	10.37
616.705	10.58
617.039	10.61
617.373	10.58
617.707	10.78
618.041	10.89
618.375	10.54
618.709	10.8
619.042	10.97
619.376	11.07
619.71	10.96
620.043	10.97
620.377	10.68
620.71	10.81
621.043	11.24
621.377	10.86
621.71	11.14
622.043	11.11
622.376	11.42
622.709	11.34
623.043	10.87
623.376	11.13
623.709	11.04
624.041	11.12
624.374	11.31
624.707	11.41
625.04	11.45
625.373	11.64
625.705	11.32
626.038	11.33
626.37	11.23
626.703	11.4
627.035	11.15
627.368	11.65
627.7	11.64
628.032	11.72
628.365	11.86
628.697	11.64
629.029	11.81
629.361	11.61
629.693	11.42
630.025	11.75
630.357	11.86
630.689	11.51
631.021	11.92
631.353	11.88
631.684	11.47
632.016	11.93
632.348	12.15
632.679	11.79
633.011	12.06
633.342	11.9
633.674	11.86
634.005	12.08
634.336	12.08
634.668	12.12
634.999	11.99
635.33	12.18
635.661	12.39
635.992	12.66
636.323	12.65
636.654	12.61
636.985	12.63
637.316	12.99
637.647	12.71
637.977	12.54
638.308	12.7
638.639	12.37
638.969	12.94
639.3	12.55
639.63	12.83
639.961	12.4
640.291	12.75
640.622	13.01
640.952	12.86
641.282	12.72
641.612	12.87
641.943	13.38
642.273	12.82
642.603	13.47
642.933	13.15
643.263	13.45
643.592	13.14
643.922	13.58
644.252	12.92
644.582	13.21
644.911	13.48
645.241	13.38
645.571	14.19
645.9	13.45
646.23	13.51
646.559	13.51
646.888	13.82
647.218	13.63
647.547	13.71
647.876	13.84
648.205	13.63
648.534	13.93
648.863	14.02
649.192	13.52
649.521	13.79
649.85	13.96
650.179	13.32
650.508	13.84
650.837	14.76
651.165	14.1
651.494	13.71
651.822	13.98
652.151	14.58
652.479	14.26
652.808	13.78
653.136	14.3
653.465	14.38
653.793	14.2
654.121	14.25
654.449	14.7
654.777	13.96
655.105	14.47
655.433	14.7
655.761	14.73
656.089	14.78
656.417	14.62
656.745	14.52
657.073	14.91
657.4	15.65
657.728	15.17
658.056	15.16
658.383	14.59
658.711	14.68
659.038	15.39
659.365	14.74
659.693	14.98
660.02	15.13
660.347	14.9
660.674	15.12
661.001	15.01
661.329	15.4
661.656	15.27
661.982	15.24
662.309	15.31
662.636	15.42
662.963	15.25
663.29	15.19
663.616	15.43
663.943	15.27
664.27	15.43
664.596	15.62
664.923	15.01
665.249	16.02
665.576	15.61
665.902	15.56
666.228	15.42
666.554	16.12
666.881	14.88
667.207	15.97
667.533	15.45
667.859	15.88
668.185	15.81
668.511	16.02
668.837	16.1
669.162	16.03
669.488	15.93
669.814	15.63
670.139	16
670.465	15.58
670.791	16.64
671.116	16.23
671.442	16.21
671.767	16.4
672.092	16.4
672.418	16.49
672.743	16.06
673.068	16.28
673.393	16.26
673.718	16.38
674.043	16.53
674.368	16.75
674.693	16.89
675.018	17.3
675.343	16.81
675.667	16.64
675.992	16.4
676.317	17.21
676.641	16.59
676.966	17.14
677.29	17.13
677.615	17.05
677.939	17.22
678.264	17.35
678.588	16.27
678.912	17.77
679.236	16.86
679.56	16.75
679.885	17.07
680.209	17.02
680.532	16.88
680.856	17.31
681.18	16.93
681.504	17.12
681.828	17.9
682.152	16.65
682.475	17.17
682.799	17.58
683.122	17.52
683.446	17.63
683.769	18.11
684.093	18.09
684.416	18.12
684.739	17.23
685.062	17.37
685.386	17.8
685.709	17.85
686.032	17.94
686.355	18.18
686.678	18.52
687.001	18.76
