Data from 0273_forehead_Reflection__4__260.txt Node

Date: Fri Oct 20 22:43:04 CDT 2023
User: ToomeyLab
Spectrometer: FLMS14357
Trigger mode: 0
Integration Time (sec): 1.000000E-2
Scans to average: 100
Electric dark correction enabled: true
Nonlinearity correction enabled: false
Boxcar width: 0
XAxis mode: Wavelengths
Number of Pixels in Spectrum: 2048
>>>>>Begin Spectral Data<<<<<
189.047	474.55
189.435	474.55
189.823	474.55
190.211	1403.29
190.599	7.81
190.987	87.34
191.375	98.19
191.763	59.11
192.151	55.7
192.538	66.73
192.926	-14.34
193.314	297.82
193.702	35.37
194.089	338.42
194.477	79.94
194.864	555.65
195.252	202.5
195.639	-32.42
196.027	157.49
196.414	-280.68
196.801	58.81
197.189	43.99
197.576	40.36
197.963	-71.54
198.351	28.2
198.738	16.88
199.125	52.87
199.512	72.65
199.899	38.66
200.286	-4.98
200.673	10.56
201.06	36.51
201.447	2.73
201.833	41.56
202.22	60.36
202.607	72.18
202.994	19.17
203.38	13.77
203.767	36.7
204.154	35.1
204.54	71.77
204.927	54.33
205.313	27
205.699	39.62
206.086	37.2
206.472	34.73
206.858	53.62
207.245	18.53
207.631	53.54
208.017	23.09
208.403	-2.85
208.789	51.95
209.175	3.15
209.561	18.37
209.947	30.42
210.333	12.67
210.719	25.58
211.105	18.16
211.491	35.31
211.876	-16.7
212.262	34.33
212.648	32.52
213.034	7.29
213.419	5.44
213.805	22.14
214.19	25.42
214.576	-3.13
214.961	49.78
215.346	37.35
215.732	27.59
216.117	-17.08
216.502	24.02
216.888	10.42
217.273	32.46
217.658	-0.34
218.043	2.91
218.428	4.56
218.813	11.43
219.198	-4.81
219.583	1.54
219.968	10.76
220.353	11.65
220.738	3.11
221.122	-10.3
221.507	1.99
221.892	21.19
222.276	21.8
222.661	28.34
223.046	10.1
223.43	15.58
223.815	20.54
224.199	16.41
224.583	-4.63
224.968	7.26
225.352	-0.71
225.736	0.22
226.121	15.59
226.505	5.35
226.889	10.77
227.273	13.36
227.657	7.76
228.041	8.85
228.425	3.77
228.809	6.71
229.193	5.26
229.577	6.2
229.961	2.18
230.344	3.13
230.728	3.3
231.112	3.91
231.495	3.9
231.879	3.53
232.263	4.6
232.646	4.64
233.03	3.33
233.413	4.17
233.797	3.49
234.18	3.7
234.563	4.82
234.946	6.15
235.33	2.72
235.713	2.18
236.096	5.11
236.479	4.04
236.862	3.28
237.245	3.04
237.628	4.04
238.011	4.26
238.394	4.14
238.777	6.69
239.16	4.57
239.543	6.38
239.925	6.43
240.308	5.32
240.691	4.75
241.073	6.12
241.456	4.53
241.838	3.79
242.221	5.58
242.603	4.93
242.986	4.32
243.368	4.45
243.75	4.3
244.133	3.56
244.515	3.68
244.897	3.65
245.279	4.12
245.661	3.76
246.043	4.08
246.425	3.47
246.807	4.27
247.189	3.13
247.571	2.97
247.953	4.46
248.335	3.99
248.717	3.4
249.098	3.48
249.48	3.77
249.862	3.8
250.243	3.88
250.625	4.21
251.006	4.41
251.388	3.8
251.769	4.21
252.151	3.62
252.532	4.37
252.913	3.4
253.295	2.93
253.676	4.53
254.057	4.2
254.438	4.25
254.819	4.4
255.2	4.39
255.581	4.54
255.962	4.14
256.343	4.49
256.724	3.53
257.105	3.72
257.486	5.1
257.867	4.06
258.247	3.9
258.628	3.75
259.009	3.32
259.389	3.85
259.77	3.21
260.15	5.03
260.531	3.8
260.911	4.01
261.292	3.73
261.672	3.77
262.052	3.91
262.432	3.72
262.813	3.66
263.193	3.7
263.573	3.24
263.953	4.08
264.333	4.75
264.713	4.13
265.093	4.84
265.473	3.71
265.853	3.33
266.233	4.28
266.612	3.88
266.992	4.2
267.372	3.87
267.752	3.41
268.131	4.57
268.511	4.24
268.89	4.33
269.27	3.7
269.649	3.29
270.029	3.64
270.408	3.99
270.787	3.93
271.167	3.92
271.546	4.11
271.925	4.33
272.304	4.14
272.683	4.24
273.062	3.89
273.441	4.09
273.82	3.75
274.199	4.01
274.578	4.05
274.957	4.26
275.336	4.02
275.715	3.81
276.093	4.07
276.472	3.46
276.851	4.14
277.229	4.18
277.608	3.23
277.986	3.88
278.365	3.71
278.743	4.03
279.122	3.73
279.5	3.73
279.878	3.35
280.257	3.61
280.635	3.75
281.013	3.89
281.391	4.23
281.769	3.91
282.147	3.62
282.525	4.27
282.903	3.79
283.281	4.25
283.659	3.6
284.037	3.86
284.415	3.28
284.792	3.61
285.17	4.02
285.548	3.49
285.925	3.78
286.303	3.41
286.68	3.62
287.058	4.21
287.435	3.82
287.813	3.52
288.19	3.83
288.567	3.91
288.945	3.88
289.322	4.66
289.699	3.75
290.076	4.54
290.453	4.38
290.83	3.78
291.207	4.18
291.584	4.06
291.961	4.09
292.338	3.93
292.715	4.04
293.092	4.41
293.469	4.72
293.845	4.27
294.222	4.47
294.599	4.38
294.975	4.69
295.352	4.17
295.728	4.43
296.105	4.31
296.481	4.44
296.858	4.65
297.234	4.19
297.61	4.31
297.986	4.63
298.363	4.8
298.739	4.66
299.115	4.57
299.491	4.31
299.867	4.5
300.243	4.77
300.619	4.77
300.995	4.73
301.371	5.15
301.746	4.99
302.122	5.07
302.498	4.67
302.874	5
303.249	5.28
303.625	5.3
304	5.5
304.376	5.27
304.751	4.88
305.127	4.97
305.502	5.62
305.878	5.33
306.253	4.92
306.628	5.45
307.003	5.67
307.378	5.44
307.754	5.79
308.129	6.35
308.504	5.94
308.879	5.76
309.254	6.43
309.629	5.58
310.003	4.96
310.378	5.95
310.753	5.89
311.128	6.23
311.502	5.86
311.877	6.04
312.252	6.05
312.626	6.51
313.001	6.26
313.375	6.38
313.75	6.22
314.124	6.17
314.498	6.56
314.873	6.68
315.247	6.32
315.621	6.8
315.995	6.68
316.369	6.15
316.743	7.17
317.117	7.36
317.491	6.49
317.865	7.15
318.239	7.14
318.613	7.49
318.987	6.96
319.361	6.65
319.734	6.68
320.108	6.59
320.482	7.75
320.855	7.3
321.229	7.93
321.602	7.51
321.976	7.37
322.349	8.49
322.723	7.91
323.096	7.45
323.469	7.93
323.843	7.96
324.216	7.86
324.589	8.09
324.962	8.14
325.335	8.24
325.708	7.95
326.081	8.04
326.454	8.28
326.827	8.54
327.2	8.45
327.573	8.92
327.945	8.52
328.318	7.63
328.691	8.4
329.063	8.6
329.436	8.39
329.809	8.32
330.181	8.95
330.553	8.57
330.926	8.28
331.298	8.57
331.671	8.48
332.043	9.05
332.415	8.59
332.787	9.11
333.159	8.75
333.532	8.76
333.904	8.9
334.276	8.66
334.648	9.05
335.02	9.51
335.391	8.65
335.763	9.4
336.135	9.4
336.507	9.04
336.879	9.13
337.25	9.45
337.622	9.13
337.993	9.56
338.365	9.47
338.736	9.33
339.108	9.8
339.479	9.49
339.851	9.57
340.222	9.49
340.593	9.01
340.964	9.54
341.336	10.07
341.707	9.89
342.078	9.99
342.449	9.74
342.82	9.46
343.191	10
343.562	9.85
343.933	9.55
344.303	9.81
344.674	10.09
345.045	10.35
345.416	10.41
345.786	10.23
346.157	9.98
346.527	9.86
346.898	10.09
347.268	10.11
347.639	10.45
348.009	9.82
348.38	10.38
348.75	10.59
349.12	10.52
349.49	10.48
349.861	11.03
350.231	10.4
350.601	10.57
350.971	10.88
351.341	10.66
351.711	11.03
352.081	10.92
352.45	10.39
352.82	11.03
353.19	10.89
353.56	11.33
353.929	10.68
354.299	10.94
354.669	10.98
355.038	11.22
355.408	11.38
355.777	10.98
356.147	11.04
356.516	10.95
356.885	11.21
357.254	11.48
357.624	11.09
357.993	11.1
358.362	11.48
358.731	11.37
359.1	10.94
359.469	11.31
359.838	11.8
360.207	11.45
360.576	11.64
360.945	11.4
361.314	11.75
361.682	11.94
362.051	11.58
362.42	11.76
362.788	11.9
363.157	11.91
363.525	11.65
363.894	11.65
364.262	11.55
364.631	11.74
364.999	11.82
365.367	12.14
365.735	11.71
366.104	11.92
366.472	11.88
366.84	12.56
367.208	12.12
367.576	12.45
367.944	12.44
368.312	12.33
368.68	12.37
369.048	12.31
369.416	12.71
369.783	13.05
370.151	12.66
370.519	12.62
370.886	12.88
371.254	12.73
371.621	13.3
371.989	12.85
372.356	12.78
372.724	13.27
373.091	13.06
373.458	12.9
373.826	13.2
374.193	13.16
374.56	13.08
374.927	13.31
375.294	13.18
375.661	13.48
376.028	13.54
376.395	13.63
376.762	13.17
377.129	13.6
377.496	13.29
377.863	13.74
378.229	13.7
378.596	13.56
378.963	13.75
379.329	13.95
379.696	13.51
380.062	13.85
380.429	13.59
380.795	14
381.161	13.83
381.528	14.2
381.894	13.99
382.26	14.14
382.626	14.2
382.993	14.2
383.359	14.04
383.725	14.21
384.091	14.36
384.457	14.36
384.823	14.28
385.188	14.57
385.554	14.24
385.92	14.42
386.286	14.76
386.651	14.22
387.017	14.61
387.383	14.71
387.748	14.2
388.114	14.54
388.479	14.82
388.845	14.95
389.21	14.89
389.575	14.54
389.94	14.8
390.306	14.87
390.671	15.25
391.036	14.99
391.401	15.18
391.766	15.44
392.131	15.16
392.496	15.12
392.861	15.54
393.226	15.24
393.591	15.21
393.956	15.48
394.32	15.49
394.685	15.38
395.05	15.69
395.414	15.56
395.779	15.35
396.143	15.6
396.508	15.39
396.872	15.57
397.236	15.65
397.601	15.9
397.965	15.92
398.329	15.88
398.694	15.85
399.058	15.89
399.422	16.04
399.786	15.92
400.15	16
400.514	16.1
400.878	16.1
401.242	16.28
401.605	16.22
401.969	15.9
402.333	16.35
402.697	16.28
403.06	16.53
403.424	16.65
403.787	16.51
404.151	16.34
404.514	16.59
404.878	16.81
405.241	16.81
405.604	16.56
405.968	16.92
406.331	16.58
406.694	16.82
407.057	16.77
407.42	16.96
407.783	17.01
408.146	16.93
408.509	16.87
408.872	17.09
409.235	16.68
409.598	17.06
409.961	17.38
410.323	17.3
410.686	17.18
411.049	17.36
411.411	17.31
411.774	17.28
412.136	17.33
412.499	17.4
412.861	17.71
413.223	17.7
413.586	17.62
413.948	17.59
414.31	18.01
414.672	17.72
415.035	17.66
415.397	17.85
415.759	17.76
416.121	17.69
416.483	17.96
416.845	17.89
417.206	18.23
417.568	18.26
417.93	18.21
418.292	17.96
418.653	18.14
419.015	18.09
419.377	18.12
419.738	17.92
420.1	18.01
420.461	18.02
420.822	17.99
421.184	18
421.545	18.02
421.906	18.18
422.267	18.02
422.629	17.99
422.99	18.05
423.351	18.12
423.712	18
424.073	18.23
424.434	18.22
424.795	18.34
425.155	18.37
425.516	18.41
425.877	18.41
426.238	18.43
426.598	18.45
426.959	18.44
427.32	18.62
427.68	18.79
428.041	18.8
428.401	18.86
428.761	19.06
429.122	19.01
429.482	19.05
429.842	19.2
430.202	19.57
430.563	19.3
430.923	19.41
431.283	19.44
431.643	19.42
432.003	19.68
432.363	19.66
432.722	19.64
433.082	19.71
433.442	19.59
433.802	19.87
434.161	19.52
434.521	20.05
434.881	19.93
435.24	19.86
435.6	19.86
435.959	19.89
436.319	20.08
436.678	20.03
437.037	20.19
437.396	20.18
437.756	20.45
438.115	20.2
438.474	20.46
438.833	20.5
439.192	20.31
439.551	20.47
439.91	20.37
440.269	20.78
440.628	20.41
440.987	20.49
441.345	20.59
441.704	20.48
442.063	20.64
442.421	20.52
442.78	20.62
443.138	20.57
443.497	20.73
443.855	20.67
444.214	20.68
444.572	20.98
444.93	21.02
445.288	20.92
445.647	21.1
446.005	20.98
446.363	21.05
446.721	21.23
447.079	21.27
447.437	21.01
447.795	21.08
448.153	21.1
448.51	21.11
448.868	21.06
449.226	21.13
449.584	21.4
449.941	21.38
450.299	21.37
450.656	21.5
451.014	21.59
451.371	21.68
451.729	21.79
452.086	21.98
452.443	21.87
452.801	22
453.158	22.22
453.515	22.16
453.872	22.07
454.229	22.25
454.586	22.34
454.943	22.06
455.3	22.22
455.657	22.38
456.014	22.23
456.371	22.53
456.727	22.52
457.084	22.48
457.441	22.63
457.797	22.7
458.154	22.62
458.51	22.64
458.867	22.71
459.223	22.93
459.58	22.92
459.936	22.84
460.292	23.02
460.648	22.87
461.005	22.78
461.361	22.8
461.717	22.63
462.073	22.7
462.429	22.69
462.785	22.73
463.141	22.99
463.496	23.07
463.852	23.36
464.208	23.4
464.564	23.54
464.919	23.61
465.275	23.64
465.631	23.77
465.986	23.63
466.342	23.69
466.697	23.79
467.052	23.61
467.408	24.2
467.763	23.92
468.118	24.25
468.473	24.13
468.829	23.99
469.184	24.14
469.539	24.03
469.894	24.28
470.249	24.22
470.603	24.33
470.958	24.47
471.313	24.39
471.668	24.42
472.023	24.35
472.377	24.27
472.732	24.49
473.086	24.67
473.441	24.66
473.795	24.86
474.15	24.66
474.504	24.73
474.859	24.55
475.213	24.69
475.567	24.76
475.921	24.93
476.275	24.84
476.63	24.88
476.984	25.06
477.338	24.87
477.692	25.03
478.045	25.16
478.399	25.18
478.753	25.24
479.107	25.05
479.461	25.08
479.814	25.31
480.168	25.32
480.521	25.36
480.875	25.27
481.228	25.38
481.582	25.56
481.935	25.47
482.289	25.48
482.642	25.47
482.995	25.41
483.348	25.6
483.701	25.49
484.055	25.55
484.408	25.43
484.761	25.19
485.114	25.1
485.466	24.79
485.819	24.65
486.172	24.63
486.525	24.7
486.878	24.8
487.23	24.94
487.583	25.14
487.936	25.29
488.288	25.49
488.641	25.47
488.993	25.34
489.345	25.27
489.698	25.28
490.05	25.22
490.402	25.3
490.754	25.4
491.107	25.51
491.459	25.77
491.811	26.01
492.163	26.13
492.515	26.22
492.866	26.13
493.218	26.18
493.57	25.82
493.922	25.83
494.274	25.84
494.625	26.02
494.977	26.3
495.328	26.47
495.68	26.63
496.031	26.92
496.383	27
496.734	27.16
497.086	27.25
497.437	27.42
497.788	27.3
498.139	27.39
498.49	27.37
498.842	27.26
499.193	27.21
499.544	27.32
499.894	27.52
500.245	27.48
500.596	27.31
500.947	27.5
501.298	27.62
501.648	27.72
501.999	27.75
502.35	28.02
502.7	27.84
503.051	27.97
503.401	28.16
503.752	28.2
504.102	28.18
504.452	28.32
504.803	28.16
505.153	28.21
505.503	28.11
505.853	28.44
506.203	28.46
506.553	28.4
506.903	28.39
507.253	28.4
507.603	28.41
507.953	28.6
508.303	28.61
508.652	28.69
509.002	28.66
509.352	28.8
509.701	28.77
510.051	28.63
510.4	28.79
510.75	28.71
511.099	28.81
511.449	28.85
511.798	28.86
512.147	28.8
512.496	28.82
512.846	28.92
513.195	28.95
513.544	29.14
513.893	29.09
514.242	29.1
514.591	29.14
514.939	29
515.288	29.18
515.637	29.37
515.986	29.48
516.334	29.48
516.683	29.27
517.032	29.52
517.38	29.69
517.729	29.64
518.077	29.53
518.426	29.78
518.774	29.48
519.122	29.66
519.47	29.68
519.819	29.6
520.167	29.46
520.515	29.48
520.863	29.44
521.211	29.53
521.559	29.58
521.907	29.72
522.255	29.78
522.602	29.93
522.95	30.06
523.298	30.15
523.645	30.21
523.993	30.2
524.341	30.35
524.688	30.4
525.036	30.54
525.383	30.51
525.73	30.72
526.078	30.66
526.425	30.73
526.772	30.61
527.119	30.61
527.466	30.31
527.814	30.23
528.161	30.12
528.508	30.29
528.854	30.19
529.201	30.33
529.548	30.39
529.895	30.31
530.242	30.04
530.588	29.94
530.935	29.98
531.282	29.95
531.628	30.1
531.975	30.19
532.321	30.42
532.667	30.55
533.014	30.85
533.36	30.94
533.706	30.97
534.052	31
534.399	30.83
534.745	31.12
535.091	30.87
535.437	30.83
535.783	30.69
536.129	30.86
536.474	30.89
536.82	31.14
537.166	31.38
537.512	31.56
537.857	31.58
538.203	31.54
538.549	31.65
538.894	31.52
539.239	31.65
539.585	31.69
539.93	31.9
540.276	32.04
540.621	32.19
540.966	32.21
541.311	32.35
541.656	32.4
542.001	32.5
542.346	32.34
542.691	32.09
543.036	31.94
543.381	31.71
543.726	31.6
544.071	31.83
544.415	31.8
544.76	31.94
545.105	32.05
545.449	32.13
545.794	32.31
546.138	32.38
546.483	32.62
546.827	32.79
547.171	32.83
547.516	32.79
547.86	33.09
548.204	33.05
548.548	32.86
548.892	32.83
549.236	33
549.58	33.05
549.924	33.2
550.268	33.3
550.612	33.52
550.956	33.68
551.3	33.84
551.643	33.75
551.987	34.21
552.33	33.94
552.674	34.26
553.017	33.83
553.361	34.34
553.704	34.23
554.048	34.07
554.391	34.26
554.734	34.2
555.077	34.12
555.42	34.2
555.764	34.3
556.107	34.45
556.45	34.55
556.793	34.46
557.135	34.48
557.478	34.55
557.821	34.65
558.164	35.1
558.507	34.94
558.849	34.85
559.192	34.95
559.534	35.28
559.877	34.91
560.219	35.01
560.562	35.17
560.904	34.92
561.246	35.21
561.589	35.15
561.931	35.28
562.273	35.28
562.615	35.36
562.957	35.36
563.299	35.43
563.641	35.42
563.983	35.29
564.325	35.63
564.667	35.48
565.008	35.49
565.35	35.45
565.692	35.63
566.033	35.86
566.375	35.72
566.716	35.72
567.058	35.66
567.399	35.85
567.741	35.96
568.082	35.97
568.423	35.75
568.764	35.74
569.105	35.99
569.447	35.84
569.788	36.14
570.129	36
570.47	36.07
570.811	36.22
571.151	36.15
571.492	36.22
571.833	36.44
572.174	36.45
572.514	36.38
572.855	36.49
573.195	36.39
573.536	36.43
573.876	36.68
574.217	36.31
574.557	36.37
574.898	36.29
575.238	36.5
575.578	36.64
575.918	36.74
576.258	36.71
576.598	36.72
576.938	36.81
577.278	36.87
577.618	36.53
577.958	37.07
578.298	37
578.638	36.7
578.977	37.28
579.317	37.01
579.657	37.49
579.996	37.27
580.336	37.54
580.675	37.51
581.014	37.5
581.354	37.77
581.693	37.69
582.032	37.83
582.372	37.89
582.711	37.94
583.05	38.29
583.389	38.15
583.728	38.02
584.067	38.14
584.406	38.27
584.745	38.34
585.083	38.27
585.422	38.48
585.761	38.3
586.1	38.44
586.438	38.23
586.777	38.4
587.115	38.78
587.454	38.46
587.792	38.59
588.13	38.67
588.469	38.42
588.807	38.45
589.145	38.69
589.483	38.51
589.821	38.8
590.159	39
590.497	38.97
590.835	38.73
591.173	38.75
591.511	38.6
591.849	39.23
592.187	38.97
592.524	39.1
592.862	39.09
593.2	39.43
593.537	39.07
593.875	39.52
594.212	39.43
594.55	39.35
594.887	39.55
595.224	39.26
595.561	39.59
595.899	39.64
596.236	39.74
596.573	39.56
596.91	39.76
597.247	39.48
597.584	39.51
597.921	39.8
598.258	39.84
598.594	39.58
598.931	39.62
599.268	39.32
599.604	39.43
599.941	39.42
600.277	39.49
600.614	39.89
600.95	39.85
601.287	39.75
601.623	40.19
601.959	40.42
602.296	40.32
602.632	39.98
602.968	40.54
603.304	40.24
603.64	40.27
603.976	40.86
604.312	40.59
604.648	40.54
604.984	40.92
605.319	40.28
605.655	40.36
605.991	40.31
606.326	40.55
606.662	40.31
606.998	40.16
607.333	40.49
607.668	40.49
608.004	40.44
608.339	40.43
608.674	41.08
609.01	41.26
609.345	40.99
609.68	41.11
610.015	41.17
610.35	41.4
610.685	41.26
611.02	41.14
611.355	40.96
611.689	40.95
612.024	41.45
612.359	41.27
612.694	41.46
613.028	41.43
613.363	41.49
613.697	41.5
614.032	41.61
614.366	41.96
614.7	41.69
615.035	41.92
615.369	41.85
615.703	42.11
616.037	42.14
616.371	42.53
616.705	41.94
617.039	42.37
617.373	42.43
617.707	42.29
618.041	42.54
618.375	42.18
618.709	41.96
619.042	42.9
619.376	42.54
619.71	42.67
620.043	42.48
620.377	41.96
620.71	42.64
621.043	43.26
621.377	42.3
621.71	42.71
622.043	42.88
622.376	42.49
622.709	43.33
623.043	42.59
623.376	43.04
623.709	42.5
624.041	43.26
624.374	43.25
624.707	43.02
625.04	43.13
625.373	43.19
625.705	43.11
626.038	43.39
626.37	43.1
626.703	43.32
627.035	43.19
627.368	43.39
627.7	43.02
628.032	43.52
628.365	43.39
628.697	43.24
629.029	43.5
629.361	43.05
629.693	43.48
630.025	43.64
630.357	43.65
630.689	43.61
631.021	43.62
631.353	43.53
631.684	43.54
632.016	43.92
632.348	43.88
632.679	43.65
633.011	43.72
633.342	43.53
633.674	43.87
634.005	43.96
634.336	44.23
634.668	43.84
634.999	44.15
635.33	44.11
635.661	44.43
635.992	44.52
636.323	44.44
636.654	44.39
636.985	44.43
637.316	44.34
637.647	44.6
637.977	44.35
638.308	44.28
638.639	44.37
638.969	44.43
639.3	44.2
639.63	44.96
639.961	45.09
640.291	44.86
640.622	44.75
640.952	44.7
641.282	44.62
641.612	45.06
641.943	44.86
642.273	44.76
642.603	45
642.933	44.77
643.263	45.09
643.592	45.1
643.922	45.59
644.252	45.04
644.582	45.32
644.911	45.22
645.241	45.54
645.571	45.96
645.9	45.11
646.23	45.26
646.559	45.26
646.888	45.45
647.218	45.84
647.547	45.15
647.876	46.13
648.205	45.62
648.534	45.55
648.863	45.85
649.192	45.59
649.521	45.94
649.85	45.99
650.179	45.96
650.508	45.44
650.837	45.86
651.165	46.11
651.494	45.91
651.822	45.97
652.151	46.47
652.479	46.3
652.808	45.66
653.136	46.28
653.465	46.43
653.793	46.33
654.121	46.38
654.449	46.85
654.777	46.27
655.105	46.59
655.433	46.97
655.761	46.79
656.089	46.71
656.417	46.45
656.745	46.42
657.073	46.45
657.4	47.07
657.728	47.12
658.056	46.93
658.383	47.06
658.711	46.79
659.038	47.44
659.365	47.14
659.693	46.6
660.02	47.42
660.347	47.13
660.674	46.56
661.001	46.36
661.329	47.03
661.656	47.41
661.982	46.63
662.309	47.24
662.636	47.19
662.963	47.44
663.29	47.38
663.616	47.39
663.943	47.27
664.27	46.94
664.596	47.18
664.923	47.48
665.249	47.79
665.576	47.37
665.902	47.17
666.228	48.35
666.554	48.05
666.881	47.68
667.207	48.23
667.533	47.69
667.859	48.35
668.185	47.78
668.511	48.83
668.837	48.74
669.162	48.19
669.488	47.59
669.814	47.48
670.139	47.98
670.465	48.41
670.791	48.18
671.116	47.77
671.442	48.06
