Data from 0273_forehead_Reflection__3__259.txt Node

Date: Fri Oct 20 22:42:54 CDT 2023
User: ToomeyLab
Spectrometer: FLMS14357
Trigger mode: 0
Integration Time (sec): 1.000000E-2
Scans to average: 100
Electric dark correction enabled: true
Nonlinearity correction enabled: false
Boxcar width: 0
XAxis mode: Wavelengths
Number of Pixels in Spectrum: 2048
>>>>>Begin Spectral Data<<<<<
189.047	88.74
189.435	88.74
189.823	88.74
190.211	165.26
190.599	24.7
190.987	102.42
191.375	102.7
191.763	170.08
192.151	283.92
192.538	84.96
192.926	-9.1
193.314	212.35
193.702	31.99
194.089	254.81
194.477	70.49
194.864	436.59
195.252	96.73
195.639	801.09
196.027	-72.58
196.414	-169.53
196.801	110.77
197.189	-5.23
197.576	38.68
197.963	-58.63
198.351	56.64
198.738	27.62
199.125	49.45
199.512	38.85
199.899	6.43
200.286	-24.32
200.673	64.48
201.06	47.84
201.447	25.68
201.833	54.16
202.22	37.77
202.607	48.09
202.994	28.87
203.38	33.81
203.767	19.28
204.154	25.01
204.54	63.78
204.927	43.02
205.313	9.51
205.699	39.04
206.086	53
206.472	56.07
206.858	44.81
207.245	11.85
207.631	27.01
208.017	42.91
208.403	15.73
208.789	35.54
209.175	-0.33
209.561	14.78
209.947	21.7
210.333	27
210.719	15.77
211.105	52.77
211.491	31.76
211.876	12.26
212.262	39.88
212.648	30.58
213.034	3.04
213.419	23.27
213.805	7.93
214.19	5.04
214.576	35.47
214.961	2.58
215.346	38.37
215.732	21.25
216.117	5.47
216.502	10.33
216.888	25.04
217.273	-17.49
217.658	-0.11
218.043	16.64
218.428	6.28
218.813	17.05
219.198	5.31
219.583	-23.91
219.968	4.94
220.353	29.76
220.738	16.1
221.122	11.24
221.507	18.62
221.892	13
222.276	4.65
222.661	20.82
223.046	7.9
223.43	5.78
223.815	19.53
224.199	16.19
224.583	-0.3
224.968	1.03
225.352	-2.28
225.736	6.63
226.121	14.67
226.505	2.83
226.889	9.29
227.273	10.46
227.657	11.41
228.041	11.91
228.425	7.06
228.809	6.23
229.193	5.79
229.577	6.03
229.961	3.03
230.344	5.25
230.728	4.38
231.112	4.43
231.495	3.62
231.879	3.92
232.263	5.99
232.646	4.63
233.03	3.32
233.413	3.57
233.797	3.38
234.18	4.28
234.563	5.28
234.946	7.43
235.33	5.07
235.713	5.5
236.096	4.41
236.479	4.81
236.862	3.77
237.245	5.4
237.628	5.1
238.011	6.77
238.394	4.41
238.777	5.65
239.16	4.58
239.543	4.96
239.925	8.4
240.308	6.14
240.691	4.2
241.073	6.92
241.456	4.88
241.838	3.26
242.221	5.16
242.603	4.35
242.986	5.07
243.368	4.25
243.75	3.99
244.133	4.34
244.515	4.27
244.897	4.24
245.279	4.36
245.661	4.03
246.043	3.69
246.425	4.7
246.807	4.68
247.189	4.68
247.571	4.59
247.953	4.56
248.335	4.36
248.717	3.87
249.098	4.03
249.48	4.04
249.862	4.36
250.243	4.56
250.625	4.42
251.006	4.53
251.388	4.07
251.769	4.79
252.151	3.48
252.532	4.48
252.913	4.66
253.295	3.13
253.676	4.67
254.057	4.12
254.438	4.53
254.819	4.77
255.2	4.47
255.581	4.76
255.962	3.61
256.343	5.48
256.724	3.54
257.105	4.64
257.486	5.24
257.867	4.88
258.247	5.5
258.628	4.28
259.009	3.96
259.389	4.54
259.77	3.3
260.15	4.65
260.531	4.67
260.911	4.05
261.292	4.2
261.672	4.29
262.052	4.32
262.432	4.19
262.813	4.29
263.193	4.31
263.573	4.25
263.953	4.37
264.333	4.25
264.713	4.49
265.093	4.78
265.473	4.58
265.853	4.64
266.233	4.21
266.612	5.05
266.992	4.61
267.372	4.74
267.752	4.56
268.131	4.85
268.511	4.49
268.89	4.38
269.27	4.01
269.649	4.04
270.029	4.73
270.408	4.52
270.787	4.41
271.167	4.28
271.546	4.84
271.925	4.53
272.304	4.51
272.683	4.55
273.062	4.58
273.441	4.76
273.82	4.42
274.199	4.65
274.578	4.43
274.957	4.36
275.336	4.35
275.715	4.54
276.093	4.34
276.472	4.56
276.851	4.58
277.229	4.46
277.608	3.97
277.986	4.21
278.365	4.77
278.743	3.92
279.122	4.19
279.5	4.01
279.878	3.74
280.257	3.94
280.635	4.6
281.013	4.61
281.391	4.17
281.769	3.95
282.147	4.11
282.525	4.29
282.903	4.63
283.281	4.12
283.659	3.9
284.037	3.99
284.415	3.84
284.792	4.03
285.17	4.49
285.548	4.26
285.925	3.93
286.303	4.22
286.68	4.03
287.058	4.77
287.435	4.32
287.813	3.99
288.19	4.01
288.567	4.37
288.945	4.57
289.322	4.47
289.699	4.18
290.076	4.73
290.453	4.3
290.83	4.29
291.207	4.71
291.584	4.05
291.961	4.4
292.338	4.18
292.715	4.27
293.092	4.59
293.469	4.97
293.845	4.4
294.222	4.74
294.599	5.01
294.975	5.11
295.352	4.75
295.728	4.78
296.105	4.3
296.481	4.97
296.858	5.01
297.234	5.11
297.61	4.43
297.986	4.51
298.363	5.32
298.739	4.72
299.115	4.66
299.491	4.79
299.867	5
300.243	5
300.619	5.28
300.995	5.34
301.371	5.33
301.746	5.62
302.122	5.25
302.498	5.3
302.874	5.9
303.249	5.37
303.625	5.27
304	5.88
304.376	5.55
304.751	5.22
305.127	5.31
305.502	6.25
305.878	5.65
306.253	6
306.628	6.02
307.003	5.76
307.378	5.45
307.754	6.05
308.129	6.73
308.504	6.07
308.879	6.46
309.254	6.01
309.629	5.97
310.003	5.43
310.378	6.37
310.753	6.37
311.128	6.09
311.502	6.49
311.877	6.74
312.252	6.47
312.626	6.71
313.001	6.64
313.375	6.63
313.75	6.45
314.124	6.26
314.498	6.76
314.873	6.37
315.247	6.78
315.621	7.03
315.995	7.75
316.369	6.99
316.743	7.43
317.117	7.16
317.491	6.83
317.865	7.8
318.239	7.7
318.613	8.27
318.987	7.28
319.361	6.77
319.734	7.43
320.108	7.24
320.482	7.88
320.855	7.39
321.229	8.35
321.602	7.68
321.976	7.8
322.349	8.15
322.723	7.43
323.096	7.87
323.469	7.55
323.843	7.95
324.216	7.96
324.589	8.19
324.962	8.58
325.335	8.49
325.708	7.95
326.081	8.56
326.454	8.69
326.827	8.92
327.2	8.41
327.573	8.72
327.945	8.49
328.318	8.17
328.691	8.56
329.063	9.24
329.436	8.48
329.809	9.05
330.181	8.72
330.553	9.15
330.926	8.9
331.298	8.99
331.671	8.9
332.043	8.73
332.415	8.82
332.787	9.25
333.159	8.98
333.532	9.67
333.904	9.69
334.276	8.78
334.648	9.35
335.02	9.52
335.391	9.02
335.763	9.84
336.135	9.73
336.507	9.61
336.879	9.3
337.25	9.67
337.622	10.16
337.993	9.98
338.365	9.65
338.736	9.64
339.108	10.07
339.479	9.71
339.851	9.58
340.222	9.44
340.593	9.2
340.964	9.66
341.336	10.25
341.707	10.07
342.078	9.65
342.449	9.8
342.82	9.99
343.191	10.3
343.562	9.96
343.933	10.46
344.303	10.35
344.674	10.63
345.045	10.43
345.416	11.14
345.786	10.57
346.157	10.75
346.527	10.26
346.898	10.57
347.268	10.77
347.639	10.79
348.009	10.49
348.38	10.9
348.75	10.8
349.12	10.85
349.49	10.95
349.861	10.9
350.231	10.71
350.601	10.69
350.971	11.47
351.341	11.43
351.711	11.79
352.081	11.07
352.45	10.88
352.82	11.44
353.19	11.91
353.56	11.81
353.929	11.45
354.299	11.28
354.669	11.31
355.038	11.84
355.408	11.67
355.777	11.45
356.147	11.47
356.516	11.48
356.885	11.73
357.254	11.18
357.624	11.88
357.993	11.5
358.362	11.62
358.731	11.15
359.1	11.65
359.469	11.74
359.838	12.06
360.207	11.84
360.576	12.24
360.945	12.01
361.314	12.14
361.682	12.09
362.051	11.85
362.42	12.24
362.788	12.06
363.157	12.13
363.525	11.98
363.894	12.28
364.262	12.17
364.631	12.23
364.999	12.37
365.367	12.7
365.735	12.5
366.104	12.6
366.472	12.62
366.84	12.78
367.208	12.71
367.576	12.75
367.944	12.9
368.312	12.63
368.68	12.96
369.048	12.76
369.416	13.13
369.783	13.27
370.151	12.97
370.519	13.34
370.886	13.26
371.254	13.8
371.621	13.79
371.989	13.56
372.356	13.68
372.724	13.56
373.091	13.21
373.458	13.5
373.826	13.69
374.193	13.28
374.56	13.54
374.927	13.55
375.294	13.91
375.661	14.14
376.028	13.92
376.395	14.03
376.762	14
377.129	13.96
377.496	13.98
377.863	14.27
378.229	13.91
378.596	14.34
378.963	14.21
379.329	14.09
379.696	13.95
380.062	14.27
380.429	14.15
380.795	14.12
381.161	14.67
381.528	14.55
381.894	14.95
382.26	14.59
382.626	14.84
382.993	14.68
383.359	14.7
383.725	14.77
384.091	14.72
384.457	14.85
384.823	14.89
385.188	15.38
385.554	15.21
385.92	15.14
386.286	15.2
386.651	14.87
387.017	15.17
387.383	15.23
387.748	15.03
388.114	15.06
388.479	15.29
388.845	15.59
389.21	15.4
389.575	15.14
389.94	15.64
390.306	15.2
390.671	15.65
391.036	15.62
391.401	15.56
391.766	15.8
392.131	15.86
392.496	16
392.861	15.75
393.226	15.86
393.591	15.85
393.956	15.86
394.32	16.3
394.685	15.85
395.05	16.24
395.414	16.29
395.779	16.05
396.143	16
396.508	16.22
396.872	16.15
397.236	16.14
397.601	16.25
397.965	15.99
398.329	16.29
398.694	16.45
399.058	16.09
399.422	16.36
399.786	16.37
400.15	16.62
400.514	16.61
400.878	16.74
401.242	16.79
401.605	16.62
401.969	16.98
402.333	16.97
402.697	17.06
403.06	16.84
403.424	16.9
403.787	17.11
404.151	17.09
404.514	16.8
404.878	17.29
405.241	17.31
405.604	17.21
405.968	17.3
406.331	17.29
406.694	17.29
407.057	17.37
407.42	17.51
407.783	17.23
408.146	17.58
408.509	17.52
408.872	17.61
409.235	17.43
409.598	17.88
409.961	17.8
410.323	17.66
410.686	17.57
411.049	18.06
411.411	18.05
411.774	18.03
412.136	18.06
412.499	17.98
412.861	18.13
413.223	18.21
413.586	18.18
413.948	18.31
414.31	18.3
414.672	18.31
415.035	18.22
415.397	18.48
415.759	18.4
416.121	18.2
416.483	18.52
416.845	18.67
417.206	18.74
417.568	18.59
417.93	18.55
418.292	18.23
418.653	18.66
419.015	18.57
419.377	18.62
419.738	18.61
420.1	18.35
420.461	18.53
420.822	18.7
421.184	18.78
421.545	18.68
421.906	18.76
422.267	18.63
422.629	18.71
422.99	18.72
423.351	18.74
423.712	18.64
424.073	18.92
424.434	18.93
424.795	18.95
425.155	18.99
425.516	19.03
425.877	19.05
426.238	18.91
426.598	19.1
426.959	19.06
427.32	19.26
427.68	19.44
428.041	19.56
428.401	19.54
428.761	19.51
429.122	19.8
429.482	20.01
429.842	19.78
430.202	20.03
430.563	20.1
430.923	20.31
431.283	20.24
431.643	20.35
432.003	20.41
432.363	20.5
432.722	20.38
433.082	20.49
433.442	20.47
433.802	20.88
434.161	20.32
434.521	20.57
434.881	20.62
435.24	20.63
435.6	20.57
435.959	20.66
436.319	20.67
436.678	20.76
437.037	20.86
437.396	20.88
437.756	21.02
438.115	20.85
438.474	21.21
438.833	21.32
439.192	20.93
439.551	21.4
439.91	21.17
440.269	21.36
440.628	21.41
440.987	21.49
441.345	21.32
441.704	21.49
442.063	21.41
442.421	21.26
442.78	21.4
443.138	21.44
443.497	21.39
443.855	21.49
444.214	21.57
444.572	21.75
444.93	21.87
445.288	21.93
445.647	22
446.005	22.02
446.363	21.81
446.721	21.97
447.079	21.97
447.437	21.94
447.795	21.88
448.153	21.95
448.51	21.91
448.868	21.93
449.226	21.95
449.584	22.16
449.941	22.18
450.299	22.13
450.656	22.45
451.014	22.38
451.371	22.61
451.729	22.64
452.086	22.87
452.443	22.93
452.801	22.88
453.158	23.12
453.515	23.02
453.872	22.97
454.229	23.17
454.586	23.17
454.943	23.09
455.3	23.12
455.657	23.25
456.014	23.18
456.371	23.41
456.727	23.47
457.084	23.55
457.441	23.57
457.797	23.86
458.154	23.36
458.51	23.71
458.867	23.46
459.223	23.72
459.58	23.86
459.936	23.89
460.292	23.9
460.648	23.61
461.005	23.73
461.361	23.74
461.717	23.54
462.073	23.56
462.429	23.6
462.785	23.75
463.141	24.04
463.496	24.07
463.852	24.18
464.208	24.52
464.564	24.42
464.919	24.5
465.275	24.83
465.631	24.75
465.986	24.72
466.342	24.89
466.697	24.98
467.052	24.64
467.408	24.93
467.763	24.99
468.118	25.14
468.473	25.06
468.829	25.11
469.184	25.24
469.539	24.96
469.894	25.28
470.249	25.2
470.603	25.39
470.958	25.4
471.313	25.22
471.668	25.63
472.023	25.51
472.377	25.29
472.732	25.65
473.086	25.82
473.441	26.01
473.795	25.93
474.15	25.82
474.504	25.64
474.859	25.87
475.213	25.93
475.567	25.76
475.921	26.03
476.275	26
476.63	26.29
476.984	26.4
477.338	26.15
477.692	26.16
478.045	26.43
478.399	26.29
478.753	26.35
479.107	26.26
479.461	26.29
479.814	26.45
480.168	26.47
480.521	26.51
480.875	26.58
481.228	26.46
481.582	26.71
481.935	26.6
482.289	26.72
482.642	26.69
482.995	26.59
483.348	26.78
483.701	26.81
484.055	26.69
484.408	26.68
484.761	26.41
485.114	26.37
485.466	25.99
485.819	25.86
486.172	25.92
486.525	25.99
486.878	26.06
487.23	26.2
487.583	26.29
487.936	26.47
488.288	26.68
488.641	26.73
488.993	26.62
489.345	26.56
489.698	26.55
490.05	26.64
490.402	26.57
490.754	26.69
491.107	26.86
491.459	26.99
491.811	27.26
492.163	27.44
492.515	27.52
492.866	27.48
493.218	27.45
493.57	27.22
493.922	27.19
494.274	27.33
494.625	27.38
494.977	27.53
495.328	27.68
495.68	27.85
496.031	28.23
496.383	28.27
496.734	28.52
497.086	28.55
497.437	28.66
497.788	28.7
498.139	28.82
498.49	28.57
498.842	28.53
499.193	28.74
499.544	28.64
499.894	28.77
500.245	28.71
500.596	28.8
500.947	28.89
501.298	28.96
501.648	29.08
501.999	29.31
502.35	29.47
502.7	29.21
503.051	29.53
503.401	29.59
503.752	29.55
504.102	29.73
504.452	29.75
504.803	29.56
505.153	29.76
505.503	29.79
505.853	29.77
506.203	29.78
506.553	29.88
506.903	29.82
507.253	29.76
507.603	29.99
507.953	30.02
508.303	30.17
508.652	30.3
509.002	30.16
509.352	30.14
509.701	30.31
510.051	30.13
510.4	30.28
510.75	30.26
511.099	30.37
511.449	30.35
511.798	30.4
512.147	30.32
512.496	30.47
512.846	30.36
513.195	30.47
513.544	30.53
513.893	30.66
514.242	30.69
514.591	30.47
514.939	30.81
515.288	30.63
515.637	30.89
515.986	31.02
516.334	30.94
516.683	31.04
517.032	30.91
517.38	31.19
517.729	31.21
518.077	31.14
518.426	31.36
518.774	31.22
519.122	31.33
519.47	31.22
519.819	31.33
520.167	31.2
520.515	31.03
520.863	31.12
521.211	31.11
521.559	31.1
521.907	31.21
522.255	31.37
522.602	31.58
522.95	31.75
523.298	31.84
523.645	31.94
523.993	31.84
524.341	32.11
524.688	32.03
525.036	32.15
525.383	32.1
525.73	32.34
526.078	32.12
526.425	32.53
526.772	32.16
527.119	32.12
527.466	31.89
527.814	31.86
528.161	31.83
528.508	31.93
528.854	31.74
529.201	31.99
529.548	32.09
529.895	31.94
530.242	31.72
530.588	31.52
530.935	31.57
531.282	31.73
531.628	31.71
531.975	31.79
532.321	31.99
532.667	32.2
533.014	32.43
533.36	32.59
533.706	32.7
534.052	32.73
534.399	32.84
534.745	32.8
535.091	32.48
535.437	32.49
535.783	32.51
536.129	32.51
536.474	32.66
536.82	32.81
537.166	32.98
537.512	33.17
537.857	33.14
538.203	33.33
538.549	33.32
538.894	33.19
539.239	33.36
539.585	33.35
539.93	33.52
540.276	33.82
540.621	33.73
540.966	33.78
541.311	34.13
541.656	34.26
542.001	34.05
542.346	34.25
542.691	33.77
543.036	33.68
543.381	33.4
543.726	33.3
544.071	33.47
544.415	33.6
544.76	33.62
545.105	33.9
545.449	33.98
545.794	34.02
546.138	34.15
546.483	34.4
546.827	34.65
547.171	34.81
547.516	34.69
547.86	35.02
548.204	34.82
548.548	34.73
548.892	34.76
549.236	34.86
549.58	34.84
549.924	34.97
550.268	35.16
550.612	35.28
550.956	35.48
551.3	35.55
551.643	35.53
551.987	35.87
552.33	35.88
552.674	35.94
553.017	35.96
553.361	36.22
553.704	35.94
554.048	36.06
554.391	35.88
554.734	36.14
555.077	36.2
555.42	35.99
555.764	35.99
556.107	36.39
556.45	36.51
556.793	36.25
557.135	36.27
557.478	36.48
557.821	36.65
558.164	36.9
558.507	36.72
558.849	36.87
559.192	36.92
559.534	37.17
559.877	36.85
560.219	36.84
560.562	36.89
560.904	36.9
561.246	37.1
561.589	36.96
561.931	37.23
562.273	37.41
562.615	37.75
562.957	37.3
563.299	37.35
563.641	37.19
563.983	37.42
564.325	37.5
564.667	37.65
565.008	37.62
565.35	37.49
565.692	37.71
566.033	37.81
566.375	37.69
566.716	37.84
567.058	37.83
567.399	37.68
567.741	37.98
568.082	37.92
568.423	37.76
568.764	37.72
569.105	38.03
569.447	37.77
569.788	38.05
570.129	38.04
570.47	37.94
570.811	38.43
571.151	38.32
571.492	38.27
571.833	38.48
572.174	38.48
572.514	38.41
572.855	38.3
573.195	38.36
573.536	38.7
573.876	38.57
574.217	38.52
574.557	38.47
574.898	38.4
575.238	38.64
575.578	38.6
575.918	38.86
576.258	38.53
576.598	39.08
576.938	38.85
577.278	38.86
577.618	38.96
577.958	39.18
578.298	39.1
578.638	39.2
578.977	39.31
579.317	39.28
579.657	39.48
579.996	39.49
580.336	39.57
580.675	39.49
581.014	39.63
581.354	39.95
581.693	39.62
582.032	40.09
582.372	40.22
582.711	40.22
583.05	40.61
583.389	40.34
583.728	40.28
584.067	40.37
584.406	40.58
584.745	40.63
585.083	40.37
585.422	40.65
585.761	40.45
586.1	40.6
586.438	40.27
586.777	40.82
587.115	40.98
587.454	40.41
587.792	40.76
588.13	40.99
588.469	41.09
588.807	40.92
589.145	40.97
589.483	41.08
589.821	41.01
590.159	41.14
590.497	41.16
590.835	41.06
591.173	41.08
591.511	40.83
591.849	41.12
592.187	41.43
592.524	41.49
592.862	41.39
593.2	41.57
593.537	41.39
593.875	41.51
594.212	41.81
594.55	41.6
594.887	41.5
595.224	41.52
595.561	41.84
595.899	41.88
596.236	42.12
596.573	42
596.91	41.72
597.247	42.12
597.584	41.89
597.921	42
598.258	42.19
598.594	41.96
598.931	41.59
599.268	41.65
599.604	41.75
599.941	41.84
600.277	42.09
600.614	42.17
600.95	42.26
601.287	42.36
601.623	42.46
601.959	42.46
602.296	42.58
602.632	42.3
602.968	42.98
603.304	42.9
603.64	42.77
603.976	42.72
604.312	43
604.648	43.04
604.984	42.99
605.319	42.89
605.655	42.98
605.991	42.94
606.326	42.93
606.662	42.61
606.998	42.8
607.333	42.93
607.668	43.11
608.004	42.86
608.339	42.83
608.674	43.47
609.01	43.48
609.345	43.72
609.68	43.87
610.015	43.57
610.35	43.54
610.685	43.72
611.02	43.64
611.355	43.64
611.689	43.25
612.024	43.56
612.359	43.66
612.694	43.68
613.028	43.87
613.363	43.84
613.697	44.11
614.032	43.81
614.366	44.27
614.7	44.15
615.035	44.48
615.369	44.56
615.703	44.56
616.037	44.5
616.371	44.65
616.705	44.68
617.039	44.92
617.373	44.73
617.707	44.8
618.041	44.9
618.375	45.22
618.709	44.48
619.042	44.79
619.376	45.36
619.71	45.31
620.043	45.5
620.377	45.06
620.71	45.19
621.043	45.27
621.377	44.88
621.71	45.38
622.043	45.48
622.376	45.43
622.709	45.39
623.043	45.23
623.376	45.96
623.709	45.73
624.041	46.15
624.374	46.3
624.707	45.68
625.04	45.85
625.373	45.61
625.705	45.9
626.038	45.86
626.37	45.85
626.703	46.08
627.035	46.23
627.368	46.37
627.7	46.26
628.032	46.24
628.365	46.21
628.697	46.46
629.029	45.93
629.361	46.09
629.693	46.27
630.025	46.28
630.357	46.31
630.689	46.18
631.021	46.48
631.353	46.34
631.684	46.22
632.016	46.13
632.348	46.64
632.679	46.72
633.011	46.69
633.342	46.72
633.674	46.55
634.005	46.74
634.336	47.13
634.668	47.29
634.999	47.17
635.33	47.15
635.661	46.8
635.992	47.4
636.323	47.21
636.654	47.31
636.985	47.57
637.316	47.44
637.647	47.63
637.977	46.9
638.308	46.97
638.639	47.14
638.969	47.4
639.3	47.4
639.63	47.69
639.961	47.2
640.291	47.43
640.622	48.16
640.952	47.95
641.282	47.58
641.612	48
641.943	47.85
642.273	47.82
642.603	48.48
642.933	48.18
643.263	47.84
643.592	48.21
643.922	48.46
644.252	48.04
644.582	47.88
644.911	48.15
645.241	48.1
645.571	48.61
645.9	48.27
646.23	48.61
646.559	48.33
646.888	48.22
647.218	49.05
647.547	48.14
647.876	48.87
648.205	48.83
648.534	48.43
648.863	48.7
649.192	49.06
649.521	48.85
649.85	48.84
650.179	49.21
650.508	48.86
650.837	49.26
651.165	49.3
651.494	49.2
651.822	49.02
652.151	49.35
652.479	49.19
652.808	49.32
653.136	49.38
653.465	49.76
653.793	49.69
654.121	49.58
654.449	49.38
654.777	49.26
655.105	49.2
655.433	49.52
655.761	49.78
656.089	50.33
656.417	49.33
656.745	50.01
657.073	49.64
657.4	50.12
657.728	50.39
658.056	49.88
658.383	50.01
658.711	48.91
659.038	50.67
659.365	50.21
659.693	49.67
660.02	49.93
660.347	50.17
660.674	50.14
661.001	49.65
661.329	49.98
661.656	50.16
661.982	50.38
662.309	50.26
662.636	51.19
662.963	50.19
663.29	50
663.616	49.98
663.943	50.62
664.27	50.75
664.596	50.95
664.923	50.23
665.249	50.12
665.576	50.73
665.902	50.29
666.228	51.03
666.554	50.51
666.881	50.05
667.207	50.77
667.533	50.87
667.859	51.48
668.185	51.09
668.511	51.38
668.837	51.24
669.162	51.28
669.488	50.94
669.814	50.98
670.139	51.83
670.465	51.45
670.791	51.92
671.116	51.68
