Data from 0273_crown_Reflection__0__251.txt Node

Date: Fri Oct 20 22:41:17 CDT 2023
User: ToomeyLab
Spectrometer: FLMS14357
Trigger mode: 0
Integration Time (sec): 1.000000E-2
Scans to average: 100
Electric dark correction enabled: true
Nonlinearity correction enabled: false
Boxcar width: 0
XAxis mode: Wavelengths
Number of Pixels in Spectrum: 2048
>>>>>Begin Spectral Data<<<<<
189.047	-565.42
189.435	-565.42
189.823	-565.42
190.211	566.2
190.599	98.23
190.987	95.29
191.375	54.37
191.763	140.17
192.151	194.93
192.538	202.3
192.926	-40.72
193.314	131.2
193.702	147.15
194.089	138.93
194.477	46.36
194.864	-271.33
195.252	233.06
195.639	-83.99
196.027	162.91
196.414	-53.73
196.801	4.11
197.189	-15.86
197.576	65.2
197.963	-58
198.351	25.23
198.738	26.03
199.125	41.29
199.512	32.58
199.899	5.22
200.286	-21.86
200.673	20.85
201.06	13.7
201.447	-2.54
201.833	23.25
202.22	21.22
202.607	50.25
202.994	22.54
203.38	22.33
203.767	24.83
204.154	16.82
204.54	42.46
204.927	26.95
205.313	9.82
205.699	37.7
206.086	-7.71
206.472	42.98
206.858	5.72
207.245	3.76
207.631	23.99
208.017	43.61
208.403	10.64
208.789	24.12
209.175	-12.09
209.561	4.77
209.947	-6.5
210.333	16.3
210.719	-23.24
211.105	27.19
211.491	19.96
211.876	-17.01
212.262	35.02
212.648	43.26
213.034	14.65
213.419	-7.78
213.805	-1.85
214.19	-5
214.576	31.97
214.961	-1.78
215.346	20.68
215.732	35.93
216.117	-66.26
216.502	4.52
216.888	-7.65
217.273	-36.94
217.658	-26.65
218.043	-10.11
218.428	4.14
218.813	11.93
219.198	-2.15
219.583	-18.36
219.968	-18.92
220.353	21.13
220.738	9.94
221.122	7.44
221.507	-5.86
221.892	-11.29
222.276	1.89
222.661	8.32
223.046	-2.29
223.43	-6.03
223.815	11.12
224.199	16.08
224.583	-3.37
224.968	1.89
225.352	1.52
225.736	-3.65
226.121	5.09
226.505	-4.56
226.889	10.96
227.273	2.46
227.657	3.75
228.041	8.38
228.425	3.23
228.809	3.89
229.193	1.04
229.577	4.88
229.961	5.05
230.344	4.64
230.728	4.26
231.112	4.89
231.495	4.7
231.879	4.87
232.263	6.27
232.646	4.04
233.03	4.21
233.413	3.04
233.797	4.51
234.18	3.59
234.563	6
234.946	5.77
235.33	6.39
235.713	4.73
236.096	4.17
236.479	4.83
236.862	4.51
237.245	3.45
237.628	2.95
238.011	5.29
238.394	5.18
238.777	5.47
239.16	5.07
239.543	6.13
239.925	7.06
240.308	4.57
240.691	4.37
241.073	5.67
241.456	6.45
241.838	3.56
242.221	6.64
242.603	5.04
242.986	3.96
243.368	5.18
243.75	4.05
244.133	4.46
244.515	4.13
244.897	4.19
245.279	4.18
245.661	4.16
246.043	3.49
246.425	4.34
246.807	3.44
247.189	4.78
247.571	4.54
247.953	4.52
248.335	4.27
248.717	4.06
249.098	4.04
249.48	4.11
249.862	4.24
250.243	4.33
250.625	4.12
251.006	4.05
251.388	3.79
251.769	4.9
252.151	3.91
252.532	4.95
252.913	4.39
253.295	3.87
253.676	4.47
254.057	4.38
254.438	4.6
254.819	4.65
255.2	3.97
255.581	4.07
255.962	4.14
256.343	4.35
256.724	3.05
257.105	4.31
257.486	4.59
257.867	4.44
258.247	3.12
258.628	4.08
259.009	3.41
259.389	3.3
259.77	3.57
260.15	3.51
260.531	4.45
260.911	3.93
261.292	3.89
261.672	4.25
262.052	4.1
262.432	4
262.813	3.98
263.193	4.13
263.573	3.95
263.953	4.61
264.333	4.59
264.713	4.26
265.093	4.71
265.473	4.53
265.853	3.52
266.233	4.14
266.612	4.04
266.992	3.7
267.372	3.68
267.752	3.44
268.131	3.89
268.511	3.77
268.89	4.08
269.27	3.67
269.649	3.48
270.029	3.95
270.408	4.16
270.787	3.85
271.167	3.71
271.546	3.73
271.925	4.7
272.304	4.33
272.683	3.74
273.062	4.04
273.441	3.85
273.82	4.19
274.199	4.04
274.578	3.59
274.957	4.16
275.336	4
275.715	3.74
276.093	3.97
276.472	4.34
276.851	4.29
277.229	4.03
277.608	3.47
277.986	3.52
278.365	4.23
278.743	3.69
279.122	4.11
279.5	4.1
279.878	3.79
280.257	4.05
280.635	3.76
281.013	4.16
281.391	4.28
281.769	4.03
282.147	3.74
282.525	3.73
282.903	3.99
283.281	3.62
283.659	3.58
284.037	3.94
284.415	3.31
284.792	3.69
285.17	3.79
285.548	3.45
285.925	3.54
286.303	3.2
286.68	3.45
287.058	3.93
287.435	3.72
287.813	3.06
288.19	3.42
288.567	3.52
288.945	3.79
289.322	3.81
289.699	3.2
290.076	4.23
290.453	3.81
290.83	3.34
291.207	3.72
291.584	3.97
291.961	3.63
292.338	3.32
292.715	3.52
293.092	3.74
293.469	3.65
293.845	3.57
294.222	3.68
294.599	3.52
294.975	4.81
295.352	3.48
295.728	3.52
296.105	3.59
296.481	3.51
296.858	3.56
297.234	3.26
297.61	2.86
297.986	3.22
298.363	3.33
298.739	3.52
299.115	3.14
299.491	3.43
299.867	3.63
300.243	3.55
300.619	3.53
300.995	3.22
301.371	3.62
301.746	3.34
302.122	3.81
302.498	3.3
302.874	3.34
303.249	3.44
303.625	3.51
304	3.9
304.376	3.27
304.751	2.94
305.127	2.74
305.502	3.58
305.878	3.56
306.253	3.41
306.628	2.97
307.003	3.35
307.378	3.37
307.754	3.18
308.129	3.96
308.504	4
308.879	3.27
309.254	3.8
309.629	2.74
310.003	2.68
310.378	3.18
310.753	3.49
311.128	3.68
311.502	3.22
311.877	3.44
312.252	3.01
312.626	3.64
313.001	3.39
313.375	3.43
313.75	3.23
314.124	3.08
314.498	3.51
314.873	3.13
315.247	3.57
315.621	3.37
315.995	3.48
316.369	2.86
316.743	3.5
317.117	3.33
317.491	2.81
317.865	3.14
318.239	3.63
318.613	3.36
318.987	3.25
319.361	2.52
319.734	3.07
320.108	3
320.482	3.36
320.855	3.29
321.229	3.6
321.602	3.34
321.976	3.69
322.349	3.45
322.723	3.05
323.096	3.18
323.469	2.89
323.843	2.83
324.216	3.29
324.589	3.24
324.962	3.77
325.335	3.35
325.708	2.84
326.081	2.91
326.454	3.64
326.827	3.86
327.2	3.82
327.573	3.67
327.945	2.78
328.318	2.98
328.691	3.38
329.063	3.6
329.436	3.29
329.809	3.26
330.181	3.96
330.553	3.48
330.926	3.17
331.298	2.58
331.671	3.01
332.043	2.73
332.415	3.25
332.787	3.47
333.159	2.8
333.532	3.39
333.904	3.44
334.276	2.61
334.648	3.41
335.02	3.3
335.391	3.15
335.763	3.29
336.135	3.41
336.507	3.06
336.879	3.05
337.25	3.3
337.622	3.25
337.993	3.92
338.365	2.98
338.736	3.38
339.108	3.63
339.479	3.33
339.851	3.37
340.222	2.82
340.593	2.7
340.964	2.89
341.336	3.65
341.707	3.15
342.078	3.24
342.449	3.07
342.82	3
343.191	3.16
343.562	3.77
343.933	3.38
344.303	3.28
344.674	3.72
345.045	3.57
345.416	3.41
345.786	3.37
346.157	3.07
346.527	3.38
346.898	3.41
347.268	3.32
347.639	3.6
348.009	3.27
348.38	3.54
348.75	3.43
349.12	3.35
349.49	3.04
349.861	3.46
350.231	3.17
350.601	3.32
350.971	3.6
351.341	3.63
351.711	3.83
352.081	3.61
352.45	3.12
352.82	3.55
353.19	3.74
353.56	3.25
353.929	3.36
354.299	3.28
354.669	3.36
355.038	3.21
355.408	3.46
355.777	3.27
356.147	3.09
356.516	3.07
356.885	3.38
357.254	3.47
357.624	3.54
357.993	3.3
358.362	3.42
358.731	3.24
359.1	3.21
359.469	3.42
359.838	3.68
360.207	3.27
360.576	3.7
360.945	3.41
361.314	3.42
361.682	3.46
362.051	3.37
362.42	3.13
362.788	3.47
363.157	3.3
363.525	3.24
363.894	3.42
364.262	3.29
364.631	3.5
364.999	3.34
365.367	3.61
365.735	3.25
366.104	3.18
366.472	3.32
366.84	3.65
367.208	3.35
367.576	3.44
367.944	3.49
368.312	3.5
368.68	3.74
369.048	3.37
369.416	3.61
369.783	3.65
370.151	3.58
370.519	3.47
370.886	3.6
371.254	3.46
371.621	4.01
371.989	3.45
372.356	3.9
372.724	3.81
373.091	3.41
373.458	3.26
373.826	3.85
374.193	3.44
374.56	3.44
374.927	3.88
375.294	3.64
375.661	3.49
376.028	3.72
376.395	3.83
376.762	3.68
377.129	3.81
377.496	3.48
377.863	3.82
378.229	3.57
378.596	3.81
378.963	3.97
379.329	3.86
379.696	3.46
380.062	3.75
380.429	3.52
380.795	3.68
381.161	3.77
381.528	3.9
381.894	3.54
382.26	3.69
382.626	3.92
382.993	3.92
383.359	3.81
383.725	3.63
384.091	3.69
384.457	3.74
384.823	3.69
385.188	3.93
385.554	3.87
385.92	3.8
386.286	3.75
386.651	3.42
387.017	3.91
387.383	3.69
387.748	3.52
388.114	3.42
388.479	3.74
388.845	3.89
389.21	3.77
389.575	3.44
389.94	3.77
390.306	3.66
390.671	3.91
391.036	3.63
391.401	4.14
391.766	4
392.131	3.87
392.496	3.94
392.861	3.79
393.226	3.96
393.591	3.74
393.956	3.97
394.32	4.17
394.685	3.78
395.05	4.06
395.414	3.87
395.779	3.69
396.143	3.73
396.508	3.79
396.872	3.93
397.236	3.88
397.601	3.77
397.965	3.58
398.329	3.98
398.694	3.96
399.058	3.73
399.422	4.04
399.786	3.96
400.15	3.83
400.514	3.97
400.878	3.97
401.242	4.12
401.605	3.76
401.969	3.72
402.333	3.87
402.697	3.89
403.06	3.97
403.424	3.92
403.787	3.74
404.151	3.77
404.514	3.68
404.878	3.98
405.241	3.99
405.604	4.04
405.968	3.89
406.331	3.72
406.694	3.8
407.057	3.91
407.42	4.08
407.783	3.99
408.146	3.93
408.509	3.68
408.872	4.23
409.235	4.02
409.598	3.97
409.961	3.9
410.323	3.95
410.686	3.75
411.049	4.16
411.411	4.11
411.774	4.13
412.136	3.88
412.499	3.82
412.861	4.06
413.223	4.05
413.586	4.04
413.948	4.02
414.31	4.05
414.672	3.9
415.035	3.98
415.397	4.16
415.759	3.94
416.121	3.76
416.483	4.17
416.845	4.16
417.206	4.05
417.568	4.01
417.93	4.11
418.292	3.8
418.653	4.04
419.015	3.88
419.377	3.94
419.738	3.87
420.1	3.83
420.461	3.92
420.822	3.78
421.184	3.91
421.545	3.93
421.906	3.96
422.267	3.89
422.629	3.94
422.99	3.85
423.351	3.93
423.712	3.95
424.073	3.93
424.434	3.85
424.795	3.95
425.155	4.07
425.516	3.92
425.877	3.94
426.238	3.93
426.598	3.89
426.959	3.87
427.32	3.85
427.68	4.08
428.041	3.87
428.401	4.07
428.761	3.94
429.122	3.98
429.482	3.89
429.842	4.13
430.202	4.15
430.563	4.19
430.923	4.25
431.283	3.92
431.643	4.14
432.003	4.35
432.363	3.97
432.722	4.12
433.082	4.08
433.442	4.05
433.802	4.18
434.161	4.15
434.521	3.99
434.881	4.11
435.24	4.12
435.6	4.13
435.959	4.12
436.319	4.09
436.678	4.15
437.037	3.98
437.396	4.22
437.756	4.07
438.115	3.95
438.474	4.04
438.833	4.29
439.192	3.92
439.551	3.92
439.91	4.07
440.269	4.24
440.628	4.1
440.987	4
441.345	4.06
441.704	4.12
442.063	4.05
442.421	4.04
442.78	4.05
443.138	4.1
443.497	4.09
443.855	4.03
444.214	4.12
444.572	4.02
444.93	4.26
445.288	4.24
445.647	4.31
446.005	4.01
446.363	4.01
446.721	4.09
447.079	4.27
447.437	4.01
447.795	3.93
448.153	4.06
448.51	4.06
448.868	4.06
449.226	4.07
449.584	4.05
449.941	3.99
450.299	4.21
450.656	4.06
451.014	4.09
451.371	4.13
451.729	4.05
452.086	4.26
452.443	4.22
452.801	4.18
453.158	4.34
453.515	4.12
453.872	4.19
454.229	4.25
454.586	4.16
454.943	4.16
455.3	4.05
455.657	4.16
456.014	4.09
456.371	4.17
456.727	4.21
457.084	4.28
457.441	4.09
457.797	4.24
458.154	4.09
458.51	4.14
458.867	4.24
459.223	4.2
459.58	4.27
459.936	4.25
460.292	4.23
460.648	4.18
461.005	4.09
461.361	4.16
461.717	3.99
462.073	4.05
462.429	4.07
462.785	4.1
463.141	4.18
463.496	4.17
463.852	4.34
464.208	4.32
464.564	4.19
464.919	4.21
465.275	4.43
465.631	4.27
465.986	4.37
466.342	4.3
466.697	4.09
467.052	4.16
467.408	4.27
467.763	4.38
468.118	4.49
468.473	4.35
468.829	4.19
469.184	4.2
469.539	4.21
469.894	4.25
470.249	4.36
470.603	4.35
470.958	4.26
471.313	4.42
471.668	4.29
472.023	4.38
472.377	4.2
472.732	4.19
473.086	4.44
473.441	4.4
473.795	4.39
474.15	4.31
474.504	4.12
474.859	4.31
475.213	4.36
475.567	4.3
475.921	4.24
476.275	4.28
476.63	4.49
476.984	4.4
477.338	4.45
477.692	4.46
478.045	4.24
478.399	4.21
478.753	4.4
479.107	4.33
479.461	4.31
479.814	4.36
480.168	4.4
480.521	4.37
480.875	4.31
481.228	4.27
481.582	4.37
481.935	4.16
482.289	4.33
482.642	4.26
482.995	4.35
483.348	4.33
483.701	4.28
484.055	4.27
484.408	4.19
484.761	4.12
485.114	4.07
485.466	4.07
485.819	3.99
486.172	3.94
486.525	3.98
486.878	4.02
487.23	4.07
487.583	4.12
487.936	4.06
488.288	4.18
488.641	4.25
488.993	4.1
489.345	4.02
489.698	4.04
490.05	4.03
490.402	4.03
490.754	4.06
491.107	4.12
491.459	4.22
491.811	4.22
492.163	4.22
492.515	4.26
492.866	4.21
493.218	4.16
493.57	4.02
493.922	4.06
494.274	4.14
494.625	4.16
494.977	4.24
495.328	4.24
495.68	4.34
496.031	4.15
496.383	4.4
496.734	4.33
497.086	4.38
497.437	4.33
497.788	4.25
498.139	4.45
498.49	4.24
498.842	4.22
499.193	4.38
499.544	4.29
499.894	4.34
500.245	4.28
500.596	4.32
500.947	4.27
501.298	4.33
501.648	4.28
501.999	4.29
502.35	4.32
502.7	4.43
503.051	4.26
503.401	4.38
503.752	4.39
504.102	4.44
504.452	4.33
504.803	4.43
505.153	4.4
505.503	4.43
505.853	4.48
506.203	4.29
506.553	4.32
506.903	4.4
507.253	4.42
507.603	4.33
507.953	4.47
508.303	4.3
508.652	4.35
509.002	4.35
509.352	4.34
509.701	4.41
510.051	4.25
510.4	4.25
510.75	4.31
511.099	4.31
511.449	4.45
511.798	4.39
512.147	4.34
512.496	4.36
512.846	4.28
513.195	4.36
513.544	4.32
513.893	4.18
514.242	4.31
514.591	4.31
514.939	4.34
515.288	4.2
515.637	4.33
515.986	4.33
516.334	4.34
516.683	4.33
517.032	4.16
517.38	4.39
517.729	4.47
518.077	4.48
518.426	4.28
518.774	4.2
519.122	4.26
519.47	4.31
519.819	4.22
520.167	4.26
520.515	4.18
520.863	4.32
521.211	4.24
521.559	4.28
521.907	4.34
522.255	4.28
522.602	4.4
522.95	4.26
523.298	4.35
523.645	4.37
523.993	4.25
524.341	4.38
524.688	4.37
525.036	4.29
525.383	4.2
525.73	4.52
526.078	4.31
526.425	4.42
526.772	4.3
527.119	4.26
527.466	4.21
527.814	4.31
528.161	4.3
528.508	4.26
528.854	4.22
529.201	4.19
529.548	4.17
529.895	4.19
530.242	4.11
530.588	4.03
530.935	4
531.282	4.08
531.628	4.12
531.975	4.08
532.321	4.17
532.667	4.19
533.014	4.24
533.36	4.26
533.706	4.31
534.052	4.32
534.399	4.18
534.745	4.13
535.091	4.16
535.437	4.2
535.783	4.12
536.129	4.2
536.474	4.29
536.82	4.32
537.166	4.23
537.512	4.28
537.857	4.4
538.203	4.25
538.549	4.3
538.894	4.26
539.239	4.25
539.585	4.33
539.93	4.34
540.276	4.4
540.621	4.32
540.966	4.46
541.311	4.34
541.656	4.47
542.001	4.45
542.346	4.37
542.691	4.19
543.036	4.23
543.381	4.12
543.726	4.09
544.071	4.11
544.415	4.17
544.76	4.17
545.105	4.29
545.449	4.23
545.794	4.25
546.138	4.19
546.483	4.21
546.827	4.28
547.171	4.32
547.516	4.17
547.86	4.45
548.204	4.14
548.548	4.39
548.892	4.24
549.236	4.31
549.58	4.14
549.924	4.35
550.268	4.35
550.612	4.44
550.956	4.37
551.3	4.35
551.643	4.19
551.987	4.55
552.33	4.27
552.674	4.37
553.017	4.28
553.361	4.62
553.704	4.45
554.048	4.4
554.391	4.35
554.734	4.43
555.077	4.29
555.42	4.22
555.764	4.24
556.107	4.55
556.45	4.57
556.793	4.27
557.135	4.47
557.478	4.32
557.821	4.57
558.164	4.49
558.507	4.55
558.849	4.52
559.192	4.42
559.534	4.44
559.877	4.26
560.219	4.43
560.562	4.39
560.904	4.28
561.246	4.32
561.589	4.2
561.931	4.35
562.273	4.71
562.615	4.56
562.957	4.42
563.299	4.38
563.641	4.53
563.983	4.36
564.325	4.33
564.667	4.52
565.008	4.18
565.35	4.46
565.692	4.4
566.033	4.29
566.375	4.34
566.716	4.36
567.058	4.36
567.399	4.49
567.741	4.17
568.082	4.25
568.423	4.33
568.764	4.12
569.105	4.46
569.447	4.29
569.788	4.29
570.129	4.31
570.47	4.33
570.811	4.43
571.151	4.38
571.492	4.45
571.833	4.42
572.174	4.43
572.514	4.39
572.855	4.43
573.195	4.34
573.536	4.34
573.876	4.5
574.217	4.31
574.557	4.19
574.898	4.17
575.238	4.35
575.578	4.42
575.918	4.21
576.258	4.24
576.598	4.38
576.938	4.26
577.278	4.34
577.618	4.14
577.958	4.38
578.298	4.36
578.638	4.35
578.977	4.46
579.317	4.36
579.657	4.31
579.996	4.36
580.336	4.51
580.675	4.39
581.014	4.46
581.354	4.56
581.693	4.48
582.032	4.41
582.372	4.3
582.711	4.55
583.05	4.42
583.389	4.28
583.728	4.57
584.067	4.33
584.406	4.25
584.745	4.15
585.083	4.14
585.422	4.39
585.761	4.39
586.1	4.38
586.438	4.17
586.777	4.41
587.115	4.72
587.454	4.57
587.792	4.33
588.13	4.24
588.469	4.55
588.807	4.17
589.145	4.43
589.483	4.04
589.821	4.2
590.159	4.61
590.497	4.33
590.835	4.26
591.173	4.48
591.511	4.51
591.849	4.38
592.187	4.26
592.524	4.02
592.862	4.39
593.2	4.27
593.537	4.52
593.875	4.2
594.212	4.41
594.55	4.45
594.887	4.29
595.224	4.25
595.561	4.07
595.899	4.37
596.236	4.53
596.573	4.49
596.91	4.21
597.247	4.38
597.584	4.22
597.921	4.27
598.258	4.42
598.594	4.36
598.931	4.15
599.268	4.11
599.604	4.42
599.941	4.4
600.277	4.32
600.614	4.27
600.95	4.29
601.287	4.19
601.623	4.38
601.959	4.52
602.296	4.57
602.632	4.42
602.968	4.15
603.304	4.3
603.64	4.14
603.976	4.24
604.312	4.62
604.648	4.35
604.984	4.48
605.319	4.26
605.655	4.53
605.991	4.34
606.326	4.26
606.662	4.28
606.998	4.04
607.333	4.14
607.668	4.15
608.004	4.18
608.339	4.07
608.674	4.34
609.01	4.38
609.345	4.44
609.68	4.4
610.015	4.24
610.35	4.45
610.685	4.45
611.02	4.33
611.355	4.34
611.689	4.14
612.024	4.34
612.359	4.26
612.694	4.24
613.028	4.4
613.363	3.96
613.697	4.22
614.032	4.33
614.366	4.36
614.7	4.54
615.035	4.26
615.369	4.41
615.703	4.34
616.037	4.41
616.371	4.37
616.705	4.33
617.039	4.27
617.373	4.23
617.707	4.76
618.041	4.14
618.375	4.27
618.709	4.38
619.042	4.49
619.376	4.43
619.71	4.37
620.043	4.4
620.377	4.42
620.71	4.35
621.043	4.48
621.377	4.03
621.71	4.25
622.043	4.43
622.376	4.53
622.709	4.32
623.043	4.21
623.376	4.22
623.709	4.14
624.041	4.3
624.374	4.59
624.707	4.1
625.04	4.6
625.373	4.47
625.705	4.15
626.038	4.34
626.37	3.98
626.703	4.29
627.035	4.1
627.368	4.44
627.7	4.44
628.032	3.94
628.365	4.32
628.697	4.4
629.029	4.14
629.361	4.3
629.693	4.14
630.025	4.45
630.357	4.35
630.689	4.37
631.021	4.74
631.353	4.19
631.684	4.14
632.016	4.67
632.348	4.44
632.679	3.93
633.011	4.24
633.342	4.07
633.674	3.92
634.005	4.4
634.336	4.28
634.668	4.29
634.999	4.35
635.33	4.14
635.661	4.26
635.992	4.39
636.323	4.65
636.654	4.48
636.985	4.38
637.316	4.38
637.647	3.95
637.977	3.82
638.308	4.5
638.639	4.09
638.969	4.29
639.3	4.19
639.63	4.19
639.961	4.23
640.291	4.25
640.622	4.08
640.952	4.27
641.282	4.18
641.612	4.63
641.943	4.42
642.273	4.07
642.603	4.57
642.933	4.4
643.263	5.13
643.592	4.1
643.922	4.54
644.252	4.17
644.582	4.17
644.911	4.61
645.241	4.64
645.571	5.01
645.9	4.22
646.23	4.27
646.559	3.85
646.888	4.65
647.218	4.5
647.547	3.96
647.876	4.4
648.205	4.05
648.534	3.75
648.863	4.42
649.192	4.03
649.521	4.31
649.85	4.47
650.179	4.18
650.508	4.07
650.837	4.61
651.165	4.09
651.494	3.71
651.822	4.59
652.151	4.32
652.479	4.23
652.808	4.12
653.136	4.19
653.465	4.67
653.793	4.42
654.121	4.76
654.449	4.36
654.777	4.1
655.105	4.14
655.433	4.52
655.761	4.66
656.089	4.39
656.417	4.45
656.745	4.38
657.073	4.52
657.4	4.98
657.728	4.5
658.056	4.45
658.383	4.24
658.711	3.83
659.038	4.75
659.365	4.68
659.693	4.51
660.02	4.15
660.347	4.2
660.674	3.93
661.001	4.22
661.329	4.38
661.656	4.24
661.982	4.12
662.309	4.56
662.636	4.19
662.963	4.53
663.29	4.35
663.616	4.58
663.943	3.89
664.27	4.45
664.596	3.97
664.923	3.98
665.249	4.16
665.576	4.36
665.902	4.23
666.228	4.44
666.554	4.83
666.881	4
667.207	4.67
667.533	4.64
667.859	4.3
668.185	4.65
668.511	4.59
668.837	4.85
669.162	4.71
669.488	4.37
669.814	3.68
670.139	4.42
670.465	4.29
670.791	4.54
671.116	4.57
671.442	4.63
671.767	4.2
672.092	4.91
672.418	4.72
672.743	4.57
673.068	4.68
673.393	4.36
673.718	4.35
674.043	5.11
674.368	4.44
674.693	4.88
675.018	4.93
675.343	4.93
675.667	4.49
675.992	3.93
676.317	4.72
676.641	4.47
676.966	4.19
677.29	4.44
677.615	5.01
677.939	4.4
678.264	4.58
678.588	4.09
678.912	4.25
679.236	4.13
679.56	4.9
679.885	4.71
680.209	4.76
680.532	4.19
680.856	4
681.18	4.76
681.504	4.61
681.828	4.89
682.152	4.28
682.475	4.07
682.799	4.43
683.122	4.61
683.446	4.53
683.769	4.63
684.093	4.82
684.416	4.82
684.739	4.24
685.062	3.9
685.386	4.05
685.709	4.74
686.032	4.41
686.355	4.91
686.678	4.52
687.001	4.39
687.324	4.32
687.646	4.67
687.969	4.76
688.292	4.49
688.614	4.42
688.937	4.43
689.26	3.82
689.582	4.55
689.904	4.07
690.227	5.38
690.549	4.68
690.871	4.81
691.194	5.01
691.516	4.43
691.838	4.72
692.16	4.45
