Data from 0052_chest_Reflection__2__64.txt Node

Date: Fri Dec 16 14:24:39 CST 2022
User: ToomeyLab
Spectrometer: FLMS14357
Trigger mode: 0
Integration Time (sec): 1.000000E-2
Scans to average: 100
Electric dark correction enabled: true
Nonlinearity correction enabled: false
Boxcar width: 0
XAxis mode: Wavelengths
Number of Pixels in Spectrum: 2048
>>>>>Begin Spectral Data<<<<<
189.047	15.84
189.435	15.84
189.823	15.84
190.211	48.16
190.599	-49.54
190.987	119.66
191.375	190.14
191.763	120.45
192.151	-129.46
192.538	-564.23
192.926	-38.07
193.314	67.01
193.702	286.28
194.089	37.19
194.477	148.63
194.864	-134.99
195.252	265.17
195.639	123.26
196.027	4.44
196.414	-163.72
196.801	-146.65
197.189	1605.53
197.576	-140.9
197.963	-592.72
198.351	36.61
198.738	-12.22
199.125	24.1
199.512	14.52
199.899	-29.16
200.286	-22.19
200.673	48.64
201.06	51.28
201.447	16.01
201.833	11.66
202.22	31.92
202.607	-7.19
202.994	2.05
203.38	-15.39
203.767	0.34
204.154	-4.64
204.54	27.23
204.927	36.78
205.313	35.45
205.699	58.81
206.086	27.67
206.472	5.24
206.858	24.37
207.245	17.34
207.631	1.08
208.017	23.19
208.403	0.95
208.789	24.35
209.175	57.03
209.561	-3.21
209.947	-27.17
210.333	8.28
210.719	1.31
211.105	-24.61
211.491	-20.08
211.876	56.94
212.262	-13.46
212.648	11.43
213.034	17.02
213.419	27.1
213.805	-11.55
214.19	21.31
214.576	-13.92
214.961	8.39
215.346	-1.3
215.732	-3.74
216.117	-18.2
216.502	-16.07
216.888	-17.45
217.273	37.58
217.658	-15.76
218.043	3.77
218.428	17.45
218.813	-2.7
219.198	3.56
219.583	20.9
219.968	3.66
220.353	18.56
220.738	9.81
221.122	7.8
221.507	11.36
221.892	-6.8
222.276	12.23
222.661	3.44
223.046	7.32
223.43	7.89
223.815	0.99
224.199	11.66
224.583	2.67
224.968	1.97
225.352	2.89
225.736	9.09
226.121	-3.44
226.505	0.79
226.889	7.46
227.273	4.38
227.657	4.31
228.041	3.89
228.425	7.15
228.809	4.08
229.193	1.87
229.577	2.93
229.961	3.06
230.344	2.7
230.728	3.18
231.112	3.13
231.495	2.44
231.879	2.86
232.263	2.5
232.646	1.85
233.03	1.1
233.413	3.23
233.797	5.12
234.18	-2.43
234.563	3.49
234.946	3.12
235.33	3.74
235.713	3.02
236.096	1.86
236.479	2.59
236.862	3.58
237.245	4.08
237.628	2.42
238.011	3.03
238.394	4
238.777	2.34
239.16	1.1
239.543	2.42
239.925	4.62
240.308	3.61
240.691	4.37
241.073	3.8
241.456	2.36
241.838	3.39
242.221	3.29
242.603	3.26
242.986	3.72
243.368	3.04
243.75	3.22
244.133	3.29
244.515	3.39
244.897	3.36
245.279	3.47
245.661	3.25
246.043	4.03
246.425	3.42
246.807	3.46
247.189	3.05
247.571	3.28
247.953	3.38
248.335	3.31
248.717	3.4
249.098	3.53
249.48	2.83
249.862	3.31
250.243	2.97
250.625	3.42
251.006	3.45
251.388	4.16
251.769	3.92
252.151	2.93
252.532	4.14
252.913	3.67
253.295	3.06
253.676	3.72
254.057	3.16
254.438	2.95
254.819	3.62
255.2	3.73
255.581	3.25
255.962	3.5
256.343	4.11
256.724	3.1
257.105	3.33
257.486	3.1
257.867	1.59
258.247	3.59
258.628	3.78
259.009	2.81
259.389	3.78
259.77	2.79
260.15	3.92
260.531	3.18
260.911	3.04
261.292	3.31
261.672	3.09
262.052	3.19
262.432	2.82
262.813	2.65
263.193	2.82
263.573	3.13
263.953	3.25
264.333	2.93
264.713	2.69
265.093	2.63
265.473	3.15
265.853	2.84
266.233	3.37
266.612	3.59
266.992	3.29
267.372	3.16
267.752	2.79
268.131	3.07
268.511	3.46
268.89	3.65
269.27	2.99
269.649	3.46
270.029	3.23
270.408	3.11
270.787	3.19
271.167	3.04
271.546	2.71
271.925	3.24
272.304	3.14
272.683	3.07
273.062	3.66
273.441	3.23
273.82	3.33
274.199	3.22
274.578	2.84
274.957	3.11
275.336	2.81
275.715	3.54
276.093	3.84
276.472	3.59
276.851	2.99
277.229	3.83
277.608	2.95
277.986	3.04
278.365	2.99
278.743	3.69
279.122	2.84
279.5	2.32
279.878	3.17
280.257	3.58
280.635	3.1
281.013	3.48
281.391	2.64
281.769	3.29
282.147	3.46
282.525	2.66
282.903	3.21
283.281	3.01
283.659	2.86
284.037	2.82
284.415	2.85
284.792	3.32
285.17	2.95
285.548	3.27
285.925	3.16
286.303	2.82
286.68	3.12
287.058	3.2
287.435	2.64
287.813	3.02
288.19	3.64
288.567	2.43
288.945	3.2
289.322	2.79
289.699	3.32
290.076	3.2
290.453	3.39
290.83	3.26
291.207	3.09
291.584	2.78
291.961	3.09
292.338	3.32
292.715	3.15
293.092	3.27
293.469	3.41
293.845	3.11
294.222	3.34
294.599	3.68
294.975	3.03
295.352	2.94
295.728	3.03
296.105	3.03
296.481	3.68
296.858	2.7
297.234	2.84
297.61	3.25
297.986	2.79
298.363	2.56
298.739	3.23
299.115	2.98
299.491	3.08
299.867	3.13
300.243	3.01
300.619	2.8
300.995	2.77
301.371	3.38
301.746	2.85
302.122	3.06
302.498	3.57
302.874	3.3
303.249	3.55
303.625	3.14
304	2.89
304.376	3.05
304.751	3.23
305.127	3.01
305.502	3.26
305.878	3.32
306.253	2.62
306.628	3.75
307.003	3.03
307.378	3.05
307.754	2.99
308.129	3.13
308.504	3.11
308.879	3.27
309.254	3.04
309.629	3.25
310.003	3.63
310.378	3.25
310.753	3.42
311.128	3.34
311.502	3.27
311.877	3.22
312.252	3.28
312.626	3.49
313.001	3.29
313.375	3.27
313.75	3.23
314.124	3.7
314.498	2.67
314.873	3.41
315.247	2.95
315.621	3.72
315.995	3.04
316.369	3.25
316.743	3.4
317.117	3.47
317.491	3.34
317.865	2.99
318.239	3.79
318.613	3.27
318.987	3.37
319.361	3.4
319.734	2.71
320.108	3.23
320.482	3.33
320.855	3.33
321.229	3.74
321.602	3.28
321.976	3.4
322.349	2.63
322.723	2.76
323.096	3.34
323.469	2.82
323.843	3.55
324.216	2.92
324.589	2.75
324.962	3.27
325.335	3.43
325.708	3.3
326.081	3.73
326.454	3.36
326.827	3.29
327.2	3.69
327.573	3.19
327.945	3.12
328.318	3.38
328.691	3.47
329.063	3.37
329.436	3.55
329.809	2.77
330.181	3.33
330.553	3.41
330.926	3.78
331.298	3.14
331.671	3.55
332.043	3.5
332.415	3.41
332.787	4.2
333.159	3.8
333.532	3.24
333.904	3.35
334.276	3.33
334.648	3.26
335.02	3.53
335.391	3.32
335.763	3.21
336.135	3.45
336.507	3.45
336.879	3.32
337.25	3.84
337.622	3.79
337.993	3.02
338.365	3.63
338.736	3.55
339.108	3.29
339.479	3.21
339.851	3.75
340.222	3.64
340.593	3.54
340.964	3.37
341.336	2.99
341.707	3.51
342.078	3.07
342.449	3.94
342.82	3.4
343.191	3.03
343.562	3.43
343.933	3.48
344.303	3.59
344.674	3.24
345.045	3.74
345.416	3.42
345.786	2.86
346.157	3.24
346.527	3.1
346.898	3.2
347.268	3.17
347.639	3.03
348.009	3.55
348.38	3.61
348.75	3.01
349.12	3.6
349.49	3.38
349.861	3.4
350.231	3.72
350.601	3.38
350.971	3.19
351.341	3.7
351.711	3.42
352.081	3.35
352.45	3.38
352.82	3.22
353.19	3.53
353.56	3.54
353.929	3.56
354.299	3.48
354.669	3.64
355.038	3.55
355.408	3.48
355.777	3.23
356.147	3.42
356.516	3.88
356.885	3.5
357.254	3.5
357.624	3.66
357.993	3.56
358.362	3.52
358.731	3.46
359.1	3.56
359.469	3.64
359.838	2.96
360.207	3.36
360.576	3.54
360.945	3.38
361.314	3.54
361.682	3.18
362.051	3.36
362.42	3.47
362.788	3.58
363.157	3.25
363.525	3.38
363.894	3.38
364.262	3.41
364.631	4.15
364.999	3.31
365.367	3.83
365.735	3.16
366.104	3.4
366.472	3.61
366.84	3.52
367.208	3.2
367.576	3.29
367.944	3.89
368.312	2.98
368.68	3.75
369.048	3.53
369.416	3.55
369.783	3.49
370.151	3.41
370.519	3.36
370.886	3.46
371.254	3.51
371.621	3.37
371.989	3.58
372.356	3.3
372.724	3.68
373.091	3.69
373.458	3.53
373.826	3.42
374.193	3.97
374.56	3.31
374.927	3.53
375.294	3.75
375.661	3.49
376.028	3.57
376.395	3.66
376.762	3.85
377.129	4.05
377.496	3.78
377.863	3.83
378.229	3.54
378.596	3.12
378.963	3.55
379.329	3.79
379.696	3.16
380.062	3.83
380.429	3.42
380.795	3.53
381.161	3.74
381.528	3.08
381.894	3.66
382.26	3.24
382.626	3.43
382.993	3.24
383.359	3.3
383.725	3.62
384.091	3.52
384.457	3.64
384.823	3.58
385.188	4
385.554	3.66
385.92	3.92
386.286	4.06
386.651	3.59
387.017	3.8
387.383	3.53
387.748	3.66
388.114	3.72
388.479	3.67
388.845	3.66
389.21	3.63
389.575	3.8
389.94	3.55
390.306	3.43
390.671	3.74
391.036	3.91
391.401	3.94
391.766	3.51
392.131	3.56
392.496	3.87
392.861	3.54
393.226	3.78
393.591	3.67
393.956	3.82
394.32	3.65
394.685	3.74
395.05	3.48
395.414	3.54
395.779	3.67
396.143	3.68
396.508	3.83
396.872	3.78
397.236	3.47
397.601	4.01
397.965	3.36
398.329	3.87
398.694	3.76
399.058	3.66
399.422	3.75
399.786	3.87
400.15	3.63
400.514	3.71
400.878	3.58
401.242	3.89
401.605	3.55
401.969	3.69
402.333	3.64
402.697	3.76
403.06	3.75
403.424	3.72
403.787	3.87
404.151	3.81
404.514	3.88
404.878	3.96
405.241	3.86
405.604	3.84
405.968	3.61
406.331	3.75
406.694	3.88
407.057	4.13
407.42	3.54
407.783	3.75
408.146	3.82
408.509	3.72
408.872	3.71
409.235	3.9
409.598	3.93
409.961	3.69
410.323	3.69
410.686	3.7
411.049	3.79
411.411	3.95
411.774	3.76
412.136	3.54
412.499	3.65
412.861	3.63
413.223	3.87
413.586	3.68
413.948	3.8
414.31	3.92
414.672	3.85
415.035	3.89
415.397	3.95
415.759	3.78
416.121	3.99
416.483	4.11
416.845	3.88
417.206	3.91
417.568	3.81
417.93	3.69
418.292	3.9
418.653	3.81
419.015	3.89
419.377	3.92
419.738	3.75
420.1	3.78
420.461	3.8
420.822	3.81
421.184	3.73
421.545	3.73
421.906	3.7
422.267	3.69
422.629	3.73
422.99	3.74
423.351	3.77
423.712	3.83
424.073	3.83
424.434	3.72
424.795	3.83
425.155	3.83
425.516	3.73
425.877	3.85
426.238	3.7
426.598	3.85
426.959	3.73
427.32	3.96
427.68	3.92
428.041	3.95
428.401	3.84
428.761	3.82
429.122	3.89
429.482	3.85
429.842	3.91
430.202	3.85
430.563	3.94
430.923	3.89
431.283	4.05
431.643	3.94
432.003	4.04
432.363	4.05
432.722	3.89
433.082	3.95
433.442	4.01
433.802	4.04
434.161	3.86
434.521	3.9
434.881	4.04
435.24	3.94
435.6	3.91
435.959	3.81
436.319	3.8
436.678	3.97
437.037	4.14
437.396	4.11
437.756	4.11
438.115	4.09
438.474	3.97
438.833	4.1
439.192	4.13
439.551	3.99
439.91	3.99
440.269	4.12
440.628	3.9
440.987	3.94
441.345	4.01
441.704	4.03
442.063	3.96
442.421	3.97
442.78	3.97
443.138	3.88
443.497	3.9
443.855	3.94
444.214	4
444.572	3.91
444.93	4.11
445.288	3.99
445.647	4.01
446.005	3.94
446.363	4.03
446.721	3.89
447.079	3.99
447.437	3.95
447.795	3.9
448.153	3.97
448.51	3.94
448.868	4.08
449.226	4.03
449.584	4.07
449.941	4.03
450.299	4.1
450.656	4.08
451.014	4.14
451.371	4.13
451.729	4.06
452.086	4.11
452.443	4.07
452.801	4.16
453.158	4.05
453.515	4.02
453.872	4.13
454.229	4.06
454.586	4.07
454.943	3.99
455.3	4.29
455.657	3.88
456.014	4.09
456.371	4.22
456.727	4.03
457.084	4.16
457.441	4.11
457.797	4.18
458.154	4.23
458.51	4.1
458.867	4.08
459.223	4.14
459.58	4.06
459.936	4.14
460.292	4.31
460.648	4.17
461.005	4.07
461.361	4.05
461.717	4.04
462.073	4.13
462.429	4.08
462.785	4.13
463.141	4.2
463.496	4.23
463.852	4.31
464.208	4.36
464.564	4.16
464.919	4.23
465.275	4.38
465.631	4.25
465.986	4.04
466.342	4.3
466.697	4.41
467.052	4.3
467.408	4.31
467.763	4.09
468.118	4.23
468.473	4.32
468.829	4.26
469.184	4.33
469.539	4.03
469.894	4.33
470.249	4.2
470.603	4.25
470.958	4.4
471.313	4.19
471.668	4.4
472.023	4.56
472.377	4.26
472.732	4.15
473.086	4.17
473.441	4.48
473.795	4.39
474.15	4.23
474.504	4.46
474.859	4.42
475.213	4.23
475.567	4.34
475.921	4.54
476.275	4.43
476.63	4.22
476.984	4.35
477.338	4.56
477.692	4.39
478.045	4.16
478.399	4.42
478.753	4.2
479.107	4.31
479.461	4.41
479.814	4.33
480.168	4.46
480.521	4.35
480.875	4.49
481.228	4.35
481.582	4.32
481.935	4.34
482.289	4.22
482.642	4.36
482.995	4.34
483.348	4.35
483.701	4.32
484.055	4.31
484.408	4.27
484.761	4.22
485.114	4.11
485.466	4.1
485.819	4.15
486.172	4.18
486.525	4.24
486.878	4.26
487.23	4.3
487.583	4.24
487.936	4.33
488.288	4.34
488.641	4.25
488.993	4.2
489.345	4.24
489.698	4.32
490.05	4.28
490.402	4.37
490.754	4.38
491.107	4.35
491.459	4.43
491.811	4.45
492.163	4.44
492.515	4.48
492.866	4.28
493.218	4.3
493.57	4.36
493.922	4.4
494.274	4.4
494.625	4.45
494.977	4.51
495.328	4.63
495.68	4.62
496.031	4.6
496.383	4.53
496.734	4.6
497.086	4.4
497.437	4.6
497.788	4.61
498.139	4.52
498.49	4.6
498.842	4.65
499.193	4.59
499.544	4.73
499.894	4.63
500.245	4.58
500.596	4.64
500.947	4.61
501.298	4.58
501.648	4.56
501.999	4.74
502.35	4.72
502.7	4.85
503.051	4.77
503.401	4.67
503.752	4.53
504.102	4.71
504.452	4.65
504.803	4.68
505.153	4.79
505.503	4.61
505.853	4.67
506.203	4.73
506.553	4.83
506.903	4.7
507.253	4.8
507.603	4.71
507.953	4.88
508.303	4.82
508.652	4.74
509.002	4.81
509.352	4.76
509.701	4.74
510.051	4.88
510.4	4.83
510.75	4.79
511.099	4.79
511.449	4.79
511.798	4.86
512.147	4.84
512.496	4.85
512.846	4.82
513.195	4.87
513.544	4.85
513.893	4.77
514.242	4.88
514.591	4.88
514.939	4.79
515.288	4.92
515.637	4.9
515.986	4.82
516.334	5
516.683	4.94
517.032	4.87
517.38	4.83
517.729	5.08
518.077	5.03
518.426	4.94
518.774	4.97
519.122	4.99
519.47	4.87
519.819	4.88
520.167	4.96
520.515	4.93
520.863	4.9
521.211	4.95
521.559	4.91
521.907	4.98
522.255	5.04
522.602	4.94
522.95	5.1
523.298	5.15
523.645	4.92
523.993	5.24
524.341	5.07
524.688	5.17
525.036	5.17
525.383	5.18
525.73	5.11
526.078	5.21
526.425	5
526.772	4.98
527.119	5.01
527.466	5.04
527.814	5.02
528.161	5.08
528.508	5.14
528.854	5.04
529.201	5.01
529.548	5.02
529.895	4.93
530.242	4.94
530.588	5
530.935	5
531.282	5.04
531.628	5.07
531.975	5.18
532.321	5.13
532.667	5.16
533.014	5.24
533.36	5.25
533.706	5.19
534.052	5.26
534.399	5.17
534.745	5.09
535.091	5.14
535.437	5.21
535.783	5.27
536.129	5.25
536.474	5.33
536.82	5.29
537.166	5.31
537.512	5.37
537.857	5.42
538.203	5.38
538.549	5.37
538.894	5.34
539.239	5.54
539.585	5.46
539.93	5.57
540.276	5.53
540.621	5.46
540.966	5.43
541.311	5.64
541.656	5.52
542.001	5.55
542.346	5.41
542.691	5.38
543.036	5.38
543.381	5.43
543.726	5.5
544.071	5.56
544.415	5.54
544.76	5.43
545.105	5.55
545.449	5.55
545.794	5.63
546.138	5.66
546.483	5.73
546.827	5.67
547.171	5.64
547.516	5.78
547.86	5.79
548.204	5.68
548.548	5.79
548.892	5.74
549.236	5.88
549.58	5.68
549.924	5.86
550.268	5.95
550.612	5.87
550.956	5.84
551.3	5.94
551.643	5.93
551.987	6.13
552.33	6.01
552.674	6
553.017	6.24
553.361	6.08
553.704	6.04
554.048	6.06
554.391	6.13
554.734	6
555.077	6.07
555.42	6.03
555.764	6.08
556.107	6.17
556.45	5.99
556.793	6.22
557.135	6.3
557.478	6.29
557.821	6.14
558.164	6.19
558.507	6.23
558.849	6.1
559.192	6.36
559.534	6.1
559.877	6.34
560.219	6.4
560.562	6.39
560.904	6.42
561.246	6.62
561.589	6.58
561.931	6.62
562.273	6.61
562.615	6.5
562.957	6.52
563.299	6.6
563.641	6.56
563.983	6.48
564.325	6.37
564.667	6.55
565.008	6.43
565.35	6.76
565.692	6.88
566.033	6.66
566.375	6.51
566.716	6.72
567.058	6.73
567.399	6.67
567.741	6.84
568.082	6.7
568.423	6.58
568.764	6.7
569.105	6.77
569.447	6.67
569.788	6.84
570.129	6.86
570.47	6.88
570.811	6.89
571.151	6.97
571.492	6.97
571.833	6.86
572.174	6.93
572.514	6.8
572.855	7.02
573.195	7
573.536	6.86
573.876	6.94
574.217	6.97
574.557	7.1
574.898	6.96
575.238	6.97
575.578	7.12
575.918	6.94
576.258	7.14
576.598	7.14
576.938	7.34
577.278	7.08
577.618	7.2
577.958	7.25
578.298	7.17
578.638	7.4
578.977	7.35
579.317	7.39
579.657	7.35
579.996	7.38
580.336	7.1
580.675	7.36
581.014	7.53
581.354	7.55
581.693	7.31
582.032	7.41
582.372	7.63
582.711	7.57
583.05	7.68
583.389	7.75
583.728	7.89
584.067	7.81
584.406	7.64
584.745	7.62
585.083	8.01
585.422	7.83
585.761	7.95
586.1	7.78
586.438	7.68
586.777	7.93
587.115	8.11
587.454	7.89
587.792	7.66
588.13	8.09
588.469	7.83
588.807	8.02
589.145	8.15
589.483	7.97
589.821	7.95
590.159	8.11
590.497	7.94
590.835	8.04
591.173	8.14
591.511	8.32
591.849	8.15
592.187	8.12
592.524	8.02
592.862	8.36
593.2	8.17
593.537	8.1
593.875	8.13
594.212	8.01
594.55	8.29
594.887	8.42
595.224	8.35
595.561	8.29
595.899	8.5
596.236	8.45
596.573	8.4
596.91	8.29
597.247	8.28
597.584	8.48
597.921	8.3
598.258	8.58
598.594	8.39
598.931	8.46
599.268	8.64
599.604	8.86
599.941	8.64
600.277	8.72
600.614	8.98
600.95	8.74
601.287	8.52
601.623	8.98
601.959	8.7
602.296	8.92
602.632	9.07
602.968	8.83
603.304	9.08
603.64	8.73
603.976	8.81
604.312	8.93
604.648	8.9
604.984	9.02
605.319	8.92
605.655	9.02
605.991	9.03
606.326	8.84
606.662	8.97
606.998	9.1
607.333	9.11
607.668	8.96
608.004	9.23
608.339	9.08
608.674	9.07
609.01	9.38
609.345	9.38
609.68	9.22
610.015	9.48
610.35	9.3
610.685	9.25
611.02	9.39
611.355	9.52
611.689	9.26
612.024	9.66
612.359	9.58
612.694	9.69
613.028	9.79
613.363	9.37
613.697	9.58
614.032	9.63
614.366	9.51
614.7	9.7
615.035	9.7
615.369	9.82
615.703	10.07
616.037	9.74
616.371	9.78
616.705	9.89
617.039	10.05
617.373	9.75
617.707	9.96
618.041	9.84
618.375	9.75
618.709	10.23
619.042	9.96
619.376	10.08
619.71	9.8
620.043	10.05
620.377	10.21
620.71	10.18
621.043	9.91
621.377	10.01
621.71	10.42
622.043	10.5
622.376	10.27
622.709	10.6
623.043	10.12
623.376	10.44
623.709	10.43
624.041	10.25
624.374	10.08
624.707	10.51
625.04	10.85
625.373	10.53
625.705	10.63
626.038	10.71
626.37	10.49
626.703	10.31
627.035	10.87
627.368	10.9
627.7	10.79
628.032	10.98
628.365	10.61
628.697	10.82
629.029	11.18
629.361	10.69
629.693	10.98
630.025	11.03
630.357	10.85
630.689	11.23
631.021	11.1
631.353	10.94
631.684	10.91
632.016	10.81
632.348	11.06
632.679	10.83
633.011	11.47
633.342	11.15
633.674	11.46
634.005	11.17
634.336	10.91
634.668	11.05
634.999	11.09
635.33	11.26
635.661	11.55
635.992	11.47
636.323	11.58
636.654	11.59
636.985	11.51
637.316	11.36
637.647	11.43
637.977	11.73
638.308	11.47
638.639	11.52
638.969	11.54
639.3	11.57
639.63	11.56
639.961	11.27
640.291	11.87
640.622	11.5
640.952	12.02
641.282	11.55
641.612	11.39
641.943	12.11
642.273	12.08
642.603	11.33
642.933	12.1
643.263	12.21
643.592	12.1
643.922	12.02
644.252	11.7
644.582	11.64
644.911	12.12
645.241	12.04
645.571	12.26
645.9	12.2
646.23	12.03
646.559	12.52
646.888	11.89
647.218	12.51
647.547	12.38
647.876	12.18
648.205	12.02
648.534	12.46
648.863	12.39
649.192	12.17
649.521	12.23
649.85	12.43
650.179	12.26
650.508	12.87
650.837	12.48
651.165	12.55
651.494	12.44
651.822	12.2
652.151	12.79
652.479	13.34
652.808	12.43
653.136	12.41
653.465	12.82
653.793	12.75
654.121	13.19
654.449	12.97
654.777	12.99
655.105	12.86
655.433	13.4
655.761	12.9
656.089	13.59
656.417	12.68
656.745	13.66
657.073	13.48
657.4	13.07
657.728	12.92
658.056	12.82
658.383	13.19
658.711	12.93
659.038	13.57
659.365	13.03
659.693	13.54
660.02	13.21
660.347	13.62
660.674	12.93
661.001	13.01
661.329	13.22
661.656	13.63
661.982	13.37
662.309	13.44
662.636	13.12
662.963	13.48
663.29	13.69
663.616	13.43
663.943	14.2
664.27	13.9
664.596	13.76
664.923	13.92
665.249	14.19
665.576	13.33
665.902	13.41
666.228	13.91
666.554	13.5
666.881	14.06
667.207	13.66
667.533	13.94
667.859	13.39
668.185	14.2
668.511	13.63
668.837	13.62
669.162	14.38
669.488	14.27
669.814	14.13
670.139	14.62
670.465	13.66
670.791	13.7
671.116	14.3
671.442	14.78
671.767	14.34
672.092	14.32
672.418	14.21
672.743	14.6
673.068	14.64
673.393	14.38
673.718	14.02
674.043	14.53
674.368	14.77
674.693	14.67
675.018	14.54
675.343	15.19
675.667	14.98
675.992	14.37
676.317	15.13
676.641	14.67
676.966	14.62
677.29	14.54
677.615	14.34
677.939	14.61
678.264	14.81
678.588	14.99
678.912	14.97
679.236	15.49
679.56	14.45
679.885	15.15
680.209	14.36
680.532	15.22
680.856	15.33
681.18	14.52
681.504	14.5
681.828	15.04
682.152	14.66
682.475	15.21
682.799	15.4
683.122	15.02
683.446	15.01
683.769	14.96
684.093	15.65
684.416	15.27
684.739	15.83
685.062	15.48
685.386	15.7
685.709	15.13
686.032	15.81
686.355	15.11
686.678	15.16
687.001	14.7
687.324	15.09
687.646	15.57
687.969	15.91
