Data from 0052_chest_Reflection__3__65.txt Node

Date: Fri Dec 16 14:24:56 CST 2022
User: ToomeyLab
Spectrometer: FLMS14357
Trigger mode: 0
Integration Time (sec): 1.000000E-2
Scans to average: 100
Electric dark correction enabled: true
Nonlinearity correction enabled: false
Boxcar width: 0
XAxis mode: Wavelengths
Number of Pixels in Spectrum: 2048
>>>>>Begin Spectral Data<<<<<
189.047	291.45
189.435	291.45
189.823	291.45
190.211	60.02
190.599	33.57
190.987	-128.77
191.375	236.46
191.763	267.35
192.151	-5.95
192.538	-950.24
192.926	-63.92
193.314	58.38
193.702	-694.2
194.089	83.38
194.477	77.31
194.864	52
195.252	-52.92
195.639	205.37
196.027	9.65
196.414	-66.47
196.801	92.04
197.189	2400.43
197.576	-50.85
197.963	534.88
198.351	11.33
198.738	11.63
199.125	39.54
199.512	30.97
199.899	2.77
200.286	11.75
200.673	15.65
201.06	15.68
201.447	31.9
201.833	13.75
202.22	69.9
202.607	0.06
202.994	15.35
203.38	-24.93
203.767	27.64
204.154	-17.28
204.54	28.3
204.927	43.32
205.313	24.44
205.699	0.23
206.086	2.65
206.472	6.76
206.858	-8.33
207.245	25.89
207.631	-3.23
208.017	-0.78
208.403	25.83
208.789	-0.43
209.175	77.97
209.561	13.48
209.947	-12.61
210.333	-0.62
210.719	-6.3
211.105	-13.46
211.491	27.98
211.876	16.45
212.262	23.4
212.648	-29.5
213.034	8.55
213.419	10.15
213.805	-9.17
214.19	22.62
214.576	-15.56
214.961	8.07
215.346	-5.1
215.732	-6.96
216.117	-23.6
216.502	-6.99
216.888	-16.65
217.273	26.21
217.658	-16.39
218.043	7.23
218.428	17.32
218.813	-0.7
219.198	-20.4
219.583	27.67
219.968	-3.15
220.353	2.08
220.738	-0.38
221.122	2.6
221.507	6.36
221.892	0.56
222.276	1.44
222.661	2.88
223.046	7.09
223.43	-11.8
223.815	10.21
224.199	6.14
224.583	5.25
224.968	2.18
225.352	3.45
225.736	13.58
226.121	-1.98
226.505	-1.38
226.889	12.3
227.273	1.44
227.657	-0.11
228.041	4.61
228.425	2.61
228.809	4.43
229.193	1.39
229.577	2.4
229.961	3.23
230.344	3.26
230.728	3.45
231.112	3.29
231.495	3.93
231.879	1.42
232.263	3.48
232.646	3.84
233.03	2.72
233.413	3.93
233.797	4.26
234.18	2.46
234.563	4.57
234.946	3.58
235.33	4.74
235.713	4.03
236.096	4.12
236.479	4.35
236.862	3.42
237.245	4.9
237.628	3.2
238.011	2.91
238.394	4.57
238.777	2.55
239.16	2.83
239.543	1.91
239.925	4.35
240.308	4.26
240.691	4.36
241.073	3.45
241.456	3.84
241.838	3.69
242.221	3.25
242.603	3.55
242.986	4.38
243.368	3.88
243.75	3.61
244.133	3.45
244.515	3.76
244.897	3.34
245.279	3.98
245.661	3.84
246.043	4
246.425	3.57
246.807	3.56
247.189	3.66
247.571	3.84
247.953	3.53
248.335	4.1
248.717	3.79
249.098	3.94
249.48	3.42
249.862	3.9
250.243	3.82
250.625	4.18
251.006	3.61
251.388	4.01
251.769	4.4
252.151	4.54
252.532	4.12
252.913	3.82
253.295	3.93
253.676	4.49
254.057	3.6
254.438	3.63
254.819	4.07
255.2	4.41
255.581	4.19
255.962	4.24
256.343	5.47
256.724	3.97
257.105	3.06
257.486	3.86
257.867	2.96
258.247	3.93
258.628	4.58
259.009	3.56
259.389	4.7
259.77	3.48
260.15	4.54
260.531	4.22
260.911	3.77
261.292	3.77
261.672	3.68
262.052	3.69
262.432	3.84
262.813	3.83
263.193	4.01
263.573	3.95
263.953	3.97
264.333	4.05
264.713	3.57
265.093	3.77
265.473	4.66
265.853	4.28
266.233	3.81
266.612	4.74
266.992	3.84
267.372	3.99
267.752	3.49
268.131	3.67
268.511	3.73
268.89	3.9
269.27	3.62
269.649	4.51
270.029	3
270.408	3.75
270.787	3.41
271.167	3.7
271.546	3.18
271.925	3.52
272.304	3.98
272.683	3.5
273.062	3.85
273.441	3.88
273.82	3.63
274.199	3.69
274.578	3.38
274.957	3.69
275.336	3.69
275.715	3.56
276.093	4.08
276.472	4.19
276.851	4.06
277.229	3.93
277.608	3.11
277.986	3.74
278.365	3.75
278.743	4.1
279.122	3.12
279.5	3.44
279.878	2.75
280.257	3.09
280.635	3.37
281.013	3.72
281.391	2.74
281.769	2.75
282.147	3.55
282.525	3.36
282.903	3.77
283.281	3.79
283.659	3.65
284.037	3.58
284.415	3.66
284.792	3.76
285.17	3.05
285.548	3.4
285.925	3.7
286.303	3.79
286.68	3.8
287.058	3.5
287.435	3.28
287.813	3.97
288.19	4.14
288.567	3.91
288.945	4.1
289.322	3.62
289.699	3.99
290.076	3.85
290.453	3.25
290.83	3.46
291.207	3.68
291.584	3.85
291.961	3.94
292.338	3.83
292.715	4.03
293.092	3.96
293.469	3.89
293.845	4.08
294.222	3.76
294.599	4.3
294.975	4.25
295.352	3.78
295.728	3.89
296.105	4.1
296.481	4.57
296.858	4.15
297.234	4.18
297.61	4.33
297.986	4.15
298.363	3.81
298.739	4.16
299.115	3.86
299.491	4.13
299.867	4.18
300.243	4.18
300.619	3.94
300.995	4.22
301.371	4.24
301.746	4.4
302.122	4.27
302.498	4.7
302.874	4.2
303.249	4.56
303.625	4.25
304	4.03
304.376	4.23
304.751	4.38
305.127	4.62
305.502	4.57
305.878	4.83
306.253	4.37
306.628	4.43
307.003	4.33
307.378	4.59
307.754	4.68
308.129	4.14
308.504	4.49
308.879	4.67
309.254	4.59
309.629	4.32
310.003	4.98
310.378	4.79
310.753	4.87
311.128	4.61
311.502	4.34
311.877	4.4
312.252	4.8
312.626	4.39
313.001	4.35
313.375	4.33
313.75	4.41
314.124	5.14
314.498	4.08
314.873	4.51
315.247	4.24
315.621	4.78
315.995	4.79
316.369	5.22
316.743	5.05
317.117	4.84
317.491	4.96
317.865	4.36
318.239	4.98
318.613	4.93
318.987	5.28
319.361	5.14
319.734	5.24
320.108	4.72
320.482	5.07
320.855	4.54
321.229	5.57
321.602	5.27
321.976	5.12
322.349	4.38
322.723	4.65
323.096	4.78
323.469	4.15
323.843	4.85
324.216	4.49
324.589	5.22
324.962	4.93
325.335	4.84
325.708	5.05
326.081	5.27
326.454	5.23
326.827	5.05
327.2	5.5
327.573	4.91
327.945	4.54
328.318	5.07
328.691	4.87
329.063	5.3
329.436	4.72
329.809	4.73
330.181	5.25
330.553	5.03
330.926	5.27
331.298	4.6
331.671	4.85
332.043	4.93
332.415	5.48
332.787	5.61
333.159	5.43
333.532	5.17
333.904	5.15
334.276	4.9
334.648	5.11
335.02	4.63
335.391	5.36
335.763	5.1
336.135	5.66
336.507	5.71
336.879	5.13
337.25	4.84
337.622	5.18
337.993	5.19
338.365	5.62
338.736	5.39
339.108	4.99
339.479	5.51
339.851	5.6
340.222	5.46
340.593	5.34
340.964	5.54
341.336	4.93
341.707	5.42
342.078	5.09
342.449	5.76
342.82	5.19
343.191	4.92
343.562	4.94
343.933	5.25
344.303	5.21
344.674	5.34
345.045	5.7
345.416	5.17
345.786	5.03
346.157	5.06
346.527	5.21
346.898	5.23
347.268	5.17
347.639	5.62
348.009	5.56
348.38	5.6
348.75	5.17
349.12	5.6
349.49	5.27
349.861	5.54
350.231	5.87
350.601	4.97
350.971	5.5
351.341	5.76
351.711	5.18
352.081	5.22
352.45	5.64
352.82	5.42
353.19	5.24
353.56	5.33
353.929	5.62
354.299	5.26
354.669	5.68
355.038	5.47
355.408	5.93
355.777	5.2
356.147	5.6
356.516	5.51
356.885	5.1
357.254	5.66
357.624	5.8
357.993	5.62
358.362	5.64
358.731	5.59
359.1	5.74
359.469	5.36
359.838	5.02
360.207	5.3
360.576	5.39
360.945	5.35
361.314	5.65
361.682	5.48
362.051	5.21
362.42	5.55
362.788	5.49
363.157	5.5
363.525	5.44
363.894	5.2
364.262	5.29
364.631	6.38
364.999	5
365.367	5.76
365.735	5.25
366.104	5.41
366.472	5.87
366.84	5.62
367.208	5.4
367.576	5.48
367.944	5.78
368.312	5.39
368.68	5.81
369.048	5.91
369.416	5.5
369.783	5.62
370.151	5.6
370.519	5.34
370.886	5.68
371.254	5.25
371.621	5.87
371.989	5.67
372.356	5.79
372.724	5.79
373.091	5.46
373.458	5.53
373.826	5.83
374.193	5.87
374.56	5.24
374.927	5.72
375.294	6.15
375.661	5.82
376.028	5.69
376.395	5.76
376.762	6.06
377.129	6.14
377.496	5.85
377.863	5.73
378.229	5.56
378.596	5.56
378.963	5.51
379.329	5.68
379.696	5.51
380.062	5.95
380.429	5.69
380.795	5.53
381.161	5.77
381.528	5.34
381.894	5.79
382.26	5.43
382.626	5.72
382.993	5.62
383.359	5.44
383.725	5.91
384.091	5.96
384.457	6.02
384.823	5.72
385.188	5.86
385.554	5.56
385.92	6
386.286	6.04
386.651	5.76
387.017	5.9
387.383	5.69
387.748	5.98
388.114	5.93
388.479	5.91
388.845	6.01
389.21	5.96
389.575	5.77
389.94	5.73
390.306	5.87
390.671	5.77
391.036	5.98
391.401	5.97
391.766	5.91
392.131	5.83
392.496	5.85
392.861	5.73
393.226	5.88
393.591	6.08
393.956	5.89
394.32	5.98
394.685	5.99
395.05	5.86
395.414	5.87
395.779	5.83
396.143	5.81
396.508	6.03
396.872	6.01
397.236	5.49
397.601	6.15
397.965	5.86
398.329	6.07
398.694	5.63
399.058	6.06
399.422	6.24
399.786	6.11
400.15	6.06
400.514	6.04
400.878	5.94
401.242	6.09
401.605	5.98
401.969	6.11
402.333	6.22
402.697	6.09
403.06	6.23
403.424	6.1
403.787	6.06
404.151	5.98
404.514	6.27
404.878	6.07
405.241	6.32
405.604	6.12
405.968	5.98
406.331	6.17
406.694	6.33
407.057	6.37
407.42	6.2
407.783	6.1
408.146	6.12
408.509	6.17
408.872	6.07
409.235	6.12
409.598	6.06
409.961	6.11
410.323	6.08
410.686	6.2
411.049	6.22
411.411	6.26
411.774	6.11
412.136	6.18
412.499	6.22
412.861	6.1
413.223	6.29
413.586	6.11
413.948	6.31
414.31	6.28
414.672	6.14
415.035	6.33
415.397	6.23
415.759	6.39
416.121	6.14
416.483	6.41
416.845	6.25
417.206	6.45
417.568	6.43
417.93	6.11
418.292	6.18
418.653	6.27
419.015	6.35
419.377	6.34
419.738	6.15
420.1	6.22
420.461	6.11
420.822	6.18
421.184	6.22
421.545	6.14
421.906	6.12
422.267	6.15
422.629	6.18
422.99	6.15
423.351	6.13
423.712	6.06
424.073	6.28
424.434	6.11
424.795	6.11
425.155	6.22
425.516	6.2
425.877	6.32
426.238	6.12
426.598	6.21
426.959	6.21
427.32	6.35
427.68	6.25
428.041	6.42
428.401	6.21
428.761	6.24
429.122	6.2
429.482	6.2
429.842	6.54
430.202	6.27
430.563	6.34
430.923	6.45
431.283	6.39
431.643	6.48
432.003	6.44
432.363	6.45
432.722	6.38
433.082	6.34
433.442	6.31
433.802	6.34
434.161	6.48
434.521	6.52
434.881	6.42
435.24	6.37
435.6	6.42
435.959	6.45
436.319	6.34
436.678	6.43
437.037	6.45
437.396	6.4
437.756	6.42
438.115	6.47
438.474	6.68
438.833	6.67
439.192	6.67
439.551	6.68
439.91	6.66
440.269	6.74
440.628	6.57
440.987	6.46
441.345	6.42
441.704	6.64
442.063	6.47
442.421	6.56
442.78	6.48
443.138	6.35
443.497	6.35
443.855	6.47
444.214	6.65
444.572	6.63
444.93	6.55
445.288	6.62
445.647	6.63
446.005	6.5
446.363	6.55
446.721	6.5
447.079	6.61
447.437	6.65
447.795	6.56
448.153	6.54
448.51	6.53
448.868	6.57
449.226	6.49
449.584	6.5
449.941	6.7
450.299	6.64
450.656	6.81
451.014	6.71
451.371	6.74
451.729	6.74
452.086	6.63
452.443	6.67
452.801	6.83
453.158	6.84
453.515	6.66
453.872	6.82
454.229	6.68
454.586	6.72
454.943	6.64
455.3	6.93
455.657	6.74
456.014	6.77
456.371	6.76
456.727	6.9
457.084	6.75
457.441	6.74
457.797	6.84
458.154	6.94
458.51	6.77
458.867	6.71
459.223	6.89
459.58	6.78
459.936	6.84
460.292	6.84
460.648	6.73
461.005	6.79
461.361	6.74
461.717	6.78
462.073	6.75
462.429	6.78
462.785	6.97
463.141	6.97
463.496	6.85
463.852	6.98
464.208	6.93
464.564	6.83
464.919	6.88
465.275	6.98
465.631	6.85
465.986	6.8
466.342	7.05
466.697	6.86
467.052	7.16
467.408	6.95
467.763	6.71
468.118	6.85
468.473	7.19
468.829	6.93
469.184	7.01
469.539	6.96
469.894	7.15
470.249	7.14
470.603	7.08
470.958	7.23
471.313	7.01
471.668	7.19
472.023	7.06
472.377	7.09
472.732	6.97
473.086	6.93
473.441	7.26
473.795	7.35
474.15	7.08
474.504	7.03
474.859	7.11
475.213	7.13
475.567	7.11
475.921	7.13
476.275	7.16
476.63	7.17
476.984	7.2
477.338	7.5
477.692	7.21
478.045	7.08
478.399	7.24
478.753	7.15
479.107	7.14
479.461	7.08
479.814	7.14
480.168	7.16
480.521	7.08
480.875	7.22
481.228	7.29
481.582	7.22
481.935	7.14
482.289	7.12
482.642	7.2
482.995	7.17
483.348	7.08
483.701	7.08
484.055	7.08
484.408	7.05
484.761	6.96
485.114	6.89
485.466	6.84
485.819	6.82
486.172	6.82
486.525	6.85
486.878	6.97
487.23	7.01
487.583	7.05
487.936	7.18
488.288	7.06
488.641	7.05
488.993	7
489.345	7.04
489.698	7.05
490.05	7.02
490.402	7.15
490.754	7.12
491.107	7.17
491.459	7.26
491.811	7.3
492.163	7.3
492.515	7.27
492.866	7.1
493.218	7.16
493.57	7.14
493.922	7.17
494.274	7.23
494.625	7.27
494.977	7.28
495.328	7.5
495.68	7.68
496.031	7.51
496.383	7.5
496.734	7.6
497.086	7.37
497.437	7.59
497.788	7.46
498.139	7.55
498.49	7.45
498.842	7.46
499.193	7.51
499.544	7.5
499.894	7.51
500.245	7.46
500.596	7.59
500.947	7.6
501.298	7.61
501.648	7.69
501.999	7.82
502.35	7.78
502.7	7.7
503.051	7.82
503.401	7.76
503.752	7.74
504.102	7.67
504.452	7.62
504.803	7.65
505.153	7.87
505.503	7.68
505.853	7.77
506.203	7.71
506.553	7.68
506.903	7.77
507.253	7.84
507.603	7.7
507.953	7.89
508.303	7.82
508.652	7.81
509.002	7.81
509.352	7.81
509.701	7.78
510.051	7.97
510.4	7.87
510.75	7.95
511.099	7.86
511.449	7.92
511.798	7.94
512.147	7.9
512.496	7.98
512.846	7.88
513.195	7.97
513.544	7.88
513.893	7.82
514.242	7.98
514.591	8.05
514.939	8
515.288	8.06
515.637	8.13
515.986	7.97
516.334	8.11
516.683	8.09
517.032	8.1
517.38	8.1
517.729	8.09
518.077	8.1
518.426	8.14
518.774	8.12
519.122	8.07
519.47	8.1
519.819	8
520.167	8.16
520.515	8.12
520.863	8.09
521.211	8.11
521.559	8.05
521.907	8.25
522.255	8.19
522.602	8.26
522.95	8.36
523.298	8.29
523.645	8.29
523.993	8.4
524.341	8.43
524.688	8.39
525.036	8.49
525.383	8.41
525.73	8.35
526.078	8.44
526.425	8.36
526.772	8.37
527.119	8.25
527.466	8.45
527.814	8.29
528.161	8.35
528.508	8.41
528.854	8.22
529.201	8.31
529.548	8.22
529.895	8.2
530.242	8.16
530.588	8.2
530.935	8.18
531.282	8.21
531.628	8.26
531.975	8.31
532.321	8.53
532.667	8.47
533.014	8.49
533.36	8.57
533.706	8.59
534.052	8.54
534.399	8.46
534.745	8.47
535.091	8.5
535.437	8.52
535.783	8.56
536.129	8.53
536.474	8.66
536.82	8.67
537.166	8.82
537.512	8.68
537.857	8.69
538.203	8.74
538.549	8.75
538.894	8.72
539.239	8.88
539.585	8.98
539.93	9.03
540.276	9.04
540.621	8.91
540.966	9
541.311	9.09
541.656	8.93
542.001	9.03
542.346	8.91
542.691	8.77
543.036	8.75
543.381	8.88
543.726	8.92
544.071	8.92
544.415	8.94
544.76	8.88
545.105	9.1
545.449	9.08
545.794	9.06
546.138	9.24
546.483	9.22
546.827	9.35
547.171	9.31
547.516	9.34
547.86	9.31
548.204	9.26
548.548	9.45
548.892	9.33
549.236	9.48
549.58	9.43
549.924	9.52
550.268	9.57
550.612	9.6
550.956	9.41
551.3	9.53
551.643	9.78
551.987	9.61
552.33	9.77
552.674	9.82
553.017	9.78
553.361	9.77
553.704	9.68
554.048	9.84
554.391	9.92
554.734	9.68
555.077	9.79
555.42	9.78
555.764	9.92
556.107	9.92
556.45	9.84
556.793	10.06
557.135	10.06
557.478	10.13
557.821	9.9
558.164	10
558.507	9.91
558.849	10.05
559.192	10.2
559.534	10.01
559.877	10.19
560.219	10.23
560.562	10.41
560.904	10.27
561.246	10.48
561.589	10.48
561.931	10.44
562.273	10.27
562.615	10.47
562.957	10.54
563.299	10.49
563.641	10.5
563.983	10.49
564.325	10.36
564.667	10.55
565.008	10.45
565.35	10.64
565.692	10.72
566.033	10.65
566.375	10.59
566.716	10.83
567.058	10.89
567.399	10.76
567.741	10.78
568.082	10.8
568.423	10.62
568.764	10.72
569.105	10.72
569.447	10.79
569.788	10.77
570.129	10.9
570.47	10.97
570.811	10.96
571.151	11.08
571.492	10.95
571.833	10.98
572.174	10.88
572.514	10.72
572.855	11.11
573.195	11.01
573.536	11.11
573.876	11
574.217	11
574.557	11.07
574.898	11.03
575.238	11.09
575.578	11.29
575.918	11.25
576.258	11.26
576.598	11.31
576.938	11.4
577.278	11.18
577.618	11.36
577.958	11.36
578.298	11.46
578.638	11.38
578.977	11.43
579.317	11.56
579.657	11.73
579.996	11.49
580.336	11.58
580.675	11.62
581.014	11.77
581.354	11.77
581.693	11.85
582.032	11.49
582.372	11.95
582.711	12.08
583.05	12
583.389	11.96
583.728	11.99
584.067	11.83
584.406	11.95
584.745	11.86
585.083	12.06
585.422	11.99
585.761	12.09
586.1	12.3
586.438	12.29
586.777	12.01
587.115	12.12
587.454	12.43
587.792	12.28
588.13	12.36
588.469	12.16
588.807	12.34
589.145	12.38
589.483	12.31
589.821	12.19
590.159	12.41
590.497	12.21
590.835	12.29
591.173	12.29
591.511	12.42
591.849	12.65
592.187	12.48
592.524	12.6
592.862	12.47
593.2	12.57
593.537	12.64
593.875	12.51
594.212	12.68
594.55	12.75
594.887	12.69
595.224	12.43
595.561	12.76
595.899	12.72
596.236	13.07
596.573	12.72
596.91	13.02
597.247	12.71
597.584	12.86
597.921	12.79
598.258	12.9
598.594	12.76
598.931	12.81
599.268	12.91
599.604	13.08
599.941	13.08
600.277	12.96
600.614	13.22
600.95	13.22
601.287	13.1
601.623	13.27
601.959	13.13
602.296	13.34
602.632	13.41
602.968	13.26
603.304	13.21
603.64	13.37
603.976	13.44
604.312	13.7
604.648	13.46
604.984	13.35
605.319	13.36
605.655	13.47
605.991	13.49
606.326	13.31
606.662	13.44
606.998	13.69
607.333	13.68
607.668	13.56
608.004	13.73
608.339	13.55
608.674	13.78
609.01	14.05
609.345	13.72
609.68	13.72
610.015	14
610.35	13.99
610.685	13.71
611.02	14.11
611.355	14.23
611.689	13.82
612.024	14.07
612.359	13.88
612.694	14.15
613.028	14.51
613.363	14.04
613.697	14.19
614.032	14.44
614.366	14.22
614.7	14.36
615.035	14.55
615.369	14.2
615.703	14.72
616.037	14.35
616.371	14.44
616.705	14.31
617.039	14.58
617.373	14.66
617.707	14.36
618.041	14.81
618.375	14.14
618.709	14.87
619.042	14.56
619.376	14.66
619.71	14.64
620.043	14.87
620.377	14.69
620.71	14.65
621.043	14.37
621.377	14.67
621.71	15.09
622.043	15.01
622.376	14.94
622.709	15.36
623.043	14.55
623.376	15.16
623.709	15.04
624.041	15.12
624.374	14.97
624.707	14.74
625.04	15.51
625.373	15.15
625.705	15.37
626.038	15.59
626.37	15.11
626.703	15.11
627.035	15.45
627.368	15.54
627.7	15.13
628.032	15.15
628.365	14.79
628.697	15.14
629.029	15.28
629.361	15.58
629.693	15.5
630.025	15.38
630.357	15.65
630.689	15.5
631.021	15.62
631.353	15.74
631.684	15.9
632.016	15.35
632.348	15.65
632.679	15.65
633.011	15.84
633.342	15.75
633.674	15.58
634.005	15.82
634.336	15.75
634.668	15.81
634.999	16.22
635.33	15.7
635.661	16.01
635.992	15.68
636.323	15.99
636.654	16.22
636.985	15.97
637.316	16.48
637.647	16.1
637.977	16.09
638.308	15.75
638.639	16.02
638.969	16.31
639.3	16.11
639.63	16.48
639.961	15.99
640.291	16.42
640.622	16.55
640.952	16.65
641.282	15.91
641.612	16.37
641.943	16.77
642.273	16.4
642.603	16.5
642.933	16.56
643.263	16.82
643.592	16.73
643.922	17.23
644.252	16.49
644.582	16.51
644.911	16.24
645.241	16.59
645.571	16.69
645.9	17.11
646.23	16.44
646.559	16.87
646.888	16.8
647.218	17.16
647.547	17.42
647.876	17.29
648.205	16.81
648.534	16.65
648.863	17.1
649.192	16.68
649.521	17.07
649.85	16.97
650.179	16.88
650.508	16.99
650.837	16.84
651.165	17.09
651.494	16.97
651.822	16.98
652.151	17.29
652.479	17.56
652.808	16.14
653.136	17.15
653.465	17.74
653.793	17.93
654.121	17.36
654.449	17.3
654.777	17.03
655.105	17.41
655.433	17.86
655.761	17.53
656.089	17.87
656.417	16.93
656.745	18.2
657.073	17.9
657.4	17.88
657.728	17.56
658.056	17.62
658.383	17.67
658.711	17.27
659.038	17.88
659.365	17.71
659.693	17.82
660.02	17.99
660.347	17.41
660.674	17.59
661.001	17.51
661.329	17.79
661.656	17.61
661.982	17.87
662.309	17.78
662.636	17.66
662.963	18.02
663.29	17.77
663.616	18.26
663.943	17.89
664.27	18.13
664.596	18.16
664.923	18.2
665.249	18.76
665.576	18.06
665.902	17.99
666.228	17.69
666.554	18.13
666.881	18.66
667.207	18.29
667.533	18.66
667.859	18.25
668.185	18.71
668.511	18.78
668.837	18.05
669.162	18.59
669.488	17.93
669.814	18.6
670.139	19.07
670.465	18.76
670.791	19.03
671.116	18.67
671.442	18.72
671.767	18.35
672.092	18.75
672.418	19.38
672.743	18.68
673.068	18.36
673.393	18.69
673.718	18.75
674.043	18.99
674.368	19
674.693	18.66
675.018	19.2
675.343	19
675.667	18.88
675.992	18.85
676.317	18.92
676.641	19.19
676.966	19.01
677.29	19.24
677.615	18.68
677.939	18.81
678.264	19.14
678.588	19.36
678.912	19.22
679.236	20
679.56	19.16
679.885	19.62
680.209	19.24
680.532	19.23
680.856	19.31
681.18	18.96
681.504	18.88
681.828	18.94
682.152	19.33
682.475	19.29
682.799	19.62
683.122	19.06
683.446	19.42
683.769	19.29
684.093	19.95
684.416	19.49
