Data from 0052_chest_Reflection__0__62.txt Node

Date: Fri Dec 16 14:24:15 CST 2022
User: ToomeyLab
Spectrometer: FLMS14357
Trigger mode: 0
Integration Time (sec): 1.000000E-2
Scans to average: 100
Electric dark correction enabled: true
Nonlinearity correction enabled: false
Boxcar width: 0
XAxis mode: Wavelengths
Number of Pixels in Spectrum: 2048
>>>>>Begin Spectral Data<<<<<
189.047	367.15
189.435	367.15
189.823	367.15
190.211	90.18
190.599	100.84
190.987	-95.85
191.375	72.15
191.763	216.51
192.151	209.52
192.538	-699.21
192.926	116.57
193.314	65.68
193.702	-203.17
194.089	59.61
194.477	-66.67
194.864	7.99
195.252	-552.54
195.639	203.95
196.027	154.42
196.414	36.1
196.801	-164.9
197.189	3144.68
197.576	-137.94
197.963	-183.22
198.351	17.38
198.738	52.89
199.125	31.39
199.512	45.26
199.899	-12.87
200.286	-20.66
200.673	37.24
201.06	41.6
201.447	54.83
201.833	31.08
202.22	16.26
202.607	22.39
202.994	32.91
203.38	-7.43
203.767	-77.29
204.154	10.87
204.54	55.47
204.927	39.76
205.313	8.02
205.699	7.25
206.086	30.7
206.472	7.96
206.858	43.35
207.245	13.9
207.631	11.99
208.017	8.22
208.403	13.25
208.789	-8.73
209.175	47.08
209.561	-2.9
209.947	-5.49
210.333	24.14
210.719	41.98
211.105	10.61
211.491	6.24
211.876	-0.59
212.262	-16.32
212.648	-14.3
213.034	25.08
213.419	27.51
213.805	-9.3
214.19	9.56
214.576	15.15
214.961	-2.21
215.346	-18.5
215.732	18.12
216.117	-18.48
216.502	16.69
216.888	3.97
217.273	1.74
217.658	18.22
218.043	20.55
218.428	-6.64
218.813	24.98
219.198	-9.01
219.583	22.77
219.968	10.18
220.353	25.92
220.738	4.55
221.122	3.51
221.507	22.6
221.892	3.62
222.276	12.57
222.661	8.74
223.046	-0.9
223.43	-6.6
223.815	13.55
224.199	22.12
224.583	2.89
224.968	5.23
225.352	8.51
225.736	11.69
226.121	2.44
226.505	6.52
226.889	10.78
227.273	7.31
227.657	7.81
228.041	8.6
228.425	9.02
228.809	7.4
229.193	3.07
229.577	6.41
229.961	4.9
230.344	5.24
230.728	5.09
231.112	4.16
231.495	4.68
231.879	4.28
232.263	5.68
232.646	5.82
233.03	3.22
233.413	5.3
233.797	6.02
234.18	3.03
234.563	5.34
234.946	5.09
235.33	7.25
235.713	5.87
236.096	3.52
236.479	5.66
236.862	4.5
237.245	6.24
237.628	5.95
238.011	5.13
238.394	6.89
238.777	5.24
239.16	3.76
239.543	4.69
239.925	5.81
240.308	6.03
240.691	4.7
241.073	5.35
241.456	5.18
241.838	5.93
242.221	4.95
242.603	5.33
242.986	6.18
243.368	5.14
243.75	4.89
244.133	5.5
244.515	5.42
244.897	4.64
245.279	4.95
245.661	5.67
246.043	6.02
246.425	4.64
246.807	4.93
247.189	4.81
247.571	5.34
247.953	5.04
248.335	5.23
248.717	5.05
249.098	5.2
249.48	4.99
249.862	5.33
250.243	4.91
250.625	5.01
251.006	5.34
251.388	5.66
251.769	5.34
252.151	5.44
252.532	5.58
252.913	5.42
253.295	5.05
253.676	5.25
254.057	4.42
254.438	4.84
254.819	5.69
255.2	4.99
255.581	4.89
255.962	5.25
256.343	5.96
256.724	5.13
257.105	4.78
257.486	5.38
257.867	4.14
258.247	5.16
258.628	5.31
259.009	4.65
259.389	5.43
259.77	5.04
260.15	5.62
260.531	4.85
260.911	4.87
261.292	4.62
261.672	4.7
262.052	4.69
262.432	4.73
262.813	4.95
263.193	4.87
263.573	4.94
263.953	4.97
264.333	5.04
264.713	5.25
265.093	4.2
265.473	5.4
265.853	4.54
266.233	4.94
266.612	4.73
266.992	5.04
267.372	4.48
267.752	4.84
268.131	4.88
268.511	5.12
268.89	5.35
269.27	5.16
269.649	4.93
270.029	4.39
270.408	5.01
270.787	5.14
271.167	4.46
271.546	3.84
271.925	4.71
272.304	5.06
272.683	4.76
273.062	4.91
273.441	4.53
273.82	5.27
274.199	4.88
274.578	4.46
274.957	4.87
275.336	4.5
275.715	4.89
276.093	5.28
276.472	4.11
276.851	4.42
277.229	5.37
277.608	4.34
277.986	4.69
278.365	4.26
278.743	4.98
279.122	4.35
279.5	4.02
279.878	3.76
280.257	4.5
280.635	3.83
281.013	4.72
281.391	4.67
281.769	4.57
282.147	4.65
282.525	4.55
282.903	4.36
283.281	4.4
283.659	4.51
284.037	4.45
284.415	4.44
284.792	4.77
285.17	4.14
285.548	4.06
285.925	4.46
286.303	4.31
286.68	4.92
287.058	4.21
287.435	4.4
287.813	4.6
288.19	4.81
288.567	4.28
288.945	4.46
289.322	4.31
289.699	4.62
290.076	4.75
290.453	4.41
290.83	4.87
291.207	4.67
291.584	4.26
291.961	4.53
292.338	4.86
292.715	4.6
293.092	4.78
293.469	5.26
293.845	4.83
294.222	4.99
294.599	4.74
294.975	4.92
295.352	4.18
295.728	5.05
296.105	4.78
296.481	5.42
296.858	4.73
297.234	4.69
297.61	4.61
297.986	4.88
298.363	4.54
298.739	4.67
299.115	4.37
299.491	4.43
299.867	4.85
300.243	4.98
300.619	4.88
300.995	4.75
301.371	4.58
301.746	4.57
302.122	4.89
302.498	4.72
302.874	4.99
303.249	5.34
303.625	4.9
304	4.76
304.376	4.87
304.751	4.63
305.127	4.75
305.502	4.77
305.878	4.6
306.253	4.4
306.628	5.13
307.003	4.96
307.378	4.66
307.754	4.81
308.129	4.14
308.504	5.1
308.879	4.64
309.254	4.8
309.629	5.03
310.003	4.96
310.378	4.75
310.753	4.91
311.128	4.99
311.502	4.67
311.877	4.75
312.252	4.71
312.626	4.52
313.001	4.76
313.375	4.85
313.75	4.75
314.124	5.31
314.498	4.7
314.873	4.87
315.247	4.8
315.621	5.05
315.995	4.53
316.369	4.94
316.743	5.02
317.117	4.83
317.491	4.84
317.865	4.7
318.239	4.97
318.613	4.75
318.987	5.03
319.361	5.21
319.734	5.08
320.108	5.23
320.482	5.05
320.855	4.86
321.229	5.17
321.602	5.11
321.976	5.05
322.349	4.71
322.723	4.42
323.096	5.01
323.469	4.56
323.843	4.92
324.216	4.11
324.589	5.18
324.962	4.94
325.335	4.76
325.708	5.21
326.081	5.23
326.454	5.16
326.827	4.68
327.2	4.9
327.573	5.1
327.945	5.24
328.318	5.19
328.691	5.03
329.063	4.72
329.436	4.84
329.809	4.81
330.181	5.06
330.553	5.55
330.926	4.98
331.298	4.71
331.671	4.95
332.043	4.88
332.415	5.16
332.787	5.97
333.159	5.27
333.532	5.13
333.904	5.24
334.276	5.01
334.648	4.82
335.02	4.85
335.391	5.2
335.763	5.06
336.135	5.08
336.507	5.06
336.879	4.74
337.25	4.86
337.622	4.89
337.993	5.18
338.365	5.29
338.736	5.01
339.108	4.77
339.479	4.9
339.851	5.11
340.222	5.25
340.593	4.95
340.964	5.24
341.336	4.22
341.707	4.82
342.078	4.58
342.449	5.56
342.82	4.94
343.191	4.73
343.562	5.2
343.933	5.2
344.303	4.97
344.674	4.9
345.045	5.15
345.416	4.77
345.786	4.84
346.157	4.95
346.527	5.07
346.898	4.83
347.268	4.78
347.639	5.1
348.009	5.25
348.38	5.23
348.75	5.11
349.12	5.3
349.49	4.95
349.861	5.68
350.231	5.75
350.601	5.07
350.971	5.09
351.341	5.22
351.711	5.01
352.081	5.19
352.45	5.25
352.82	5.15
353.19	5.13
353.56	4.93
353.929	4.87
354.299	4.94
354.669	5.1
355.038	5.07
355.408	5.11
355.777	4.94
356.147	5.5
356.516	5.35
356.885	5.04
357.254	5.54
357.624	4.9
357.993	5.13
358.362	5.12
358.731	5.06
359.1	5.22
359.469	5.36
359.838	4.96
360.207	5.17
360.576	5.38
360.945	4.86
361.314	5.25
361.682	4.99
362.051	4.95
362.42	5.38
362.788	5.12
363.157	5.17
363.525	4.93
363.894	4.94
364.262	5.18
364.631	5.79
364.999	4.96
365.367	5.38
365.735	5.04
366.104	5.09
366.472	5.3
366.84	5.18
367.208	5.08
367.576	5.31
367.944	5.47
368.312	5.13
368.68	5.42
369.048	5.27
369.416	5.28
369.783	5.61
370.151	5.29
370.519	5.04
370.886	5.49
371.254	5.43
371.621	5.38
371.989	5.52
372.356	5.22
372.724	5.17
373.091	5.14
373.458	5.31
373.826	5.17
374.193	5.54
374.56	5.27
374.927	5.1
375.294	5.71
375.661	5.8
376.028	5.35
376.395	5.2
376.762	5.61
377.129	5.67
377.496	5.42
377.863	5.28
378.229	5.13
378.596	5.4
378.963	5.4
379.329	5.27
379.696	5.08
380.062	5.37
380.429	5.4
380.795	5.15
381.161	5.31
381.528	5.01
381.894	5.54
382.26	5.34
382.626	5.26
382.993	5.31
383.359	5.09
383.725	5.43
384.091	5.47
384.457	5.29
384.823	5.45
385.188	5.53
385.554	5.45
385.92	5.51
386.286	5.75
386.651	5.36
387.017	5.37
387.383	5.55
387.748	5.2
388.114	5.44
388.479	5.38
388.845	5.46
389.21	5.43
389.575	5.47
389.94	5.59
390.306	5.61
390.671	5.37
391.036	5.72
391.401	5.74
391.766	5.57
392.131	5.47
392.496	5.27
392.861	5.47
393.226	5.52
393.591	5.33
393.956	5.57
394.32	5.56
394.685	5.58
395.05	5.52
395.414	5.64
395.779	5.37
396.143	5.56
396.508	5.61
396.872	5.29
397.236	5.26
397.601	5.67
397.965	5.25
398.329	5.75
398.694	5.13
399.058	5.49
399.422	5.6
399.786	5.48
400.15	5.64
400.514	5.43
400.878	5.41
401.242	5.61
401.605	5.49
401.969	5.57
402.333	5.7
402.697	5.86
403.06	5.48
403.424	5.55
403.787	5.67
404.151	5.25
404.514	5.67
404.878	5.56
405.241	5.7
405.604	5.56
405.968	5.57
406.331	5.66
406.694	5.55
407.057	5.8
407.42	5.64
407.783	5.6
408.146	5.58
408.509	5.55
408.872	5.4
409.235	5.75
409.598	5.86
409.961	5.76
410.323	5.56
410.686	5.53
411.049	5.39
411.411	5.54
411.774	5.68
412.136	5.77
412.499	5.47
412.861	5.5
413.223	5.88
413.586	5.54
413.948	5.7
414.31	5.81
414.672	5.68
415.035	5.79
415.397	5.96
415.759	5.71
416.121	5.69
416.483	5.82
416.845	5.77
417.206	5.77
417.568	5.79
417.93	5.63
418.292	5.77
418.653	5.62
419.015	5.93
419.377	5.71
419.738	5.7
420.1	5.59
420.461	5.62
420.822	5.66
421.184	5.7
421.545	5.62
421.906	5.67
422.267	5.58
422.629	5.62
422.99	5.56
423.351	5.63
423.712	5.64
424.073	5.85
424.434	5.57
424.795	5.66
425.155	5.74
425.516	5.63
425.877	5.58
426.238	5.53
426.598	5.59
426.959	5.57
427.32	5.74
427.68	5.75
428.041	5.65
428.401	5.67
428.761	5.81
429.122	5.63
429.482	5.65
429.842	5.94
430.202	5.78
430.563	5.91
430.923	5.72
431.283	5.95
431.643	5.87
432.003	5.93
432.363	5.93
432.722	5.72
433.082	5.8
433.442	5.83
433.802	5.94
434.161	5.82
434.521	5.9
434.881	5.99
435.24	5.75
435.6	5.71
435.959	5.87
436.319	5.79
436.678	5.91
437.037	5.92
437.396	6.03
437.756	5.71
438.115	5.8
438.474	5.89
438.833	5.95
439.192	6.15
439.551	6.14
439.91	5.93
440.269	5.97
440.628	5.83
440.987	5.76
441.345	5.92
441.704	5.89
442.063	5.96
442.421	5.87
442.78	5.76
443.138	5.78
443.497	5.78
443.855	5.81
444.214	5.92
444.572	5.97
444.93	6.01
445.288	5.89
445.647	6.15
446.005	5.77
446.363	5.91
446.721	5.87
447.079	5.93
447.437	5.87
447.795	5.87
448.153	5.82
448.51	5.78
448.868	5.95
449.226	5.87
449.584	5.86
449.941	6
450.299	5.93
450.656	6.1
451.014	6
451.371	6.12
451.729	5.95
452.086	6.01
452.443	5.89
452.801	6.02
453.158	6.13
453.515	5.93
453.872	6.1
454.229	6.11
454.586	6.06
454.943	6.13
455.3	6.15
455.657	6.09
456.014	6.06
456.371	6.09
456.727	6.14
457.084	6.01
457.441	6.09
457.797	6.19
458.154	6.11
458.51	6.11
458.867	5.97
459.223	6.12
459.58	6.05
459.936	6.1
460.292	6.24
460.648	5.93
461.005	6.06
461.361	6.04
461.717	6
462.073	6.06
462.429	6.15
462.785	6.07
463.141	6.4
463.496	6.11
463.852	6.32
464.208	6.12
464.564	6.07
464.919	6.14
465.275	6.38
465.631	6.32
465.986	6.09
466.342	6.3
466.697	6.26
467.052	6.26
467.408	6.24
467.763	6.07
468.118	6.24
468.473	6.4
468.829	6.22
469.184	6.38
469.539	6.17
469.894	6.31
470.249	6.32
470.603	6.24
470.958	6.37
471.313	6.3
471.668	6.34
472.023	6.46
472.377	6.33
472.732	6.17
473.086	6.19
473.441	6.38
473.795	6.63
474.15	6.23
474.504	6.31
474.859	6.43
475.213	6.39
475.567	6.2
475.921	6.49
476.275	6.36
476.63	6.34
476.984	6.24
477.338	6.55
477.692	6.34
478.045	6.39
478.399	6.43
478.753	6.26
479.107	6.3
479.461	6.27
479.814	6.41
480.168	6.33
480.521	6.25
480.875	6.57
481.228	6.43
481.582	6.35
481.935	6.24
482.289	6.32
482.642	6.42
482.995	6.29
483.348	6.38
483.701	6.28
484.055	6.29
484.408	6.27
484.761	6.11
485.114	6.05
485.466	6.05
485.819	6.06
486.172	6.12
486.525	6.17
486.878	6.2
487.23	6.22
487.583	6.26
487.936	6.32
488.288	6.31
488.641	6.25
488.993	6.11
489.345	6.16
489.698	6.26
490.05	6.25
490.402	6.35
490.754	6.43
491.107	6.4
491.459	6.43
491.811	6.58
492.163	6.48
492.515	6.39
492.866	6.23
493.218	6.3
493.57	6.32
493.922	6.39
494.274	6.4
494.625	6.45
494.977	6.59
495.328	6.69
495.68	6.73
496.031	6.78
496.383	6.63
496.734	6.79
497.086	6.58
497.437	6.69
497.788	6.63
498.139	6.62
498.49	6.65
498.842	6.67
499.193	6.66
499.544	6.67
499.894	6.71
500.245	6.6
500.596	6.74
500.947	6.65
501.298	6.67
501.648	6.85
501.999	6.96
502.35	6.87
502.7	6.87
503.051	6.91
503.401	6.88
503.752	6.74
504.102	6.88
504.452	6.8
504.803	6.75
505.153	6.85
505.503	6.87
505.853	6.83
506.203	6.89
506.553	6.85
506.903	6.85
507.253	6.84
507.603	6.91
507.953	6.86
508.303	6.95
508.652	6.87
509.002	6.96
509.352	6.91
509.701	6.97
510.051	7
510.4	6.92
510.75	6.87
511.099	6.87
511.449	6.95
511.798	6.94
512.147	6.9
512.496	7.03
512.846	7
513.195	7.05
513.544	6.94
513.893	6.83
514.242	7.08
514.591	7.05
514.939	7.03
515.288	7.02
515.637	7.13
515.986	7.07
516.334	7.12
516.683	7.08
517.032	7.09
517.38	7.18
517.729	7.06
518.077	7.22
518.426	7.15
518.774	7.12
519.122	7.17
519.47	7.1
519.819	7.18
520.167	7.2
520.515	7.07
520.863	7.08
521.211	7.2
521.559	7.09
521.907	7.18
522.255	7.23
522.602	7.27
522.95	7.25
523.298	7.3
523.645	7.24
523.993	7.32
524.341	7.24
524.688	7.39
525.036	7.44
525.383	7.48
525.73	7.24
526.078	7.37
526.425	7.37
526.772	7.26
527.119	7.24
527.466	7.29
527.814	7.36
528.161	7.4
528.508	7.32
528.854	7.21
529.201	7.27
529.548	7.21
529.895	7.16
530.242	7.17
530.588	7.23
530.935	7.22
531.282	7.27
531.628	7.35
531.975	7.44
532.321	7.5
532.667	7.51
533.014	7.53
533.36	7.51
533.706	7.54
534.052	7.5
534.399	7.43
534.745	7.38
535.091	7.43
535.437	7.53
535.783	7.54
536.129	7.55
536.474	7.72
536.82	7.67
537.166	7.71
537.512	7.73
537.857	7.66
538.203	7.74
538.549	7.76
538.894	7.71
539.239	7.93
539.585	7.92
539.93	7.93
540.276	7.9
540.621	7.93
540.966	7.98
541.311	8.04
541.656	7.9
542.001	7.97
542.346	7.82
542.691	7.68
543.036	7.74
543.381	7.82
543.726	7.86
544.071	7.89
544.415	7.88
544.76	7.93
545.105	8.01
545.449	8.09
545.794	8.07
546.138	8.18
546.483	8.07
546.827	8.22
547.171	8.14
547.516	8.4
547.86	8.13
548.204	8.23
548.548	8.3
548.892	8.21
549.236	8.37
549.58	8.3
549.924	8.48
550.268	8.63
550.612	8.56
550.956	8.47
551.3	8.57
551.643	8.59
551.987	8.64
552.33	8.45
552.674	8.7
553.017	8.73
553.361	8.66
553.704	8.61
554.048	8.78
554.391	8.64
554.734	8.85
555.077	8.77
555.42	8.72
555.764	8.86
556.107	8.97
556.45	8.77
556.793	9.01
557.135	9.23
557.478	9
557.821	8.87
558.164	9.24
558.507	8.88
558.849	8.91
559.192	9.07
559.534	9.07
559.877	9.04
560.219	9.16
560.562	9.16
560.904	9.23
561.246	9.28
561.589	9.29
561.931	9.44
562.273	9.27
562.615	9.4
562.957	9.28
563.299	9.43
563.641	9.3
563.983	9.44
564.325	9.31
564.667	9.4
565.008	9.21
565.35	9.72
565.692	9.69
566.033	9.51
566.375	9.45
566.716	9.57
567.058	9.76
567.399	9.56
567.741	9.57
568.082	9.7
568.423	9.55
568.764	9.81
569.105	9.89
569.447	9.81
569.788	9.81
570.129	9.78
570.47	9.83
570.811	9.98
571.151	9.87
571.492	9.98
571.833	10.04
572.174	10.05
572.514	9.88
572.855	10.06
573.195	9.94
573.536	9.93
573.876	9.91
574.217	10.25
574.557	10.39
574.898	10.07
575.238	10.18
575.578	10.33
575.918	10.26
576.258	10.26
576.598	10.36
576.938	10.57
577.278	10.41
577.618	10.36
577.958	10.43
578.298	10.59
578.638	10.62
578.977	10.71
579.317	10.52
579.657	10.68
579.996	10.69
580.336	10.65
580.675	10.67
581.014	10.63
581.354	10.93
581.693	10.72
582.032	10.82
582.372	11.01
582.711	11.1
583.05	11.08
583.389	11.04
583.728	11.06
584.067	11.03
584.406	11.37
584.745	11.14
585.083	11.25
585.422	11.07
585.761	11.31
586.1	11.37
586.438	11.36
586.777	11.29
587.115	11.39
587.454	11.33
587.792	11.33
588.13	11.73
588.469	11.76
588.807	11.85
589.145	11.62
589.483	11.45
589.821	11.69
590.159	11.45
590.497	11.37
590.835	11.75
591.173	12
591.511	11.75
591.849	11.75
592.187	12.02
592.524	11.8
592.862	12.13
593.2	11.92
593.537	12.12
593.875	11.98
594.212	12.17
594.55	12.22
594.887	12.11
595.224	11.95
595.561	12.26
595.899	12.27
596.236	12.25
596.573	12.42
596.91	12.44
597.247	12.11
597.584	12.21
597.921	12.27
598.258	12.28
598.594	12.29
598.931	12.38
599.268	12.34
599.604	12.58
599.941	12.58
600.277	12.72
600.614	12.76
600.95	12.83
601.287	12.65
601.623	12.89
601.959	12.59
602.296	13.08
602.632	12.97
602.968	13.03
603.304	12.84
603.64	12.81
603.976	12.97
604.312	13.19
604.648	13.21
604.984	12.87
605.319	13.23
605.655	13.13
605.991	13.17
606.326	13.09
606.662	12.97
606.998	13.27
607.333	13.33
607.668	13.34
608.004	13.33
608.339	13.58
608.674	13.51
609.01	13.33
609.345	13.72
609.68	13.37
610.015	13.72
610.35	13.77
610.685	13.66
611.02	13.86
611.355	13.86
611.689	13.59
612.024	14.01
612.359	13.97
612.694	13.95
613.028	14.07
613.363	14.19
613.697	14.01
614.032	14.16
614.366	14.05
614.7	14.07
615.035	14.21
615.369	14.41
615.703	14.7
616.037	14.4
616.371	14.43
616.705	14.52
617.039	14.58
617.373	14.5
617.707	14.44
618.041	14.38
618.375	14.41
618.709	14.88
619.042	14.52
619.376	14.53
619.71	14.84
620.043	14.53
620.377	14.95
620.71	15.04
621.043	14.92
621.377	14.58
621.71	15.31
622.043	15.36
622.376	14.8
622.709	15.34
623.043	15.09
623.376	15.48
623.709	15.44
624.041	15.11
624.374	15.02
624.707	14.95
625.04	15.65
625.373	15.56
625.705	15.6
626.038	15.47
626.37	15.44
626.703	15.52
627.035	15.71
627.368	15.87
627.7	15.47
628.032	15.66
628.365	15.68
628.697	15.71
629.029	15.95
629.361	15.82
629.693	16.14
630.025	15.96
630.357	15.61
630.689	16.31
631.021	16.05
631.353	16.16
631.684	16.25
632.016	15.96
632.348	16.39
632.679	16.15
633.011	16.53
633.342	16.17
633.674	16.46
634.005	16.42
634.336	16.28
634.668	16.54
634.999	16.85
635.33	16.59
635.661	16.85
635.992	16.76
636.323	16.94
636.654	16.95
636.985	16.89
637.316	16.73
637.647	17.02
637.977	17.02
638.308	16.87
638.639	16.88
638.969	17.22
639.3	17.04
639.63	16.84
639.961	17.09
640.291	17.42
640.622	17.38
640.952	17.12
641.282	16.98
641.612	17.26
641.943	17.46
642.273	17.45
642.603	17.56
642.933	17.4
643.263	17.9
643.592	17.72
643.922	17.79
644.252	17.63
644.582	17.9
644.911	18.42
645.241	17.82
645.571	18.08
645.9	18.27
646.23	18.01
646.559	18.19
646.888	17.46
647.218	17.91
647.547	18.15
647.876	18.71
648.205	18.35
648.534	17.73
648.863	18.82
649.192	18.11
649.521	18.31
649.85	18.31
650.179	18.32
650.508	18.37
650.837	18.33
651.165	18.99
651.494	18.65
651.822	18.7
652.151	19.09
652.479	18.85
652.808	18.27
653.136	18.62
653.465	18.99
653.793	18.72
654.121	19.13
654.449	18.94
654.777	19
655.105	19.05
655.433	18.93
655.761	18.61
656.089	19.61
656.417	19.11
656.745	19.72
657.073	19.53
657.4	19.01
657.728	18.91
658.056	19.1
658.383	19.91
658.711	19.36
659.038	19.66
659.365	19.81
659.693	19.32
660.02	19.43
660.347	19.94
660.674	19.27
661.001	19.37
661.329	19.7
661.656	19.51
661.982	19.91
662.309	19.9
662.636	19.65
662.963	20.11
663.29	19.94
663.616	19.73
663.943	19.99
664.27	19.94
664.596	20.45
664.923	20.29
665.249	20.08
665.576	20.07
665.902	20.66
666.228	20.22
666.554	20.29
666.881	20.35
667.207	20.27
667.533	20.74
667.859	20.32
668.185	20.78
668.511	20.24
668.837	20.57
669.162	20.92
669.488	20.58
669.814	21.22
670.139	21.24
670.465	21.35
670.791	21.41
671.116	20.67
671.442	21.16
671.767	21.56
672.092	21.04
672.418	21.1
672.743	21.17
673.068	20.6
673.393	21.39
673.718	21.35
674.043	21.25
674.368	21.79
674.693	21.65
675.018	21.37
675.343	21.5
675.667	22.08
675.992	21.35
676.317	21.69
676.641	22.45
676.966	21.89
677.29	22.2
677.615	21.76
677.939	21.82
678.264	21.66
678.588	21.78
678.912	22.15
679.236	22.51
679.56	21.54
679.885	21.63
680.209	21.63
680.532	21.88
680.856	22.45
681.18	22.15
681.504	21.77
681.828	22.2
682.152	22.04
682.475	22.3
682.799	22.68
683.122	21.84
683.446	21.81
683.769	22.54
684.093	22.4
684.416	22.72
684.739	22.57
