Data from 0052_forehead_Reflection__0__73.txt Node

Date: Fri Dec 16 14:27:19 CST 2022
User: ToomeyLab
Spectrometer: FLMS14357
Trigger mode: 0
Integration Time (sec): 1.000000E-2
Scans to average: 100
Electric dark correction enabled: true
Nonlinearity correction enabled: false
Boxcar width: 0
XAxis mode: Wavelengths
Number of Pixels in Spectrum: 2048
>>>>>Begin Spectral Data<<<<<
189.047	539.84
189.435	539.84
189.823	539.84
190.211	61.28
190.599	4.1
190.987	168.29
191.375	17.13
191.763	143.92
192.151	-26.12
192.538	-322.58
192.926	179.97
193.314	130.29
193.702	-64.12
194.089	-74.54
194.477	185.84
194.864	47.58
195.252	-51.77
195.639	345.21
196.027	80.53
196.414	90.05
196.801	-250.41
197.189	1156.17
197.576	-82.06
197.963	459.82
198.351	55.44
198.738	19.53
199.125	70.25
199.512	55.33
199.899	31.74
200.286	-2.1
200.673	22
201.06	59.36
201.447	46.51
201.833	10.48
202.22	25.42
202.607	-3.09
202.994	54.91
203.38	27.27
203.767	55.66
204.154	-13.65
204.54	29.77
204.927	49.94
205.313	50.14
205.699	41.52
206.086	-2.25
206.472	14.8
206.858	54.75
207.245	20.77
207.631	63.95
208.017	39.42
208.403	44.14
208.789	14.08
209.175	57.62
209.561	40.94
209.947	34.37
210.333	33.62
210.719	55.55
211.105	62.85
211.491	19.99
211.876	38.01
212.262	26.41
212.648	18.97
213.034	13.51
213.419	48.33
213.805	30.6
214.19	41.4
214.576	11.74
214.961	32.4
215.346	17.72
215.732	14.62
216.117	13.49
216.502	0.86
216.888	17.58
217.273	31.93
217.658	11.83
218.043	28.86
218.428	24.8
218.813	26.55
219.198	10.19
219.583	39.52
219.968	23.46
220.353	27.91
220.738	18.55
221.122	6.23
221.507	3.98
221.892	28.64
222.276	26.36
222.661	19.71
223.046	19.89
223.43	3.39
223.815	19.42
224.199	17.91
224.583	17.99
224.968	16.3
225.352	12.75
225.736	11.47
226.121	4.18
226.505	8.15
226.889	13.81
227.273	12.29
227.657	10.17
228.041	14.21
228.425	10.18
228.809	7.31
229.193	5.38
229.577	5.94
229.961	7.02
230.344	6.62
230.728	6.81
231.112	6.81
231.495	5.8
231.879	6.71
232.263	6.42
232.646	5.54
233.03	6.51
233.413	7.3
233.797	8.36
234.18	5.96
234.563	8.65
234.946	7.84
235.33	7.52
235.713	6.71
236.096	7.66
236.479	7.98
236.862	8.38
237.245	8.78
237.628	7.4
238.011	7.6
238.394	9.37
238.777	6.98
239.16	4.93
239.543	4.81
239.925	7.86
240.308	8.28
240.691	6.83
241.073	6.68
241.456	6.73
241.838	5.88
242.221	6.51
242.603	6.79
242.986	7.04
243.368	6.72
243.75	6.11
244.133	6.38
244.515	6.43
244.897	5.74
245.279	6.17
245.661	6.91
246.043	6.2
246.425	6.09
246.807	6.33
247.189	6.54
247.571	6.61
247.953	6.06
248.335	6.31
248.717	5.88
249.098	6.25
249.48	5.95
249.862	6.38
250.243	6.21
250.625	7.03
251.006	6.68
251.388	6.83
251.769	6.64
252.151	6.64
252.532	6.86
252.913	6.72
253.295	6.33
253.676	6.71
254.057	6.16
254.438	6.77
254.819	7.56
255.2	7.95
255.581	6.77
255.962	6.97
256.343	7.6
256.724	6.72
257.105	7.8
257.486	7.24
257.867	5.11
258.247	5.98
258.628	7.08
259.009	6.76
259.389	7.46
259.77	6.23
260.15	7.07
260.531	6.46
260.911	6.39
261.292	6.07
261.672	6.11
262.052	6.16
262.432	6.13
262.813	6.2
263.193	6.17
263.573	6.59
263.953	6.35
264.333	6.5
264.713	6.98
265.093	5.94
265.473	7.18
265.853	6.31
266.233	6.28
266.612	6.37
266.992	6.14
267.372	6.97
267.752	5.89
268.131	6.47
268.511	6.66
268.89	6.4
269.27	6.82
269.649	6.28
270.029	6.33
270.408	7.05
270.787	6.91
271.167	6.31
271.546	5.89
271.925	6.32
272.304	6.64
272.683	6.21
273.062	6.63
273.441	6.25
273.82	6.72
274.199	6.71
274.578	6.16
274.957	6.34
275.336	5.77
275.715	6.46
276.093	6.87
276.472	6.57
276.851	6.1
277.229	6.79
277.608	5.99
277.986	6.21
278.365	6.18
278.743	6.13
279.122	6.5
279.5	6.59
279.878	5.72
280.257	6.34
280.635	6.04
281.013	6.21
281.391	6.55
281.769	6.04
282.147	6.44
282.525	5.57
282.903	6.34
283.281	6.36
283.659	6.21
284.037	5.98
284.415	5.67
284.792	6.41
285.17	6.5
285.548	5.97
285.925	5.96
286.303	6.02
286.68	6.3
287.058	6.12
287.435	6
287.813	6.17
288.19	6.59
288.567	6.08
288.945	6.23
289.322	6.36
289.699	6.07
290.076	6.8
290.453	6.2
290.83	6.59
291.207	6.57
291.584	6.17
291.961	6.69
292.338	6.48
292.715	6.79
293.092	6.82
293.469	6.58
293.845	7.01
294.222	7.13
294.599	6.98
294.975	7.15
295.352	6.5
295.728	7.02
296.105	6.99
296.481	7.27
296.858	7.06
297.234	7.37
297.61	6.76
297.986	6.94
298.363	6.71
298.739	7.27
299.115	6.9
299.491	7.22
299.867	7.21
300.243	7.29
300.619	7.39
300.995	7.84
301.371	7.82
301.746	7.64
302.122	7.78
302.498	7.56
302.874	7.72
303.249	8
303.625	8.42
304	7.8
304.376	8.06
304.751	8.41
305.127	8.29
305.502	8.2
305.878	8.37
306.253	8.26
306.628	8.52
307.003	8.36
307.378	8.45
307.754	8.7
308.129	8.07
308.504	8.4
308.879	8.97
309.254	9.24
309.629	9.14
310.003	9.36
310.378	9.1
310.753	9.34
311.128	9.39
311.502	9.05
311.877	9.13
312.252	9.67
312.626	9.28
313.001	9.23
313.375	9.19
313.75	9.59
314.124	10.38
314.498	9.3
314.873	10.35
315.247	10.22
315.621	11.01
315.995	9.94
316.369	10.51
316.743	10.14
317.117	10.14
317.491	10.46
317.865	10.2
318.239	11.43
318.613	11
318.987	11.21
319.361	10.42
319.734	11.44
320.108	11.08
320.482	11.06
320.855	11.42
321.229	11.46
321.602	11.2
321.976	11.16
322.349	11.4
322.723	11.35
323.096	11.19
323.469	11.26
323.843	11.52
324.216	11.42
324.589	12.29
324.962	12.46
325.335	12.24
325.708	12.11
326.081	12.53
326.454	12.26
326.827	12.68
327.2	12.6
327.573	12.77
327.945	12.49
328.318	13.11
328.691	12.96
329.063	12.62
329.436	12.89
329.809	12.73
330.181	13.08
330.553	13.36
330.926	13.02
331.298	13.38
331.671	13.47
332.043	13.4
332.415	13.89
332.787	13.71
333.159	13.65
333.532	13.97
333.904	14.06
334.276	14.09
334.648	13.59
335.02	14.09
335.391	14.4
335.763	14.28
336.135	14.34
336.507	14.54
336.879	14.39
337.25	14.51
337.622	14.39
337.993	14.69
338.365	14.73
338.736	14.99
339.108	14.42
339.479	14.79
339.851	15.07
340.222	15.1
340.593	14.73
340.964	14.96
341.336	14.92
341.707	15.01
342.078	15.23
342.449	15.28
342.82	15.24
343.191	15.06
343.562	15.36
343.933	15.75
344.303	15.54
344.674	15.47
345.045	16.17
345.416	15.82
345.786	15.83
346.157	15.69
346.527	15.73
346.898	15.94
347.268	15.91
347.639	16.4
348.009	16.07
348.38	16.38
348.75	16.29
349.12	16.93
349.49	16.32
349.861	17.62
350.231	17.26
350.601	16.7
350.971	16.8
351.341	16.95
351.711	16.97
352.081	17.26
352.45	17.41
352.82	16.98
353.19	17.15
353.56	17.47
353.929	17.39
354.299	17.74
354.669	18.03
355.038	17.8
355.408	18.25
355.777	17.82
356.147	18.06
356.516	17.87
356.885	17.81
357.254	17.94
357.624	18.08
357.993	18.15
358.362	18.18
358.731	18.23
359.1	18.64
359.469	18.25
359.838	18.46
360.207	18.52
360.576	18.59
360.945	18.17
361.314	18.96
361.682	18.48
362.051	18.67
362.42	18.96
362.788	18.83
363.157	18.89
363.525	18.79
363.894	18.79
364.262	18.83
364.631	19.93
364.999	19.2
365.367	19.62
365.735	19.37
366.104	19.44
366.472	19.72
366.84	20.08
367.208	19.66
367.576	19.6
367.944	19.76
368.312	19.43
368.68	19.98
369.048	19.98
369.416	19.98
369.783	20.41
370.151	20.37
370.519	20.32
370.886	20.38
371.254	20.64
371.621	20.76
371.989	20.52
372.356	20.65
372.724	20.84
373.091	20.73
373.458	21.18
373.826	20.98
374.193	21.68
374.56	20.96
374.927	21.04
375.294	21.48
375.661	21.57
376.028	21.63
376.395	21.22
376.762	21.5
377.129	22.01
377.496	21.5
377.863	21.77
378.229	21.48
378.596	21.73
378.963	21.93
379.329	21.99
379.696	21.74
380.062	22.24
380.429	22.17
380.795	22.35
381.161	22.41
381.528	21.96
381.894	22.69
382.26	22.44
382.626	22.47
382.993	22.69
383.359	22.7
383.725	22.96
384.091	22.98
384.457	23.14
384.823	23.03
385.188	23.31
385.554	22.98
385.92	23.48
386.286	23.7
386.651	23.36
387.017	23.56
387.383	23.39
387.748	23.41
388.114	23.57
388.479	23.39
388.845	23.78
389.21	24.07
389.575	24.02
389.94	24.01
390.306	24.43
390.671	24.08
391.036	24.44
391.401	24.76
391.766	24.13
392.131	24.32
392.496	24.28
392.861	24.35
393.226	24.49
393.591	24.69
393.956	24.5
394.32	24.68
394.685	25.03
395.05	24.79
395.414	24.85
395.779	25.09
396.143	25.1
396.508	25.45
396.872	25.14
397.236	24.93
397.601	25.39
397.965	25.14
398.329	25.54
398.694	25.78
399.058	25.64
399.422	25.71
399.786	25.62
400.15	25.95
400.514	25.79
400.878	25.58
401.242	26.11
401.605	26.07
401.969	26.48
402.333	26.27
402.697	26.14
403.06	26.55
403.424	26.71
403.787	26.5
404.151	26.32
404.514	26.66
404.878	26.77
405.241	26.74
405.604	26.63
405.968	26.58
406.331	26.91
406.694	27.01
407.057	27.24
407.42	27.27
407.783	27.13
408.146	27.24
408.509	27.28
408.872	27.49
409.235	27.36
409.598	27.43
409.961	27.62
410.323	27.8
410.686	27.57
411.049	27.99
411.411	27.89
411.774	27.85
412.136	28.12
412.499	28.06
412.861	27.89
413.223	28.37
413.586	28.14
413.948	28.44
414.31	28.31
414.672	28.25
415.035	28.47
415.397	28.67
415.759	28.48
416.121	28.64
416.483	28.95
416.845	28.85
417.206	28.66
417.568	29.03
417.93	28.65
418.292	28.84
418.653	28.85
419.015	28.82
419.377	28.76
419.738	28.8
420.1	28.65
420.461	28.79
420.822	28.79
421.184	28.94
421.545	29.02
421.906	28.94
422.267	28.64
422.629	28.85
422.99	28.96
423.351	28.94
423.712	29.04
424.073	29.2
424.434	29.01
424.795	29.35
425.155	29.28
425.516	29.17
425.877	29.38
426.238	29.48
426.598	29.61
426.959	29.63
427.32	29.89
427.68	30.11
428.041	30.28
428.401	30.1
428.761	30.17
429.122	30.31
429.482	30.36
429.842	30.55
430.202	30.52
430.563	30.94
430.923	30.95
431.283	30.81
431.643	31.03
432.003	31.03
432.363	31.15
432.722	31.09
433.082	31.32
433.442	31.11
433.802	31.31
434.161	31.16
434.521	31.27
434.881	31.34
435.24	31.34
435.6	31.35
435.959	31.58
436.319	31.43
436.678	31.56
437.037	31.85
437.396	31.6
437.756	31.72
438.115	31.98
438.474	31.95
438.833	32.1
439.192	32.18
439.551	32.12
439.91	32.15
440.269	32.09
440.628	32.11
440.987	32.02
441.345	32.35
441.704	32.21
442.063	32.12
442.421	32.29
442.78	32.09
443.138	32.55
443.497	32.52
443.855	32.52
444.214	32.87
444.572	32.85
444.93	32.87
445.288	33.03
445.647	33.08
446.005	33
446.363	32.79
446.721	32.83
447.079	32.74
447.437	32.61
447.795	32.82
448.153	32.78
448.51	32.86
448.868	33.16
449.226	33.21
449.584	33.23
449.941	33.4
450.299	33.54
450.656	33.94
451.014	33.73
451.371	33.94
451.729	33.95
452.086	34.09
452.443	34.25
452.801	34.31
453.158	34.16
453.515	34.42
453.872	34.52
454.229	34.39
454.586	34.52
454.943	34.35
455.3	34.47
455.657	34.73
456.014	34.88
456.371	34.8
456.727	34.7
457.084	34.78
457.441	34.88
457.797	35.11
458.154	35.15
458.51	35.19
458.867	35.08
459.223	35.31
459.58	35.18
459.936	35.41
460.292	35.2
460.648	35.08
461.005	35
461.361	34.76
461.717	34.96
462.073	35.06
462.429	35.28
462.785	35.41
463.141	35.83
463.496	35.82
463.852	35.99
464.208	35.89
464.564	36.09
464.919	36.37
465.275	36.32
465.631	36.25
465.986	36.4
466.342	36.27
466.697	36.58
467.052	36.65
467.408	36.64
467.763	36.6
468.118	36.87
468.473	36.69
468.829	36.9
469.184	36.96
469.539	36.94
469.894	37.09
470.249	37.08
470.603	37.25
470.958	37.07
471.313	37.06
471.668	37.47
472.023	37.73
472.377	37.83
472.732	37.47
473.086	37.53
473.441	37.94
473.795	37.74
474.15	37.62
474.504	37.74
474.859	37.89
475.213	37.97
475.567	38.01
475.921	38.34
476.275	38.09
476.63	38.12
476.984	38.15
477.338	38.61
477.692	38.34
478.045	38.13
478.399	38.2
478.753	38.04
479.107	38.48
479.461	38.32
479.814	38.57
480.168	38.44
480.521	38.5
480.875	38.6
481.228	38.71
481.582	38.69
481.935	38.84
482.289	38.7
482.642	38.61
482.995	38.58
483.348	38.64
483.701	38.44
484.055	38.31
484.408	38.09
484.761	37.86
485.114	37.86
485.466	37.82
485.819	37.86
486.172	37.95
486.525	37.91
486.878	38.15
487.23	38.35
487.583	38.58
487.936	38.62
488.288	38.46
488.641	38.25
488.993	38.3
489.345	38.36
489.698	38.5
490.05	38.64
490.402	38.86
490.754	39.05
491.107	39.34
491.459	39.31
491.811	39.56
492.163	39.65
492.515	39.38
492.866	38.94
493.218	38.93
493.57	39.02
493.922	39.32
494.274	39.63
494.625	39.85
494.977	40.08
495.328	40.36
495.68	40.74
496.031	40.69
496.383	40.51
496.734	40.81
497.086	40.83
497.437	40.91
497.788	40.67
498.139	40.62
498.49	40.88
498.842	40.7
499.193	40.68
499.544	40.92
499.894	40.93
500.245	41
500.596	41.33
500.947	41.32
501.298	41.43
501.648	41.45
501.999	41.73
502.35	41.78
502.7	41.7
503.051	41.84
503.401	41.65
503.752	41.78
504.102	42.04
504.452	41.93
504.803	41.93
505.153	42.03
505.503	42.04
505.853	41.83
506.203	42.04
506.553	42.15
506.903	42.1
507.253	42.38
507.603	42.25
507.953	42.38
508.303	42.38
508.652	42.6
509.002	42.45
509.352	42.32
509.701	42.17
510.051	42.43
510.4	42.33
510.75	42.57
511.099	42.4
511.449	42.34
511.798	42.6
512.147	42.74
512.496	42.49
512.846	42.76
513.195	43.01
513.544	42.71
513.893	42.71
514.242	42.77
514.591	43.02
514.939	43.01
515.288	43.14
515.637	43.17
515.986	43.19
516.334	43.31
516.683	43.38
517.032	43.62
517.38	43.46
517.729	43.53
518.077	43.83
518.426	43.53
518.774	43.54
519.122	43.29
519.47	43.34
519.819	43.3
520.167	43.18
520.515	43.21
520.863	43.34
521.211	43.43
521.559	43.69
521.907	43.65
522.255	43.79
522.602	43.99
522.95	43.97
523.298	44.01
523.645	43.93
523.993	44.39
524.341	44.42
524.688	44.45
525.036	44.51
525.383	44.54
525.73	44.18
526.078	44.33
526.425	44.03
526.772	44.15
527.119	43.96
527.466	43.94
527.814	43.83
528.161	44.11
528.508	44.09
528.854	43.85
529.201	43.99
529.548	43.62
529.895	43.68
530.242	43.76
530.588	43.74
530.935	43.74
531.282	43.79
531.628	44.05
531.975	44.21
532.321	44.62
532.667	44.52
533.014	44.72
533.36	44.82
533.706	44.82
534.052	44.51
534.399	44.37
534.745	44.29
535.091	44.5
535.437	44.64
535.783	44.68
536.129	44.89
536.474	45.19
536.82	45.26
537.166	45.39
537.512	45.25
537.857	45.21
538.203	45.21
538.549	45.24
538.894	45.42
539.239	45.56
539.585	45.58
539.93	46.08
540.276	45.9
540.621	45.93
540.966	46.09
541.311	46.09
541.656	46.01
542.001	45.73
542.346	45.41
542.691	45.31
543.036	45.29
543.381	45.28
543.726	45.47
544.071	45.58
544.415	45.79
544.76	45.73
545.105	46.22
545.449	46.23
545.794	46.13
546.138	46.57
546.483	46.42
546.827	46.67
547.171	46.5
547.516	46.82
547.86	46.47
548.204	46.64
548.548	46.8
548.892	46.7
549.236	46.82
549.58	47.06
549.924	47.27
550.268	47.36
550.612	47.34
550.956	47.57
551.3	47.48
551.643	47.78
551.987	47.81
552.33	47.61
552.674	47.89
553.017	47.88
553.361	48.1
553.704	47.72
554.048	47.86
554.391	48.12
554.734	47.82
555.077	48.16
555.42	48.22
555.764	48.1
556.107	48.11
556.45	48.32
556.793	48.07
557.135	48.44
557.478	48.44
557.821	48.66
558.164	48.81
558.507	48.35
558.849	48.62
559.192	48.62
559.534	48.51
559.877	48.98
560.219	49
560.562	48.9
560.904	48.95
561.246	49.14
561.589	48.81
561.931	49.18
562.273	49.14
562.615	48.91
562.957	49.32
563.299	49.16
563.641	49.04
563.983	49.42
564.325	48.91
564.667	48.94
565.008	49.39
565.35	49.58
565.692	49.44
566.033	49.46
566.375	49.24
566.716	49.38
567.058	49.26
567.399	49.39
567.741	49.35
568.082	49.3
568.423	49.45
568.764	49.62
569.105	49.62
569.447	49.41
569.788	49.72
570.129	49.51
570.47	49.96
570.811	49.97
571.151	49.86
571.492	49.66
571.833	49.79
572.174	49.72
572.514	49.77
572.855	49.76
573.195	49.79
573.536	49.82
573.876	49.97
574.217	49.91
574.557	50.06
574.898	49.84
575.238	50.18
575.578	50.24
575.918	50.05
576.258	50.14
576.598	50.34
576.938	50.35
577.278	50.21
577.618	50.35
577.958	50.31
578.298	50.52
578.638	50.55
578.977	50.74
579.317	50.76
579.657	50.9
579.996	50.86
580.336	51.34
580.675	50.9
581.014	51.02
581.354	51.22
581.693	51.12
582.032	50.77
582.372	51.39
582.711	51.39
583.05	51.43
583.389	51.34
583.728	51.44
584.067	51.18
584.406	51.59
584.745	51.65
585.083	51.73
585.422	51.76
585.761	51.83
586.1	51.76
586.438	51.71
586.777	52.08
587.115	51.93
587.454	51.96
587.792	51.95
588.13	52.19
588.469	51.83
588.807	52.25
589.145	52.31
589.483	52.31
589.821	51.82
590.159	52.29
590.497	51.81
590.835	51.89
591.173	52.45
591.511	52
591.849	52.05
592.187	52.14
592.524	52.26
592.862	52.32
593.2	52.24
593.537	52.43
593.875	52.53
594.212	52.19
594.55	52.29
594.887	52.45
595.224	52.16
595.561	52.3
595.899	52.63
596.236	52.49
596.573	52.64
596.91	52.63
597.247	52.49
597.584	52.42
597.921	52.39
598.258	52.31
598.594	52.37
598.931	52.26
599.268	52.55
599.604	52.66
599.941	52.45
600.277	52.72
600.614	53.05
600.95	53.38
601.287	53.14
601.623	53.27
601.959	53.09
602.296	53.68
602.632	53.16
602.968	53.71
603.304	53.04
603.64	53.29
603.976	53.68
604.312	53.59
604.648	53.1
604.984	53.16
605.319	53.16
605.655	53.18
605.991	53.03
606.326	52.94
606.662	52.88
606.998	53.19
607.333	53.4
607.668	53.2
608.004	53.4
608.339	53.65
608.674	53.78
609.01	53.75
609.345	53.9
609.68	53.64
610.015	54.03
610.35	53.93
610.685	53.76
611.02	53.64
611.355	53.75
611.689	53.69
612.024	54.22
612.359	54.02
612.694	54.17
613.028	54.12
613.363	54.48
613.697	54.24
614.032	54.22
614.366	54.63
614.7	54.27
615.035	54.76
615.369	54.47
615.703	54.66
616.037	54.49
616.371	54.58
616.705	54.65
617.039	55.11
617.373	55.04
617.707	54.74
618.041	55.01
618.375	54.69
618.709	54.96
619.042	54.83
619.376	54.96
619.71	54.98
620.043	54.84
620.377	54.9
620.71	55.05
621.043	54.8
621.377	54.76
621.71	55.49
622.043	55.38
622.376	55.13
622.709	55.89
623.043	55.39
623.376	54.96
623.709	55.05
624.041	55.23
624.374	55.83
624.707	55.86
625.04	55.22
625.373	55.58
625.705	55.63
626.038	55.65
626.37	55.35
626.703	55.61
627.035	55.97
627.368	56
627.7	55.52
628.032	55.74
628.365	55.36
628.697	55.28
629.029	55.73
629.361	55.54
629.693	55.58
630.025	55.51
630.357	55.77
630.689	56.06
631.021	55.79
631.353	56.14
631.684	56.31
632.016	55.44
632.348	56.06
632.679	56.03
633.011	56.58
633.342	56.33
633.674	56.13
634.005	56.19
634.336	55.99
634.668	56.54
634.999	56.71
635.33	56.36
635.661	56.58
635.992	56.25
636.323	56.07
636.654	56.36
636.985	56.62
637.316	56.43
637.647	56.98
637.977	56.78
638.308	56.39
638.639	56.88
638.969	56.34
639.3	56.54
639.63	56.9
639.961	56.84
640.291	57.28
640.622	57.1
640.952	56.87
641.282	56.88
641.612	56.85
641.943	56.81
642.273	57.57
642.603	57.37
642.933	57.23
643.263	57.18
643.592	57.08
643.922	56.72
644.252	57.24
644.582	56.78
644.911	57.02
645.241	57.34
645.571	57.37
645.9	57.54
646.23	57.71
646.559	57.83
646.888	57.48
647.218	58.05
647.547	57.61
647.876	58.4
648.205	57.55
648.534	57.27
648.863	57.88
649.192	57.57
649.521	57.71
649.85	58.21
650.179	58.08
650.508	57.56
650.837	57.61
651.165	57.71
651.494	57.31
651.822	57.92
652.151	58.04
652.479	57.82
652.808	57.1
653.136	57.7
653.465	58.05
653.793	57.83
654.121	58.12
654.449	58.2
654.777	57.89
655.105	57.98
655.433	57.86
655.761	57.91
656.089	58.52
656.417	57.52
656.745	58.93
657.073	58.05
657.4	58.08
657.728	58.08
658.056	57.97
658.383	58.63
658.711	58.11
659.038	58.13
659.365	58.18
659.693	58.01
660.02	58.58
660.347	58.02
660.674	58.37
661.001	58.09
661.329	58.6
661.656	58.32
661.982	58.41
662.309	58.04
662.636	58.5
662.963	58.48
663.29	58.92
663.616	59.2
663.943	58.91
664.27	58.96
664.596	59.65
664.923	58.64
665.249	58.41
665.576	59.22
665.902	58.77
666.228	59.12
666.554	58.65
666.881	59.13
667.207	59.45
667.533	59.45
667.859	59.33
668.185	58.65
668.511	58.69
