Data from 0052_forehead_Reflection__4__77.txt Node

Date: Fri Dec 16 14:28:08 CST 2022
User: ToomeyLab
Spectrometer: FLMS14357
Trigger mode: 0
Integration Time (sec): 1.000000E-2
Scans to average: 100
Electric dark correction enabled: true
Nonlinearity correction enabled: false
Boxcar width: 0
XAxis mode: Wavelengths
Number of Pixels in Spectrum: 2048
>>>>>Begin Spectral Data<<<<<
189.047	418.66
189.435	418.66
189.823	418.66
190.211	26.32
190.599	-53.82
190.987	30.4
191.375	150.43
191.763	-1.28
192.151	-79.55
192.538	-187.6
192.926	-360.59
193.314	42.25
193.702	581.53
194.089	20.29
194.477	168.85
194.864	-70.45
195.252	-166.51
195.639	98.45
196.027	34.63
196.414	-36.87
196.801	-196.4
197.189	3327.66
197.576	-89.33
197.963	156.29
198.351	64.99
198.738	38.38
199.125	42.07
199.512	48.83
199.899	-16.08
200.286	-12.02
200.673	87.81
201.06	60.86
201.447	86.83
201.833	-22.63
202.22	79.76
202.607	5.98
202.994	40.28
203.38	5.35
203.767	14.26
204.154	35.58
204.54	21.01
204.927	29.74
205.313	21.51
205.699	28.8
206.086	40.44
206.472	23
206.858	39.68
207.245	19.63
207.631	56.72
208.017	24.1
208.403	42.17
208.789	4.49
209.175	50.46
209.561	5.23
209.947	27.33
210.333	50.43
210.719	19.83
211.105	9.07
211.491	40.54
211.876	27.76
212.262	27.84
212.648	23.6
213.034	37
213.419	32.29
213.805	40.5
214.19	25.99
214.576	15.07
214.961	17.71
215.346	9.05
215.732	16.2
216.117	59.06
216.502	27.87
216.888	5.43
217.273	17.94
217.658	-8.03
218.043	-6.61
218.428	13.11
218.813	0.35
219.198	33.39
219.583	28.31
219.968	22.3
220.353	36.03
220.738	14.88
221.122	10.52
221.507	0.01
221.892	8.26
222.276	26.51
222.661	14.18
223.046	17.58
223.43	7.57
223.815	13.44
224.199	11.2
224.583	6.67
224.968	21
225.352	4.89
225.736	21.95
226.121	0.12
226.505	8.75
226.889	11.65
227.273	8.23
227.657	7.78
228.041	9.8
228.425	9.2
228.809	7.58
229.193	6.58
229.577	6.18
229.961	6.56
230.344	6.35
230.728	6.22
231.112	7.15
231.495	6.85
231.879	7.7
232.263	6.92
232.646	5.75
233.03	5.35
233.413	5.76
233.797	8.75
234.18	4.18
234.563	8
234.946	6.29
235.33	6.18
235.713	6.72
236.096	7.23
236.479	7.39
236.862	8.24
237.245	8.59
237.628	6.94
238.011	6.33
238.394	7.4
238.777	6.15
239.16	5.93
239.543	5.68
239.925	8.22
240.308	5.88
240.691	5.96
241.073	6.85
241.456	6
241.838	5.78
242.221	6.32
242.603	6.3
242.986	7.06
243.368	5.71
243.75	5.73
244.133	5.75
244.515	5.92
244.897	5.59
245.279	6.1
245.661	6.48
246.043	6.02
246.425	5.68
246.807	6.23
247.189	6.31
247.571	6.41
247.953	6.12
248.335	6.01
248.717	5.79
249.098	6.03
249.48	5.58
249.862	6.14
250.243	6.17
250.625	6.05
251.006	6.64
251.388	7.2
251.769	6.42
252.151	6.7
252.532	5.94
252.913	6.45
253.295	6.81
253.676	6.55
254.057	5.53
254.438	5.74
254.819	6.92
255.2	5.84
255.581	5.85
255.962	6.16
256.343	7.43
256.724	6.75
257.105	5.85
257.486	5.71
257.867	4.77
258.247	6.83
258.628	7.23
259.009	5.95
259.389	6.35
259.77	6.07
260.15	6.6
260.531	6.29
260.911	5.93
261.292	5.72
261.672	5.85
262.052	5.98
262.432	5.5
262.813	6.15
263.193	6.02
263.573	6.16
263.953	6.1
264.333	5.97
264.713	5.76
265.093	5.74
265.473	7.59
265.853	6.11
266.233	5.96
266.612	6.21
266.992	6.02
267.372	6.12
267.752	5.71
268.131	5.97
268.511	6.1
268.89	6.13
269.27	6.1
269.649	5.59
270.029	5.94
270.408	6.28
270.787	5.89
271.167	5.94
271.546	5.15
271.925	5.77
272.304	6.22
272.683	5.68
273.062	6.25
273.441	6.23
273.82	5.98
274.199	6.06
274.578	5.78
274.957	6.02
275.336	5.64
275.715	6.56
276.093	6.41
276.472	6.13
276.851	5.85
277.229	6.53
277.608	5.94
277.986	5.9
278.365	5.43
278.743	6.28
279.122	5.27
279.5	5.35
279.878	5.1
280.257	6.79
280.635	6.07
281.013	5.65
281.391	5.98
281.769	5.67
282.147	5.78
282.525	5.87
282.903	5.62
283.281	5.81
283.659	6.03
284.037	5.84
284.415	5.92
284.792	5.89
285.17	5.99
285.548	6.21
285.925	5.47
286.303	5.63
286.68	5.8
287.058	5.55
287.435	5.85
287.813	5.96
288.19	6.55
288.567	5.85
288.945	6.32
289.322	5.93
289.699	5.96
290.076	6.62
290.453	6.63
290.83	6.56
291.207	6.14
291.584	5.9
291.961	6.36
292.338	6.42
292.715	6.67
293.092	6.2
293.469	6.75
293.845	6.57
294.222	6.35
294.599	6.78
294.975	6.75
295.352	6.51
295.728	6.99
296.105	7.03
296.481	7.14
296.858	6.98
297.234	6.65
297.61	6.84
297.986	6.91
298.363	6.45
298.739	6.98
299.115	6.47
299.491	6.9
299.867	7.19
300.243	6.77
300.619	7.03
300.995	7.26
301.371	7.41
301.746	7.28
302.122	7.63
302.498	7.15
302.874	7.4
303.249	7.47
303.625	7.41
304	6.97
304.376	8.01
304.751	7.75
305.127	7.78
305.502	7.74
305.878	7.33
306.253	7.7
306.628	8.25
307.003	8.3
307.378	7.69
307.754	8.04
308.129	8.18
308.504	8.46
308.879	7.93
309.254	8.66
309.629	8.9
310.003	8.99
310.378	8.73
310.753	8.75
311.128	8.69
311.502	8.34
311.877	8.58
312.252	8.73
312.626	8.63
313.001	9.06
313.375	8.88
313.75	8.93
314.124	9.28
314.498	9.37
314.873	9.71
315.247	9.48
315.621	9.68
315.995	9.54
316.369	9.54
316.743	9.96
317.117	9.97
317.491	10.25
317.865	9.82
318.239	10.63
318.613	9.64
318.987	10.13
319.361	10.4
319.734	10.14
320.108	10.1
320.482	10.51
320.855	10.6
321.229	10.94
321.602	10.71
321.976	10.84
322.349	10.47
322.723	10.63
323.096	10.99
323.469	11.04
323.843	11.17
324.216	10.61
324.589	11.53
324.962	11.38
325.335	11.37
325.708	12.06
326.081	12.09
326.454	11.64
326.827	11.81
327.2	12.34
327.573	12.31
327.945	12.11
328.318	12.23
328.691	12.25
329.063	12.1
329.436	12.05
329.809	12.23
330.181	12.32
330.553	13.13
330.926	12.78
331.298	12.45
331.671	12.52
332.043	13.27
332.415	12.73
332.787	13.7
333.159	13.08
333.532	13.3
333.904	13.64
334.276	13.08
334.648	13.51
335.02	13.15
335.391	13.44
335.763	13.12
336.135	14.2
336.507	13.69
336.879	13.73
337.25	13.69
337.622	13.97
337.993	14.43
338.365	14.36
338.736	14.46
339.108	14.27
339.479	13.95
339.851	14.25
340.222	14.15
340.593	14.21
340.964	14.72
341.336	14.41
341.707	14.64
342.078	14.6
342.449	14.73
342.82	15.15
343.191	14.52
343.562	15.19
343.933	15.27
344.303	15.12
344.674	15.46
345.045	15.72
345.416	15.76
345.786	15.49
346.157	15.45
346.527	15.53
346.898	15.52
347.268	15.4
347.639	15.75
348.009	16.38
348.38	16.15
348.75	15.84
349.12	16.29
349.49	16.36
349.861	16.72
350.231	16.66
350.601	15.89
350.971	16.43
351.341	16.84
351.711	16.19
352.081	16.81
352.45	16.8
352.82	16.99
353.19	16.86
353.56	17.05
353.929	16.87
354.299	17.01
354.669	17.21
355.038	17.31
355.408	17.47
355.777	17.04
356.147	17.39
356.516	17.81
356.885	17.33
357.254	17.55
357.624	17.76
357.993	17.88
358.362	17.89
358.731	17.87
359.1	18.01
359.469	18.11
359.838	17.63
360.207	17.84
360.576	18.03
360.945	18.46
361.314	18.65
361.682	18.31
362.051	18.47
362.42	18.82
362.788	18.46
363.157	18.47
363.525	18.57
363.894	18.56
364.262	18.74
364.631	19.76
364.999	18.95
365.367	19.05
365.735	18.89
366.104	19.07
366.472	19.33
366.84	19.17
367.208	18.92
367.576	19.28
367.944	20.02
368.312	19.36
368.68	20
369.048	20.02
369.416	19.62
369.783	19.69
370.151	19.9
370.519	20.32
370.886	20.15
371.254	20.08
371.621	20.41
371.989	20.25
372.356	20.52
372.724	20.56
373.091	20.41
373.458	20.5
373.826	20.72
374.193	21.32
374.56	20.67
374.927	20.73
375.294	21.09
375.661	21.13
376.028	21.05
376.395	21.18
376.762	21.33
377.129	21.52
377.496	21.46
377.863	21.63
378.229	21.52
378.596	21.8
378.963	21.52
379.329	21.88
379.696	21.51
380.062	22.06
380.429	22.33
380.795	21.95
381.161	22.41
381.528	21.83
381.894	22.14
382.26	22.2
382.626	22.47
382.993	22.56
383.359	22.39
383.725	22.19
384.091	22.9
384.457	22.78
384.823	23.04
385.188	23.17
385.554	22.84
385.92	23.1
386.286	23.37
386.651	23.07
387.017	23.27
387.383	23.38
387.748	23.08
388.114	23.29
388.479	23.82
388.845	23.55
389.21	23.95
389.575	23.86
389.94	23.7
390.306	23.81
390.671	24.05
391.036	24.01
391.401	24.43
391.766	24.25
392.131	23.94
392.496	24.23
392.861	24.38
393.226	24.44
393.591	24.55
393.956	24.52
394.32	24.42
394.685	24.51
395.05	24.43
395.414	24.69
395.779	24.94
396.143	25
396.508	24.83
396.872	25.35
397.236	24.97
397.601	25.4
397.965	24.85
398.329	25.69
398.694	25.4
399.058	25.39
399.422	25.78
399.786	25.74
400.15	25.68
400.514	25.75
400.878	25.86
401.242	26.27
401.605	25.89
401.969	26
402.333	26.09
402.697	26.25
403.06	26.18
403.424	26.24
403.787	26.3
404.151	26.23
404.514	26.52
404.878	26.54
405.241	26.74
405.604	26.68
405.968	26.61
406.331	26.71
406.694	26.97
407.057	27.28
407.42	27.25
407.783	27.03
408.146	27.06
408.509	27.16
408.872	27.27
409.235	27.45
409.598	27.43
409.961	27.38
410.323	27.6
410.686	27.62
411.049	27.44
411.411	27.75
411.774	27.66
412.136	27.78
412.499	28.17
412.861	27.98
413.223	28.1
413.586	28.16
413.948	28.36
414.31	28.78
414.672	28.34
415.035	28.52
415.397	28.57
415.759	28.55
416.121	28.73
416.483	28.63
416.845	28.69
417.206	28.62
417.568	28.83
417.93	28.48
418.292	28.95
418.653	28.83
419.015	29.1
419.377	28.96
419.738	28.7
420.1	28.79
420.461	28.83
420.822	28.8
421.184	29.05
421.545	29.14
421.906	29.04
422.267	28.77
422.629	28.88
422.99	28.88
423.351	28.89
423.712	29.06
424.073	29.41
424.434	29.31
424.795	29.34
425.155	29.39
425.516	29.28
425.877	29.52
426.238	29.46
426.598	29.66
426.959	29.71
427.32	29.92
427.68	29.99
428.041	30.17
428.401	30.12
428.761	30.17
429.122	30.34
429.482	30.48
429.842	30.61
430.202	30.57
430.563	31.03
430.923	30.88
431.283	31.01
431.643	31.04
432.003	31.28
432.363	31.11
432.722	31.25
433.082	31.29
433.442	31.4
433.802	31.24
434.161	31.48
434.521	31.35
434.881	31.46
435.24	31.56
435.6	31.45
435.959	31.57
436.319	31.51
436.678	31.72
437.037	31.77
437.396	32.01
437.756	31.87
438.115	32.18
438.474	31.96
438.833	32.07
439.192	32.36
439.551	32.08
439.91	32.19
440.269	32.2
440.628	32.3
440.987	32.22
441.345	32.38
441.704	32.27
442.063	32.28
442.421	32.26
442.78	32.36
443.138	32.53
443.497	32.63
443.855	32.75
444.214	32.88
444.572	33.04
444.93	33.17
445.288	33.16
445.647	33.16
446.005	33.18
446.363	33.1
446.721	33.07
447.079	33.14
447.437	32.89
447.795	33.07
448.153	33.13
448.51	33.07
448.868	33.17
449.226	33.31
449.584	33.38
449.941	33.42
450.299	33.57
450.656	33.94
451.014	33.81
451.371	34.06
451.729	34.08
452.086	34.03
452.443	34.22
452.801	34.27
453.158	34.23
453.515	34.3
453.872	34.5
454.229	34.32
454.586	34.55
454.943	34.63
455.3	34.89
455.657	34.69
456.014	34.89
456.371	34.94
456.727	34.89
457.084	34.89
457.441	34.99
457.797	35.11
458.154	35.23
458.51	35.06
458.867	35.24
459.223	35.51
459.58	35.39
459.936	35.31
460.292	35.59
460.648	35.23
461.005	35.06
461.361	35.09
461.717	35.1
462.073	35.24
462.429	35.41
462.785	35.35
463.141	35.72
463.496	35.85
463.852	36.16
464.208	36.09
464.564	36.49
464.919	36.36
465.275	36.46
465.631	36.65
465.986	36.42
466.342	36.6
466.697	36.48
467.052	36.51
467.408	36.85
467.763	36.57
468.118	36.61
468.473	36.86
468.829	37.06
469.184	36.76
469.539	36.88
469.894	37.01
470.249	36.95
470.603	36.97
470.958	37.12
471.313	37.22
471.668	37.42
472.023	37.53
472.377	37.45
472.732	37.4
473.086	37.59
473.441	37.56
473.795	37.76
474.15	37.76
474.504	37.81
474.859	37.89
475.213	37.7
475.567	37.9
475.921	37.97
476.275	37.97
476.63	38.02
476.984	38.1
477.338	38.31
477.692	38.11
478.045	38.08
478.399	38.51
478.753	37.97
479.107	38.24
479.461	38.45
479.814	38.39
480.168	38.47
480.521	38.19
480.875	38.61
481.228	38.75
481.582	38.77
481.935	38.62
482.289	38.67
482.642	38.51
482.995	38.67
483.348	38.46
483.701	38.38
484.055	38.4
484.408	38.21
484.761	38.06
485.114	38.14
485.466	38.2
485.819	37.94
486.172	37.83
486.525	37.8
486.878	38.05
487.23	38.3
487.583	38.58
487.936	38.71
488.288	38.6
488.641	38.56
488.993	38.4
489.345	38.49
489.698	38.55
490.05	38.51
490.402	38.65
490.754	39.01
491.107	39.19
491.459	39.34
491.811	39.36
492.163	39.52
492.515	39.39
492.866	39.17
493.218	39.08
493.57	39.05
493.922	39.21
494.274	39.44
494.625	39.68
494.977	39.91
495.328	40.29
495.68	40.45
496.031	40.35
496.383	40.68
496.734	40.59
497.086	40.55
497.437	40.8
497.788	40.83
498.139	40.58
498.49	40.72
498.842	40.67
499.193	40.57
499.544	40.86
499.894	40.83
500.245	41
500.596	40.99
500.947	41.05
501.298	41.32
501.648	41.33
501.999	41.52
502.35	41.6
502.7	41.57
503.051	41.61
503.401	41.58
503.752	41.57
504.102	41.61
504.452	41.6
504.803	41.78
505.153	41.78
505.503	41.79
505.853	41.89
506.203	41.87
506.553	41.95
506.903	41.76
507.253	42.21
507.603	42.01
507.953	42.07
508.303	42.24
508.652	42.22
509.002	42.09
509.352	42.29
509.701	42.31
510.051	42.31
510.4	42.12
510.75	42.19
511.099	42.3
511.449	42.14
511.798	42.4
512.147	42.44
512.496	42.44
512.846	42.39
513.195	42.67
513.544	42.48
513.893	42.41
514.242	42.66
514.591	42.67
514.939	42.83
515.288	42.93
515.637	42.95
515.986	42.96
516.334	43.07
516.683	43.11
517.032	43.2
517.38	43.31
517.729	43.33
518.077	43.34
518.426	43.36
518.774	43.09
519.122	43.21
519.47	43.17
519.819	43.12
520.167	43.08
520.515	43.13
520.863	43.04
521.211	43.24
521.559	43.15
521.907	43.4
522.255	43.49
522.602	43.73
522.95	43.85
523.298	43.99
523.645	43.81
523.993	43.91
524.341	43.98
524.688	43.87
525.036	44.18
525.383	44.35
525.73	43.9
526.078	44.1
526.425	43.97
526.772	43.84
527.119	43.77
527.466	43.85
527.814	43.76
528.161	43.92
528.508	43.9
528.854	43.74
529.201	43.85
529.548	43.46
529.895	43.69
530.242	43.78
530.588	43.87
530.935	43.6
531.282	43.51
531.628	43.7
531.975	43.9
532.321	44.21
532.667	44.15
533.014	44.32
533.36	44.59
533.706	44.51
534.052	44.35
534.399	44.2
534.745	44.13
535.091	44.34
535.437	44.22
535.783	44.42
536.129	44.55
536.474	44.76
536.82	44.88
537.166	45
537.512	44.89
537.857	45.02
538.203	45.06
538.549	44.96
538.894	45.07
539.239	45.34
539.585	45.29
539.93	45.67
540.276	45.61
540.621	45.51
540.966	45.57
541.311	45.84
541.656	45.66
542.001	45.65
542.346	45.25
542.691	44.97
543.036	45.12
543.381	45.02
543.726	45.03
544.071	45.25
544.415	45.34
544.76	45.34
545.105	45.72
545.449	45.75
545.794	45.85
546.138	46.05
546.483	46.05
546.827	46.2
547.171	45.97
547.516	46.37
547.86	46.04
548.204	46.3
548.548	46.38
548.892	46.25
549.236	46.29
549.58	46.54
549.924	46.65
550.268	46.9
550.612	46.95
550.956	47.15
551.3	47.09
551.643	47.1
551.987	47.36
552.33	47.26
552.674	47.57
553.017	47.39
553.361	47.58
553.704	47.5
554.048	47.65
554.391	47.46
554.734	47.35
555.077	47.56
555.42	47.47
555.764	47.72
556.107	47.8
556.45	47.61
556.793	47.62
557.135	48.22
557.478	47.92
557.821	48.06
558.164	48.15
558.507	47.83
558.849	47.96
559.192	48.01
559.534	48.13
559.877	48.18
560.219	48.33
560.562	48.31
560.904	48.1
561.246	48.37
561.589	48.44
561.931	48.61
562.273	48.28
562.615	48.67
562.957	48.74
563.299	48.6
563.641	48.58
563.983	48.62
564.325	48.64
564.667	48.96
565.008	48.5
565.35	48.76
565.692	48.87
566.033	48.89
566.375	48.82
566.716	48.9
567.058	48.67
567.399	48.86
567.741	48.86
568.082	48.72
568.423	48.74
568.764	48.88
569.105	49
569.447	49.05
569.788	49.05
570.129	49.14
570.47	49.37
570.811	48.89
571.151	49.18
571.492	49.18
571.833	49.32
572.174	49.26
572.514	49.22
572.855	49.42
573.195	49.39
573.536	49.22
573.876	49.52
574.217	49.06
574.557	49.47
574.898	49.13
575.238	49.57
575.578	49.79
575.918	49.58
576.258	49.5
576.598	49.75
576.938	49.51
577.278	49.98
577.618	49.79
577.958	49.83
578.298	49.96
578.638	50.02
578.977	49.78
579.317	50.13
579.657	49.95
579.996	50.31
580.336	50.38
580.675	50.3
581.014	50.43
581.354	50.18
581.693	50.39
582.032	50.51
582.372	50.65
582.711	50.99
583.05	50.68
583.389	50.44
583.728	50.73
584.067	50.87
584.406	50.74
584.745	50.72
585.083	50.91
585.422	50.85
585.761	50.96
586.1	51.28
586.438	50.96
586.777	51.12
587.115	51.23
587.454	51.46
587.792	51.02
588.13	51.37
588.469	51.14
588.807	51.35
589.145	51.33
589.483	51.32
589.821	51
590.159	51.38
590.497	51.26
590.835	51.21
591.173	51.53
591.511	51.44
591.849	51.63
592.187	51.6
592.524	51.32
592.862	51.47
593.2	51.5
593.537	51.79
593.875	51.83
594.212	51.86
594.55	51.5
594.887	51.91
595.224	51.64
595.561	51.5
595.899	51.66
596.236	51.87
596.573	51.53
596.91	52.15
597.247	51.67
597.584	51.85
597.921	51.89
598.258	51.87
598.594	51.51
598.931	51.8
599.268	51.83
599.604	51.87
599.941	51.74
600.277	52.04
600.614	52.27
600.95	52.53
601.287	52.37
601.623	52.49
601.959	52.24
602.296	52.14
602.632	52.38
602.968	52.65
603.304	52.24
603.64	52.41
603.976	52.7
604.312	52.8
604.648	52.74
604.984	52.44
605.319	52.47
605.655	52.45
605.991	52.58
606.326	52.37
606.662	52.4
606.998	52.45
607.333	52.78
607.668	52.52
608.004	52.57
608.339	52.73
608.674	52.8
609.01	52.91
609.345	53.21
609.68	52.84
610.015	53.2
610.35	52.88
610.685	53
611.02	53.27
611.355	53.1
611.689	52.95
612.024	53.24
612.359	53.19
612.694	53.47
613.028	53.31
613.363	53.22
613.697	53.54
614.032	53.29
614.366	53.57
614.7	53.51
615.035	53.61
615.369	53.68
615.703	54.14
616.037	53.61
616.371	54.25
616.705	54.01
617.039	54.07
617.373	53.78
617.707	53.58
618.041	53.95
618.375	53.83
618.709	54.08
619.042	54.39
619.376	54.18
619.71	54.16
620.043	54.02
620.377	54.45
620.71	53.99
621.043	53.82
621.377	54.1
621.71	54.34
622.043	54.6
622.376	54.21
622.709	54.61
623.043	54.44
623.376	54.44
623.709	54.44
624.041	54.55
624.374	54.14
624.707	54.51
625.04	54.63
625.373	54.85
625.705	54.49
626.038	54.8
626.37	54.61
626.703	54.48
627.035	55.35
627.368	54.91
627.7	54.61
628.032	54.69
628.365	54.38
628.697	54.66
629.029	54.6
629.361	54.41
629.693	54.86
630.025	55.03
630.357	55.05
630.689	55.04
631.021	54.8
631.353	54.97
631.684	54.79
632.016	55.02
632.348	54.98
632.679	55.06
633.011	55.29
633.342	54.81
633.674	55.04
634.005	55.35
634.336	54.98
634.668	55.42
634.999	55.5
635.33	55.34
635.661	55.5
635.992	55.13
636.323	55.18
636.654	55.24
636.985	55.4
637.316	55.71
637.647	55.79
637.977	55.95
638.308	55.08
638.639	55.08
638.969	55.81
639.3	55.41
639.63	55.55
639.961	55.91
640.291	55.78
640.622	55.94
640.952	55.49
641.282	54.96
641.612	55.66
641.943	55.86
642.273	55.6
642.603	56.22
642.933	55.96
643.263	55.88
643.592	56.06
643.922	56.47
644.252	56.01
644.582	56.01
644.911	56.02
645.241	55.28
645.571	56.08
645.9	55.86
646.23	56.69
646.559	56.11
646.888	56.15
647.218	56.52
647.547	56.13
647.876	56.75
648.205	56.04
648.534	56.28
648.863	56.24
649.192	56.56
649.521	56.97
649.85	56.64
650.179	56.2
650.508	56.95
650.837	57.13
651.165	57.04
651.494	56.8
651.822	56.86
652.151	57.04
652.479	56.99
652.808	56.59
653.136	57.03
653.465	56.38
653.793	56.81
654.121	56.92
654.449	57.24
654.777	57.01
655.105	56.55
655.433	57.03
655.761	56.78
656.089	57.03
656.417	56.95
656.745	57.36
657.073	57.1
657.4	57.12
657.728	56.93
658.056	57.24
658.383	57.45
658.711	56.95
659.038	56.71
659.365	56.79
659.693	57.27
660.02	57.6
660.347	57.17
660.674	57.4
661.001	57.19
661.329	56.79
661.656	57.35
661.982	57.33
662.309	56.78
662.636	57.17
662.963	57.34
663.29	57.53
663.616	57.37
663.943	57.77
664.27	57.49
664.596	57.62
664.923	57.58
665.249	57.15
665.576	57.74
665.902	57.69
666.228	57.24
666.554	57.41
666.881	58.1
667.207	57.87
667.533	57.57
667.859	57.96
668.185	57.38
668.511	56.82
668.837	57.85
669.162	57.56
669.488	57.63
