Data from 0052_forehead_Reflection__3__76.txt Node

Date: Fri Dec 16 14:27:58 CST 2022
User: ToomeyLab
Spectrometer: FLMS14357
Trigger mode: 0
Integration Time (sec): 1.000000E-2
Scans to average: 100
Electric dark correction enabled: true
Nonlinearity correction enabled: false
Boxcar width: 0
XAxis mode: Wavelengths
Number of Pixels in Spectrum: 2048
>>>>>Begin Spectral Data<<<<<
189.047	286.1
189.435	286.1
189.823	286.1
190.211	34.31
190.599	221.61
190.987	155.62
191.375	119.43
191.763	195.14
192.151	-62.55
192.538	-605.41
192.926	17.4
193.314	118.37
193.702	-472.82
194.089	-25.6
194.477	184.92
194.864	123.55
195.252	-364.4
195.639	132.85
196.027	153.61
196.414	119.1
196.801	106.38
197.189	2144.68
197.576	-365.92
197.963	-293.16
198.351	27.31
198.738	65.79
199.125	40.04
199.512	8.43
199.899	21.67
200.286	30.6
200.673	39.85
201.06	58.6
201.447	56.16
201.833	36.95
202.22	18.46
202.607	26.33
202.994	34
203.38	32.43
203.767	-7.82
204.154	-29.53
204.54	28.59
204.927	12.88
205.313	31.19
205.699	33
206.086	29.17
206.472	42.22
206.858	47.58
207.245	28.05
207.631	-14.34
208.017	25.18
208.403	44.93
208.789	7.89
209.175	57.68
209.561	9.48
209.947	8.37
210.333	20.28
210.719	29.16
211.105	52.58
211.491	46.87
211.876	36.66
212.262	-3.42
212.648	10.47
213.034	15.4
213.419	23.49
213.805	5.19
214.19	10.84
214.576	-5.91
214.961	23.75
215.346	41.21
215.732	-3.85
216.117	30.19
216.502	19.39
216.888	-8.2
217.273	23.5
217.658	12.03
218.043	8.87
218.428	25.76
218.813	15.53
219.198	-2.63
219.583	12.19
219.968	4.27
220.353	17.87
220.738	7.7
221.122	18.78
221.507	18.08
221.892	19.37
222.276	22.49
222.661	-8.73
223.046	19.1
223.43	4.46
223.815	17.72
224.199	5.17
224.583	11.56
224.968	20.59
225.352	16.95
225.736	18.22
226.121	4.9
226.505	16.58
226.889	16.22
227.273	7.99
227.657	5.85
228.041	6.71
228.425	6.04
228.809	8.25
229.193	4.78
229.577	4.62
229.961	4.71
230.344	4.68
230.728	5.12
231.112	4.52
231.495	4.75
231.879	6.99
232.263	4.1
232.646	5.11
233.03	3.74
233.413	6.49
233.797	8.46
234.18	3.77
234.563	3.49
234.946	5.14
235.33	5.5
235.713	4.23
236.096	5.62
236.479	6.33
236.862	5.95
237.245	4.88
237.628	6.82
238.011	5.2
238.394	6.87
238.777	4.55
239.16	2.81
239.543	3.89
239.925	6.02
240.308	5.45
240.691	5.79
241.073	6.28
241.456	5.6
241.838	5.86
242.221	5.04
242.603	5.03
242.986	5.86
243.368	4.53
243.75	4.56
244.133	4.61
244.515	4.73
244.897	4.63
245.279	5.54
245.661	4.87
246.043	5.4
246.425	5.39
246.807	4.88
247.189	4.84
247.571	4.95
247.953	4.48
248.335	4.73
248.717	4.74
249.098	4.92
249.48	4.73
249.862	5.29
250.243	5.14
250.625	4.84
251.006	5.22
251.388	6.33
251.769	5.03
252.151	5.18
252.532	5.09
252.913	5.19
253.295	4.96
253.676	5.52
254.057	4.96
254.438	4.89
254.819	5.47
255.2	5.35
255.581	5.39
255.962	5.22
256.343	6.25
256.724	4.4
257.105	5.66
257.486	5.8
257.867	5.14
258.247	5.36
258.628	6.07
259.009	5.28
259.389	5.49
259.77	4.94
260.15	5.32
260.531	4.89
260.911	4.72
261.292	4.72
261.672	4.8
262.052	4.62
262.432	4.87
262.813	4.93
263.193	4.94
263.573	5.19
263.953	4.83
264.333	5.31
264.713	5.09
265.093	4.71
265.473	6
265.853	4.79
266.233	5.47
266.612	5.07
266.992	4.58
267.372	4.51
267.752	4.71
268.131	4.89
268.511	5
268.89	5.78
269.27	4.97
269.649	5.29
270.029	5.04
270.408	5.17
270.787	4.57
271.167	5.04
271.546	4.5
271.925	5.4
272.304	4.87
272.683	4.38
273.062	5.34
273.441	4.97
273.82	5.17
274.199	5.12
274.578	4.6
274.957	4.83
275.336	5.02
275.715	5.15
276.093	5.89
276.472	5
276.851	5.14
277.229	4.76
277.608	4.81
277.986	4.84
278.365	4.7
278.743	4.93
279.122	4.91
279.5	5.1
279.878	4.6
280.257	5.36
280.635	4.32
281.013	5.27
281.391	5.02
281.769	4.72
282.147	5.05
282.525	4.6
282.903	4.73
283.281	4.8
283.659	5.14
284.037	5.14
284.415	5.09
284.792	4.62
285.17	4.45
285.548	4.76
285.925	5.05
286.303	4.79
286.68	4.91
287.058	4.83
287.435	4.67
287.813	4.68
288.19	5.29
288.567	4.66
288.945	4.8
289.322	5.1
289.699	5.11
290.076	5.38
290.453	4.93
290.83	5.25
291.207	4.91
291.584	5
291.961	5.26
292.338	5.51
292.715	5.69
293.092	5.33
293.469	5.51
293.845	5.64
294.222	5.52
294.599	5.44
294.975	5.61
295.352	5.14
295.728	5.44
296.105	5.68
296.481	6.12
296.858	5.85
297.234	5.41
297.61	5.97
297.986	5.61
298.363	5.43
298.739	5.67
299.115	5.41
299.491	5.9
299.867	6.18
300.243	5.81
300.619	5.72
300.995	5.84
301.371	6.26
301.746	5.73
302.122	6.27
302.498	6.43
302.874	6.25
303.249	6.62
303.625	6.68
304	6.48
304.376	6.58
304.751	6.9
305.127	6.86
305.502	6.48
305.878	6.74
306.253	6.32
306.628	6.29
307.003	6.63
307.378	6.96
307.754	7.19
308.129	6.5
308.504	6.88
308.879	7.07
309.254	7.39
309.629	7.38
310.003	7.57
310.378	7.69
310.753	7.63
311.128	7.65
311.502	7.18
311.877	7.52
312.252	7.38
312.626	7.73
313.001	7.4
313.375	8.06
313.75	7.71
314.124	8.28
314.498	8.01
314.873	8.21
315.247	8.05
315.621	8.89
315.995	8.39
316.369	8.63
316.743	8.84
317.117	8.32
317.491	8.16
317.865	8.01
318.239	8.91
318.613	9.16
318.987	9.23
319.361	9.41
319.734	9.1
320.108	8.85
320.482	9.14
320.855	9.28
321.229	9.98
321.602	9.39
321.976	9.72
322.349	9.02
322.723	9.47
323.096	9.88
323.469	9.8
323.843	10.15
324.216	9.66
324.589	9.59
324.962	10.16
325.335	9.99
325.708	10
326.081	10.32
326.454	10.44
326.827	10.61
327.2	10.64
327.573	10.47
327.945	10.4
328.318	10.3
328.691	11.03
329.063	10.63
329.436	10.48
329.809	10.92
330.181	11
330.553	11.48
330.926	11.66
331.298	11.09
331.671	11.83
332.043	11.32
332.415	11.33
332.787	11.68
333.159	11.45
333.532	11.51
333.904	11.66
334.276	11.81
334.648	11.92
335.02	11.65
335.391	12.42
335.763	11.7
336.135	11.77
336.507	11.69
336.879	12.09
337.25	12.25
337.622	12.89
337.993	12.36
338.365	12.92
338.736	12.55
339.108	12.12
339.479	12.18
339.851	12.8
340.222	12.91
340.593	12.81
340.964	12.72
341.336	12.72
341.707	13.03
342.078	12.87
342.449	13.29
342.82	13.13
343.191	13.03
343.562	13.07
343.933	13.11
344.303	13.12
344.674	13.09
345.045	13.75
345.416	13.84
345.786	13.37
346.157	13.42
346.527	13.54
346.898	13.34
347.268	13.66
347.639	14.06
348.009	14
348.38	14.23
348.75	14.06
349.12	14.29
349.49	14.2
349.861	14.16
350.231	14.51
350.601	14.03
350.971	14.41
351.341	14.66
351.711	14.01
352.081	14.5
352.45	14.85
352.82	14.84
353.19	14.49
353.56	14.97
353.929	14.95
354.299	15.17
354.669	15
355.038	15.12
355.408	15.21
355.777	14.92
356.147	15.38
356.516	15.29
356.885	15.33
357.254	15.6
357.624	15.3
357.993	15.21
358.362	15.45
358.731	15.33
359.1	16
359.469	15.61
359.838	15.85
360.207	15.61
360.576	16.17
360.945	15.91
361.314	16.07
361.682	15.77
362.051	15.94
362.42	16.16
362.788	15.83
363.157	16.01
363.525	15.92
363.894	16.22
364.262	16.45
364.631	17.15
364.999	16.27
365.367	17
365.735	16.85
366.104	16.47
366.472	17.14
366.84	16.72
367.208	16.91
367.576	17.21
367.944	17.38
368.312	17.07
368.68	17.37
369.048	17.09
369.416	17.27
369.783	17.41
370.151	17.75
370.519	17.46
370.886	17.75
371.254	17.53
371.621	17.92
371.989	17.82
372.356	17.89
372.724	18.14
373.091	18.04
373.458	18.09
373.826	18.01
374.193	18.49
374.56	18.03
374.927	18.27
375.294	18.66
375.661	18.46
376.028	18.65
376.395	18.31
376.762	18.78
377.129	18.9
377.496	18.41
377.863	18.92
378.229	18.93
378.596	19.02
378.963	18.64
379.329	18.59
379.696	18.84
380.062	19.4
380.429	19.35
380.795	18.94
381.161	18.96
381.528	18.95
381.894	19.56
382.26	19.64
382.626	19.54
382.993	19.53
383.359	19.79
383.725	19.98
384.091	19.81
384.457	19.76
384.823	20.04
385.188	20.2
385.554	20.17
385.92	20.54
386.286	20.35
386.651	20.44
387.017	20.35
387.383	20.42
387.748	20.34
388.114	20.79
388.479	20.74
388.845	20.81
389.21	20.75
389.575	20.61
389.94	20.61
390.306	20.83
390.671	20.9
391.036	21.32
391.401	21.14
391.766	21.12
392.131	21.17
392.496	21.23
392.861	21.14
393.226	21.48
393.591	21.35
393.956	21.28
394.32	21.33
394.685	21.63
395.05	21.51
395.414	21.67
395.779	21.56
396.143	21.74
396.508	21.96
396.872	22.12
397.236	21.83
397.601	22.23
397.965	21.85
398.329	22.35
398.694	22.13
399.058	22.39
399.422	22.55
399.786	22.41
400.15	22.37
400.514	22.48
400.878	22.49
401.242	22.77
401.605	22.59
401.969	22.87
402.333	22.79
402.697	23.46
403.06	23.16
403.424	22.97
403.787	23.01
404.151	23.44
404.514	23.37
404.878	23.29
405.241	23.2
405.604	23.19
405.968	23.29
406.331	23.3
406.694	23.31
407.057	23.77
407.42	23.8
407.783	23.68
408.146	23.75
408.509	23.58
408.872	24.09
409.235	23.95
409.598	24.18
409.961	24.05
410.323	24.04
410.686	23.96
411.049	24.19
411.411	24.31
411.774	24.33
412.136	24.23
412.499	24.55
412.861	24.5
413.223	24.37
413.586	24.62
413.948	24.69
414.31	24.96
414.672	24.87
415.035	25.15
415.397	24.93
415.759	24.85
416.121	25.23
416.483	25.15
416.845	25.07
417.206	25.1
417.568	25.31
417.93	25.21
418.292	25.39
418.653	25.13
419.015	25.29
419.377	25.04
419.738	25.12
420.1	25.08
420.461	25.15
420.822	25.23
421.184	25.18
421.545	25.26
421.906	25.28
422.267	25.16
422.629	25.05
422.99	25.31
423.351	25.33
423.712	25.5
424.073	25.69
424.434	25.7
424.795	25.54
425.155	25.64
425.516	25.46
425.877	25.69
426.238	25.74
426.598	25.98
426.959	25.93
427.32	26.22
427.68	26.32
428.041	26.55
428.401	26.55
428.761	26.72
429.122	26.75
429.482	26.84
429.842	26.93
430.202	26.91
430.563	26.91
430.923	26.88
431.283	27.2
431.643	27.31
432.003	27.45
432.363	27.18
432.722	27.22
433.082	27.45
433.442	27.28
433.802	27.61
434.161	27.36
434.521	27.35
434.881	27.43
435.24	27.31
435.6	27.49
435.959	27.61
436.319	27.82
436.678	27.98
437.037	27.98
437.396	27.92
437.756	27.83
438.115	28.05
438.474	28.01
438.833	28.24
439.192	28.29
439.551	28.22
439.91	28.35
440.269	28.21
440.628	28.21
440.987	27.98
441.345	28.25
441.704	28.33
442.063	28.29
442.421	28.19
442.78	28.18
443.138	28.53
443.497	28.52
443.855	28.68
444.214	29.04
444.572	28.86
444.93	29.07
445.288	29.05
445.647	29.06
446.005	29
446.363	28.81
446.721	28.81
447.079	28.88
447.437	28.71
447.795	28.83
448.153	28.69
448.51	28.7
448.868	29.12
449.226	29.31
449.584	29.28
449.941	29.48
450.299	29.55
450.656	29.78
451.014	29.82
451.371	29.85
451.729	29.93
452.086	30.16
452.443	30.12
452.801	30.19
453.158	29.94
453.515	30.41
453.872	30.43
454.229	30.29
454.586	30.43
454.943	30.21
455.3	30.59
455.657	30.59
456.014	30.81
456.371	30.63
456.727	30.75
457.084	30.73
457.441	30.89
457.797	31.11
458.154	30.87
458.51	31.08
458.867	31.08
459.223	31.02
459.58	31
459.936	30.87
460.292	30.92
460.648	30.67
461.005	30.53
461.361	30.62
461.717	30.82
462.073	31.01
462.429	31.4
462.785	31.35
463.141	31.69
463.496	31.89
463.852	31.81
464.208	31.86
464.564	31.94
464.919	31.78
465.275	32.02
465.631	32.18
465.986	32.12
466.342	32.14
466.697	32.27
467.052	32.33
467.408	32.31
467.763	32.06
468.118	32.54
468.473	32.42
468.829	32.71
469.184	32.65
469.539	32.76
469.894	32.74
470.249	32.87
470.603	32.95
470.958	32.73
471.313	32.75
471.668	33
472.023	33.08
472.377	33.15
472.732	32.91
473.086	33.16
473.441	33.16
473.795	33.49
474.15	33.23
474.504	33.54
474.859	33.35
475.213	33.64
475.567	33.59
475.921	33.9
476.275	33.71
476.63	33.91
476.984	33.88
477.338	33.9
477.692	33.81
478.045	33.76
478.399	33.71
478.753	33.78
479.107	34.03
479.461	33.95
479.814	34.01
480.168	34.01
480.521	34.06
480.875	34.11
481.228	34.22
481.582	34.41
481.935	34.25
482.289	34.15
482.642	34.18
482.995	34.08
483.348	33.87
483.701	33.83
484.055	33.77
484.408	33.46
484.761	32.99
485.114	32.9
485.466	33.11
485.819	33.37
486.172	33.64
486.525	33.79
486.878	33.91
487.23	34.15
487.583	34.22
487.936	33.99
488.288	33.69
488.641	33.71
488.993	33.62
489.345	33.81
489.698	34.07
490.05	34.15
490.402	34.35
490.754	34.78
491.107	34.82
491.459	34.9
491.811	35.11
492.163	34.83
492.515	34.53
492.866	34.2
493.218	34.27
493.57	34.55
493.922	34.91
494.274	35.21
494.625	35.41
494.977	35.65
495.328	35.92
495.68	36.17
496.031	36.24
496.383	35.91
496.734	36.19
497.086	36.13
497.437	36.14
497.788	36.13
498.139	35.91
498.49	35.88
498.842	36.2
499.193	36.12
499.544	36.3
499.894	36.21
500.245	36.37
500.596	36.56
500.947	36.61
501.298	36.79
501.648	36.79
501.999	37.05
502.35	37.13
502.7	37.2
503.051	37.29
503.401	37.06
503.752	37.04
504.102	37.34
504.452	37.39
504.803	37.05
505.153	37.16
505.503	37.14
505.853	37.07
506.203	37.28
506.553	37.39
506.903	37.34
507.253	37.52
507.603	37.6
507.953	37.59
508.303	37.68
508.652	37.65
509.002	37.63
509.352	37.67
509.701	37.42
510.051	37.72
510.4	37.54
510.75	37.63
511.099	37.73
511.449	37.73
511.798	37.93
512.147	37.82
512.496	38.1
512.846	37.87
513.195	38.07
513.544	38.07
513.893	37.74
514.242	38.25
514.591	38.17
514.939	38.46
515.288	38.34
515.637	38.41
515.986	38.63
516.334	38.69
516.683	38.69
517.032	38.67
517.38	39.07
517.729	38.72
518.077	38.77
518.426	38.58
518.774	38.5
519.122	38.43
519.47	38.38
519.819	38.1
520.167	38.24
520.515	38.29
520.863	38.47
521.211	38.57
521.559	38.62
521.907	38.94
522.255	39.11
522.602	39.13
522.95	39.27
523.298	39.3
523.645	39.23
523.993	39.4
524.341	39.55
524.688	39.37
525.036	39.45
525.383	39.67
525.73	39.34
526.078	39.42
526.425	39.23
526.772	38.79
527.119	38.81
527.466	38.89
527.814	39.06
528.161	39.17
528.508	39.09
528.854	39.02
529.201	38.86
529.548	38.33
529.895	38.29
530.242	38.58
530.588	38.81
530.935	38.92
531.282	38.99
531.628	39.25
531.975	39.44
532.321	39.85
532.667	39.72
533.014	39.85
533.36	39.76
533.706	39.69
534.052	39.49
534.399	39.05
534.745	39.13
535.091	39.35
535.437	39.54
535.783	39.84
536.129	40.12
536.474	40.25
536.82	40.42
537.166	40.22
537.512	40.2
537.857	40.08
538.203	39.96
538.549	40.2
538.894	40.62
539.239	40.71
539.585	40.85
539.93	41.03
540.276	41.08
540.621	40.97
540.966	41
541.311	41.04
541.656	40.86
542.001	40.66
542.346	40.07
542.691	39.81
543.036	40.1
543.381	40.27
543.726	40.35
544.071	40.73
544.415	40.84
544.76	40.71
545.105	40.99
545.449	41.17
545.794	41.21
546.138	41.4
546.483	41.19
546.827	41.51
547.171	41.5
547.516	41.48
547.86	41.46
548.204	41.54
548.548	41.66
548.892	41.71
549.236	41.81
549.58	42.14
549.924	42.25
550.268	42.51
550.612	42.43
550.956	42.51
551.3	42.49
551.643	42.79
551.987	42.6
552.33	42.55
552.674	42.8
553.017	42.99
553.361	42.86
553.704	42.74
554.048	42.64
554.391	42.79
554.734	42.7
555.077	42.83
555.42	42.95
555.764	43.09
556.107	43.23
556.45	43.17
556.793	43.43
557.135	43.65
557.478	43.3
557.821	43.37
558.164	43.55
558.507	43.39
558.849	43.47
559.192	43.82
559.534	43.65
559.877	43.64
560.219	43.92
560.562	43.83
560.904	43.78
561.246	43.96
561.589	43.97
561.931	43.9
562.273	43.78
562.615	43.8
562.957	43.89
563.299	43.89
563.641	44.11
563.983	44.06
564.325	43.83
564.667	44.18
565.008	44.43
565.35	44.2
565.692	44.22
566.033	44.13
566.375	44.08
566.716	44.07
567.058	43.95
567.399	43.99
567.741	44.03
568.082	43.92
568.423	44.2
568.764	44.16
569.105	44.39
569.447	44.28
569.788	44.69
570.129	44.4
570.47	44.82
570.811	44.51
571.151	44.59
571.492	44.84
571.833	44.67
572.174	44.67
572.514	44.58
572.855	44.69
573.195	44.72
573.536	44.43
573.876	44.51
574.217	44.56
574.557	45.15
574.898	44.67
575.238	44.84
575.578	45
575.918	44.92
576.258	45.09
576.598	44.91
576.938	45.07
577.278	45.01
577.618	45.07
577.958	45.29
578.298	45.27
578.638	45.27
578.977	45.5
579.317	45.75
579.657	45.8
579.996	45.78
580.336	45.62
580.675	45.92
581.014	45.83
581.354	45.93
581.693	46
582.032	45.97
582.372	45.75
582.711	46.16
583.05	46.39
583.389	46.23
583.728	46.49
584.067	46.1
584.406	46.16
584.745	46.24
585.083	46.46
585.422	46.66
585.761	46.75
586.1	46.49
586.438	46.67
586.777	46.65
587.115	46.81
587.454	46.64
587.792	46.61
588.13	46.97
588.469	46.46
588.807	46.81
589.145	46.58
589.483	46.67
589.821	46.76
590.159	46.91
590.497	46.68
590.835	46.74
591.173	46.8
591.511	46.77
591.849	46.88
592.187	47.03
592.524	46.63
592.862	46.95
593.2	46.59
593.537	46.78
593.875	47.36
594.212	47.44
594.55	47.25
594.887	47.25
595.224	46.95
595.561	47.29
595.899	46.84
596.236	47.35
596.573	47.17
596.91	47.22
597.247	47.06
597.584	47.2
597.921	46.9
598.258	46.83
598.594	46.83
598.931	47.06
599.268	47.31
599.604	47.11
599.941	47.15
600.277	47.74
600.614	47.52
600.95	47.79
601.287	47.87
601.623	48.24
601.959	47.73
602.296	47.78
602.632	47.67
602.968	48.34
603.304	47.59
603.64	47.79
603.976	47.56
604.312	47.62
604.648	47.36
604.984	47.39
605.319	47.67
605.655	47.73
605.991	47.53
606.326	47.49
606.662	47.7
606.998	47.68
607.333	48.01
607.668	48.19
608.004	48.14
608.339	48.4
608.674	48.33
609.01	48.29
609.345	48.5
609.68	48.4
610.015	48.22
610.35	48.3
610.685	48.25
611.02	48.02
611.355	48.28
611.689	48.31
612.024	48.88
612.359	48.55
612.694	48.8
613.028	49.19
613.363	48.74
613.697	48.8
614.032	49.15
614.366	49.21
614.7	48.97
615.035	49.35
615.369	49.38
615.703	49.25
616.037	49.52
616.371	49.31
616.705	49.75
617.039	49.87
617.373	49.65
617.707	49.36
618.041	49.01
618.375	49.4
618.709	49.35
619.042	49.84
619.376	49.75
619.71	49.51
620.043	49.89
620.377	49.88
620.71	49.48
621.043	49.21
621.377	49.87
621.71	49.86
622.043	49.77
622.376	49.85
622.709	50.13
623.043	50.27
623.376	50.05
623.709	50.24
624.041	49.88
624.374	50.09
624.707	50.27
625.04	50.19
625.373	50.15
625.705	50.03
626.038	50.24
626.37	50.52
626.703	50.15
627.035	50.16
627.368	50.49
627.7	49.93
628.032	49.77
628.365	50.05
628.697	49.71
629.029	50.21
629.361	50.04
629.693	50.25
630.025	50.37
630.357	50.57
630.689	50.56
631.021	50.61
631.353	50.56
631.684	50.47
632.016	50.46
632.348	50.94
632.679	50.77
633.011	50.93
633.342	50.49
633.674	50.37
634.005	50.7
634.336	50.6
634.668	50.62
634.999	50.98
635.33	50.74
635.661	50.93
635.992	50.51
636.323	50.61
636.654	51.27
636.985	50.87
637.316	51.01
637.647	51.33
637.977	51.15
638.308	50.6
638.639	51.2
638.969	51.51
639.3	51.03
639.63	51.32
639.961	51.24
640.291	51.3
640.622	51.16
640.952	51.32
641.282	51.14
641.612	51.52
641.943	51.19
642.273	51.52
642.603	51.44
642.933	51.74
643.263	51.48
643.592	51.65
643.922	51.41
644.252	51.98
644.582	51.9
644.911	52.15
645.241	52.22
645.571	52.3
645.9	51.94
646.23	52.26
646.559	52
646.888	51.61
647.218	52.26
647.547	52.14
647.876	52.12
648.205	51.72
648.534	51.59
648.863	52.25
649.192	52.18
649.521	51.67
649.85	52.34
650.179	52.13
650.508	51.81
650.837	52.16
651.165	52.17
651.494	52.33
651.822	51.96
652.151	52.31
652.479	52.3
652.808	51.74
653.136	52.01
653.465	52.12
653.793	52.22
654.121	52.35
654.449	52.47
654.777	52.44
655.105	52.27
655.433	52.7
655.761	51.9
656.089	52.74
656.417	52.25
656.745	53.15
657.073	52.78
657.4	52.25
657.728	52.05
658.056	52.54
658.383	52.61
658.711	52.59
659.038	52.51
659.365	53.01
659.693	52.29
660.02	52.28
660.347	52.56
660.674	52.75
661.001	52.32
661.329	52.61
661.656	52.44
661.982	52.54
662.309	52.61
662.636	52.57
662.963	53.31
663.29	53.57
663.616	53.17
663.943	53.25
664.27	53.16
664.596	53.29
664.923	53.5
665.249	53.42
665.576	52.87
665.902	53
666.228	53.8
666.554	53.24
666.881	53.13
667.207	53.35
667.533	53.32
667.859	53.35
668.185	53.43
668.511	52.94
668.837	52.56
669.162	53.23
669.488	53.16
669.814	53.01
