Data from 0052_chest_Reflection__1__63.txt Node

Date: Fri Dec 16 14:24:25 CST 2022
User: ToomeyLab
Spectrometer: FLMS14357
Trigger mode: 0
Integration Time (sec): 1.000000E-2
Scans to average: 100
Electric dark correction enabled: true
Nonlinearity correction enabled: false
Boxcar width: 0
XAxis mode: Wavelengths
Number of Pixels in Spectrum: 2048
>>>>>Begin Spectral Data<<<<<
189.047	586.49
189.435	586.49
189.823	586.49
190.211	42.11
190.599	105.03
190.987	-180.24
191.375	-53.3
191.763	-30.67
192.151	54.56
192.538	-98.73
192.926	110.36
193.314	63.59
193.702	-680.47
194.089	111.67
194.477	-187.39
194.864	29.33
195.252	-181.91
195.639	76.34
196.027	-47.96
196.414	-46.85
196.801	-56.84
197.189	-368.94
197.576	232.2
197.963	1035.54
198.351	-19.86
198.738	30.43
199.125	15.52
199.512	0.18
199.899	-28.27
200.286	24.01
200.673	24.5
201.06	26.61
201.447	48.12
201.833	3.12
202.22	55.84
202.607	8.8
202.994	23.61
203.38	21.43
203.767	1.5
204.154	-6.81
204.54	7.75
204.927	53.87
205.313	27.72
205.699	3.02
206.086	-16.38
206.472	-14.38
206.858	-0.87
207.245	-20.56
207.631	-8
208.017	44.07
208.403	6.99
208.789	3.91
209.175	50.53
209.561	27.72
209.947	23.69
210.333	12.22
210.719	-9.23
211.105	-45.78
211.491	-7.78
211.876	7.62
212.262	4.86
212.648	-21.84
213.034	4.48
213.419	17.57
213.805	-13.02
214.19	23.29
214.576	-9.31
214.961	23.26
215.346	9.21
215.732	2.12
216.117	15.12
216.502	-15.48
216.888	-8.47
217.273	40.1
217.658	-17.52
218.043	2.25
218.428	16.4
218.813	4.45
219.198	8.02
219.583	-4.29
219.968	-12.25
220.353	27.63
220.738	-0.05
221.122	5.16
221.507	15.61
221.892	9
222.276	-1.7
222.661	0.49
223.046	4.1
223.43	1.08
223.815	9.98
224.199	7.35
224.583	-0.65
224.968	3.47
225.352	-1.53
225.736	4.25
226.121	4.26
226.505	4.92
226.889	8.63
227.273	2.88
227.657	4.72
228.041	7.03
228.425	8.86
228.809	6.47
229.193	3.87
229.577	5.09
229.961	5.55
230.344	4.75
230.728	4.94
231.112	4.09
231.495	4.2
231.879	4.67
232.263	4.66
232.646	4.19
233.03	5.09
233.413	5.2
233.797	9.36
234.18	4.01
234.563	5.59
234.946	3.57
235.33	5.1
235.713	3.77
236.096	4.59
236.479	6.01
236.862	5.11
237.245	7.04
237.628	6.84
238.011	4.93
238.394	5.99
238.777	5.53
239.16	1.79
239.543	5.32
239.925	6.07
240.308	5.82
240.691	6.17
241.073	4.38
241.456	4.21
241.838	4.82
242.221	5.47
242.603	4.98
242.986	5.37
243.368	4.53
243.75	4.16
244.133	4.76
244.515	4.67
244.897	4.75
245.279	4.63
245.661	4.14
246.043	4.87
246.425	3.96
246.807	4.99
247.189	4.49
247.571	4.71
247.953	4.85
248.335	4.8
248.717	4.64
249.098	4.61
249.48	4.54
249.862	4.83
250.243	4.72
250.625	4.97
251.006	4.91
251.388	4.94
251.769	4.5
252.151	4.94
252.532	5.18
252.913	4.8
253.295	4.43
253.676	4.86
254.057	4.32
254.438	4.29
254.819	4.29
255.2	3.89
255.581	3.54
255.962	4.7
256.343	5.11
256.724	4.32
257.105	4.12
257.486	4.26
257.867	3.92
258.247	5.02
258.628	5.42
259.009	4.47
259.389	5.11
259.77	4.86
260.15	5.16
260.531	4.81
260.911	4.64
261.292	4.39
261.672	4.44
262.052	4.45
262.432	4.33
262.813	4.73
263.193	3.9
263.573	4.25
263.953	4.45
264.333	4.69
264.713	4.05
265.093	3.73
265.473	5.49
265.853	4.37
266.233	4.29
266.612	4.59
266.992	3.75
267.372	4.85
267.752	4.02
268.131	4.34
268.511	4.7
268.89	4.76
269.27	5.19
269.649	4.67
270.029	4.52
270.408	4.64
270.787	4.2
271.167	4.66
271.546	4.07
271.925	4.52
272.304	4.75
272.683	4.42
273.062	4.57
273.441	4.35
273.82	4.3
274.199	4.68
274.578	3.97
274.957	4.16
275.336	4.19
275.715	4.32
276.093	5.05
276.472	4.1
276.851	4.6
277.229	4.65
277.608	4.41
277.986	4.36
278.365	4.05
278.743	4.54
279.122	3.88
279.5	3.79
279.878	3.26
280.257	4.21
280.635	3.91
281.013	4.6
281.391	4.22
281.769	4.35
282.147	4.59
282.525	3.98
282.903	4.33
283.281	4.19
283.659	4.36
284.037	4.67
284.415	4.38
284.792	4.54
285.17	4.1
285.548	4.09
285.925	3.95
286.303	4.38
286.68	4.19
287.058	3.98
287.435	4.03
287.813	4.19
288.19	4.51
288.567	4.04
288.945	4.1
289.322	4.13
289.699	4.17
290.076	4.72
290.453	4.05
290.83	4.2
291.207	4.04
291.584	3.89
291.961	4.69
292.338	4.15
292.715	4.23
293.092	4.19
293.469	4.16
293.845	4.81
294.222	4.37
294.599	4.72
294.975	4.25
295.352	4.05
295.728	4.61
296.105	4.27
296.481	4.36
296.858	4.47
297.234	4.17
297.61	4.54
297.986	3.96
298.363	3.92
298.739	4.48
299.115	3.98
299.491	4.29
299.867	4.29
300.243	4.48
300.619	4.04
300.995	4.68
301.371	4.59
301.746	4.01
302.122	4.61
302.498	3.87
302.874	4.46
303.249	4.55
303.625	4.24
304	3.8
304.376	4.3
304.751	4.45
305.127	4.35
305.502	4.42
305.878	4.02
306.253	4.19
306.628	4.32
307.003	4.5
307.378	4.4
307.754	4.64
308.129	4.56
308.504	4.23
308.879	4.71
309.254	4.87
309.629	4.07
310.003	5.04
310.378	4.79
310.753	4.78
311.128	4.48
311.502	4.3
311.877	4.29
312.252	4.04
312.626	4.2
313.001	4.32
313.375	4.17
313.75	4.23
314.124	4.86
314.498	3.74
314.873	4.44
315.247	3.79
315.621	4.72
315.995	4.28
316.369	4.39
316.743	4.48
317.117	4.27
317.491	4.11
317.865	4.31
318.239	5.09
318.613	4.18
318.987	4.53
319.361	4.1
319.734	4.22
320.108	4.26
320.482	4.93
320.855	4.52
321.229	4.97
321.602	4.13
321.976	4.6
322.349	4.22
322.723	4.12
323.096	4.52
323.469	3.81
323.843	4.53
324.216	4.41
324.589	4.55
324.962	4.45
325.335	4.44
325.708	4.99
326.081	4.93
326.454	4.76
326.827	4.15
327.2	5
327.573	4.74
327.945	4.25
328.318	4.64
328.691	4.66
329.063	4.54
329.436	4.7
329.809	3.88
330.181	4.19
330.553	5.04
330.926	4.65
331.298	3.93
331.671	4.65
332.043	4.73
332.415	4.23
332.787	4.65
333.159	4.6
333.532	4.28
333.904	4.68
334.276	4.56
334.648	4.45
335.02	4.41
335.391	4.67
335.763	4.3
336.135	4.38
336.507	4.82
336.879	4.67
337.25	4.85
337.622	4.55
337.993	4.42
338.365	5.2
338.736	4.74
339.108	4
339.479	4.13
339.851	4.93
340.222	4.15
340.593	4.38
340.964	4.33
341.336	4.42
341.707	4.6
342.078	3.82
342.449	4.58
342.82	4.36
343.191	4.37
343.562	4.33
343.933	4.45
344.303	4.53
344.674	4.27
345.045	4.74
345.416	4.34
345.786	4.16
346.157	4.62
346.527	4.51
346.898	4.38
347.268	4.61
347.639	4.49
348.009	4.9
348.38	4.58
348.75	4.01
349.12	4.62
349.49	4.72
349.861	4.69
350.231	4.8
350.601	4.56
350.971	4.62
351.341	4.79
351.711	4.37
352.081	4.59
352.45	4.74
352.82	4.51
353.19	4.33
353.56	4.51
353.929	4.84
354.299	4.32
354.669	4.78
355.038	4.51
355.408	4.69
355.777	4.53
356.147	4.81
356.516	4.53
356.885	4.43
357.254	4.74
357.624	4.59
357.993	4.65
358.362	4.63
358.731	4.42
359.1	4.77
359.469	4.63
359.838	4.3
360.207	4.52
360.576	4.34
360.945	4.35
361.314	4.67
361.682	4.32
362.051	4.23
362.42	4.86
362.788	4.71
363.157	4.35
363.525	4.36
363.894	4.31
364.262	4.41
364.631	5.11
364.999	4.4
365.367	4.75
365.735	4.26
366.104	4.18
366.472	4.56
366.84	4.54
367.208	4.15
367.576	4.69
367.944	4.93
368.312	4.15
368.68	4.84
369.048	4.71
369.416	4.51
369.783	4.54
370.151	4.9
370.519	4.41
370.886	4.57
371.254	4.36
371.621	4.98
371.989	4.56
372.356	4.66
372.724	4.79
373.091	4.54
373.458	4.35
373.826	4.58
374.193	4.95
374.56	4.27
374.927	4.22
375.294	4.95
375.661	4.79
376.028	4.84
376.395	4.73
376.762	4.81
377.129	4.7
377.496	4.72
377.863	4.81
378.229	4.63
378.596	4.81
378.963	4.69
379.329	4.86
379.696	4.58
380.062	4.93
380.429	4.74
380.795	4.37
381.161	4.6
381.528	4.25
381.894	4.91
382.26	4.4
382.626	4.52
382.993	4.38
383.359	4.54
383.725	4.8
384.091	4.7
384.457	4.68
384.823	4.73
385.188	5.14
385.554	4.71
385.92	4.92
386.286	4.98
386.651	4.55
387.017	4.58
387.383	4.64
387.748	4.41
388.114	4.59
388.479	4.57
388.845	4.88
389.21	4.67
389.575	4.96
389.94	4.7
390.306	4.71
390.671	4.79
391.036	4.86
391.401	5.03
391.766	4.59
392.131	4.68
392.496	4.77
392.861	4.76
393.226	4.74
393.591	4.82
393.956	4.72
394.32	4.77
394.685	4.71
395.05	4.55
395.414	4.76
395.779	4.78
396.143	4.97
396.508	4.87
396.872	4.78
397.236	4.44
397.601	4.82
397.965	4.51
398.329	4.88
398.694	4.83
399.058	4.67
399.422	4.82
399.786	4.78
400.15	4.64
400.514	4.73
400.878	4.74
401.242	4.99
401.605	4.66
401.969	4.75
402.333	4.88
402.697	5.04
403.06	4.89
403.424	4.96
403.787	4.97
404.151	4.58
404.514	4.83
404.878	4.96
405.241	5
405.604	5.03
405.968	4.94
406.331	4.95
406.694	4.98
407.057	5.21
407.42	4.98
407.783	4.81
408.146	4.79
408.509	4.79
408.872	4.56
409.235	5.13
409.598	5.04
409.961	4.93
410.323	4.93
410.686	5.04
411.049	4.69
411.411	4.94
411.774	5.13
412.136	5.1
412.499	4.82
412.861	4.8
413.223	4.94
413.586	4.83
413.948	4.87
414.31	4.98
414.672	5.04
415.035	5
415.397	5.2
415.759	4.94
416.121	4.97
416.483	5.07
416.845	4.91
417.206	4.92
417.568	4.99
417.93	4.99
418.292	5.04
418.653	5.08
419.015	4.95
419.377	5
419.738	4.88
420.1	4.91
420.461	4.85
420.822	4.89
421.184	4.93
421.545	4.92
421.906	4.9
422.267	4.83
422.629	4.89
422.99	4.9
423.351	4.82
423.712	4.9
424.073	4.92
424.434	4.85
424.795	4.85
425.155	4.89
425.516	4.78
425.877	4.84
426.238	4.81
426.598	4.96
426.959	4.87
427.32	4.89
427.68	4.95
428.041	4.97
428.401	4.95
428.761	4.9
429.122	4.86
429.482	5.03
429.842	5.07
430.202	5.02
430.563	5.11
430.923	5.04
431.283	4.96
431.643	5.01
432.003	5.18
432.363	5.02
432.722	5.13
433.082	5.15
433.442	5.09
433.802	4.88
434.161	4.95
434.521	5.08
434.881	5.1
435.24	5.05
435.6	5.09
435.959	5.17
436.319	5.12
436.678	5.18
437.037	5.1
437.396	5.15
437.756	5.09
438.115	5.28
438.474	5.01
438.833	5.2
439.192	5.15
439.551	5.12
439.91	5.14
440.269	5.32
440.628	5.14
440.987	5.01
441.345	5.11
441.704	5.09
442.063	5.12
442.421	4.99
442.78	4.98
443.138	5.17
443.497	5.03
443.855	5.13
444.214	5.13
444.572	5.21
444.93	5.11
445.288	5.21
445.647	5.32
446.005	5
446.363	5.12
446.721	5.03
447.079	5.09
447.437	5.09
447.795	5.07
448.153	5.08
448.51	5.18
448.868	5.12
449.226	5.09
449.584	5.18
449.941	5.21
450.299	5.2
450.656	5.19
451.014	5.12
451.371	5.29
451.729	5.2
452.086	5.18
452.443	5.29
452.801	5.38
453.158	5.21
453.515	5.22
453.872	5.29
454.229	5.27
454.586	5.25
454.943	5.26
455.3	5.39
455.657	5.15
456.014	5.18
456.371	5.31
456.727	5.23
457.084	5.33
457.441	5.19
457.797	5.28
458.154	5.32
458.51	5.36
458.867	5.3
459.223	5.33
459.58	5.18
459.936	5.2
460.292	5.29
460.648	5.33
461.005	5.15
461.361	5.25
461.717	5.28
462.073	5.21
462.429	5.29
462.785	5.4
463.141	5.36
463.496	5.24
463.852	5.42
464.208	5.48
464.564	5.25
464.919	5.18
465.275	5.31
465.631	5.38
465.986	5.36
466.342	5.45
466.697	5.38
467.052	5.4
467.408	5.35
467.763	5.19
468.118	5.38
468.473	5.55
468.829	5.39
469.184	5.44
469.539	5.28
469.894	5.46
470.249	5.46
470.603	5.45
470.958	5.52
471.313	5.42
471.668	5.39
472.023	5.63
472.377	5.42
472.732	5.48
473.086	5.5
473.441	5.62
473.795	5.55
474.15	5.36
474.504	5.42
474.859	5.49
475.213	5.53
475.567	5.59
475.921	5.7
476.275	5.53
476.63	5.54
476.984	5.59
477.338	5.77
477.692	5.4
478.045	5.47
478.399	5.64
478.753	5.39
479.107	5.45
479.461	5.48
479.814	5.49
480.168	5.53
480.521	5.5
480.875	5.6
481.228	5.68
481.582	5.51
481.935	5.46
482.289	5.53
482.642	5.58
482.995	5.62
483.348	5.51
483.701	5.61
484.055	5.5
484.408	5.46
484.761	5.32
485.114	5.31
485.466	5.29
485.819	5.26
486.172	5.31
486.525	5.36
486.878	5.39
487.23	5.44
487.583	5.49
487.936	5.53
488.288	5.48
488.641	5.46
488.993	5.4
489.345	5.39
489.698	5.44
490.05	5.38
490.402	5.52
490.754	5.59
491.107	5.54
491.459	5.62
491.811	5.73
492.163	5.64
492.515	5.62
492.866	5.52
493.218	5.47
493.57	5.46
493.922	5.57
494.274	5.56
494.625	5.62
494.977	5.65
495.328	5.76
495.68	5.82
496.031	5.71
496.383	5.81
496.734	5.83
497.086	5.59
497.437	5.92
497.788	5.77
498.139	5.78
498.49	5.86
498.842	5.78
499.193	5.76
499.544	5.79
499.894	5.83
500.245	5.82
500.596	5.81
500.947	5.8
501.298	5.83
501.648	5.83
501.999	6.03
502.35	6.02
502.7	5.99
503.051	6.06
503.401	5.96
503.752	5.83
504.102	5.97
504.452	5.92
504.803	5.95
505.153	6.05
505.503	5.84
505.853	5.93
506.203	5.97
506.553	5.91
506.903	5.95
507.253	5.96
507.603	5.99
507.953	6.14
508.303	6.03
508.652	6.16
509.002	6.04
509.352	5.94
509.701	6.03
510.051	6.05
510.4	6.03
510.75	6.02
511.099	6.01
511.449	6
511.798	6.21
512.147	6.12
512.496	5.96
512.846	6.06
513.195	6.12
513.544	6.09
513.893	6.08
514.242	6.08
514.591	6.16
514.939	6.1
515.288	6.2
515.637	6.22
515.986	6.18
516.334	6.35
516.683	6.26
517.032	6.26
517.38	6.18
517.729	6.24
518.077	6.31
518.426	6.07
518.774	6.2
519.122	6.22
519.47	6.2
519.819	6.11
520.167	6.19
520.515	6.15
520.863	6.15
521.211	6.22
521.559	6.21
521.907	6.25
522.255	6.42
522.602	6.39
522.95	6.27
523.298	6.35
523.645	6.37
523.993	6.57
524.341	6.43
524.688	6.41
525.036	6.59
525.383	6.59
525.73	6.35
526.078	6.5
526.425	6.44
526.772	6.31
527.119	6.37
527.466	6.46
527.814	6.39
528.161	6.5
528.508	6.46
528.854	6.39
529.201	6.37
529.548	6.32
529.895	6.27
530.242	6.29
530.588	6.36
530.935	6.28
531.282	6.39
531.628	6.46
531.975	6.47
532.321	6.49
532.667	6.57
533.014	6.62
533.36	6.67
533.706	6.65
534.052	6.56
534.399	6.57
534.745	6.53
535.091	6.56
535.437	6.56
535.783	6.65
536.129	6.56
536.474	6.78
536.82	6.75
537.166	6.83
537.512	6.8
537.857	6.72
538.203	6.75
538.549	6.81
538.894	6.83
539.239	6.94
539.585	6.9
539.93	6.86
540.276	6.88
540.621	6.83
540.966	6.96
541.311	6.99
541.656	6.99
542.001	7
542.346	6.88
542.691	6.81
543.036	6.82
543.381	6.85
543.726	6.95
544.071	6.96
544.415	7
544.76	6.96
545.105	7.04
545.449	7.01
545.794	7.07
546.138	7.19
546.483	7.2
546.827	7.23
547.171	7.17
547.516	7.23
547.86	7.15
548.204	7.23
548.548	7.36
548.892	7.2
549.236	7.37
549.58	7.36
549.924	7.45
550.268	7.51
550.612	7.55
550.956	7.26
551.3	7.38
551.643	7.58
551.987	7.46
552.33	7.51
552.674	7.7
553.017	7.63
553.361	7.63
553.704	7.57
554.048	7.71
554.391	7.54
554.734	7.58
555.077	7.58
555.42	7.66
555.764	7.71
556.107	7.74
556.45	7.54
556.793	7.82
557.135	7.93
557.478	8
557.821	7.93
558.164	7.99
558.507	7.66
558.849	8.02
559.192	8.02
559.534	7.92
559.877	8.13
560.219	8.32
560.562	8.15
560.904	8.05
561.246	8.14
561.589	8.17
561.931	8.26
562.273	8.32
562.615	8.27
562.957	8.25
563.299	8.18
563.641	8.24
563.983	8.3
564.325	8.25
564.667	8.34
565.008	8.3
565.35	8.54
565.692	8.55
566.033	8.54
566.375	8.27
566.716	8.51
567.058	8.41
567.399	8.46
567.741	8.53
568.082	8.54
568.423	8.7
568.764	8.43
569.105	8.68
569.447	8.65
569.788	8.68
570.129	8.66
570.47	8.72
570.811	8.88
571.151	8.74
571.492	8.84
571.833	8.75
572.174	8.76
572.514	8.66
572.855	9
573.195	8.82
573.536	8.84
573.876	8.83
574.217	8.9
574.557	9
574.898	9.1
575.238	9.15
575.578	9.14
575.918	8.94
576.258	9
576.598	9.1
576.938	9.21
577.278	8.97
577.618	9
577.958	9.39
578.298	9.25
578.638	9.21
578.977	9.32
579.317	9.44
579.657	9.45
579.996	9.33
580.336	9.53
580.675	9.73
581.014	9.66
581.354	9.59
581.693	9.53
582.032	9.49
582.372	9.76
582.711	9.55
583.05	9.97
583.389	9.67
583.728	9.85
584.067	9.95
584.406	9.93
584.745	9.92
585.083	10.27
585.422	10.12
585.761	10.07
586.1	10.15
586.438	10.14
586.777	10.07
587.115	10.22
587.454	10.19
587.792	9.94
588.13	10.35
588.469	10.2
588.807	10.29
589.145	10.24
589.483	10.32
589.821	10.5
590.159	10.33
590.497	10.5
590.835	10.47
591.173	10.73
591.511	10.71
591.849	10.66
592.187	10.54
592.524	10.43
592.862	10.56
593.2	10.44
593.537	10.51
593.875	10.6
594.212	10.8
594.55	10.77
594.887	10.98
595.224	10.81
595.561	10.73
595.899	10.55
596.236	11.18
596.573	10.82
596.91	11.06
597.247	11.1
597.584	10.87
597.921	10.98
598.258	11.11
598.594	11.03
598.931	11.08
599.268	11.04
599.604	11.16
599.941	11.21
600.277	11.13
600.614	11.43
600.95	11.39
601.287	11.33
601.623	11.32
601.959	11.4
602.296	11.66
602.632	11.63
602.968	11.25
603.304	11.45
603.64	11.67
603.976	11.73
604.312	11.5
604.648	11.67
604.984	11.83
605.319	11.78
605.655	11.71
605.991	11.66
606.326	11.72
606.662	11.73
606.998	11.67
607.333	12
607.668	11.93
608.004	12.04
608.339	12.18
608.674	12.12
609.01	11.96
609.345	12.15
609.68	11.93
610.015	12.05
610.35	11.99
610.685	12.17
611.02	12.27
611.355	12.43
611.689	12.29
612.024	12.45
612.359	12.68
612.694	12.65
613.028	12.73
613.363	12.23
613.697	12.6
614.032	12.99
614.366	12.52
614.7	13.03
615.035	12.44
615.369	12.67
615.703	13.37
616.037	12.84
616.371	12.97
616.705	12.76
617.039	13.07
617.373	12.98
617.707	12.98
618.041	13.35
618.375	13.34
618.709	13.36
619.042	13.48
619.376	13.07
619.71	13.43
620.043	13.29
620.377	13.52
620.71	13.22
621.043	12.89
621.377	13.36
621.71	13.45
622.043	13.62
622.376	13.23
622.709	13.98
623.043	13.71
623.376	14.04
623.709	13.79
624.041	13.67
624.374	13.78
624.707	13.79
625.04	14.13
625.373	14.06
625.705	14.3
626.038	14.21
626.37	13.93
626.703	13.83
627.035	14.3
627.368	14.27
627.7	13.92
628.032	14.14
628.365	14.1
628.697	13.95
629.029	14.51
629.361	14.31
629.693	14.49
630.025	14.46
630.357	14.6
630.689	14.66
631.021	14.56
631.353	14.71
631.684	14.8
632.016	14.34
632.348	14.66
632.679	14.71
633.011	14.78
633.342	15.13
633.674	14.4
634.005	14.74
634.336	14.77
634.668	14.77
634.999	15.15
635.33	14.92
635.661	14.82
635.992	14.93
636.323	15.1
636.654	14.97
636.985	15.05
637.316	15.23
637.647	15.38
637.977	15.05
638.308	15.34
638.639	15.3
638.969	15.23
639.3	15.61
639.63	15.45
639.961	15.31
640.291	16.26
640.622	15.54
640.952	15.61
641.282	15.45
641.612	15.67
641.943	15.97
642.273	15.5
642.603	16.01
642.933	15.72
643.263	16.04
643.592	15.88
643.922	16.48
644.252	16.04
644.582	16.38
644.911	15.85
645.241	16.21
645.571	15.45
645.9	16.91
646.23	16.25
646.559	16.43
646.888	16.29
647.218	16.4
647.547	16.51
647.876	16.68
648.205	16.37
648.534	16.41
648.863	17.15
649.192	16.38
649.521	16.53
649.85	16.88
650.179	16.53
650.508	16.7
650.837	17.17
651.165	16.57
651.494	16.88
651.822	16.72
652.151	17.2
652.479	17.16
652.808	16.91
653.136	16.72
653.465	17.03
653.793	17.48
654.121	17.05
654.449	17.33
654.777	17.17
655.105	17.39
655.433	17.31
655.761	16.97
656.089	17.56
656.417	17.38
656.745	18.02
657.073	17.95
657.4	18.04
657.728	17.57
658.056	17.34
658.383	18.1
658.711	17.6
659.038	17.73
659.365	17.62
659.693	18.13
660.02	17.94
660.347	17.83
660.674	18.01
661.001	17.62
661.329	17.93
661.656	17.93
661.982	18.55
662.309	18.05
662.636	18
662.963	18.7
663.29	18.27
663.616	18.14
663.943	18.49
664.27	18.12
664.596	18.81
664.923	19.29
665.249	18.83
665.576	18.47
665.902	18.53
666.228	18.35
666.554	18.09
666.881	18.88
667.207	18.41
667.533	18.93
667.859	18.41
668.185	19.31
668.511	18.38
668.837	18
669.162	18.88
669.488	19.11
669.814	19.35
670.139	19.35
670.465	19.35
670.791	19.52
671.116	19.45
671.442	19.45
671.767	19.75
672.092	19.52
672.418	19.7
672.743	19.56
673.068	19.41
673.393	19.73
673.718	20.38
674.043	19.33
674.368	20.07
674.693	19.65
675.018	19.9
675.343	19.36
675.667	19.78
675.992	19.33
676.317	20.43
676.641	20.37
676.966	20.58
677.29	19.67
677.615	20.17
677.939	19.84
678.264	20.8
678.588	20.23
678.912	19.79
679.236	20.79
679.56	20.1
679.885	20.59
680.209	20.17
680.532	20.25
680.856	20.88
681.18	20.44
681.504	20.42
681.828	20.65
682.152	20.34
682.475	20.43
682.799	20.97
683.122	20.86
683.446	20.44
683.769	20.83
684.093	20.15
684.416	20.32
684.739	21.32
685.062	21.62
685.386	20.9
685.709	20.64
686.032	21.6
686.355	21.05
