Data from 0052_forehead_Reflection__1__74.txt Node

Date: Fri Dec 16 14:27:35 CST 2022
User: ToomeyLab
Spectrometer: FLMS14357
Trigger mode: 0
Integration Time (sec): 1.000000E-2
Scans to average: 100
Electric dark correction enabled: true
Nonlinearity correction enabled: false
Boxcar width: 0
XAxis mode: Wavelengths
Number of Pixels in Spectrum: 2048
>>>>>Begin Spectral Data<<<<<
189.047	420.41
189.435	420.41
189.823	420.41
190.211	-0.21
190.599	-18.61
190.987	-375.08
191.375	-215.31
191.763	48.69
192.151	-59.49
192.538	-217.81
192.926	13.95
193.314	151.16
193.702	-926.12
194.089	8.04
194.477	-160.54
194.864	-116.01
195.252	-25.45
195.639	198.55
196.027	26.11
196.414	135.03
196.801	95.59
197.189	2673.19
197.576	-332.02
197.963	61.37
198.351	35.84
198.738	21.71
199.125	20.83
199.512	6.41
199.899	-32.53
200.286	0.99
200.673	37.73
201.06	64.81
201.447	8.92
201.833	35.83
202.22	18.22
202.607	1.75
202.994	8.41
203.38	-1.55
203.767	39.78
204.154	-27.47
204.54	7.31
204.927	27.18
205.313	16.52
205.699	55.53
206.086	3.4
206.472	25.75
206.858	29.86
207.245	4.96
207.631	11.23
208.017	20.92
208.403	2.02
208.789	12.77
209.175	50.09
209.561	-10.06
209.947	-0.18
210.333	5.48
210.719	25.22
211.105	10.82
211.491	22.33
211.876	-2
212.262	-3.67
212.648	17.61
213.034	27.13
213.419	10.31
213.805	28.46
214.19	10.38
214.576	21.82
214.961	5.33
215.346	27.76
215.732	0.38
216.117	28.34
216.502	9.85
216.888	-24.38
217.273	8.75
217.658	18.47
218.043	7.38
218.428	14.59
218.813	15.15
219.198	17.75
219.583	16.61
219.968	-6.8
220.353	5.28
220.738	-1.32
221.122	-1.12
221.507	19.64
221.892	11.73
222.276	14.69
222.661	-5.66
223.046	6.84
223.43	-2.45
223.815	12.58
224.199	5.08
224.583	-0.73
224.968	11.16
225.352	5.14
225.736	6.38
226.121	3.4
226.505	-2.8
226.889	4.86
227.273	3.63
227.657	1.72
228.041	6.17
228.425	6.87
228.809	3.03
229.193	-0.66
229.577	2.11
229.961	1.83
230.344	2.07
230.728	1.63
231.112	1.84
231.495	1.09
231.879	2.6
232.263	3.08
232.646	2.05
233.03	0.73
233.413	2.36
233.797	4.51
234.18	0.97
234.563	0.42
234.946	1.25
235.33	3.1
235.713	2.04
236.096	2.21
236.479	2.3
236.862	3.17
237.245	1.95
237.628	2.79
238.011	3.14
238.394	4.23
238.777	1.66
239.16	1.62
239.543	1.21
239.925	3.72
240.308	2.73
240.691	1.68
241.073	3
241.456	2.14
241.838	1.94
242.221	1.92
242.603	1.5
242.986	2.67
243.368	2.37
243.75	2.13
244.133	2.25
244.515	2.1
244.897	1.96
245.279	2.58
245.661	2.02
246.043	2.91
246.425	1.9
246.807	2.25
247.189	1.84
247.571	2.71
247.953	2.02
248.335	2.32
248.717	2.27
249.098	2.59
249.48	2.01
249.862	2.12
250.243	1.99
250.625	2.54
251.006	2.13
251.388	2.6
251.769	2.96
252.151	2.82
252.532	1.89
252.913	2.22
253.295	2.18
253.676	2.53
254.057	2.13
254.438	1.78
254.819	3.24
255.2	3.06
255.581	2.62
255.962	2.36
256.343	3.25
256.724	2.95
257.105	2.93
257.486	2.34
257.867	0.83
258.247	3.21
258.628	3.74
259.009	2.67
259.389	2.39
259.77	2.61
260.15	3.52
260.531	2.17
260.911	2.43
261.292	2.22
261.672	2.14
262.052	2.28
262.432	2.34
262.813	2.17
263.193	1.82
263.573	2.97
263.953	2.38
264.333	2.44
264.713	2.31
265.093	1.93
265.473	3.19
265.853	1.96
266.233	2.15
266.612	2.64
266.992	2.28
267.372	2.51
267.752	1.95
268.131	2.3
268.511	2.52
268.89	2.77
269.27	2.58
269.649	2.32
270.029	2.49
270.408	2.43
270.787	2.11
271.167	2.55
271.546	1.29
271.925	2.75
272.304	2.58
272.683	1.94
273.062	2.62
273.441	2.07
273.82	2.35
274.199	2.47
274.578	1.62
274.957	2.24
275.336	2.18
275.715	2.53
276.093	3.05
276.472	2.95
276.851	2.4
277.229	3.02
277.608	2.58
277.986	2.36
278.365	2.1
278.743	2.36
279.122	2.31
279.5	1.92
279.878	1.88
280.257	2.94
280.635	2.92
281.013	2.99
281.391	2.42
281.769	2.11
282.147	2.67
282.525	1.94
282.903	2.47
283.281	2.69
283.659	2.21
284.037	2.44
284.415	2.47
284.792	2.43
285.17	2.02
285.548	2.33
285.925	1.83
286.303	2.03
286.68	2.33
287.058	2.38
287.435	2.45
287.813	2.69
288.19	2.53
288.567	2.58
288.945	2.53
289.322	2.83
289.699	2.43
290.076	2.9
290.453	2.35
290.83	2.58
291.207	2.61
291.584	2.38
291.961	2.66
292.338	2.85
292.715	2.42
293.092	2.73
293.469	3.2
293.845	3.07
294.222	2.67
294.599	3.31
294.975	3.1
295.352	2.61
295.728	3.26
296.105	2.65
296.481	3.5
296.858	3.3
297.234	2.96
297.61	3.37
297.986	3.39
298.363	2.86
298.739	3.36
299.115	2.9
299.491	3.14
299.867	3.65
300.243	3.47
300.619	3.57
300.995	3.41
301.371	4.17
301.746	3.43
302.122	3.46
302.498	3.72
302.874	3.79
303.249	3.97
303.625	3.96
304	3.57
304.376	3.71
304.751	3.49
305.127	3.73
305.502	4.06
305.878	4.08
306.253	3.86
306.628	3.75
307.003	3.92
307.378	3.96
307.754	4.27
308.129	4.12
308.504	4.16
308.879	4.35
309.254	4.59
309.629	4.17
310.003	4.46
310.378	4.51
310.753	4.56
311.128	4.52
311.502	4.17
311.877	4.29
312.252	4.1
312.626	4.27
313.001	4.22
313.375	4.57
313.75	4.31
314.124	5
314.498	4.61
314.873	4.86
315.247	4.51
315.621	4.89
315.995	5.1
316.369	5.25
316.743	5.49
317.117	5.15
317.491	4.98
317.865	4.95
318.239	5.37
318.613	5.48
318.987	5.54
319.361	5.34
319.734	5.38
320.108	5.37
320.482	4.96
320.855	5.69
321.229	5.94
321.602	5.54
321.976	5.42
322.349	4.8
322.723	5.44
323.096	5.56
323.469	4.97
323.843	6.36
324.216	5.61
324.589	6.01
324.962	5.96
325.335	5.5
325.708	6.26
326.081	6.27
326.454	5.65
326.827	6.34
327.2	6.11
327.573	6.37
327.945	5.93
328.318	6.21
328.691	6.2
329.063	6.2
329.436	6.31
329.809	6.14
330.181	6.44
330.553	6.79
330.926	6.54
331.298	6.45
331.671	6.86
332.043	6.75
332.415	6.86
332.787	7.15
333.159	6.64
333.532	6.71
333.904	6.97
334.276	7
334.648	6.7
335.02	6.47
335.391	7.04
335.763	6.89
336.135	7.32
336.507	6.96
336.879	7.07
337.25	6.83
337.622	7.09
337.993	7.09
338.365	7.34
338.736	7.41
339.108	7.41
339.479	7.35
339.851	7.31
340.222	7.13
340.593	7.13
340.964	7.06
341.336	6.79
341.707	7.28
342.078	7.22
342.449	7.39
342.82	8.03
343.191	6.81
343.562	7.96
343.933	7.65
344.303	7.81
344.674	7.44
345.045	7.95
345.416	7.77
345.786	7.36
346.157	7.96
346.527	7.83
346.898	7.86
347.268	7.83
347.639	7.75
348.009	8.31
348.38	8.22
348.75	8.04
349.12	8.4
349.49	8.64
349.861	8.66
350.231	8.64
350.601	8.55
350.971	8.45
351.341	8.41
351.711	8.48
352.081	8.85
352.45	8.37
352.82	8.43
353.19	8.43
353.56	8.74
353.929	9.26
354.299	8.62
354.669	8.85
355.038	8.78
355.408	9.42
355.777	9.12
356.147	8.96
356.516	8.88
356.885	8.67
357.254	9.02
357.624	8.92
357.993	9.01
358.362	9.25
358.731	8.98
359.1	8.87
359.469	9.13
359.838	8.85
360.207	9.36
360.576	9.51
360.945	9.24
361.314	9.41
361.682	8.96
362.051	9.3
362.42	9.42
362.788	9.41
363.157	9.06
363.525	9.24
363.894	9.49
364.262	9.41
364.631	10.42
364.999	9.43
365.367	9.84
365.735	9.51
366.104	9.72
366.472	10.05
366.84	10.08
367.208	9.67
367.576	10.09
367.944	10.33
368.312	9.8
368.68	10.15
369.048	10.24
369.416	9.91
369.783	10.08
370.151	10.32
370.519	9.88
370.886	10.16
371.254	10.16
371.621	10.19
371.989	10.61
372.356	10.57
372.724	10.16
373.091	10.38
373.458	10.71
373.826	10.55
374.193	11.28
374.56	10.36
374.927	10.28
375.294	10.58
375.661	10.76
376.028	10.55
376.395	10.66
376.762	11.21
377.129	11.09
377.496	10.99
377.863	10.9
378.229	10.75
378.596	10.71
378.963	10.73
379.329	10.75
379.696	11.11
380.062	11.36
380.429	11.37
380.795	10.99
381.161	11.03
381.528	10.84
381.894	11.34
382.26	11.3
382.626	11.43
382.993	11.14
383.359	11.47
383.725	11.64
384.091	11.5
384.457	11.74
384.823	11.9
385.188	11.62
385.554	11.68
385.92	11.93
386.286	11.98
386.651	11.65
387.017	12.13
387.383	12.1
387.748	11.49
388.114	11.85
388.479	12.13
388.845	11.78
389.21	11.97
389.575	12.14
389.94	12.29
390.306	11.84
390.671	12.06
391.036	12.7
391.401	12.56
391.766	12.27
392.131	12.32
392.496	12.26
392.861	12.34
393.226	12.24
393.591	12.43
393.956	12.57
394.32	12.41
394.685	12.7
395.05	12.28
395.414	12.71
395.779	12.54
396.143	12.66
396.508	12.69
396.872	12.84
397.236	12.68
397.601	12.9
397.965	12.5
398.329	12.86
398.694	12.79
399.058	12.94
399.422	12.96
399.786	13.3
400.15	13.07
400.514	13.11
400.878	13.06
401.242	13.34
401.605	13.28
401.969	13.21
402.333	13.38
402.697	13.41
403.06	13.49
403.424	13.67
403.787	13.49
404.151	13.16
404.514	13.41
404.878	13.33
405.241	13.48
405.604	13.37
405.968	13.57
406.331	13.54
406.694	13.71
407.057	13.96
407.42	13.65
407.783	13.76
408.146	13.7
408.509	13.67
408.872	13.89
409.235	13.93
409.598	14.15
409.961	14.02
410.323	14.12
410.686	13.94
411.049	14.19
411.411	14.17
411.774	14.1
412.136	14.14
412.499	14.23
412.861	14.26
413.223	14.6
413.586	14.37
413.948	14.48
414.31	14.59
414.672	14.61
415.035	14.65
415.397	14.63
415.759	14.37
416.121	14.56
416.483	14.86
416.845	14.51
417.206	14.58
417.568	14.57
417.93	14.19
418.292	14.54
418.653	14.69
419.015	14.6
419.377	14.52
419.738	14.48
420.1	14.49
420.461	14.57
420.822	14.67
421.184	14.68
421.545	14.48
421.906	14.63
422.267	14.34
422.629	14.64
422.99	14.66
423.351	14.91
423.712	14.84
424.073	14.87
424.434	14.81
424.795	14.91
425.155	14.82
425.516	14.89
425.877	14.91
426.238	15.03
426.598	15.17
426.959	15.26
427.32	15.41
427.68	15.46
428.041	15.57
428.401	15.49
428.761	15.69
429.122	15.68
429.482	15.6
429.842	15.67
430.202	15.7
430.563	15.64
430.923	15.73
431.283	15.94
431.643	15.84
432.003	15.96
432.363	16.16
432.722	15.94
433.082	15.99
433.442	15.78
433.802	16.05
434.161	15.95
434.521	15.88
434.881	16
435.24	15.81
435.6	16.02
435.959	16.16
436.319	16.21
436.678	16.27
437.037	16.4
437.396	16.25
437.756	16.26
438.115	16.49
438.474	16.42
438.833	16.53
439.192	16.58
439.551	16.26
439.91	16.57
440.269	16.54
440.628	16.48
440.987	16.39
441.345	16.33
441.704	16.45
442.063	16.46
442.421	16.41
442.78	16.53
443.138	16.63
443.497	16.8
443.855	16.79
444.214	16.93
444.572	17.05
444.93	17
445.288	16.98
445.647	17.04
446.005	16.92
446.363	16.94
446.721	16.92
447.079	16.75
447.437	16.76
447.795	16.8
448.153	16.85
448.51	16.93
448.868	17.13
449.226	17.03
449.584	17.15
449.941	17.45
450.299	17.46
450.656	17.49
451.014	17.46
451.371	17.78
451.729	17.67
452.086	17.6
452.443	17.65
452.801	17.73
453.158	17.45
453.515	17.7
453.872	17.68
454.229	17.89
454.586	17.91
454.943	17.83
455.3	18.11
455.657	17.8
456.014	18.04
456.371	18.14
456.727	18.12
457.084	18.06
457.441	18.07
457.797	18.28
458.154	18.19
458.51	18.34
458.867	18.29
459.223	18.24
459.58	18.26
459.936	18.14
460.292	18.08
460.648	17.98
461.005	17.87
461.361	17.96
461.717	18.12
462.073	18.31
462.429	18.66
462.785	18.62
463.141	18.65
463.496	18.75
463.852	18.96
464.208	18.67
464.564	18.8
464.919	18.96
465.275	18.98
465.631	18.92
465.986	19
466.342	19.07
466.697	19.07
467.052	19.08
467.408	19.14
467.763	18.96
468.118	19.13
468.473	19.28
468.829	19.25
469.184	19.36
469.539	19.3
469.894	19.36
470.249	19.39
470.603	19.63
470.958	19.49
471.313	19.49
471.668	19.65
472.023	19.68
472.377	19.65
472.732	19.59
473.086	19.54
473.441	19.73
473.795	19.84
474.15	19.66
474.504	19.71
474.859	19.97
475.213	19.76
475.567	19.84
475.921	20.18
476.275	19.98
476.63	19.94
476.984	20.05
477.338	20.09
477.692	20.02
478.045	19.94
478.399	20.18
478.753	20.07
479.107	19.99
479.461	20.21
479.814	20.02
480.168	20.18
480.521	20.18
480.875	20.38
481.228	20.26
481.582	20.29
481.935	20.19
482.289	20.12
482.642	20.22
482.995	20.02
483.348	20.02
483.701	19.94
484.055	19.81
484.408	19.52
484.761	19.19
485.114	18.99
485.466	19.09
485.819	19.49
486.172	19.85
486.525	20.06
486.878	20.11
487.23	20.22
487.583	20.23
487.936	20.06
488.288	19.83
488.641	19.75
488.993	19.66
489.345	19.74
489.698	20.06
490.05	20.21
490.402	20.38
490.754	20.76
491.107	20.83
491.459	20.95
491.811	20.82
492.163	20.65
492.515	20.42
492.866	19.97
493.218	20.09
493.57	20.46
493.922	20.82
494.274	21.06
494.625	21.15
494.977	21.39
495.328	21.57
495.68	21.76
496.031	21.59
496.383	21.72
496.734	21.81
497.086	21.46
497.437	21.7
497.788	21.48
498.139	21.47
498.49	21.51
498.842	21.63
499.193	21.73
499.544	21.79
499.894	21.71
500.245	21.9
500.596	21.95
500.947	22.05
501.298	22.07
501.648	22.22
501.999	22.35
502.35	22.28
502.7	22.45
503.051	22.38
503.401	22.38
503.752	22.25
504.102	22.53
504.452	22.4
504.803	22.35
505.153	22.42
505.503	22.34
505.853	22.35
506.203	22.49
506.553	22.55
506.903	22.44
507.253	22.73
507.603	22.53
507.953	22.7
508.303	22.65
508.652	22.62
509.002	22.7
509.352	22.6
509.701	22.53
510.051	22.7
510.4	22.53
510.75	22.85
511.099	22.89
511.449	22.71
511.798	23.14
512.147	22.82
512.496	22.94
512.846	22.87
513.195	22.94
513.544	22.95
513.893	22.74
514.242	23.05
514.591	23.14
514.939	23.21
515.288	23.24
515.637	23.39
515.986	23.33
516.334	23.45
516.683	23.51
517.032	23.44
517.38	23.54
517.729	23.41
518.077	23.54
518.426	23.46
518.774	23.35
519.122	23.24
519.47	23.12
519.819	23.07
520.167	23.01
520.515	23.19
520.863	23.36
521.211	23.58
521.559	23.56
521.907	23.79
522.255	23.89
522.602	23.86
522.95	23.99
523.298	23.93
523.645	23.94
523.993	24.11
524.341	24.16
524.688	23.95
525.036	24.13
525.383	24.3
525.73	23.91
526.078	23.89
526.425	23.85
526.772	23.67
527.119	23.51
527.466	23.65
527.814	23.84
528.161	23.91
528.508	23.93
528.854	23.69
529.201	23.55
529.548	23.2
529.895	22.9
530.242	23.08
530.588	23.51
530.935	23.69
531.282	23.93
531.628	24.15
531.975	24.22
532.321	24.41
532.667	24.33
533.014	24.36
533.36	24.49
533.706	24.32
534.052	24.07
534.399	23.78
534.745	23.78
535.091	23.93
535.437	24.19
535.783	24.65
536.129	24.74
536.474	24.86
536.82	24.93
537.166	24.89
537.512	24.71
537.857	24.49
538.203	24.58
538.549	24.74
538.894	25
539.239	25.29
539.585	25.33
539.93	25.55
540.276	25.37
540.621	25.29
540.966	25.25
541.311	25.3
541.656	25.11
542.001	24.89
542.346	24.58
542.691	24.3
543.036	24.47
543.381	24.79
543.726	25.05
544.071	25.24
544.415	25.31
544.76	25.18
545.105	25.45
545.449	25.49
545.794	25.65
546.138	25.89
546.483	25.84
546.827	25.87
547.171	25.67
547.516	25.95
547.86	25.73
548.204	25.72
548.548	25.91
548.892	25.94
549.236	26.28
549.58	26.3
549.924	26.42
550.268	26.71
550.612	26.51
550.956	26.51
551.3	26.64
551.643	26.85
551.987	26.79
552.33	26.62
552.674	26.83
553.017	26.84
553.361	27.08
553.704	26.71
554.048	26.7
554.391	26.67
554.734	26.7
555.077	26.72
555.42	26.97
555.764	27.02
556.107	27.24
556.45	27.32
556.793	27.22
557.135	27.41
557.478	27.34
557.821	27.11
558.164	27.45
558.507	27.23
558.849	27.38
559.192	27.59
559.534	27.57
559.877	27.72
560.219	27.78
560.562	27.86
560.904	27.74
561.246	27.83
561.589	27.71
561.931	27.97
562.273	27.56
562.615	27.85
562.957	28.06
563.299	27.73
563.641	27.73
563.983	28.01
564.325	27.83
564.667	28.18
565.008	28
565.35	28.21
565.692	28.05
566.033	28.04
566.375	27.76
566.716	28.06
567.058	28.13
567.399	27.72
567.741	28
568.082	27.89
568.423	28.02
568.764	28.09
569.105	28.19
569.447	28.22
569.788	28.48
570.129	28.5
570.47	28.65
570.811	28.59
571.151	28.52
571.492	28.52
571.833	28.5
572.174	28.55
572.514	28.58
572.855	28.59
573.195	28.32
573.536	28.14
573.876	28.32
574.217	28.52
574.557	28.72
574.898	28.68
575.238	28.75
575.578	28.74
575.918	28.8
576.258	28.69
576.598	28.77
576.938	28.78
577.278	29.04
577.618	29.09
577.958	29.11
578.298	29.11
578.638	29.04
578.977	29.27
579.317	29.11
579.657	29.23
579.996	29.43
580.336	29.33
580.675	29.47
581.014	29.36
581.354	29.67
581.693	29.7
582.032	29.46
582.372	29.68
582.711	29.77
583.05	29.94
583.389	29.81
583.728	29.98
584.067	29.88
584.406	30.02
584.745	30.09
585.083	30.32
585.422	30.03
585.761	29.83
586.1	29.71
586.438	30.07
586.777	30.26
587.115	30.1
587.454	30.3
587.792	29.9
588.13	30.48
588.469	30.06
588.807	30.3
589.145	30.3
589.483	30.43
589.821	30.3
590.159	30.35
590.497	30.03
590.835	30.46
591.173	30.31
591.511	30.46
591.849	30.54
592.187	30.63
592.524	30.2
592.862	30.62
593.2	30.4
593.537	30.55
593.875	30.99
594.212	30.71
594.55	30.77
594.887	30.79
595.224	30.52
595.561	30.67
595.899	30.42
596.236	30.85
596.573	30.68
596.91	30.88
597.247	30.67
597.584	30.72
597.921	30.36
598.258	30.23
598.594	30.19
598.931	30.45
599.268	30.7
599.604	30.79
599.941	30.74
600.277	30.84
600.614	30.95
600.95	31.38
601.287	31.1
601.623	31.23
601.959	31.28
602.296	31.38
602.632	31.4
602.968	31.44
603.304	30.84
603.64	31.24
603.976	31.22
604.312	31.32
604.648	31.31
604.984	31.09
605.319	31.31
605.655	31.29
605.991	31.1
606.326	31.04
606.662	30.99
606.998	31.31
607.333	31.46
607.668	31.19
608.004	31.59
608.339	31.63
608.674	31.9
609.01	31.93
609.345	31.59
609.68	31.56
610.015	31.88
610.35	31.55
610.685	31.43
611.02	31.34
611.355	31.55
611.689	31.47
612.024	32.17
612.359	31.97
612.694	32.22
613.028	32.5
613.363	31.93
613.697	31.98
614.032	32.16
614.366	32.26
614.7	32.52
615.035	32.27
615.369	32.06
615.703	32.8
616.037	32.28
616.371	32.77
616.705	32.55
617.039	32.78
617.373	32.36
617.707	32.61
618.041	32.67
618.375	32.21
618.709	32.51
619.042	32.76
619.376	32.97
619.71	32.45
620.043	32.53
620.377	32.61
620.71	32.72
621.043	32.33
621.377	32.79
621.71	32.9
622.043	32.77
622.376	32.93
622.709	33.37
623.043	32.95
623.376	32.88
623.709	33.14
624.041	32.78
624.374	32.99
624.707	33.1
625.04	33.35
625.373	33.4
625.705	33.23
626.038	33.43
626.37	33.27
626.703	33.25
627.035	33.41
627.368	33.45
627.7	32.87
628.032	33.06
628.365	32.86
628.697	33.12
629.029	33.34
629.361	33.2
629.693	33.45
630.025	33.3
630.357	33.6
630.689	33.74
631.021	33.71
631.353	33.71
631.684	33.59
632.016	33.47
632.348	33.78
632.679	33.42
633.011	33.82
633.342	33.38
633.674	33.57
634.005	34.16
634.336	33.63
634.668	33.73
634.999	34
635.33	33.5
635.661	34.01
635.992	33.93
636.323	33.96
636.654	33.59
636.985	33.61
637.316	33.71
637.647	34.21
637.977	33.97
638.308	33.96
638.639	33.9
638.969	33.95
639.3	33.9
639.63	33.77
639.961	34.03
640.291	34.24
640.622	33.93
640.952	34.44
641.282	33.78
641.612	34.05
641.943	34.27
642.273	34.07
642.603	34.53
642.933	34.18
643.263	34.4
643.592	34.65
643.922	34.82
644.252	34.53
644.582	35.1
644.911	34.42
645.241	34.53
645.571	34.32
645.9	34.69
646.23	34.86
646.559	34.74
646.888	34.7
647.218	35.17
647.547	35.21
647.876	35.01
648.205	34.56
648.534	34.79
648.863	35.08
649.192	34.46
649.521	34.44
649.85	35.39
650.179	34.97
650.508	35.12
650.837	35.1
651.165	35.04
651.494	35.09
651.822	34.79
652.151	35.05
652.479	34.73
652.808	34.68
653.136	34.36
653.465	35.02
653.793	35.05
654.121	34.85
654.449	35.18
654.777	35.27
655.105	35.15
655.433	35.37
655.761	34.79
656.089	35.41
656.417	34.81
656.745	35.9
657.073	35.81
657.4	35.11
657.728	35.24
658.056	35.13
658.383	35.64
658.711	35.54
659.038	35.73
659.365	35.41
659.693	35.61
660.02	35.2
660.347	35.44
660.674	35.27
661.001	34.98
661.329	34.9
661.656	35.31
661.982	35.16
662.309	34.94
662.636	35.57
662.963	35.54
663.29	36.19
663.616	35.82
663.943	36.25
664.27	35.74
664.596	36
664.923	36.29
665.249	35.51
665.576	35.85
665.902	36.15
666.228	36.07
666.554	35.32
666.881	36.62
667.207	36.12
667.533	36.33
667.859	35.78
668.185	36.46
668.511	35.81
668.837	35.11
669.162	35.72
669.488	35.83
669.814	36.14
670.139	36.5
670.465	35.88
670.791	36.74
671.116	35.55
671.442	36.17
671.767	35.79
672.092	36.13
