Data from 0052_crown_Reflection__3__70.txt Node

Date: Fri Dec 16 14:26:21 CST 2022
User: ToomeyLab
Spectrometer: FLMS14357
Trigger mode: 0
Integration Time (sec): 1.000000E-2
Scans to average: 100
Electric dark correction enabled: true
Nonlinearity correction enabled: false
Boxcar width: 0
XAxis mode: Wavelengths
Number of Pixels in Spectrum: 2048
>>>>>Begin Spectral Data<<<<<
189.047	333.24
189.435	333.24
189.823	333.24
190.211	-16.38
190.599	-137.14
190.987	-135.06
191.375	-74.55
191.763	251.12
192.151	15.69
192.538	-398.57
192.926	50.86
193.314	79.44
193.702	167.55
194.089	9.8
194.477	97.74
194.864	-25.98
195.252	101.53
195.639	220.2
196.027	16.73
196.414	118.92
196.801	-222.62
197.189	249.79
197.576	-123.86
197.963	393.16
198.351	-5.13
198.738	-17.58
199.125	56.67
199.512	14.24
199.899	-49.74
200.286	-3.74
200.673	63.34
201.06	21.52
201.447	35.51
201.833	7.41
202.22	61.02
202.607	15.05
202.994	35.21
203.38	0.71
203.767	11.1
204.154	-27.48
204.54	12.72
204.927	41
205.313	27.26
205.699	7.91
206.086	-15.45
206.472	42.26
206.858	15
207.245	26.67
207.631	4.78
208.017	32.41
208.403	38.23
208.789	5.64
209.175	48.74
209.561	41.27
209.947	-8.77
210.333	-15.18
210.719	-6.53
211.105	-7.23
211.491	0.62
211.876	14.27
212.262	-26.17
212.648	-13.04
213.034	-5.38
213.419	19.92
213.805	20.42
214.19	1.62
214.576	23.11
214.961	-3.82
215.346	12.4
215.732	2.74
216.117	-3.49
216.502	-2.43
216.888	-14.64
217.273	23.05
217.658	-10.23
218.043	9.38
218.428	12.83
218.813	8.73
219.198	-16.53
219.583	3.93
219.968	1.73
220.353	27.51
220.738	-10.59
221.122	5.81
221.507	-8.31
221.892	8.53
222.276	5.34
222.661	17.52
223.046	13.41
223.43	0.53
223.815	18.22
224.199	14.39
224.583	5.19
224.968	1.83
225.352	9.19
225.736	12.24
226.121	5.89
226.505	7.45
226.889	11.13
227.273	12.61
227.657	9.82
228.041	6.37
228.425	10
228.809	9.96
229.193	10.28
229.577	9.8
229.961	9.97
230.344	9.97
230.728	11.18
231.112	10.42
231.495	10.63
231.879	10.31
232.263	7.86
232.646	9.97
233.03	8.55
233.413	7.79
233.797	12.25
234.18	10.07
234.563	10.51
234.946	9.65
235.33	10.79
235.713	10.16
236.096	10.66
236.479	12.39
236.862	11.36
237.245	12.81
237.628	9.22
238.011	9.72
238.394	11.86
238.777	10.19
239.16	9.5
239.543	9.25
239.925	9.84
240.308	9.48
240.691	9.8
241.073	9.55
241.456	10.64
241.838	9.89
242.221	9.83
242.603	9.82
242.986	10.67
243.368	10.38
243.75	10.25
244.133	10.08
244.515	10.05
244.897	9.45
245.279	9.22
245.661	10.39
246.043	10.67
246.425	10.22
246.807	9.55
247.189	9.99
247.571	10.1
247.953	9.93
248.335	9.89
248.717	9.45
249.098	9.92
249.48	9.52
249.862	9.92
250.243	9.66
250.625	9.49
251.006	9.52
251.388	9.64
251.769	9.64
252.151	8.98
252.532	9.27
252.913	10.17
253.295	9.2
253.676	9.68
254.057	8.98
254.438	9.33
254.819	9.31
255.2	10.05
255.581	9.81
255.962	8.85
256.343	10.2
256.724	8.98
257.105	9.14
257.486	9.24
257.867	8.37
258.247	9.15
258.628	9.97
259.009	9.1
259.389	9.61
259.77	8.86
260.15	9.69
260.531	9.05
260.911	9.15
261.292	9.05
261.672	8.85
262.052	8.83
262.432	8.82
262.813	8.98
263.193	8.38
263.573	9.05
263.953	8.96
264.333	9.39
264.713	8.53
265.093	8.55
265.473	9.09
265.853	9.04
266.233	9.25
266.612	8.26
266.992	8.41
267.372	8.5
267.752	8.11
268.131	8.1
268.511	8.26
268.89	8.69
269.27	8.8
269.649	8.89
270.029	8.02
270.408	8.33
270.787	8.4
271.167	8.42
271.546	8.15
271.925	8.57
272.304	8.26
272.683	8.23
273.062	8.88
273.441	8.64
273.82	8.48
274.199	8.25
274.578	8.39
274.957	8.44
275.336	7.98
275.715	8.33
276.093	8.82
276.472	8.52
276.851	7.92
277.229	8.6
277.608	8.38
277.986	8.18
278.365	7.8
278.743	8.14
279.122	7.48
279.5	7.78
279.878	7.92
280.257	8.25
280.635	7.49
281.013	8.25
281.391	7.85
281.769	7.6
282.147	8.28
282.525	7.93
282.903	8.04
283.281	8.21
283.659	7.99
284.037	7.92
284.415	7.78
284.792	7.72
285.17	7.57
285.548	7.89
285.925	7.36
286.303	7.51
286.68	7.91
287.058	7.46
287.435	7.14
287.813	7.78
288.19	7.89
288.567	7.33
288.945	7.49
289.322	7.51
289.699	7.6
290.076	7.59
290.453	7.53
290.83	7.69
291.207	6.89
291.584	7.15
291.961	7.59
292.338	7.4
292.715	7.48
293.092	7.19
293.469	7.58
293.845	7.42
294.222	7.34
294.599	7.48
294.975	7.44
295.352	6.97
295.728	7.56
296.105	7.14
296.481	7.71
296.858	7.29
297.234	7.27
297.61	7.18
297.986	6.95
298.363	6.49
298.739	7.12
299.115	6.77
299.491	6.6
299.867	7.06
300.243	6.96
300.619	6.73
300.995	6.95
301.371	6.96
301.746	7
302.122	7.08
302.498	6.99
302.874	6.94
303.249	7.05
303.625	7.1
304	6.38
304.376	7.23
304.751	7.18
305.127	6.99
305.502	7.04
305.878	6.74
306.253	6.91
306.628	6.73
307.003	7.05
307.378	7.08
307.754	7.33
308.129	6.41
308.504	6.53
308.879	6.84
309.254	6.92
309.629	6.61
310.003	7.03
310.378	6.84
310.753	6.56
311.128	6.79
311.502	6.43
311.877	6.99
312.252	6.69
312.626	6.59
313.001	6.7
313.375	6.25
313.75	6.18
314.124	6.74
314.498	6.12
314.873	6.55
315.247	6.4
315.621	6.91
315.995	6.54
316.369	7.03
316.743	7.15
317.117	6.43
317.491	6.81
317.865	6.25
318.239	7.26
318.613	6.49
318.987	6.83
319.361	6.65
319.734	6.49
320.108	6.6
320.482	6.61
320.855	6.55
321.229	7.21
321.602	6.51
321.976	6.38
322.349	5.88
322.723	6.04
323.096	6.31
323.469	6.39
323.843	6.6
324.216	5.82
324.589	6.73
324.962	6.32
325.335	6.33
325.708	6.12
326.081	6.91
326.454	6.45
326.827	6.42
327.2	6.64
327.573	6.71
327.945	6.42
328.318	6.57
328.691	6.46
329.063	6.26
329.436	6.02
329.809	5.97
330.181	6.36
330.553	6.82
330.926	6.8
331.298	5.95
331.671	6.5
332.043	6.43
332.415	6.32
332.787	6.56
333.159	6.71
333.532	6.45
333.904	6.57
334.276	6.63
334.648	6.6
335.02	6.37
335.391	6.27
335.763	6.2
336.135	6.86
336.507	6.63
336.879	6.49
337.25	6.2
337.622	6.53
337.993	6.65
338.365	7.04
338.736	6.85
339.108	6.03
339.479	5.99
339.851	6.59
340.222	6.31
340.593	5.82
340.964	5.87
341.336	6.11
341.707	6.24
342.078	6.48
342.449	6.65
342.82	6.43
343.191	6.12
343.562	6.25
343.933	6.7
344.303	6.79
344.674	6.63
345.045	6.93
345.416	6.3
345.786	6.22
346.157	6.57
346.527	6.39
346.898	6.32
347.268	6.28
347.639	6.73
348.009	6.67
348.38	6.64
348.75	6.32
349.12	6.44
349.49	6.65
349.861	6.96
350.231	6.84
350.601	6.4
350.971	6.69
351.341	6.82
351.711	6.46
352.081	6.78
352.45	6.91
352.82	6.95
353.19	6.47
353.56	6.64
353.929	7.01
354.299	6.6
354.669	6.41
355.038	6.73
355.408	7.36
355.777	6.45
356.147	6.74
356.516	6.93
356.885	6.64
357.254	6.65
357.624	6.98
357.993	6.78
358.362	6.54
358.731	6.97
359.1	6.98
359.469	6.88
359.838	6.72
360.207	6.63
360.576	6.95
360.945	6.83
361.314	6.92
361.682	6.69
362.051	7.05
362.42	7.07
362.788	6.75
363.157	6.73
363.525	6.84
363.894	6.64
364.262	6.85
364.631	7.6
364.999	6.72
365.367	7.15
365.735	6.79
366.104	6.88
366.472	7
366.84	7.17
367.208	6.79
367.576	7.26
367.944	7.47
368.312	6.9
368.68	6.78
369.048	7.13
369.416	6.86
369.783	6.91
370.151	7.29
370.519	7.19
370.886	6.87
371.254	7.06
371.621	6.93
371.989	6.96
372.356	7.41
372.724	7.25
373.091	7.14
373.458	7.11
373.826	7.07
374.193	7.64
374.56	6.86
374.927	7.12
375.294	7.61
375.661	7.31
376.028	7.32
376.395	7.3
376.762	7.5
377.129	7.76
377.496	7.09
377.863	7.22
378.229	7.21
378.596	7.2
378.963	7.5
379.329	7.33
379.696	7.28
380.062	7.42
380.429	7.4
380.795	7.14
381.161	7.42
381.528	6.94
381.894	7.73
382.26	7.44
382.626	7.34
382.993	6.96
383.359	6.94
383.725	7.5
384.091	7.56
384.457	7.43
384.823	7.42
385.188	7.67
385.554	7.29
385.92	7.61
386.286	7.89
386.651	7.48
387.017	7.8
387.383	7.62
387.748	7.58
388.114	7.38
388.479	7.68
388.845	7.57
389.21	7.6
389.575	7.58
389.94	7.48
390.306	7.41
390.671	7.69
391.036	7.6
391.401	8.12
391.766	7.52
392.131	7.41
392.496	7.65
392.861	7.72
393.226	7.75
393.591	7.71
393.956	7.71
394.32	7.9
394.685	7.87
395.05	7.54
395.414	7.74
395.779	7.76
396.143	7.85
396.508	7.91
396.872	7.79
397.236	7.53
397.601	7.89
397.965	7.74
398.329	8.02
398.694	7.56
399.058	8.06
399.422	7.96
399.786	7.89
400.15	7.94
400.514	7.84
400.878	7.87
401.242	7.96
401.605	7.89
401.969	7.98
402.333	7.81
402.697	7.99
403.06	8.06
403.424	8
403.787	7.88
404.151	7.93
404.514	8.1
404.878	8.17
405.241	8.17
405.604	8.01
405.968	7.99
406.331	8.19
406.694	8.08
407.057	8.3
407.42	7.99
407.783	8.06
408.146	8.2
408.509	8
408.872	7.94
409.235	8.04
409.598	8.28
409.961	8.22
410.323	8.1
410.686	8.07
411.049	8.17
411.411	8.11
411.774	8.1
412.136	8.25
412.499	8.02
412.861	7.75
413.223	8.21
413.586	8.01
413.948	8.39
414.31	8.17
414.672	8.26
415.035	8.3
415.397	8.26
415.759	8.1
416.121	8.28
416.483	8.47
416.845	8.26
417.206	8.33
417.568	8.38
417.93	8.21
418.292	8.35
418.653	8.33
419.015	8.24
419.377	8.41
419.738	8.21
420.1	8.22
420.461	8.16
420.822	8.36
421.184	8.21
421.545	8.23
421.906	8.26
422.267	8.11
422.629	8.2
422.99	8.09
423.351	8.16
423.712	8.24
424.073	8.29
424.434	8.19
424.795	8.22
425.155	8.27
425.516	8.22
425.877	8.29
426.238	8.1
426.598	8.18
426.959	8.17
427.32	8.24
427.68	8.47
428.041	8.24
428.401	8.31
428.761	8.25
429.122	8.24
429.482	8.26
429.842	8.41
430.202	8.5
430.563	8.46
430.923	8.59
431.283	8.49
431.643	8.46
432.003	8.51
432.363	8.56
432.722	8.4
433.082	8.53
433.442	8.47
433.802	8.45
434.161	8.48
434.521	8.51
434.881	8.67
435.24	8.34
435.6	8.5
435.959	8.58
436.319	8.41
436.678	8.54
437.037	8.62
437.396	8.7
437.756	8.54
438.115	8.52
438.474	8.77
438.833	8.67
439.192	8.75
439.551	8.72
439.91	8.79
440.269	8.73
440.628	8.72
440.987	8.56
441.345	8.58
441.704	8.65
442.063	8.63
442.421	8.6
442.78	8.55
443.138	8.55
443.497	8.46
443.855	8.43
444.214	8.66
444.572	8.6
444.93	8.78
445.288	8.72
445.647	8.68
446.005	8.69
446.363	8.75
446.721	8.59
447.079	8.73
447.437	8.58
447.795	8.64
448.153	8.53
448.51	8.51
448.868	8.6
449.226	8.56
449.584	8.67
449.941	8.76
450.299	8.55
450.656	8.64
451.014	8.74
451.371	8.66
451.729	8.83
452.086	8.54
452.443	8.61
452.801	8.84
453.158	8.79
453.515	8.76
453.872	8.93
454.229	8.81
454.586	8.77
454.943	8.6
455.3	8.84
455.657	8.64
456.014	8.79
456.371	8.71
456.727	8.73
457.084	8.82
457.441	8.92
457.797	8.78
458.154	8.83
458.51	8.9
458.867	8.78
459.223	8.92
459.58	8.79
459.936	8.78
460.292	8.94
460.648	8.72
461.005	8.71
461.361	8.64
461.717	8.62
462.073	8.67
462.429	8.75
462.785	8.63
463.141	8.71
463.496	8.69
463.852	8.99
464.208	8.93
464.564	8.74
464.919	8.82
465.275	9.14
465.631	8.95
465.986	8.86
466.342	8.77
466.697	8.82
467.052	8.98
467.408	8.99
467.763	8.91
468.118	8.96
468.473	9.08
468.829	8.95
469.184	8.94
469.539	8.83
469.894	8.83
470.249	8.83
470.603	9.09
470.958	9.03
471.313	8.93
471.668	8.93
472.023	9.13
472.377	8.92
472.732	8.86
473.086	8.83
473.441	8.93
473.795	9.2
474.15	8.83
474.504	8.94
474.859	8.93
475.213	8.85
475.567	8.87
475.921	9.17
476.275	9.08
476.63	9.07
476.984	8.89
477.338	9.2
477.692	9.09
478.045	8.92
478.399	9.07
478.753	8.8
479.107	8.94
479.461	9.05
479.814	9.06
480.168	9.03
480.521	8.87
480.875	9.06
481.228	8.86
481.582	8.92
481.935	9
482.289	9
482.642	8.95
482.995	8.97
483.348	8.88
483.701	8.86
484.055	8.78
484.408	8.84
484.761	8.74
485.114	8.74
485.466	8.63
485.819	8.45
486.172	8.4
486.525	8.4
486.878	8.54
487.23	8.7
487.583	8.67
487.936	8.76
488.288	8.8
488.641	8.76
488.993	8.6
489.345	8.59
489.698	8.58
490.05	8.56
490.402	8.62
490.754	8.67
491.107	8.68
491.459	8.75
491.811	9.01
492.163	8.85
492.515	8.93
492.866	8.73
493.218	8.71
493.57	8.64
493.922	8.59
494.274	8.66
494.625	8.66
494.977	8.72
495.328	8.91
495.68	9.07
496.031	9.05
496.383	8.89
496.734	8.98
497.086	8.98
497.437	9.01
497.788	8.99
498.139	8.96
498.49	8.94
498.842	8.85
499.193	8.83
499.544	9.01
499.894	8.85
500.245	8.92
500.596	8.9
500.947	8.94
501.298	9
501.648	8.92
501.999	9.11
502.35	9.1
502.7	9.01
503.051	9.11
503.401	8.99
503.752	8.84
504.102	8.93
504.452	8.87
504.803	8.91
505.153	9.03
505.503	8.92
505.853	8.86
506.203	8.97
506.553	8.94
506.903	8.97
507.253	9.02
507.603	8.83
507.953	9
508.303	9.03
508.652	9.02
509.002	9.07
509.352	8.89
509.701	9.01
510.051	8.93
510.4	8.89
510.75	9
511.099	8.94
511.449	8.86
511.798	8.93
512.147	8.78
512.496	8.97
512.846	8.9
513.195	9.01
513.544	8.89
513.893	8.76
514.242	8.94
514.591	8.86
514.939	8.8
515.288	8.89
515.637	8.91
515.986	8.71
516.334	8.92
516.683	8.78
517.032	8.87
517.38	8.88
517.729	8.91
518.077	9.01
518.426	8.95
518.774	9.01
519.122	8.92
519.47	8.84
519.819	8.92
520.167	8.89
520.515	8.72
520.863	8.69
521.211	8.73
521.559	8.74
521.907	8.86
522.255	8.91
522.602	8.86
522.95	8.85
523.298	8.77
523.645	8.82
523.993	8.78
524.341	8.86
524.688	8.87
525.036	8.98
525.383	9.04
525.73	8.84
526.078	8.94
526.425	8.75
526.772	8.66
527.119	8.72
527.466	8.74
527.814	8.71
528.161	8.71
528.508	8.74
528.854	8.64
529.201	8.65
529.548	8.61
529.895	8.62
530.242	8.49
530.588	8.46
530.935	8.36
531.282	8.37
531.628	8.51
531.975	8.5
532.321	8.55
532.667	8.49
533.014	8.67
533.36	8.61
533.706	8.74
534.052	8.59
534.399	8.54
534.745	8.57
535.091	8.59
535.437	8.49
535.783	8.55
536.129	8.53
536.474	8.58
536.82	8.61
537.166	8.75
537.512	8.74
537.857	8.73
538.203	8.68
538.549	8.64
538.894	8.54
539.239	8.65
539.585	8.55
539.93	8.71
540.276	8.63
540.621	8.66
540.966	8.7
541.311	8.68
541.656	8.63
542.001	8.72
542.346	8.61
542.691	8.54
543.036	8.46
543.381	8.44
543.726	8.33
544.071	8.44
544.415	8.49
544.76	8.41
545.105	8.53
545.449	8.56
545.794	8.42
546.138	8.61
546.483	8.53
546.827	8.59
547.171	8.48
547.516	8.62
547.86	8.58
548.204	8.62
548.548	8.66
548.892	8.57
549.236	8.49
549.58	8.45
549.924	8.59
550.268	8.55
550.612	8.7
550.956	8.43
551.3	8.6
551.643	8.66
551.987	8.61
552.33	8.58
552.674	8.55
553.017	8.78
553.361	8.74
553.704	8.55
554.048	8.66
554.391	8.64
554.734	8.55
555.077	8.77
555.42	8.55
555.764	8.44
556.107	8.64
556.45	8.51
556.793	8.69
557.135	8.65
557.478	8.68
557.821	8.49
558.164	8.6
558.507	8.53
558.849	8.4
559.192	8.63
559.534	8.43
559.877	8.66
560.219	8.52
560.562	8.49
560.904	8.42
561.246	8.7
561.589	8.63
561.931	8.71
562.273	8.53
562.615	8.65
562.957	8.72
563.299	8.52
563.641	8.45
563.983	8.56
564.325	8.26
564.667	8.5
565.008	8.48
565.35	8.6
565.692	8.77
566.033	8.45
566.375	8.28
566.716	8.53
567.058	8.61
567.399	8.44
567.741	8.62
568.082	8.52
568.423	8.45
568.764	8.37
569.105	8.52
569.447	8.48
569.788	8.41
570.129	8.38
570.47	8.42
570.811	8.42
571.151	8.46
571.492	8.33
571.833	8.38
572.174	8.23
572.514	8.35
572.855	8.62
573.195	8.28
573.536	8.31
573.876	8.29
574.217	8.29
574.557	8.4
574.898	8.19
575.238	8.17
575.578	8.4
575.918	8.23
576.258	8.27
576.598	8.37
576.938	8.47
577.278	8.25
577.618	8.27
577.958	8.29
578.298	8.31
578.638	8.27
578.977	8.34
579.317	8.41
579.657	8.34
579.996	8.26
580.336	8.41
580.675	8.39
581.014	8.17
581.354	8.49
581.693	8.31
582.032	7.99
582.372	8.54
582.711	8.12
583.05	8.77
583.389	8.37
583.728	8.35
584.067	8.34
584.406	8.65
584.745	8.33
585.083	8.47
585.422	8.47
585.761	8.42
586.1	8.14
586.438	8.37
586.777	8.27
587.115	8.31
587.454	8.26
587.792	8.35
588.13	8.63
588.469	8.31
588.807	8.47
589.145	8.21
589.483	8.06
589.821	8.31
590.159	8.25
590.497	7.99
590.835	8.29
591.173	8.47
591.511	8.4
591.849	8.31
592.187	8.12
592.524	8.18
592.862	8.26
593.2	8.16
593.537	8.17
593.875	8.11
594.212	8.35
594.55	7.98
594.887	8.2
595.224	8.04
595.561	8.27
595.899	8.19
596.236	8.06
596.573	8.13
596.91	8.1
597.247	8.11
597.584	8.4
597.921	8.19
598.258	8.03
598.594	7.99
598.931	7.98
599.268	7.98
599.604	8.02
599.941	8.06
600.277	8.11
600.614	7.86
600.95	8.24
601.287	8.1
601.623	8.11
601.959	8.03
602.296	8.05
602.632	8.37
602.968	8
603.304	7.99
603.64	7.97
603.976	8.1
604.312	8.27
604.648	8.05
604.984	8.07
605.319	8.06
605.655	7.97
605.991	8.14
606.326	8.02
606.662	7.78
606.998	8
607.333	7.79
607.668	7.98
608.004	8.01
608.339	7.71
608.674	7.96
609.01	8.17
609.345	8.01
609.68	7.88
610.015	8.01
610.35	7.97
610.685	7.86
611.02	8.2
611.355	7.9
611.689	7.62
612.024	7.96
612.359	7.93
612.694	8.05
613.028	7.99
613.363	7.76
613.697	7.86
614.032	7.97
614.366	7.93
614.7	8.29
615.035	7.69
615.369	7.87
615.703	8.24
616.037	7.9
616.371	7.77
616.705	8.19
617.039	8.25
617.373	7.84
617.707	8.05
618.041	8.14
618.375	7.93
618.709	7.75
619.042	7.71
619.376	7.97
619.71	7.92
620.043	8.03
620.377	7.84
620.71	7.98
621.043	7.57
621.377	7.56
621.71	8.11
622.043	8.12
622.376	7.82
622.709	8.16
623.043	7.89
623.376	7.77
623.709	7.96
624.041	7.59
624.374	7.72
624.707	7.76
625.04	7.93
625.373	7.74
625.705	7.65
626.038	7.61
626.37	7.77
626.703	7.91
627.035	7.61
627.368	7.95
627.7	8.06
628.032	7.63
628.365	7.85
628.697	7.82
629.029	7.83
629.361	7.39
629.693	7.85
630.025	7.64
630.357	7.71
630.689	7.9
631.021	7.74
631.353	7.88
631.684	7.92
632.016	7.87
632.348	8.04
632.679	7.66
633.011	7.62
633.342	7.46
633.674	7.8
634.005	7.93
634.336	7.68
634.668	7.51
634.999	7.79
635.33	7.87
635.661	7.8
635.992	7.58
636.323	7.66
636.654	7.42
636.985	7.8
637.316	7.9
637.647	7.73
637.977	7.78
638.308	7.33
638.639	7.53
638.969	7.63
639.3	7.78
639.63	7.63
639.961	7.59
640.291	8.01
640.622	7.6
640.952	7.38
641.282	7.41
641.612	7.53
641.943	7.92
642.273	7.26
642.603	7.44
642.933	7.76
643.263	8.13
643.592	7.71
643.922	7.8
644.252	7.5
644.582	7.57
644.911	7.39
645.241	7.51
645.571	7.45
645.9	7.74
646.23	7.69
646.559	7.76
646.888	7.63
647.218	7.64
647.547	8.03
647.876	7.84
648.205	7.43
648.534	7.59
648.863	7.81
649.192	7.22
649.521	7.52
649.85	8.3
650.179	7.34
650.508	7.76
650.837	7.61
651.165	7.48
651.494	7.66
651.822	7.58
652.151	7.94
652.479	7.99
652.808	7.12
653.136	7.68
653.465	7.63
653.793	7.8
654.121	7.98
654.449	7.65
654.777	7.85
655.105	7.91
655.433	8.11
655.761	7.6
656.089	7.85
656.417	7.34
656.745	8.01
657.073	8.05
657.4	7.51
657.728	7.56
658.056	7.19
658.383	7.7
658.711	7.34
659.038	8.12
659.365	8.15
659.693	7.85
660.02	7.59
660.347	7.86
660.674	7.66
661.001	7.3
661.329	7.8
661.656	7.67
661.982	7.62
662.309	7.88
662.636	7.83
662.963	8.09
663.29	7.89
663.616	7.09
663.943	8.16
664.27	7.95
664.596	7.5
664.923	7.88
665.249	7.75
665.576	7.18
665.902	7.72
666.228	7.57
666.554	7.27
666.881	8.14
667.207	7.64
667.533	7.78
667.859	7.54
668.185	8.05
668.511	7.24
668.837	7.05
669.162	7.6
669.488	7.84
669.814	8.48
670.139	8.13
670.465	7.85
670.791	8.09
671.116	7.89
671.442	8.01
671.767	7.63
672.092	7.58
672.418	7.47
672.743	7.27
673.068	7.04
673.393	7.92
673.718	7.03
674.043	7.63
674.368	7.75
674.693	7.92
675.018	7.75
675.343	7.85
675.667	7.46
675.992	7.13
676.317	8.09
676.641	7.51
676.966	7.35
677.29	7.6
677.615	7.63
677.939	8.24
678.264	7.52
678.588	7.99
678.912	7.94
679.236	7.74
679.56	7.92
679.885	7.81
680.209	7.49
680.532	7.07
680.856	8.08
681.18	7.66
681.504	7.41
681.828	7.21
682.152	7.53
682.475	7.76
682.799	7.95
683.122	7.22
683.446	7.25
683.769	7.54
684.093	7.61
684.416	7.6
684.739	7.63
685.062	8.15
685.386	7.44
685.709	7.61
686.032	7.73
686.355	7.79
686.678	7.81
687.001	6.99
687.324	6.68
687.646	7.91
687.969	7.56
688.292	8.35
688.614	8.43
688.937	7.04
689.26	7.72
689.582	7.16
689.904	7.37
690.227	7.8
690.549	8.31
690.871	8.71
691.194	7.54
691.516	7.26
691.838	7.6
692.16	7.39
