Data from 0052_chest_Reflection__4__66.txt Node

Date: Fri Dec 16 14:25:09 CST 2022
User: ToomeyLab
Spectrometer: FLMS14357
Trigger mode: 0
Integration Time (sec): 1.000000E-2
Scans to average: 100
Electric dark correction enabled: true
Nonlinearity correction enabled: false
Boxcar width: 0
XAxis mode: Wavelengths
Number of Pixels in Spectrum: 2048
>>>>>Begin Spectral Data<<<<<
189.047	287.46
189.435	287.46
189.823	287.46
190.211	22.83
190.599	-69.78
190.987	147.72
191.375	656.65
191.763	123.89
192.151	-8.27
192.538	-76.63
192.926	-39.8
193.314	37.14
193.702	-396.31
194.089	129.51
194.477	-47.22
194.864	69.91
195.252	122.3
195.639	175.62
196.027	-2.96
196.414	157.57
196.801	-76.62
197.189	1083.4
197.576	-325.56
197.963	-752.76
198.351	24.11
198.738	9.13
199.125	42.04
199.512	35.02
199.899	-24.38
200.286	-35.82
200.673	11.26
201.06	28.28
201.447	36.39
201.833	38.99
202.22	32.91
202.607	-8.65
202.994	20.29
203.38	-23.68
203.767	-37.68
204.154	24.01
204.54	33.42
204.927	27.11
205.313	30.7
205.699	46.18
206.086	10.16
206.472	32.27
206.858	26.57
207.245	-10.56
207.631	16.69
208.017	32.83
208.403	-2.68
208.789	12.06
209.175	28.16
209.561	8.21
209.947	6.92
210.333	-14.75
210.719	26.03
211.105	-43.57
211.491	-20.27
211.876	6.01
212.262	-20.71
212.648	-55.62
213.034	24.53
213.419	23.48
213.805	12.43
214.19	5.86
214.576	-3.33
214.961	10.5
215.346	-1.52
215.732	16.96
216.117	28
216.502	-26.85
216.888	-8.31
217.273	31.04
217.658	-2.44
218.043	-14
218.428	13.08
218.813	0.07
219.198	-48.45
219.583	8.2
219.968	4.03
220.353	26.11
220.738	-9.1
221.122	-1.44
221.507	5.62
221.892	11.7
222.276	16.47
222.661	4.53
223.046	8.34
223.43	6.56
223.815	5.37
224.199	3.12
224.583	5.76
224.968	8.05
225.352	1.75
225.736	5.63
226.121	-2.86
226.505	8.67
226.889	11.56
227.273	5.25
227.657	-1.44
228.041	3.56
228.425	1.99
228.809	3.45
229.193	1.48
229.577	3.81
229.961	3.4
230.344	4.16
230.728	4.26
231.112	4.14
231.495	3.85
231.879	4.53
232.263	2.51
232.646	3.64
233.03	2.35
233.413	2.06
233.797	7.56
234.18	1.23
234.563	2.58
234.946	2.57
235.33	4.38
235.713	3.82
236.096	4.33
236.479	5.86
236.862	4.69
237.245	4.63
237.628	4.08
238.011	5.08
238.394	4.12
238.777	5.18
239.16	2.08
239.543	3.01
239.925	3.03
240.308	4.56
240.691	3.01
241.073	5.02
241.456	4.12
241.838	4.09
242.221	4.35
242.603	4.37
242.986	4.7
243.368	4.6
243.75	3.88
244.133	4.51
244.515	4.5
244.897	4.61
245.279	4.56
245.661	4.88
246.043	4.43
246.425	4.5
246.807	4.3
247.189	3.58
247.571	4.51
247.953	4.45
248.335	4.56
248.717	4.46
249.098	4.36
249.48	4.12
249.862	4.41
250.243	4.49
250.625	4.71
251.006	4.51
251.388	5.26
251.769	5.3
252.151	5.59
252.532	4.31
252.913	4.7
253.295	4.88
253.676	4.83
254.057	4.59
254.438	4.08
254.819	5.53
255.2	4.91
255.581	4.17
255.962	5.9
256.343	4.72
256.724	5.49
257.105	4.27
257.486	4.77
257.867	3.54
258.247	4.31
258.628	4.99
259.009	4.2
259.389	4.66
259.77	4.17
260.15	4.93
260.531	4.66
260.911	4.55
261.292	4.2
261.672	4.18
262.052	4.35
262.432	4.2
262.813	4.28
263.193	4.27
263.573	4.86
263.953	4.32
264.333	4.4
264.713	3.56
265.093	3.56
265.473	4.95
265.853	3.9
266.233	3.56
266.612	3.54
266.992	4.19
267.372	4.03
267.752	4.22
268.131	4.15
268.511	4.63
268.89	4.75
269.27	4.25
269.649	4.75
270.029	4.2
270.408	4.51
270.787	3.8
271.167	4.49
271.546	3.81
271.925	4.17
272.304	4.54
272.683	4.07
273.062	4.48
273.441	4.24
273.82	4.33
274.199	4.74
274.578	4.1
274.957	4.15
275.336	4.2
275.715	4.54
276.093	4.38
276.472	4.37
276.851	4.37
277.229	4.27
277.608	3.85
277.986	4.16
278.365	3.92
278.743	4.62
279.122	3.68
279.5	4.17
279.878	3.46
280.257	4.38
280.635	3.95
281.013	4.34
281.391	4.2
281.769	4.23
282.147	3.96
282.525	3.86
282.903	4.23
283.281	4.03
283.659	4.34
284.037	4.1
284.415	4.26
284.792	4.13
285.17	4.02
285.548	4
285.925	3.91
286.303	3.98
286.68	4.08
287.058	4.09
287.435	3.96
287.813	4.41
288.19	4.56
288.567	4.17
288.945	4.28
289.322	3.95
289.699	4.45
290.076	4.84
290.453	4.13
290.83	4.38
291.207	4.26
291.584	4.45
291.961	4.77
292.338	4.64
292.715	4.51
293.092	4.41
293.469	5.02
293.845	4.75
294.222	4.69
294.599	4.97
294.975	4.99
295.352	4.79
295.728	4.82
296.105	4.57
296.481	4.63
296.858	5.07
297.234	4.75
297.61	4.74
297.986	4.72
298.363	4.37
298.739	4.94
299.115	4.45
299.491	4.79
299.867	5.03
300.243	5.1
300.619	4.7
300.995	4.94
301.371	5.59
301.746	4.68
302.122	5.13
302.498	4.64
302.874	5.09
303.249	5.47
303.625	5.02
304	5.1
304.376	5.4
304.751	5.06
305.127	5.12
305.502	5.53
305.878	5.42
306.253	5.11
306.628	5.03
307.003	5.39
307.378	5.19
307.754	5.25
308.129	4.94
308.504	4.96
308.879	5.55
309.254	5.58
309.629	5.35
310.003	5.77
310.378	5.06
310.753	5.36
311.128	5.87
311.502	5.18
311.877	5.38
312.252	4.9
312.626	5.03
313.001	5.37
313.375	5.3
313.75	5.58
314.124	5.99
314.498	5.42
314.873	5.84
315.247	5.11
315.621	5.72
315.995	5.34
316.369	5.85
316.743	5.69
317.117	6.05
317.491	6.12
317.865	4.95
318.239	5.6
318.613	5.58
318.987	5.73
319.361	5.47
319.734	5.9
320.108	5.6
320.482	5.34
320.855	5.33
321.229	5.94
321.602	5.5
321.976	6.22
322.349	4.99
322.723	4.99
323.096	5.34
323.469	5.49
323.843	5.77
324.216	5.22
324.589	6.01
324.962	5.87
325.335	5.36
325.708	6.15
326.081	6.2
326.454	5.78
326.827	5.79
327.2	5.91
327.573	5.78
327.945	5.83
328.318	5.4
328.691	6.05
329.063	5.56
329.436	5.8
329.809	5.41
330.181	5.51
330.553	6.15
330.926	5.89
331.298	5.41
331.671	5.64
332.043	6.28
332.415	6.2
332.787	6.75
333.159	5.89
333.532	6.19
333.904	5.97
334.276	5.87
334.648	5.94
335.02	6.03
335.391	6.42
335.763	6.18
336.135	5.89
336.507	6.26
336.879	6.32
337.25	5.77
337.622	6.06
337.993	6.13
338.365	6.03
338.736	6.15
339.108	5.96
339.479	5.95
339.851	6.33
340.222	5.83
340.593	5.89
340.964	5.94
341.336	5.96
341.707	6.35
342.078	5.91
342.449	6.37
342.82	5.96
343.191	5.72
343.562	6.22
343.933	6.24
344.303	6.04
344.674	5.93
345.045	6.12
345.416	6.08
345.786	6.01
346.157	5.96
346.527	6.04
346.898	6.38
347.268	5.79
347.639	5.89
348.009	6.6
348.38	5.86
348.75	5.83
349.12	6.33
349.49	6.26
349.861	6.38
350.231	6.79
350.601	6.22
350.971	6.03
351.341	6.38
351.711	6.18
352.081	6.12
352.45	6.05
352.82	6.08
353.19	6.24
353.56	6.33
353.929	6.28
354.299	5.76
354.669	6.22
355.038	6.28
355.408	6.93
355.777	6.13
356.147	6.43
356.516	6.51
356.885	6.24
357.254	6.69
357.624	6.36
357.993	6.18
358.362	6.29
358.731	6.28
359.1	6.54
359.469	6.46
359.838	6.25
360.207	6.08
360.576	6.34
360.945	6.17
361.314	6.55
361.682	5.95
362.051	6.34
362.42	6.73
362.788	6.28
363.157	6.03
363.525	5.95
363.894	5.95
364.262	6.15
364.631	7.05
364.999	6.14
365.367	6.44
365.735	6.02
366.104	6.15
366.472	6.25
366.84	6.18
367.208	5.84
367.576	6.4
367.944	6.63
368.312	6.17
368.68	6.48
369.048	6.41
369.416	6.33
369.783	6.55
370.151	6.52
370.519	6.43
370.886	6.35
371.254	6.65
371.621	6.24
371.989	6.46
372.356	6.44
372.724	6.28
373.091	6.52
373.458	6.2
373.826	6.36
374.193	6.68
374.56	6.26
374.927	6.46
375.294	6.76
375.661	6.51
376.028	6.6
376.395	6.62
376.762	6.81
377.129	6.87
377.496	6.64
377.863	6.37
378.229	6.56
378.596	6.39
378.963	6.55
379.329	6.52
379.696	6.74
380.062	6.99
380.429	6.51
380.795	6.63
381.161	6.64
381.528	6.19
381.894	6.76
382.26	6.59
382.626	6.64
382.993	6.26
383.359	6.54
383.725	6.62
384.091	6.58
384.457	6.61
384.823	6.77
385.188	6.93
385.554	6.42
385.92	6.71
386.286	6.8
386.651	6.62
387.017	6.67
387.383	6.81
387.748	6.62
388.114	6.81
388.479	6.69
388.845	6.63
389.21	6.76
389.575	6.89
389.94	6.74
390.306	6.85
390.671	6.95
391.036	6.81
391.401	6.89
391.766	6.77
392.131	6.62
392.496	6.75
392.861	6.58
393.226	6.89
393.591	6.61
393.956	7.01
394.32	6.91
394.685	6.87
395.05	6.85
395.414	6.85
395.779	6.77
396.143	6.99
396.508	7.06
396.872	7.03
397.236	6.74
397.601	7.1
397.965	6.48
398.329	7.01
398.694	6.6
399.058	6.91
399.422	7.13
399.786	6.83
400.15	6.91
400.514	6.91
400.878	6.97
401.242	7.16
401.605	6.95
401.969	6.81
402.333	6.83
402.697	7.25
403.06	7.09
403.424	6.91
403.787	7.19
404.151	6.98
404.514	7.06
404.878	7.2
405.241	7.06
405.604	6.92
405.968	6.78
406.331	6.87
406.694	7.01
407.057	7.21
407.42	6.91
407.783	7.08
408.146	6.94
408.509	6.93
408.872	6.97
409.235	7.09
409.598	7.03
409.961	6.95
410.323	6.94
410.686	6.98
411.049	6.85
411.411	7.19
411.774	7.08
412.136	7.18
412.499	7.02
412.861	6.91
413.223	7.16
413.586	6.91
413.948	7.21
414.31	7.15
414.672	6.95
415.035	7.38
415.397	7.12
415.759	7.04
416.121	7.07
416.483	7.01
416.845	7.15
417.206	7.13
417.568	7.04
417.93	6.98
418.292	7.23
418.653	7.07
419.015	7.26
419.377	7.21
419.738	6.88
420.1	7.09
420.461	7.07
420.822	7.22
421.184	7.1
421.545	7.1
421.906	7.11
422.267	6.91
422.629	7.06
422.99	7.04
423.351	7.15
423.712	7.05
424.073	7.23
424.434	7.1
424.795	6.98
425.155	7
425.516	7.03
425.877	7.13
426.238	7
426.598	7.17
426.959	7.15
427.32	7.31
427.68	7.32
428.041	7.26
428.401	7.16
428.761	7.29
429.122	7.27
429.482	7.2
429.842	7.36
430.202	7.29
430.563	7.33
430.923	7.46
431.283	7.36
431.643	7.43
432.003	7.39
432.363	7.27
432.722	7.26
433.082	7.39
433.442	7.28
433.802	7.32
434.161	7.23
434.521	7.25
434.881	7.33
435.24	7.41
435.6	7.37
435.959	7.43
436.319	7.37
436.678	7.48
437.037	7.46
437.396	7.43
437.756	7.37
438.115	7.43
438.474	7.5
438.833	7.49
439.192	7.6
439.551	7.51
439.91	7.49
440.269	7.6
440.628	7.38
440.987	7.45
441.345	7.39
441.704	7.45
442.063	7.48
442.421	7.4
442.78	7.41
443.138	7.5
443.497	7.46
443.855	7.51
444.214	7.52
444.572	7.5
444.93	7.64
445.288	7.64
445.647	7.59
446.005	7.49
446.363	7.52
446.721	7.39
447.079	7.47
447.437	7.39
447.795	7.36
448.153	7.44
448.51	7.51
448.868	7.57
449.226	7.54
449.584	7.5
449.941	7.59
450.299	7.68
450.656	7.66
451.014	7.66
451.371	7.67
451.729	7.62
452.086	7.61
452.443	7.51
452.801	7.78
453.158	7.69
453.515	7.75
453.872	7.82
454.229	7.64
454.586	7.77
454.943	7.8
455.3	7.86
455.657	7.68
456.014	7.88
456.371	7.94
456.727	7.83
457.084	7.77
457.441	7.92
457.797	7.8
458.154	7.94
458.51	7.85
458.867	7.77
459.223	7.82
459.58	7.78
459.936	8.01
460.292	7.81
460.648	7.73
461.005	7.54
461.361	7.59
461.717	7.77
462.073	7.9
462.429	7.99
462.785	7.88
463.141	7.96
463.496	7.89
463.852	8.05
464.208	7.87
464.564	7.87
464.919	7.98
465.275	8.02
465.631	7.95
465.986	7.98
466.342	7.96
466.697	7.99
467.052	8.12
467.408	8.08
467.763	7.8
468.118	8.13
468.473	8.09
468.829	8.02
469.184	8.06
469.539	8.05
469.894	8.26
470.249	8.31
470.603	8.11
470.958	8.12
471.313	7.95
471.668	8.2
472.023	8.38
472.377	8.11
472.732	7.94
473.086	8.08
473.441	8.14
473.795	8.4
474.15	8.1
474.504	8.23
474.859	8.26
475.213	8.06
475.567	8.21
475.921	8.37
476.275	8.24
476.63	8.1
476.984	8.16
477.338	8.61
477.692	8.28
478.045	8.09
478.399	8.4
478.753	8.04
479.107	8.27
479.461	8.34
479.814	8.23
480.168	8.25
480.521	8.29
480.875	8.41
481.228	8.35
481.582	8.21
481.935	8.19
482.289	8.22
482.642	8.17
482.995	8.11
483.348	8.14
483.701	8.16
484.055	8.02
484.408	8.02
484.761	7.85
485.114	7.73
485.466	7.73
485.819	7.85
486.172	8
486.525	8.13
486.878	8.12
487.23	8.15
487.583	8.12
487.936	8.13
488.288	8.05
488.641	7.97
488.993	7.98
489.345	7.98
489.698	8.02
490.05	8.09
490.402	8.25
490.754	8.35
491.107	8.32
491.459	8.42
491.811	8.39
492.163	8.37
492.515	8.27
492.866	8.06
493.218	8.06
493.57	8.21
493.922	8.32
494.274	8.45
494.625	8.46
494.977	8.56
495.328	8.73
495.68	8.78
496.031	8.63
496.383	8.57
496.734	8.72
497.086	8.56
497.437	8.69
497.788	8.57
498.139	8.62
498.49	8.65
498.842	8.65
499.193	8.72
499.544	8.66
499.894	8.63
500.245	8.65
500.596	8.78
500.947	8.67
501.298	8.76
501.648	8.85
501.999	8.87
502.35	8.97
502.7	9.05
503.051	8.86
503.401	8.92
503.752	8.89
504.102	8.82
504.452	8.77
504.803	8.84
505.153	8.92
505.503	8.79
505.853	8.91
506.203	8.95
506.553	8.89
506.903	8.93
507.253	8.99
507.603	8.96
507.953	8.99
508.303	9
508.652	8.98
509.002	8.94
509.352	8.93
509.701	9.01
510.051	8.97
510.4	9.02
510.75	9.01
511.099	9.03
511.449	8.96
511.798	9.19
512.147	9.14
512.496	9.13
512.846	9.09
513.195	9.13
513.544	9.09
513.893	9.02
514.242	9.21
514.591	9.12
514.939	9.24
515.288	9.4
515.637	9.28
515.986	9.21
516.334	9.33
516.683	9.2
517.032	9.26
517.38	9.33
517.729	9.19
518.077	9.34
518.426	9.29
518.774	9.33
519.122	9.14
519.47	9.16
519.819	9.27
520.167	9.22
520.515	9.21
520.863	9.29
521.211	9.36
521.559	9.35
521.907	9.34
522.255	9.54
522.602	9.46
522.95	9.5
523.298	9.5
523.645	9.47
523.993	9.59
524.341	9.46
524.688	9.39
525.036	9.7
525.383	9.62
525.73	9.58
526.078	9.66
526.425	9.46
526.772	9.43
527.119	9.39
527.466	9.48
527.814	9.45
528.161	9.56
528.508	9.61
528.854	9.44
529.201	9.36
529.548	9.23
529.895	9.17
530.242	9.25
530.588	9.34
530.935	9.41
531.282	9.51
531.628	9.55
531.975	9.68
532.321	9.81
532.667	9.83
533.014	9.8
533.36	9.75
533.706	9.69
534.052	9.71
534.399	9.65
534.745	9.55
535.091	9.67
535.437	9.69
535.783	9.91
536.129	9.92
536.474	9.97
536.82	9.95
537.166	9.92
537.512	10.03
537.857	9.98
538.203	9.96
538.549	9.98
538.894	10.04
539.239	10.17
539.585	10.23
539.93	10.26
540.276	10.23
540.621	10.26
540.966	10.24
541.311	10.25
541.656	10.11
542.001	10.11
542.346	9.94
542.691	9.95
543.036	9.98
543.381	10.08
543.726	10.11
544.071	10.24
544.415	10.26
544.76	10.16
545.105	10.33
545.449	10.38
545.794	10.41
546.138	10.55
546.483	10.53
546.827	10.65
547.171	10.46
547.516	10.59
547.86	10.56
548.204	10.57
548.548	10.64
548.892	10.55
549.236	10.73
549.58	10.75
549.924	10.8
550.268	10.88
550.612	10.84
550.956	10.82
551.3	10.7
551.643	10.9
551.987	10.93
552.33	10.9
552.674	10.97
553.017	11.13
553.361	11.03
553.704	10.96
554.048	11.04
554.391	11.01
554.734	11.01
555.077	11.14
555.42	11.18
555.764	11.27
556.107	11.22
556.45	11.15
556.793	11.46
557.135	11.57
557.478	11.55
557.821	11.25
558.164	11.26
558.507	11.17
558.849	11.38
559.192	11.57
559.534	11.49
559.877	11.49
560.219	11.59
560.562	11.58
560.904	11.49
561.246	11.47
561.589	11.84
561.931	11.82
562.273	11.74
562.615	11.8
562.957	11.77
563.299	11.79
563.641	11.8
563.983	11.85
564.325	11.62
564.667	11.83
565.008	11.83
565.35	12.07
565.692	11.98
566.033	11.78
566.375	11.77
566.716	11.92
567.058	12.15
567.399	12.01
567.741	12
568.082	11.8
568.423	11.97
568.764	12.03
569.105	12.12
569.447	12.01
569.788	12.25
570.129	12.02
570.47	12.34
570.811	12.26
571.151	12.26
571.492	12.46
571.833	12.31
572.174	12.19
572.514	12.15
572.855	12.37
573.195	12.18
573.536	12.24
573.876	12.33
574.217	12.47
574.557	12.55
574.898	12.3
575.238	12.35
575.578	12.65
575.918	12.54
576.258	12.54
576.598	12.51
576.938	12.57
577.278	12.57
577.618	12.61
577.958	12.64
578.298	12.93
578.638	12.77
578.977	12.96
579.317	13.05
579.657	12.9
579.996	12.97
580.336	12.9
580.675	12.95
581.014	13.03
581.354	12.94
581.693	12.89
582.032	13.04
582.372	13.09
582.711	13.09
583.05	13.23
583.389	13.28
583.728	13.45
584.067	13.32
584.406	13.33
584.745	13.35
585.083	13.4
585.422	13.45
585.761	13.61
586.1	13.62
586.438	13.76
586.777	13.66
587.115	13.63
587.454	13.56
587.792	13.53
588.13	13.82
588.469	13.73
588.807	13.79
589.145	13.85
589.483	13.76
589.821	13.61
590.159	13.71
590.497	13.41
590.835	13.69
591.173	14.01
591.511	13.84
591.849	13.94
592.187	13.66
592.524	13.77
592.862	13.98
593.2	14.06
593.537	13.95
593.875	14.02
594.212	14.01
594.55	14.01
594.887	14.2
595.224	13.91
595.561	14.31
595.899	14.1
596.236	14.28
596.573	14.03
596.91	14.37
597.247	13.92
597.584	14.26
597.921	14.29
598.258	14.15
598.594	14.36
598.931	14.24
599.268	14.44
599.604	14.52
599.941	14.39
600.277	14.68
600.614	14.4
600.95	14.7
601.287	14.6
601.623	14.71
601.959	14.63
602.296	14.86
602.632	14.93
602.968	14.81
603.304	14.8
603.64	14.7
603.976	14.92
604.312	15.06
604.648	14.93
604.984	14.76
605.319	14.77
605.655	14.75
605.991	14.89
606.326	14.75
606.662	14.8
606.998	15.03
607.333	14.79
607.668	14.83
608.004	15.01
608.339	15.24
608.674	15.17
609.01	15.51
609.345	15.35
609.68	15.23
610.015	15.44
610.35	15.19
610.685	15.25
611.02	15.42
611.355	15.37
611.689	15.27
612.024	15.46
612.359	15.63
612.694	15.66
613.028	15.62
613.363	15.48
613.697	15.59
614.032	15.89
614.366	15.51
614.7	15.93
615.035	15.62
615.369	15.8
615.703	15.88
616.037	15.72
616.371	15.58
616.705	16.12
617.039	16.18
617.373	15.83
617.707	15.76
618.041	16.21
618.375	15.87
618.709	16.22
619.042	16.02
619.376	15.9
619.71	16.16
620.043	16.19
620.377	16.2
620.71	16.21
621.043	15.83
621.377	16.07
621.71	16.3
622.043	16.51
622.376	16.12
622.709	16.46
623.043	16.07
623.376	16.53
623.709	16.67
624.041	16.66
624.374	16.67
624.707	16.72
625.04	16.51
625.373	16.5
625.705	16.83
626.038	16.52
626.37	16.88
626.703	16.51
627.035	17.25
627.368	16.99
627.7	16.94
628.032	16.71
628.365	16.58
628.697	16.78
629.029	16.96
629.361	16.82
629.693	17.33
630.025	17.03
630.357	16.91
630.689	17.45
631.021	17.33
631.353	16.99
631.684	17.27
632.016	17.23
632.348	17.2
632.679	17.23
633.011	16.95
633.342	17.23
633.674	17.29
634.005	17.2
634.336	17.53
634.668	17.18
634.999	17.51
635.33	17.28
635.661	17.36
635.992	17.45
636.323	17.43
636.654	17.2
636.985	17.32
637.316	17.38
637.647	17.75
637.977	17.79
638.308	17.55
638.639	17.93
638.969	17.35
639.3	17.61
639.63	17.37
639.961	17.84
640.291	17.87
640.622	17.72
640.952	17.38
641.282	17.6
641.612	17.99
641.943	17.63
642.273	17.78
642.603	17.9
642.933	17.63
643.263	18.2
643.592	18.24
643.922	18.62
644.252	18.05
644.582	18.36
644.911	18.12
645.241	18
645.571	18.42
645.9	18.61
646.23	18.22
646.559	17.98
646.888	18.08
647.218	18.06
647.547	18.25
647.876	18.66
648.205	18.46
648.534	18.37
648.863	18.85
649.192	18.06
649.521	18.27
649.85	19.48
650.179	18.51
650.508	18.99
650.837	19.06
651.165	18.91
651.494	18.27
651.822	18.46
652.151	18.94
652.479	19.04
652.808	18.58
653.136	18.97
653.465	19.05
653.793	18.98
654.121	18.76
654.449	18.71
654.777	19
655.105	18.67
655.433	19.29
655.761	19.09
656.089	19.08
656.417	19.03
656.745	19.41
657.073	19.25
657.4	18.71
657.728	18.88
658.056	19.15
658.383	19.13
658.711	19.05
659.038	19.3
659.365	18.94
659.693	18.86
660.02	19.2
660.347	18.95
660.674	19.23
661.001	18.87
661.329	18.9
661.656	19.15
661.982	19.63
662.309	19.19
662.636	19.28
662.963	19.55
663.29	19.9
663.616	19.42
663.943	20.02
664.27	19.38
664.596	19.35
664.923	20.19
665.249	19.66
665.576	19.51
665.902	19.53
666.228	19.22
666.554	19.47
666.881	19.84
667.207	20
667.533	20.02
667.859	19.7
668.185	19.71
668.511	19.43
668.837	19.6
669.162	19.96
669.488	20.05
669.814	20.35
670.139	20.25
670.465	20.11
670.791	20.23
671.116	19.64
671.442	20.55
671.767	20.26
672.092	20.38
672.418	20.38
672.743	20.12
673.068	20.16
673.393	19.75
673.718	19.77
674.043	20.19
674.368	20.66
674.693	20.79
675.018	20.34
675.343	20.52
675.667	20.76
675.992	19.84
676.317	20.53
676.641	20.67
676.966	20.14
677.29	20.36
677.615	20.61
677.939	20.12
678.264	20.85
678.588	20.52
678.912	21.38
679.236	21.05
679.56	20.6
679.885	20.09
680.209	20.53
680.532	19.9
680.856	21.06
681.18	20.49
681.504	21.05
681.828	20.78
682.152	20.93
682.475	20.94
