Data from 0052_crown_Reflection__2__69.txt Node

Date: Fri Dec 16 14:26:11 CST 2022
User: ToomeyLab
Spectrometer: FLMS14357
Trigger mode: 0
Integration Time (sec): 1.000000E-2
Scans to average: 100
Electric dark correction enabled: true
Nonlinearity correction enabled: false
Boxcar width: 0
XAxis mode: Wavelengths
Number of Pixels in Spectrum: 2048
>>>>>Begin Spectral Data<<<<<
189.047	169.78
189.435	169.78
189.823	169.78
190.211	0.4
190.599	-89.06
190.987	-39.21
191.375	127.37
191.763	262.77
192.151	-100.45
192.538	-236.09
192.926	60.2
193.314	149.53
193.702	-296.31
194.089	48.25
194.477	84.36
194.864	-116.13
195.252	-57.89
195.639	188.63
196.027	-77.39
196.414	127.9
196.801	-282.67
197.189	237.02
197.576	-8.88
197.963	7.73
198.351	22.43
198.738	21.01
199.125	7.86
199.512	-6.48
199.899	-16.8
200.286	-30.94
200.673	13.34
201.06	44.9
201.447	68.14
201.833	-30.3
202.22	35.9
202.607	23.95
202.994	8.3
203.38	2.02
203.767	-18.48
204.154	-2.47
204.54	21.58
204.927	38
205.313	20.75
205.699	25.02
206.086	5.5
206.472	23.12
206.858	37.77
207.245	21.47
207.631	-8.92
208.017	51.19
208.403	31.6
208.789	-10.82
209.175	37.15
209.561	-2.9
209.947	-19.69
210.333	-4.21
210.719	22.73
211.105	-14.54
211.491	17.1
211.876	44.64
212.262	-31.03
212.648	-12.75
213.034	1.51
213.419	10.88
213.805	26.19
214.19	21.9
214.576	-22.32
214.961	20.87
215.346	2.87
215.732	-17.13
216.117	1.93
216.502	-4.47
216.888	8.12
217.273	20.45
217.658	18.56
218.043	1.45
218.428	15.91
218.813	30.74
219.198	11.56
219.583	-4.46
219.968	-20.87
220.353	7.17
220.738	-1.56
221.122	8.94
221.507	0.34
221.892	5.6
222.276	7.05
222.661	-5.33
223.046	10.84
223.43	-1.86
223.815	5.39
224.199	16.73
224.583	6.76
224.968	5.15
225.352	3.75
225.736	11.82
226.121	5.75
226.505	13.27
226.889	11.45
227.273	8.32
227.657	9.86
228.041	8.49
228.425	9.75
228.809	9.71
229.193	9.64
229.577	9.69
229.961	9.76
230.344	10.6
230.728	10.23
231.112	10.08
231.495	9.51
231.879	7.53
232.263	8.69
232.646	10.15
233.03	7.19
233.413	8.65
233.797	11.12
234.18	7.61
234.563	9.28
234.946	9.56
235.33	9.38
235.713	8.74
236.096	9.4
236.479	9.17
236.862	10.25
237.245	11.63
237.628	12.45
238.011	10.05
238.394	11.41
238.777	10.45
239.16	8.11
239.543	9.7
239.925	9.63
240.308	9.34
240.691	8.18
241.073	8.75
241.456	10.06
241.838	10.22
242.221	9.49
242.603	9.79
242.986	9.84
243.368	9.42
243.75	9.08
244.133	9.49
244.515	9.52
244.897	9.49
245.279	9.59
245.661	8.93
246.043	9.66
246.425	9.51
246.807	9.19
247.189	9.2
247.571	9.23
247.953	9.36
248.335	9.28
248.717	9.22
249.098	9.12
249.48	8.92
249.862	9.14
250.243	8.86
250.625	9.31
251.006	8.92
251.388	9.65
251.769	9.68
252.151	8.23
252.532	9.44
252.913	9.44
253.295	8.7
253.676	9.32
254.057	8.59
254.438	8.76
254.819	9.88
255.2	8.29
255.581	8.48
255.962	8.53
256.343	8.18
256.724	8.79
257.105	8.72
257.486	9.07
257.867	7.5
258.247	8.86
258.628	9.75
259.009	8.79
259.389	8.71
259.77	8.77
260.15	9.01
260.531	8.34
260.911	8.64
261.292	8.38
261.672	8.38
262.052	8.16
262.432	8.16
262.813	8.42
263.193	7.83
263.573	8.51
263.953	7.96
264.333	8.38
264.713	7.99
265.093	7.73
265.473	9.07
265.853	8.06
266.233	8.53
266.612	8.9
266.992	8.14
267.372	7.96
267.752	8.2
268.131	7.96
268.511	7.81
268.89	8.56
269.27	7.64
269.649	8.3
270.029	8.14
270.408	8.29
270.787	7.54
271.167	7.92
271.546	7.44
271.925	7.81
272.304	8.14
272.683	7.86
273.062	8.07
273.441	7.96
273.82	8.21
274.199	7.71
274.578	7.63
274.957	7.86
275.336	7.39
275.715	8.2
276.093	8.27
276.472	7.71
276.851	7.6
277.229	8.2
277.608	7.86
277.986	7.48
278.365	7.31
278.743	7.61
279.122	6.81
279.5	7.12
279.878	6.95
280.257	7.56
280.635	7.6
281.013	7.73
281.391	7.42
281.769	6.92
282.147	7.27
282.525	7.23
282.903	7.29
283.281	7.42
283.659	7.5
284.037	7.15
284.415	7.57
284.792	7.48
285.17	7.3
285.548	7.24
285.925	7.35
286.303	7.21
286.68	7.52
287.058	7.25
287.435	6.89
287.813	7.01
288.19	7.29
288.567	7.14
288.945	7.37
289.322	7.41
289.699	7.02
290.076	7.68
290.453	6.92
290.83	7.14
291.207	6.95
291.584	6.71
291.961	6.89
292.338	6.96
292.715	6.99
293.092	6.93
293.469	7.55
293.845	7.34
294.222	6.96
294.599	7.34
294.975	6.85
295.352	6.88
295.728	7.13
296.105	6.88
296.481	7.14
296.858	7.43
297.234	7.17
297.61	6.58
297.986	6.84
298.363	6.41
298.739	6.75
299.115	6.25
299.491	6.69
299.867	6.65
300.243	6.48
300.619	6.7
300.995	6.72
301.371	6.84
301.746	6.24
302.122	6.9
302.498	6.48
302.874	6.28
303.249	6.76
303.625	6.6
304	6.64
304.376	6.74
304.751	6.13
305.127	6.26
305.502	6.67
305.878	6.05
306.253	6.28
306.628	6.41
307.003	6.15
307.378	6.05
307.754	6.57
308.129	6.3
308.504	6.6
308.879	6.54
309.254	6.07
309.629	6.54
310.003	6.77
310.378	6.25
310.753	6.66
311.128	5.99
311.502	6.27
311.877	6.07
312.252	5.97
312.626	6.11
313.001	6.13
313.375	6.35
313.75	6.3
314.124	6.49
314.498	5.91
314.873	6.11
315.247	6.24
315.621	6.31
315.995	5.97
316.369	6.35
316.743	6.72
317.117	6.09
317.491	6.24
317.865	5.41
318.239	6.67
318.613	5.71
318.987	5.93
319.361	5.84
319.734	5.89
320.108	5.86
320.482	5.51
320.855	5.73
321.229	6.39
321.602	6.06
321.976	5.53
322.349	5.53
322.723	6.1
323.096	5.77
323.469	5.51
323.843	5.94
324.216	5.72
324.589	6.33
324.962	5.84
325.335	6.22
325.708	6.25
326.081	6.75
326.454	5.63
326.827	5.95
327.2	6.09
327.573	6.11
327.945	6.28
328.318	6.37
328.691	5.81
329.063	5.92
329.436	6.07
329.809	5.52
330.181	5.72
330.553	5.94
330.926	6.16
331.298	5.73
331.671	6.05
332.043	5.55
332.415	6.24
332.787	6.17
333.159	6.21
333.532	5.94
333.904	6.01
334.276	6.15
334.648	6.3
335.02	5.85
335.391	6.02
335.763	6.11
336.135	5.98
336.507	5.98
336.879	5.94
337.25	6.05
337.622	5.88
337.993	6
338.365	6.67
338.736	6.19
339.108	5.95
339.479	5.73
339.851	6.37
340.222	6.39
340.593	6.02
340.964	6.04
341.336	5.79
341.707	5.7
342.078	5.4
342.449	5.97
342.82	5.8
343.191	5.77
343.562	5.82
343.933	6.24
344.303	6.1
344.674	6.31
345.045	6.36
345.416	5.96
345.786	5.59
346.157	5.93
346.527	5.73
346.898	5.85
347.268	5.83
347.639	5.63
348.009	6.08
348.38	5.83
348.75	6.02
349.12	6.16
349.49	5.88
349.861	6.06
350.231	6.67
350.601	6.32
350.971	6.11
351.341	6.57
351.711	6.11
352.081	6.08
352.45	6.11
352.82	6.27
353.19	6.14
353.56	6.3
353.929	6.1
354.299	5.98
354.669	6.4
355.038	6.31
355.408	6.77
355.777	6.11
356.147	6.79
356.516	6.51
356.885	6.23
357.254	6.14
357.624	6.3
357.993	6.21
358.362	6.37
358.731	6.25
359.1	6.41
359.469	6.45
359.838	6.07
360.207	6.16
360.576	6.35
360.945	6.42
361.314	6.69
361.682	5.78
362.051	6.35
362.42	6.41
362.788	6.35
363.157	6.2
363.525	6.01
363.894	5.97
364.262	6.16
364.631	7.04
364.999	6.07
365.367	6.59
365.735	5.94
366.104	6.13
366.472	6.4
366.84	6.66
367.208	6.34
367.576	6.55
367.944	6.59
368.312	6.31
368.68	6.34
369.048	6.45
369.416	6.32
369.783	6.59
370.151	6.58
370.519	6.49
370.886	6.54
371.254	6.82
371.621	6.47
371.989	6.68
372.356	6.84
372.724	6.53
373.091	6.59
373.458	6.57
373.826	6.6
374.193	6.71
374.56	6.49
374.927	6.76
375.294	6.87
375.661	6.84
376.028	6.7
376.395	6.7
376.762	6.82
377.129	6.86
377.496	6.45
377.863	6.97
378.229	6.58
378.596	6.56
378.963	6.85
379.329	6.83
379.696	6.67
380.062	6.87
380.429	6.75
380.795	6.9
381.161	6.63
381.528	6.69
381.894	7.04
382.26	6.79
382.626	6.8
382.993	6.52
383.359	6.81
383.725	6.97
384.091	6.65
384.457	7.05
384.823	7.08
385.188	6.98
385.554	6.81
385.92	7.08
386.286	7.26
386.651	6.97
387.017	7.07
387.383	7.15
387.748	6.85
388.114	7.15
388.479	7.02
388.845	6.78
389.21	7.19
389.575	7.22
389.94	7.01
390.306	7.1
390.671	7.19
391.036	7.14
391.401	7.57
391.766	7
392.131	6.89
392.496	7.01
392.861	7.03
393.226	7.07
393.591	7.42
393.956	7.19
394.32	6.94
394.685	7.29
395.05	6.85
395.414	7.14
395.779	7.04
396.143	7.27
396.508	7.39
396.872	7.33
397.236	7.07
397.601	7.36
397.965	7.06
398.329	7.21
398.694	7.3
399.058	7.45
399.422	7.53
399.786	7.53
400.15	7.47
400.514	7.3
400.878	7.19
401.242	7.4
401.605	7.2
401.969	7.45
402.333	7.38
402.697	7.64
403.06	7.66
403.424	7.62
403.787	7.69
404.151	7.4
404.514	7.34
404.878	7.4
405.241	7.36
405.604	7.62
405.968	7.54
406.331	7.36
406.694	7.25
407.057	7.7
407.42	7.39
407.783	7.33
408.146	7.63
408.509	7.48
408.872	7.36
409.235	7.43
409.598	7.62
409.961	7.6
410.323	7.76
410.686	7.72
411.049	7.47
411.411	7.7
411.774	7.46
412.136	7.45
412.499	7.43
412.861	7.48
413.223	7.92
413.586	7.4
413.948	7.69
414.31	7.81
414.672	7.53
415.035	7.64
415.397	7.76
415.759	7.48
416.121	7.78
416.483	7.65
416.845	7.67
417.206	7.6
417.568	7.87
417.93	7.73
418.292	7.84
418.653	7.65
419.015	7.75
419.377	7.81
419.738	7.62
420.1	7.58
420.461	7.58
420.822	7.55
421.184	7.59
421.545	7.65
421.906	7.76
422.267	7.46
422.629	7.64
422.99	7.54
423.351	7.57
423.712	7.65
424.073	7.7
424.434	7.68
424.795	7.67
425.155	7.63
425.516	7.65
425.877	7.59
426.238	7.59
426.598	7.8
426.959	7.56
427.32	7.71
427.68	7.83
428.041	7.88
428.401	7.84
428.761	7.75
429.122	7.88
429.482	7.78
429.842	7.99
430.202	7.8
430.563	7.77
430.923	7.89
431.283	8.04
431.643	7.96
432.003	8.01
432.363	8.16
432.722	8.15
433.082	7.87
433.442	7.88
433.802	8.01
434.161	7.97
434.521	7.84
434.881	7.89
435.24	7.87
435.6	7.93
435.959	7.92
436.319	7.92
436.678	7.89
437.037	8.13
437.396	7.99
437.756	7.93
438.115	8.14
438.474	7.95
438.833	8.05
439.192	8.24
439.551	8.03
439.91	8.1
440.269	8.28
440.628	8
440.987	7.9
441.345	7.98
441.704	8.06
442.063	7.93
442.421	7.99
442.78	8
443.138	8.05
443.497	7.97
443.855	7.89
444.214	8.1
444.572	8.11
444.93	8.13
445.288	8.22
445.647	8.14
446.005	8.09
446.363	8.07
446.721	7.96
447.079	8.09
447.437	8.02
447.795	7.98
448.153	7.94
448.51	7.97
448.868	8.11
449.226	7.94
449.584	8.15
449.941	8.17
450.299	8.09
450.656	8.29
451.014	8.14
451.371	8.32
451.729	8.21
452.086	8.09
452.443	8.13
452.801	8.27
453.158	8.23
453.515	8.15
453.872	8.26
454.229	8.21
454.586	8.29
454.943	8.21
455.3	8.5
455.657	8.27
456.014	8.42
456.371	8.4
456.727	8.15
457.084	8.28
457.441	8.23
457.797	8.41
458.154	8.4
458.51	8.3
458.867	8.18
459.223	8.37
459.58	8.3
459.936	8.2
460.292	8.39
460.648	8.23
461.005	8.21
461.361	8.16
461.717	8.13
462.073	8.21
462.429	8.23
462.785	8.21
463.141	8.35
463.496	8.27
463.852	8.4
464.208	8.25
464.564	8.38
464.919	8.28
465.275	8.4
465.631	8.33
465.986	8.19
466.342	8.42
466.697	8.27
467.052	8.52
467.408	8.43
467.763	8.28
468.118	8.41
468.473	8.56
468.829	8.4
469.184	8.54
469.539	8.29
469.894	8.38
470.249	8.24
470.603	8.43
470.958	8.51
471.313	8.53
471.668	8.46
472.023	8.69
472.377	8.45
472.732	8.37
473.086	8.31
473.441	8.58
473.795	8.68
474.15	8.31
474.504	8.4
474.859	8.4
475.213	8.46
475.567	8.51
475.921	8.61
476.275	8.5
476.63	8.55
476.984	8.4
477.338	8.63
477.692	8.35
478.045	8.46
478.399	8.57
478.753	8.43
479.107	8.38
479.461	8.42
479.814	8.36
480.168	8.55
480.521	8.38
480.875	8.61
481.228	8.59
481.582	8.36
481.935	8.41
482.289	8.41
482.642	8.44
482.995	8.46
483.348	8.39
483.701	8.33
484.055	8.32
484.408	8.26
484.761	8.15
485.114	8.1
485.466	8.03
485.819	7.97
486.172	7.95
486.525	8.04
486.878	8.06
487.23	8.3
487.583	8.2
487.936	8.24
488.288	8.26
488.641	8.22
488.993	8.08
489.345	8.09
489.698	8.12
490.05	8.07
490.402	8.19
490.754	8.29
491.107	8.36
491.459	8.35
491.811	8.44
492.163	8.45
492.515	8.3
492.866	8.17
493.218	8.17
493.57	8.14
493.922	8.13
494.274	8.27
494.625	8.19
494.977	8.32
495.328	8.48
495.68	8.64
496.031	8.57
496.383	8.5
496.734	8.56
497.086	8.54
497.437	8.62
497.788	8.49
498.139	8.51
498.49	8.47
498.842	8.44
499.193	8.38
499.544	8.45
499.894	8.51
500.245	8.48
500.596	8.5
500.947	8.37
501.298	8.46
501.648	8.47
501.999	8.67
502.35	8.62
502.7	8.48
503.051	8.7
503.401	8.54
503.752	8.44
504.102	8.55
504.452	8.47
504.803	8.53
505.153	8.44
505.503	8.47
505.853	8.4
506.203	8.46
506.553	8.6
506.903	8.44
507.253	8.46
507.603	8.44
507.953	8.48
508.303	8.6
508.652	8.59
509.002	8.52
509.352	8.52
509.701	8.47
510.051	8.5
510.4	8.47
510.75	8.43
511.099	8.38
511.449	8.41
511.798	8.49
512.147	8.51
512.496	8.48
512.846	8.4
513.195	8.48
513.544	8.33
513.893	8.3
514.242	8.54
514.591	8.47
514.939	8.43
515.288	8.46
515.637	8.59
515.986	8.51
516.334	8.61
516.683	8.47
517.032	8.45
517.38	8.52
517.729	8.44
518.077	8.59
518.426	8.45
518.774	8.44
519.122	8.34
519.47	8.43
519.819	8.4
520.167	8.36
520.515	8.26
520.863	8.28
521.211	8.29
521.559	8.31
521.907	8.34
522.255	8.42
522.602	8.36
522.95	8.51
523.298	8.33
523.645	8.44
523.993	8.59
524.341	8.47
524.688	8.52
525.036	8.52
525.383	8.43
525.73	8.45
526.078	8.47
526.425	8.35
526.772	8.19
527.119	8.27
527.466	8.23
527.814	8.23
528.161	8.29
528.508	8.18
528.854	8.26
529.201	8.33
529.548	8.18
529.895	8.07
530.242	8
530.588	8.03
530.935	7.95
531.282	7.9
531.628	8.02
531.975	8.06
532.321	8.15
532.667	8.24
533.014	8.2
533.36	8.23
533.706	8.24
534.052	8.11
534.399	8.11
534.745	8.06
535.091	8.08
535.437	8.09
535.783	8.1
536.129	8.11
536.474	8.24
536.82	8.17
537.166	8.33
537.512	8.19
537.857	8.27
538.203	8.19
538.549	8.23
538.894	8.22
539.239	8.31
539.585	8.28
539.93	8.29
540.276	8.38
540.621	8.34
540.966	8.3
541.311	8.3
541.656	8.18
542.001	8.27
542.346	8.18
542.691	8.06
543.036	8.01
543.381	8.02
543.726	7.98
544.071	8
544.415	8.05
544.76	7.98
545.105	8.15
545.449	8.06
545.794	8.1
546.138	8.17
546.483	8.18
546.827	8.21
547.171	8.17
547.516	8.33
547.86	8.2
548.204	8.15
548.548	8.31
548.892	8.21
549.236	8.16
549.58	8.19
549.924	8.13
550.268	8.25
550.612	8.28
550.956	8.28
551.3	8.2
551.643	8.27
551.987	8.29
552.33	8.28
552.674	8.41
553.017	8.39
553.361	8.35
553.704	7.99
554.048	8.14
554.391	8.24
554.734	8.25
555.077	8.16
555.42	8.17
555.764	8.09
556.107	8.16
556.45	8.23
556.793	8.3
557.135	8.46
557.478	8.25
557.821	8.26
558.164	8.22
558.507	8.35
558.849	8.22
559.192	8.31
559.534	8.16
559.877	8.26
560.219	8.47
560.562	8.19
560.904	8.17
561.246	8.34
561.589	8.22
561.931	8.33
562.273	8.12
562.615	8.16
562.957	8.25
563.299	8.24
563.641	8.28
563.983	8.04
564.325	7.97
564.667	8.09
565.008	7.98
565.35	8.28
565.692	8.32
566.033	8.19
566.375	7.99
566.716	8.19
567.058	8.24
567.399	8.24
567.741	8.17
568.082	8.06
568.423	7.93
568.764	8.2
569.105	8
569.447	8.01
569.788	7.93
570.129	8.07
570.47	8.26
570.811	8.06
571.151	8.04
571.492	8.23
571.833	8.12
572.174	7.96
572.514	7.7
572.855	8.13
573.195	7.99
573.536	7.98
573.876	7.91
574.217	7.97
574.557	8.12
574.898	7.84
575.238	7.87
575.578	7.89
575.918	7.94
576.258	7.99
576.598	8.09
576.938	8.11
577.278	7.96
577.618	7.94
577.958	7.81
578.298	8.23
578.638	7.89
578.977	8.03
579.317	8.04
579.657	7.92
579.996	7.98
580.336	7.97
580.675	7.92
581.014	8
581.354	8.03
581.693	7.95
582.032	7.99
582.372	7.99
582.711	8.04
583.05	8.11
583.389	8.19
583.728	8.12
584.067	7.68
584.406	7.98
584.745	7.92
585.083	8.06
585.422	7.92
585.761	7.64
586.1	8.03
586.438	8
586.777	7.95
587.115	7.93
587.454	7.79
587.792	7.86
588.13	8.23
588.469	7.89
588.807	7.97
589.145	7.9
589.483	7.68
589.821	7.88
590.159	7.83
590.497	7.74
590.835	7.94
591.173	7.83
591.511	8.04
591.849	7.72
592.187	7.71
592.524	7.81
592.862	7.75
593.2	7.82
593.537	7.95
593.875	7.77
594.212	7.97
594.55	7.84
594.887	7.82
595.224	7.77
595.561	7.8
595.899	7.78
596.236	7.8
596.573	7.73
596.91	7.91
597.247	7.67
597.584	7.81
597.921	7.72
598.258	7.81
598.594	7.53
598.931	7.75
599.268	7.67
599.604	7.76
599.941	7.66
600.277	7.56
600.614	7.82
600.95	7.8
601.287	7.9
601.623	7.87
601.959	7.76
602.296	7.76
602.632	7.96
602.968	7.71
603.304	7.55
603.64	7.56
603.976	7.71
604.312	7.73
604.648	7.92
604.984	7.64
605.319	7.66
605.655	7.8
605.991	7.75
606.326	7.57
606.662	7.43
606.998	7.58
607.333	7.57
607.668	7.55
608.004	7.65
608.339	7.41
608.674	7.56
609.01	7.66
609.345	7.84
609.68	7.28
610.015	7.54
610.35	7.56
610.685	7.54
611.02	7.77
611.355	7.77
611.689	7.48
612.024	7.77
612.359	7.61
612.694	7.95
613.028	7.75
613.363	7.45
613.697	7.42
614.032	7.59
614.366	7.45
614.7	7.52
615.035	7.37
615.369	7.61
615.703	7.64
616.037	7.6
616.371	7.7
616.705	7.46
617.039	7.77
617.373	7.55
617.707	7.25
618.041	7.75
618.375	7.28
618.709	7.48
619.042	7.56
619.376	7.31
619.71	7.36
620.043	7.62
620.377	7.35
620.71	7.6
621.043	7.26
621.377	7.32
621.71	7.65
622.043	7.45
622.376	7.51
622.709	8.03
623.043	7.54
623.376	7.62
623.709	7.78
624.041	7.25
624.374	7.54
624.707	7.29
625.04	7.44
625.373	7.39
625.705	7.6
626.038	7.43
626.37	7.62
626.703	7.6
627.035	7.78
627.368	7.8
627.7	7.53
628.032	7.46
628.365	7.36
628.697	7.36
629.029	7.57
629.361	7.44
629.693	7.72
630.025	7.29
630.357	7.67
630.689	7.8
631.021	7.44
631.353	7.44
631.684	7.55
632.016	7.26
632.348	7.11
632.679	7.68
633.011	7.49
633.342	7.62
633.674	7.48
634.005	7.57
634.336	7.45
634.668	7.44
634.999	7.47
635.33	7.43
635.661	7.22
635.992	7.29
636.323	7.43
636.654	7.25
636.985	7.27
637.316	7.45
637.647	7.16
637.977	7.24
638.308	7.4
638.639	7.33
638.969	7.21
639.3	7.62
639.63	7.49
639.961	6.95
640.291	7.59
640.622	7.28
640.952	7.46
641.282	6.92
641.612	7.48
641.943	7.79
642.273	7.37
642.603	7.18
642.933	7.25
643.263	7.43
643.592	7.64
643.922	7.67
644.252	7.35
644.582	7.53
644.911	7.55
645.241	7.33
645.571	7.22
645.9	7.7
646.23	7.9
646.559	7.47
646.888	7.1
647.218	7.67
647.547	7.08
647.876	7.63
648.205	7.09
648.534	7.26
648.863	7.51
649.192	7.28
649.521	7.17
649.85	7.61
650.179	7.2
650.508	7.07
650.837	7.45
651.165	7.5
651.494	7.72
651.822	7.02
652.151	7.34
652.479	7.5
652.808	6.91
653.136	7.14
653.465	7.47
653.793	7.56
654.121	7.84
654.449	7.27
654.777	7.22
655.105	7.4
655.433	7.37
655.761	6.95
656.089	7.48
656.417	7.13
656.745	7.72
657.073	7.99
657.4	7.52
657.728	7.16
658.056	7.5
658.383	7.54
658.711	6.93
659.038	7.38
659.365	7.09
659.693	7.41
660.02	7.28
660.347	7.29
660.674	7.18
661.001	7.41
661.329	7.13
661.656	7.19
661.982	7.23
662.309	7.13
662.636	6.99
662.963	7.23
663.29	7.44
663.616	7.44
663.943	7.81
664.27	7.54
664.596	6.82
664.923	7.82
665.249	6.61
665.576	6.97
665.902	7.19
666.228	6.82
666.554	6.82
666.881	7.31
667.207	6.85
667.533	7.48
667.859	6.8
668.185	7.49
668.511	6.81
668.837	6.47
669.162	7.26
669.488	7.18
669.814	8.07
670.139	8.03
670.465	7.2
670.791	7.71
671.116	6.69
671.442	6.82
671.767	6.81
672.092	7.44
672.418	7.28
672.743	7.05
673.068	6.68
673.393	7.4
673.718	7.27
674.043	7.27
674.368	7.22
674.693	7.7
675.018	7.28
675.343	7.7
675.667	6.91
675.992	7.32
676.317	7.3
676.641	7.7
676.966	7.23
677.29	7.27
677.615	7.18
677.939	7.1
678.264	6.8
678.588	7.44
678.912	7.88
679.236	7.25
679.56	7.03
679.885	7.54
680.209	6.85
680.532	6.95
680.856	7.59
681.18	7.25
681.504	6.78
681.828	6.57
682.152	7.12
682.475	7.39
682.799	7.32
683.122	7.2
683.446	6.73
683.769	7.1
684.093	7.37
684.416	7.12
684.739	8
685.062	6.91
685.386	6.9
685.709	7.73
686.032	7.1
686.355	7.36
686.678	7.38
687.001	6.46
687.324	7.22
687.646	7.1
687.969	7.01
688.292	7.62
688.614	7.68
688.937	7.08
689.26	6.86
689.582	6.96
689.904	6.92
690.227	7.71
690.549	7.23
690.871	7.27
691.194	7.44
691.516	7.62
691.838	7.62
692.16	7.66
692.482	8.1
692.804	7.26
