Data from 0052_crown_Reflection__0__67.txt Node

Date: Fri Dec 16 14:25:52 CST 2022
User: ToomeyLab
Spectrometer: FLMS14357
Trigger mode: 0
Integration Time (sec): 1.000000E-2
Scans to average: 100
Electric dark correction enabled: true
Nonlinearity correction enabled: false
Boxcar width: 0
XAxis mode: Wavelengths
Number of Pixels in Spectrum: 2048
>>>>>Begin Spectral Data<<<<<
189.047	261.32
189.435	261.32
189.823	261.32
190.211	59.22
190.599	-24.75
190.987	64.74
191.375	6.22
191.763	-15.36
192.151	-74.28
192.538	-269.48
192.926	-96.29
193.314	121.82
193.702	-257.78
194.089	-13.98
194.477	-11.35
194.864	59.07
195.252	-293.88
195.639	319.97
196.027	-80.35
196.414	-11.72
196.801	-315.69
197.189	2396.17
197.576	235.25
197.963	-169.32
198.351	-0.12
198.738	-12.5
199.125	24.27
199.512	3.11
199.899	-10.2
200.286	13.83
200.673	-12.4
201.06	2.24
201.447	41.12
201.833	12.23
202.22	22.45
202.607	5.81
202.994	27.83
203.38	-24.85
203.767	-15.91
204.154	-21.68
204.54	35.98
204.927	-4.06
205.313	18.1
205.699	34.11
206.086	26.14
206.472	-0.36
206.858	45.13
207.245	30.96
207.631	1.45
208.017	28.56
208.403	19.4
208.789	2.1
209.175	30.71
209.561	43.01
209.947	19.16
210.333	2.92
210.719	-3.87
211.105	-46.84
211.491	1.31
211.876	-19.77
212.262	-12.81
212.648	-15.39
213.034	-5.73
213.419	30.6
213.805	1.08
214.19	38.2
214.576	-11.72
214.961	-15.2
215.346	6.68
215.732	2.02
216.117	-25.42
216.502	-13.37
216.888	8.11
217.273	30.19
217.658	11.37
218.043	-0.87
218.428	-4.83
218.813	14.22
219.198	-35.18
219.583	0.09
219.968	5.67
220.353	12.76
220.738	11.08
221.122	15.57
221.507	1.71
221.892	18.84
222.276	20.54
222.661	-0.43
223.046	4.63
223.43	3.27
223.815	18.47
224.199	14.78
224.583	8.75
224.968	11.99
225.352	8.97
225.736	9.63
226.121	5.83
226.505	14.66
226.889	15.57
227.273	16.38
227.657	14.71
228.041	16.52
228.425	15.3
228.809	14.38
229.193	13.88
229.577	15.01
229.961	15.23
230.344	15.12
230.728	14.18
231.112	14.41
231.495	14.29
231.879	14.41
232.263	14.21
232.646	13.58
233.03	12.37
233.413	12.95
233.797	14.87
234.18	11.72
234.563	14.76
234.946	14.39
235.33	14.2
235.713	15.06
236.096	13.63
236.479	14.18
236.862	15.86
237.245	14.57
237.628	15.04
238.011	14.09
238.394	15
238.777	12.93
239.16	12.06
239.543	12.86
239.925	14.31
240.308	14.58
240.691	14.25
241.073	14.08
241.456	13.65
241.838	14.57
242.221	13.8
242.603	14.01
242.986	15.19
243.368	14.11
243.75	13.75
244.133	13.82
244.515	13.89
244.897	13.1
245.279	13.18
245.661	14.29
246.043	13.5
246.425	13.28
246.807	13.66
247.189	13.53
247.571	13.47
247.953	13.81
248.335	13.57
248.717	13.37
249.098	13.12
249.48	13.22
249.862	13.26
250.243	13.38
250.625	12.59
251.006	12.59
251.388	12.76
251.769	12.91
252.151	13.17
252.532	12.68
252.913	13.38
253.295	12.85
253.676	13.28
254.057	12.24
254.438	12.16
254.819	12.43
255.2	11.84
255.581	11.91
255.962	13.28
256.343	12.9
256.724	13.01
257.105	12.12
257.486	13.7
257.867	10.1
258.247	12.73
258.628	12.95
259.009	11.67
259.389	12.41
259.77	12.03
260.15	12.5
260.531	12.24
260.911	12.32
261.292	12.01
261.672	11.76
262.052	11.5
262.432	11.45
262.813	12.24
263.193	11.6
263.573	12.37
263.953	11.87
264.333	11.61
264.713	10.72
265.093	11.36
265.473	11.98
265.853	11.61
266.233	11.81
266.612	11.87
266.992	11.08
267.372	11.35
267.752	11.06
268.131	11.49
268.511	11.57
268.89	11.83
269.27	10.92
269.649	11.78
270.029	11.07
270.408	10.98
270.787	11.57
271.167	11.68
271.546	10.99
271.925	11.36
272.304	11.37
272.683	11.02
273.062	11.5
273.441	11.23
273.82	11.23
274.199	11.19
274.578	10.63
274.957	10.82
275.336	10.82
275.715	10.81
276.093	10.85
276.472	10.56
276.851	10.43
277.229	11.08
277.608	10.64
277.986	10.81
278.365	11.03
278.743	10.49
279.122	10.22
279.5	10.44
279.878	9.92
280.257	10.77
280.635	10.24
281.013	10.7
281.391	10.41
281.769	10.4
282.147	10.84
282.525	10.08
282.903	10.46
283.281	10.23
283.659	10.32
284.037	9.97
284.415	10.26
284.792	10.2
285.17	10
285.548	10.06
285.925	10.58
286.303	10
286.68	10.38
287.058	10.16
287.435	9.96
287.813	9.99
288.19	10.46
288.567	9.79
288.945	9.85
289.322	9.76
289.699	10.07
290.076	10.08
290.453	9.74
290.83	9.93
291.207	9.65
291.584	9.69
291.961	9.85
292.338	9.57
292.715	9.68
293.092	9.55
293.469	9.94
293.845	9.66
294.222	9.69
294.599	10.21
294.975	9.92
295.352	9.36
295.728	9.9
296.105	9.57
296.481	9.86
296.858	9.15
297.234	9.25
297.61	9.47
297.986	9.65
298.363	8.98
298.739	9.46
299.115	8.99
299.491	9.42
299.867	9.17
300.243	9.31
300.619	8.99
300.995	9.59
301.371	9.15
301.746	9.14
302.122	9.19
302.498	8.9
302.874	9.73
303.249	9.58
303.625	9.15
304	8.97
304.376	9.1
304.751	8.91
305.127	8.99
305.502	9.46
305.878	8.84
306.253	9.19
306.628	9.41
307.003	9.29
307.378	8.67
307.754	9.37
308.129	8.69
308.504	8.75
308.879	9.04
309.254	9.55
309.629	9.12
310.003	9.34
310.378	8.89
310.753	9.08
311.128	8.86
311.502	8.73
311.877	8.84
312.252	8.86
312.626	8.86
313.001	8.92
313.375	8.46
313.75	8.62
314.124	9.23
314.498	8.83
314.873	8.85
315.247	8.65
315.621	9.24
315.995	8.66
316.369	8.92
316.743	8.91
317.117	8.93
317.491	8.62
317.865	8.48
318.239	9.4
318.613	8.84
318.987	9.27
319.361	8.98
319.734	8.59
320.108	8.63
320.482	8.79
320.855	8.91
321.229	9.19
321.602	8.56
321.976	8.66
322.349	8.56
322.723	8.11
323.096	8.63
323.469	8.38
323.843	8.99
324.216	8.63
324.589	8.89
324.962	8.63
325.335	8.64
325.708	8.66
326.081	8.71
326.454	8.62
326.827	8.63
327.2	9.09
327.573	8.88
327.945	8.76
328.318	9.06
328.691	8.36
329.063	8.08
329.436	8.57
329.809	8.4
330.181	8.29
330.553	8.88
330.926	8.7
331.298	8.42
331.671	9.14
332.043	9.13
332.415	8.93
332.787	9.3
333.159	8.72
333.532	8.83
333.904	9.21
334.276	9.21
334.648	8.53
335.02	8.68
335.391	8.94
335.763	8.82
336.135	8.94
336.507	9.47
336.879	9.02
337.25	8.93
337.622	8.69
337.993	8.79
338.365	8.81
338.736	9.42
339.108	8.91
339.479	8.65
339.851	8.99
340.222	8.63
340.593	9.21
340.964	8.92
341.336	8.63
341.707	8.88
342.078	9.18
342.449	9.34
342.82	9.07
343.191	8.54
343.562	9.09
343.933	8.9
344.303	9.11
344.674	9.04
345.045	9.42
345.416	8.88
345.786	8.75
346.157	8.9
346.527	8.71
346.898	9.22
347.268	8.79
347.639	9.41
348.009	9.06
348.38	9.24
348.75	8.74
349.12	9.09
349.49	9.1
349.861	9.56
350.231	9.5
350.601	9.04
350.971	9.46
351.341	9.4
351.711	8.99
352.081	9.69
352.45	9.21
352.82	9.29
353.19	9.16
353.56	9.64
353.929	9.19
354.299	9.38
354.669	9.54
355.038	9.29
355.408	9.64
355.777	9.54
356.147	9.36
356.516	9.91
356.885	9.42
357.254	9.52
357.624	9.53
357.993	9.44
358.362	9.49
358.731	9.7
359.1	9.59
359.469	9.38
359.838	9.24
360.207	9.31
360.576	9.65
360.945	9.61
361.314	9.6
361.682	9.28
362.051	9.61
362.42	10.09
362.788	9.89
363.157	9.79
363.525	9.78
363.894	9.41
364.262	9.6
364.631	10.34
364.999	9.48
365.367	9.69
365.735	9.49
366.104	9.82
366.472	9.99
366.84	9.88
367.208	9.76
367.576	9.76
367.944	10.02
368.312	9.77
368.68	10.06
369.048	9.89
369.416	9.9
369.783	9.88
370.151	9.95
370.519	9.9
370.886	9.74
371.254	9.96
371.621	9.89
371.989	9.96
372.356	10.13
372.724	10.2
373.091	10.08
373.458	10.06
373.826	10.36
374.193	10.39
374.56	10.09
374.927	10.13
375.294	10.45
375.661	10.14
376.028	10.32
376.395	10.11
376.762	10.64
377.129	10.37
377.496	10.39
377.863	10.11
378.229	10.14
378.596	10.57
378.963	10.31
379.329	10.19
379.696	10.48
380.062	10.98
380.429	10.31
380.795	10.4
381.161	10.58
381.528	10.11
381.894	10.79
382.26	10.49
382.626	10.26
382.993	10.37
383.359	10.38
383.725	10.47
384.091	10.1
384.457	10.64
384.823	10.54
385.188	10.87
385.554	10.72
385.92	10.8
386.286	10.77
386.651	10.86
387.017	10.87
387.383	10.7
387.748	10.58
388.114	10.91
388.479	10.74
388.845	10.75
389.21	11.02
389.575	11.12
389.94	10.83
390.306	10.8
390.671	10.73
391.036	10.91
391.401	10.98
391.766	10.84
392.131	10.72
392.496	10.95
392.861	10.66
393.226	10.94
393.591	10.89
393.956	11.01
394.32	10.91
394.685	11.08
395.05	10.7
395.414	10.91
395.779	10.95
396.143	11.03
396.508	11.16
396.872	10.96
397.236	10.65
397.601	10.89
397.965	10.88
398.329	11.2
398.694	11
399.058	11.2
399.422	11.21
399.786	11.14
400.15	11.2
400.514	11.08
400.878	11.09
401.242	11.19
401.605	11.26
401.969	11.15
402.333	11.09
402.697	11.21
403.06	11.22
403.424	11.11
403.787	11.55
404.151	11.18
404.514	11.39
404.878	11.5
405.241	11.24
405.604	11.32
405.968	11.28
406.331	11.26
406.694	11.36
407.057	11.39
407.42	11.39
407.783	11.28
408.146	11.26
408.509	11.4
408.872	11.11
409.235	11.48
409.598	11.44
409.961	11.56
410.323	11.4
410.686	11.32
411.049	11.39
411.411	11.39
411.774	11.42
412.136	11.51
412.499	11.43
412.861	11.48
413.223	11.7
413.586	11.41
413.948	11.71
414.31	11.56
414.672	11.43
415.035	11.71
415.397	11.84
415.759	11.64
416.121	11.81
416.483	11.69
416.845	11.99
417.206	11.81
417.568	11.77
417.93	11.63
418.292	11.56
418.653	11.91
419.015	11.75
419.377	11.72
419.738	11.62
420.1	11.67
420.461	11.63
420.822	11.73
421.184	11.71
421.545	11.74
421.906	11.67
422.267	11.64
422.629	11.67
422.99	11.6
423.351	11.58
423.712	11.6
424.073	11.64
424.434	11.64
424.795	11.75
425.155	11.73
425.516	11.63
425.877	11.72
426.238	11.62
426.598	11.73
426.959	11.69
427.32	11.74
427.68	11.75
428.041	11.79
428.401	11.71
428.761	11.69
429.122	11.82
429.482	11.83
429.842	11.75
430.202	11.67
430.563	11.93
430.923	11.83
431.283	12.13
431.643	12.04
432.003	12
432.363	12.1
432.722	11.93
433.082	11.9
433.442	11.97
433.802	11.98
434.161	12.11
434.521	12.17
434.881	11.98
435.24	11.95
435.6	11.8
435.959	11.94
436.319	11.8
436.678	12.06
437.037	11.99
437.396	11.93
437.756	11.98
438.115	12.09
438.474	12.15
438.833	11.99
439.192	12.11
439.551	12.09
439.91	11.99
440.269	12.26
440.628	12.13
440.987	12.04
441.345	12.09
441.704	12.07
442.063	11.95
442.421	12
442.78	11.91
443.138	12.02
443.497	12.04
443.855	12.01
444.214	12.27
444.572	12.02
444.93	12.21
445.288	12.11
445.647	12.38
446.005	12.2
446.363	12.1
446.721	12.18
447.079	12.18
447.437	12.06
447.795	12.09
448.153	12.02
448.51	12
448.868	12.1
449.226	12.09
449.584	12.07
449.941	12.05
450.299	12.09
450.656	12.2
451.014	12.19
451.371	12.24
451.729	12.11
452.086	12.08
452.443	12.07
452.801	12.39
453.158	12.25
453.515	12.26
453.872	12.4
454.229	12.24
454.586	12.25
454.943	12.15
455.3	12.37
455.657	12.22
456.014	12.44
456.371	12.36
456.727	12.14
457.084	12.2
457.441	12.28
457.797	12.34
458.154	12.19
458.51	12.15
458.867	12.19
459.223	12.17
459.58	12.43
459.936	12.34
460.292	12.46
460.648	12.32
461.005	12.25
461.361	12.24
461.717	12.15
462.073	12.08
462.429	11.98
462.785	12.2
463.141	12.12
463.496	12.1
463.852	12.34
464.208	12.23
464.564	12.25
464.919	12.28
465.275	12.16
465.631	12.41
465.986	12.3
466.342	12.38
466.697	12.3
467.052	12.32
467.408	12.41
467.763	12.14
468.118	12.27
468.473	12.4
468.829	12.23
469.184	12.28
469.539	12.33
469.894	12.4
470.249	12.42
470.603	12.27
470.958	12.2
471.313	12.32
471.668	12.47
472.023	12.43
472.377	12.36
472.732	12.23
473.086	12.34
473.441	12.41
473.795	12.51
474.15	12.36
474.504	12.39
474.859	12.41
475.213	12.11
475.567	12.29
475.921	12.53
476.275	12.29
476.63	12.27
476.984	12.35
477.338	12.53
477.692	12.41
478.045	12.33
478.399	12.14
478.753	12.33
479.107	12.28
479.461	12.38
479.814	12.31
480.168	12.35
480.521	12.21
480.875	12.25
481.228	12.2
481.582	12.33
481.935	12.29
482.289	12.24
482.642	12.2
482.995	12.26
483.348	12.28
483.701	12.31
484.055	12.27
484.408	12.24
484.761	12.08
485.114	12.06
485.466	11.91
485.819	11.65
486.172	11.49
486.525	11.54
486.878	11.58
487.23	11.8
487.583	11.85
487.936	12.12
488.288	12.1
488.641	12.04
488.993	11.87
489.345	11.82
489.698	11.79
490.05	11.74
490.402	11.73
490.754	11.82
491.107	11.87
491.459	11.95
491.811	12.05
492.163	12.13
492.515	12.19
492.866	12.05
493.218	11.93
493.57	11.76
493.922	11.72
494.274	11.78
494.625	11.73
494.977	11.9
495.328	12
495.68	12.15
496.031	12.18
496.383	12.06
496.734	12.33
497.086	12.15
497.437	12.3
497.788	12.22
498.139	12.23
498.49	12.22
498.842	12.02
499.193	11.95
499.544	12.13
499.894	12.07
500.245	12.13
500.596	12.11
500.947	12.04
501.298	12.09
501.648	12.19
501.999	12.14
502.35	12.1
502.7	12.06
503.051	12.15
503.401	12.05
503.752	11.97
504.102	12.13
504.452	12.06
504.803	12.13
505.153	12.23
505.503	12.08
505.853	12.12
506.203	11.95
506.553	11.97
506.903	12.02
507.253	12.07
507.603	11.81
507.953	12.03
508.303	12.11
508.652	12.09
509.002	12.03
509.352	12.07
509.701	11.99
510.051	12.03
510.4	12.06
510.75	11.97
511.099	11.96
511.449	11.84
511.798	12.08
512.147	11.95
512.496	12.02
512.846	11.83
513.195	12
513.544	11.79
513.893	11.76
514.242	11.88
514.591	11.82
514.939	11.77
515.288	11.89
515.637	11.94
515.986	11.79
516.334	11.91
516.683	11.87
517.032	11.9
517.38	11.86
517.729	11.91
518.077	11.86
518.426	11.82
518.774	11.86
519.122	11.86
519.47	11.85
519.819	11.84
520.167	11.77
520.515	11.7
520.863	11.6
521.211	11.76
521.559	11.59
521.907	11.62
522.255	11.72
522.602	11.72
522.95	11.67
523.298	11.75
523.645	11.82
523.993	11.89
524.341	11.76
524.688	11.65
525.036	11.92
525.383	11.76
525.73	11.8
526.078	11.8
526.425	11.6
526.772	11.54
527.119	11.6
527.466	11.56
527.814	11.54
528.161	11.51
528.508	11.4
528.854	11.46
529.201	11.54
529.548	11.45
529.895	11.41
530.242	11.33
530.588	11.2
530.935	11.05
531.282	11
531.628	11.08
531.975	11.24
532.321	11.27
532.667	11.31
533.014	11.3
533.36	11.35
533.706	11.38
534.052	11.4
534.399	11.33
534.745	11.29
535.091	11.17
535.437	11.1
535.783	11.1
536.129	11.17
536.474	11.31
536.82	11.17
537.166	11.37
537.512	11.39
537.857	11.39
538.203	11.34
538.549	11.28
538.894	11.23
539.239	11.3
539.585	11.32
539.93	11.26
540.276	11.21
540.621	11.33
540.966	11.41
541.311	11.47
541.656	11.3
542.001	11.34
542.346	11.25
542.691	11.14
543.036	11.1
543.381	11
543.726	10.87
544.071	10.94
544.415	11
544.76	10.95
545.105	11.08
545.449	10.95
545.794	11.01
546.138	11.1
546.483	11.07
546.827	11.17
547.171	11.19
547.516	11.24
547.86	11.06
548.204	11.16
548.548	11.21
548.892	10.97
549.236	11.02
549.58	11.04
549.924	11.07
550.268	11.14
550.612	11.1
550.956	11.02
551.3	10.9
551.643	11.11
551.987	11.15
552.33	11.03
552.674	11.07
553.017	11.16
553.361	11.19
553.704	11.03
554.048	11.21
554.391	11.17
554.734	10.91
555.077	11.12
555.42	10.95
555.764	11.07
556.107	11.07
556.45	10.93
556.793	11.05
557.135	11.03
557.478	11.09
557.821	10.98
558.164	10.99
558.507	11.03
558.849	10.81
559.192	10.94
559.534	10.71
559.877	10.98
560.219	10.92
560.562	10.85
560.904	10.85
561.246	10.93
561.589	10.75
561.931	11.05
562.273	10.82
562.615	10.99
562.957	10.98
563.299	10.76
563.641	10.68
563.983	10.78
564.325	10.53
564.667	10.57
565.008	10.77
565.35	10.83
565.692	11.03
566.033	10.81
566.375	10.6
566.716	10.9
567.058	11.01
567.399	10.72
567.741	10.75
568.082	10.7
568.423	10.69
568.764	10.75
569.105	10.81
569.447	10.47
569.788	10.64
570.129	10.59
570.47	10.64
570.811	10.63
571.151	10.56
571.492	10.69
571.833	10.68
572.174	10.65
572.514	10.48
572.855	10.72
573.195	10.52
573.536	10.51
573.876	10.52
574.217	10.6
574.557	10.64
574.898	10.49
575.238	10.51
575.578	10.53
575.918	10.46
576.258	10.42
576.598	10.54
576.938	10.59
577.278	10.43
577.618	10.45
577.958	10.43
578.298	10.5
578.638	10.57
578.977	10.46
579.317	10.46
579.657	10.51
579.996	10.37
580.336	10.32
580.675	10.35
581.014	10.25
581.354	10.47
581.693	10.44
582.032	10.14
582.372	10.47
582.711	10.32
583.05	10.48
583.389	10.32
583.728	10.5
584.067	10.38
584.406	10.45
584.745	10.27
585.083	10.51
585.422	10.48
585.761	10.36
586.1	10.39
586.438	10.34
586.777	10.3
587.115	10.33
587.454	10.2
587.792	10.36
588.13	10.35
588.469	10.4
588.807	10.29
589.145	10.3
589.483	9.98
589.821	10.32
590.159	10.1
590.497	10.16
590.835	10.04
591.173	10.35
591.511	10.21
591.849	10.32
592.187	10.04
592.524	10.17
592.862	10
593.2	10.08
593.537	10.12
593.875	10.07
594.212	10.13
594.55	10.07
594.887	10.26
595.224	9.9
595.561	10.28
595.899	10.24
596.236	10
596.573	9.96
596.91	9.93
597.247	10.02
597.584	10.07
597.921	9.94
598.258	10.06
598.594	9.77
598.931	9.94
599.268	9.96
599.604	9.89
599.941	9.93
600.277	9.72
600.614	9.97
600.95	9.74
601.287	9.96
601.623	10.14
601.959	9.91
602.296	9.94
602.632	10.04
602.968	9.83
603.304	9.77
603.64	9.86
603.976	9.9
604.312	10.08
604.648	9.94
604.984	10.05
605.319	9.84
605.655	9.93
605.991	9.93
606.326	9.72
606.662	9.83
606.998	9.74
607.333	9.66
607.668	9.6
608.004	9.84
608.339	9.66
608.674	9.66
609.01	9.65
609.345	9.96
609.68	9.72
610.015	9.96
610.35	9.82
610.685	9.87
611.02	9.97
611.355	9.8
611.689	9.46
612.024	9.83
612.359	9.9
612.694	9.8
613.028	10.01
613.363	9.79
613.697	9.75
614.032	9.84
614.366	9.53
614.7	9.82
615.035	9.66
615.369	9.91
615.703	10.04
616.037	9.69
616.371	9.6
616.705	9.74
617.039	9.68
617.373	9.69
617.707	9.56
618.041	9.63
618.375	9.59
618.709	9.76
619.042	9.56
619.376	9.66
619.71	9.66
620.043	9.35
620.377	9.88
620.71	9.42
621.043	9.37
621.377	9.7
621.71	9.94
622.043	9.64
622.376	9.55
622.709	9.84
623.043	9.52
623.376	9.74
623.709	9.47
624.041	9.17
624.374	9.24
624.707	9.4
625.04	9.59
625.373	9.56
625.705	9.62
626.038	9.41
626.37	9.29
626.703	9.39
627.035	9.72
627.368	9.85
627.7	9.71
628.032	9.71
628.365	9.35
628.697	9.48
629.029	9.6
629.361	9.46
629.693	9.47
630.025	9.38
630.357	9.22
630.689	9.63
631.021	9.42
631.353	9.54
631.684	9.36
632.016	9.42
632.348	9.44
632.679	9.3
633.011	9.75
633.342	9.34
633.674	9.33
634.005	9.44
634.336	9.62
634.668	9.15
634.999	9.29
635.33	9.41
635.661	9.31
635.992	9.04
636.323	9.34
636.654	9.42
636.985	9.33
637.316	9.48
637.647	9.29
637.977	9.5
638.308	9.28
638.639	9.32
638.969	9.2
639.3	9.57
639.63	9.2
639.961	9.26
640.291	9.36
640.622	9.5
640.952	9.59
641.282	8.92
641.612	9.05
641.943	9.62
642.273	9.03
642.603	9.17
642.933	9.15
643.263	9.66
643.592	9.54
643.922	9.57
644.252	9.39
644.582	9.05
644.911	8.98
645.241	9.04
645.571	8.96
645.9	9.53
646.23	9.16
646.559	9.45
646.888	9
647.218	9.49
647.547	9.42
647.876	9.85
648.205	8.95
648.534	9.03
648.863	9.59
649.192	9.27
649.521	9.18
649.85	9.58
650.179	8.8
650.508	9.34
650.837	9.24
651.165	9.24
651.494	9.31
651.822	9.33
652.151	9.58
652.479	9.41
652.808	8.84
653.136	9.23
653.465	9.47
653.793	9.33
654.121	9.4
654.449	9.61
654.777	9.15
655.105	9.47
655.433	9.25
655.761	8.77
656.089	9.13
656.417	8.95
656.745	9.93
657.073	9.9
657.4	8.94
657.728	8.9
658.056	8.83
658.383	9.25
658.711	9.09
659.038	9.29
659.365	9.16
659.693	9.38
660.02	9.25
660.347	9.51
660.674	9.11
661.001	9.05
661.329	9.34
661.656	8.77
661.982	9.07
662.309	9.08
662.636	8.98
662.963	9.17
663.29	9.13
663.616	9.12
663.943	9.6
664.27	9.2
664.596	8.78
664.923	8.83
665.249	9.28
665.576	8.97
665.902	8.94
666.228	8.84
666.554	8.74
666.881	9.44
667.207	8.94
667.533	9.41
667.859	9.41
668.185	8.9
668.511	8.74
668.837	9
669.162	9.03
669.488	8.61
669.814	9.21
670.139	9.62
670.465	9.35
670.791	9.45
671.116	9.37
671.442	9.06
671.767	8.86
672.092	9.39
672.418	8.77
672.743	8.9
673.068	8.35
673.393	9.01
673.718	8.89
674.043	9.2
674.368	9.63
