Data from 447_crown_Reflection__0__05.txt Node

Date: Tue Dec 12 18:13:04 CST 2023
User: ToomeyLab
Spectrometer: FLMS14357
Trigger mode: 0
Integration Time (sec): 1.000000E-2
Scans to average: 100
Electric dark correction enabled: true
Nonlinearity correction enabled: false
Boxcar width: 0
XAxis mode: Wavelengths
Number of Pixels in Spectrum: 2048
>>>>>Begin Spectral Data<<<<<
189.047	61.23
189.435	61.23
189.823	61.23
190.211	-151.92
190.599	67.96
190.987	143.48
191.375	207.21
191.763	-99.42
192.151	146.33
192.538	213.02
192.926	180.44
193.314	42.9
193.702	108.43
194.089	-71.39
194.477	-21.42
194.864	67.95
195.252	83.85
195.639	473.29
196.027	-12.35
196.414	115.46
196.801	-279.4
197.189	-1681.48
197.576	377.25
197.963	86.69
198.351	23.94
198.738	51.29
199.125	19.7
199.512	-0.41
199.899	5.55
200.286	8.51
200.673	-75.14
201.06	-27.05
201.447	8.33
201.833	35.1
202.22	9.33
202.607	-121.81
202.994	1.4
203.38	12.5
203.767	-13.33
204.154	-10.44
204.54	40.57
204.927	57.51
205.313	51.83
205.699	18.19
206.086	14.08
206.472	62.33
206.858	63.13
207.245	23.57
207.631	31.04
208.017	15.47
208.403	13.05
208.789	37.73
209.175	-18.53
209.561	32.14
209.947	-29.37
210.333	25.52
210.719	5.08
211.105	40.12
211.491	32.22
211.876	47.45
212.262	48.72
212.648	10.82
213.034	-23.8
213.419	7.42
213.805	1.85
214.19	12.26
214.576	26.4
214.961	1.83
215.346	17.35
215.732	21.35
216.117	28.49
216.502	21.13
216.888	-0.77
217.273	-16.86
217.658	-1.5
218.043	-1.14
218.428	10.83
218.813	18.24
219.198	-1.76
219.583	20.64
219.968	37.3
220.353	10.66
220.738	2.93
221.122	17.55
221.507	4.5
221.892	-0.94
222.276	12.57
222.661	13.35
223.046	-4.37
223.43	3.55
223.815	7.87
224.199	16.3
224.583	5.91
224.968	8.97
225.352	-1.45
225.736	8.14
226.121	2.26
226.505	-3.21
226.889	5.38
227.273	2.62
227.657	7.09
228.041	5.5
228.425	5.2
228.809	1.11
229.193	0.88
229.577	1.88
229.961	0.36
230.344	3.48
230.728	3.11
231.112	1.94
231.495	2.41
231.879	2.69
232.263	2.49
232.646	1.81
233.03	2.29
233.413	1.87
233.797	1.76
234.18	-2
234.563	0.52
234.946	3.18
235.33	3.7
235.713	2.09
236.096	1.56
236.479	1.98
236.862	4.03
237.245	2.07
237.628	2.23
238.011	5.25
238.394	2.53
238.777	1.82
239.16	3.67
239.543	1.14
239.925	2.91
240.308	1.43
240.691	2.76
241.073	2.32
241.456	0.84
241.838	1.64
242.221	3.4
242.603	2.34
242.986	0.64
243.368	2.68
243.75	1.08
244.133	1.74
244.515	1.87
244.897	2.17
245.279	2.31
245.661	2.56
246.043	2.16
246.425	2.45
246.807	1.05
247.189	2.24
247.571	2.1
247.953	1.16
248.335	2.02
248.717	1.45
249.098	1.81
249.48	1.54
249.862	1.35
250.243	1.66
250.625	1.76
251.006	2
251.388	1.79
251.769	1.43
252.151	1.45
252.532	2
252.913	2.33
253.295	2.35
253.676	1.33
254.057	1.41
254.438	1.85
254.819	1.14
255.2	1.61
255.581	1.51
255.962	1.66
256.343	2.2
256.724	2.2
257.105	2.25
257.486	1.81
257.867	1.61
258.247	1.89
258.628	1.61
259.009	0.67
259.389	2.38
259.77	1.98
260.15	1.56
260.531	1.98
260.911	1.87
261.292	1.23
261.672	1.29
262.052	1.36
262.432	1.56
262.813	1.81
263.193	1.83
263.573	2.04
263.953	2.05
264.333	2.74
264.713	1.51
265.093	1.5
265.473	2.28
265.853	1.08
266.233	1.34
266.612	1.29
266.992	1.69
267.372	2.31
267.752	2.27
268.131	1.45
268.511	1.46
268.89	0.79
269.27	1.09
269.649	2.39
270.029	1.43
270.408	1.72
270.787	1.61
271.167	2.07
271.546	1.6
271.925	2.06
272.304	2.18
272.683	1.35
273.062	1.79
273.441	1.61
273.82	1.49
274.199	1.55
274.578	1.49
274.957	1.27
275.336	1.89
275.715	1.54
276.093	1.5
276.472	1.32
276.851	1.39
277.229	1.57
277.608	1.95
277.986	1.26
278.365	1.79
278.743	1.79
279.122	2.03
279.5	1.6
279.878	1.46
280.257	1.69
280.635	1.81
281.013	1.25
281.391	1.98
281.769	1.29
282.147	1.58
282.525	0.84
282.903	1.46
283.281	1.56
283.659	1.45
284.037	1.27
284.415	1.38
284.792	1.55
285.17	1.03
285.548	1.53
285.925	1.19
286.303	1.4
286.68	1.32
287.058	1.01
287.435	1.29
287.813	1.04
288.19	1.51
288.567	1.33
288.945	1.55
289.322	0.76
289.699	1.25
290.076	1.58
290.453	1.7
290.83	1.27
291.207	1.81
291.584	1.46
291.961	1.24
292.338	1.42
292.715	1.5
293.092	1.18
293.469	1.23
293.845	1.7
294.222	1.65
294.599	1.27
294.975	1.42
295.352	1.57
295.728	1.3
296.105	1.62
296.481	1.96
296.858	1.35
297.234	1.72
297.61	1.76
297.986	1.59
298.363	1.49
298.739	1.27
299.115	1.25
299.491	1.2
299.867	1.41
300.243	1.49
300.619	1.88
300.995	1.89
301.371	1.96
301.746	1.67
302.122	1.8
302.498	2.11
302.874	1.93
303.249	1.93
303.625	1.19
304	1.65
304.376	1.43
304.751	1.57
305.127	1.64
305.502	2.1
305.878	1.3
306.253	1.75
306.628	1.59
307.003	1.77
307.378	1.59
307.754	1.65
308.129	1.63
308.504	2.44
308.879	1.39
309.254	1.6
309.629	1.29
310.003	1.73
310.378	1.75
310.753	1.6
311.128	1.84
311.502	1.32
311.877	1.61
312.252	1.31
312.626	1.79
313.001	1.31
313.375	1.54
313.75	1.68
314.124	1.79
314.498	1.53
314.873	1.88
315.247	1.73
315.621	1.62
315.995	2.17
316.369	1.57
316.743	1.09
317.117	1.44
317.491	1.63
317.865	1.22
318.239	1.54
318.613	1.89
318.987	1.84
319.361	1.89
319.734	1.72
320.108	1.78
320.482	0.93
320.855	1.69
321.229	1.68
321.602	1.68
321.976	1.59
322.349	2.01
322.723	1.38
323.096	1.67
323.469	2
323.843	2.81
324.216	1.39
324.589	1.54
324.962	2.15
325.335	2.02
325.708	1.88
326.081	2.01
326.454	1.64
326.827	1.87
327.2	1.9
327.573	1.71
327.945	1.95
328.318	1.89
328.691	1.26
329.063	2.19
329.436	1.94
329.809	1.65
330.181	1.24
330.553	1.53
330.926	2.03
331.298	1.53
331.671	1.96
332.043	1.8
332.415	1.31
332.787	1.43
333.159	1.76
333.532	1.75
333.904	1.83
334.276	2.48
334.648	1.87
335.02	1.21
335.391	1.77
335.763	1.43
336.135	1.7
336.507	1.89
336.879	1.56
337.25	1.57
337.622	1.2
337.993	1.51
338.365	1.18
338.736	1.78
339.108	1.56
339.479	1.84
339.851	1.56
340.222	1.31
340.593	1.24
340.964	1.72
341.336	1.73
341.707	1.67
342.078	1.39
342.449	1.72
342.82	2.2
343.191	1.41
343.562	2.02
343.933	2.09
344.303	2.16
344.674	1.89
345.045	1.82
345.416	1.94
345.786	1.69
346.157	1.49
346.527	1.65
346.898	1.6
347.268	1.41
347.639	1.55
348.009	1.6
348.38	1.67
348.75	1.83
349.12	2.08
349.49	1.32
349.861	1.99
350.231	1.93
350.601	2.26
350.971	2.11
351.341	1.72
351.711	1.89
352.081	1.55
352.45	1.52
352.82	1.81
353.19	1.57
353.56	1.6
353.929	1.5
354.299	1.4
354.669	1.51
355.038	1.59
355.408	1.87
355.777	2.04
356.147	1.3
356.516	1.93
356.885	1.75
357.254	1.66
357.624	1.56
357.993	1.38
358.362	2.06
358.731	1.78
359.1	1.19
359.469	1.7
359.838	1.34
360.207	1.58
360.576	1.62
360.945	1.47
361.314	1.82
361.682	1.96
362.051	1.9
362.42	1.71
362.788	1.66
363.157	1.99
363.525	1.77
363.894	1.46
364.262	1.83
364.631	1.62
364.999	1.84
365.367	1.88
365.735	1.42
366.104	1.74
366.472	1.86
366.84	1.66
367.208	1.82
367.576	1.74
367.944	1.92
368.312	1.59
368.68	1.66
369.048	2.02
369.416	1.75
369.783	1.69
370.151	1.46
370.519	1.51
370.886	1.71
371.254	1.41
371.621	1.93
371.989	1.45
372.356	1.9
372.724	1.49
373.091	1.4
373.458	1.68
373.826	1.6
374.193	1.57
374.56	2.07
374.927	1.86
375.294	1.3
375.661	1.91
376.028	1.81
376.395	1.81
376.762	2.3
377.129	1.81
377.496	1.98
377.863	1.74
378.229	1.69
378.596	1.6
378.963	1.95
379.329	1.75
379.696	1.66
380.062	2.01
380.429	1.74
380.795	1.98
381.161	1.76
381.528	1.72
381.894	1.82
382.26	1.62
382.626	1.92
382.993	1.99
383.359	1.63
383.725	1.8
384.091	1.72
384.457	1.51
384.823	1.78
385.188	1.89
385.554	1.69
385.92	1.74
386.286	2.1
386.651	2.22
387.017	1.86
387.383	1.66
387.748	1.41
388.114	1.91
388.479	1.99
388.845	1.75
389.21	1.72
389.575	1.68
389.94	1.99
390.306	2
390.671	1.88
391.036	1.94
391.401	1.56
391.766	1.79
392.131	1.9
392.496	1.67
392.861	1.55
393.226	1.59
393.591	1.76
393.956	1.58
394.32	2.05
394.685	1.85
395.05	1.65
395.414	1.92
395.779	1.69
396.143	1.94
396.508	1.66
396.872	1.65
397.236	1.73
397.601	1.61
397.965	1.8
398.329	1.71
398.694	1.73
399.058	1.86
399.422	1.53
399.786	1.65
400.15	1.58
400.514	1.91
400.878	2.06
401.242	1.75
401.605	1.96
401.969	1.75
402.333	1.9
402.697	1.9
403.06	1.73
403.424	1.89
403.787	1.53
404.151	1.87
404.514	1.59
404.878	1.76
405.241	1.93
405.604	1.61
405.968	1.63
406.331	1.85
406.694	1.96
407.057	1.74
407.42	1.73
407.783	1.73
408.146	1.82
408.509	1.78
408.872	1.85
409.235	1.59
409.598	1.47
409.961	1.72
410.323	1.7
410.686	1.61
411.049	2.13
411.411	1.91
411.774	1.73
412.136	1.82
412.499	1.8
412.861	1.77
413.223	2.17
413.586	1.58
413.948	1.61
414.31	1.79
414.672	1.99
415.035	1.7
415.397	1.8
415.759	1.79
416.121	1.6
416.483	1.7
416.845	1.63
417.206	1.89
417.568	1.7
417.93	1.92
418.292	1.65
418.653	1.87
419.015	1.65
419.377	1.65
419.738	1.62
420.1	1.72
420.461	1.62
420.822	1.72
421.184	1.67
421.545	1.94
421.906	1.67
422.267	1.71
422.629	1.66
422.99	1.68
423.351	1.68
423.712	1.72
424.073	1.68
424.434	1.73
424.795	1.77
425.155	1.59
425.516	1.61
425.877	1.63
426.238	1.69
426.598	1.75
426.959	1.67
427.32	1.75
427.68	1.73
428.041	1.68
428.401	1.68
428.761	1.75
429.122	1.85
429.482	1.8
429.842	1.91
430.202	1.63
430.563	1.8
430.923	1.81
431.283	1.76
431.643	1.91
432.003	1.81
432.363	1.95
432.722	1.69
433.082	1.9
433.442	1.77
433.802	1.83
434.161	1.7
434.521	1.91
434.881	1.66
435.24	1.84
435.6	1.76
435.959	1.87
436.319	1.85
436.678	1.88
437.037	1.54
437.396	1.68
437.756	1.8
438.115	1.95
438.474	1.75
438.833	2.01
439.192	1.98
439.551	1.79
439.91	1.66
440.269	1.61
440.628	1.75
440.987	1.56
441.345	1.68
441.704	1.7
442.063	1.74
442.421	1.77
442.78	1.83
443.138	1.75
443.497	1.72
443.855	1.75
444.214	1.78
444.572	1.84
444.93	1.79
445.288	1.52
445.647	1.84
446.005	1.59
446.363	1.47
446.721	1.64
447.079	1.7
447.437	1.59
447.795	1.74
448.153	1.62
448.51	1.66
448.868	1.71
449.226	1.82
449.584	1.72
449.941	1.7
450.299	1.81
450.656	1.65
451.014	1.72
451.371	1.83
451.729	1.8
452.086	1.69
452.443	1.78
452.801	1.74
453.158	1.66
453.515	1.82
453.872	1.83
454.229	1.85
454.586	1.6
454.943	1.71
455.3	1.71
455.657	1.67
456.014	1.8
456.371	1.96
456.727	1.7
457.084	1.83
457.441	1.99
457.797	1.73
458.154	1.66
458.51	1.76
458.867	1.98
459.223	1.78
459.58	1.67
459.936	1.51
460.292	1.86
460.648	1.76
461.005	1.78
461.361	1.62
461.717	1.76
462.073	1.65
462.429	1.67
462.785	1.75
463.141	1.72
463.496	1.69
463.852	1.87
464.208	1.69
464.564	1.86
464.919	1.9
465.275	1.7
465.631	1.86
465.986	1.74
466.342	1.6
466.697	1.87
467.052	1.98
467.408	1.8
467.763	1.91
468.118	1.88
468.473	1.81
468.829	1.77
469.184	1.71
469.539	1.84
469.894	1.88
470.249	1.79
470.603	1.72
470.958	1.8
471.313	1.81
471.668	1.93
472.023	1.83
472.377	1.78
472.732	1.68
473.086	1.89
473.441	1.88
473.795	1.73
474.15	1.83
474.504	1.55
474.859	1.9
475.213	1.62
475.567	1.77
475.921	1.76
476.275	1.67
476.63	1.86
476.984	1.95
477.338	1.87
477.692	1.74
478.045	1.92
478.399	1.64
478.753	1.76
479.107	1.74
479.461	1.87
479.814	1.83
480.168	1.69
480.521	1.76
480.875	1.89
481.228	1.86
481.582	1.64
481.935	1.84
482.289	1.78
482.642	1.86
482.995	1.64
483.348	1.69
483.701	1.85
484.055	1.67
484.408	1.72
484.761	1.66
485.114	1.61
485.466	1.57
485.819	1.58
486.172	1.56
486.525	1.66
486.878	1.67
487.23	1.66
487.583	1.61
487.936	1.72
488.288	1.62
488.641	1.65
488.993	1.62
489.345	1.66
489.698	1.63
490.05	1.64
490.402	1.7
490.754	1.7
491.107	1.74
491.459	1.74
491.811	1.76
492.163	1.68
492.515	1.7
492.866	1.63
493.218	1.62
493.57	1.62
493.922	1.61
494.274	1.71
494.625	1.75
494.977	1.89
495.328	1.74
495.68	1.68
496.031	1.82
496.383	1.69
496.734	1.77
497.086	1.67
497.437	1.79
497.788	1.8
498.139	1.71
498.49	1.82
498.842	1.72
499.193	1.72
499.544	1.76
499.894	1.72
500.245	1.79
500.596	1.77
500.947	1.72
501.298	1.8
501.648	1.78
501.999	1.68
502.35	1.69
502.7	1.73
503.051	1.69
503.401	1.81
503.752	1.91
504.102	1.84
504.452	1.79
504.803	1.84
505.153	1.76
505.503	1.83
505.853	1.84
506.203	1.84
506.553	1.78
506.903	1.8
507.253	1.68
507.603	1.78
507.953	1.77
508.303	1.82
508.652	1.77
509.002	1.79
509.352	1.76
509.701	1.72
510.051	1.81
510.4	1.79
510.75	1.79
511.099	1.68
511.449	1.77
511.798	1.75
512.147	1.74
512.496	1.89
512.846	1.78
513.195	1.66
513.544	1.83
513.893	1.87
514.242	1.79
514.591	1.76
514.939	1.77
515.288	1.74
515.637	1.69
515.986	1.79
516.334	1.79
516.683	1.79
517.032	1.88
517.38	1.68
517.729	1.9
518.077	1.71
518.426	1.83
518.774	1.65
519.122	1.82
519.47	1.85
519.819	1.71
520.167	1.66
520.515	1.69
520.863	1.73
521.211	1.76
521.559	1.73
521.907	1.81
522.255	1.79
522.602	1.82
522.95	1.85
523.298	1.81
523.645	1.8
523.993	1.8
524.341	1.88
524.688	1.76
525.036	1.93
525.383	1.73
525.73	1.67
526.078	1.72
526.425	1.74
526.772	1.76
527.119	1.74
527.466	1.74
527.814	1.73
528.161	1.77
528.508	1.81
528.854	1.81
529.201	1.73
529.548	1.69
529.895	1.72
530.242	1.6
530.588	1.6
530.935	1.7
531.282	1.7
531.628	1.71
531.975	1.73
532.321	1.72
532.667	1.66
533.014	1.74
533.36	1.72
533.706	1.74
534.052	1.66
534.399	1.71
534.745	1.7
535.091	1.65
535.437	1.72
535.783	1.7
536.129	1.78
536.474	1.72
536.82	1.69
537.166	1.82
537.512	1.66
537.857	1.71
538.203	1.79
538.549	1.64
538.894	1.75
539.239	1.75
539.585	1.78
539.93	1.79
540.276	1.84
540.621	1.78
540.966	1.75
541.311	1.8
541.656	1.88
542.001	1.83
542.346	1.82
542.691	1.71
543.036	1.68
543.381	1.61
543.726	1.69
544.071	1.68
544.415	1.7
544.76	1.73
545.105	1.72
545.449	1.79
545.794	1.84
546.138	1.65
546.483	1.81
546.827	1.84
547.171	1.81
547.516	1.78
547.86	1.8
548.204	1.9
548.548	1.77
548.892	1.76
549.236	1.8
549.58	1.85
549.924	1.76
550.268	1.91
550.612	1.73
550.956	1.74
551.3	1.94
551.643	1.82
551.987	2
552.33	1.99
552.674	2.09
553.017	2.11
553.361	1.93
553.704	1.78
554.048	1.83
554.391	1.91
554.734	1.82
555.077	1.87
555.42	1.68
555.764	1.84
556.107	1.97
556.45	1.76
556.793	1.77
557.135	1.74
557.478	1.93
557.821	1.9
558.164	1.86
558.507	1.94
558.849	1.77
559.192	1.89
559.534	1.93
559.877	1.97
560.219	1.88
560.562	1.72
560.904	1.81
561.246	1.86
561.589	1.92
561.931	1.96
562.273	1.71
562.615	1.85
562.957	1.87
563.299	1.83
563.641	1.95
563.983	1.82
564.325	1.98
564.667	1.91
565.008	1.89
565.35	1.77
565.692	1.85
566.033	1.72
566.375	1.8
566.716	1.68
567.058	1.85
567.399	1.67
567.741	1.84
568.082	1.83
568.423	1.86
568.764	1.88
569.105	1.97
569.447	2.06
569.788	1.9
570.129	1.69
570.47	1.95
570.811	1.86
571.151	2.01
571.492	1.95
571.833	1.96
572.174	1.97
572.514	1.89
572.855	1.87
573.195	1.75
573.536	1.77
573.876	1.93
574.217	1.98
574.557	1.81
574.898	1.96
575.238	1.94
575.578	1.78
575.918	1.81
576.258	1.93
576.598	1.73
576.938	1.86
577.278	1.87
577.618	1.99
577.958	1.83
578.298	1.93
578.638	1.87
578.977	1.85
579.317	1.8
579.657	1.85
579.996	1.91
580.336	2.03
580.675	1.82
581.014	1.88
581.354	1.98
581.693	2.06
582.032	1.7
582.372	2.01
582.711	1.93
583.05	1.97
583.389	2.06
583.728	2.07
584.067	2.16
584.406	2.21
584.745	1.94
585.083	1.95
585.422	2.06
585.761	2.17
586.1	1.93
586.438	2.03
586.777	2.01
587.115	1.84
587.454	2.15
587.792	1.67
588.13	2.02
588.469	2.02
588.807	1.96
589.145	1.99
589.483	1.78
589.821	2
590.159	1.93
590.497	1.74
590.835	1.9
591.173	2.07
591.511	2.06
591.849	1.92
592.187	1.77
592.524	1.84
592.862	1.76
593.2	1.77
593.537	1.79
593.875	2.02
594.212	2.04
594.55	2.22
594.887	2.15
595.224	1.91
595.561	1.99
595.899	1.88
596.236	1.88
596.573	1.96
596.91	1.97
597.247	1.96
597.584	1.84
597.921	2.08
598.258	1.97
598.594	2.16
598.931	1.9
599.268	1.82
599.604	1.87
599.941	1.86
600.277	2.03
600.614	1.97
600.95	2.02
601.287	1.97
601.623	1.93
601.959	1.96
602.296	2.17
602.632	1.87
602.968	2.09
603.304	1.87
603.64	1.92
603.976	1.75
604.312	1.8
604.648	2.14
604.984	1.81
605.319	1.95
605.655	1.94
605.991	1.8
606.326	1.83
606.662	2.03
606.998	1.88
607.333	2
607.668	1.96
608.004	1.9
608.339	2.25
608.674	1.98
609.01	1.94
609.345	2.2
609.68	1.88
610.015	1.66
610.35	1.93
610.685	1.8
611.02	2.15
611.355	1.93
611.689	2.04
612.024	1.93
612.359	1.98
612.694	1.99
613.028	2.05
613.363	1.93
613.697	1.89
614.032	2.05
614.366	2.29
614.7	1.88
615.035	2.14
615.369	2.24
615.703	2.04
616.037	1.69
616.371	1.81
616.705	1.82
617.039	1.98
617.373	1.98
617.707	1.71
618.041	1.99
618.375	1.99
618.709	1.97
619.042	2.06
619.376	1.68
619.71	2.07
620.043	2.02
620.377	1.95
620.71	1.97
621.043	1.86
621.377	1.92
621.71	2.28
622.043	2.17
622.376	2.42
622.709	2.28
623.043	2.12
623.376	2.44
623.709	2.12
624.041	1.8
624.374	1.91
624.707	1.8
625.04	1.98
625.373	2.46
625.705	2.27
626.038	2.1
626.37	2.16
626.703	2.34
627.035	1.92
627.368	2.39
627.7	2.22
628.032	1.84
628.365	1.97
628.697	2.23
629.029	1.77
629.361	1.79
629.693	1.96
630.025	1.9
630.357	2.07
630.689	1.89
631.021	2.16
631.353	2.33
631.684	2.01
632.016	2.43
632.348	1.85
632.679	1.7
633.011	2.23
633.342	2.26
633.674	1.97
634.005	2.06
634.336	2.19
634.668	2.09
634.999	2.41
635.33	1.94
635.661	2.3
635.992	2.15
636.323	1.92
636.654	2.13
636.985	2
637.316	2.17
637.647	1.93
637.977	1.98
638.308	1.96
638.639	1.96
638.969	2.03
639.3	1.84
639.63	2.06
639.961	2.04
640.291	1.8
640.622	2.04
640.952	2.2
641.282	2.42
641.612	2.13
641.943	2.17
642.273	2.11
642.603	2.63
642.933	2.14
643.263	1.91
643.592	2.69
643.922	2.14
644.252	2.35
644.582	1.88
644.911	2.13
645.241	1.78
645.571	2.27
645.9	2.13
646.23	1.81
646.559	2.29
646.888	2.44
647.218	2.17
647.547	1.91
647.876	2.07
648.205	2.14
648.534	2.39
648.863	2.13
649.192	2.61
649.521	2.49
649.85	1.97
650.179	2.36
650.508	2.64
650.837	2.19
651.165	2.15
651.494	2.1
651.822	1.69
652.151	2.1
652.479	2.13
652.808	2.51
653.136	2.17
653.465	2.03
653.793	2.29
654.121	2.41
654.449	2.25
654.777	2.52
655.105	2.64
655.433	2.38
655.761	1.93
656.089	1.8
656.417	2.54
656.745	2.05
657.073	2.06
657.4	2.38
657.728	1.46
658.056	2.22
658.383	2.16
658.711	2.41
659.038	2.68
659.365	2.28
659.693	1.99
660.02	1.98
660.347	2.25
660.674	2.11
661.001	1.87
661.329	2.52
661.656	1.85
661.982	2.36
662.309	2.61
662.636	2.29
662.963	2.17
663.29	2.37
663.616	2.04
663.943	2.8
664.27	2.39
664.596	2.26
664.923	3.03
665.249	1.8
665.576	2.55
665.902	2.71
666.228	2.61
666.554	1.96
666.881	1.58
667.207	2.46
667.533	2.51
667.859	2.48
668.185	2.43
668.511	2.16
668.837	2.32
669.162	2.9
669.488	2.31
669.814	2.3
670.139	2.22
670.465	1.46
670.791	2.07
671.116	2.1
671.442	1.67
671.767	2.14
672.092	2.5
672.418	2.2
672.743	2.63
673.068	1.89
673.393	2.29
673.718	2.73
674.043	2.83
674.368	1.8
674.693	2.04
675.018	1.7
675.343	2.29
675.667	2.67
675.992	2.65
676.317	1.75
676.641	2.12
676.966	2.39
677.29	2.06
677.615	2.1
677.939	1.97
678.264	2.77
678.588	2.25
678.912	2.81
679.236	2.56
679.56	2.46
679.885	2.5
680.209	2.38
680.532	2.61
680.856	2.07
681.18	2.55
681.504	2.26
681.828	2.41
682.152	1.98
682.475	2.43
682.799	2.38
683.122	2.62
683.446	2.42
683.769	3.09
684.093	1.9
684.416	2.84
684.739	2.45
685.062	2.19
685.386	2.43
685.709	2.25
686.032	2.18
686.355	1.45
686.678	3.1
687.001	2.27
687.324	2.55
687.646	2.55
687.969	2.12
688.292	2.31
688.614	2.69
688.937	2.7
689.26	2.7
689.582	2.46
689.904	2.42
690.227	2.97
690.549	2.78
690.871	2.73
691.194	3
691.516	2.54
691.838	2.77
692.16	2.79
692.482	2.18
692.804	2.6
693.126	2.41
