Data from 447_chest_Reflection__3__03.txt Node

Date: Tue Dec 12 18:10:45 CST 2023
User: ToomeyLab
Spectrometer: FLMS14357
Trigger mode: 0
Integration Time (sec): 1.000000E-2
Scans to average: 100
Electric dark correction enabled: true
Nonlinearity correction enabled: false
Boxcar width: 0
XAxis mode: Wavelengths
Number of Pixels in Spectrum: 2048
>>>>>Begin Spectral Data<<<<<
189.047	64.71
189.435	64.71
189.823	64.71
190.211	0.19
190.599	552.18
190.987	51.68
191.375	-893.02
191.763	655.41
192.151	21.84
192.538	39.42
192.926	-5.67
193.314	13.15
193.702	225.54
194.089	-128.42
194.477	19.23
194.864	-82.29
195.252	65.73
195.639	56.68
196.027	139.59
196.414	67.77
196.801	114.14
197.189	-1508.33
197.576	-26.37
197.963	133.44
198.351	9.07
198.738	42.87
199.125	47.63
199.512	5.89
199.899	30.68
200.286	38.22
200.673	26.83
201.06	69.75
201.447	-17.84
201.833	-8.11
202.22	10.38
202.607	-119.52
202.994	-13.46
203.38	18.69
203.767	-13.88
204.154	41.31
204.54	34.44
204.927	-15.81
205.313	9.24
205.699	-8.39
206.086	-6.92
206.472	24.37
206.858	26.1
207.245	29.45
207.631	24.74
208.017	28.14
208.403	1.71
208.789	16.97
209.175	29.78
209.561	38.29
209.947	5.55
210.333	28.14
210.719	22.41
211.105	-9.89
211.491	27.07
211.876	25.96
212.262	41.42
212.648	19.28
213.034	7.7
213.419	7.61
213.805	-2.59
214.19	33.89
214.576	38.28
214.961	21.51
215.346	22.81
215.732	6.56
216.117	14.37
216.502	-23.16
216.888	-5.69
217.273	-1.17
217.658	-4.07
218.043	9.09
218.428	17.69
218.813	21.6
219.198	10.31
219.583	24.42
219.968	13.86
220.353	6.35
220.738	1
221.122	15.21
221.507	-1.95
221.892	-3.58
222.276	21.39
222.661	8.24
223.046	-0.31
223.43	7.84
223.815	4.54
224.199	12.82
224.583	8.13
224.968	10.03
225.352	-3.16
225.736	12.96
226.121	-4.81
226.505	2.28
226.889	1.58
227.273	3.19
227.657	10.45
228.041	5.04
228.425	0.8
228.809	5.58
229.193	3.47
229.577	2.72
229.961	3.14
230.344	3.3
230.728	3.17
231.112	3.4
231.495	2.57
231.879	3.58
232.263	3.39
232.646	3.48
233.03	2.95
233.413	1.95
233.797	3.4
234.18	2.73
234.563	3.02
234.946	6.27
235.33	5.38
235.713	3.57
236.096	2.97
236.479	3.02
236.862	2.86
237.245	4.29
237.628	3.66
238.011	2.46
238.394	4.29
238.777	4.92
239.16	2.69
239.543	4.17
239.925	4.3
240.308	4.56
240.691	3.06
241.073	3.71
241.456	4.19
241.838	3.43
242.221	4.65
242.603	4.27
242.986	3.32
243.368	4.72
243.75	3.71
244.133	3.85
244.515	3.79
244.897	4.03
245.279	4.25
245.661	3.41
246.043	3.79
246.425	4.07
246.807	3.89
247.189	3.95
247.571	4.83
247.953	3.95
248.335	3.96
248.717	3.95
249.098	4.09
249.48	3.8
249.862	3.93
250.243	4.05
250.625	4.83
251.006	4.28
251.388	4.06
251.769	4.45
252.151	4.11
252.532	4.12
252.913	4.52
253.295	4.88
253.676	4.04
254.057	4.12
254.438	4.8
254.819	4.22
255.2	4.27
255.581	5.14
255.962	4.85
256.343	5.11
256.724	4.59
257.105	6.34
257.486	3.48
257.867	4.49
258.247	4.35
258.628	4.11
259.009	3.36
259.389	4.43
259.77	3.81
260.15	4.46
260.531	4.86
260.911	4.51
261.292	3.94
261.672	4.15
262.052	3.93
262.432	4.23
262.813	4.3
263.193	4.04
263.573	3.83
263.953	4.78
264.333	4.93
264.713	4.51
265.093	3.97
265.473	4.9
265.853	4.09
266.233	4.28
266.612	3.6
266.992	4.59
267.372	4.42
267.752	4.78
268.131	3.05
268.511	4.43
268.89	3.6
269.27	4.01
269.649	4
270.029	3.68
270.408	4.41
270.787	4.17
271.167	3.79
271.546	3.8
271.925	4.34
272.304	4.52
272.683	3.9
273.062	3.93
273.441	4.15
273.82	3.69
274.199	4.23
274.578	4
274.957	3.9
275.336	4.18
275.715	3.81
276.093	3.33
276.472	4.38
276.851	3.94
277.229	3.81
277.608	3.64
277.986	3.92
278.365	4.13
278.743	4.18
279.122	4.54
279.5	4.21
279.878	3.39
280.257	3.83
280.635	3.61
281.013	4.25
281.391	4.67
281.769	4.66
282.147	3.94
282.525	4.22
282.903	3.66
283.281	4.21
283.659	4.35
284.037	4.26
284.415	3.85
284.792	4.37
285.17	4.02
285.548	3.72
285.925	3.92
286.303	4.02
286.68	3.83
287.058	4.32
287.435	4.11
287.813	3.88
288.19	4.33
288.567	4.25
288.945	4.55
289.322	4.01
289.699	4.15
290.076	4.5
290.453	4.81
290.83	4.66
291.207	4.67
291.584	4.69
291.961	4.72
292.338	4.4
292.715	4.98
293.092	4.68
293.469	4.69
293.845	5.18
294.222	5.63
294.599	5.27
294.975	4.67
295.352	5.44
295.728	5.19
296.105	5.76
296.481	5.49
296.858	6.06
297.234	6
297.61	6.02
297.986	5.81
298.363	6.04
298.739	5.51
299.115	5.6
299.491	5.83
299.867	5.91
300.243	5.6
300.619	5.99
300.995	6
301.371	6.01
301.746	6.12
302.122	6.87
302.498	6.55
302.874	6.64
303.249	6.41
303.625	5.78
304	6.42
304.376	6.18
304.751	6.57
305.127	6.24
305.502	6.49
305.878	6.53
306.253	6.46
306.628	6.85
307.003	6.83
307.378	6.68
307.754	6.35
308.129	6.55
308.504	7.89
308.879	6.45
309.254	7.45
309.629	6.81
310.003	7.7
310.378	7.07
310.753	7.53
311.128	7.38
311.502	7.04
311.877	6.86
312.252	6.67
312.626	7.21
313.001	6.97
313.375	7.19
313.75	7.4
314.124	7.73
314.498	7.81
314.873	7.1
315.247	7.7
315.621	7.41
315.995	8.07
316.369	7.82
316.743	7.42
317.117	7.42
317.491	7.64
317.865	7.85
318.239	8.05
318.613	8.09
318.987	8.12
319.361	7.62
319.734	8.06
320.108	8.61
320.482	7.49
320.855	7.83
321.229	8.42
321.602	8.19
321.976	8.81
322.349	8.81
322.723	8.29
323.096	9.11
323.469	8.35
323.843	9.32
324.216	8.44
324.589	8.23
324.962	8.34
325.335	8.79
325.708	8.52
326.081	8.82
326.454	8.69
326.827	8.97
327.2	8.5
327.573	8.87
327.945	8.79
328.318	9.08
328.691	8.47
329.063	9.17
329.436	9.09
329.809	9.23
330.181	8.96
330.553	9.03
330.926	9.13
331.298	8.79
331.671	9.16
332.043	8.92
332.415	9.27
332.787	9.57
333.159	9.29
333.532	8.94
333.904	8.99
334.276	9.75
334.648	8.9
335.02	8.74
335.391	8.94
335.763	8.77
336.135	9.02
336.507	9.47
336.879	8.94
337.25	9.2
337.622	8.98
337.993	9.04
338.365	9.03
338.736	9.72
339.108	8.99
339.479	9.68
339.851	8.88
340.222	8.7
340.593	9.81
340.964	9.35
341.336	9.4
341.707	9.16
342.078	8.69
342.449	9.44
342.82	9.29
343.191	9.24
343.562	8.96
343.933	9.59
344.303	9.43
344.674	9.61
345.045	9.56
345.416	9.51
345.786	9.01
346.157	9.47
346.527	10.04
346.898	9.54
347.268	9.35
347.639	9.57
348.009	9.38
348.38	9.46
348.75	9.63
349.12	9.5
349.49	9.78
349.861	9.73
350.231	9.9
350.601	9.47
350.971	9.78
351.341	9.37
351.711	9.68
352.081	9.3
352.45	9.33
352.82	9.84
353.19	9.69
353.56	9.58
353.929	9.65
354.299	9.53
354.669	9.61
355.038	9.33
355.408	9.57
355.777	9.85
356.147	9.71
356.516	10.02
356.885	9.82
357.254	9.76
357.624	9.56
357.993	9.63
358.362	9.94
358.731	9.67
359.1	9.47
359.469	9.65
359.838	9.96
360.207	9.63
360.576	9.84
360.945	9.64
361.314	9.77
361.682	9.79
362.051	9.97
362.42	9.8
362.788	9.74
363.157	9.8
363.525	9.7
363.894	9.61
364.262	9.91
364.631	9.67
364.999	9.84
365.367	9.93
365.735	9.89
366.104	10.03
366.472	9.97
366.84	9.75
367.208	9.82
367.576	9.64
367.944	10.35
368.312	9.97
368.68	10.13
369.048	10.2
369.416	9.79
369.783	10.14
370.151	10.13
370.519	10.05
370.886	10.31
371.254	9.82
371.621	10.35
371.989	9.77
372.356	10.13
372.724	9.98
373.091	10.1
373.458	10.07
373.826	10.06
374.193	9.88
374.56	10.73
374.927	10.29
375.294	10.52
375.661	10.91
376.028	10.04
376.395	10.42
376.762	10.67
377.129	10.42
377.496	10.14
377.863	10.39
378.229	10.09
378.596	10.32
378.963	10.82
379.329	10.39
379.696	10.23
380.062	10.5
380.429	10.31
380.795	10.69
381.161	10.59
381.528	10.73
381.894	10.48
382.26	10.38
382.626	10.44
382.993	10.92
383.359	10.33
383.725	10.35
384.091	10.45
384.457	10.49
384.823	10.61
385.188	10.62
385.554	10.73
385.92	10.21
386.286	10.78
386.651	10.96
387.017	10.78
387.383	10.81
387.748	10.7
388.114	10.9
388.479	10.77
388.845	10.87
389.21	10.83
389.575	10.65
389.94	10.72
390.306	10.98
390.671	10.74
391.036	11.04
391.401	10.85
391.766	10.87
392.131	10.73
392.496	10.76
392.861	10.44
393.226	10.92
393.591	10.76
393.956	10.7
394.32	11.24
394.685	11.04
395.05	10.75
395.414	10.9
395.779	10.58
396.143	11.1
396.508	10.73
396.872	10.89
397.236	10.95
397.601	11.12
397.965	11.16
398.329	11.16
398.694	11.02
399.058	11.01
399.422	11.24
399.786	11.22
400.15	10.89
400.514	11.15
400.878	11.21
401.242	11.1
401.605	11.16
401.969	11.02
402.333	11.15
402.697	11.09
403.06	10.97
403.424	11.33
403.787	11.33
404.151	11.38
404.514	11.11
404.878	11.22
405.241	11.58
405.604	11.32
405.968	11.13
406.331	11.21
406.694	11.49
407.057	11.24
407.42	11.23
407.783	11.15
408.146	11.25
408.509	11.41
408.872	11.52
409.235	11.18
409.598	11.34
409.961	11.39
410.323	11.64
410.686	11.23
411.049	11.56
411.411	11.47
411.774	11.44
412.136	11.6
412.499	11.53
412.861	11.5
413.223	11.85
413.586	11.55
413.948	11.49
414.31	11.71
414.672	11.68
415.035	11.54
415.397	11.48
415.759	11.47
416.121	11.56
416.483	11.55
416.845	11.52
417.206	11.66
417.568	11.36
417.93	11.59
418.292	11.4
418.653	11.6
419.015	11.39
419.377	11.61
419.738	11.48
420.1	11.52
420.461	11.54
420.822	11.47
421.184	11.35
421.545	11.55
421.906	11.42
422.267	11.48
422.629	11.47
422.99	11.49
423.351	11.32
423.712	11.48
424.073	11.47
424.434	11.59
424.795	11.6
425.155	11.42
425.516	11.44
425.877	11.47
426.238	11.49
426.598	11.58
426.959	11.65
427.32	11.62
427.68	11.64
428.041	11.76
428.401	11.62
428.761	11.72
429.122	11.84
429.482	11.84
429.842	11.83
430.202	11.72
430.563	11.91
430.923	11.88
431.283	11.87
431.643	12.01
432.003	11.83
432.363	12.03
432.722	11.79
433.082	12.09
433.442	11.98
433.802	12.08
434.161	11.94
434.521	12.09
434.881	12.15
435.24	12.11
435.6	12
435.959	12.17
436.319	12.09
436.678	12.14
437.037	12.13
437.396	12.23
437.756	12.06
438.115	12.11
438.474	12.21
438.833	12.29
439.192	12.57
439.551	12.25
439.91	12.15
440.269	12.22
440.628	12.13
440.987	12.08
441.345	12.27
441.704	12.31
442.063	12.27
442.421	12.3
442.78	12.15
443.138	12.18
443.497	12.3
443.855	12.25
444.214	12.23
444.572	12.36
444.93	12.39
445.288	12.3
445.647	12.47
446.005	12.28
446.363	12.15
446.721	12.34
447.079	12.33
447.437	12.34
447.795	12.43
448.153	12.38
448.51	12.38
448.868	12.38
449.226	12.43
449.584	12.34
449.941	12.39
450.299	12.5
450.656	12.4
451.014	12.53
451.371	12.74
451.729	12.7
452.086	12.71
452.443	12.86
452.801	12.58
453.158	12.55
453.515	12.57
453.872	12.74
454.229	12.66
454.586	12.67
454.943	12.54
455.3	12.63
455.657	12.77
456.014	13.01
456.371	12.83
456.727	13.08
457.084	12.92
457.441	12.98
457.797	13.02
458.154	12.89
458.51	12.92
458.867	12.98
459.223	13.04
459.58	13.06
459.936	12.86
460.292	13.07
460.648	12.99
461.005	12.96
461.361	12.83
461.717	12.82
462.073	12.83
462.429	12.95
462.785	12.93
463.141	13.01
463.496	13.04
463.852	13.25
464.208	13.24
464.564	13.25
464.919	13.43
465.275	13.19
465.631	13.26
465.986	13.31
466.342	13.35
466.697	13.42
467.052	13.46
467.408	13.43
467.763	13.47
468.118	13.56
468.473	13.44
468.829	13.56
469.184	13.51
469.539	13.78
469.894	13.53
470.249	13.58
470.603	13.74
470.958	13.65
471.313	13.65
471.668	13.87
472.023	13.64
472.377	13.65
472.732	13.52
473.086	13.8
473.441	13.91
473.795	13.7
474.15	13.67
474.504	13.8
474.859	13.85
475.213	13.83
475.567	13.94
475.921	13.7
476.275	13.84
476.63	13.77
476.984	13.82
477.338	13.88
477.692	13.78
478.045	13.81
478.399	13.86
478.753	13.77
479.107	13.87
479.461	13.83
479.814	13.87
480.168	13.77
480.521	13.78
480.875	13.92
481.228	14.01
481.582	14.03
481.935	14
482.289	13.98
482.642	13.96
482.995	13.81
483.348	13.82
483.701	13.85
484.055	13.78
484.408	13.64
484.761	13.49
485.114	13.26
485.466	13.14
485.819	13.2
486.172	13.22
486.525	13.4
486.878	13.47
487.23	13.5
487.583	13.48
487.936	13.58
488.288	13.54
488.641	13.55
488.993	13.45
489.345	13.46
489.698	13.47
490.05	13.5
490.402	13.65
490.754	13.71
491.107	13.78
491.459	13.92
491.811	13.93
492.163	13.89
492.515	13.9
492.866	13.79
493.218	13.66
493.57	13.69
493.922	13.77
494.274	14.02
494.625	14.14
494.977	14.15
495.328	14.34
495.68	14.18
496.031	14.42
496.383	14.47
496.734	14.56
497.086	14.45
497.437	14.57
497.788	14.56
498.139	14.48
498.49	14.51
498.842	14.43
499.193	14.58
499.544	14.61
499.894	14.51
500.245	14.65
500.596	14.59
500.947	14.67
501.298	14.75
501.648	14.89
501.999	14.82
502.35	14.84
502.7	14.84
503.051	14.73
503.401	14.97
503.752	15
504.102	14.99
504.452	15.04
504.803	14.92
505.153	15.06
505.503	15.11
505.853	15.08
506.203	14.84
506.553	14.92
506.903	15.21
507.253	15.14
507.603	15.05
507.953	15.04
508.303	15.1
508.652	15.16
509.002	15.28
509.352	15.14
509.701	15.21
510.051	15.15
510.4	15.2
510.75	15.23
511.099	15.14
511.449	15.2
511.798	15.2
512.147	15.26
512.496	15.24
512.846	15.14
513.195	15.2
513.544	15.28
513.893	15.14
514.242	15.25
514.591	15.2
514.939	15.31
515.288	15.24
515.637	15.2
515.986	15.51
516.334	15.43
516.683	15.42
517.032	15.6
517.38	15.34
517.729	15.56
518.077	15.49
518.426	15.59
518.774	15.45
519.122	15.49
519.47	15.39
519.819	15.27
520.167	15.2
520.515	15.16
520.863	15.26
521.211	15.4
521.559	15.51
521.907	15.34
522.255	15.52
522.602	15.67
522.95	15.58
523.298	15.67
523.645	15.73
523.993	15.85
524.341	15.76
524.688	15.8
525.036	15.9
525.383	15.69
525.73	15.8
526.078	15.72
526.425	15.62
526.772	15.58
527.119	15.58
527.466	15.48
527.814	15.4
528.161	15.63
528.508	15.54
528.854	15.51
529.201	15.3
529.548	15.36
529.895	15.12
530.242	15.03
530.588	15.14
530.935	15.31
531.282	15.39
531.628	15.48
531.975	15.46
532.321	15.52
532.667	15.63
533.014	15.77
533.36	15.88
533.706	15.79
534.052	15.75
534.399	15.7
534.745	15.65
535.091	15.45
535.437	15.74
535.783	15.75
536.129	15.84
536.474	15.88
536.82	15.93
537.166	16.12
537.512	16.01
537.857	15.94
538.203	15.99
538.549	15.97
538.894	16.11
539.239	16.18
539.585	16.26
539.93	16.16
540.276	16.27
540.621	16.23
540.966	16.3
541.311	16.43
541.656	16.31
542.001	16.36
542.346	16.04
542.691	15.99
543.036	15.84
543.381	15.91
543.726	15.98
544.071	16.07
544.415	16.12
544.76	16.23
545.105	16.17
545.449	16.35
545.794	16.46
546.138	16.33
546.483	16.55
546.827	16.58
547.171	16.66
547.516	16.59
547.86	16.74
548.204	16.65
548.548	16.69
548.892	16.64
549.236	16.76
549.58	16.79
549.924	16.95
550.268	17.11
550.612	16.94
550.956	17.09
551.3	17.22
551.643	17.09
551.987	17.21
552.33	17.18
552.674	17.22
553.017	17.36
553.361	17.29
553.704	17.44
554.048	17.18
554.391	17.3
554.734	17.2
555.077	17.32
555.42	17.29
555.764	17.38
556.107	17.53
556.45	17.32
556.793	17.56
557.135	17.39
557.478	17.73
557.821	17.7
558.164	17.73
558.507	17.71
558.849	17.68
559.192	17.7
559.534	17.62
559.877	17.55
560.219	17.87
560.562	17.72
560.904	17.79
561.246	17.81
561.589	17.76
561.931	17.78
562.273	17.68
562.615	17.84
562.957	17.75
563.299	17.85
563.641	17.98
563.983	17.76
564.325	17.88
564.667	17.98
565.008	17.95
565.35	18.16
565.692	17.94
566.033	18.03
566.375	18.14
566.716	17.8
567.058	17.95
567.399	18.07
567.741	18.09
568.082	17.94
568.423	17.95
568.764	17.99
569.105	18.08
569.447	18.03
569.788	18.18
570.129	18.21
570.47	18.18
570.811	18.35
571.151	18.31
571.492	18.3
571.833	18.1
572.174	18.19
572.514	18.22
572.855	18.22
573.195	18.29
573.536	18.15
573.876	18.15
574.217	18.21
574.557	18.1
574.898	18.37
575.238	18.35
575.578	18.25
575.918	18.25
576.258	18.41
576.598	18.22
576.938	18.37
577.278	18.48
577.618	18.43
577.958	18.55
578.298	18.64
578.638	18.68
578.977	18.66
579.317	18.55
579.657	18.54
579.996	18.88
580.336	18.75
580.675	18.76
581.014	18.81
581.354	18.94
581.693	18.75
582.032	18.9
582.372	19.11
582.711	19
583.05	19.15
583.389	18.91
583.728	19.09
584.067	19.27
584.406	19.33
584.745	19.27
585.083	19.16
585.422	19.22
585.761	19.21
586.1	19.21
586.438	19.58
586.777	19.32
587.115	19.09
587.454	19.61
587.792	19.23
588.13	19.5
588.469	19.53
588.807	19.35
589.145	19.61
589.483	19.41
589.821	19.47
590.159	19.48
590.497	19.47
590.835	19.36
591.173	19.58
591.511	19.49
591.849	19.42
592.187	19.39
592.524	19.51
592.862	19.6
593.2	19.2
593.537	19.29
593.875	19.76
594.212	19.46
594.55	19.73
594.887	19.97
595.224	19.74
595.561	19.66
595.899	19.29
596.236	19.59
596.573	19.5
596.91	19.79
597.247	19.7
597.584	19.44
597.921	19.47
598.258	19.39
598.594	19.56
598.931	19.52
599.268	19.41
599.604	19.61
599.941	19.81
600.277	19.63
600.614	19.7
600.95	19.92
601.287	20.01
601.623	20.16
601.959	20.07
602.296	20.2
602.632	19.97
602.968	20.14
603.304	19.89
603.64	20.11
603.976	20.13
604.312	20.06
604.648	20.08
604.984	19.84
605.319	20
605.655	19.93
605.991	19.87
606.326	19.86
606.662	20.03
606.998	19.86
607.333	20.23
607.668	20.05
608.004	20.1
608.339	20.26
608.674	19.87
609.01	20.27
609.345	20.33
609.68	20.4
610.015	20.14
610.35	20.25
610.685	20.47
611.02	20.38
611.355	20.26
611.689	20.38
612.024	20.23
612.359	20.56
612.694	20.41
613.028	20.61
613.363	20.73
613.697	20.57
614.032	20.71
614.366	21
614.7	20.74
615.035	20.84
615.369	20.51
615.703	20.56
616.037	20.65
616.371	20.3
616.705	20.49
617.039	21.05
617.373	21.13
617.707	20.66
618.041	21.19
618.375	20.81
618.709	21
619.042	20.79
619.376	20.95
619.71	21.14
620.043	21.15
620.377	21.01
620.71	21.06
621.043	21.08
621.377	20.84
621.71	21.38
622.043	21.39
622.376	21.09
622.709	21.2
623.043	21.16
623.376	21.44
623.709	21.56
624.041	21.37
624.374	21.37
624.707	21.13
625.04	21.22
625.373	21.21
625.705	21.41
626.038	21.36
626.37	21.74
626.703	21.43
627.035	21.1
627.368	21.86
627.7	21.32
628.032	21.26
628.365	21.32
628.697	21.56
629.029	21.25
629.361	21.61
629.693	21.37
630.025	21.56
630.357	21.75
630.689	21.43
631.021	21.78
631.353	22.02
631.684	21.71
632.016	21.63
632.348	21.62
632.679	21.65
633.011	21.76
633.342	22.17
633.674	22.19
634.005	22.03
634.336	22.26
634.668	22.4
634.999	22.22
635.33	21.91
635.661	21.8
635.992	22
636.323	21.71
636.654	22.1
636.985	21.66
637.316	22.01
637.647	21.92
637.977	22.25
638.308	22.05
638.639	22.2
638.969	22.36
639.3	22.27
639.63	22.38
639.961	22.49
640.291	22.12
640.622	22.29
640.952	22.35
641.282	22.11
641.612	21.96
641.943	22.38
642.273	22.76
642.603	23.07
642.933	22.55
643.263	22.09
643.592	22.69
643.922	22.84
644.252	22.74
644.582	22.16
644.911	22.42
645.241	22.44
645.571	23.23
645.9	22.48
646.23	22.58
646.559	23.06
646.888	22.71
647.218	22.52
647.547	23
647.876	22.93
648.205	22.83
648.534	23.05
648.863	22.58
649.192	23.57
649.521	23.48
649.85	23.1
650.179	23.6
650.508	23.24
650.837	23.16
651.165	22.81
651.494	22.63
651.822	22.91
652.151	23.26
652.479	22.99
652.808	23.03
653.136	23
653.465	22.89
653.793	23.18
654.121	23.27
654.449	23.31
654.777	23.81
655.105	23.44
655.433	23.7
655.761	23.52
656.089	23.22
656.417	23.55
656.745	23.27
657.073	23.06
657.4	23.4
657.728	23.15
658.056	23.11
658.383	23.13
658.711	23.3
659.038	23.2
659.365	23.29
659.693	23.67
660.02	23.42
660.347	23.42
660.674	23.86
661.001	23.35
661.329	23.57
661.656	23.14
661.982	23.22
662.309	23.1
662.636	23.24
662.963	23.93
663.29	24.26
663.616	23.66
663.943	23.82
664.27	24.37
664.596	24.36
664.923	24.88
665.249	23.75
665.576	23.86
665.902	24.03
666.228	24.6
666.554	23.77
666.881	23.66
667.207	24.31
667.533	24.06
667.859	23.89
668.185	24.24
668.511	24.66
668.837	24.21
669.162	24.11
669.488	24.34
669.814	24.5
670.139	24.14
670.465	24.02
670.791	24.11
671.116	24.23
671.442	24.34
671.767	24.37
672.092	25.15
672.418	24.24
672.743	24.27
