Data from 447_chest_Reflection__0__00.txt Node

Date: Tue Dec 12 18:10:14 CST 2023
User: ToomeyLab
Spectrometer: FLMS14357
Trigger mode: 0
Integration Time (sec): 1.000000E-2
Scans to average: 100
Electric dark correction enabled: true
Nonlinearity correction enabled: false
Boxcar width: 0
XAxis mode: Wavelengths
Number of Pixels in Spectrum: 2048
>>>>>Begin Spectral Data<<<<<
189.047	80.67
189.435	80.67
189.823	80.67
190.211	-74.68
190.599	-170.87
190.987	145.35
191.375	400
191.763	175.44
192.151	129.44
192.538	29.77
192.926	37.33
193.314	113.55
193.702	125.3
194.089	147.85
194.477	-152.22
194.864	212.67
195.252	21.01
195.639	308.07
196.027	104.57
196.414	105.6
196.801	125.84
197.189	1718.52
197.576	-318.43
197.963	91.1
198.351	29.48
198.738	30.93
199.125	19.63
199.512	7.34
199.899	31.95
200.286	27.04
200.673	-40.07
201.06	-6.64
201.447	-73.39
201.833	3.23
202.22	18.77
202.607	-85.07
202.994	9.07
203.38	53.7
203.767	-11.02
204.154	34.3
204.54	18.49
204.927	-3.11
205.313	51.99
205.699	16.45
206.086	22.82
206.472	21.4
206.858	55.37
207.245	49.29
207.631	-15.5
208.017	14.65
208.403	-26.26
208.789	49.32
209.175	-1.53
209.561	38.32
209.947	5.83
210.333	28.35
210.719	-5.47
211.105	3.09
211.491	21.59
211.876	26.49
212.262	38.66
212.648	19.03
213.034	-9.19
213.419	-9.89
213.805	20.02
214.19	45.92
214.576	11.2
214.961	33.6
215.346	-21.08
215.732	33.45
216.117	0.33
216.502	41.89
216.888	3.32
217.273	-5.78
217.658	-1.54
218.043	17.86
218.428	3.76
218.813	17.07
219.198	-2.69
219.583	21.11
219.968	12.57
220.353	-5.03
220.738	28.67
221.122	7.75
221.507	-4.07
221.892	8.96
222.276	14.9
222.661	1
223.046	-1.39
223.43	7.92
223.815	14.93
224.199	2.3
224.583	7.63
224.968	1.66
225.352	2.51
225.736	15.54
226.121	6.26
226.505	3.83
226.889	6.84
227.273	0.51
227.657	10.01
228.041	8.61
228.425	0.49
228.809	3.93
229.193	2.1
229.577	4.74
229.961	2.12
230.344	2.56
230.728	3.8
231.112	2.76
231.495	2.71
231.879	4.86
232.263	2.49
232.646	3.8
233.03	3.32
233.413	1.71
233.797	3.98
234.18	3.6
234.563	3.75
234.946	4.22
235.33	5.04
235.713	3.71
236.096	3.36
236.479	3.04
236.862	2.49
237.245	3.01
237.628	3.38
238.011	3.45
238.394	3.92
238.777	3.7
239.16	4.51
239.543	4.19
239.925	5.23
240.308	4.65
240.691	3.32
241.073	3.51
241.456	5.12
241.838	3.59
242.221	3.21
242.603	4.09
242.986	3.27
243.368	3.7
243.75	3.69
244.133	3.12
244.515	3.4
244.897	3.4
245.279	4.14
245.661	3.46
246.043	2.71
246.425	3.66
246.807	2.49
247.189	4.01
247.571	3.85
247.953	2.98
248.335	3.34
248.717	3.12
249.098	3.18
249.48	3.09
249.862	3.45
250.243	3.13
250.625	3.69
251.006	3.86
251.388	3.14
251.769	3.74
252.151	2.96
252.532	3.93
252.913	4.51
253.295	3.88
253.676	3.49
254.057	3.46
254.438	3.76
254.819	3.05
255.2	3.25
255.581	3.67
255.962	2.11
256.343	3.87
256.724	3.82
257.105	4.55
257.486	3.53
257.867	3.22
258.247	2.36
258.628	4.05
259.009	3.02
259.389	3.74
259.77	3.56
260.15	3.1
260.531	3.65
260.911	3.79
261.292	2.8
261.672	3.08
262.052	3.09
262.432	3.15
262.813	3.36
263.193	3.71
263.573	3.5
263.953	3.85
264.333	4.23
264.713	3.51
265.093	3.92
265.473	3.39
265.853	3.11
266.233	3.31
266.612	2.4
266.992	3.19
267.372	3.42
267.752	3.83
268.131	2.75
268.511	2.83
268.89	2.51
269.27	2.53
269.649	3.87
270.029	2.78
270.408	3.1
270.787	3.25
271.167	3.47
271.546	3.35
271.925	3.87
272.304	3.62
272.683	2.45
273.062	2.83
273.441	3.46
273.82	2.51
274.199	3.1
274.578	3
274.957	2.91
275.336	3.25
275.715	3.59
276.093	2.59
276.472	3.13
276.851	3.37
277.229	2.83
277.608	2.97
277.986	2.99
278.365	3.04
278.743	2.98
279.122	3.61
279.5	2.88
279.878	2.38
280.257	3.54
280.635	2.91
281.013	3.56
281.391	3.1
281.769	2.56
282.147	3.3
282.525	2.59
282.903	2.97
283.281	3.04
283.659	2.56
284.037	3.35
284.415	2.89
284.792	2.94
285.17	3.09
285.548	2.87
285.925	3.03
286.303	3.16
286.68	2.82
287.058	3.04
287.435	3.4
287.813	2.8
288.19	3.07
288.567	3.13
288.945	3.08
289.322	2.24
289.699	3.53
290.076	3.23
290.453	3.8
290.83	3.33
291.207	3.6
291.584	3.22
291.961	2.8
292.338	3.12
292.715	3.27
293.092	3.04
293.469	3.41
293.845	3.65
294.222	3.42
294.599	3.11
294.975	3.41
295.352	3.64
295.728	4.11
296.105	3.63
296.481	4.34
296.858	4.12
297.234	3.78
297.61	3.65
297.986	3.87
298.363	3.85
298.739	3.78
299.115	3.41
299.491	3.64
299.867	3.58
300.243	3.37
300.619	3.85
300.995	4
301.371	3.76
301.746	4.01
302.122	4.11
302.498	3.81
302.874	4.11
303.249	3.91
303.625	3.68
304	4.14
304.376	4.14
304.751	4.12
305.127	4.1
305.502	4.14
305.878	3.8
306.253	3.88
306.628	3.88
307.003	4.19
307.378	3.97
307.754	4.11
308.129	4.14
308.504	5.01
308.879	3.88
309.254	4.82
309.629	4.19
310.003	4.4
310.378	4.62
310.753	4.31
311.128	4.01
311.502	3.87
311.877	3.79
312.252	3.69
312.626	3.94
313.001	3.7
313.375	3.99
313.75	4.24
314.124	4.49
314.498	4.04
314.873	4.34
315.247	5.05
315.621	3.96
315.995	4.75
316.369	4.24
316.743	4.13
317.117	4.25
317.491	4.51
317.865	4.36
318.239	4.37
318.613	4.95
318.987	4.68
319.361	4.19
319.734	4.48
320.108	4.3
320.482	4.41
320.855	3.82
321.229	4.37
321.602	4.38
321.976	4.61
322.349	4.83
322.723	4.19
323.096	4.29
323.469	4.73
323.843	4.83
324.216	5.54
324.589	4.71
324.962	4.62
325.335	4.62
325.708	4.63
326.081	4.71
326.454	4.46
326.827	4.68
327.2	4.45
327.573	4.19
327.945	4.73
328.318	4.98
328.691	4.08
329.063	4.79
329.436	4.91
329.809	4.6
330.181	4.28
330.553	4.11
330.926	4.84
331.298	4.79
331.671	4.55
332.043	4.32
332.415	5.13
332.787	4.68
333.159	5
333.532	4.65
333.904	4.78
334.276	5.27
334.648	4.67
335.02	4.19
335.391	4.57
335.763	4.88
336.135	4.81
336.507	5.05
336.879	4.65
337.25	4.88
337.622	4.57
337.993	4.44
338.365	4.33
338.736	4.9
339.108	4.9
339.479	4.82
339.851	4.28
340.222	4.29
340.593	4.79
340.964	4.52
341.336	4.53
341.707	4.59
342.078	4.53
342.449	4.47
342.82	5.02
343.191	4.89
343.562	4.91
343.933	5.15
344.303	4.89
344.674	4.9
345.045	4.99
345.416	4.78
345.786	4.66
346.157	4.5
346.527	4.87
346.898	4.21
347.268	4.6
347.639	5.09
348.009	4.65
348.38	4.67
348.75	4.73
349.12	5.14
349.49	4.61
349.861	4.79
350.231	5.03
350.601	5.2
350.971	4.98
351.341	4.43
351.711	5.17
352.081	4.72
352.45	4.64
352.82	4.91
353.19	4.64
353.56	4.47
353.929	4.76
354.299	4.79
354.669	4.64
355.038	4.55
355.408	4.56
355.777	5.04
356.147	4.72
356.516	5.25
356.885	4.72
357.254	4.86
357.624	4.38
357.993	4.55
358.362	4.8
358.731	4.91
359.1	4.86
359.469	4.81
359.838	4.62
360.207	4.43
360.576	5.19
360.945	4.85
361.314	4.9
361.682	4.68
362.051	4.84
362.42	4.97
362.788	4.66
363.157	5.04
363.525	4.67
363.894	4.6
364.262	4.87
364.631	4.59
364.999	5.15
365.367	5.16
365.735	4.91
366.104	4.96
366.472	4.98
366.84	4.95
367.208	4.67
367.576	4.95
367.944	5.01
368.312	4.96
368.68	4.94
369.048	5.15
369.416	5.18
369.783	5.07
370.151	4.87
370.519	4.81
370.886	4.85
371.254	4.95
371.621	5.55
371.989	5.16
372.356	5.05
372.724	5
373.091	5.18
373.458	4.91
373.826	5.26
374.193	4.71
374.56	5.13
374.927	4.75
375.294	5.02
375.661	5.15
376.028	5.29
376.395	5.33
376.762	5.32
377.129	4.96
377.496	5.08
377.863	4.9
378.229	4.75
378.596	4.82
378.963	5.22
379.329	5.03
379.696	5.18
380.062	5.39
380.429	5.31
380.795	4.93
381.161	5.3
381.528	5.23
381.894	5.19
382.26	4.97
382.626	4.84
382.993	5.27
383.359	4.95
383.725	5
384.091	4.8
384.457	4.81
384.823	5.29
385.188	5.23
385.554	5.11
385.92	5.03
386.286	5.42
386.651	5.16
387.017	5.45
387.383	5.04
387.748	5.12
388.114	5.26
388.479	5.18
388.845	5.01
389.21	5.15
389.575	5.14
389.94	4.99
390.306	5.4
390.671	5.1
391.036	4.92
391.401	5.2
391.766	5.34
392.131	5.24
392.496	5.04
392.861	5.03
393.226	5.2
393.591	5.08
393.956	4.99
394.32	5.33
394.685	5.15
395.05	5.21
395.414	5.01
395.779	4.94
396.143	5.49
396.508	5.14
396.872	5.2
397.236	5.39
397.601	5.24
397.965	5.15
398.329	5.34
398.694	5.28
399.058	5.43
399.422	5.09
399.786	5.25
400.15	5.15
400.514	5.46
400.878	5.45
401.242	5.46
401.605	5.51
401.969	5.41
402.333	5.47
402.697	5.26
403.06	5.17
403.424	5.44
403.787	5.23
404.151	5.49
404.514	5.26
404.878	5.57
405.241	5.46
405.604	5.29
405.968	5.3
406.331	5.64
406.694	5.57
407.057	5.2
407.42	5.35
407.783	5.22
408.146	5.27
408.509	5.35
408.872	5.36
409.235	5.41
409.598	5.16
409.961	5.59
410.323	5.42
410.686	5.46
411.049	5.54
411.411	5.59
411.774	5.48
412.136	5.47
412.499	5.6
412.861	5.47
413.223	5.73
413.586	5.39
413.948	5.54
414.31	5.4
414.672	5.41
415.035	5.57
415.397	5.45
415.759	5.55
416.121	5.53
416.483	5.64
416.845	5.3
417.206	5.81
417.568	5.58
417.93	5.32
418.292	5.31
418.653	5.46
419.015	5.55
419.377	5.47
419.738	5.44
420.1	5.42
420.461	5.44
420.822	5.45
421.184	5.51
421.545	5.57
421.906	5.45
422.267	5.41
422.629	5.5
422.99	5.46
423.351	5.38
423.712	5.46
424.073	5.52
424.434	5.53
424.795	5.45
425.155	5.42
425.516	5.44
425.877	5.42
426.238	5.46
426.598	5.44
426.959	5.48
427.32	5.55
427.68	5.48
428.041	5.65
428.401	5.55
428.761	5.66
429.122	5.8
429.482	5.78
429.842	5.68
430.202	5.51
430.563	5.79
430.923	5.86
431.283	5.59
431.643	5.9
432.003	5.69
432.363	5.72
432.722	5.61
433.082	5.79
433.442	5.71
433.802	5.7
434.161	5.66
434.521	5.97
434.881	5.7
435.24	5.79
435.6	5.81
435.959	5.85
436.319	5.82
436.678	5.94
437.037	5.92
437.396	5.74
437.756	5.82
438.115	5.92
438.474	5.77
438.833	5.95
439.192	5.89
439.551	5.76
439.91	5.83
440.269	5.93
440.628	5.9
440.987	5.75
441.345	5.87
441.704	5.76
442.063	5.83
442.421	5.9
442.78	5.84
443.138	5.83
443.497	5.86
443.855	5.85
444.214	5.88
444.572	5.98
444.93	5.89
445.288	5.74
445.647	5.98
446.005	5.85
446.363	5.85
446.721	5.78
447.079	5.89
447.437	5.83
447.795	5.85
448.153	5.9
448.51	5.87
448.868	5.86
449.226	5.95
449.584	5.88
449.941	5.91
450.299	5.97
450.656	5.96
451.014	5.98
451.371	6.12
451.729	6.15
452.086	6.13
452.443	6.22
452.801	6.04
453.158	6
453.515	6.11
453.872	6.06
454.229	6.19
454.586	6.14
454.943	6.08
455.3	6
455.657	6.06
456.014	6.18
456.371	6.22
456.727	6.13
457.084	6.12
457.441	6.21
457.797	6.06
458.154	6.17
458.51	6.13
458.867	6.21
459.223	6.24
459.58	6.13
459.936	5.99
460.292	6.22
460.648	6.28
461.005	6.18
461.361	6.01
461.717	6.27
462.073	6.04
462.429	6.21
462.785	6.21
463.141	6.28
463.496	6.23
463.852	6.41
464.208	6.2
464.564	6.34
464.919	6.34
465.275	6.33
465.631	6.64
465.986	6.37
466.342	6.3
466.697	6.43
467.052	6.64
467.408	6.41
467.763	6.5
468.118	6.42
468.473	6.34
468.829	6.46
469.184	6.34
469.539	6.54
469.894	6.54
470.249	6.41
470.603	6.49
470.958	6.37
471.313	6.55
471.668	6.56
472.023	6.34
472.377	6.35
472.732	6.57
473.086	6.57
473.441	6.68
473.795	6.57
474.15	6.74
474.504	6.51
474.859	6.65
475.213	6.51
475.567	6.6
475.921	6.72
476.275	6.46
476.63	6.64
476.984	6.62
477.338	6.53
477.692	6.61
478.045	6.55
478.399	6.6
478.753	6.72
479.107	6.55
479.461	6.6
479.814	6.54
480.168	6.55
480.521	6.53
480.875	6.56
481.228	6.94
481.582	6.65
481.935	6.64
482.289	6.64
482.642	6.75
482.995	6.61
483.348	6.61
483.701	6.77
484.055	6.6
484.408	6.54
484.761	6.49
485.114	6.31
485.466	6.31
485.819	6.26
486.172	6.37
486.525	6.48
486.878	6.53
487.23	6.52
487.583	6.53
487.936	6.59
488.288	6.51
488.641	6.53
488.993	6.47
489.345	6.51
489.698	6.5
490.05	6.55
490.402	6.63
490.754	6.59
491.107	6.67
491.459	6.74
491.811	6.8
492.163	6.74
492.515	6.75
492.866	6.66
493.218	6.59
493.57	6.58
493.922	6.59
494.274	6.77
494.625	6.83
494.977	6.88
495.328	6.98
495.68	6.86
496.031	6.95
496.383	7.04
496.734	7.01
497.086	6.95
497.437	6.99
497.788	7.12
498.139	6.98
498.49	7.13
498.842	6.99
499.193	7.06
499.544	7.05
499.894	7.11
500.245	7.04
500.596	7.04
500.947	7.11
501.298	7.2
501.648	7.27
501.999	7.05
502.35	7.15
502.7	7.2
503.051	7.07
503.401	7.19
503.752	7.34
504.102	7.16
504.452	7.2
504.803	7.31
505.153	7.24
505.503	7.31
505.853	7.4
506.203	7.3
506.553	7.15
506.903	7.38
507.253	7.43
507.603	7.26
507.953	7.24
508.303	7.31
508.652	7.3
509.002	7.37
509.352	7.4
509.701	7.47
510.051	7.45
510.4	7.3
510.75	7.37
511.099	7.28
511.449	7.4
511.798	7.31
512.147	7.44
512.496	7.56
512.846	7.44
513.195	7.45
513.544	7.47
513.893	7.53
514.242	7.4
514.591	7.44
514.939	7.46
515.288	7.52
515.637	7.43
515.986	7.56
516.334	7.67
516.683	7.61
517.032	7.66
517.38	7.66
517.729	7.7
518.077	7.57
518.426	7.74
518.774	7.6
519.122	7.59
519.47	7.58
519.819	7.48
520.167	7.46
520.515	7.43
520.863	7.56
521.211	7.52
521.559	7.7
521.907	7.64
522.255	7.73
522.602	7.75
522.95	7.63
523.298	7.8
523.645	7.83
523.993	7.87
524.341	7.94
524.688	7.63
525.036	7.94
525.383	7.76
525.73	7.9
526.078	7.75
526.425	7.83
526.772	7.73
527.119	7.87
527.466	7.86
527.814	7.73
528.161	7.81
528.508	7.74
528.854	7.82
529.201	7.83
529.548	7.71
529.895	7.66
530.242	7.55
530.588	7.55
530.935	7.67
531.282	7.72
531.628	7.75
531.975	7.76
532.321	7.82
532.667	7.79
533.014	7.88
533.36	7.94
533.706	7.96
534.052	7.98
534.399	8.06
534.745	7.95
535.091	7.84
535.437	7.93
535.783	8
536.129	8.06
536.474	8.11
536.82	8.08
537.166	8.22
537.512	8.14
537.857	8.17
538.203	8.05
538.549	8.19
538.894	8.17
539.239	8.14
539.585	8.22
539.93	8.32
540.276	8.21
540.621	8.19
540.966	8.41
541.311	8.39
541.656	8.45
542.001	8.38
542.346	8.27
542.691	8.23
543.036	8.14
543.381	8.02
543.726	8.15
544.071	8.28
544.415	8.3
544.76	8.36
545.105	8.32
545.449	8.4
545.794	8.5
546.138	8.46
546.483	8.59
546.827	8.62
547.171	8.6
547.516	8.7
547.86	8.69
548.204	8.63
548.548	8.65
548.892	8.69
549.236	8.54
549.58	8.78
549.924	8.84
550.268	8.87
550.612	8.77
550.956	8.83
551.3	8.76
551.643	8.92
551.987	8.93
552.33	8.98
552.674	9.08
553.017	9.16
553.361	9.05
553.704	8.94
554.048	8.94
554.391	8.96
554.734	8.91
555.077	9.08
555.42	8.89
555.764	9.04
556.107	9.04
556.45	9.02
556.793	9.05
557.135	9.08
557.478	9.2
557.821	9.16
558.164	9.22
558.507	9.36
558.849	9.33
559.192	9.28
559.534	9.33
559.877	9.23
560.219	9.35
560.562	9.32
560.904	9.5
561.246	9.27
561.589	9.53
561.931	9.36
562.273	9.44
562.615	9.24
562.957	9.4
563.299	9.34
563.641	9.45
563.983	9.38
564.325	9.63
564.667	9.59
565.008	9.5
565.35	9.51
565.692	9.42
566.033	9.62
566.375	9.57
566.716	9.52
567.058	9.66
567.399	9.73
567.741	9.66
568.082	9.52
568.423	9.59
568.764	9.59
569.105	9.71
569.447	9.68
569.788	9.75
570.129	9.75
570.47	9.91
570.811	9.71
571.151	9.87
571.492	9.79
571.833	9.87
572.174	9.84
572.514	9.99
572.855	9.7
573.195	9.72
573.536	9.78
573.876	9.92
574.217	9.84
574.557	9.83
574.898	9.98
575.238	10.14
575.578	9.97
575.918	9.93
576.258	10.11
576.598	10.06
576.938	10.06
577.278	10.17
577.618	10.14
577.958	10.14
578.298	10.35
578.638	10.19
578.977	10.15
579.317	10.2
579.657	10.34
579.996	10.29
580.336	10.28
580.675	10.42
581.014	10.32
581.354	10.49
581.693	10.39
582.032	10.43
582.372	10.68
582.711	10.58
583.05	10.46
583.389	10.52
583.728	10.58
584.067	10.7
584.406	10.93
584.745	10.76
585.083	10.79
585.422	10.62
585.761	10.98
586.1	10.81
586.438	10.68
586.777	10.71
587.115	10.78
587.454	10.92
587.792	10.5
588.13	10.83
588.469	10.68
588.807	10.6
589.145	10.96
589.483	10.65
589.821	11.03
590.159	10.8
590.497	10.93
590.835	10.87
591.173	10.86
591.511	11.02
591.849	10.77
592.187	10.9
592.524	10.74
592.862	10.91
593.2	10.81
593.537	10.96
593.875	11.03
594.212	11.15
594.55	11.14
594.887	11.2
595.224	11.06
595.561	11.3
595.899	10.96
596.236	11.25
596.573	11.04
596.91	11.45
597.247	11.43
597.584	11.14
597.921	11.22
598.258	11.4
598.594	11.15
598.931	11.29
599.268	11.16
599.604	11.23
599.941	11.37
600.277	11.26
600.614	11.52
600.95	11.4
601.287	11.51
601.623	11.58
601.959	11.57
602.296	11.55
602.632	11.66
602.968	11.83
603.304	11.49
603.64	11.46
603.976	11.51
604.312	11.93
604.648	11.84
604.984	11.53
605.319	11.64
605.655	11.45
605.991	11.61
606.326	11.56
606.662	11.68
606.998	11.54
607.333	11.94
607.668	11.92
608.004	11.7
608.339	12.02
608.674	11.98
609.01	11.97
609.345	11.89
609.68	11.87
610.015	11.96
610.35	11.99
610.685	11.92
611.02	12.12
611.355	11.96
611.689	11.87
612.024	11.87
612.359	12.29
612.694	12.34
613.028	12.34
613.363	12.03
613.697	12.38
614.032	12.35
614.366	12.42
614.7	12.15
615.035	12.55
615.369	12.14
615.703	12.36
616.037	12.39
616.371	12.16
616.705	12.54
617.039	12.76
617.373	12.27
617.707	12.12
618.041	12.6
618.375	12.62
618.709	12.37
619.042	12.35
619.376	12.62
619.71	12.76
620.043	12.64
620.377	12.63
620.71	12.64
621.043	12.45
621.377	12.3
621.71	12.74
622.043	12.86
622.376	13.04
622.709	12.75
623.043	12.66
623.376	13.03
623.709	12.67
624.041	12.8
624.374	12.65
624.707	12.8
625.04	13.08
625.373	13.29
625.705	12.9
626.038	13.08
626.37	12.56
626.703	13.15
627.035	12.79
627.368	13.43
627.7	12.93
628.032	13.17
628.365	12.91
628.697	13.08
629.029	13.16
629.361	12.83
629.693	13.38
630.025	12.77
630.357	13.28
630.689	13.19
631.021	13.21
631.353	13.49
631.684	13.33
632.016	13.12
632.348	13.34
632.679	13.64
633.011	13.76
633.342	13.42
633.674	13.29
634.005	13.48
634.336	13.85
634.668	13.17
634.999	13.65
635.33	13.66
635.661	13.42
635.992	13.48
636.323	13.14
636.654	13.77
636.985	13.8
637.316	13.66
637.647	13.63
637.977	13.84
638.308	13.79
638.639	13.83
638.969	13.69
639.3	13.7
639.63	14.05
639.961	13.75
640.291	13.96
640.622	14.01
640.952	13.72
641.282	13.89
641.612	14.12
641.943	14.02
642.273	14.07
642.603	13.91
642.933	13.88
643.263	13.99
643.592	14.13
643.922	14.52
644.252	14.54
644.582	13.8
644.911	14.15
645.241	13.62
645.571	14.28
645.9	14.38
646.23	13.88
646.559	14.45
646.888	14.37
647.218	13.99
647.547	13.99
647.876	13.9
648.205	14.6
648.534	14.63
648.863	14.68
649.192	15.04
649.521	14.46
649.85	14.4
650.179	14.56
650.508	14.78
650.837	14.67
651.165	14.17
651.494	14.32
651.822	14.31
652.151	14.75
652.479	14.81
652.808	14.81
653.136	14.85
653.465	14.68
653.793	14.83
654.121	14.88
654.449	14.54
654.777	15.22
655.105	14.97
655.433	14.87
655.761	14.73
656.089	15.21
656.417	15.12
656.745	14.78
657.073	14.22
657.4	15.32
657.728	14.51
658.056	15.21
658.383	15
658.711	15.06
659.038	14.94
659.365	15.26
659.693	14.84
660.02	14.58
660.347	15.44
660.674	15.17
661.001	15.05
661.329	15.09
661.656	14.86
661.982	15
662.309	15.39
662.636	15.19
662.963	15.42
663.29	15.66
663.616	15.13
663.943	15.51
664.27	15.79
664.596	15.77
664.923	15.99
665.249	14.83
665.576	15.22
665.902	15.27
666.228	16.07
666.554	15.37
666.881	15.12
667.207	15.45
667.533	15.65
667.859	15.54
668.185	15.86
668.511	15.82
668.837	15.53
669.162	16.09
669.488	15.04
669.814	16.55
670.139	15.98
670.465	15.21
670.791	15.56
671.116	15.98
671.442	15.67
671.767	15.9
672.092	16.06
672.418	15.91
672.743	16.42
673.068	15.48
673.393	16.27
673.718	15.97
674.043	16.43
674.368	15.64
674.693	16.28
675.018	16.09
675.343	16.35
675.667	15.99
675.992	15.73
676.317	15.54
676.641	15.55
676.966	16.01
677.29	16.24
677.615	16.09
677.939	16.28
678.264	16.76
678.588	16.19
678.912	16.78
679.236	16.62
679.56	16.72
679.885	16.66
680.209	16.66
680.532	16.67
680.856	16.59
681.18	16.54
681.504	16.45
681.828	16.89
682.152	16.4
682.475	16.59
682.799	16.42
683.122	16.34
683.446	16.37
683.769	17.33
684.093	16.32
684.416	16.23
684.739	16.53
685.062	16.95
685.386	17.19
