Data from 447_crown_Reflection__1__06.txt Node

Date: Tue Dec 12 18:13:13 CST 2023
User: ToomeyLab
Spectrometer: FLMS14357
Trigger mode: 0
Integration Time (sec): 1.000000E-2
Scans to average: 100
Electric dark correction enabled: true
Nonlinearity correction enabled: false
Boxcar width: 0
XAxis mode: Wavelengths
Number of Pixels in Spectrum: 2048
>>>>>Begin Spectral Data<<<<<
189.047	103.71
189.435	103.71
189.823	103.71
190.211	-253.84
190.599	-1495.63
190.987	57.93
191.375	770.72
191.763	-259.94
192.151	77.62
192.538	420.23
192.926	419.78
193.314	67.08
193.702	7.43
194.089	-14.3
194.477	73.72
194.864	32.34
195.252	-83.99
195.639	643.79
196.027	81.33
196.414	50.5
196.801	-39.14
197.189	931.48
197.576	53.14
197.963	23.14
198.351	15.16
198.738	29.95
199.125	60.46
199.512	34.44
199.899	24.85
200.286	3.84
200.673	-16.59
201.06	26.37
201.447	-125.86
201.833	9.18
202.22	6.69
202.607	-122.67
202.994	20.39
203.38	50.9
203.767	-1.76
204.154	38.41
204.54	36.11
204.927	7.48
205.313	31.03
205.699	-14.62
206.086	4.69
206.472	30.38
206.858	43.79
207.245	5.55
207.631	-4.43
208.017	13.04
208.403	-20.07
208.789	21.22
209.175	7.4
209.561	54.8
209.947	5.2
210.333	50.1
210.719	19.54
211.105	14.15
211.491	29.31
211.876	25.29
212.262	17.43
212.648	-46.17
213.034	-18.95
213.419	18.66
213.805	35.69
214.19	32.32
214.576	41.46
214.961	16.48
215.346	14.74
215.732	49.88
216.117	37.86
216.502	-3.27
216.888	11.81
217.273	14.95
217.658	-1.69
218.043	13.18
218.428	23.28
218.813	25.32
219.198	-21.32
219.583	22.2
219.968	-1.42
220.353	0.22
220.738	33.09
221.122	11.39
221.507	6.14
221.892	11.24
222.276	17.84
222.661	9.45
223.046	12.01
223.43	13.75
223.815	6.1
224.199	11.49
224.583	2.57
224.968	14.88
225.352	-0.12
225.736	3.56
226.121	10.61
226.505	14.38
226.889	7.65
227.273	10.24
227.657	14.11
228.041	7.46
228.425	6.6
228.809	2.82
229.193	2.34
229.577	6.35
229.961	4.13
230.344	4.89
230.728	4.55
231.112	5.37
231.495	4.7
231.879	5.33
232.263	4.6
232.646	4.13
233.03	5.67
233.413	4.11
233.797	6.25
234.18	2.87
234.563	7.2
234.946	5.49
235.33	6.13
235.713	7.45
236.096	4.58
236.479	4.97
236.862	3.99
237.245	5.06
237.628	5.47
238.011	5.89
238.394	5.17
238.777	5.3
239.16	5.81
239.543	5.03
239.925	6.38
240.308	5.67
240.691	6.34
241.073	5.43
241.456	6.47
241.838	5.44
242.221	6.24
242.603	5.09
242.986	5.19
243.368	5.62
243.75	5.37
244.133	5.28
244.515	5.33
244.897	5.67
245.279	5.75
245.661	4.97
246.043	5.09
246.425	5.81
246.807	5.5
247.189	5.33
247.571	5.59
247.953	5.29
248.335	5.59
248.717	5.11
249.098	5.29
249.48	4.81
249.862	5.17
250.243	5.11
250.625	5.61
251.006	5.45
251.388	5.31
251.769	4.86
252.151	4.68
252.532	4.89
252.913	5.71
253.295	5.95
253.676	4.59
254.057	4.88
254.438	5.8
254.819	4.91
255.2	5.23
255.581	5.38
255.962	5.23
256.343	5.15
256.724	5.31
257.105	6.64
257.486	4.17
257.867	4.69
258.247	4.41
258.628	5.51
259.009	4.94
259.389	5.85
259.77	4.21
260.15	5.67
260.531	5.47
260.911	4.97
261.292	4.5
261.672	4.73
262.052	4.92
262.432	5.12
262.813	5.05
263.193	4.67
263.573	5.31
263.953	5.86
264.333	5.73
264.713	5.56
265.093	4.49
265.473	5.28
265.853	4.62
266.233	5.36
266.612	4.15
266.992	5.55
267.372	5.51
267.752	5.86
268.131	4.2
268.511	4.93
268.89	4.17
269.27	4.34
269.649	5.04
270.029	4.76
270.408	5.36
270.787	4.44
271.167	4.58
271.546	4.69
271.925	5.17
272.304	5.27
272.683	4.05
273.062	4.42
273.441	5.17
273.82	4.14
274.199	4.49
274.578	4.82
274.957	4.92
275.336	4.65
275.715	4.9
276.093	4.35
276.472	5.15
276.851	4.95
277.229	4.56
277.608	4.34
277.986	4.61
278.365	4.67
278.743	4.93
279.122	5
279.5	4.46
279.878	4.07
280.257	4.32
280.635	4.44
281.013	4.32
281.391	4.67
281.769	4.75
282.147	4.64
282.525	4.19
282.903	4.11
283.281	4.34
283.659	4.79
284.037	4.67
284.415	4.35
284.792	4.94
285.17	4.48
285.548	4.73
285.925	3.99
286.303	4.61
286.68	4.74
287.058	4.85
287.435	4.41
287.813	4.38
288.19	4.69
288.567	4.47
288.945	4.5
289.322	4.29
289.699	4.58
290.076	4.78
290.453	4.88
290.83	4.37
291.207	4.96
291.584	4.77
291.961	4.89
292.338	4.71
292.715	4.47
293.092	4.84
293.469	4.66
293.845	5.2
294.222	5.03
294.599	5.2
294.975	4.97
295.352	4.87
295.728	5
296.105	4.98
296.481	5.66
296.858	4.73
297.234	5.34
297.61	5.52
297.986	5.5
298.363	5.35
298.739	5.27
299.115	5.1
299.491	5.41
299.867	5.4
300.243	4.72
300.619	5.36
300.995	5.57
301.371	5.27
301.746	5.48
302.122	6
302.498	5.61
302.874	5.64
303.249	5.89
303.625	5.16
304	5.37
304.376	5.73
304.751	5.34
305.127	5.54
305.502	5.36
305.878	5.37
306.253	5.13
306.628	5.71
307.003	5.29
307.378	5.84
307.754	5.46
308.129	5.18
308.504	6.53
308.879	6.02
309.254	6.23
309.629	5.16
310.003	5.67
310.378	5.59
310.753	6.12
311.128	5.67
311.502	5.33
311.877	5.31
312.252	5.04
312.626	5.27
313.001	5.19
313.375	5.18
313.75	5.89
314.124	5.94
314.498	5.78
314.873	5.29
315.247	6.2
315.621	6.19
315.995	6.04
316.369	5.73
316.743	5.21
317.117	5.26
317.491	5.68
317.865	6.15
318.239	5.33
318.613	6.05
318.987	5.76
319.361	5.13
319.734	5.37
320.108	6.04
320.482	5.43
320.855	5.28
321.229	6.22
321.602	5.64
321.976	5.79
322.349	6.28
322.723	5.68
323.096	5.91
323.469	5.8
323.843	6.61
324.216	6.13
324.589	6.16
324.962	5.59
325.335	6.34
325.708	5.9
326.081	5.95
326.454	5.59
326.827	6.25
327.2	5.49
327.573	5.54
327.945	5.78
328.318	6.07
328.691	5.05
329.063	6.05
329.436	5.76
329.809	5.55
330.181	5.75
330.553	5.63
330.926	5.63
331.298	5.52
331.671	6.61
332.043	5.85
332.415	5.73
332.787	5.91
333.159	6.14
333.532	5.88
333.904	5.88
334.276	6.53
334.648	5.29
335.02	5.14
335.391	5.89
335.763	5.74
336.135	5.82
336.507	6
336.879	5.8
337.25	6.01
337.622	5.36
337.993	5.45
338.365	5.68
338.736	5.52
339.108	5.52
339.479	5.99
339.851	5.88
340.222	5.55
340.593	5.85
340.964	5.79
341.336	6.15
341.707	5.36
342.078	5.29
342.449	5.64
342.82	5.95
343.191	5.49
343.562	6.03
343.933	6.18
344.303	5.86
344.674	5.81
345.045	5.56
345.416	5.99
345.786	5.88
346.157	5.98
346.527	5.73
346.898	5.69
347.268	5.59
347.639	6.21
348.009	5.77
348.38	5.75
348.75	6.13
349.12	5.64
349.49	5.39
349.861	6.24
350.231	5.42
350.601	6.05
350.971	6.49
351.341	5.72
351.711	6.15
352.081	6.08
352.45	5.8
352.82	5.99
353.19	5.7
353.56	5.44
353.929	5.46
354.299	5.49
354.669	5.43
355.038	5.12
355.408	5.69
355.777	5.82
356.147	5.75
356.516	5.85
356.885	5.4
357.254	5.75
357.624	5.62
357.993	5.58
358.362	5.82
358.731	5.64
359.1	5.29
359.469	5.55
359.838	5.48
360.207	5.6
360.576	5.71
360.945	4.91
361.314	6.09
361.682	5.47
362.051	5.92
362.42	5.91
362.788	5.59
363.157	5.84
363.525	5.85
363.894	5.42
364.262	5.52
364.631	5.37
364.999	5.96
365.367	6.03
365.735	5.41
366.104	5.43
366.472	5.68
366.84	5.63
367.208	5.77
367.576	5.91
367.944	5.91
368.312	5.78
368.68	5.56
369.048	5.75
369.416	5.74
369.783	5.86
370.151	5.48
370.519	5.64
370.886	5.82
371.254	5.68
371.621	5.86
371.989	5.65
372.356	5.75
372.724	5.56
373.091	5.44
373.458	5.67
373.826	5.7
374.193	5.59
374.56	5.92
374.927	5.94
375.294	5.84
375.661	5.84
376.028	6.15
376.395	6.12
376.762	6.27
377.129	5.65
377.496	5.78
377.863	5.51
378.229	5.93
378.596	5.52
378.963	6.05
379.329	5.53
379.696	5.62
380.062	6.14
380.429	5.76
380.795	5.96
381.161	5.73
381.528	5.75
381.894	5.73
382.26	5.71
382.626	5.72
382.993	5.85
383.359	5.51
383.725	5.97
384.091	5.75
384.457	5.63
384.823	5.73
385.188	5.95
385.554	5.77
385.92	5.49
386.286	6.01
386.651	6.07
387.017	6.19
387.383	5.66
387.748	5.78
388.114	5.78
388.479	6.14
388.845	5.59
389.21	5.48
389.575	5.7
389.94	5.91
390.306	5.86
390.671	5.8
391.036	5.98
391.401	5.95
391.766	6.03
392.131	6
392.496	5.92
392.861	5.79
393.226	5.93
393.591	5.71
393.956	5.72
394.32	5.9
394.685	5.83
395.05	5.58
395.414	5.69
395.779	5.63
396.143	5.94
396.508	5.68
396.872	5.84
397.236	5.73
397.601	5.81
397.965	6.03
398.329	5.65
398.694	5.83
399.058	5.96
399.422	5.67
399.786	5.73
400.15	5.75
400.514	6
400.878	5.96
401.242	5.79
401.605	6.1
401.969	5.82
402.333	5.9
402.697	5.75
403.06	5.69
403.424	5.87
403.787	5.85
404.151	5.82
404.514	5.59
404.878	5.62
405.241	5.86
405.604	5.75
405.968	5.77
406.331	5.98
406.694	6
407.057	5.72
407.42	5.75
407.783	5.79
408.146	5.77
408.509	5.94
408.872	5.8
409.235	5.94
409.598	5.8
409.961	5.86
410.323	5.7
410.686	5.62
411.049	6.09
411.411	6.2
411.774	5.88
412.136	6.09
412.499	6
412.861	6
413.223	6.26
413.586	5.9
413.948	5.77
414.31	5.95
414.672	5.99
415.035	5.82
415.397	5.76
415.759	5.79
416.121	6.01
416.483	6
416.845	5.61
417.206	6
417.568	5.76
417.93	5.81
418.292	5.85
418.653	5.95
419.015	5.94
419.377	5.83
419.738	5.89
420.1	5.85
420.461	5.78
420.822	5.82
421.184	5.87
421.545	5.95
421.906	5.8
422.267	5.73
422.629	5.83
422.99	5.85
423.351	5.8
423.712	5.86
424.073	5.78
424.434	5.87
424.795	5.88
425.155	5.7
425.516	5.81
425.877	5.78
426.238	5.82
426.598	5.79
426.959	5.86
427.32	5.83
427.68	5.95
428.041	5.96
428.401	5.96
428.761	5.98
429.122	5.99
429.482	6.11
429.842	6.13
430.202	6.02
430.563	5.99
430.923	5.94
431.283	5.87
431.643	6.09
432.003	5.98
432.363	6.04
432.722	5.91
433.082	5.87
433.442	6.02
433.802	6.04
434.161	6.03
434.521	6.01
434.881	5.92
435.24	6.08
435.6	6.02
435.959	6.07
436.319	6.11
436.678	6.11
437.037	6.06
437.396	6
437.756	6.08
438.115	6.24
438.474	6.07
438.833	6.03
439.192	6.22
439.551	6.1
439.91	6.01
440.269	6.01
440.628	6.03
440.987	5.96
441.345	6.08
441.704	5.97
442.063	6
442.421	6.02
442.78	5.99
443.138	6.02
443.497	6.03
443.855	6.03
444.214	6.03
444.572	6.15
444.93	6.1
445.288	6.02
445.647	6.12
446.005	6.02
446.363	5.9
446.721	6.08
447.079	6.08
447.437	6
447.795	6.03
448.153	5.96
448.51	5.96
448.868	6.09
449.226	6.1
449.584	6.09
449.941	5.98
450.299	6.23
450.656	6.13
451.014	6.17
451.371	6.23
451.729	6.27
452.086	6.09
452.443	6.23
452.801	6.18
453.158	6.07
453.515	6.16
453.872	6.19
454.229	6.29
454.586	6.18
454.943	6.25
455.3	6.1
455.657	6.37
456.014	6.26
456.371	6.34
456.727	6.25
457.084	6.19
457.441	6.35
457.797	6.12
458.154	6.28
458.51	6.23
458.867	6.46
459.223	6.45
459.58	6.21
459.936	6
460.292	6.27
460.648	6.33
461.005	6.13
461.361	6.06
461.717	6.17
462.073	6.15
462.429	6.11
462.785	6.21
463.141	6.41
463.496	6.29
463.852	6.53
464.208	6.49
464.564	6.33
464.919	6.49
465.275	6.46
465.631	6.5
465.986	6.22
466.342	6.22
466.697	6.33
467.052	6.5
467.408	6.4
467.763	6.42
468.118	6.58
468.473	6.32
468.829	6.42
469.184	6.22
469.539	6.53
469.894	6.48
470.249	6.41
470.603	6.46
470.958	6.43
471.313	6.49
471.668	6.49
472.023	6.43
472.377	6.48
472.732	6.21
473.086	6.48
473.441	6.46
473.795	6.43
474.15	6.54
474.504	6.42
474.859	6.45
475.213	6.37
475.567	6.48
475.921	6.53
476.275	6.38
476.63	6.52
476.984	6.54
477.338	6.53
477.692	6.57
478.045	6.55
478.399	6.38
478.753	6.46
479.107	6.6
479.461	6.43
479.814	6.53
480.168	6.48
480.521	6.52
480.875	6.53
481.228	6.79
481.582	6.47
481.935	6.52
482.289	6.68
482.642	6.69
482.995	6.47
483.348	6.57
483.701	6.65
484.055	6.41
484.408	6.46
484.761	6.48
485.114	6.28
485.466	6.15
485.819	6.12
486.172	6.19
486.525	6.22
486.878	6.31
487.23	6.37
487.583	6.4
487.936	6.52
488.288	6.42
488.641	6.38
488.993	6.37
489.345	6.4
489.698	6.34
490.05	6.33
490.402	6.37
490.754	6.37
491.107	6.48
491.459	6.6
491.811	6.58
492.163	6.58
492.515	6.61
492.866	6.45
493.218	6.35
493.57	6.38
493.922	6.38
494.274	6.54
494.625	6.63
494.977	6.7
495.328	6.75
495.68	6.63
496.031	6.88
496.383	6.78
496.734	6.73
497.086	6.69
497.437	6.69
497.788	6.81
498.139	6.7
498.49	6.85
498.842	6.65
499.193	6.76
499.544	6.83
499.894	6.69
500.245	6.79
500.596	6.82
500.947	6.76
501.298	6.85
501.648	6.9
501.999	6.79
502.35	6.78
502.7	6.84
503.051	6.77
503.401	6.88
503.752	7.03
504.102	6.83
504.452	6.86
504.803	6.8
505.153	6.87
505.503	6.88
505.853	7.06
506.203	6.84
506.553	6.9
506.903	6.98
507.253	6.94
507.603	6.95
507.953	6.85
508.303	7.01
508.652	6.91
509.002	6.87
509.352	6.9
509.701	7
510.051	7.01
510.4	6.94
510.75	6.88
511.099	6.95
511.449	6.96
511.798	6.82
512.147	6.93
512.496	7.04
512.846	6.97
513.195	6.85
513.544	7.1
513.893	7.01
514.242	6.94
514.591	6.89
514.939	7.05
515.288	7.07
515.637	6.98
515.986	6.98
516.334	7.07
516.683	7.01
517.032	7.12
517.38	7.12
517.729	7.12
518.077	6.98
518.426	7.07
518.774	7.13
519.122	7.05
519.47	7.08
519.819	6.93
520.167	6.96
520.515	6.97
520.863	7
521.211	7.07
521.559	7.08
521.907	7.02
522.255	7.2
522.602	7.18
522.95	7.13
523.298	7.18
523.645	7.32
523.993	7.29
524.341	7.29
524.688	7.16
525.036	7.22
525.383	7.28
525.73	7.21
526.078	7.25
526.425	7.16
526.772	7.1
527.119	7.23
527.466	7.11
527.814	7
528.161	7.29
528.508	7.13
528.854	7.15
529.201	7.23
529.548	7.14
529.895	6.99
530.242	6.96
530.588	6.9
530.935	7.01
531.282	7.03
531.628	7.12
531.975	7.06
532.321	7.1
532.667	7.19
533.014	7.22
533.36	7.21
533.706	7.15
534.052	7.3
534.399	7.27
534.745	7.15
535.091	7.1
535.437	7.18
535.783	7.23
536.129	7.31
536.474	7.3
536.82	7.35
537.166	7.48
537.512	7.38
537.857	7.34
538.203	7.34
538.549	7.31
538.894	7.36
539.239	7.38
539.585	7.39
539.93	7.42
540.276	7.43
540.621	7.48
540.966	7.43
541.311	7.54
541.656	7.61
542.001	7.55
542.346	7.44
542.691	7.45
543.036	7.28
543.381	7.17
543.726	7.34
544.071	7.31
544.415	7.29
544.76	7.4
545.105	7.46
545.449	7.58
545.794	7.67
546.138	7.38
546.483	7.52
546.827	7.61
547.171	7.57
547.516	7.55
547.86	7.64
548.204	7.67
548.548	7.59
548.892	7.61
549.236	7.66
549.58	7.75
549.924	7.58
550.268	7.84
550.612	7.78
550.956	7.66
551.3	7.86
551.643	7.77
551.987	7.89
552.33	7.74
552.674	8.02
553.017	7.91
553.361	7.96
553.704	7.78
554.048	7.87
554.391	7.8
554.734	7.72
555.077	7.81
555.42	7.78
555.764	7.96
556.107	7.92
556.45	7.9
556.793	7.81
557.135	7.75
557.478	8.08
557.821	7.87
558.164	8.05
558.507	8.09
558.849	8.02
559.192	8.05
559.534	8.01
559.877	7.99
560.219	7.99
560.562	7.92
560.904	7.91
561.246	8.08
561.589	8.21
561.931	7.96
562.273	7.79
562.615	7.85
562.957	8
563.299	8.05
563.641	8.28
563.983	8.18
564.325	8.22
564.667	8.16
565.008	7.98
565.35	8.06
565.692	8.09
566.033	8.07
566.375	8.22
566.716	8.21
567.058	8.37
567.399	8.24
567.741	8.23
568.082	8.11
568.423	8.12
568.764	8.18
569.105	8.09
569.447	8.24
569.788	8.24
570.129	8.12
570.47	8.41
570.811	8.27
571.151	8.31
571.492	8.3
571.833	8.27
572.174	8.11
572.514	8.24
572.855	8.32
573.195	8.19
573.536	8.1
573.876	8.24
574.217	8.18
574.557	8.19
574.898	8.32
575.238	8.33
575.578	8.28
575.918	8.27
576.258	8.3
576.598	8.31
576.938	8.26
577.278	8.24
577.618	8.32
577.958	8.34
578.298	8.48
578.638	8.33
578.977	8.39
579.317	8.6
579.657	8.33
579.996	8.61
580.336	8.61
580.675	8.68
581.014	8.34
581.354	8.46
581.693	8.52
582.032	8.4
582.372	8.56
582.711	8.66
583.05	8.76
583.389	8.63
583.728	8.62
584.067	8.53
584.406	8.78
584.745	8.59
585.083	8.56
585.422	8.8
585.761	8.64
586.1	8.51
586.438	8.71
586.777	8.76
587.115	8.49
587.454	8.82
587.792	8.57
588.13	8.91
588.469	8.7
588.807	8.5
589.145	8.7
589.483	8.69
589.821	8.85
590.159	8.63
590.497	8.94
590.835	8.64
591.173	8.88
591.511	8.81
591.849	8.78
592.187	8.62
592.524	8.79
592.862	8.79
593.2	8.52
593.537	8.75
593.875	8.97
594.212	8.71
594.55	8.88
594.887	9.01
595.224	9
595.561	9.03
595.899	8.56
596.236	9.05
596.573	8.99
596.91	8.82
597.247	8.81
597.584	9.04
597.921	8.96
598.258	8.92
598.594	9
598.931	8.9
599.268	8.74
599.604	8.93
599.941	8.91
600.277	8.85
600.614	9.1
600.95	9.14
601.287	8.84
601.623	9.37
601.959	9
602.296	9.29
602.632	8.93
602.968	9.24
603.304	9.06
603.64	9.07
603.976	9.06
604.312	9.02
604.648	9.17
604.984	9.18
605.319	9.01
605.655	8.79
605.991	9.3
606.326	9.02
606.662	9.02
606.998	9.02
607.333	9.13
607.668	9.01
608.004	9.41
608.339	9.45
608.674	9.15
609.01	9.27
609.345	9.16
609.68	9.36
610.015	9.33
610.35	9.2
610.685	9.32
611.02	9.31
611.355	9.16
611.689	9.11
612.024	9.2
612.359	9.22
612.694	9.31
613.028	9.57
613.363	9.23
613.697	9.39
614.032	9.56
614.366	9.63
614.7	9.38
615.035	9.59
615.369	9.4
615.703	9.65
616.037	9.3
616.371	9.39
616.705	9.61
617.039	9.63
617.373	9.4
617.707	9.23
618.041	9.54
618.375	9.32
618.709	9.62
619.042	9.32
619.376	9.33
619.71	9.5
620.043	9.47
620.377	9.39
620.71	9.19
621.043	9.3
621.377	9.44
621.71	9.5
622.043	9.82
622.376	10
622.709	10
623.043	9.5
623.376	10.07
623.709	9.61
624.041	9.82
624.374	9.56
624.707	9.59
625.04	9.64
625.373	9.78
625.705	10
626.038	9.7
626.37	10.02
626.703	9.92
627.035	9.95
627.368	9.95
627.7	9.93
628.032	9.7
628.365	9.71
628.697	10.04
629.029	9.86
629.361	9.59
629.693	9.61
630.025	9.71
630.357	10.04
630.689	9.79
631.021	10.02
631.353	9.82
631.684	9.94
632.016	10.06
632.348	10.13
632.679	9.76
633.011	10.28
633.342	9.91
633.674	9.85
634.005	9.88
634.336	10.22
634.668	10.13
634.999	9.88
635.33	10.24
635.661	10.04
635.992	10.35
636.323	9.93
636.654	10.21
636.985	9.87
637.316	10.33
637.647	9.95
637.977	10.16
638.308	10.23
638.639	9.9
638.969	10.07
639.3	9.86
639.63	10.73
639.961	10.19
640.291	9.98
640.622	10.19
640.952	10.71
641.282	10.27
641.612	10.46
641.943	10.22
642.273	10.27
642.603	10.93
642.933	10.2
643.263	10.61
643.592	10.14
643.922	10.49
644.252	10.57
644.582	9.99
644.911	10.55
645.241	10.25
645.571	10.82
645.9	10.12
646.23	10.04
646.559	10.76
646.888	10.71
647.218	10.79
647.547	10.53
647.876	10.61
648.205	10.71
648.534	10.64
648.863	10.32
649.192	11.2
649.521	11.14
649.85	10.39
650.179	11.2
650.508	10.9
650.837	10.58
651.165	10.47
651.494	10.27
651.822	10.32
652.151	10.88
652.479	10.71
652.808	10.84
653.136	10.99
653.465	10.66
653.793	10.79
654.121	10.53
654.449	11.02
654.777	11.11
655.105	10.73
655.433	10.92
655.761	10.68
656.089	10.62
656.417	10.94
656.745	10.56
657.073	10.78
657.4	11.04
657.728	10.93
658.056	11.23
658.383	10.39
658.711	10.87
659.038	10.65
659.365	10.82
659.693	10.56
660.02	10.58
660.347	11.02
660.674	11.04
661.001	11.15
661.329	11.42
661.656	10.65
661.982	11
662.309	11.12
662.636	11.01
662.963	10.98
663.29	11.49
663.616	11.25
663.943	11.54
664.27	11.15
664.596	11.67
664.923	12.24
665.249	11.06
665.576	11.41
665.902	11.51
666.228	11.46
666.554	11.05
666.881	11.24
667.207	11.13
667.533	11.56
667.859	11.38
668.185	11.81
668.511	11.35
668.837	11.47
669.162	11.76
669.488	11.35
669.814	11.29
670.139	11.84
670.465	10.35
670.791	11.49
671.116	11.2
671.442	11.74
671.767	11.1
672.092	11.76
672.418	11.43
672.743	11.57
673.068	10.51
673.393	11.8
673.718	11.74
674.043	11.87
674.368	11.5
674.693	11.46
675.018	11.24
675.343	11.25
675.667	11.48
675.992	11.94
676.317	11.6
676.641	11.11
676.966	11.64
677.29	10.91
677.615	11.46
677.939	11.4
678.264	12.17
678.588	11.65
678.912	12.38
679.236	11.49
679.56	12.24
679.885	11.55
680.209	12.13
680.532	11.96
680.856	11.61
681.18	11.65
681.504	11.95
681.828	11.62
682.152	11.98
682.475	11.98
682.799	12.09
683.122	11.82
683.446	11.82
683.769	12.96
684.093	12.07
684.416	12.04
684.739	11.8
685.062	11.98
685.386	11.96
685.709	12.11
686.032	11.5
686.355	11.37
686.678	12.16
687.001	11.79
687.324	12.51
687.646	12.65
687.969	11.96
688.292	11.78
688.614	12.72
688.937	12.15
689.26	12.26
689.582	12.2
