Data from 447_forehead_Reflection__2__12.txt Node

Date: Tue Dec 12 18:15:12 CST 2023
User: ToomeyLab
Spectrometer: FLMS14357
Trigger mode: 0
Integration Time (sec): 1.000000E-2
Scans to average: 100
Electric dark correction enabled: true
Nonlinearity correction enabled: false
Boxcar width: 0
XAxis mode: Wavelengths
Number of Pixels in Spectrum: 2048
>>>>>Begin Spectral Data<<<<<
189.047	-1.31
189.435	-1.31
189.823	-1.31
190.211	-57.16
190.599	-123.79
190.987	72.42
191.375	-50
191.763	318.42
192.151	113.38
192.538	28.14
192.926	614.89
193.314	-81.59
193.702	-52.95
194.089	143.92
194.477	-112.6
194.864	15.26
195.252	11.45
195.639	1092.86
196.027	21.8
196.414	54.09
196.801	368.73
197.189	1705.56
197.576	-109.61
197.963	97.42
198.351	42.75
198.738	36.76
199.125	41.19
199.512	8.39
199.899	71.62
200.286	58.8
200.673	79.63
201.06	25.92
201.447	-26.57
201.833	33.13
202.22	21.93
202.607	70.9
202.994	34.69
203.38	47.28
203.767	25.93
204.154	61.78
204.54	64.47
204.927	37.41
205.313	53.99
205.699	42.92
206.086	0.65
206.472	84.06
206.858	30.69
207.245	50.19
207.631	38.83
208.017	26.8
208.403	43.16
208.789	51.98
209.175	35
209.561	91.47
209.947	25.92
210.333	56.68
210.719	7.46
211.105	49.74
211.491	68.78
211.876	48.2
212.262	48.11
212.648	59.96
213.034	-17.21
213.419	29.51
213.805	75.24
214.19	41.49
214.576	34.33
214.961	57.89
215.346	42.52
215.732	45.09
216.117	54.8
216.502	53.56
216.888	20.78
217.273	14.4
217.658	14.49
218.043	27.57
218.428	47.13
218.813	26.8
219.198	0.74
219.583	35.7
219.968	35.28
220.353	18.73
220.738	12.34
221.122	26.87
221.507	9.53
221.892	16.72
222.276	18.94
222.661	19.68
223.046	11.09
223.43	18.51
223.815	16.94
224.199	19.1
224.583	15.81
224.968	17.26
225.352	12.7
225.736	15.85
226.121	18.89
226.505	15.11
226.889	10.97
227.273	13.51
227.657	14.77
228.041	10.73
228.425	7.17
228.809	9.59
229.193	7.05
229.577	8.22
229.961	6.31
230.344	6.63
230.728	7.44
231.112	6.57
231.495	7.76
231.879	7.39
232.263	7.77
232.646	5.92
233.03	6.49
233.413	6.04
233.797	7.21
234.18	6.32
234.563	6.54
234.946	9.17
235.33	9.05
235.713	7.63
236.096	7.98
236.479	6.68
236.862	8.85
237.245	8.24
237.628	7.77
238.011	7.27
238.394	7.57
238.777	8.95
239.16	7.96
239.543	7.69
239.925	9.96
240.308	7.44
240.691	8.77
241.073	7.68
241.456	7.1
241.838	6.31
242.221	8.05
242.603	7.21
242.986	6.71
243.368	7.42
243.75	6.66
244.133	6.51
244.515	6.54
244.897	6.77
245.279	6.77
245.661	7.32
246.043	6.25
246.425	7.43
246.807	5.92
247.189	6.88
247.571	6.94
247.953	6.22
248.335	6.27
248.717	6.1
249.098	6.13
249.48	6.27
249.862	6.14
250.243	6.34
250.625	7.07
251.006	6.64
251.388	7.33
251.769	7.38
252.151	6.87
252.532	6.83
252.913	6.83
253.295	7.09
253.676	6.31
254.057	6.24
254.438	6.43
254.819	6.67
255.2	6.53
255.581	6.67
255.962	6.51
256.343	7.28
256.724	6.72
257.105	7.63
257.486	7.28
257.867	6.54
258.247	7.05
258.628	6.36
259.009	6.39
259.389	6.19
259.77	6.52
260.15	6.6
260.531	7.45
260.911	6.56
261.292	5.85
261.672	5.78
262.052	5.84
262.432	6.05
262.813	6.38
263.193	6.38
263.573	6.66
263.953	7.47
264.333	7.13
264.713	6.4
265.093	7.12
265.473	6.65
265.853	6.47
266.233	6.79
266.612	6.56
266.992	6.23
267.372	7.12
267.752	7.19
268.131	6.17
268.511	5.87
268.89	5.91
269.27	5.86
269.649	6.01
270.029	6.27
270.408	6.76
270.787	5.84
271.167	6.28
271.546	6.85
271.925	6.75
272.304	6.61
272.683	5.87
273.062	6.04
273.441	6.26
273.82	5.77
274.199	6.18
274.578	5.86
274.957	5.9
275.336	6.27
275.715	6.41
276.093	6.29
276.472	6.53
276.851	6.87
277.229	5.99
277.608	5.95
277.986	6.27
278.365	5.77
278.743	6.38
279.122	6.49
279.5	6.44
279.878	6.29
280.257	6.06
280.635	5.93
281.013	6.23
281.391	5.79
281.769	6.38
282.147	6.26
282.525	5.97
282.903	6.29
283.281	5.41
283.659	6.26
284.037	6.58
284.415	6.22
284.792	6.32
285.17	6.09
285.548	6.2
285.925	6.07
286.303	6.15
286.68	6.35
287.058	6.47
287.435	6.1
287.813	5.91
288.19	6.22
288.567	6.39
288.945	6.36
289.322	6.22
289.699	6.15
290.076	6.59
290.453	6.85
290.83	6.26
291.207	6.58
291.584	6.56
291.961	6.44
292.338	6.63
292.715	6.32
293.092	6.67
293.469	6.64
293.845	7
294.222	6.86
294.599	7.06
294.975	6.66
295.352	7.43
295.728	7.12
296.105	7.2
296.481	7.36
296.858	7.18
297.234	7.19
297.61	7.1
297.986	7.69
298.363	7.5
298.739	7.33
299.115	7.04
299.491	7.34
299.867	7.47
300.243	7.51
300.619	7.86
300.995	7.95
301.371	7.95
301.746	8.03
302.122	7.71
302.498	7.87
302.874	8.05
303.249	8.64
303.625	8.12
304	8.19
304.376	8.35
304.751	8.56
305.127	8.18
305.502	8.56
305.878	8.63
306.253	7.93
306.628	8.67
307.003	8.58
307.378	9.21
307.754	8.48
308.129	8.72
308.504	9.39
308.879	9.03
309.254	9.05
309.629	9.49
310.003	9.36
310.378	9.57
310.753	9.13
311.128	9.76
311.502	9.32
311.877	9.66
312.252	9.08
312.626	9.82
313.001	9.71
313.375	9.54
313.75	9.91
314.124	9.77
314.498	10.19
314.873	9.97
315.247	10.31
315.621	9.92
315.995	10.88
316.369	11.02
316.743	10.12
317.117	10.32
317.491	10.47
317.865	10.49
318.239	11.49
318.613	11.2
318.987	11.44
319.361	10.71
319.734	10.75
320.108	11.39
320.482	11.64
320.855	10.93
321.229	11.48
321.602	11.63
321.976	11.91
322.349	12.12
322.723	11.62
323.096	12.14
323.469	12.3
323.843	12.61
324.216	12.09
324.589	11.79
324.962	12.27
325.335	12.6
325.708	12.12
326.081	12.75
326.454	12.13
326.827	12.63
327.2	12.61
327.573	12.89
327.945	12.71
328.318	13.2
328.691	12.28
329.063	12.95
329.436	13.55
329.809	12.94
330.181	13.1
330.553	13.07
330.926	13.54
331.298	13.64
331.671	13.57
332.043	13.49
332.415	13.4
332.787	13.87
333.159	14.17
333.532	13.72
333.904	13.76
334.276	14.33
334.648	13.61
335.02	13.7
335.391	13.84
335.763	13.71
336.135	14.08
336.507	14.5
336.879	14.5
337.25	14.36
337.622	14.22
337.993	14.31
338.365	14.32
338.736	14.65
339.108	14.6
339.479	14.7
339.851	14.18
340.222	14.52
340.593	15.1
340.964	14.87
341.336	15.49
341.707	15.19
342.078	14.49
342.449	15.24
342.82	15.52
343.191	15.13
343.562	15.27
343.933	15.37
344.303	15.64
344.674	15.9
345.045	15.81
345.416	15.62
345.786	15.46
346.157	15.83
346.527	16.14
346.898	15.65
347.268	15.98
347.639	16.07
348.009	15.93
348.38	16.46
348.75	16.89
349.12	16.48
349.49	16.63
349.861	17.07
350.231	16.25
350.601	17.01
350.971	16.69
351.341	16.79
351.711	17.08
352.081	17.2
352.45	17.19
352.82	17
353.19	17.19
353.56	17.29
353.929	16.89
354.299	17.09
354.669	16.83
355.038	17.35
355.408	17.31
355.777	17.82
356.147	17.61
356.516	17.89
356.885	17.78
357.254	18.24
357.624	18.03
357.993	18.21
358.362	18.1
358.731	17.98
359.1	17.85
359.469	18.14
359.838	18.04
360.207	18.04
360.576	18.4
360.945	18.25
361.314	18.71
361.682	18.83
362.051	18.67
362.42	19.2
362.788	18.35
363.157	19.04
363.525	18.69
363.894	18.54
364.262	18.65
364.631	18.87
364.999	19.37
365.367	19.52
365.735	19.2
366.104	19.43
366.472	19.23
366.84	19.44
367.208	19.52
367.576	19.66
367.944	19.63
368.312	19.66
368.68	19.85
369.048	19.69
369.416	19.7
369.783	20.14
370.151	20.27
370.519	20.21
370.886	19.99
371.254	20.29
371.621	20.54
371.989	20.25
372.356	20.96
372.724	20.43
373.091	20.63
373.458	20.94
373.826	20.67
374.193	20.64
374.56	21.18
374.927	21.15
375.294	21.18
375.661	21.61
376.028	21.41
376.395	21.4
376.762	21.7
377.129	21.11
377.496	21.32
377.863	21.2
378.229	21.36
378.596	21.23
378.963	21.85
379.329	21.62
379.696	21.59
380.062	22.21
380.429	22.12
380.795	22.24
381.161	22.12
381.528	22.28
381.894	22.33
382.26	22.51
382.626	22.46
382.993	22.93
383.359	22.05
383.725	22.48
384.091	22.71
384.457	22.56
384.823	22.83
385.188	22.79
385.554	23.21
385.92	22.89
386.286	23.33
386.651	23.26
387.017	23.45
387.383	23.31
387.748	23.48
388.114	23.75
388.479	23.7
388.845	23.86
389.21	23.47
389.575	23.7
389.94	24.03
390.306	23.95
390.671	23.63
391.036	24.02
391.401	23.86
391.766	24.22
392.131	24.35
392.496	24.08
392.861	24.08
393.226	24.61
393.591	24.51
393.956	24.4
394.32	24.58
394.685	24.57
395.05	24.59
395.414	24.59
395.779	24.55
396.143	24.97
396.508	24.78
396.872	25.08
397.236	25.2
397.601	25.26
397.965	25.35
398.329	25.46
398.694	25.25
399.058	25.8
399.422	25.27
399.786	25.45
400.15	25.62
400.514	25.98
400.878	26.23
401.242	25.89
401.605	25.81
401.969	25.85
402.333	26.4
402.697	26.22
403.06	26.14
403.424	26.4
403.787	26.21
404.151	26.39
404.514	26.48
404.878	26.53
405.241	26.63
405.604	26.4
405.968	26.66
406.331	26.81
406.694	26.87
407.057	26.81
407.42	27.06
407.783	26.79
408.146	27.26
408.509	27.25
408.872	27.49
409.235	27.03
409.598	27.39
409.961	27.63
410.323	27.9
410.686	27.5
411.049	27.68
411.411	27.64
411.774	27.85
412.136	28.07
412.499	28.13
412.861	27.96
413.223	28.37
413.586	28.06
413.948	28.04
414.31	28.31
414.672	28.54
415.035	28.55
415.397	28.56
415.759	28.64
416.121	28.6
416.483	28.73
416.845	28.82
417.206	28.67
417.568	28.59
417.93	29.07
418.292	29.09
418.653	29.11
419.015	29.09
419.377	28.72
419.738	28.89
420.1	29.13
420.461	28.99
420.822	29.1
421.184	29.14
421.545	29.34
421.906	29.18
422.267	29.15
422.629	29.39
422.99	29.25
423.351	29.37
423.712	29.43
424.073	29.7
424.434	29.71
424.795	29.98
425.155	29.63
425.516	29.74
425.877	29.7
426.238	29.87
426.598	30.05
426.959	30.1
427.32	30.26
427.68	30.47
428.041	30.47
428.401	30.66
428.761	30.93
429.122	30.97
429.482	31.21
429.842	31.19
430.202	31.36
430.563	31.41
430.923	31.49
431.283	31.3
431.643	31.45
432.003	31.41
432.363	31.66
432.722	31.59
433.082	31.77
433.442	31.6
433.802	31.83
434.161	31.93
434.521	32.02
434.881	31.67
435.24	31.99
435.6	31.91
435.959	32.19
436.319	32.19
436.678	32.36
437.037	32.49
437.396	32.68
437.756	32.78
438.115	32.91
438.474	32.73
438.833	32.88
439.192	32.92
439.551	32.79
439.91	32.86
440.269	32.84
440.628	32.94
440.987	33.1
441.345	33.08
441.704	32.99
442.063	33.04
442.421	33.12
442.78	33.19
443.138	33.35
443.497	33.52
443.855	33.56
444.214	33.86
444.572	33.97
444.93	33.78
445.288	33.99
445.647	34.31
446.005	34.12
446.363	33.76
446.721	33.9
447.079	34.12
447.437	34
447.795	34.03
448.153	33.98
448.51	34.09
448.868	34.24
449.226	34.36
449.584	34.49
449.941	34.67
450.299	34.83
450.656	34.94
451.014	34.9
451.371	35.1
451.729	35.29
452.086	35.33
452.443	35.44
452.801	35.47
453.158	35.4
453.515	35.54
453.872	35.62
454.229	35.77
454.586	35.61
454.943	36.05
455.3	35.63
455.657	36.06
456.014	36.1
456.371	35.82
456.727	36.29
457.084	36.2
457.441	36.43
457.797	36.21
458.154	36.41
458.51	36.58
458.867	36.7
459.223	36.68
459.58	36.75
459.936	36.58
460.292	36.92
460.648	36.76
461.005	36.62
461.361	36.55
461.717	36.62
462.073	36.59
462.429	36.94
462.785	37.12
463.141	37.28
463.496	37.28
463.852	37.97
464.208	37.8
464.564	37.71
464.919	37.89
465.275	38.04
465.631	38
465.986	37.97
466.342	38.19
466.697	38.21
467.052	38.26
467.408	38.46
467.763	38.62
468.118	38.46
468.473	38.24
468.829	38.47
469.184	38.41
469.539	38.59
469.894	38.8
470.249	38.55
470.603	39.03
470.958	38.65
471.313	39.26
471.668	39.1
472.023	39.15
472.377	39.29
472.732	39.48
473.086	39.68
473.441	39.68
473.795	39.53
474.15	39.57
474.504	39.7
474.859	39.72
475.213	39.75
475.567	39.72
475.921	40
476.275	39.95
476.63	40.21
476.984	40.25
477.338	40.44
477.692	40.24
478.045	40.43
478.399	40.25
478.753	40.26
479.107	40.52
479.461	40.5
479.814	40.56
480.168	40.55
480.521	40.64
480.875	40.88
481.228	41.12
481.582	40.82
481.935	41.23
482.289	40.99
482.642	41.06
482.995	40.88
483.348	40.93
483.701	41.1
484.055	40.77
484.408	40.65
484.761	40.47
485.114	40.2
485.466	40.27
485.819	40.47
486.172	40.57
486.525	40.87
486.878	41.05
487.23	40.98
487.583	41.2
487.936	41.49
488.288	41.42
488.641	41.18
488.993	41.03
489.345	41.07
489.698	41.11
490.05	41.29
490.402	41.53
490.754	41.72
491.107	41.97
491.459	42.32
491.811	42.52
492.163	42.41
492.515	42.47
492.866	42.14
493.218	41.88
493.57	41.96
493.922	42.14
494.274	42.29
494.625	42.67
494.977	42.92
495.328	43.19
495.68	43.22
496.031	43.62
496.383	43.62
496.734	43.61
497.086	43.79
497.437	43.81
497.788	44.04
498.139	43.88
498.49	43.8
498.842	43.78
499.193	43.77
499.544	43.79
499.894	44.15
500.245	44.38
500.596	44.32
500.947	44.35
501.298	44.42
501.648	44.64
501.999	44.68
502.35	44.81
502.7	44.9
503.051	44.79
503.401	44.83
503.752	45.15
504.102	45.02
504.452	45.53
504.803	45.22
505.153	45.28
505.503	45.44
505.853	45.42
506.203	45.5
506.553	45.63
506.903	45.7
507.253	45.62
507.603	45.74
507.953	46.01
508.303	45.88
508.652	45.95
509.002	46.13
509.352	45.81
509.701	45.92
510.051	46.04
510.4	46.08
510.75	46.19
511.099	46.17
511.449	46.19
511.798	46.25
512.147	46.52
512.496	46.67
512.846	46.62
513.195	46.69
513.544	46.8
513.893	46.69
514.242	46.85
514.591	46.72
514.939	46.87
515.288	47.14
515.637	47.02
515.986	47.38
516.334	47.15
516.683	47.43
517.032	47.55
517.38	47.56
517.729	47.75
518.077	47.82
518.426	47.68
518.774	47.64
519.122	47.69
519.47	47.74
519.819	47.73
520.167	47.47
520.515	47.43
520.863	47.77
521.211	47.8
521.559	47.92
521.907	48.08
522.255	48.2
522.602	48.64
522.95	48.49
523.298	48.81
523.645	48.82
523.993	48.76
524.341	48.92
524.688	49.18
525.036	49.05
525.383	49.11
525.73	49.17
526.078	49.27
526.425	49.16
526.772	49.01
527.119	49.13
527.466	49.07
527.814	48.89
528.161	49.1
528.508	49.09
528.854	49.14
529.201	49.27
529.548	49.03
529.895	48.73
530.242	48.67
530.588	49.11
530.935	49.25
531.282	49.12
531.628	49.32
531.975	49.43
532.321	49.63
532.667	49.98
533.014	50.06
533.36	49.99
533.706	50.31
534.052	50.3
534.399	50.12
534.745	49.94
535.091	49.88
535.437	50.13
535.783	50.12
536.129	50.32
536.474	50.58
536.82	50.78
537.166	51.23
537.512	50.99
537.857	51.08
538.203	50.82
538.549	50.69
538.894	51.16
539.239	51.14
539.585	51.2
539.93	51.53
540.276	51.56
540.621	51.82
540.966	52.08
541.311	51.71
541.656	52.02
542.001	51.98
542.346	51.45
542.691	51.27
543.036	50.97
543.381	51.41
543.726	51.34
544.071	51.52
544.415	51.51
544.76	51.93
545.105	52.09
545.449	52.31
545.794	52.6
546.138	52.63
546.483	52.54
546.827	53.08
547.171	52.84
547.516	52.92
547.86	53.02
548.204	53.02
548.548	52.96
548.892	52.94
549.236	53.32
549.58	53.62
549.924	53.34
550.268	53.66
550.612	53.73
550.956	53.98
551.3	54.04
551.643	54.02
551.987	54.34
552.33	53.97
552.674	54.34
553.017	54.26
553.361	54.13
553.704	54.46
554.048	54.1
554.391	54.35
554.734	54.57
555.077	54.47
555.42	54.58
555.764	54.69
556.107	54.73
556.45	54.84
556.793	55.19
557.135	54.85
557.478	55.21
557.821	54.9
558.164	55.27
558.507	55.08
558.849	55.19
559.192	55.77
559.534	55.42
559.877	55.67
560.219	55.87
560.562	55.58
560.904	55.98
561.246	55.75
561.589	55.79
561.931	55.77
562.273	55.93
562.615	56.07
562.957	55.88
563.299	55.68
563.641	56.33
563.983	56.18
564.325	56.25
564.667	56.38
565.008	56.29
565.35	56.41
565.692	56.47
566.033	56.78
566.375	56.72
566.716	56.72
567.058	56.92
567.399	56.96
567.741	56.8
568.082	56.58
568.423	56.83
568.764	56.94
569.105	57.09
569.447	57.22
569.788	57.15
570.129	57.18
570.47	57.25
570.811	57.28
571.151	57.45
571.492	57.74
571.833	57.37
572.174	57.58
572.514	57.3
572.855	57.64
573.195	57.66
573.536	57.41
573.876	57.71
574.217	57.89
574.557	57.91
574.898	58.15
575.238	58.3
575.578	58.24
575.918	58.25
576.258	58.25
576.598	58.51
576.938	58.3
577.278	58.42
577.618	58.58
577.958	58.52
578.298	58.55
578.638	58.9
578.977	58.65
579.317	58.73
579.657	59.04
579.996	59.23
580.336	58.91
580.675	59.22
581.014	59.3
581.354	59.09
581.693	59.46
582.032	59.54
582.372	59.66
582.711	59.48
583.05	59.69
583.389	59.86
583.728	60.18
584.067	59.61
584.406	60.38
584.745	60.24
585.083	60.21
585.422	60.1
585.761	59.99
586.1	60.3
586.438	60.48
586.777	60.26
587.115	60.4
587.454	60.68
587.792	60.62
588.13	60.63
588.469	60.49
588.807	60.61
589.145	60.77
589.483	60.51
589.821	60.85
590.159	61.14
590.497	60.83
590.835	60.62
591.173	60.97
591.511	60.75
591.849	61.11
592.187	61.07
592.524	61.13
592.862	61.48
593.2	61.01
593.537	61.31
593.875	61.21
594.212	61.7
594.55	61.34
594.887	61.88
595.224	61.73
595.561	61.8
595.899	61.47
596.236	61.94
596.573	61.66
596.91	61.46
597.247	62.09
597.584	61.82
597.921	62.18
598.258	61.91
598.594	62.14
598.931	61.97
599.268	62.14
599.604	62.37
599.941	62.48
600.277	62.42
600.614	62.38
600.95	62.81
601.287	62.93
601.623	63.19
601.959	63.01
602.296	63.26
602.632	63.34
602.968	63.33
603.304	63.02
603.64	62.9
603.976	63.28
604.312	63.52
604.648	63.34
604.984	63.19
605.319	63.31
605.655	63.04
605.991	63.39
606.326	63.01
606.662	62.96
606.998	63.19
607.333	63.51
607.668	63.83
608.004	63.44
608.339	63.52
608.674	63.95
609.01	64.08
609.345	64.3
609.68	64.53
610.015	63.92
610.35	64.31
610.685	64.14
611.02	64.07
611.355	64.25
611.689	64.29
612.024	64.21
612.359	64.37
612.694	64.7
613.028	64.95
613.363	64.45
613.697	64.87
614.032	64.87
614.366	64.91
614.7	64.58
615.035	64.96
615.369	64.79
615.703	65.37
616.037	65.06
616.371	64.24
616.705	64.46
617.039	64.94
617.373	65.37
617.707	65.17
618.041	65.23
618.375	65.23
618.709	65.33
619.042	65.2
619.376	65.57
619.71	65.68
620.043	65.98
620.377	65.51
620.71	65.67
621.043	65.48
621.377	65.4
621.71	66.14
622.043	65.83
622.376	66.01
622.709	65.74
623.043	65.93
623.376	65.91
623.709	66.28
624.041	65.88
624.374	66.52
624.707	65.9
625.04	66.31
625.373	66.63
625.705	66.63
626.038	66.55
626.37	66.56
626.703	67.33
627.035	66.51
627.368	66.79
627.7	66.46
628.032	66.51
628.365	66.67
628.697	66.85
629.029	66.75
629.361	66.72
629.693	66.92
630.025	66.81
630.357	67.37
630.689	67.4
631.021	67.07
631.353	68.05
631.684	67.42
632.016	67.42
632.348	67.41
632.679	67.39
633.011	67.66
633.342	67.42
633.674	67.33
634.005	67.53
634.336	67.44
634.668	67.6
634.999	67.74
635.33	68.12
635.661	67.79
635.992	67.94
636.323	67.96
636.654	68
636.985	68.01
637.316	67.9
637.647	67.98
637.977	68.3
638.308	68.47
638.639	68.14
638.969	68.96
639.3	68.22
639.63	69.01
639.961	69.11
640.291	68.47
640.622	68.36
640.952	68.9
641.282	68.57
641.612	68.63
641.943	68.93
642.273	68.72
642.603	69.16
642.933	69.03
643.263	69.15
643.592	69.42
643.922	69.22
644.252	68.65
644.582	69.27
644.911	69.44
645.241	68.83
645.571	69.59
645.9	69.38
646.23	68.94
646.559	69.75
646.888	69.79
647.218	68.91
647.547	69.68
647.876	69.56
648.205	69.29
648.534	69.48
648.863	69.84
649.192	70.12
649.521	69.88
649.85	69.88
650.179	69.73
650.508	70.29
650.837	69.86
651.165	70.24
651.494	69.72
651.822	69.78
652.151	70.25
652.479	70.01
652.808	70.4
653.136	70.79
653.465	70.12
653.793	70.41
654.121	70.93
654.449	71.25
654.777	70.65
655.105	70.76
655.433	70.46
655.761	71.13
656.089	70.65
656.417	71.17
656.745	70.73
657.073	71.33
657.4	71.17
657.728	71.53
658.056	70.99
658.383	71.21
658.711	70.44
659.038	71.86
659.365	71.27
659.693	71.31
660.02	71.58
660.347	71.67
660.674	71.53
661.001	70.92
661.329	71.05
661.656	71.31
661.982	71.54
662.309	71.53
662.636	71.17
662.963	71.45
663.29	72.02
663.616	71.38
663.943	71.67
664.27	72.17
664.596	72.59
664.923	72.51
665.249	72.42
665.576	71.55
665.902	71.92
666.228	72.13
666.554	71.56
666.881	71.4
667.207	71.91
667.533	72.53
667.859	71.93
668.185	72.14
668.511	72.52
