Data from 447_forehead_Reflection__3__13.txt Node

Date: Tue Dec 12 18:15:22 CST 2023
User: ToomeyLab
Spectrometer: FLMS14357
Trigger mode: 0
Integration Time (sec): 1.000000E-2
Scans to average: 100
Electric dark correction enabled: true
Nonlinearity correction enabled: false
Boxcar width: 0
XAxis mode: Wavelengths
Number of Pixels in Spectrum: 2048
>>>>>Begin Spectral Data<<<<<
189.047	29.62
189.435	29.62
189.823	29.62
190.211	235.42
190.599	338.35
190.987	40.41
191.375	-6.76
191.763	40.06
192.151	60.66
192.538	478.37
192.926	495.78
193.314	4.22
193.702	50.4
194.089	185.44
194.477	127.92
194.864	310.84
195.252	66.55
195.639	-82.3
196.027	87.69
196.414	43.73
196.801	191.95
197.189	-842.59
197.576	-636.67
197.963	40.08
198.351	46.24
198.738	37.57
199.125	26.33
199.512	25.3
199.899	16.33
200.286	20.95
200.673	32.47
201.06	109.78
201.447	-37.01
201.833	42.15
202.22	33.91
202.607	58.24
202.994	49.58
203.38	92.01
203.767	17.75
204.154	21.81
204.54	50.24
204.927	44.75
205.313	20.07
205.699	33.3
206.086	28.49
206.472	72.1
206.858	23.66
207.245	87.04
207.631	40.05
208.017	39.06
208.403	63.88
208.789	44.88
209.175	34.62
209.561	89.59
209.947	29.42
210.333	52.94
210.719	19.07
211.105	100.24
211.491	38.16
211.876	41.91
212.262	53.12
212.648	48.79
213.034	5.46
213.419	45.97
213.805	43.71
214.19	31.68
214.576	35.52
214.961	31.88
215.346	44.27
215.732	33.32
216.117	36.34
216.502	28.96
216.888	19.6
217.273	20.54
217.658	7.52
218.043	20.88
218.428	24
218.813	32.84
219.198	-1.36
219.583	24.5
219.968	17.88
220.353	15.58
220.738	34.31
221.122	25.05
221.507	18.4
221.892	22
222.276	21.52
222.661	39.36
223.046	3.17
223.43	14.45
223.815	17.22
224.199	15.82
224.583	13.97
224.968	15.86
225.352	3.53
225.736	14.42
226.121	9.61
226.505	12.58
226.889	7.47
227.273	5.91
227.657	14.55
228.041	9.01
228.425	10.08
228.809	4.63
229.193	5.91
229.577	6.88
229.961	4.57
230.344	5.43
230.728	5.81
231.112	4.65
231.495	5.29
231.879	5.6
232.263	6.47
232.646	5.46
233.03	4.79
233.413	5.14
233.797	5.42
234.18	4.48
234.563	6.27
234.946	7.6
235.33	6.99
235.713	5.9
236.096	6.08
236.479	6.58
236.862	5.88
237.245	5.8
237.628	5.43
238.011	6.99
238.394	6.03
238.777	8.82
239.16	7.28
239.543	6.65
239.925	6.29
240.308	7.15
240.691	4.99
241.073	6.38
241.456	5.59
241.838	6.37
242.221	6.57
242.603	5.45
242.986	4.96
243.368	5.65
243.75	4.56
244.133	5.09
244.515	5.15
244.897	5.24
245.279	5.82
245.661	4.5
246.043	5.53
246.425	6.31
246.807	4.6
247.189	5.26
247.571	5.09
247.953	5.19
248.335	4.88
248.717	4.73
249.098	4.55
249.48	4.49
249.862	4.47
250.243	4.63
250.625	5.45
251.006	5.33
251.388	5.39
251.769	6.1
252.151	5.73
252.532	5.94
252.913	5.63
253.295	5.63
253.676	4.52
254.057	4.76
254.438	5.41
254.819	5.29
255.2	5.08
255.581	5.76
255.962	5.74
256.343	6.31
256.724	6.48
257.105	6.14
257.486	5.86
257.867	5.11
258.247	4.98
258.628	5.72
259.009	4.88
259.389	5.11
259.77	6.08
260.15	5.16
260.531	5.58
260.911	5.39
261.292	4.32
261.672	4.44
262.052	4.55
262.432	4.76
262.813	4.82
263.193	5.12
263.573	5.24
263.953	5.86
264.333	5.68
264.713	5.15
265.093	5
265.473	5.28
265.853	5.26
266.233	5.16
266.612	4.86
266.992	5.45
267.372	5.68
267.752	5.49
268.131	4.14
268.511	4.29
268.89	4.43
269.27	4.44
269.649	5.28
270.029	4.89
270.408	5.1
270.787	4.33
271.167	4.72
271.546	4.76
271.925	5.46
272.304	5.31
272.683	4.24
273.062	4.47
273.441	4.92
273.82	4.73
274.199	4.74
274.578	4.5
274.957	4.7
275.336	4.94
275.715	5.14
276.093	4.17
276.472	5.01
276.851	5
277.229	5.07
277.608	4.78
277.986	4.7
278.365	4.99
278.743	4.87
279.122	4.7
279.5	4.23
279.878	4.39
280.257	5.07
280.635	4.37
281.013	4.74
281.391	5.2
281.769	4.9
282.147	5.19
282.525	4.58
282.903	4.38
283.281	4.69
283.659	5.15
284.037	5.18
284.415	4.84
284.792	4.61
285.17	4.41
285.548	4.62
285.925	5.01
286.303	4.43
286.68	4.8
287.058	4.87
287.435	4.73
287.813	4.31
288.19	4.61
288.567	4.81
288.945	5.04
289.322	4.83
289.699	5.09
290.076	5.15
290.453	5.23
290.83	4.77
291.207	5.22
291.584	5.12
291.961	5.12
292.338	5.36
292.715	5.24
293.092	4.85
293.469	4.97
293.845	5.51
294.222	5.37
294.599	5.66
294.975	5.37
295.352	5.28
295.728	5.46
296.105	5.53
296.481	6.03
296.858	5.5
297.234	6.15
297.61	5.74
297.986	5.94
298.363	5.43
298.739	5.54
299.115	5.23
299.491	5.64
299.867	5.57
300.243	5.72
300.619	5.9
300.995	5.94
301.371	6.23
301.746	5.98
302.122	6.43
302.498	6.67
302.874	6.46
303.249	6.98
303.625	6.17
304	6.79
304.376	6.45
304.751	6.88
305.127	6.61
305.502	6.7
305.878	6.41
306.253	6.28
306.628	6.91
307.003	6.89
307.378	6.7
307.754	7.05
308.129	6.84
308.504	7.33
308.879	6.4
309.254	7.01
309.629	6.72
310.003	7.07
310.378	7.51
310.753	7.41
311.128	7.44
311.502	6.82
311.877	6.9
312.252	6.92
312.626	7.23
313.001	7.11
313.375	6.96
313.75	7.54
314.124	7.82
314.498	7.58
314.873	7.76
315.247	7.88
315.621	7.96
315.995	7.9
316.369	7.8
316.743	7.67
317.117	8.11
317.491	7.98
317.865	8.26
318.239	8.78
318.613	8.89
318.987	8.55
319.361	7.86
319.734	8.67
320.108	8.95
320.482	8.96
320.855	8.26
321.229	9.22
321.602	8.94
321.976	9.4
322.349	8.84
322.723	9.01
323.096	8.77
323.469	9.42
323.843	10.09
324.216	9.46
324.589	8.94
324.962	9.83
325.335	10
325.708	9.2
326.081	9.57
326.454	9.27
326.827	9.86
327.2	9.57
327.573	9.57
327.945	9.69
328.318	10
328.691	9.26
329.063	10.12
329.436	10.23
329.809	9.84
330.181	9.83
330.553	10.61
330.926	10.11
331.298	9.64
331.671	10
332.043	10.19
332.415	10.02
332.787	9.97
333.159	10.23
333.532	10.32
333.904	9.94
334.276	11.37
334.648	10.2
335.02	10.15
335.391	10.41
335.763	10.48
336.135	10.97
336.507	11.07
336.879	11.3
337.25	10.68
337.622	10.62
337.993	10.56
338.365	10.78
338.736	11.16
339.108	10.94
339.479	10.9
339.851	10.72
340.222	10.7
340.593	11.14
340.964	11.28
341.336	11.48
341.707	10.8
342.078	11.13
342.449	11.19
342.82	11.62
343.191	11.2
343.562	11.31
343.933	11.79
344.303	11.36
344.674	12.11
345.045	11.72
345.416	12.09
345.786	11.82
346.157	11.41
346.527	12.6
346.898	11.6
347.268	12.1
347.639	12.43
348.009	11.97
348.38	11.86
348.75	12.09
349.12	12.31
349.49	12.11
349.861	12.54
350.231	12.51
350.601	12.82
350.971	12.07
351.341	12.73
351.711	12.65
352.081	12.73
352.45	12.53
352.82	12.9
353.19	12.92
353.56	12.86
353.929	12.94
354.299	12.51
354.669	12.74
355.038	12.75
355.408	12.77
355.777	13.41
356.147	12.77
356.516	13.12
356.885	12.96
357.254	13.38
357.624	12.78
357.993	13.11
358.362	13.14
358.731	13.48
359.1	13.11
359.469	13.16
359.838	13.34
360.207	13.38
360.576	13.82
360.945	13.43
361.314	13.99
361.682	13.61
362.051	13.74
362.42	13.81
362.788	13.76
363.157	13.95
363.525	13.73
363.894	13.75
364.262	14.03
364.631	13.92
364.999	14.09
365.367	14.36
365.735	14.04
366.104	14.15
366.472	14.16
366.84	14.13
367.208	14.21
367.576	14.25
367.944	14.48
368.312	14.57
368.68	14.4
369.048	14.44
369.416	14.5
369.783	15.04
370.151	14.96
370.519	14.68
370.886	14.84
371.254	14.84
371.621	15.09
371.989	15.13
372.356	15.19
372.724	14.88
373.091	14.94
373.458	15.21
373.826	15.35
374.193	15.11
374.56	15.41
374.927	15.4
375.294	15.55
375.661	15.48
376.028	15.65
376.395	16.18
376.762	16.29
377.129	15.56
377.496	15.77
377.863	15.65
378.229	15.86
378.596	15.91
378.963	15.81
379.329	16.02
379.696	15.92
380.062	16.17
380.429	16.05
380.795	16.26
381.161	16.18
381.528	16.41
381.894	16.26
382.26	16.06
382.626	16.17
382.993	16.49
383.359	16.06
383.725	16.52
384.091	16.71
384.457	16.48
384.823	16.76
385.188	16.66
385.554	16.58
385.92	16.69
386.286	17.34
386.651	17.26
387.017	17.03
387.383	17.21
387.748	17.18
388.114	17.42
388.479	17.36
388.845	17.06
389.21	17.14
389.575	16.97
389.94	17.3
390.306	17.33
390.671	17.23
391.036	17.86
391.401	17.29
391.766	17.43
392.131	17.59
392.496	17.54
392.861	17.76
393.226	17.8
393.591	17.87
393.956	17.74
394.32	18.05
394.685	18.01
395.05	17.87
395.414	17.62
395.779	17.93
396.143	17.98
396.508	17.93
396.872	18.16
397.236	18
397.601	18.26
397.965	18.31
398.329	18.42
398.694	18.58
399.058	18.89
399.422	18.54
399.786	18.51
400.15	18.58
400.514	18.79
400.878	18.82
401.242	18.77
401.605	18.87
401.969	18.76
402.333	19.14
402.697	19.07
403.06	18.93
403.424	19.12
403.787	19.01
404.151	19.11
404.514	19.02
404.878	19.06
405.241	19.29
405.604	18.95
405.968	19.01
406.331	19.15
406.694	19.33
407.057	19.33
407.42	19.51
407.783	19.3
408.146	19.82
408.509	19.7
408.872	19.61
409.235	19.56
409.598	19.74
409.961	19.9
410.323	19.78
410.686	19.57
411.049	20.07
411.411	19.98
411.774	20.15
412.136	20.14
412.499	20.18
412.861	20.33
413.223	20.48
413.586	20.29
413.948	20.32
414.31	20.41
414.672	20.48
415.035	20.66
415.397	20.53
415.759	20.64
416.121	20.64
416.483	20.95
416.845	20.68
417.206	20.76
417.568	20.62
417.93	20.81
418.292	20.82
418.653	20.84
419.015	20.77
419.377	20.96
419.738	20.91
420.1	20.8
420.461	20.96
420.822	20.91
421.184	20.8
421.545	21.07
421.906	20.91
422.267	20.87
422.629	21.04
422.99	21.04
423.351	20.95
423.712	21
424.073	21.26
424.434	21.23
424.795	21.48
425.155	21.36
425.516	21.19
425.877	21.29
426.238	21.31
426.598	21.41
426.959	21.43
427.32	21.77
427.68	21.75
428.041	21.99
428.401	22.07
428.761	22.22
429.122	22.18
429.482	22.6
429.842	22.4
430.202	22.35
430.563	22.52
430.923	22.6
431.283	22.59
431.643	22.69
432.003	22.58
432.363	22.88
432.722	22.82
433.082	22.76
433.442	22.78
433.802	23.03
434.161	22.9
434.521	22.82
434.881	22.78
435.24	22.74
435.6	22.83
435.959	23.12
436.319	23.09
436.678	23.19
437.037	23.24
437.396	23.37
437.756	23.52
438.115	23.56
438.474	23.43
438.833	23.41
439.192	23.55
439.551	23.7
439.91	23.56
440.269	23.53
440.628	23.62
440.987	23.6
441.345	23.61
441.704	23.57
442.063	23.63
442.421	23.58
442.78	23.51
443.138	23.68
443.497	23.97
443.855	23.97
444.214	24.15
444.572	24.17
444.93	24.18
445.288	23.96
445.647	24.32
446.005	24.21
446.363	24.15
446.721	24.2
447.079	24.3
447.437	24.12
447.795	24.13
448.153	24.12
448.51	24.14
448.868	24.25
449.226	24.5
449.584	24.47
449.941	24.63
450.299	24.79
450.656	24.93
451.014	24.96
451.371	25.06
451.729	25.24
452.086	25.29
452.443	25.38
452.801	25.26
453.158	25.41
453.515	25.09
453.872	25.32
454.229	25.53
454.586	25.42
454.943	25.44
455.3	25.44
455.657	25.59
456.014	25.79
456.371	25.71
456.727	25.83
457.084	25.8
457.441	26.15
457.797	25.96
458.154	25.97
458.51	26.12
458.867	26.09
459.223	25.95
459.58	26.16
459.936	26.09
460.292	26.07
460.648	26.18
461.005	25.84
461.361	25.92
461.717	25.97
462.073	26.03
462.429	26.03
462.785	26.33
463.141	26.56
463.496	26.55
463.852	26.98
464.208	26.77
464.564	26.71
464.919	27.15
465.275	27.03
465.631	27.13
465.986	27.2
466.342	27.17
466.697	27
467.052	27.21
467.408	27.33
467.763	27.39
468.118	27.49
468.473	27.12
468.829	27.3
469.184	27.39
469.539	27.46
469.894	27.41
470.249	27.49
470.603	27.71
470.958	27.54
471.313	27.83
471.668	27.84
472.023	27.73
472.377	27.91
472.732	28.01
473.086	27.78
473.441	27.84
473.795	28.16
474.15	28.17
474.504	28.03
474.859	28.13
475.213	28
475.567	28
475.921	28.38
476.275	28.46
476.63	28.72
476.984	28.56
477.338	28.69
477.692	28.54
478.045	28.48
478.399	28.54
478.753	28.42
479.107	28.62
479.461	28.75
479.814	28.65
480.168	28.61
480.521	28.94
480.875	28.81
481.228	28.94
481.582	29.02
481.935	29.2
482.289	29.03
482.642	29.02
482.995	28.84
483.348	28.88
483.701	28.89
484.055	28.72
484.408	28.67
484.761	28.54
485.114	28.11
485.466	28.04
485.819	28.05
486.172	28.28
486.525	28.42
486.878	28.64
487.23	28.8
487.583	28.94
487.936	29.09
488.288	29.02
488.641	28.88
488.993	28.63
489.345	28.79
489.698	28.81
490.05	28.97
490.402	29.06
490.754	29.34
491.107	29.47
491.459	29.71
491.811	29.88
492.163	29.87
492.515	29.87
492.866	29.55
493.218	29.24
493.57	29.34
493.922	29.52
494.274	29.79
494.625	30.07
494.977	30.25
495.328	30.45
495.68	30.66
496.031	30.92
496.383	30.68
496.734	31
497.086	30.92
497.437	31.12
497.788	30.99
498.139	30.71
498.49	30.77
498.842	30.77
499.193	31.06
499.544	30.85
499.894	31.11
500.245	31.19
500.596	31.21
500.947	31.3
501.298	31.36
501.648	31.59
501.999	31.48
502.35	31.42
502.7	31.71
503.051	31.76
503.401	31.81
503.752	32
504.102	31.74
504.452	32.08
504.803	32
505.153	31.87
505.503	32.15
505.853	32.09
506.203	32
506.553	32.05
506.903	32.32
507.253	32.14
507.603	32.35
507.953	32.41
508.303	32.54
508.652	32.42
509.002	32.5
509.352	32.35
509.701	32.32
510.051	32.48
510.4	32.48
510.75	32.3
511.099	32.5
511.449	32.59
511.798	32.57
512.147	32.86
512.496	32.96
512.846	32.95
513.195	32.91
513.544	32.93
513.893	32.89
514.242	32.96
514.591	33.01
514.939	33.06
515.288	33.1
515.637	33.16
515.986	33.26
516.334	33.38
516.683	33.55
517.032	33.6
517.38	33.57
517.729	33.8
518.077	33.68
518.426	33.65
518.774	33.54
519.122	33.53
519.47	33.54
519.819	33.27
520.167	33.38
520.515	33.33
520.863	33.57
521.211	33.67
521.559	33.57
521.907	33.85
522.255	33.83
522.602	34.03
522.95	34.19
523.298	34.41
523.645	34.35
523.993	34.32
524.341	34.49
524.688	34.47
525.036	34.53
525.383	34.35
525.73	34.77
526.078	34.64
526.425	34.58
526.772	34.45
527.119	34.26
527.466	34.09
527.814	34.22
528.161	34.44
528.508	34.56
528.854	34.57
529.201	34.49
529.548	34.41
529.895	34.1
530.242	33.78
530.588	33.97
530.935	34.28
531.282	34.37
531.628	34.56
531.975	34.63
532.321	34.81
532.667	35.01
533.014	35.18
533.36	35.12
533.706	35.13
534.052	35.25
534.399	35.15
534.745	34.89
535.091	34.8
535.437	34.95
535.783	35.12
536.129	35.36
536.474	35.54
536.82	35.78
537.166	35.8
537.512	35.76
537.857	35.76
538.203	35.67
538.549	35.68
538.894	35.88
539.239	35.89
539.585	36.16
539.93	35.99
540.276	36.32
540.621	36.48
540.966	36.67
541.311	36.63
541.656	36.49
542.001	36.49
542.346	36.03
542.691	35.94
543.036	35.6
543.381	35.65
543.726	35.98
544.071	36.08
544.415	36.37
544.76	36.34
545.105	36.53
545.449	36.82
545.794	36.97
546.138	36.97
546.483	37.15
546.827	37.33
547.171	37.08
547.516	37.23
547.86	37.3
548.204	37.27
548.548	37.15
548.892	37.18
549.236	37.26
549.58	37.85
549.924	37.54
550.268	37.88
550.612	38.06
550.956	38.13
551.3	38.31
551.643	38.24
551.987	38.4
552.33	38.23
552.674	38.48
553.017	38.43
553.361	38.56
553.704	38.39
554.048	38.32
554.391	38.28
554.734	38.54
555.077	38.6
555.42	38.64
555.764	38.65
556.107	38.79
556.45	38.88
556.793	38.95
557.135	38.6
557.478	39.17
557.821	38.92
558.164	39
558.507	39.11
558.849	39.28
559.192	39.38
559.534	39.33
559.877	39.49
560.219	39.76
560.562	39.45
560.904	39.79
561.246	39.47
561.589	39.42
561.931	39.67
562.273	39.66
562.615	39.82
562.957	39.41
563.299	39.45
563.641	39.7
563.983	39.87
564.325	39.79
564.667	40.17
565.008	39.75
565.35	40.04
565.692	39.96
566.033	40.18
566.375	40.28
566.716	40.25
567.058	40.29
567.399	40.51
567.741	40.06
568.082	39.87
568.423	40.25
568.764	40.47
569.105	40.44
569.447	40.6
569.788	40.65
570.129	40.74
570.47	40.57
570.811	40.72
571.151	40.69
571.492	41.1
571.833	40.82
572.174	40.86
572.514	40.87
572.855	40.88
573.195	40.78
573.536	40.87
573.876	41.07
574.217	41.03
574.557	40.74
574.898	41.31
575.238	41.08
575.578	41.11
575.918	41.49
576.258	41.33
576.598	41.49
576.938	41.34
577.278	41.5
577.618	41.73
577.958	41.41
578.298	41.84
578.638	41.47
578.977	41.8
579.317	41.89
579.657	41.74
579.996	41.9
580.336	41.82
580.675	42.24
581.014	42.16
581.354	42.35
581.693	42.08
582.032	42.22
582.372	42.49
582.711	42.1
583.05	42.39
583.389	42.32
583.728	42.56
584.067	42.76
584.406	42.9
584.745	43.01
585.083	42.63
585.422	42.97
585.761	42.94
586.1	42.6
586.438	43
586.777	42.96
587.115	42.96
587.454	43.15
587.792	42.91
588.13	42.82
588.469	42.83
588.807	43.02
589.145	43.49
589.483	43.31
589.821	43.3
590.159	43.55
590.497	43.35
590.835	43.33
591.173	43.56
591.511	43.64
591.849	43.38
592.187	43.59
592.524	43.57
592.862	43.73
593.2	43.5
593.537	43.58
593.875	44.05
594.212	43.78
594.55	43.85
594.887	44.23
595.224	43.76
595.561	44.07
595.899	43.61
596.236	44.15
596.573	44.08
596.91	43.96
597.247	44.06
597.584	44.07
597.921	44.07
598.258	43.88
598.594	43.93
598.931	43.99
599.268	43.79
599.604	44.46
599.941	44.33
600.277	44.44
600.614	44.44
600.95	44.33
601.287	44.64
601.623	44.75
601.959	44.88
602.296	44.68
602.632	44.82
602.968	44.73
603.304	44.77
603.64	44.6
603.976	44.94
604.312	45.12
604.648	45.13
604.984	44.72
605.319	44.72
605.655	44.58
605.991	44.6
606.326	44.47
606.662	44.61
606.998	44.9
607.333	45.15
607.668	45.05
608.004	45.34
608.339	45.16
608.674	45.39
609.01	45.44
609.345	45.54
609.68	45.85
610.015	45.8
610.35	45.48
610.685	45.6
611.02	45.49
611.355	45.37
611.689	45.8
612.024	45.52
612.359	46.12
612.694	45.74
613.028	45.87
613.363	45.72
613.697	46.27
614.032	46.22
614.366	46.25
614.7	46.26
615.035	46.48
615.369	46.4
615.703	46.2
616.037	46.31
616.371	46.23
616.705	46.06
617.039	46.54
617.373	46.89
617.707	46.51
618.041	46.55
618.375	46.43
618.709	47.18
619.042	46.65
619.376	46.5
619.71	47.03
620.043	46.81
620.377	46.7
620.71	46.8
621.043	46.8
621.377	46.8
621.71	46.97
622.043	47.49
622.376	46.72
622.709	47.42
623.043	46.94
623.376	47.34
623.709	47.3
624.041	46.93
624.374	47.54
624.707	47.23
625.04	47.31
625.373	47.64
625.705	47.55
626.038	47.42
626.37	47.47
626.703	47.62
627.035	47.67
627.368	47.76
627.7	47.4
628.032	47.32
628.365	47.47
628.697	47.98
629.029	47.51
629.361	47.38
629.693	47.73
630.025	47.76
630.357	47.67
630.689	47.91
631.021	48.53
631.353	48.46
631.684	48.27
632.016	48.06
632.348	48.32
632.679	48.08
633.011	48.49
633.342	48.48
633.674	48.32
634.005	48.43
634.336	48.49
634.668	48.65
634.999	47.99
635.33	48.76
635.661	48.31
635.992	48.65
636.323	48.28
636.654	48.55
636.985	48.68
637.316	48.21
637.647	48.44
637.977	48.84
638.308	49.03
638.639	48.62
638.969	48.9
639.3	48.86
639.63	49.28
639.961	49.34
640.291	49.46
640.622	48.69
640.952	49.69
641.282	48.79
641.612	49
641.943	48.6
642.273	49.29
642.603	49.41
642.933	48.91
643.263	49.02
643.592	49.55
643.922	48.99
644.252	49.42
644.582	49.1
644.911	49.57
645.241	49.33
645.571	50.08
645.9	49.83
646.23	49.76
646.559	49.92
646.888	50.26
647.218	49.85
647.547	49.73
647.876	49.51
648.205	49.68
648.534	49.92
648.863	49.19
649.192	49.74
649.521	50.49
649.85	50.01
650.179	49.89
650.508	50.5
650.837	50.76
651.165	50.18
651.494	49.8
651.822	50.19
652.151	49.84
652.479	50.06
652.808	50.07
653.136	50.33
653.465	50.47
653.793	50.6
654.121	50.4
654.449	51.23
654.777	50.6
655.105	50.72
655.433	50.7
655.761	50.87
656.089	50.19
656.417	51.18
656.745	50.79
657.073	50.14
657.4	50.49
657.728	50.75
658.056	50.48
658.383	50.69
658.711	50.47
659.038	50.5
659.365	50.71
659.693	50.74
660.02	50.97
660.347	51.79
660.674	50.93
661.001	50.44
661.329	50.91
661.656	50.93
661.982	50.97
662.309	51.51
662.636	51.13
662.963	51.8
663.29	51.82
663.616	51.14
663.943	51.32
664.27	51.33
664.596	51.82
664.923	51.33
665.249	51.5
665.576	51.41
665.902	51.36
666.228	51.6
666.554	51.21
666.881	51.71
667.207	51.51
667.533	51.83
667.859	51.71
668.185	51.88
668.511	51.69
668.837	51.43
669.162	51.63
669.488	51.52
669.814	51.93
670.139	51.43
670.465	51.45
