Data from 447_chest_Reflection__2__02.txt Node

Date: Tue Dec 12 18:10:35 CST 2023
User: ToomeyLab
Spectrometer: FLMS14357
Trigger mode: 0
Integration Time (sec): 1.000000E-2
Scans to average: 100
Electric dark correction enabled: true
Nonlinearity correction enabled: false
Boxcar width: 0
XAxis mode: Wavelengths
Number of Pixels in Spectrum: 2048
>>>>>Begin Spectral Data<<<<<
189.047	83.52
189.435	83.52
189.823	83.52
190.211	-72.44
190.599	93.93
190.987	64.08
191.375	267.34
191.763	42.54
192.151	47.1
192.538	-66.63
192.926	277
193.314	8.03
193.702	107.73
194.089	236.14
194.477	-65.12
194.864	175.67
195.252	-50.42
195.639	-17.86
196.027	104.5
196.414	73.79
196.801	27.25
197.189	1380.56
197.576	219.9
197.963	78.6
198.351	6.97
198.738	24.62
199.125	27.74
199.512	-13.51
199.899	14.7
200.286	11.98
200.673	-29.86
201.06	16.65
201.447	45.96
201.833	15.74
202.22	40.01
202.607	-102.87
202.994	-23.19
203.38	40.35
203.767	-14.35
204.154	0.3
204.54	31.23
204.927	8.8
205.313	56.44
205.699	-36
206.086	4.88
206.472	36.23
206.858	28.39
207.245	-0.8
207.631	14.06
208.017	53.7
208.403	0.76
208.789	19.85
209.175	-6.52
209.561	44.16
209.947	33.3
210.333	51.89
210.719	43.49
211.105	18.52
211.491	41.6
211.876	26.17
212.262	8.1
212.648	-8.71
213.034	-8.42
213.419	15.31
213.805	20.11
214.19	26.71
214.576	13.04
214.961	18.5
215.346	4.49
215.732	31.05
216.117	21.78
216.502	-10.01
216.888	-12.47
217.273	5.41
217.658	-9.01
218.043	9.09
218.428	28.22
218.813	11.08
219.198	-3.23
219.583	5.34
219.968	39.61
220.353	2.29
220.738	19.83
221.122	-8.57
221.507	-0.75
221.892	8.38
222.276	6.13
222.661	7.68
223.046	-12.01
223.43	4.12
223.815	10.24
224.199	8.03
224.583	7.38
224.968	15.05
225.352	2.73
225.736	7.22
226.121	6.85
226.505	7.83
226.889	6.75
227.273	6.69
227.657	7.79
228.041	1.46
228.425	4.9
228.809	1.13
229.193	0.96
229.577	4.2
229.961	1.52
230.344	2.99
230.728	3.53
231.112	3.19
231.495	2.71
231.879	3.26
232.263	2.6
232.646	2.82
233.03	2.84
233.413	2.4
233.797	2.42
234.18	0.51
234.563	0.86
234.946	6.31
235.33	4.42
235.713	3.02
236.096	1.86
236.479	3.62
236.862	3.39
237.245	3.6
237.628	4.19
238.011	3.6
238.394	2.95
238.777	2.74
239.16	4.16
239.543	3.63
239.925	5.89
240.308	3.63
240.691	3.52
241.073	4.84
241.456	4.42
241.838	2.81
242.221	3.46
242.603	3.84
242.986	2.88
243.368	3.6
243.75	2.72
244.133	2.92
244.515	3.38
244.897	3.15
245.279	3.21
245.661	2.74
246.043	2.25
246.425	2.95
246.807	2.62
247.189	3.52
247.571	3.87
247.953	3.49
248.335	3.3
248.717	3.09
249.098	3.34
249.48	3.23
249.862	2.82
250.243	3.21
250.625	3.7
251.006	3.35
251.388	2.83
251.769	2.5
252.151	2.41
252.532	4.22
252.913	3.01
253.295	3.81
253.676	2.74
254.057	2.92
254.438	3.24
254.819	2.56
255.2	2.16
255.581	4.01
255.962	2.4
256.343	3.8
256.724	3.85
257.105	4.36
257.486	3.04
257.867	4.15
258.247	2.83
258.628	3.17
259.009	3
259.389	2.7
259.77	3.47
260.15	2.99
260.531	3.8
260.911	3.68
261.292	2.54
261.672	2.91
262.052	3.12
262.432	3.35
262.813	3.15
263.193	3.05
263.573	3.94
263.953	3.99
264.333	4.22
264.713	2.95
265.093	3.11
265.473	3.58
265.853	2.21
266.233	3.35
266.612	2.72
266.992	3.47
267.372	3.75
267.752	4.09
268.131	2.28
268.511	2.82
268.89	2.6
269.27	2.84
269.649	2.98
270.029	2.8
270.408	3.22
270.787	3.38
271.167	2.39
271.546	3.13
271.925	3.71
272.304	3.1
272.683	2.85
273.062	2.8
273.441	3.21
273.82	2.6
274.199	2.96
274.578	3.08
274.957	3.01
275.336	3.25
275.715	3.29
276.093	2.8
276.472	3.48
276.851	3.66
277.229	2.81
277.608	3.49
277.986	2.64
278.365	3.58
278.743	3.26
279.122	3.51
279.5	2.96
279.878	2.69
280.257	2.74
280.635	3.37
281.013	3.06
281.391	3.26
281.769	2.99
282.147	3.46
282.525	2.77
282.903	2.7
283.281	3
283.659	3
284.037	3.18
284.415	3.18
284.792	3.54
285.17	2.73
285.548	3.44
285.925	2.85
286.303	3.32
286.68	3.11
287.058	3.32
287.435	3.25
287.813	2.85
288.19	3
288.567	2.88
288.945	3.18
289.322	2.3
289.699	3.3
290.076	2.88
290.453	3.4
290.83	3.02
291.207	3.47
291.584	3.33
291.961	3.2
292.338	3.42
292.715	3.22
293.092	3.38
293.469	3.34
293.845	3.7
294.222	3.49
294.599	3.75
294.975	3.37
295.352	3.37
295.728	3.62
296.105	3.46
296.481	3.82
296.858	3.64
297.234	4.32
297.61	3.77
297.986	3.82
298.363	3.91
298.739	3.82
299.115	3.44
299.491	3.47
299.867	3.57
300.243	3.72
300.619	3.6
300.995	4.05
301.371	4.04
301.746	4.46
302.122	4.29
302.498	3.79
302.874	4.04
303.249	4.27
303.625	4.02
304	3.84
304.376	3.6
304.751	4.5
305.127	4.15
305.502	4.5
305.878	3.74
306.253	3.86
306.628	3.97
307.003	4.41
307.378	4.13
307.754	4.52
308.129	3.87
308.504	4.91
308.879	4.05
309.254	4.43
309.629	4.11
310.003	4.84
310.378	4.56
310.753	4.83
311.128	4.34
311.502	3.96
311.877	4.09
312.252	3.78
312.626	4.41
313.001	4.27
313.375	3.97
313.75	4.58
314.124	4.62
314.498	4.18
314.873	4.51
315.247	4.77
315.621	4.44
315.995	4.55
316.369	4.77
316.743	4.39
317.117	4.34
317.491	4.67
317.865	4.56
318.239	4.75
318.613	5.03
318.987	4.77
319.361	4.37
319.734	4.44
320.108	4.98
320.482	4.66
320.855	4.1
321.229	5.18
321.602	5.31
321.976	4.7
322.349	5.25
322.723	4.28
323.096	4.65
323.469	5.19
323.843	5.62
324.216	5.24
324.589	4.67
324.962	5.37
325.335	5.08
325.708	4.91
326.081	4.97
326.454	4.62
326.827	5.45
327.2	4.98
327.573	4.63
327.945	5.17
328.318	5.12
328.691	4.73
329.063	5.53
329.436	5.53
329.809	5.01
330.181	4.38
330.553	5.27
330.926	5.2
331.298	5.28
331.671	5.18
332.043	4.94
332.415	5.42
332.787	5.05
333.159	5
333.532	5.3
333.904	5.33
334.276	5.64
334.648	4.8
335.02	4.71
335.391	5.07
335.763	4.92
336.135	5.13
336.507	5.66
336.879	5.04
337.25	5.56
337.622	5.49
337.993	5
338.365	5.06
338.736	4.84
339.108	5.34
339.479	5.57
339.851	4.81
340.222	4.95
340.593	5.12
340.964	5.59
341.336	5.22
341.707	4.75
342.078	4.69
342.449	4.78
342.82	5.22
343.191	5.03
343.562	5.46
343.933	5.74
344.303	5.26
344.674	5.16
345.045	5.67
345.416	5.28
345.786	4.97
346.157	5.13
346.527	5.84
346.898	5.35
347.268	4.93
347.639	5.49
348.009	5.15
348.38	5.53
348.75	5.49
349.12	5.8
349.49	5.16
349.861	5.82
350.231	5.41
350.601	5.58
350.971	5.4
351.341	5.39
351.711	5.23
352.081	5.35
352.45	5.79
352.82	5.48
353.19	5.58
353.56	5.58
353.929	5.22
354.299	4.92
354.669	5.39
355.038	5.08
355.408	5.45
355.777	5.93
356.147	5.09
356.516	5.45
356.885	5.28
357.254	5.42
357.624	5.37
357.993	5.62
358.362	5.39
358.731	5.48
359.1	5.34
359.469	5.43
359.838	5.53
360.207	5.4
360.576	5.72
360.945	5.26
361.314	5.6
361.682	5.52
362.051	5.55
362.42	5.73
362.788	5.53
363.157	5.64
363.525	5.67
363.894	5.3
364.262	5.5
364.631	5.11
364.999	5.65
365.367	5.53
365.735	5.68
366.104	5.59
366.472	5.37
366.84	5.79
367.208	5.47
367.576	5.76
367.944	5.89
368.312	5.57
368.68	5.61
369.048	5.69
369.416	5.74
369.783	5.77
370.151	5.6
370.519	5.77
370.886	5.69
371.254	5.39
371.621	6.01
371.989	5.75
372.356	5.66
372.724	5.76
373.091	5.7
373.458	5.69
373.826	5.75
374.193	5.47
374.56	5.92
374.927	5.59
375.294	5.72
375.661	5.83
376.028	5.81
376.395	6.02
376.762	6.01
377.129	5.85
377.496	5.58
377.863	5.85
378.229	5.74
378.596	5.56
378.963	5.86
379.329	5.68
379.696	6.01
380.062	6.34
380.429	5.99
380.795	6.1
381.161	5.94
381.528	6.24
381.894	5.97
382.26	5.53
382.626	5.71
382.993	6.11
383.359	5.66
383.725	6.06
384.091	5.61
384.457	5.89
384.823	5.84
385.188	6.03
385.554	5.87
385.92	5.79
386.286	6.16
386.651	6.22
387.017	6.03
387.383	6.01
387.748	6.04
388.114	6.06
388.479	6.11
388.845	5.72
389.21	6.04
389.575	5.79
389.94	5.96
390.306	5.95
390.671	6.19
391.036	6.12
391.401	6.09
391.766	6.2
392.131	6.16
392.496	6.12
392.861	5.87
393.226	6.13
393.591	6.08
393.956	5.93
394.32	6.25
394.685	6.13
395.05	5.98
395.414	6.25
395.779	6.09
396.143	6.12
396.508	5.81
396.872	6.09
397.236	6.18
397.601	6.13
397.965	6.28
398.329	6.24
398.694	6.08
399.058	6.32
399.422	6.06
399.786	6.12
400.15	6.1
400.514	6.3
400.878	6.24
401.242	6.11
401.605	6.41
401.969	6.22
402.333	6.34
402.697	6.31
403.06	6.04
403.424	6.35
403.787	6.28
404.151	6.65
404.514	5.99
404.878	6.21
405.241	6.37
405.604	6.22
405.968	6.16
406.331	6.34
406.694	6.49
407.057	6.28
407.42	6.33
407.783	6.23
408.146	6.5
408.509	6.39
408.872	6.4
409.235	6.35
409.598	6.38
409.961	6.41
410.323	6.33
410.686	6.32
411.049	6.6
411.411	6.33
411.774	6.49
412.136	6.46
412.499	6.44
412.861	6.4
413.223	6.61
413.586	6.42
413.948	6.42
414.31	6.52
414.672	6.6
415.035	6.18
415.397	6.47
415.759	6.69
416.121	6.48
416.483	6.69
416.845	6.62
417.206	6.62
417.568	6.25
417.93	6.65
418.292	6.28
418.653	6.48
419.015	6.53
419.377	6.66
419.738	6.44
420.1	6.4
420.461	6.48
420.822	6.61
421.184	6.5
421.545	6.6
421.906	6.41
422.267	6.44
422.629	6.49
422.99	6.37
423.351	6.46
423.712	6.46
424.073	6.49
424.434	6.44
424.795	6.59
425.155	6.41
425.516	6.43
425.877	6.48
426.238	6.51
426.598	6.5
426.959	6.47
427.32	6.55
427.68	6.57
428.041	6.66
428.401	6.53
428.761	6.74
429.122	6.79
429.482	6.83
429.842	6.77
430.202	6.65
430.563	6.81
430.923	6.94
431.283	6.63
431.643	6.66
432.003	6.76
432.363	6.84
432.722	6.73
433.082	6.95
433.442	6.85
433.802	7.01
434.161	6.8
434.521	6.87
434.881	7.03
435.24	6.9
435.6	6.91
435.959	6.96
436.319	6.85
436.678	6.92
437.037	6.88
437.396	6.79
437.756	6.88
438.115	7.05
438.474	6.96
438.833	7.19
439.192	7.09
439.551	6.96
439.91	7.01
440.269	7.14
440.628	6.97
440.987	6.87
441.345	7.04
441.704	7.03
442.063	7.09
442.421	7.03
442.78	6.99
443.138	6.98
443.497	7.07
443.855	7.11
444.214	7.06
444.572	7.13
444.93	7.06
445.288	6.95
445.647	7.19
446.005	7.25
446.363	6.93
446.721	7.05
447.079	7.18
447.437	6.93
447.795	7
448.153	7.04
448.51	7.11
448.868	7.19
449.226	7.16
449.584	7.12
449.941	7.18
450.299	7.2
450.656	7.19
451.014	7.22
451.371	7.19
451.729	7.41
452.086	7.38
452.443	7.45
452.801	7.56
453.158	7.34
453.515	7.29
453.872	7.36
454.229	7.41
454.586	7.33
454.943	7.45
455.3	7.28
455.657	7.52
456.014	7.56
456.371	7.53
456.727	7.43
457.084	7.52
457.441	7.58
457.797	7.5
458.154	7.62
458.51	7.52
458.867	7.52
459.223	7.5
459.58	7.6
459.936	7.26
460.292	7.49
460.648	7.6
461.005	7.52
461.361	7.43
461.717	7.5
462.073	7.39
462.429	7.57
462.785	7.59
463.141	7.49
463.496	7.59
463.852	7.73
464.208	7.67
464.564	7.77
464.919	7.77
465.275	7.69
465.631	7.87
465.986	7.71
466.342	7.87
466.697	7.85
467.052	8.02
467.408	7.96
467.763	7.85
468.118	7.87
468.473	7.98
468.829	8.01
469.184	7.89
469.539	8.07
469.894	8.08
470.249	7.94
470.603	7.91
470.958	8.11
471.313	8.27
471.668	8.04
472.023	7.96
472.377	8.04
472.732	8.08
473.086	7.87
473.441	8.23
473.795	8.1
474.15	8.08
474.504	7.91
474.859	8.19
475.213	8.07
475.567	8.14
475.921	8.32
476.275	8.03
476.63	8.19
476.984	8.18
477.338	8.16
477.692	8.14
478.045	8.07
478.399	7.93
478.753	8.07
479.107	8.16
479.461	8.26
479.814	8.33
480.168	8.22
480.521	8.09
480.875	8.28
481.228	8.43
481.582	8.33
481.935	8.28
482.289	8.41
482.642	8.3
482.995	8.25
483.348	8.19
483.701	8.33
484.055	8.2
484.408	8.17
484.761	8.13
485.114	7.88
485.466	7.85
485.819	7.84
486.172	7.88
486.525	8.02
486.878	8.07
487.23	8.08
487.583	8.12
487.936	8.25
488.288	8.17
488.641	8.11
488.993	8.07
489.345	8.12
489.698	8.05
490.05	8.12
490.402	8.25
490.754	8.29
491.107	8.26
491.459	8.34
491.811	8.43
492.163	8.4
492.515	8.37
492.866	8.3
493.218	8.2
493.57	8.22
493.922	8.25
494.274	8.46
494.625	8.52
494.977	8.57
495.328	8.7
495.68	8.59
496.031	8.7
496.383	8.76
496.734	8.9
497.086	8.75
497.437	8.75
497.788	8.93
498.139	8.73
498.49	8.75
498.842	8.72
499.193	8.85
499.544	8.8
499.894	8.86
500.245	8.88
500.596	8.89
500.947	8.95
501.298	8.99
501.648	9.08
501.999	9.05
502.35	9.03
502.7	9.12
503.051	8.99
503.401	9.11
503.752	9.26
504.102	9.15
504.452	9.06
504.803	9.25
505.153	9.15
505.503	9.27
505.853	9.29
506.203	9.21
506.553	9.17
506.903	9.33
507.253	9.28
507.603	9.26
507.953	9.41
508.303	9.29
508.652	9.36
509.002	9.44
509.352	9.29
509.701	9.47
510.051	9.37
510.4	9.38
510.75	9.48
511.099	9.36
511.449	9.5
511.798	9.4
512.147	9.46
512.496	9.6
512.846	9.46
513.195	9.38
513.544	9.56
513.893	9.53
514.242	9.54
514.591	9.38
514.939	9.48
515.288	9.4
515.637	9.54
515.986	9.56
516.334	9.66
516.683	9.55
517.032	9.62
517.38	9.64
517.729	9.53
518.077	9.56
518.426	9.76
518.774	9.64
519.122	9.71
519.47	9.63
519.819	9.63
520.167	9.6
520.515	9.6
520.863	9.76
521.211	9.72
521.559	9.91
521.907	9.83
522.255	9.96
522.602	10.05
522.95	9.98
523.298	9.98
523.645	9.83
523.993	9.97
524.341	10.04
524.688	10.08
525.036	10.07
525.383	10.07
525.73	10
526.078	10.02
526.425	9.96
526.772	9.98
527.119	10.01
527.466	9.91
527.814	9.79
528.161	10.02
528.508	9.98
528.854	9.95
529.201	9.93
529.548	9.87
529.895	9.78
530.242	9.65
530.588	9.66
530.935	9.86
531.282	9.96
531.628	10.05
531.975	10.02
532.321	10.1
532.667	10.12
533.014	10.15
533.36	10.18
533.706	10.13
534.052	10.25
534.399	10.23
534.745	10.16
535.091	10.1
535.437	10.25
535.783	10.27
536.129	10.42
536.474	10.34
536.82	10.35
537.166	10.56
537.512	10.46
537.857	10.5
538.203	10.46
538.549	10.52
538.894	10.52
539.239	10.59
539.585	10.62
539.93	10.72
540.276	10.77
540.621	10.77
540.966	10.77
541.311	10.82
541.656	10.84
542.001	10.77
542.346	10.58
542.691	10.47
543.036	10.41
543.381	10.48
543.726	10.63
544.071	10.68
544.415	10.71
544.76	10.8
545.105	10.77
545.449	10.89
545.794	11
546.138	10.86
546.483	10.99
546.827	11.15
547.171	11.11
547.516	11.12
547.86	11.22
548.204	11.11
548.548	11.15
548.892	11.17
549.236	11.36
549.58	11.38
549.924	11.36
550.268	11.55
550.612	11.32
550.956	11.68
551.3	11.6
551.643	11.57
551.987	11.86
552.33	11.67
552.674	11.73
553.017	11.68
553.361	11.83
553.704	11.87
554.048	11.7
554.391	11.78
554.734	11.77
555.077	11.63
555.42	11.74
555.764	11.94
556.107	11.91
556.45	11.73
556.793	11.85
557.135	11.72
557.478	12.1
557.821	11.99
558.164	11.92
558.507	12.19
558.849	11.99
559.192	12.17
559.534	12.23
559.877	12.18
560.219	12.24
560.562	12.27
560.904	12.26
561.246	12.37
561.589	12.08
561.931	12.24
562.273	12.18
562.615	12.35
562.957	12.56
563.299	12.36
563.641	12.56
563.983	12.49
564.325	12.55
564.667	12.53
565.008	12.16
565.35	12.37
565.692	12.39
566.033	12.78
566.375	12.45
566.716	12.43
567.058	12.67
567.399	12.64
567.741	12.55
568.082	12.6
568.423	12.56
568.764	12.6
569.105	12.73
569.447	12.8
569.788	12.75
570.129	12.79
570.47	12.96
570.811	12.87
571.151	12.98
571.492	13.06
571.833	12.93
572.174	12.86
572.514	13.04
572.855	12.95
573.195	12.86
573.536	12.9
573.876	13.02
574.217	13.08
574.557	13.06
574.898	12.95
575.238	13.14
575.578	13.06
575.918	13.17
576.258	13.22
576.598	13.07
576.938	13.13
577.278	13.39
577.618	13.47
577.958	13.34
578.298	13.46
578.638	13.31
578.977	13.47
579.317	13.45
579.657	13.34
579.996	13.67
580.336	13.69
580.675	13.64
581.014	13.67
581.354	13.74
581.693	13.71
582.032	13.46
582.372	13.98
582.711	13.74
583.05	13.81
583.389	13.87
583.728	14
584.067	14.02
584.406	14.04
584.745	14.25
585.083	13.91
585.422	14.17
585.761	14.27
586.1	14.13
586.438	14.14
586.777	14.26
587.115	14.36
587.454	14.14
587.792	13.99
588.13	14.36
588.469	14.36
588.807	14.05
589.145	14.51
589.483	14.15
589.821	14.4
590.159	14.41
590.497	14.55
590.835	14.19
591.173	14.41
591.511	14.6
591.849	14.41
592.187	14.55
592.524	14.1
592.862	14.59
593.2	14.19
593.537	14.46
593.875	14.58
594.212	14.7
594.55	14.86
594.887	14.82
595.224	14.86
595.561	14.96
595.899	14.67
596.236	14.87
596.573	14.74
596.91	14.82
597.247	14.91
597.584	14.91
597.921	14.9
598.258	14.75
598.594	14.88
598.931	14.75
599.268	14.58
599.604	14.89
599.941	15.02
600.277	15.07
600.614	15.1
600.95	14.96
601.287	15.17
601.623	15.03
601.959	15.23
602.296	15.35
602.632	15.11
602.968	15.14
603.304	15.28
603.64	15.5
603.976	15.35
604.312	15.14
604.648	15.38
604.984	15.16
605.319	15.34
605.655	15.33
605.991	15.36
606.326	15.14
606.662	15.54
606.998	15.39
607.333	15.61
607.668	15.58
608.004	15.79
608.339	15.7
608.674	15.79
609.01	15.58
609.345	15.98
609.68	15.95
610.015	15.94
610.35	15.81
610.685	15.56
611.02	15.66
611.355	15.75
611.689	15.94
612.024	15.78
612.359	16.1
612.694	15.98
613.028	16.07
613.363	16.09
613.697	16.2
614.032	16.34
614.366	16.35
614.7	16.18
615.035	16.39
615.369	16.23
615.703	16.53
616.037	16.47
616.371	16.41
616.705	16.47
617.039	16.45
617.373	16.36
617.707	16.43
618.041	16.48
618.375	16.45
618.709	16.84
619.042	16.5
619.376	16.81
619.71	16.62
620.043	16.53
620.377	16.57
620.71	16.62
621.043	16.52
621.377	16.23
621.71	16.97
622.043	16.98
622.376	16.97
622.709	17.03
623.043	16.92
623.376	16.88
623.709	16.93
624.041	17.03
624.374	16.97
624.707	17.04
625.04	17.21
625.373	17.08
625.705	17.3
626.038	17.21
626.37	17.47
626.703	17.25
627.035	16.94
627.368	17.48
627.7	17.58
628.032	17.02
628.365	17.3
628.697	17.18
629.029	17.46
629.361	17.24
629.693	17.43
630.025	17.28
630.357	17.73
630.689	17.32
631.021	17.44
631.353	17.67
631.684	17.64
632.016	17.51
632.348	17.82
632.679	17.12
633.011	18.4
633.342	17.84
633.674	17.75
634.005	18.06
634.336	17.77
634.668	17.77
634.999	17.9
635.33	18.15
635.661	17.92
635.992	18.01
636.323	17.88
636.654	18.15
636.985	18.12
637.316	18.3
637.647	17.99
637.977	18.22
638.308	18.06
638.639	18.18
638.969	18.44
639.3	17.96
639.63	19.03
639.961	18.11
640.291	18.21
640.622	18.28
640.952	18.59
641.282	18.47
641.612	18.38
641.943	18.79
642.273	18.79
642.603	18.69
642.933	18.57
643.263	18.72
643.592	19.11
643.922	19.27
644.252	19.02
644.582	18.12
644.911	18.69
645.241	18.74
645.571	19.09
645.9	18.57
646.23	18.77
646.559	19.48
646.888	19.28
647.218	18.71
647.547	19.15
647.876	19.33
648.205	18.96
648.534	19.37
648.863	18.93
649.192	19.54
649.521	19.17
649.85	19.28
650.179	19.65
650.508	19.84
650.837	19.23
651.165	19.32
651.494	19.36
651.822	19.39
652.151	19.96
652.479	19.24
652.808	19.4
653.136	19.42
653.465	19.69
653.793	19.61
654.121	19.63
654.449	19.73
654.777	19.69
655.105	19.33
655.433	19.76
655.761	19.89
656.089	19.64
656.417	19.97
656.745	19.63
657.073	20.06
657.4	20.06
657.728	19.27
658.056	20.15
658.383	19.52
658.711	19.82
659.038	19.85
659.365	19.95
659.693	19.93
660.02	19.83
660.347	20.98
660.674	19.98
661.001	19.93
661.329	20.14
661.656	19.96
661.982	20.22
662.309	20.32
662.636	20.11
662.963	20.41
663.29	20.96
663.616	20.3
663.943	20.96
664.27	20.58
664.596	20.63
664.923	20.88
665.249	20.22
665.576	20.56
665.902	20.21
666.228	20.35
666.554	20.47
666.881	19.9
667.207	20.61
667.533	21.15
667.859	20.39
668.185	21.07
668.511	20.76
668.837	21.08
669.162	21.29
669.488	20.66
669.814	20.94
670.139	21.13
670.465	20.57
670.791	20.91
671.116	21.06
671.442	20.9
671.767	21.11
672.092	21.26
672.418	21.07
672.743	21.37
673.068	21.06
673.393	21.83
673.718	20.8
674.043	21.15
674.368	21.43
674.693	21.35
675.018	21.19
675.343	21.24
675.667	21.82
675.992	21.41
676.317	21.41
676.641	21.54
676.966	21.76
677.29	21.04
677.615	21.63
677.939	21.6
678.264	22.12
678.588	21.2
678.912	21.65
679.236	21.28
679.56	21.8
679.885	21.8
680.209	21.83
680.532	21.69
680.856	21.9
681.18	21.71
681.504	22.31
681.828	22.16
682.152	21.55
682.475	21.84
