Data from 447_forehead_Reflection__4__14.txt Node

Date: Tue Dec 12 18:15:34 CST 2023
User: ToomeyLab
Spectrometer: FLMS14357
Trigger mode: 0
Integration Time (sec): 1.000000E-2
Scans to average: 100
Electric dark correction enabled: true
Nonlinearity correction enabled: false
Boxcar width: 0
XAxis mode: Wavelengths
Number of Pixels in Spectrum: 2048
>>>>>Begin Spectral Data<<<<<
189.047	-40.49
189.435	-40.49
189.823	-40.49
190.211	-87.08
190.599	228.64
190.987	112.44
191.375	-472.52
191.763	186.84
192.151	158.45
192.538	211.86
192.926	565.56
193.314	-52.45
193.702	119.34
194.089	43.42
194.477	-183.94
194.864	42.32
195.252	-12.24
195.639	114.6
196.027	65.58
196.414	116.67
196.801	-214.42
197.189	-1364.81
197.576	357.45
197.963	74.59
198.351	35.79
198.738	46.31
199.125	10.35
199.512	6.29
199.899	1.39
200.286	12.15
200.673	18.36
201.06	65.59
201.447	2.01
201.833	-7.53
202.22	33.94
202.607	-75.97
202.994	31.47
203.38	60.38
203.767	19.32
204.154	50.37
204.54	68.31
204.927	22.02
205.313	17.2
205.699	34.87
206.086	5.36
206.472	38.09
206.858	41.51
207.245	61.75
207.631	33.09
208.017	8.92
208.403	-4.25
208.789	55.3
209.175	-5.21
209.561	50.44
209.947	52.66
210.333	41.57
210.719	31.14
211.105	32.11
211.491	34.49
211.876	51.57
212.262	54.89
212.648	15.18
213.034	-3.41
213.419	17.44
213.805	60.51
214.19	43.79
214.576	31.91
214.961	19.26
215.346	30.3
215.732	40.68
216.117	9.49
216.502	-7.78
216.888	5.47
217.273	16.56
217.658	3.66
218.043	7.04
218.428	39.04
218.813	26.18
219.198	-3.13
219.583	50.69
219.968	26.07
220.353	13.01
220.738	30.58
221.122	-4.24
221.507	2.68
221.892	11.01
222.276	20.73
222.661	18.69
223.046	10.18
223.43	26.06
223.815	12.9
224.199	19.04
224.583	9.09
224.968	14.65
225.352	14.9
225.736	11.13
226.121	-1.63
226.505	8.83
226.889	6.24
227.273	7.11
227.657	11.82
228.041	8.64
228.425	8.62
228.809	5
229.193	5.17
229.577	5.68
229.961	4.83
230.344	4.65
230.728	5.33
231.112	4.53
231.495	4.34
231.879	4.48
232.263	3.65
232.646	4.29
233.03	5.55
233.413	3.53
233.797	5.61
234.18	4.2
234.563	6.57
234.946	7.21
235.33	4.16
235.713	6.12
236.096	4.26
236.479	5.11
236.862	5.56
237.245	4.93
237.628	4.63
238.011	4.4
238.394	3.46
238.777	4.76
239.16	3.61
239.543	5.22
239.925	5.98
240.308	3.8
240.691	3.51
241.073	5.95
241.456	5.33
241.838	3.42
242.221	5.57
242.603	5.22
242.986	4.63
243.368	4.52
243.75	4.09
244.133	4.28
244.515	4.25
244.897	4.2
245.279	4.82
245.661	4.83
246.043	4.12
246.425	4.71
246.807	3.49
247.189	4.41
247.571	4.11
247.953	4.58
248.335	4.09
248.717	3.93
249.098	4.13
249.48	3.94
249.862	4.14
250.243	4.13
250.625	4.53
251.006	4.25
251.388	4.74
251.769	4.9
252.151	3.64
252.532	4.82
252.913	4.64
253.295	5.24
253.676	3.66
254.057	3.66
254.438	4.58
254.819	4.08
255.2	4.28
255.581	5.15
255.962	4.09
256.343	4.51
256.724	4.14
257.105	5.27
257.486	4.01
257.867	4.27
258.247	4.58
258.628	4.04
259.009	4.01
259.389	4.09
259.77	3.58
260.15	4.1
260.531	4.51
260.911	4.18
261.292	3.68
261.672	3.61
262.052	4
262.432	3.91
262.813	4.11
263.193	3.99
263.573	4.41
263.953	4.6
264.333	5.45
264.713	4.55
265.093	4.45
265.473	5.01
265.853	4.35
266.233	3.54
266.612	3.65
266.992	4.33
267.372	4.99
267.752	5.1
268.131	3.6
268.511	3.26
268.89	3.95
269.27	3.76
269.649	4.19
270.029	3.9
270.408	4.43
270.787	3.93
271.167	4.18
271.546	4.4
271.925	4.66
272.304	4.86
272.683	3.67
273.062	4.12
273.441	4.13
273.82	3.6
274.199	3.69
274.578	4.21
274.957	3.75
275.336	3.95
275.715	4.63
276.093	3.52
276.472	4.63
276.851	4.6
277.229	4.15
277.608	3.87
277.986	4.01
278.365	4.68
278.743	3.96
279.122	4.43
279.5	3.67
279.878	3.7
280.257	3.59
280.635	4.47
281.013	3.83
281.391	4.35
281.769	4.3
282.147	4.41
282.525	3.38
282.903	3.94
283.281	3.97
283.659	4.27
284.037	4.48
284.415	4.31
284.792	4.01
285.17	4.11
285.548	4.09
285.925	4.12
286.303	4.08
286.68	4.11
287.058	4.2
287.435	3.97
287.813	3.5
288.19	3.95
288.567	4.06
288.945	4
289.322	3.36
289.699	4.27
290.076	4.16
290.453	4.38
290.83	4.58
291.207	4.18
291.584	4.15
291.961	4.23
292.338	3.86
292.715	4.39
293.092	4.31
293.469	4.44
293.845	4.35
294.222	4.18
294.599	4.3
294.975	4.73
295.352	4.53
295.728	4.61
296.105	4.43
296.481	5.09
296.858	4.6
297.234	4.91
297.61	4.74
297.986	4.64
298.363	4.29
298.739	4.54
299.115	4.1
299.491	4.26
299.867	4.5
300.243	4.65
300.619	5.18
300.995	5.02
301.371	5.29
301.746	5.24
302.122	4.68
302.498	5.05
302.874	5.02
303.249	5.5
303.625	4.77
304	5.09
304.376	4.93
304.751	5.64
305.127	5.46
305.502	5.16
305.878	5.17
306.253	5.4
306.628	5.56
307.003	5.35
307.378	5.78
307.754	5.44
308.129	5.76
308.504	6.37
308.879	4.91
309.254	6.03
309.629	5.88
310.003	5.92
310.378	6.33
310.753	5.79
311.128	6.08
311.502	5.78
311.877	5.46
312.252	5.32
312.626	5.63
313.001	6.05
313.375	5.83
313.75	6.36
314.124	6.2
314.498	6.26
314.873	6.35
315.247	6.66
315.621	6.19
315.995	6.52
316.369	6.19
316.743	5.83
317.117	6.45
317.491	6.64
317.865	6.93
318.239	6.87
318.613	7.27
318.987	7.06
319.361	6.56
319.734	6.63
320.108	7.61
320.482	6.74
320.855	6.97
321.229	6.95
321.602	7.04
321.976	7.07
322.349	7.86
322.723	7.66
323.096	8.01
323.469	7.1
323.843	8.19
324.216	7.86
324.589	7.65
324.962	8.03
325.335	7.75
325.708	7.81
326.081	7.9
326.454	7.65
326.827	8.3
327.2	8.05
327.573	7.57
327.945	8.04
328.318	8.22
328.691	7.39
329.063	8.51
329.436	8.41
329.809	8.44
330.181	7.79
330.553	8.56
330.926	8.25
331.298	8.38
331.671	8.21
332.043	8.18
332.415	8.92
332.787	8.16
333.159	9.06
333.532	8.52
333.904	8.39
334.276	8.96
334.648	8.89
335.02	8.67
335.391	8.6
335.763	9.15
336.135	8.97
336.507	9.17
336.879	8.98
337.25	9.08
337.622	9.19
337.993	8.83
338.365	8.72
338.736	9.36
339.108	9.3
339.479	9.31
339.851	8.9
340.222	9
340.593	9.4
340.964	9.27
341.336	9.7
341.707	9.13
342.078	9.43
342.449	9.42
342.82	10.03
343.191	9.61
343.562	9.7
343.933	9.97
344.303	9.51
344.674	9.77
345.045	10.06
345.416	10.32
345.786	10.01
346.157	10.12
346.527	10.52
346.898	9.68
347.268	9.98
347.639	10.49
348.009	10.17
348.38	10.17
348.75	10.81
349.12	10.11
349.49	10.35
349.861	10.77
350.231	10.72
350.601	10.96
350.971	10.76
351.341	10.53
351.711	11.17
352.081	10.75
352.45	10.76
352.82	11.18
353.19	10.83
353.56	11.11
353.929	11.04
354.299	10.94
354.669	11.05
355.038	10.93
355.408	10.88
355.777	11.7
356.147	11.3
356.516	11.58
356.885	11.16
357.254	11.68
357.624	11.23
357.993	11.5
358.362	11.38
358.731	11.69
359.1	11.2
359.469	11.68
359.838	11.45
360.207	11.35
360.576	11.92
360.945	11.95
361.314	12.32
361.682	12.08
362.051	12
362.42	12.2
362.788	11.81
363.157	12.31
363.525	11.91
363.894	11.86
364.262	11.92
364.631	12.02
364.999	12.44
365.367	12.46
365.735	12.27
366.104	12.31
366.472	12.55
366.84	12.35
367.208	12.76
367.576	12.72
367.944	12.97
368.312	12.52
368.68	12.83
369.048	12.96
369.416	12.89
369.783	12.72
370.151	13.06
370.519	12.99
370.886	13.04
371.254	12.86
371.621	13.49
371.989	13.28
372.356	13.33
372.724	13.17
373.091	13.04
373.458	13.3
373.826	13.22
374.193	13.26
374.56	13.8
374.927	13.83
375.294	13.86
375.661	14.1
376.028	14.09
376.395	14.15
376.762	14.13
377.129	13.82
377.496	14.29
377.863	13.91
378.229	14.31
378.596	14.16
378.963	14.19
379.329	14.29
379.696	14.16
380.062	14.62
380.429	14.42
380.795	14.7
381.161	14.61
381.528	14.83
381.894	14.96
382.26	14.51
382.626	14.63
382.993	15.15
383.359	14.7
383.725	14.86
384.091	14.63
384.457	14.58
384.823	15.29
385.188	15.18
385.554	15.22
385.92	15.4
386.286	15.69
386.651	15.38
387.017	15.61
387.383	15.55
387.748	15.77
388.114	15.53
388.479	15.55
388.845	15.71
389.21	15.59
389.575	15.76
389.94	15.75
390.306	15.72
390.671	15.96
391.036	15.83
391.401	15.92
391.766	16.15
392.131	16.05
392.496	16.15
392.861	15.94
393.226	16.21
393.591	16.19
393.956	16.17
394.32	16.14
394.685	16.41
395.05	16.24
395.414	16.56
395.779	16.37
396.143	16.88
396.508	16.58
396.872	16.55
397.236	16.69
397.601	16.93
397.965	16.94
398.329	17.03
398.694	16.95
399.058	17.32
399.422	16.91
399.786	17.03
400.15	17.25
400.514	17.2
400.878	17.3
401.242	17.13
401.605	17.58
401.969	17.62
402.333	17.61
402.697	17.46
403.06	17.27
403.424	17.95
403.787	17.82
404.151	17.91
404.514	17.69
404.878	17.48
405.241	17.75
405.604	17.71
405.968	17.85
406.331	18.07
406.694	18.05
407.057	18.13
407.42	18.33
407.783	18.09
408.146	18.31
408.509	18.4
408.872	18.25
409.235	18.25
409.598	18.47
409.961	18.55
410.323	18.57
410.686	18.3
411.049	18.9
411.411	18.62
411.774	18.71
412.136	18.78
412.499	18.84
412.861	18.87
413.223	19.08
413.586	19.07
413.948	18.8
414.31	19.06
414.672	19.3
415.035	19.07
415.397	19.15
415.759	19.32
416.121	19.19
416.483	19.43
416.845	19.21
417.206	19.42
417.568	19.27
417.93	19.42
418.292	19.48
418.653	19.57
419.015	19.39
419.377	19.49
419.738	19.56
420.1	19.58
420.461	19.47
420.822	19.72
421.184	19.62
421.545	19.84
421.906	19.85
422.267	19.63
422.629	19.58
422.99	19.62
423.351	19.67
423.712	19.81
424.073	19.93
424.434	20.07
424.795	20.18
425.155	19.97
425.516	19.91
425.877	20.06
426.238	20.03
426.598	20.24
426.959	20.25
427.32	20.34
427.68	20.51
428.041	20.75
428.401	20.71
428.761	20.98
429.122	21.08
429.482	21.24
429.842	21.16
430.202	21.29
430.563	21.22
430.923	21.46
431.283	21.18
431.643	21.46
432.003	21.29
432.363	21.5
432.722	21.46
433.082	21.49
433.442	21.58
433.802	21.57
434.161	21.46
434.521	21.72
434.881	21.49
435.24	21.58
435.6	21.75
435.959	21.75
436.319	21.93
436.678	22.1
437.037	22.11
437.396	22.1
437.756	22.09
438.115	22.3
438.474	21.95
438.833	22.18
439.192	22.29
439.551	22.47
439.91	22.3
440.269	22.4
440.628	22.32
440.987	22.29
441.345	22.41
441.704	22.36
442.063	22.44
442.421	22.36
442.78	22.52
443.138	22.58
443.497	22.71
443.855	22.72
444.214	22.91
444.572	23.03
444.93	23.01
445.288	22.82
445.647	23.38
446.005	23.01
446.363	22.84
446.721	23.03
447.079	22.95
447.437	22.89
447.795	22.83
448.153	22.75
448.51	22.91
448.868	23.06
449.226	23.33
449.584	23.23
449.941	23.48
450.299	23.61
450.656	23.64
451.014	23.76
451.371	24.03
451.729	23.93
452.086	23.92
452.443	23.99
452.801	24.14
453.158	24.1
453.515	24.13
453.872	24.11
454.229	24.33
454.586	24.27
454.943	24.34
455.3	24.49
455.657	24.41
456.014	24.81
456.371	24.43
456.727	24.55
457.084	24.71
457.441	24.83
457.797	24.75
458.154	24.67
458.51	24.75
458.867	25.07
459.223	24.92
459.58	24.93
459.936	24.89
460.292	25.03
460.648	24.88
461.005	24.75
461.361	24.64
461.717	24.82
462.073	24.7
462.429	24.96
462.785	25.11
463.141	25.2
463.496	25.39
463.852	25.65
464.208	25.68
464.564	25.66
464.919	25.87
465.275	26.01
465.631	25.91
465.986	26.01
466.342	25.88
466.697	26.14
467.052	26.14
467.408	26.21
467.763	26.09
468.118	26.41
468.473	26.3
468.829	26.21
469.184	26.06
469.539	26.39
469.894	26.31
470.249	26.35
470.603	26.51
470.958	26.46
471.313	26.78
471.668	26.57
472.023	26.73
472.377	26.66
472.732	26.81
473.086	26.85
473.441	26.93
473.795	27.08
474.15	27.07
474.504	26.86
474.859	27.06
475.213	27.16
475.567	27.06
475.921	27.26
476.275	27.27
476.63	27.5
476.984	27.43
477.338	27.62
477.692	27.5
478.045	27.41
478.399	27.36
478.753	27.41
479.107	27.77
479.461	27.51
479.814	27.61
480.168	27.52
480.521	27.58
480.875	27.79
481.228	27.87
481.582	27.88
481.935	27.9
482.289	27.84
482.642	27.78
482.995	27.69
483.348	27.8
483.701	27.79
484.055	27.67
484.408	27.67
484.761	27.39
485.114	27.06
485.466	26.84
485.819	26.98
486.172	27.08
486.525	27.32
486.878	27.58
487.23	27.68
487.583	28
487.936	28
488.288	27.91
488.641	27.72
488.993	27.72
489.345	27.65
489.698	27.64
490.05	27.79
490.402	27.9
490.754	28.24
491.107	28.4
491.459	28.63
491.811	28.81
492.163	28.77
492.515	28.73
492.866	28.6
493.218	28.21
493.57	28.3
493.922	28.34
494.274	28.74
494.625	28.94
494.977	29.21
495.328	29.26
495.68	29.51
496.031	29.72
496.383	29.76
496.734	29.95
497.086	29.82
497.437	30.06
497.788	30.15
498.139	29.84
498.49	29.82
498.842	29.78
499.193	29.89
499.544	29.87
499.894	30.08
500.245	30.14
500.596	30.24
500.947	30.25
501.298	30.38
501.648	30.65
501.999	30.63
502.35	30.62
502.7	30.73
503.051	30.81
503.401	31.05
503.752	30.87
504.102	30.93
504.452	30.87
504.803	30.9
505.153	31.11
505.503	31.2
505.853	31.1
506.203	31.17
506.553	31.18
506.903	31.11
507.253	31.32
507.603	31.31
507.953	31.23
508.303	31.43
508.652	31.6
509.002	31.65
509.352	31.49
509.701	31.47
510.051	31.58
510.4	31.47
510.75	31.36
511.099	31.49
511.449	31.59
511.798	31.68
512.147	31.68
512.496	31.97
512.846	31.91
513.195	31.84
513.544	31.99
513.893	31.94
514.242	31.96
514.591	32.02
514.939	32.16
515.288	31.98
515.637	32.24
515.986	32.12
516.334	32.39
516.683	32.58
517.032	32.54
517.38	32.7
517.729	32.79
518.077	32.67
518.426	32.74
518.774	32.67
519.122	32.65
519.47	32.57
519.819	32.41
520.167	32.11
520.515	32.17
520.863	32.55
521.211	32.41
521.559	32.58
521.907	32.71
522.255	32.85
522.602	33.02
522.95	33.21
523.298	33.37
523.645	33.45
523.993	33.4
524.341	33.67
524.688	33.7
525.036	33.64
525.383	33.7
525.73	33.53
526.078	33.75
526.425	33.64
526.772	33.32
527.119	33.34
527.466	33.19
527.814	33.09
528.161	33.28
528.508	33.38
528.854	33.54
529.201	33.41
529.548	33.47
529.895	33.07
530.242	32.64
530.588	32.73
530.935	33.17
531.282	33.24
531.628	33.43
531.975	33.52
532.321	33.65
532.667	34.04
533.014	34.08
533.36	34.13
533.706	34.12
534.052	34.18
534.399	34.02
534.745	34.01
535.091	33.67
535.437	33.84
535.783	34.02
536.129	34.09
536.474	34.45
536.82	34.83
537.166	34.87
537.512	34.84
537.857	34.75
538.203	34.58
538.549	34.57
538.894	34.71
539.239	34.84
539.585	35.07
539.93	35
540.276	35.32
540.621	35.29
540.966	35.54
541.311	35.39
541.656	35.6
542.001	35.33
542.346	35.05
542.691	34.93
543.036	34.47
543.381	34.57
543.726	34.87
544.071	35.07
544.415	35.23
544.76	35.39
545.105	35.27
545.449	35.49
545.794	35.9
546.138	35.84
546.483	35.87
546.827	36.22
547.171	35.98
547.516	36.06
547.86	36.07
548.204	36.28
548.548	36.01
548.892	36.2
549.236	36.29
549.58	36.66
549.924	36.55
550.268	36.85
550.612	36.77
550.956	37.07
551.3	36.96
551.643	37.02
551.987	37.31
552.33	37
552.674	37.59
553.017	37.46
553.361	37.49
553.704	37.41
554.048	37.17
554.391	37.29
554.734	37.33
555.077	37.47
555.42	37.34
555.764	37.37
556.107	37.71
556.45	37.72
556.793	37.47
557.135	37.79
557.478	37.94
557.821	37.81
558.164	37.98
558.507	37.91
558.849	38.14
559.192	38.25
559.534	38.25
559.877	38.33
560.219	38.38
560.562	38.41
560.904	38.37
561.246	38.57
561.589	38.19
561.931	38.48
562.273	38.2
562.615	38.49
562.957	38.5
563.299	38.39
563.641	38.67
563.983	38.71
564.325	38.73
564.667	38.9
565.008	38.61
565.35	38.8
565.692	38.55
566.033	38.91
566.375	38.71
566.716	39.01
567.058	38.89
567.399	38.98
567.741	38.92
568.082	38.8
568.423	38.88
568.764	39.04
569.105	39.28
569.447	39.36
569.788	39.23
570.129	39.24
570.47	39.41
570.811	39.4
571.151	39.36
571.492	39.57
571.833	39.44
572.174	39.41
572.514	39.59
572.855	39.88
573.195	39.65
573.536	39.32
573.876	39.42
574.217	39.54
574.557	39.53
574.898	39.94
575.238	39.77
575.578	39.67
575.918	39.97
576.258	40.13
576.598	40.02
576.938	40.1
577.278	39.95
577.618	40.06
577.958	40.07
578.298	40.19
578.638	40.15
578.977	40.23
579.317	40.39
579.657	40.48
579.996	40.64
580.336	40.82
580.675	40.85
581.014	40.67
581.354	40.61
581.693	41.1
582.032	40.88
582.372	40.89
582.711	40.86
583.05	41.08
583.389	41.06
583.728	41.2
584.067	41.13
584.406	41.77
584.745	41.19
585.083	41.44
585.422	41.51
585.761	41.56
586.1	41.11
586.438	41.64
586.777	41.35
587.115	41.78
587.454	41.71
587.792	41.72
588.13	42.05
588.469	41.76
588.807	41.62
589.145	41.81
589.483	41.91
589.821	41.93
590.159	42.03
590.497	41.79
590.835	41.81
591.173	41.82
591.511	41.89
591.849	41.97
592.187	41.95
592.524	42.06
592.862	42.25
593.2	42.06
593.537	42.26
593.875	42.3
594.212	42.34
594.55	42.3
594.887	42.39
595.224	42.57
595.561	42.34
595.899	42.14
596.236	42.68
596.573	42.52
596.91	42.32
597.247	42.65
597.584	42.28
597.921	42.73
598.258	42.46
598.594	42.44
598.931	42.49
599.268	42.39
599.604	42.92
599.941	42.93
600.277	42.83
600.614	42.95
600.95	43.14
601.287	43.08
601.623	43.59
601.959	43.27
602.296	43.2
602.632	43.39
602.968	43.4
603.304	43.73
603.64	43.46
603.976	43.35
604.312	43.52
604.648	43.46
604.984	43.35
605.319	43.38
605.655	43.14
605.991	43.24
606.326	43.15
606.662	43.3
606.998	43.29
607.333	43.7
607.668	43.6
608.004	43.87
608.339	43.67
608.674	43.9
609.01	43.87
609.345	44.32
609.68	44.01
610.015	43.84
610.35	44.2
610.685	43.98
611.02	44.02
611.355	43.97
611.689	43.93
612.024	43.97
612.359	44.08
612.694	44.34
613.028	44.33
613.363	44.1
613.697	44.6
614.032	44.86
614.366	45.05
614.7	44.61
615.035	45.06
615.369	44.96
615.703	44.83
616.037	44.68
616.371	44.35
616.705	44.99
617.039	45.08
617.373	45.3
617.707	45.12
618.041	45.31
618.375	44.95
618.709	45.5
619.042	45.04
619.376	44.6
619.71	45.23
620.043	45.11
620.377	44.98
620.71	45.26
621.043	45.13
621.377	45.1
621.71	45.4
622.043	45.41
622.376	45.7
622.709	45.39
623.043	45.35
623.376	45.17
623.709	45.51
624.041	45.96
624.374	45.63
624.707	45.56
625.04	45.21
625.373	45.81
625.705	46.17
626.038	45.83
626.37	46.01
626.703	46.08
627.035	46.14
627.368	46.22
627.7	45.46
628.032	45.71
628.365	46.09
628.697	45.91
629.029	45.96
629.361	45.93
629.693	45.96
630.025	46.05
630.357	46.45
630.689	46.28
631.021	46.19
631.353	46.4
631.684	46.43
632.016	46.73
632.348	46.42
632.679	46.31
633.011	46.79
633.342	46.68
633.674	46.65
634.005	46.23
634.336	46.57
634.668	46.1
634.999	46.67
635.33	46.74
635.661	46.46
635.992	46.75
636.323	46.63
636.654	47.02
636.985	47.06
637.316	46.48
637.647	46.57
637.977	47.24
638.308	47.11
638.639	47.01
638.969	47.38
639.3	47.33
639.63	47.83
639.961	47.35
640.291	47.46
640.622	47.12
640.952	47.19
641.282	47.07
641.612	47.17
641.943	47.52
642.273	47.7
642.603	48.04
642.933	47.43
643.263	47.74
643.592	47.68
643.922	47.7
644.252	48.23
644.582	47.63
644.911	48.06
645.241	47.53
645.571	48.27
645.9	47.71
646.23	47.95
646.559	48.33
646.888	48.23
647.218	48.01
647.547	48.21
647.876	48.27
648.205	48.01
648.534	48.72
648.863	47.92
649.192	48.13
649.521	48.49
649.85	48.16
650.179	47.86
650.508	48.59
650.837	48.07
651.165	48.47
651.494	48.04
651.822	48.54
652.151	49.02
652.479	48.67
652.808	48.64
653.136	48.57
653.465	48.09
653.793	48.56
654.121	48.89
654.449	48.9
654.777	49.2
655.105	49.13
655.433	49.35
655.761	48.63
656.089	48.88
656.417	49.33
656.745	49
657.073	48.66
657.4	49.21
657.728	49.42
658.056	48.96
658.383	48.81
658.711	48.31
659.038	49.02
659.365	49.01
659.693	48.79
660.02	48.76
660.347	50.01
660.674	49.47
661.001	48.89
661.329	49.05
661.656	49.29
661.982	49.5
662.309	50.17
662.636	49.7
662.963	49.84
663.29	49.86
663.616	49.32
663.943	49.8
664.27	49.86
664.596	50.14
664.923	50.45
665.249	49.83
665.576	49.8
665.902	50.17
666.228	50.29
666.554	49.98
666.881	49.72
667.207	50.18
667.533	50.09
667.859	49.98
668.185	49.85
668.511	50.21
668.837	49.63
669.162	50.24
669.488	50.08
669.814	50.6
670.139	50.07
670.465	50.2
670.791	50.02
