Data from 447_forehead_Reflection__1__11.txt Node

Date: Tue Dec 12 18:15:01 CST 2023
User: ToomeyLab
Spectrometer: FLMS14357
Trigger mode: 0
Integration Time (sec): 1.000000E-2
Scans to average: 100
Electric dark correction enabled: true
Nonlinearity correction enabled: false
Boxcar width: 0
XAxis mode: Wavelengths
Number of Pixels in Spectrum: 2048
>>>>>Begin Spectral Data<<<<<
189.047	21.66
189.435	21.66
189.823	21.66
190.211	-18.22
190.599	416.26
190.987	106.76
191.375	-17.34
191.763	98.68
192.151	78.67
192.538	370.58
192.926	424.56
193.314	129.27
193.702	61.14
194.089	154.11
194.477	-132.99
194.864	227.11
195.252	-43.68
195.639	-7.92
196.027	77.64
196.414	-25.13
196.801	-82.12
197.189	-634.26
197.576	-2.84
197.963	106.93
198.351	33.88
198.738	39.09
199.125	36.66
199.512	39.02
199.899	22.19
200.286	63.02
200.673	44.43
201.06	90.66
201.447	-40.7
201.833	2
202.22	31.64
202.607	71.61
202.994	42.74
203.38	63.93
203.767	20.71
204.154	40.47
204.54	51.71
204.927	29.07
205.313	67.93
205.699	34.41
206.086	14.23
206.472	64.19
206.858	88.01
207.245	48.19
207.631	46.95
208.017	45.76
208.403	19.58
208.789	73.8
209.175	39.58
209.561	76.36
209.947	40.04
210.333	42.31
210.719	33.01
211.105	51.06
211.491	46.77
211.876	63.32
212.262	44.05
212.648	42.03
213.034	8.39
213.419	33.39
213.805	35.54
214.19	50.81
214.576	30.24
214.961	34.24
215.346	44.63
215.732	55.12
216.117	38.41
216.502	23.6
216.888	17.02
217.273	49.35
217.658	3.87
218.043	13.85
218.428	45.25
218.813	29.85
219.198	4.85
219.583	27.67
219.968	33.36
220.353	31.24
220.738	28.05
221.122	31.11
221.507	13.79
221.892	18.31
222.276	26.86
222.661	26.03
223.046	17.04
223.43	12.05
223.815	7.25
224.199	21.85
224.583	11.88
224.968	9.04
225.352	1.43
225.736	24.27
226.121	6.16
226.505	13.71
226.889	3.01
227.273	11.76
227.657	13.1
228.041	13.45
228.425	9.8
228.809	7.22
229.193	6.64
229.577	9.41
229.961	4.59
230.344	6.05
230.728	6.38
231.112	5.54
231.495	5.75
231.879	6.77
232.263	5
232.646	5.86
233.03	6.94
233.413	6.1
233.797	6.76
234.18	6.47
234.563	5.2
234.946	8.03
235.33	7.9
235.713	6.99
236.096	5.12
236.479	5.18
236.862	6.4
237.245	5.58
237.628	6.83
238.011	6.87
238.394	6.08
238.777	6.96
239.16	6.63
239.543	8.07
239.925	8.08
240.308	7.33
240.691	6.66
241.073	6.43
241.456	5.93
241.838	5.84
242.221	5.66
242.603	6.2
242.986	5.3
243.368	5.77
243.75	5.09
244.133	4.96
244.515	5.26
244.897	4.97
245.279	5.6
245.661	5.06
246.043	5.42
246.425	6.19
246.807	5.14
247.189	6.47
247.571	5.58
247.953	5.1
248.335	4.86
248.717	4.78
249.098	4.89
249.48	4.76
249.862	4.9
250.243	5.06
250.625	5.46
251.006	4.9
251.388	5.72
251.769	5.87
252.151	4.59
252.532	5.89
252.913	5.48
253.295	5.58
253.676	4.85
254.057	4.76
254.438	5.56
254.819	5.29
255.2	5.73
255.581	5.42
255.962	5.5
256.343	6.39
256.724	6
257.105	6.04
257.486	4.91
257.867	5.17
258.247	5.33
258.628	5.7
259.009	5.29
259.389	5.11
259.77	5.39
260.15	5.13
260.531	5.49
260.911	5.22
261.292	4.62
261.672	4.66
262.052	4.64
262.432	4.95
262.813	5.09
263.193	5.52
263.573	5.44
263.953	5.87
264.333	6.3
264.713	5.3
265.093	5.09
265.473	5.57
265.853	5.07
266.233	5.37
266.612	5.51
266.992	5.41
267.372	5.36
267.752	5.82
268.131	4.77
268.511	5.05
268.89	4.71
269.27	4.81
269.649	5.22
270.029	5.31
270.408	4.93
270.787	5.12
271.167	5.13
271.546	5.27
271.925	5.96
272.304	5.66
272.683	4.94
273.062	4.49
273.441	5.11
273.82	4.67
274.199	4.91
274.578	4.72
274.957	4.24
275.336	5.14
275.715	4.92
276.093	4.62
276.472	5.28
276.851	5.11
277.229	5.17
277.608	5.22
277.986	4.64
278.365	5.14
278.743	5
279.122	5.08
279.5	5.08
279.878	4.56
280.257	4.66
280.635	4.98
281.013	4.86
281.391	5.5
281.769	4.86
282.147	4.98
282.525	4.5
282.903	4.78
283.281	4.7
283.659	5.09
284.037	5.35
284.415	4.84
284.792	4.55
285.17	4.64
285.548	5.11
285.925	4.65
286.303	4.79
286.68	5.07
287.058	5.18
287.435	4.87
287.813	4.63
288.19	4.95
288.567	5.1
288.945	4.99
289.322	4.59
289.699	5.42
290.076	5.19
290.453	5.13
290.83	5.11
291.207	5.31
291.584	5.16
291.961	5.14
292.338	5
292.715	5.21
293.092	5.15
293.469	5.18
293.845	5.22
294.222	5.23
294.599	5.09
294.975	5.53
295.352	5.07
295.728	5.52
296.105	5.64
296.481	5.61
296.858	5.21
297.234	5.68
297.61	5.12
297.986	5.68
298.363	5.69
298.739	5.64
299.115	5.43
299.491	5.49
299.867	5.72
300.243	5.39
300.619	5.92
300.995	6.31
301.371	5.98
301.746	5.67
302.122	6.54
302.498	6.22
302.874	6.36
303.249	6.67
303.625	5.88
304	6.59
304.376	6.24
304.751	6.63
305.127	6.52
305.502	6.85
305.878	6.44
306.253	6.36
306.628	6.62
307.003	6.72
307.378	6.6
307.754	6.63
308.129	6.5
308.504	7.8
308.879	6.53
309.254	7.56
309.629	7.26
310.003	7.37
310.378	7.6
310.753	7.33
311.128	7.44
311.502	6.72
311.877	6.8
312.252	6.63
312.626	7.29
313.001	7.26
313.375	7.18
313.75	7.73
314.124	7.84
314.498	7.87
314.873	7.43
315.247	8.23
315.621	7.73
315.995	7.95
316.369	7.92
316.743	7.67
317.117	7.88
317.491	8.24
317.865	8.18
318.239	8.59
318.613	8.68
318.987	8.87
319.361	8.02
319.734	8.79
320.108	8.93
320.482	8.73
320.855	8.89
321.229	8.9
321.602	8.59
321.976	9.43
322.349	9.35
322.723	8.57
323.096	8.97
323.469	9.5
323.843	10.12
324.216	9.55
324.589	9.23
324.962	9.65
325.335	9.92
325.708	9.46
326.081	9.59
326.454	9.31
326.827	10.3
327.2	9.81
327.573	9.51
327.945	9.79
328.318	9.97
328.691	9.33
329.063	9.81
329.436	10.07
329.809	10.53
330.181	9.68
330.553	10.49
330.926	10.47
331.298	10.2
331.671	9.82
332.043	10.46
332.415	10.74
332.787	10.42
333.159	10.64
333.532	10.6
333.904	10.65
334.276	11.03
334.648	10.57
335.02	10.44
335.391	10.78
335.763	11.22
336.135	11.03
336.507	11.74
336.879	10.87
337.25	11.07
337.622	10.9
337.993	11.41
338.365	11.01
338.736	11.15
339.108	11.47
339.479	12
339.851	11.19
340.222	11.24
340.593	11.89
340.964	11.49
341.336	11.78
341.707	11.59
342.078	11.69
342.449	11.81
342.82	11.9
343.191	12.13
343.562	11.83
343.933	12.59
344.303	12.29
344.674	12.7
345.045	12.75
345.416	12.66
345.786	12.53
346.157	12.44
346.527	13.01
346.898	11.98
347.268	12.6
347.639	12.81
348.009	12.61
348.38	13.21
348.75	13.05
349.12	12.75
349.49	12.79
349.861	13.38
350.231	13.16
350.601	13.92
350.971	13.23
351.341	13.02
351.711	13.41
352.081	13.13
352.45	13.23
352.82	13.74
353.19	13.76
353.56	13.14
353.929	13.55
354.299	13.65
354.669	13.26
355.038	13.5
355.408	13.6
355.777	14.34
356.147	13.76
356.516	14.06
356.885	13.91
357.254	14.15
357.624	14.05
357.993	14.75
358.362	14.29
358.731	14.33
359.1	14.21
359.469	14.32
359.838	14.65
360.207	14.46
360.576	14.9
360.945	14.67
361.314	14.91
361.682	14.88
362.051	15.07
362.42	15.26
362.788	14.92
363.157	15.29
363.525	14.95
363.894	15.08
364.262	15.13
364.631	15.04
364.999	15.5
365.367	15.43
365.735	15.19
366.104	15.62
366.472	15.6
366.84	15.49
367.208	15.72
367.576	15.74
367.944	16.23
368.312	15.86
368.68	16.18
369.048	15.89
369.416	15.65
369.783	16.13
370.151	16.23
370.519	16.38
370.886	16.56
371.254	16.44
371.621	16.78
371.989	16.82
372.356	16.82
372.724	16.87
373.091	16.94
373.458	16.93
373.826	17.15
374.193	16.99
374.56	17.22
374.927	17.62
375.294	17.7
375.661	17.57
376.028	17.49
376.395	17.59
376.762	17.62
377.129	17.68
377.496	17.45
377.863	17.45
378.229	17.79
378.596	17.99
378.963	18.18
379.329	18.1
379.696	18.09
380.062	18.17
380.429	18.23
380.795	18.55
381.161	18.44
381.528	18.54
381.894	18.39
382.26	18.31
382.626	18.75
382.993	18.94
383.359	18.54
383.725	18.83
384.091	18.7
384.457	18.9
384.823	18.87
385.188	19.11
385.554	19.16
385.92	18.95
386.286	19.41
386.651	19.48
387.017	19.77
387.383	19.37
387.748	19.32
388.114	19.77
388.479	19.47
388.845	19.51
389.21	19.7
389.575	19.92
389.94	19.72
390.306	20.09
390.671	20.12
391.036	20.15
391.401	20.43
391.766	20.43
392.131	20.23
392.496	20.26
392.861	20.21
393.226	20.56
393.591	20.27
393.956	20.38
394.32	20.77
394.685	20.55
395.05	20.65
395.414	20.83
395.779	20.85
396.143	20.93
396.508	21
396.872	20.99
397.236	21
397.601	21.41
397.965	21.24
398.329	21.52
398.694	21.28
399.058	21.33
399.422	21.56
399.786	21.66
400.15	21.61
400.514	21.99
400.878	21.84
401.242	22.02
401.605	22.04
401.969	21.81
402.333	22.06
402.697	22.14
403.06	22.26
403.424	22.2
403.787	22.42
404.151	22.39
404.514	22.39
404.878	22.58
405.241	22.36
405.604	22.72
405.968	22.55
406.331	22.89
406.694	22.8
407.057	22.82
407.42	22.97
407.783	22.91
408.146	23.04
408.509	23.25
408.872	23.46
409.235	23.31
409.598	23.44
409.961	23.46
410.323	23.35
410.686	23.43
411.049	23.71
411.411	23.75
411.774	23.49
412.136	23.87
412.499	24.08
412.861	23.77
413.223	24.47
413.586	24.12
413.948	24.08
414.31	24.34
414.672	24.35
415.035	24.38
415.397	24.59
415.759	24.61
416.121	24.16
416.483	24.84
416.845	24.36
417.206	24.64
417.568	24.75
417.93	24.66
418.292	24.93
418.653	24.91
419.015	24.66
419.377	24.79
419.738	24.88
420.1	24.77
420.461	24.83
420.822	24.86
421.184	24.67
421.545	25.11
421.906	24.8
422.267	24.94
422.629	25.04
422.99	25
423.351	25.03
423.712	25.06
424.073	25.35
424.434	25.53
424.795	25.63
425.155	25.58
425.516	25.33
425.877	25.47
426.238	25.55
426.598	25.56
426.959	25.69
427.32	25.98
427.68	26.02
428.041	26.21
428.401	26.3
428.761	26.27
429.122	26.62
429.482	26.8
429.842	26.73
430.202	26.81
430.563	26.99
430.923	27.03
431.283	26.98
431.643	27.33
432.003	27.06
432.363	27.31
432.722	27.18
433.082	27.32
433.442	27.29
433.802	27.5
434.161	27.25
434.521	27.59
434.881	27.41
435.24	27.33
435.6	27.48
435.959	27.72
436.319	27.73
436.678	27.9
437.037	28.08
437.396	28.02
437.756	28.09
438.115	28.23
438.474	28.16
438.833	28.2
439.192	28.51
439.551	28.32
439.91	28.14
440.269	28.42
440.628	28.32
440.987	28.25
441.345	28.35
441.704	28.4
442.063	28.43
442.421	28.53
442.78	28.62
443.138	28.71
443.497	28.97
443.855	29
444.214	29.23
444.572	29.27
444.93	29.36
445.288	29.16
445.647	29.49
446.005	29.25
446.363	29.13
446.721	29.23
447.079	29.28
447.437	29.15
447.795	29.24
448.153	29.13
448.51	29.43
448.868	29.32
449.226	29.52
449.584	29.69
449.941	30.01
450.299	30.05
450.656	30.07
451.014	30.1
451.371	30.34
451.729	30.46
452.086	30.51
452.443	30.55
452.801	30.7
453.158	30.68
453.515	30.72
453.872	30.63
454.229	30.81
454.586	30.75
454.943	30.91
455.3	30.91
455.657	31.11
456.014	31.34
456.371	31.25
456.727	31.25
457.084	31.21
457.441	31.42
457.797	31.27
458.154	31.5
458.51	31.7
458.867	31.63
459.223	31.85
459.58	31.8
459.936	31.78
460.292	31.83
460.648	31.83
461.005	31.52
461.361	31.35
461.717	31.51
462.073	31.63
462.429	31.75
462.785	32.09
463.141	32.15
463.496	32.44
463.852	32.51
464.208	32.84
464.564	32.68
464.919	32.85
465.275	32.78
465.631	32.98
465.986	33
466.342	32.9
466.697	32.93
467.052	33.03
467.408	33.15
467.763	33.24
468.118	33.36
468.473	33.22
468.829	33.25
469.184	33.32
469.539	33.38
469.894	33.39
470.249	33.27
470.603	33.6
470.958	33.56
471.313	33.79
471.668	33.81
472.023	33.79
472.377	34.12
472.732	34.1
473.086	34.09
473.441	34.16
473.795	34.31
474.15	34.31
474.504	34.02
474.859	34.28
475.213	34.29
475.567	34.43
475.921	34.56
476.275	34.75
476.63	34.62
476.984	34.86
477.338	34.95
477.692	34.93
478.045	34.98
478.399	34.85
478.753	35.09
479.107	35
479.461	35.13
479.814	34.98
480.168	35.01
480.521	34.91
480.875	35.3
481.228	35.39
481.582	35.48
481.935	35.71
482.289	35.22
482.642	35.47
482.995	35.32
483.348	35.29
483.701	35.44
484.055	35.14
484.408	35.15
484.761	34.94
485.114	34.51
485.466	34.29
485.819	34.55
486.172	34.77
486.525	34.94
486.878	35.13
487.23	35.27
487.583	35.49
487.936	35.67
488.288	35.56
488.641	35.47
488.993	35.3
489.345	35.31
489.698	35.34
490.05	35.42
490.402	35.71
490.754	35.95
491.107	36.09
491.459	36.41
491.811	36.38
492.163	36.56
492.515	36.7
492.866	36.31
493.218	35.93
493.57	35.95
493.922	36.23
494.274	36.38
494.625	36.85
494.977	37.09
495.328	37.24
495.68	37.53
496.031	37.55
496.383	37.64
496.734	37.68
497.086	37.92
497.437	38.02
497.788	37.98
498.139	37.67
498.49	37.67
498.842	37.82
499.193	37.93
499.544	38.04
499.894	38
500.245	38.17
500.596	38.08
500.947	38.37
501.298	38.55
501.648	38.73
501.999	38.65
502.35	38.58
502.7	38.91
503.051	38.81
503.401	39.1
503.752	39.17
504.102	39.03
504.452	39.34
504.803	38.98
505.153	39.28
505.503	39.21
505.853	39.28
506.203	39.33
506.553	39.36
506.903	39.5
507.253	39.48
507.603	39.48
507.953	39.57
508.303	39.77
508.652	39.77
509.002	39.66
509.352	39.61
509.701	39.77
510.051	39.65
510.4	39.78
510.75	39.77
511.099	39.87
511.449	39.72
511.798	39.88
512.147	40.11
512.496	40.26
512.846	40.33
513.195	40.24
513.544	40.37
513.893	40.21
514.242	40.41
514.591	40.42
514.939	40.38
515.288	40.55
515.637	40.67
515.986	40.83
516.334	40.71
516.683	40.93
517.032	41.02
517.38	41.08
517.729	41.41
518.077	41.09
518.426	41.33
518.774	41.19
519.122	41.04
519.47	41
519.819	40.75
520.167	40.72
520.515	40.68
520.863	41.03
521.211	41.16
521.559	41.18
521.907	41.26
522.255	41.44
522.602	41.81
522.95	41.81
523.298	41.93
523.645	41.89
523.993	42.09
524.341	42.02
524.688	42.27
525.036	42.25
525.383	42.2
525.73	42.32
526.078	42.29
526.425	42.14
526.772	42.02
527.119	41.87
527.466	41.81
527.814	41.74
528.161	42.06
528.508	42.19
528.854	42.11
529.201	42.2
529.548	41.9
529.895	41.68
530.242	41.34
530.588	41.69
530.935	42.01
531.282	41.92
531.628	42.02
531.975	42.33
532.321	42.42
532.667	42.63
533.014	42.8
533.36	42.89
533.706	42.98
534.052	43.01
534.399	42.82
534.745	42.68
535.091	42.4
535.437	42.61
535.783	42.87
536.129	43.08
536.474	43.32
536.82	43.67
537.166	43.71
537.512	43.46
537.857	43.58
538.203	43.36
538.549	43.35
538.894	43.62
539.239	43.71
539.585	43.83
539.93	43.72
540.276	44.23
540.621	44.26
540.966	44.52
541.311	44.61
541.656	44.59
542.001	44.25
542.346	44.14
542.691	43.79
543.036	43.29
543.381	43.5
543.726	43.68
544.071	43.89
544.415	44.15
544.76	44.3
545.105	44.23
545.449	44.62
545.794	44.98
546.138	44.86
546.483	44.76
546.827	45.15
547.171	44.87
547.516	45.02
547.86	45.28
548.204	45.07
548.548	45.12
548.892	45.15
549.236	45.4
549.58	45.58
549.924	45.62
550.268	45.87
550.612	45.91
550.956	46.1
551.3	46.18
551.643	46.1
551.987	46.38
552.33	46.18
552.674	46.34
553.017	46.16
553.361	46.44
553.704	46.48
554.048	46.3
554.391	46.17
554.734	46.4
555.077	46.61
555.42	46.51
555.764	46.53
556.107	46.72
556.45	46.94
556.793	46.95
557.135	46.88
557.478	47.07
557.821	46.93
558.164	47.12
558.507	47.25
558.849	47.53
559.192	47.42
559.534	47.27
559.877	47.18
560.219	47.48
560.562	47.61
560.904	47.68
561.246	47.65
561.589	47.56
561.931	47.54
562.273	47.63
562.615	47.82
562.957	47.4
563.299	47.64
563.641	47.77
563.983	47.57
564.325	48.17
564.667	48
565.008	47.9
565.35	48.24
565.692	48.04
566.033	48.13
566.375	48.1
566.716	48.2
567.058	48.4
567.399	48.35
567.741	48.15
568.082	48.36
568.423	48.36
568.764	48.5
569.105	48.38
569.447	48.77
569.788	48.42
570.129	48.73
570.47	48.71
570.811	48.58
571.151	48.92
571.492	48.88
571.833	48.98
572.174	49.12
572.514	48.97
572.855	48.98
573.195	48.98
573.536	48.97
573.876	49.1
574.217	49.1
574.557	49.13
574.898	49.12
575.238	49.29
575.578	49.36
575.918	49.4
576.258	49.61
576.598	49.5
576.938	49.43
577.278	49.45
577.618	49.65
577.958	49.7
578.298	49.68
578.638	50.18
578.977	49.99
579.317	49.95
579.657	49.81
579.996	50.11
580.336	50.15
580.675	50.08
581.014	50.41
581.354	50.21
581.693	50.39
582.032	50.44
582.372	50.45
582.711	50.51
583.05	50.57
583.389	50.6
583.728	50.81
584.067	50.58
584.406	50.7
584.745	50.76
585.083	51.49
585.422	50.99
585.761	51.05
586.1	51.03
586.438	50.76
586.777	51.26
587.115	51.15
587.454	51.24
587.792	51.03
588.13	51.43
588.469	51.17
588.807	50.74
589.145	51.46
589.483	50.99
589.821	51.39
590.159	51.61
590.497	51.48
590.835	51.29
591.173	51.65
591.511	51.66
591.849	51.54
592.187	51.59
592.524	51.47
592.862	51.81
593.2	51.92
593.537	51.78
593.875	51.45
594.212	52.02
594.55	51.96
594.887	52.44
595.224	52.1
595.561	52.23
595.899	51.91
596.236	51.94
596.573	51.94
596.91	51.95
597.247	52.09
597.584	52.39
597.921	52.24
598.258	51.99
598.594	52.17
598.931	52.11
599.268	52.06
599.604	52.6
599.941	52.35
600.277	52.42
600.614	52.53
600.95	52.81
601.287	52.45
601.623	52.98
601.959	52.9
602.296	52.95
602.632	53
602.968	53
603.304	53.34
603.64	52.99
603.976	52.79
604.312	53.25
604.648	53.38
604.984	53.13
605.319	53.21
605.655	53.09
605.991	52.76
606.326	52.84
606.662	52.65
606.998	53.3
607.333	53.43
607.668	53.52
608.004	53.53
608.339	53.77
608.674	53.81
609.01	53.77
609.345	54.05
609.68	54.31
610.015	53.9
610.35	54.28
610.685	53.77
611.02	53.72
611.355	53.72
611.689	54
612.024	53.58
612.359	54.27
612.694	54.48
613.028	54.22
613.363	54.07
613.697	54.33
614.032	54.4
614.366	54.65
614.7	54.73
615.035	54.82
615.369	54.67
615.703	54.87
616.037	54.78
616.371	54.35
616.705	54.46
617.039	55.07
617.373	54.73
617.707	54.94
618.041	54.75
618.375	55.32
618.709	54.92
619.042	55.11
619.376	54.42
619.71	55.36
620.043	54.99
620.377	54.79
620.71	55.01
621.043	55.06
621.377	55.32
621.71	55.22
622.043	55.25
622.376	55.36
622.709	55.66
623.043	55.08
623.376	55.36
623.709	55.43
624.041	55.39
624.374	55.47
624.707	55.83
625.04	55.35
625.373	56.04
625.705	55.66
626.038	55.46
626.37	56.01
626.703	56.27
627.035	55.57
627.368	56.31
627.7	56.47
628.032	55.65
628.365	55.66
628.697	55.77
629.029	55.98
629.361	56.08
629.693	56.2
630.025	56.27
630.357	56.31
630.689	56.32
631.021	56.03
631.353	56.2
631.684	56.46
632.016	56.67
632.348	56.13
632.679	56.41
633.011	56.55
633.342	56.71
633.674	56.67
634.005	56.69
634.336	56.99
634.668	56.77
634.999	56.39
635.33	56.79
635.661	56.68
635.992	56.91
636.323	56.79
636.654	56.88
636.985	56.69
637.316	56.43
637.647	56.77
637.977	57.33
638.308	57.13
638.639	57.01
638.969	57.57
639.3	57.08
639.63	58.34
639.961	57.41
640.291	57.7
640.622	57.68
640.952	57.47
641.282	57.43
641.612	57.6
641.943	57.69
642.273	57.84
642.603	58.17
642.933	57.25
643.263	58.21
643.592	57.88
643.922	58
644.252	57.78
644.582	57.43
644.911	58.07
645.241	57.64
645.571	58.5
645.9	58.01
646.23	58.19
646.559	57.85
646.888	58.66
647.218	58.2
647.547	58.36
647.876	57.74
648.205	58.28
648.534	58.7
648.863	58.75
649.192	58.73
649.521	58.85
649.85	58.71
650.179	58.65
650.508	58.97
650.837	58.24
651.165	58.89
651.494	58.53
651.822	58.87
652.151	58.84
652.479	58.73
652.808	58.82
653.136	58.73
653.465	58.54
653.793	59.66
654.121	58.89
654.449	59.13
654.777	59.36
655.105	59.45
655.433	59.16
655.761	59.02
656.089	59.55
656.417	59.25
656.745	59.36
657.073	58.72
657.4	59.26
657.728	59.5
658.056	58.92
658.383	59.69
658.711	59.59
659.038	59.12
659.365	59.15
659.693	58.78
660.02	59.58
660.347	59.58
660.674	59.35
661.001	59.24
661.329	59.81
661.656	59.25
661.982	59.84
662.309	59.95
662.636	59.99
662.963	60.1
663.29	60.55
663.616	59.86
663.943	60.48
664.27	60
664.596	60.13
664.923	60.72
665.249	60.32
665.576	60.84
665.902	60.39
666.228	60.59
666.554	60.75
666.881	59.78
667.207	60.06
667.533	60.48
667.859	60.47
668.185	60.29
668.511	60.84
668.837	59.67
669.162	60.34
669.488	60.21
669.814	60.86
670.139	60.92
