Data from 447_chest_Reflection__4__04.txt Node

Date: Tue Dec 12 18:10:58 CST 2023
User: ToomeyLab
Spectrometer: FLMS14357
Trigger mode: 0
Integration Time (sec): 1.000000E-2
Scans to average: 100
Electric dark correction enabled: true
Nonlinearity correction enabled: false
Boxcar width: 0
XAxis mode: Wavelengths
Number of Pixels in Spectrum: 2048
>>>>>Begin Spectral Data<<<<<
189.047	72.2
189.435	72.2
189.823	72.2
190.211	-97.95
190.599	171.84
190.987	118.89
191.375	-651.35
191.763	-20.47
192.151	93.21
192.538	-98.14
192.926	56.44
193.314	-52.19
193.702	96.52
194.089	133.92
194.477	46.29
194.864	83.49
195.252	97.82
195.639	237.89
196.027	101.25
196.414	68.76
196.801	1.87
197.189	3944.44
197.576	-325.88
197.963	91.05
198.351	29.33
198.738	22
199.125	-4.17
199.512	-24.28
199.899	42.78
200.286	10.65
200.673	-17.9
201.06	29.31
201.447	-47.21
201.833	1.99
202.22	-2.18
202.607	15.11
202.994	-16.82
203.38	26.5
203.767	7.2
204.154	-1.91
204.54	35.39
204.927	16.01
205.313	41.81
205.699	23.53
206.086	4.2
206.472	32.85
206.858	16.29
207.245	20.69
207.631	42.5
208.017	15.2
208.403	24
208.789	8.11
209.175	-30.34
209.561	29.05
209.947	29.01
210.333	17.79
210.719	9.9
211.105	-16.08
211.491	46.03
211.876	43.42
212.262	29.01
212.648	-17.13
213.034	16.49
213.419	35.33
213.805	-6.85
214.19	26.29
214.576	36.83
214.961	46.79
215.346	9.83
215.732	47.23
216.117	43.15
216.502	-0.4
216.888	12.88
217.273	16.97
217.658	11.08
218.043	3.36
218.428	5.82
218.813	23.73
219.198	-6.16
219.583	7.86
219.968	7.97
220.353	10.4
220.738	27.37
221.122	11.91
221.507	-8.62
221.892	6.51
222.276	14.98
222.661	4.54
223.046	-4.93
223.43	7.76
223.815	9.08
224.199	6.3
224.583	3.83
224.968	8.04
225.352	5.66
225.736	10.99
226.121	2.65
226.505	4.28
226.889	7.99
227.273	5.06
227.657	6.07
228.041	1.25
228.425	0.84
228.809	2.4
229.193	1.33
229.577	4.68
229.961	2.17
230.344	2.42
230.728	2.55
231.112	2.38
231.495	3.04
231.879	3.82
232.263	2.78
232.646	1.97
233.03	2.6
233.413	2.1
233.797	3.58
234.18	0.13
234.563	2.98
234.946	5.31
235.33	4.68
235.713	3.83
236.096	2.24
236.479	2.44
236.862	3.91
237.245	4.92
237.628	3.71
238.011	2.67
238.394	2.99
238.777	2.77
239.16	2.92
239.543	4.8
239.925	3.91
240.308	3.4
240.691	2.91
241.073	3.78
241.456	3.75
241.838	2.63
242.221	3.7
242.603	2.9
242.986	2.73
243.368	3.12
243.75	2.46
244.133	2.99
244.515	3.07
244.897	2.82
245.279	3.05
245.661	2.68
246.043	2.2
246.425	4.06
246.807	1.89
247.189	3.04
247.571	3.14
247.953	2.54
248.335	2.77
248.717	2.81
249.098	2.64
249.48	2.43
249.862	2.44
250.243	2.71
250.625	3.38
251.006	3.1
251.388	2.75
251.769	3.18
252.151	2
252.532	3.68
252.913	3.29
253.295	3.04
253.676	2.06
254.057	2.51
254.438	3.21
254.819	2.45
255.2	2.61
255.581	2.96
255.962	2.02
256.343	4.05
256.724	2.87
257.105	2.11
257.486	1.92
257.867	1.27
258.247	2.08
258.628	3.05
259.009	2.67
259.389	2.7
259.77	3.22
260.15	2.95
260.531	3.12
260.911	3.24
261.292	2.57
261.672	2.48
262.052	2.53
262.432	2.71
262.813	3
263.193	2.59
263.573	3.08
263.953	3.37
264.333	3.57
264.713	2.85
265.093	2.8
265.473	3.24
265.853	2.48
266.233	2.69
266.612	2.92
266.992	2.56
267.372	2.95
267.752	3.44
268.131	1.98
268.511	3.06
268.89	2.29
269.27	1.96
269.649	2.5
270.029	2.81
270.408	2.71
270.787	2.5
271.167	2.56
271.546	3
271.925	3.08
272.304	2.58
272.683	2.13
273.062	2.56
273.441	2.75
273.82	2.23
274.199	2.59
274.578	2.6
274.957	2.42
275.336	2.71
275.715	2.84
276.093	2.21
276.472	2.36
276.851	2.7
277.229	2.1
277.608	2.56
277.986	2.3
278.365	2.38
278.743	2.67
279.122	2.93
279.5	2.13
279.878	2.18
280.257	2.22
280.635	2.51
281.013	2.53
281.391	2.49
281.769	2.71
282.147	2.46
282.525	2.21
282.903	2.23
283.281	2.51
283.659	2.49
284.037	2.6
284.415	2.7
284.792	2.9
285.17	2.11
285.548	2.71
285.925	2.23
286.303	2.73
286.68	3.23
287.058	2.49
287.435	2.61
287.813	2.27
288.19	2.56
288.567	2.61
288.945	2.8
289.322	1.93
289.699	3.02
290.076	2.96
290.453	3.01
290.83	2.54
291.207	3.12
291.584	2.49
291.961	3.14
292.338	2.76
292.715	2.8
293.092	2.56
293.469	2.86
293.845	3.27
294.222	3.09
294.599	3.22
294.975	2.98
295.352	3.32
295.728	2.93
296.105	3.36
296.481	3.13
296.858	3.28
297.234	3.21
297.61	2.93
297.986	3.24
298.363	3.21
298.739	2.94
299.115	2.8
299.491	2.97
299.867	2.72
300.243	2.76
300.619	3.19
300.995	3.31
301.371	3.27
301.746	3.18
302.122	3.98
302.498	3.72
302.874	3.46
303.249	3.74
303.625	3.05
304	3.26
304.376	3.34
304.751	3.46
305.127	2.91
305.502	3.62
305.878	3.03
306.253	3.24
306.628	3.55
307.003	3.81
307.378	3.52
307.754	3.2
308.129	3.14
308.504	4.29
308.879	3.18
309.254	3.92
309.629	3.1
310.003	3.68
310.378	3.46
310.753	4.1
311.128	3.6
311.502	3.39
311.877	3.21
312.252	3.01
312.626	3.36
313.001	3.44
313.375	3.12
313.75	3.49
314.124	3.53
314.498	3.34
314.873	3.13
315.247	3.82
315.621	3.49
315.995	3.85
316.369	3.93
316.743	3.57
317.117	3.27
317.491	3.39
317.865	4.03
318.239	3.7
318.613	3.84
318.987	3.47
319.361	3.26
319.734	3.87
320.108	4.45
320.482	4.08
320.855	3.73
321.229	4.13
321.602	4.1
321.976	4.33
322.349	4.02
322.723	3.85
323.096	4.02
323.469	4.15
323.843	4.5
324.216	4.23
324.589	4.13
324.962	3.78
325.335	4.49
325.708	4.14
326.081	4.17
326.454	3.95
326.827	4.31
327.2	3.93
327.573	3.77
327.945	4.27
328.318	4.3
328.691	3.46
329.063	4.24
329.436	4.1
329.809	3.93
330.181	3.47
330.553	4.05
330.926	4.36
331.298	3.92
331.671	4.73
332.043	4.13
332.415	4.01
332.787	4.2
333.159	3.95
333.532	3.71
333.904	4.25
334.276	5.14
334.648	3.87
335.02	3.54
335.391	3.72
335.763	3.64
336.135	4.13
336.507	4.64
336.879	4.11
337.25	4.31
337.622	4.06
337.993	3.87
338.365	3.68
338.736	4.11
339.108	3.61
339.479	4.46
339.851	3.52
340.222	3.82
340.593	3.65
340.964	3.86
341.336	4.03
341.707	3.36
342.078	3.51
342.449	3.54
342.82	4.15
343.191	4.3
343.562	3.94
343.933	4.17
344.303	4.09
344.674	4.01
345.045	3.96
345.416	4.25
345.786	3.81
346.157	4.15
346.527	4.17
346.898	3.92
347.268	3.84
347.639	3.73
348.009	3.96
348.38	3.79
348.75	4.27
349.12	3.95
349.49	3.82
349.861	4.42
350.231	3.94
350.601	4.01
350.971	3.99
351.341	4.2
351.711	4.02
352.081	4.19
352.45	3.98
352.82	4.13
353.19	4.14
353.56	3.83
353.929	3.91
354.299	3.69
354.669	4.27
355.038	3.51
355.408	3.98
355.777	4.5
356.147	3.67
356.516	4.43
356.885	4.07
357.254	4.14
357.624	3.87
357.993	3.99
358.362	4
358.731	4.16
359.1	3.66
359.469	3.99
359.838	3.96
360.207	3.71
360.576	4.29
360.945	3.74
361.314	4.06
361.682	3.87
362.051	4.34
362.42	4.35
362.788	3.95
363.157	4.47
363.525	4.13
363.894	4.06
364.262	4.03
364.631	3.8
364.999	4.11
365.367	4.31
365.735	4.21
366.104	4.36
366.472	3.73
366.84	4.34
367.208	4.09
367.576	4.23
367.944	4.5
368.312	3.99
368.68	4.15
369.048	4.4
369.416	4.48
369.783	4.14
370.151	4.21
370.519	4.01
370.886	4.18
371.254	3.87
371.621	4.45
371.989	4.12
372.356	4.2
372.724	4.06
373.091	4.27
373.458	4.37
373.826	4.08
374.193	3.87
374.56	4.2
374.927	4.13
375.294	4.29
375.661	4.28
376.028	4.16
376.395	4.53
376.762	4.55
377.129	4.22
377.496	4.28
377.863	4.32
378.229	4.17
378.596	4.09
378.963	4.55
379.329	3.92
379.696	4.18
380.062	4.43
380.429	4.34
380.795	4.31
381.161	4.19
381.528	4.27
381.894	4.3
382.26	3.99
382.626	4.31
382.993	4.52
383.359	4.13
383.725	4.34
384.091	4.08
384.457	4.11
384.823	4.25
385.188	4.33
385.554	4.51
385.92	4.15
386.286	4.15
386.651	4.26
387.017	4.76
387.383	4.53
387.748	4.33
388.114	4.51
388.479	4.27
388.845	4.32
389.21	4.38
389.575	4.29
389.94	4.32
390.306	4.38
390.671	4.17
391.036	4.37
391.401	4.35
391.766	4.41
392.131	4.31
392.496	4.41
392.861	4.2
393.226	4.45
393.591	4.33
393.956	4.3
394.32	4.35
394.685	4.41
395.05	4.32
395.414	4.31
395.779	4.17
396.143	4.5
396.508	4.24
396.872	4.42
397.236	4.3
397.601	4.13
397.965	4.51
398.329	4.51
398.694	3.91
399.058	4.49
399.422	4.42
399.786	4.55
400.15	4.33
400.514	4.63
400.878	4.36
401.242	4.2
401.605	4.45
401.969	4.66
402.333	4.29
402.697	4.44
403.06	4.33
403.424	4.48
403.787	4.31
404.151	4.44
404.514	4.23
404.878	4.34
405.241	4.56
405.604	4.3
405.968	4.34
406.331	4.55
406.694	4.59
407.057	4.24
407.42	4.26
407.783	4.28
408.146	4.41
408.509	4.44
408.872	4.55
409.235	4.32
409.598	4.63
409.961	4.37
410.323	4.55
410.686	4.37
411.049	4.64
411.411	4.5
411.774	4.53
412.136	4.65
412.499	4.53
412.861	4.55
413.223	4.85
413.586	4.53
413.948	4.39
414.31	4.67
414.672	4.59
415.035	4.24
415.397	4.65
415.759	4.56
416.121	4.56
416.483	4.61
416.845	4.68
417.206	4.59
417.568	4.27
417.93	4.49
418.292	4.23
418.653	4.61
419.015	4.53
419.377	4.41
419.738	4.54
420.1	4.48
420.461	4.37
420.822	4.43
421.184	4.35
421.545	4.49
421.906	4.33
422.267	4.37
422.629	4.46
422.99	4.44
423.351	4.42
423.712	4.46
424.073	4.45
424.434	4.43
424.795	4.41
425.155	4.31
425.516	4.29
425.877	4.44
426.238	4.43
426.598	4.42
426.959	4.54
427.32	4.4
427.68	4.51
428.041	4.54
428.401	4.59
428.761	4.45
429.122	4.76
429.482	4.69
429.842	4.56
430.202	4.59
430.563	4.53
430.923	4.63
431.283	4.63
431.643	4.78
432.003	4.49
432.363	4.68
432.722	4.53
433.082	4.76
433.442	4.72
433.802	4.94
434.161	4.75
434.521	4.72
434.881	4.59
435.24	4.68
435.6	4.62
435.959	4.67
436.319	4.65
436.678	4.72
437.037	4.67
437.396	4.65
437.756	4.57
438.115	4.8
438.474	4.51
438.833	4.82
439.192	4.79
439.551	4.75
439.91	4.57
440.269	4.7
440.628	4.59
440.987	4.55
441.345	4.69
441.704	4.67
442.063	4.59
442.421	4.59
442.78	4.68
443.138	4.72
443.497	4.6
443.855	4.61
444.214	4.78
444.572	4.8
444.93	4.61
445.288	4.54
445.647	4.83
446.005	4.72
446.363	4.55
446.721	4.59
447.079	4.77
447.437	4.61
447.795	4.62
448.153	4.74
448.51	4.72
448.868	4.69
449.226	4.73
449.584	4.74
449.941	4.66
450.299	4.74
450.656	4.65
451.014	4.64
451.371	4.81
451.729	4.83
452.086	4.66
452.443	5.07
452.801	4.99
453.158	4.85
453.515	4.9
453.872	4.8
454.229	4.86
454.586	4.81
454.943	4.62
455.3	4.72
455.657	4.79
456.014	4.83
456.371	4.98
456.727	4.91
457.084	4.9
457.441	4.9
457.797	4.9
458.154	4.79
458.51	4.78
458.867	4.92
459.223	4.98
459.58	4.9
459.936	4.72
460.292	4.77
460.648	4.79
461.005	4.88
461.361	4.79
461.717	4.89
462.073	4.79
462.429	4.81
462.785	4.9
463.141	4.91
463.496	4.85
463.852	5.02
464.208	4.93
464.564	5.05
464.919	5.23
465.275	5.21
465.631	5.1
465.986	4.97
466.342	4.8
466.697	4.94
467.052	5.24
467.408	5.14
467.763	5.16
468.118	4.98
468.473	5.08
468.829	5.22
469.184	4.92
469.539	5.14
469.894	5.18
470.249	5.15
470.603	5.04
470.958	5.11
471.313	5.19
471.668	5.19
472.023	5.04
472.377	5.22
472.732	5.12
473.086	5.15
473.441	5.31
473.795	5.11
474.15	5.14
474.504	5.09
474.859	5.05
475.213	5.09
475.567	5.14
475.921	5.04
476.275	5.05
476.63	5.04
476.984	5.21
477.338	5.14
477.692	5.11
478.045	5.23
478.399	5.08
478.753	5.09
479.107	5.07
479.461	5.13
479.814	5.19
480.168	4.94
480.521	5.05
480.875	5.27
481.228	5.41
481.582	5.16
481.935	5.22
482.289	5.16
482.642	5.35
482.995	5.06
483.348	5.22
483.701	5.19
484.055	5.04
484.408	5.03
484.761	5.04
485.114	4.91
485.466	4.88
485.819	4.85
486.172	4.85
486.525	4.95
486.878	5.01
487.23	5.03
487.583	5
487.936	5.09
488.288	5.02
488.641	5.03
488.993	4.98
489.345	5.03
489.698	4.98
490.05	5.01
490.402	5.04
490.754	5.12
491.107	5.08
491.459	5.18
491.811	5.18
492.163	5.18
492.515	5.21
492.866	5.03
493.218	5.07
493.57	5.09
493.922	5.05
494.274	5.13
494.625	5.29
494.977	5.32
495.328	5.32
495.68	5.24
496.031	5.4
496.383	5.33
496.734	5.32
497.086	5.33
497.437	5.36
497.788	5.4
498.139	5.32
498.49	5.45
498.842	5.38
499.193	5.48
499.544	5.27
499.894	5.4
500.245	5.46
500.596	5.48
500.947	5.43
501.298	5.37
501.648	5.6
501.999	5.49
502.35	5.55
502.7	5.5
503.051	5.5
503.401	5.52
503.752	5.77
504.102	5.69
504.452	5.51
504.803	5.55
505.153	5.58
505.503	5.67
505.853	5.7
506.203	5.57
506.553	5.52
506.903	5.63
507.253	5.63
507.603	5.73
507.953	5.6
508.303	5.61
508.652	5.63
509.002	5.7
509.352	5.7
509.701	5.8
510.051	5.7
510.4	5.72
510.75	5.66
511.099	5.61
511.449	5.68
511.798	5.68
512.147	5.67
512.496	5.81
512.846	5.76
513.195	5.6
513.544	5.77
513.893	5.74
514.242	5.78
514.591	5.65
514.939	5.88
515.288	5.75
515.637	5.67
515.986	5.76
516.334	5.92
516.683	5.77
517.032	5.94
517.38	5.78
517.729	5.94
518.077	5.82
518.426	5.98
518.774	5.87
519.122	5.91
519.47	5.82
519.819	5.72
520.167	5.74
520.515	5.76
520.863	5.93
521.211	5.77
521.559	5.78
521.907	5.9
522.255	5.9
522.602	5.89
522.95	5.99
523.298	5.98
523.645	6.08
523.993	6.07
524.341	6.06
524.688	6.01
525.036	6.21
525.383	6.05
525.73	5.88
526.078	6
526.425	5.99
526.772	5.95
527.119	6.01
527.466	6
527.814	5.87
528.161	6.05
528.508	6.05
528.854	5.92
529.201	5.92
529.548	5.99
529.895	5.88
530.242	5.83
530.588	5.8
530.935	5.94
531.282	5.92
531.628	6.03
531.975	6.02
532.321	6.01
532.667	6.04
533.014	6.1
533.36	6.24
533.706	6.16
534.052	6.2
534.399	6.15
534.745	6.16
535.091	6.09
535.437	6.17
535.783	6.12
536.129	6.17
536.474	6.21
536.82	6.35
537.166	6.37
537.512	6.32
537.857	6.28
538.203	6.35
538.549	6.38
538.894	6.36
539.239	6.36
539.585	6.5
539.93	6.51
540.276	6.45
540.621	6.5
540.966	6.57
541.311	6.43
541.656	6.49
542.001	6.51
542.346	6.44
542.691	6.36
543.036	6.33
543.381	6.26
543.726	6.41
544.071	6.43
544.415	6.48
544.76	6.59
545.105	6.59
545.449	6.64
545.794	6.69
546.138	6.56
546.483	6.75
546.827	6.77
547.171	6.82
547.516	6.73
547.86	6.85
548.204	6.76
548.548	6.85
548.892	6.8
549.236	6.86
549.58	6.93
549.924	6.86
550.268	6.98
550.612	6.98
550.956	6.89
551.3	7.14
551.643	6.99
551.987	7.19
552.33	7.17
552.674	7.21
553.017	7.26
553.361	7.18
553.704	7.19
554.048	7.19
554.391	7.15
554.734	7.11
555.077	7.26
555.42	7.34
555.764	7.38
556.107	7.42
556.45	7.22
556.793	7.28
557.135	7.25
557.478	7.43
557.821	7.4
558.164	7.37
558.507	7.32
558.849	7.44
559.192	7.53
559.534	7.44
559.877	7.62
560.219	7.35
560.562	7.66
560.904	7.64
561.246	7.56
561.589	7.76
561.931	7.55
562.273	7.55
562.615	7.6
562.957	7.71
563.299	7.68
563.641	7.64
563.983	7.68
564.325	7.76
564.667	7.92
565.008	7.51
565.35	7.7
565.692	7.93
566.033	8.05
566.375	7.8
566.716	7.81
567.058	7.9
567.399	7.91
567.741	7.92
568.082	7.9
568.423	7.97
568.764	7.87
569.105	7.84
569.447	7.95
569.788	7.95
570.129	8.02
570.47	8.05
570.811	8.09
571.151	8.19
571.492	8.12
571.833	8.16
572.174	8.18
572.514	8.24
572.855	8.15
573.195	8.11
573.536	8.04
573.876	8.2
574.217	8.24
574.557	8.21
574.898	8.23
575.238	8.43
575.578	8.17
575.918	8.29
576.258	8.39
576.598	8.26
576.938	8.39
577.278	8.42
577.618	8.51
577.958	8.36
578.298	8.69
578.638	8.57
578.977	8.52
579.317	8.69
579.657	8.67
579.996	8.68
580.336	8.65
580.675	8.75
581.014	8.82
581.354	8.82
581.693	8.77
582.032	8.7
582.372	8.89
582.711	8.85
583.05	8.84
583.389	9.11
583.728	8.94
584.067	9.17
584.406	9.07
584.745	9.2
585.083	9.02
585.422	9.19
585.761	9.14
586.1	9.12
586.438	9.42
586.777	9.33
587.115	9.1
587.454	9.35
587.792	9.08
588.13	9.33
588.469	9.55
588.807	9.28
589.145	9.32
589.483	9.17
589.821	9.62
590.159	9.36
590.497	9.59
590.835	9.34
591.173	9.43
591.511	9.59
591.849	9.65
592.187	9.74
592.524	9.43
592.862	9.59
593.2	9.58
593.537	9.57
593.875	9.65
594.212	9.72
594.55	9.64
594.887	10.07
595.224	9.85
595.561	10.03
595.899	9.5
596.236	9.94
596.573	9.75
596.91	10.01
597.247	9.92
597.584	9.84
597.921	10.02
598.258	9.9
598.594	9.88
598.931	9.85
599.268	9.86
599.604	9.85
599.941	10.09
600.277	9.95
600.614	10.3
600.95	10.2
601.287	10.16
601.623	10.3
601.959	10.21
602.296	10.32
602.632	10.04
602.968	10.31
603.304	9.93
603.64	10.6
603.976	10.33
604.312	10.3
604.648	10.33
604.984	10.38
605.319	10.5
605.655	10.27
605.991	10.49
606.326	10.22
606.662	10.55
606.998	10.5
607.333	10.54
607.668	10.69
608.004	10.67
608.339	10.7
608.674	10.41
609.01	10.6
609.345	10.76
609.68	10.91
610.015	10.6
610.35	10.98
610.685	10.96
611.02	10.91
611.355	10.64
611.689	10.9
612.024	10.84
612.359	11.12
612.694	10.9
613.028	11.13
613.363	10.95
613.697	10.95
614.032	11.04
614.366	11.47
614.7	11.1
615.035	11.37
615.369	11.1
615.703	11.23
616.037	11.17
616.371	11.06
616.705	11.5
617.039	11.66
617.373	11.26
617.707	11.28
618.041	11.91
618.375	11.24
618.709	11.55
619.042	11.41
619.376	11.52
619.71	11.77
620.043	11.71
620.377	11.68
620.71	11.49
621.043	11.44
621.377	11.31
621.71	11.78
622.043	12.13
622.376	12.27
622.709	11.79
623.043	11.96
623.376	12.04
623.709	11.9
624.041	11.87
624.374	11.99
624.707	12.13
625.04	11.83
625.373	12.61
625.705	12.18
626.038	12.02
626.37	12.14
626.703	12.33
627.035	11.99
627.368	12.39
627.7	12.21
628.032	12.15
628.365	12.28
628.697	12.08
629.029	12.18
629.361	12.39
629.693	12.27
630.025	12.14
630.357	12.7
630.689	12.26
631.021	12.51
631.353	12.59
631.684	12.83
632.016	12.57
632.348	12.61
632.679	12.21
633.011	12.98
633.342	12.93
633.674	12.93
634.005	12.79
634.336	12.97
634.668	12.82
634.999	13.14
635.33	13.01
635.661	12.65
635.992	13.01
636.323	12.86
636.654	12.87
636.985	12.92
637.316	12.55
637.647	12.47
637.977	13.17
638.308	13.28
638.639	12.84
638.969	12.91
639.3	13.02
639.63	13.33
639.961	13.14
640.291	13.15
640.622	12.84
640.952	13.68
641.282	13.26
641.612	13.48
641.943	13.18
642.273	13.48
642.603	14.16
642.933	13.52
643.263	13.2
643.592	13.91
643.922	14.01
644.252	13.85
644.582	13.01
644.911	13.68
645.241	13.22
645.571	13.9
645.9	13.48
646.23	13.81
646.559	13.71
646.888	14.18
647.218	13.89
647.547	13.96
647.876	14.16
648.205	14.27
648.534	14.06
648.863	13.7
649.192	14.17
649.521	14.07
649.85	13.92
650.179	14.39
650.508	14.39
650.837	14.06
651.165	13.97
651.494	13.81
651.822	14.06
652.151	14.51
652.479	14.33
652.808	14.28
653.136	14.44
653.465	14.77
653.793	14.23
654.121	14.75
654.449	14.85
654.777	14.68
655.105	14.55
655.433	14.83
655.761	14.54
656.089	14.2
656.417	14.9
656.745	14.6
657.073	14.32
657.4	14.77
657.728	14.54
658.056	14.92
658.383	14.57
658.711	14.79
659.038	14.99
659.365	15.04
659.693	14.64
660.02	14.74
660.347	15.05
660.674	15.06
661.001	14.85
661.329	14.77
661.656	14.82
661.982	14.89
662.309	15.38
662.636	14.89
662.963	14.82
663.29	15.55
663.616	15.12
663.943	15.18
664.27	15.33
664.596	15.5
664.923	15.79
665.249	15.39
665.576	15.36
665.902	15.45
666.228	15.42
666.554	15.54
666.881	14.94
667.207	15.71
667.533	15.63
667.859	15.31
668.185	15.54
668.511	15.85
668.837	15.61
669.162	15.86
669.488	15.62
669.814	15.97
670.139	16.08
670.465	15.36
670.791	15.63
671.116	16.12
671.442	15.7
671.767	15.99
672.092	15.93
672.418	15.71
672.743	16.56
673.068	15.23
673.393	15.77
673.718	16.24
674.043	15.86
674.368	15.67
674.693	16.09
675.018	15.99
675.343	15.89
675.667	16.45
675.992	16.25
676.317	16.29
676.641	16.01
676.966	16.21
677.29	16.78
677.615	15.98
677.939	16.58
678.264	16.71
678.588	16.79
678.912	16.87
679.236	15.32
679.56	17.22
679.885	17.09
680.209	16.83
680.532	17.09
680.856	16.6
681.18	16.67
681.504	16.6
681.828	16.82
682.152	16.36
682.475	16.7
682.799	16.76
683.122	16.36
683.446	16.72
683.769	17.61
684.093	16.33
684.416	16.88
684.739	16.88
685.062	17.02
685.386	17.32
685.709	17.12
686.032	17.39
686.355	17.06
686.678	17.39
687.001	17.47
