Data from 447_crown_Reflection__4__09.txt Node

Date: Tue Dec 12 18:13:43 CST 2023
User: ToomeyLab
Spectrometer: FLMS14357
Trigger mode: 0
Integration Time (sec): 1.000000E-2
Scans to average: 100
Electric dark correction enabled: true
Nonlinearity correction enabled: false
Boxcar width: 0
XAxis mode: Wavelengths
Number of Pixels in Spectrum: 2048
>>>>>Begin Spectral Data<<<<<
189.047	89.45
189.435	89.45
189.823	89.45
190.211	50.13
190.599	-46.6
190.987	38.36
191.375	-169.37
191.763	163.74
192.151	63.77
192.538	61.4
192.926	844.44
193.314	-36.71
193.702	147.79
194.089	236.96
194.477	-87.64
194.864	-50.67
195.252	51.54
195.639	-295.65
196.027	128.56
196.414	-48.12
196.801	-328.09
197.189	1881.48
197.576	180.39
197.963	-22.21
198.351	11.54
198.738	19.42
199.125	-8.14
199.512	-4.5
199.899	3.87
200.286	24.4
200.673	-4.4
201.06	-29.96
201.447	-77.35
201.833	-4.45
202.22	21.49
202.607	-196.2
202.994	1.57
203.38	30.12
203.767	-6.28
204.154	11.85
204.54	32.63
204.927	27.23
205.313	31.8
205.699	-16.59
206.086	15.81
206.472	30.27
206.858	37.08
207.245	51.59
207.631	34.77
208.017	13.98
208.403	6.96
208.789	-20.28
209.175	-10.57
209.561	4.62
209.947	18.41
210.333	30.07
210.719	41.51
211.105	-64.34
211.491	23.31
211.876	11.37
212.262	19.41
212.648	16.55
213.034	-40.46
213.419	-3.81
213.805	26.28
214.19	23.06
214.576	34.8
214.961	22.83
215.346	6.72
215.732	27.18
216.117	10.73
216.502	3.9
216.888	5.24
217.273	0
217.658	12.32
218.043	3.86
218.428	18.24
218.813	5.69
219.198	-9.58
219.583	13.59
219.968	31.14
220.353	-2.03
220.738	12.97
221.122	19.61
221.507	19.54
221.892	3.52
222.276	7.65
222.661	7.92
223.046	5.74
223.43	2.48
223.815	4.93
224.199	7.88
224.583	9.71
224.968	23.22
225.352	10.92
225.736	13.49
226.121	7.64
226.505	4.66
226.889	7.88
227.273	7.58
227.657	13.87
228.041	6.97
228.425	7.86
228.809	5.8
229.193	5.25
229.577	6.74
229.961	7.08
230.344	8.01
230.728	8.36
231.112	7.28
231.495	7.19
231.879	7.42
232.263	6.75
232.646	6.39
233.03	8.55
233.413	6.13
233.797	7.28
234.18	5.29
234.563	8.12
234.946	8.45
235.33	6.69
235.713	7.47
236.096	6.02
236.479	6.36
236.862	5.68
237.245	8.21
237.628	6.11
238.011	7.34
238.394	8.5
238.777	7.31
239.16	7.85
239.543	6.75
239.925	6.88
240.308	5.71
240.691	6.46
241.073	7.83
241.456	6.92
241.838	5.85
242.221	7.22
242.603	7.76
242.986	6.35
243.368	6.63
243.75	6.45
244.133	6.55
244.515	7.09
244.897	6.43
245.279	7.11
245.661	5.79
246.043	6.61
246.425	6.67
246.807	5.75
247.189	6.64
247.571	6.74
247.953	5.96
248.335	6
248.717	5.96
249.098	6
249.48	5.76
249.862	6.24
250.243	6.08
250.625	6.44
251.006	6.65
251.388	6.01
251.769	6.1
252.151	5.94
252.532	7.03
252.913	6.7
253.295	6.38
253.676	6.31
254.057	5.83
254.438	6.34
254.819	5.78
255.2	6.08
255.581	5.44
255.962	5.06
256.343	5.7
256.724	5.26
257.105	7.04
257.486	4.98
257.867	4.43
258.247	4.69
258.628	5.88
259.009	5.68
259.389	6.23
259.77	5.61
260.15	6.08
260.531	5.97
260.911	5.55
261.292	5.35
261.672	5.25
262.052	5.32
262.432	5.48
262.813	5.61
263.193	5.44
263.573	5.93
263.953	5.99
264.333	6.09
264.713	5.09
265.093	4.7
265.473	5.58
265.853	5.64
266.233	4.37
266.612	5.23
266.992	5.93
267.372	5.77
267.752	5.85
268.131	4.38
268.511	4.98
268.89	4.83
269.27	5.16
269.649	5.63
270.029	5.27
270.408	5.22
270.787	4.93
271.167	5
271.546	5.32
271.925	5.83
272.304	5.89
272.683	4.66
273.062	5.17
273.441	5.24
273.82	4.81
274.199	4.95
274.578	5.21
274.957	4.64
275.336	4.85
275.715	5.14
276.093	4.41
276.472	4.64
276.851	5.03
277.229	4.72
277.608	4.78
277.986	4.31
278.365	5.29
278.743	4.35
279.122	5.18
279.5	4.51
279.878	4.09
280.257	4.6
280.635	4.49
281.013	4.93
281.391	4.95
281.769	4.9
282.147	5.06
282.525	4.8
282.903	4.23
283.281	4.6
283.659	5.09
284.037	5.42
284.415	4.54
284.792	4.99
285.17	4.45
285.548	4.77
285.925	4.99
286.303	4.73
286.68	4.9
287.058	4.71
287.435	4.74
287.813	4.44
288.19	4.82
288.567	4.59
288.945	4.65
289.322	3.84
289.699	4.73
290.076	4.79
290.453	4.66
290.83	4.59
291.207	5.35
291.584	4.68
291.961	4.7
292.338	4.5
292.715	4.41
293.092	4.79
293.469	4.52
293.845	4.56
294.222	4.76
294.599	4.76
294.975	4.64
295.352	4.94
295.728	4.45
296.105	4.6
296.481	4.99
296.858	4.52
297.234	4.86
297.61	4.67
297.986	4.72
298.363	4.5
298.739	4.55
299.115	4.28
299.491	4.33
299.867	4.26
300.243	4.7
300.619	4.5
300.995	4.74
301.371	4.57
301.746	4.35
302.122	4.74
302.498	4.89
302.874	4.42
303.249	5
303.625	4.67
304	4.74
304.376	4.58
304.751	4.89
305.127	4.46
305.502	4.86
305.878	4.23
306.253	4.48
306.628	4.85
307.003	4.46
307.378	4.36
307.754	4.44
308.129	4.66
308.504	5.05
308.879	4.47
309.254	4.51
309.629	4.89
310.003	4.52
310.378	4.57
310.753	4.75
311.128	4.57
311.502	4.26
311.877	4.02
312.252	4.22
312.626	4.39
313.001	4.54
313.375	4.31
313.75	4.94
314.124	4.79
314.498	4.88
314.873	4.22
315.247	4.86
315.621	4.44
315.995	4.89
316.369	4.64
316.743	4.5
317.117	4.45
317.491	4.26
317.865	4.69
318.239	4.28
318.613	4.81
318.987	4.81
319.361	4.56
319.734	4.69
320.108	4.21
320.482	5.1
320.855	4.47
321.229	4.99
321.602	4.97
321.976	4.93
322.349	5.08
322.723	4.54
323.096	4.89
323.469	4.83
323.843	4.96
324.216	5.08
324.589	4.85
324.962	5.43
325.335	4.98
325.708	5.07
326.081	4.94
326.454	4.4
326.827	4.84
327.2	4.88
327.573	4.37
327.945	4.63
328.318	4.96
328.691	4.27
329.063	5.11
329.436	5.12
329.809	4.72
330.181	4.03
330.553	5.21
330.926	5.16
331.298	4.64
331.671	4.71
332.043	4.79
332.415	5.02
332.787	4.56
333.159	4.92
333.532	4.7
333.904	4.7
334.276	5.2
334.648	4.41
335.02	4.42
335.391	4.37
335.763	4.47
336.135	4.98
336.507	5.45
336.879	4.27
337.25	4.46
337.622	4.68
337.993	4.36
338.365	4.41
338.736	4.85
339.108	4.3
339.479	4.82
339.851	5.14
340.222	4.56
340.593	4.92
340.964	4.79
341.336	5.2
341.707	4.44
342.078	4.66
342.449	4.79
342.82	4.83
343.191	4.8
343.562	4.74
343.933	4.7
344.303	4.85
344.674	4.83
345.045	5.01
345.416	4.8
345.786	4.9
346.157	4.84
346.527	5.19
346.898	4.58
347.268	4.5
347.639	4.63
348.009	4.85
348.38	4.9
348.75	5
349.12	4.91
349.49	4.67
349.861	5.11
350.231	4.76
350.601	5.24
350.971	4.97
351.341	5.01
351.711	5.39
352.081	5.08
352.45	4.69
352.82	5.02
353.19	4.98
353.56	4.57
353.929	4.72
354.299	4.58
354.669	5.17
355.038	4.57
355.408	4.49
355.777	5.58
356.147	4.98
356.516	5.29
356.885	5.23
357.254	5
357.624	4.99
357.993	4.96
358.362	5.18
358.731	4.91
359.1	4.73
359.469	4.79
359.838	5.02
360.207	5.16
360.576	5.1
360.945	4.65
361.314	5.35
361.682	5.01
362.051	5.25
362.42	5.23
362.788	4.85
363.157	5.17
363.525	5.2
363.894	4.92
364.262	4.98
364.631	4.64
364.999	5.21
365.367	5.03
365.735	4.84
366.104	5.1
366.472	4.72
366.84	5.1
367.208	5.4
367.576	4.88
367.944	5.12
368.312	5.08
368.68	5.04
369.048	5.19
369.416	5.27
369.783	5.15
370.151	5.26
370.519	4.99
370.886	5.37
371.254	5.02
371.621	5.19
371.989	5.34
372.356	5.21
372.724	5.28
373.091	4.88
373.458	5.35
373.826	5.23
374.193	5.01
374.56	5.43
374.927	5.4
375.294	5.26
375.661	5.39
376.028	5.15
376.395	5.64
376.762	5.56
377.129	5.09
377.496	5.26
377.863	5.17
378.229	5.43
378.596	5.07
378.963	5.25
379.329	4.88
379.696	5.23
380.062	5.46
380.429	5.13
380.795	5.56
381.161	5.33
381.528	5.4
381.894	5.21
382.26	5.23
382.626	5.34
382.993	5.39
383.359	5.44
383.725	5.3
384.091	5.27
384.457	4.99
384.823	5.53
385.188	5.55
385.554	5.47
385.92	5.33
386.286	5.22
386.651	5.52
387.017	5.56
387.383	5.25
387.748	5.4
388.114	5.52
388.479	5.4
388.845	5.32
389.21	5.46
389.575	5.3
389.94	5.19
390.306	5.23
390.671	5.3
391.036	5.49
391.401	5.31
391.766	5.49
392.131	5.27
392.496	5.39
392.861	5.3
393.226	5.42
393.591	5.26
393.956	5.44
394.32	5.48
394.685	5.32
395.05	5.09
395.414	5.29
395.779	5.39
396.143	5.45
396.508	5.29
396.872	5.56
397.236	5.37
397.601	5.6
397.965	5.36
398.329	5.44
398.694	5.36
399.058	5.58
399.422	5.3
399.786	5.51
400.15	5.28
400.514	5.68
400.878	5.61
401.242	5.49
401.605	5.68
401.969	5.38
402.333	5.65
402.697	5.33
403.06	5.29
403.424	5.7
403.787	5.39
404.151	5.44
404.514	5.21
404.878	5.29
405.241	5.54
405.604	5.17
405.968	5.43
406.331	5.45
406.694	5.46
407.057	5.51
407.42	5.39
407.783	5.19
408.146	5.36
408.509	5.45
408.872	5.57
409.235	5.52
409.598	5.25
409.961	5.55
410.323	5.34
410.686	5.37
411.049	5.61
411.411	5.7
411.774	5.36
412.136	5.44
412.499	5.56
412.861	5.52
413.223	5.87
413.586	5.36
413.948	5.18
414.31	5.52
414.672	5.33
415.035	5.44
415.397	5.55
415.759	5.42
416.121	5.44
416.483	5.71
416.845	5.42
417.206	5.41
417.568	5.42
417.93	5.47
418.292	5.42
418.653	5.38
419.015	5.42
419.377	5.42
419.738	5.44
420.1	5.41
420.461	5.4
420.822	5.39
421.184	5.46
421.545	5.56
421.906	5.28
422.267	5.34
422.629	5.35
422.99	5.32
423.351	5.34
423.712	5.38
424.073	5.42
424.434	5.47
424.795	5.41
425.155	5.16
425.516	5.19
425.877	5.24
426.238	5.3
426.598	5.3
426.959	5.27
427.32	5.42
427.68	5.48
428.041	5.49
428.401	5.4
428.761	5.48
429.122	5.56
429.482	5.61
429.842	5.63
430.202	5.48
430.563	5.41
430.923	5.47
431.283	5.43
431.643	5.47
432.003	5.46
432.363	5.56
432.722	5.38
433.082	5.33
433.442	5.46
433.802	5.45
434.161	5.42
434.521	5.52
434.881	5.44
435.24	5.46
435.6	5.4
435.959	5.48
436.319	5.45
436.678	5.47
437.037	5.45
437.396	5.42
437.756	5.53
438.115	5.41
438.474	5.28
438.833	5.43
439.192	5.59
439.551	5.53
439.91	5.33
440.269	5.4
440.628	5.38
440.987	5.34
441.345	5.38
441.704	5.39
442.063	5.33
442.421	5.42
442.78	5.32
443.138	5.39
443.497	5.39
443.855	5.36
444.214	5.47
444.572	5.58
444.93	5.51
445.288	5.4
445.647	5.49
446.005	5.43
446.363	5.2
446.721	5.24
447.079	5.47
447.437	5.28
447.795	5.41
448.153	5.42
448.51	5.38
448.868	5.32
449.226	5.4
449.584	5.27
449.941	5.27
450.299	5.4
450.656	5.45
451.014	5.4
451.371	5.38
451.729	5.46
452.086	5.41
452.443	5.65
452.801	5.52
453.158	5.5
453.515	5.45
453.872	5.46
454.229	5.55
454.586	5.36
454.943	5.27
455.3	5.43
455.657	5.45
456.014	5.53
456.371	5.42
456.727	5.48
457.084	5.37
457.441	5.45
457.797	5.52
458.154	5.42
458.51	5.42
458.867	5.42
459.223	5.45
459.58	5.62
459.936	5.2
460.292	5.43
460.648	5.48
461.005	5.39
461.361	5.32
461.717	5.42
462.073	5.36
462.429	5.21
462.785	5.36
463.141	5.3
463.496	5.33
463.852	5.68
464.208	5.51
464.564	5.46
464.919	5.53
465.275	5.54
465.631	5.33
465.986	5.35
466.342	5.3
466.697	5.37
467.052	5.52
467.408	5.36
467.763	5.37
468.118	5.3
468.473	5.44
468.829	5.46
469.184	5.33
469.539	5.36
469.894	5.42
470.249	5.35
470.603	5.43
470.958	5.41
471.313	5.61
471.668	5.47
472.023	5.31
472.377	5.4
472.732	5.46
473.086	5.45
473.441	5.55
473.795	5.42
474.15	5.4
474.504	5.25
474.859	5.43
475.213	5.31
475.567	5.39
475.921	5.38
476.275	5.42
476.63	5.41
476.984	5.43
477.338	5.35
477.692	5.44
478.045	5.39
478.399	5.36
478.753	5.35
479.107	5.43
479.461	5.52
479.814	5.41
480.168	5.31
480.521	5.33
480.875	5.41
481.228	5.54
481.582	5.3
481.935	5.3
482.289	5.49
482.642	5.42
482.995	5.36
483.348	5.2
483.701	5.47
484.055	5.34
484.408	5.3
484.761	5.17
485.114	5.09
485.466	4.96
485.819	5.01
486.172	4.97
486.525	5.1
486.878	5.13
487.23	5.15
487.583	5.22
487.936	5.32
488.288	5.16
488.641	5.17
488.993	5.1
489.345	5.13
489.698	5.09
490.05	5.15
490.402	5.14
490.754	5.24
491.107	5.16
491.459	5.31
491.811	5.35
492.163	5.23
492.515	5.25
492.866	5.16
493.218	5.1
493.57	5.1
493.922	5.06
494.274	5.1
494.625	5.27
494.977	5.46
495.328	5.28
495.68	5.29
496.031	5.42
496.383	5.43
496.734	5.42
497.086	5.31
497.437	5.42
497.788	5.31
498.139	5.16
498.49	5.29
498.842	5.36
499.193	5.34
499.544	5.38
499.894	5.26
500.245	5.28
500.596	5.38
500.947	5.42
501.298	5.31
501.648	5.37
501.999	5.38
502.35	5.33
502.7	5.38
503.051	5.43
503.401	5.33
503.752	5.55
504.102	5.4
504.452	5.41
504.803	5.4
505.153	5.46
505.503	5.53
505.853	5.41
506.203	5.39
506.553	5.32
506.903	5.25
507.253	5.37
507.603	5.33
507.953	5.25
508.303	5.33
508.652	5.39
509.002	5.32
509.352	5.36
509.701	5.38
510.051	5.26
510.4	5.31
510.75	5.27
511.099	5.31
511.449	5.38
511.798	5.22
512.147	5.32
512.496	5.52
512.846	5.45
513.195	5.23
513.544	5.4
513.893	5.26
514.242	5.27
514.591	5.33
514.939	5.4
515.288	5.27
515.637	5.36
515.986	5.27
516.334	5.3
516.683	5.24
517.032	5.36
517.38	5.32
517.729	5.43
518.077	5.38
518.426	5.35
518.774	5.25
519.122	5.21
519.47	5.25
519.819	5.16
520.167	5.17
520.515	5.08
520.863	5.29
521.211	5.24
521.559	5.32
521.907	5.2
522.255	5.25
522.602	5.34
522.95	5.33
523.298	5.32
523.645	5.37
523.993	5.4
524.341	5.4
524.688	5.22
525.036	5.38
525.383	5.36
525.73	5.24
526.078	5.28
526.425	5.19
526.772	5.24
527.119	5.21
527.466	5.24
527.814	5.17
528.161	5.27
528.508	5.32
528.854	5.2
529.201	5.28
529.548	5.17
529.895	5.08
530.242	4.93
530.588	5
530.935	5.04
531.282	5.1
531.628	5.16
531.975	5.13
532.321	5.12
532.667	5.17
533.014	5.21
533.36	5.32
533.706	5.13
534.052	5.22
534.399	5.2
534.745	5.14
535.091	5.05
535.437	5.15
535.783	5.08
536.129	5.16
536.474	5.23
536.82	5.17
537.166	5.3
537.512	5.22
537.857	5.23
538.203	5.13
538.549	5.16
538.894	5.25
539.239	5.24
539.585	5.24
539.93	5.28
540.276	5.27
540.621	5.27
540.966	5.29
541.311	5.34
541.656	5.37
542.001	5.24
542.346	5.12
542.691	5.04
543.036	4.99
543.381	4.94
543.726	5.09
544.071	5.02
544.415	5.06
544.76	5.12
545.105	5.18
545.449	5.16
545.794	5.27
546.138	5.08
546.483	5.28
546.827	5.29
547.171	5.26
547.516	5.15
547.86	5.24
548.204	5.2
548.548	5.25
548.892	5.15
549.236	5.28
549.58	5.24
549.924	5.24
550.268	5.27
550.612	5.13
550.956	5.31
551.3	5.42
551.643	5.44
551.987	5.37
552.33	5.31
552.674	5.39
553.017	5.35
553.361	5.61
553.704	5.3
554.048	5.18
554.391	5.3
554.734	5.23
555.077	5.23
555.42	5.21
555.764	5.26
556.107	5.39
556.45	5.1
556.793	5.28
557.135	5.31
557.478	5.34
557.821	5.23
558.164	5.38
558.507	5.33
558.849	5.25
559.192	5.34
559.534	5.37
559.877	5.24
560.219	5.42
560.562	5.3
560.904	5.33
561.246	5.24
561.589	5.19
561.931	5.17
562.273	5.26
562.615	5.24
562.957	5.24
563.299	5.33
563.641	5.37
563.983	5.4
564.325	5.2
564.667	5.39
565.008	5.15
565.35	5.26
565.692	5.31
566.033	5.25
566.375	5.13
566.716	5.4
567.058	5.32
567.399	5.39
567.741	5.37
568.082	5.22
568.423	5.14
568.764	5.26
569.105	5.14
569.447	5.25
569.788	5.33
570.129	5.2
570.47	5.21
570.811	5.33
571.151	5.26
571.492	5.32
571.833	5.25
572.174	5.21
572.514	5.28
572.855	5.23
573.195	5.3
573.536	5.13
573.876	5.09
574.217	5.25
574.557	5.11
574.898	5.18
575.238	5.24
575.578	5.18
575.918	5.13
576.258	5.34
576.598	5.14
576.938	5.33
577.278	5.2
577.618	5.15
577.958	5.2
578.298	5.39
578.638	5.16
578.977	5.2
579.317	5.16
579.657	5.22
579.996	5.17
580.336	5.24
580.675	5.03
581.014	5.28
581.354	5.1
581.693	5.34
582.032	5.02
582.372	5.19
582.711	5.06
583.05	5.32
583.389	5.35
583.728	5.08
584.067	5.36
584.406	5.34
584.745	5.39
585.083	5.13
585.422	5.43
585.761	5.63
586.1	5.03
586.438	5.37
586.777	5.16
587.115	5.21
587.454	5.34
587.792	5.01
588.13	5.4
588.469	5.21
588.807	5
589.145	5.23
589.483	5.2
589.821	5.27
590.159	5.33
590.497	5.49
590.835	5.21
591.173	4.98
591.511	5.22
591.849	5.14
592.187	5.11
592.524	5.21
592.862	5.19
593.2	5.07
593.537	5.04
593.875	5.45
594.212	5.09
594.55	5.3
594.887	5.56
595.224	5.07
595.561	5.34
595.899	5.19
596.236	5.21
596.573	5.02
596.91	5.26
597.247	5.15
597.584	5.35
597.921	5.15
598.258	5.19
598.594	5.2
598.931	5.06
599.268	4.99
599.604	5.1
599.941	5.17
600.277	5.17
600.614	5.33
600.95	5.25
601.287	5.32
601.623	5.4
601.959	5.07
602.296	5.27
602.632	5.08
602.968	5.34
603.304	5.06
603.64	5.35
603.976	5.02
604.312	5.13
604.648	5.21
604.984	5.26
605.319	5.17
605.655	5.05
605.991	5.23
606.326	4.99
606.662	5.14
606.998	4.99
607.333	5.15
607.668	5.11
608.004	5.33
608.339	5.28
608.674	5.06
609.01	5.14
609.345	5.33
609.68	5.39
610.015	5.02
610.35	5.21
610.685	5.19
611.02	5.26
611.355	5
611.689	5.01
612.024	5.06
612.359	5.34
612.694	5.17
613.028	5.21
613.363	5.11
613.697	5.21
614.032	5.19
614.366	5.4
614.7	5.14
615.035	5.31
615.369	5.19
615.703	5.43
616.037	5.44
616.371	5.22
616.705	5.08
617.039	5
617.373	5.45
617.707	4.92
618.041	5.06
618.375	4.93
618.709	4.99
619.042	5.23
619.376	4.98
619.71	5.26
620.043	5.14
620.377	5.16
620.71	4.9
621.043	4.98
621.377	4.86
621.71	5.25
622.043	5.48
622.376	5.43
622.709	5.56
623.043	5.29
623.376	5.57
623.709	5.27
624.041	4.86
624.374	4.89
624.707	5
625.04	5.07
625.373	5.6
625.705	5.56
626.038	5.21
626.37	5.38
626.703	5.28
627.035	5
627.368	5.2
627.7	4.96
628.032	4.8
628.365	5.03
628.697	5.13
629.029	5.09
629.361	5.07
629.693	4.95
630.025	5
630.357	5.18
630.689	4.93
631.021	5.24
631.353	5.44
631.684	5.29
632.016	5.12
632.348	5.17
632.679	4.87
633.011	5.41
633.342	5.19
633.674	5.24
634.005	5.2
634.336	5.51
634.668	5.26
634.999	5.26
635.33	4.84
635.661	5.2
635.992	5.04
636.323	4.84
636.654	5.21
636.985	5.14
637.316	5.33
637.647	4.89
637.977	5.35
638.308	5.28
638.639	5.46
638.969	5.21
639.3	5.11
639.63	5.03
639.961	5.27
640.291	4.91
640.622	4.96
640.952	5.3
641.282	5.2
641.612	4.8
641.943	5.07
642.273	5.52
642.603	5.47
642.933	5.01
643.263	4.85
643.592	5.08
643.922	5.41
644.252	5.36
644.582	4.72
644.911	5.28
645.241	5.07
645.571	5.49
645.9	5.39
646.23	5
646.559	5.62
646.888	5.06
647.218	5.21
647.547	5.06
647.876	5.32
648.205	5.28
648.534	5.77
648.863	5.2
649.192	5.77
649.521	5.33
649.85	4.64
650.179	5.22
650.508	5.45
650.837	5.34
651.165	5.15
651.494	5.16
651.822	4.82
652.151	5.72
652.479	5.2
652.808	5.32
653.136	5.5
653.465	5.26
653.793	5.4
654.121	5.27
654.449	5.24
654.777	5.31
655.105	5.55
655.433	5.92
655.761	5.57
656.089	5.41
656.417	5.8
656.745	5.44
657.073	4.56
657.4	5.04
657.728	4.59
658.056	5.72
658.383	5.25
658.711	5.35
659.038	5.39
659.365	5.15
659.693	5.19
660.02	4.68
660.347	5.35
660.674	5.44
661.001	5.45
661.329	5.06
661.656	5.19
661.982	5.23
662.309	5.39
662.636	5.01
662.963	5.28
663.29	5.67
663.616	5
663.943	5.57
664.27	6.05
664.596	5.5
664.923	5.96
665.249	4.83
665.576	5.35
665.902	5.31
666.228	5.92
666.554	4.88
666.881	4.77
667.207	5.36
667.533	5.31
667.859	5.55
668.185	5.53
668.511	5.71
668.837	5.14
669.162	6.05
669.488	5.07
669.814	5.61
670.139	5
670.465	4.63
670.791	5.38
671.116	5.58
671.442	5.04
671.767	5.23
672.092	6.06
672.418	5.55
672.743	5.62
673.068	4.71
673.393	5.67
673.718	5.72
674.043	5.37
674.368	4.47
674.693	5.49
675.018	4.71
675.343	5.64
675.667	5.92
675.992	5.84
676.317	5.02
676.641	5.16
676.966	5.79
677.29	5.37
677.615	5.64
677.939	6.08
678.264	6.07
678.588	5.22
678.912	6.12
679.236	5.43
679.56	5.71
679.885	5.97
680.209	5.3
680.532	5.75
680.856	5.12
681.18	5.11
681.504	5.25
681.828	5.44
682.152	4.74
682.475	5.25
682.799	5.36
683.122	5.49
683.446	5.53
683.769	6.06
684.093	5.39
684.416	5.56
684.739	5.48
685.062	5.4
685.386	5.77
685.709	6.46
686.032	5.49
686.355	4.83
686.678	5.9
687.001	5.31
687.324	5.34
687.646	6.15
687.969	5.55
688.292	5.6
688.614	5.22
688.937	5.54
689.26	5.71
689.582	5.25
689.904	5.31
690.227	5.29
690.549	6.29
690.871	5.69
691.194	5.52
691.516	5.4
691.838	4.95
692.16	5.68
692.482	5.16
692.804	5.81
693.126	5.64
693.448	5.46
