Data from 447_crown_Reflection__2__07.txt Node

Date: Tue Dec 12 18:13:24 CST 2023
User: ToomeyLab
Spectrometer: FLMS14357
Trigger mode: 0
Integration Time (sec): 1.000000E-2
Scans to average: 100
Electric dark correction enabled: true
Nonlinearity correction enabled: false
Boxcar width: 0
XAxis mode: Wavelengths
Number of Pixels in Spectrum: 2048
>>>>>Begin Spectral Data<<<<<
189.047	65.83
189.435	65.83
189.823	65.83
190.211	103.84
190.599	871.84
190.987	114.92
191.375	70.27
191.763	-57.31
192.151	118.86
192.538	622.33
192.926	13.33
193.314	46.32
193.702	219.81
194.089	-118.99
194.477	-193.41
194.864	252.21
195.252	102.48
195.639	127.95
196.027	-38.14
196.414	108.77
196.801	-195.51
197.189	-7000
197.576	-262.75
197.963	93.26
198.351	23.48
198.738	14.25
199.125	26.67
199.512	-12.01
199.899	15.16
200.286	-14.7
200.673	5.25
201.06	39.12
201.447	-29.78
201.833	-39.81
202.22	27.54
202.607	-89.23
202.994	25.58
203.38	-33.51
203.767	12.61
204.154	29.53
204.54	34.41
204.927	22.94
205.313	17.68
205.699	7.32
206.086	14.42
206.472	46.32
206.858	17.72
207.245	23.72
207.631	7.04
208.017	22.84
208.403	17.48
208.789	11.48
209.175	-17.77
209.561	-22.9
209.947	2.53
210.333	2.15
210.719	7.87
211.105	-34.67
211.491	50.36
211.876	39.03
212.262	17.86
212.648	4.48
213.034	-7.28
213.419	14.72
213.805	23.76
214.19	24.55
214.576	26.66
214.961	21.98
215.346	6.4
215.732	23.2
216.117	15.1
216.502	3.84
216.888	9.11
217.273	-10.81
217.658	-3.61
218.043	3.69
218.428	3.32
218.813	0.82
219.198	-7.67
219.583	16.81
219.968	13.9
220.353	26.11
220.738	10.37
221.122	16.2
221.507	8.7
221.892	10.01
222.276	14.57
222.661	11.17
223.046	-0.94
223.43	1.07
223.815	7.52
224.199	7.14
224.583	0.22
224.968	4.54
225.352	1.16
225.736	10.16
226.121	0.75
226.505	4.87
226.889	4.31
227.273	1.98
227.657	5.74
228.041	4.59
228.425	2.15
228.809	1.61
229.193	2.27
229.577	4.75
229.961	2.21
230.344	2.49
230.728	2.93
231.112	2.27
231.495	2.64
231.879	2.57
232.263	1.86
232.646	2.24
233.03	3.06
233.413	2.17
233.797	1.93
234.18	0.07
234.563	2.8
234.946	3.87
235.33	3.56
235.713	2.16
236.096	1.33
236.479	2.82
236.862	2.09
237.245	2.2
237.628	1.94
238.011	3.31
238.394	2.74
238.777	3.64
239.16	3.33
239.543	1.38
239.925	5.03
240.308	4.83
240.691	2.64
241.073	4.05
241.456	2.53
241.838	2.19
242.221	2.57
242.603	2.99
242.986	1.9
243.368	2.61
243.75	2.18
244.133	1.73
244.515	2.15
244.897	2.53
245.279	2.54
245.661	1.84
246.043	0.83
246.425	3.26
246.807	2.77
247.189	2.48
247.571	2.64
247.953	1.92
248.335	2.01
248.717	2.05
249.098	2.01
249.48	1.79
249.862	1.83
250.243	1.7
250.625	2.33
251.006	1.91
251.388	1.94
251.769	2.47
252.151	2.18
252.532	1.62
252.913	2.73
253.295	3.21
253.676	1.27
254.057	1.87
254.438	2.31
254.819	1.93
255.2	1.52
255.581	2.38
255.962	2.03
256.343	2.25
256.724	2.61
257.105	2.57
257.486	1.21
257.867	2.42
258.247	1.7
258.628	2.11
259.009	1.98
259.389	2.64
259.77	2.34
260.15	1.88
260.531	2.65
260.911	1.98
261.292	1.83
261.672	1.7
262.052	1.85
262.432	1.89
262.813	2.22
263.193	1.65
263.573	1.93
263.953	2.7
264.333	2.92
264.713	2.46
265.093	1.56
265.473	2.87
265.853	1.57
266.233	1.77
266.612	1.26
266.992	2.1
267.372	2.98
267.752	2.47
268.131	1.31
268.511	1.74
268.89	1.47
269.27	1.8
269.649	2
270.029	2.32
270.408	1.48
270.787	1.26
271.167	1.97
271.546	2.16
271.925	2.24
272.304	2.1
272.683	1.29
273.062	2.21
273.441	1.96
273.82	1.83
274.199	1.85
274.578	1.46
274.957	1.72
275.336	2.06
275.715	2.15
276.093	1.49
276.472	1.99
276.851	2.36
277.229	1.59
277.608	2
277.986	1.84
278.365	2.22
278.743	2
279.122	2.32
279.5	1.83
279.878	1.74
280.257	1.53
280.635	1.39
281.013	0.99
281.391	1.88
281.769	1.75
282.147	1.41
282.525	1.74
282.903	1.47
283.281	1.67
283.659	2.12
284.037	1.94
284.415	1.88
284.792	1.81
285.17	1.79
285.548	2.07
285.925	1.95
286.303	1.61
286.68	1.87
287.058	1.78
287.435	2.05
287.813	1.74
288.19	1.65
288.567	1.78
288.945	1.82
289.322	1.34
289.699	1.57
290.076	2.03
290.453	1.78
290.83	1.67
291.207	2.09
291.584	1.48
291.961	2.1
292.338	1.79
292.715	1.78
293.092	1.8
293.469	1.61
293.845	2.24
294.222	1.79
294.599	2.12
294.975	1.66
295.352	1.82
295.728	1.97
296.105	2.19
296.481	2.6
296.858	2.05
297.234	2.26
297.61	1.98
297.986	2
298.363	1.99
298.739	1.65
299.115	1.69
299.491	1.61
299.867	1.55
300.243	1.58
300.619	1.97
300.995	2.14
301.371	2.09
301.746	1.93
302.122	2.74
302.498	2.11
302.874	2.27
303.249	2.31
303.625	1.73
304	2.04
304.376	2.15
304.751	2.6
305.127	2.11
305.502	2.36
305.878	2.12
306.253	2.43
306.628	1.9
307.003	2.12
307.378	2.1
307.754	2.1
308.129	1.77
308.504	2.72
308.879	2.01
309.254	2.1
309.629	1.99
310.003	2.55
310.378	2.01
310.753	2.77
311.128	2.47
311.502	1.73
311.877	1.95
312.252	1.56
312.626	1.86
313.001	1.99
313.375	1.86
313.75	2.26
314.124	2.28
314.498	2.17
314.873	2.24
315.247	1.87
315.621	2.03
315.995	2.26
316.369	2.39
316.743	1.76
317.117	1.87
317.491	2.42
317.865	1.87
318.239	1.67
318.613	2.19
318.987	2.26
319.361	1.82
319.734	2.11
320.108	2.31
320.482	1.71
320.855	1.81
321.229	1.74
321.602	2.75
321.976	2.31
322.349	2.68
322.723	1.97
323.096	1.85
323.469	2.91
323.843	2.77
324.216	2.54
324.589	2.21
324.962	2.37
325.335	3.01
325.708	1.92
326.081	2.09
326.454	1.96
326.827	2.81
327.2	2.22
327.573	2.12
327.945	2.63
328.318	2.54
328.691	1.88
329.063	1.94
329.436	2.42
329.809	2.4
330.181	1.65
330.553	1.9
330.926	2.19
331.298	2.34
331.671	2.65
332.043	1.94
332.415	2.31
332.787	2.12
333.159	2.44
333.532	2.43
333.904	1.95
334.276	2.37
334.648	2.08
335.02	1.82
335.391	2.01
335.763	1.9
336.135	2.21
336.507	2.4
336.879	2.06
337.25	2.12
337.622	2.12
337.993	1.73
338.365	1.8
338.736	2.3
339.108	2.11
339.479	2.55
339.851	1.86
340.222	1.71
340.593	2.48
340.964	2.02
341.336	2.21
341.707	2.47
342.078	1.78
342.449	1.47
342.82	2.4
343.191	2.12
343.562	2.23
343.933	2.49
344.303	2.5
344.674	2.34
345.045	1.98
345.416	2.4
345.786	2.19
346.157	2.1
346.527	2.65
346.898	2.1
347.268	2.29
347.639	2.16
348.009	2.26
348.38	2.15
348.75	2.38
349.12	2.25
349.49	2.18
349.861	2.33
350.231	2.26
350.601	2.88
350.971	1.98
351.341	2.01
351.711	2.44
352.081	2.08
352.45	2.13
352.82	2.13
353.19	2.49
353.56	1.89
353.929	2.11
354.299	1.78
354.669	1.99
355.038	1.51
355.408	1.93
355.777	2.32
356.147	1.77
356.516	2.52
356.885	2.31
357.254	2.01
357.624	2.02
357.993	1.75
358.362	2.33
358.731	2.43
359.1	2.09
359.469	2.04
359.838	2
360.207	2.05
360.576	2.23
360.945	2.13
361.314	2.1
361.682	2.15
362.051	2.34
362.42	2.28
362.788	1.95
363.157	2.53
363.525	2.33
363.894	1.95
364.262	2.21
364.631	2.03
364.999	2.13
365.367	2.27
365.735	1.87
366.104	2.13
366.472	1.9
366.84	2.25
367.208	2.14
367.576	2.14
367.944	2.39
368.312	1.99
368.68	2.2
369.048	2.2
369.416	2
369.783	2.01
370.151	2.4
370.519	1.94
370.886	2.34
371.254	1.82
371.621	2.34
371.989	2.1
372.356	2.22
372.724	1.96
373.091	2.07
373.458	2.1
373.826	2.27
374.193	2.13
374.56	2.39
374.927	2.18
375.294	2.26
375.661	2.35
376.028	2.54
376.395	2.57
376.762	2.59
377.129	2.35
377.496	2.56
377.863	1.87
378.229	2.15
378.596	2.3
378.963	2.35
379.329	2.08
379.696	1.79
380.062	2.43
380.429	2.44
380.795	2.43
381.161	2.08
381.528	2.5
381.894	2.31
382.26	2.1
382.626	2.28
382.993	2.38
383.359	2.12
383.725	2.13
384.091	2.16
384.457	2.34
384.823	2.48
385.188	2.19
385.554	2.33
385.92	2.22
386.286	2.31
386.651	2.4
387.017	2.41
387.383	2.39
387.748	2.23
388.114	2.24
388.479	2.27
388.845	2.3
389.21	2.43
389.575	2.16
389.94	2.31
390.306	2.43
390.671	2.28
391.036	2.38
391.401	2.22
391.766	2.38
392.131	2.42
392.496	2.07
392.861	2.26
393.226	2.53
393.591	2.17
393.956	2.22
394.32	2.43
394.685	2.37
395.05	2.24
395.414	2.16
395.779	2.35
396.143	2.32
396.508	2.29
396.872	2.29
397.236	2.11
397.601	2.29
397.965	2.25
398.329	2.34
398.694	2.12
399.058	2.23
399.422	2.09
399.786	2.49
400.15	2.15
400.514	2.4
400.878	2.29
401.242	2.31
401.605	2.44
401.969	2.37
402.333	2.2
402.697	2.34
403.06	2.07
403.424	2.19
403.787	2.12
404.151	2.34
404.514	2.11
404.878	2.46
405.241	2.55
405.604	2.01
405.968	2.22
406.331	2.43
406.694	2.41
407.057	2.3
407.42	2.31
407.783	2.31
408.146	2.38
408.509	2.07
408.872	2.33
409.235	2.46
409.598	2.17
409.961	2.35
410.323	2.31
410.686	2.14
411.049	2.26
411.411	2.55
411.774	2.32
412.136	2.42
412.499	2.33
412.861	2.41
413.223	2.64
413.586	2.35
413.948	2.28
414.31	2.48
414.672	2.28
415.035	2.21
415.397	2.38
415.759	2.3
416.121	2.41
416.483	2.31
416.845	2.26
417.206	2.43
417.568	2.09
417.93	2.39
418.292	2.18
418.653	2.34
419.015	2.21
419.377	2.28
419.738	2.27
420.1	2.2
420.461	2.3
420.822	2.29
421.184	2.16
421.545	2.47
421.906	2.19
422.267	2.19
422.629	2.21
422.99	2.16
423.351	2.21
423.712	2.25
424.073	2.25
424.434	2.33
424.795	2.34
425.155	2.07
425.516	2.11
425.877	2.19
426.238	2.23
426.598	2.15
426.959	2.2
427.32	2.18
427.68	2.27
428.041	2.24
428.401	2.22
428.761	2.24
429.122	2.33
429.482	2.52
429.842	2.26
430.202	2.38
430.563	2.29
430.923	2.41
431.283	2.27
431.643	2.37
432.003	2.23
432.363	2.39
432.722	2.3
433.082	2.41
433.442	2.51
433.802	2.33
434.161	2.12
434.521	2.33
434.881	2.4
435.24	2.39
435.6	2.33
435.959	2.44
436.319	2.42
436.678	2.5
437.037	2.29
437.396	2.11
437.756	2.39
438.115	2.27
438.474	2.46
438.833	2.35
439.192	2.48
439.551	2.25
439.91	2.2
440.269	2.34
440.628	2.21
440.987	2.2
441.345	2.28
441.704	2.26
442.063	2.25
442.421	2.26
442.78	2.26
443.138	2.25
443.497	2.29
443.855	2.27
444.214	2.31
444.572	2.33
444.93	2.37
445.288	2.17
445.647	2.38
446.005	2.23
446.363	2.09
446.721	2.23
447.079	2.37
447.437	2.13
447.795	2.27
448.153	2.12
448.51	2.31
448.868	2.35
449.226	2.39
449.584	2.22
449.941	2.32
450.299	2.28
450.656	2.21
451.014	2.17
451.371	2.38
451.729	2.42
452.086	2.29
452.443	2.53
452.801	2.32
453.158	2.37
453.515	2.41
453.872	2.35
454.229	2.38
454.586	2.25
454.943	2.25
455.3	2.28
455.657	2.3
456.014	2.43
456.371	2.4
456.727	2.18
457.084	2.21
457.441	2.36
457.797	2.28
458.154	2.38
458.51	2.24
458.867	2.51
459.223	2.5
459.58	2.34
459.936	2.21
460.292	2.34
460.648	2.37
461.005	2.31
461.361	2.25
461.717	2.27
462.073	2.27
462.429	2.31
462.785	2.27
463.141	2.35
463.496	2.28
463.852	2.6
464.208	2.34
464.564	2.45
464.919	2.62
465.275	2.41
465.631	2.44
465.986	2.36
466.342	2.29
466.697	2.36
467.052	2.63
467.408	2.39
467.763	2.5
468.118	2.39
468.473	2.52
468.829	2.41
469.184	2.25
469.539	2.38
469.894	2.38
470.249	2.46
470.603	2.49
470.958	2.46
471.313	2.59
471.668	2.44
472.023	2.41
472.377	2.27
472.732	2.48
473.086	2.42
473.441	2.56
473.795	2.43
474.15	2.41
474.504	2.35
474.859	2.36
475.213	2.3
475.567	2.35
475.921	2.45
476.275	2.18
476.63	2.32
476.984	2.47
477.338	2.42
477.692	2.36
478.045	2.5
478.399	2.35
478.753	2.36
479.107	2.38
479.461	2.45
479.814	2.4
480.168	2.2
480.521	2.21
480.875	2.45
481.228	2.59
481.582	2.31
481.935	2.37
482.289	2.41
482.642	2.59
482.995	2.28
483.348	2.35
483.701	2.42
484.055	2.31
484.408	2.3
484.761	2.3
485.114	2.23
485.466	2.15
485.819	2.15
486.172	2.16
486.525	2.21
486.878	2.24
487.23	2.23
487.583	2.25
487.936	2.34
488.288	2.24
488.641	2.21
488.993	2.2
489.345	2.26
489.698	2.18
490.05	2.22
490.402	2.26
490.754	2.23
491.107	2.26
491.459	2.24
491.811	2.34
492.163	2.34
492.515	2.31
492.866	2.23
493.218	2.23
493.57	2.2
493.922	2.2
494.274	2.25
494.625	2.35
494.977	2.38
495.328	2.42
495.68	2.34
496.031	2.49
496.383	2.3
496.734	2.45
497.086	2.39
497.437	2.38
497.788	2.43
498.139	2.29
498.49	2.37
498.842	2.28
499.193	2.4
499.544	2.43
499.894	2.31
500.245	2.48
500.596	2.47
500.947	2.37
501.298	2.43
501.648	2.52
501.999	2.4
502.35	2.29
502.7	2.41
503.051	2.38
503.401	2.36
503.752	2.6
504.102	2.41
504.452	2.47
504.803	2.46
505.153	2.4
505.503	2.38
505.853	2.54
506.203	2.36
506.553	2.36
506.903	2.47
507.253	2.42
507.603	2.49
507.953	2.35
508.303	2.43
508.652	2.36
509.002	2.44
509.352	2.36
509.701	2.43
510.051	2.45
510.4	2.29
510.75	2.36
511.099	2.34
511.449	2.4
511.798	2.34
512.147	2.39
512.496	2.47
512.846	2.5
513.195	2.4
513.544	2.37
513.893	2.48
514.242	2.36
514.591	2.41
514.939	2.37
515.288	2.38
515.637	2.27
515.986	2.43
516.334	2.44
516.683	2.34
517.032	2.6
517.38	2.33
517.729	2.44
518.077	2.38
518.426	2.52
518.774	2.44
519.122	2.43
519.47	2.4
519.819	2.39
520.167	2.27
520.515	2.27
520.863	2.3
521.211	2.35
521.559	2.51
521.907	2.43
522.255	2.44
522.602	2.48
522.95	2.4
523.298	2.48
523.645	2.55
523.993	2.57
524.341	2.51
524.688	2.37
525.036	2.45
525.383	2.35
525.73	2.44
526.078	2.44
526.425	2.4
526.772	2.41
527.119	2.33
527.466	2.42
527.814	2.27
528.161	2.39
528.508	2.43
528.854	2.28
529.201	2.39
529.548	2.36
529.895	2.28
530.242	2.16
530.588	2.25
530.935	2.3
531.282	2.3
531.628	2.36
531.975	2.3
532.321	2.33
532.667	2.31
533.014	2.36
533.36	2.36
533.706	2.38
534.052	2.47
534.399	2.38
534.745	2.38
535.091	2.26
535.437	2.36
535.783	2.3
536.129	2.36
536.474	2.37
536.82	2.37
537.166	2.52
537.512	2.38
537.857	2.47
538.203	2.34
538.549	2.4
538.894	2.41
539.239	2.42
539.585	2.39
539.93	2.46
540.276	2.42
540.621	2.48
540.966	2.38
541.311	2.43
541.656	2.43
542.001	2.44
542.346	2.37
542.691	2.28
543.036	2.26
543.381	2.24
543.726	2.37
544.071	2.36
544.415	2.3
544.76	2.43
545.105	2.37
545.449	2.38
545.794	2.47
546.138	2.28
546.483	2.56
546.827	2.47
547.171	2.43
547.516	2.43
547.86	2.46
548.204	2.46
548.548	2.41
548.892	2.42
549.236	2.5
549.58	2.52
549.924	2.5
550.268	2.55
550.612	2.4
550.956	2.39
551.3	2.57
551.643	2.57
551.987	2.57
552.33	2.47
552.674	2.67
553.017	2.56
553.361	2.63
553.704	2.38
554.048	2.54
554.391	2.53
554.734	2.44
555.077	2.54
555.42	2.47
555.764	2.61
556.107	2.62
556.45	2.43
556.793	2.36
557.135	2.46
557.478	2.48
557.821	2.52
558.164	2.56
558.507	2.67
558.849	2.52
559.192	2.43
559.534	2.58
559.877	2.57
560.219	2.57
560.562	2.56
560.904	2.7
561.246	2.58
561.589	2.57
561.931	2.64
562.273	2.41
562.615	2.51
562.957	2.43
563.299	2.48
563.641	2.59
563.983	2.49
564.325	2.58
564.667	2.45
565.008	2.47
565.35	2.48
565.692	2.49
566.033	2.74
566.375	2.59
566.716	2.44
567.058	2.61
567.399	2.61
567.741	2.47
568.082	2.47
568.423	2.56
568.764	2.55
569.105	2.52
569.447	2.57
569.788	2.64
570.129	2.56
570.47	2.61
570.811	2.59
571.151	2.48
571.492	2.63
571.833	2.7
572.174	2.59
572.514	2.61
572.855	2.64
573.195	2.46
573.536	2.51
573.876	2.62
574.217	2.59
574.557	2.48
574.898	2.62
575.238	2.54
575.578	2.51
575.918	2.55
576.258	2.63
576.598	2.55
576.938	2.45
577.278	2.66
577.618	2.65
577.958	2.53
578.298	2.63
578.638	2.53
578.977	2.54
579.317	2.71
579.657	2.53
579.996	2.51
580.336	2.56
580.675	2.5
581.014	2.54
581.354	2.53
581.693	2.49
582.032	2.36
582.372	2.76
582.711	2.7
583.05	2.68
583.389	2.7
583.728	2.75
584.067	2.75
584.406	2.82
584.745	2.66
585.083	2.39
585.422	2.79
585.761	2.7
586.1	2.52
586.438	2.6
586.777	2.69
587.115	2.67
587.454	2.59
587.792	2.39
588.13	2.83
588.469	2.6
588.807	2.74
589.145	2.59
589.483	2.71
589.821	2.84
590.159	2.55
590.497	2.68
590.835	2.59
591.173	2.53
591.511	2.75
591.849	2.61
592.187	2.57
592.524	2.52
592.862	2.69
593.2	2.52
593.537	2.36
593.875	2.86
594.212	2.76
594.55	2.73
594.887	3.01
595.224	2.9
595.561	2.79
595.899	2.57
596.236	2.75
596.573	2.74
596.91	2.69
597.247	2.73
597.584	2.72
597.921	2.86
598.258	2.58
598.594	2.88
598.931	2.69
599.268	2.57
599.604	2.56
599.941	2.71
600.277	2.73
600.614	2.88
600.95	2.82
601.287	2.61
601.623	2.7
601.959	2.46
602.296	3.04
602.632	2.51
602.968	2.72
603.304	2.66
603.64	3.01
603.976	2.62
604.312	2.73
604.648	2.61
604.984	2.74
605.319	2.65
605.655	2.57
605.991	2.67
606.326	2.43
606.662	2.69
606.998	2.57
607.333	2.74
607.668	2.6
608.004	2.59
608.339	2.78
608.674	2.62
609.01	2.9
609.345	2.89
609.68	2.56
610.015	2.41
610.35	2.53
610.685	2.66
611.02	2.76
611.355	2.71
611.689	2.6
612.024	2.78
612.359	2.7
612.694	2.56
613.028	2.63
613.363	2.72
613.697	2.79
614.032	2.76
614.366	2.81
614.7	2.65
615.035	2.76
615.369	2.75
615.703	2.58
616.037	2.79
616.371	2.69
616.705	2.92
617.039	2.82
617.373	2.72
617.707	2.75
618.041	2.85
618.375	2.69
618.709	2.78
619.042	2.52
619.376	2.67
619.71	2.71
620.043	2.94
620.377	2.61
620.71	2.71
621.043	2.57
621.377	2.3
621.71	2.73
622.043	2.83
622.376	2.93
622.709	2.71
623.043	2.57
623.376	3.15
623.709	2.73
624.041	2.79
624.374	2.73
624.707	2.66
625.04	2.36
625.373	3.32
625.705	2.76
626.038	2.74
626.37	2.81
626.703	2.93
627.035	2.75
627.368	2.93
627.7	2.47
628.032	2.82
628.365	2.79
628.697	2.56
629.029	2.81
629.361	2.71
629.693	2.72
630.025	2.62
630.357	3.01
630.689	2.77
631.021	2.85
631.353	2.99
631.684	2.8
632.016	2.68
632.348	2.86
632.679	2.57
633.011	3.11
633.342	2.87
633.674	3.18
634.005	2.9
634.336	3.14
634.668	3.06
634.999	3
635.33	2.85
635.661	2.99
635.992	2.91
636.323	2.55
636.654	2.93
636.985	2.66
637.316	2.69
637.647	3.07
637.977	2.63
638.308	3.07
638.639	2.56
638.969	3.11
639.3	2.86
639.63	2.84
639.961	2.97
640.291	2.65
640.622	2.87
640.952	3.09
641.282	2.61
641.612	3.02
641.943	3.07
642.273	2.77
642.603	3.57
642.933	2.9
643.263	2.55
643.592	3.08
643.922	3.46
644.252	3.18
644.582	2.52
644.911	2.65
645.241	2.48
645.571	3.38
645.9	3.13
646.23	2.57
646.559	3.22
646.888	2.88
647.218	2.83
647.547	2.72
647.876	2.93
648.205	2.9
648.534	3.21
648.863	3.32
649.192	3.35
649.521	3.14
649.85	2.55
650.179	3.38
650.508	3.13
650.837	2.72
651.165	3.03
651.494	2.48
651.822	2.71
652.151	3.26
652.479	2.64
652.808	2.64
653.136	2.79
653.465	2.86
653.793	2.61
654.121	3.27
654.449	3.04
654.777	3.2
655.105	2.84
655.433	3.09
655.761	3.25
656.089	2.54
656.417	3.3
656.745	2.78
657.073	2.2
657.4	2.95
657.728	2.45
658.056	3.16
658.383	2.74
658.711	3.2
659.038	2.83
659.365	2.99
659.693	2.54
660.02	3.03
660.347	3.05
660.674	2.94
661.001	2.83
661.329	3
661.656	3
661.982	2.65
662.309	3.23
662.636	2.93
662.963	3.58
663.29	3.47
663.616	2.97
663.943	3.44
664.27	3.23
664.596	3.04
664.923	3.79
665.249	2.46
665.576	2.46
665.902	2.85
666.228	3.76
666.554	3.1
666.881	2.31
667.207	3.5
667.533	3.56
667.859	3.06
668.185	2.76
668.511	2.85
668.837	2.97
669.162	3.42
669.488	2.71
669.814	3.2
670.139	3.33
670.465	2.76
670.791	3.23
671.116	2.9
671.442	2.9
671.767	2.66
672.092	3.45
672.418	3.01
672.743	3.46
673.068	2.58
673.393	3.43
673.718	3.45
674.043	2.93
674.368	2.79
674.693	2.75
675.018	3.47
675.343	3.31
675.667	3.24
675.992	3.02
676.317	2.31
676.641	2.81
676.966	3.28
677.29	2.97
677.615	2.41
677.939	3.34
678.264	3.67
678.588	2.97
678.912	3.06
679.236	2.52
679.56	3.08
679.885	3.03
680.209	3.38
680.532	3.26
680.856	2.69
681.18	2.96
681.504	3.46
681.828	2.95
682.152	2.9
682.475	2.96
682.799	2.76
683.122	3.25
683.446	3.19
683.769	4.15
684.093	2.78
684.416	2.86
684.739	3.3
685.062	3.48
685.386	3.71
685.709	3.72
686.032	3.23
686.355	3.12
686.678	3.75
687.001	3.38
687.324	3.44
687.646	3.11
687.969	2.58
688.292	3.48
688.614	3.43
688.937	3.29
689.26	3.4
689.582	2.51
689.904	3.01
690.227	3.4
690.549	2.75
690.871	3.48
691.194	3.63
691.516	3.6
691.838	3.01
692.16	4.01
692.482	2.95
692.804	3.5
