Data from 0067_chest_Reflection__2__286.txt Node

Date: Fri Dec 16 16:22:48 CST 2022
User: ToomeyLab
Spectrometer: FLMS14357
Trigger mode: 0
Integration Time (sec): 1.000000E-2
Scans to average: 100
Electric dark correction enabled: true
Nonlinearity correction enabled: false
Boxcar width: 0
XAxis mode: Wavelengths
Number of Pixels in Spectrum: 2048
>>>>>Begin Spectral Data<<<<<
189.047	-52.87
189.435	-52.87
189.823	-52.87
190.211	182.09
190.599	26.37
190.987	37.6
191.375	-186.55
191.763	28.3
192.151	-41.55
192.538	173.6
192.926	-364.17
193.314	198.09
193.702	-183.7
194.089	38.03
194.477	837.2
194.864	-196.66
195.252	63.02
195.639	84.41
196.027	-992.28
196.414	-319.08
196.801	-352312027506950
197.189	88.23
197.576	-48.31
197.963	94.85
198.351	-10.32
198.738	-31.27
199.125	10.28
199.512	-31.23
199.899	-26.73
200.286	-35.56
200.673	34.99
201.06	16.36
201.447	5.08
201.833	86.56
202.22	30.59
202.607	-21.44
202.994	-3.21
203.38	-27.3
203.767	-9.36
204.154	-132.72
204.54	24.56
204.927	22.35
205.313	9.67
205.699	20.26
206.086	-38.49
206.472	-31.58
206.858	0.72
207.245	13.04
207.631	-39.93
208.017	33.83
208.403	23.81
208.789	-12.71
209.175	43.65
209.561	-27.46
209.947	2.14
210.333	1.05
210.719	-46.18
211.105	-39.73
211.491	0.18
211.876	11.99
212.262	-72.47
212.648	-59.43
213.034	-49.17
213.419	42.4
213.805	1.37
214.19	12.29
214.576	-45.87
214.961	-12.54
215.346	-50.11
215.732	-6.93
216.117	-0.62
216.502	-62.82
216.888	-31.07
217.273	27.52
217.658	-41.81
218.043	-20.5
218.428	-27.78
218.813	-46.52
219.198	-64.81
219.583	16.16
219.968	9.26
220.353	28.17
220.738	16.85
221.122	6.14
221.507	1.27
221.892	-5.48
222.276	-2.55
222.661	-0.51
223.046	8.71
223.43	-5.81
223.815	-7.86
224.199	2.63
224.583	-6.74
224.968	2.77
225.352	-3.59
225.736	8.38
226.121	-5.03
226.505	-12.22
226.889	6.26
227.273	1.01
227.657	0.77
228.041	2.13
228.425	2.83
228.809	-0.43
229.193	1.3
229.577	2.02
229.961	2.3
230.344	3.44
230.728	2.24
231.112	2.69
231.495	2.22
231.879	2.08
232.263	1.98
232.646	1.23
233.03	-0.26
233.413	2.26
233.797	5.26
234.18	0.33
234.563	0.22
234.946	2.18
235.33	3.41
235.713	2.98
236.096	2.4
236.479	2.89
236.862	3.93
237.245	2.73
237.628	3.52
238.011	3.09
238.394	4.71
238.777	1.89
239.16	1.42
239.543	2.76
239.925	2.67
240.308	4.17
240.691	2.71
241.073	2.73
241.456	3.05
241.838	3.03
242.221	3.01
242.603	2.26
242.986	3.8
243.368	2.9
243.75	2.53
244.133	3.09
244.515	2.93
244.897	3.05
245.279	2.6
245.661	1.53
246.043	3.01
246.425	1.45
246.807	3.13
247.189	2.38
247.571	2.57
247.953	2.96
248.335	3.06
248.717	2.93
249.098	3.15
249.48	2.71
249.862	2.97
250.243	2.86
250.625	3.17
251.006	2.52
251.388	2.98
251.769	2.43
252.151	3.02
252.532	2.76
252.913	2.89
253.295	3.01
253.676	3.82
254.057	2.93
254.438	2.39
254.819	2.97
255.2	2.21
255.581	1.64
255.962	1.75
256.343	2.29
256.724	2.4
257.105	2.85
257.486	2.84
257.867	2.35
258.247	2.91
258.628	4.17
259.009	2.88
259.389	2.62
259.77	2.29
260.15	3.21
260.531	2.71
260.911	2.81
261.292	2.61
261.672	2.69
262.052	2.84
262.432	2.67
262.813	2.81
263.193	2.25
263.573	2.39
263.953	2.42
264.333	2.81
264.713	2.45
265.093	2.44
265.473	2.59
265.853	2.54
266.233	2.35
266.612	2.34
266.992	2.52
267.372	2.8
267.752	2.21
268.131	2.85
268.511	2.58
268.89	3.19
269.27	3.05
269.649	3.28
270.029	2.66
270.408	2.7
270.787	2.57
271.167	2.67
271.546	1.88
271.925	2.88
272.304	2.46
272.683	2.26
273.062	2.96
273.441	2.94
273.82	2.86
274.199	2.57
274.578	2.52
274.957	2.71
275.336	2.68
275.715	3.15
276.093	2.83
276.472	3.04
276.851	2.52
277.229	2.97
277.608	2.52
277.986	2.46
278.365	2.5
278.743	3.16
279.122	2.85
279.5	2.59
279.878	1.97
280.257	3.07
280.635	1.95
281.013	2.2
281.391	2.2
281.769	2.47
282.147	2.79
282.525	2.88
282.903	2.73
283.281	2.72
283.659	2.76
284.037	2.22
284.415	2.55
284.792	2.62
285.17	2.34
285.548	2.69
285.925	2.62
286.303	2.58
286.68	2.72
287.058	2.51
287.435	2.69
287.813	2.6
288.19	3.14
288.567	2.64
288.945	2.72
289.322	1.99
289.699	3.2
290.076	2.88
290.453	2.82
290.83	2.88
291.207	2.33
291.584	2.49
291.961	2.95
292.338	2.86
292.715	2.44
293.092	2.67
293.469	3.33
293.845	3.26
294.222	3.07
294.599	3.23
294.975	3.26
295.352	2.52
295.728	3.16
296.105	3.1
296.481	3.53
296.858	3.41
297.234	3.71
297.61	3.25
297.986	3.02
298.363	2.52
298.739	3.2
299.115	2.85
299.491	3.13
299.867	3.42
300.243	2.82
300.619	2.76
300.995	3.16
301.371	3.07
301.746	2.76
302.122	3.71
302.498	3.57
302.874	3.16
303.249	3.16
303.625	3.66
304	2.72
304.376	3.34
304.751	3.16
305.127	3.3
305.502	3.56
305.878	2.83
306.253	3.26
306.628	3.65
307.003	3.43
307.378	3.09
307.754	3.78
308.129	3.03
308.504	3.09
308.879	3.55
309.254	3.3
309.629	3.88
310.003	3.46
310.378	3.43
310.753	3.73
311.128	3.53
311.502	3.41
311.877	3.38
312.252	3.72
312.626	3.48
313.001	3.36
313.375	3.19
313.75	3.56
314.124	3.44
314.498	2.81
314.873	3.35
315.247	3.08
315.621	3.42
315.995	3.5
316.369	4.05
316.743	3.49
317.117	3.31
317.491	3.76
317.865	3.13
318.239	4.02
318.613	3.59
318.987	3.76
319.361	2.92
319.734	3.7
320.108	3.16
320.482	2.9
320.855	3.87
321.229	3.87
321.602	3.76
321.976	3.12
322.349	3.43
322.723	3.01
323.096	3.1
323.469	3.06
323.843	3.57
324.216	3.23
324.589	4.29
324.962	3.81
325.335	3.39
325.708	3.7
326.081	4.26
326.454	3.91
326.827	3.51
327.2	3.75
327.573	3.87
327.945	3.6
328.318	4.13
328.691	4.07
329.063	3.33
329.436	3.02
329.809	3.52
330.181	3.07
330.553	3.99
330.926	3.83
331.298	3.48
331.671	4.04
332.043	3.7
332.415	4.06
332.787	4.27
333.159	3.62
333.532	3.5
333.904	3.85
334.276	3.45
334.648	3.59
335.02	3.69
335.391	3.93
335.763	3.42
336.135	4.06
336.507	3.92
336.879	3.91
337.25	3.87
337.622	4.28
337.993	3.74
338.365	4.04
338.736	3.61
339.108	3.44
339.479	3.61
339.851	4.27
340.222	3.78
340.593	3.61
340.964	3.41
341.336	3.43
341.707	3.82
342.078	3.26
342.449	3.73
342.82	3.75
343.191	3.71
343.562	3.92
343.933	3.75
344.303	3.57
344.674	3.71
345.045	3.67
345.416	3.76
345.786	3.36
346.157	3.89
346.527	3.5
346.898	3.57
347.268	3.68
347.639	3.98
348.009	3.8
348.38	3.76
348.75	4.09
349.12	4
349.49	3.35
349.861	4.22
350.231	4.09
350.601	3.85
350.971	3.68
351.341	3.87
351.711	3.74
352.081	3.68
352.45	4.27
352.82	4.29
353.19	3.51
353.56	3.96
353.929	3.76
354.299	3.56
354.669	3.88
355.038	3.45
355.408	4.33
355.777	3.73
356.147	4.08
356.516	4.25
356.885	3.64
357.254	3.81
357.624	3.94
357.993	3.82
358.362	3.95
358.731	4.02
359.1	4.12
359.469	3.73
359.838	3.63
360.207	3.67
360.576	3.95
360.945	3.93
361.314	4.1
361.682	3.72
362.051	3.98
362.42	4.15
362.788	3.93
363.157	3.65
363.525	3.89
363.894	3.53
364.262	3.86
364.631	4.33
364.999	3.55
365.367	4.18
365.735	3.65
366.104	3.82
366.472	4.14
366.84	3.88
367.208	3.81
367.576	3.79
367.944	4.17
368.312	3.74
368.68	3.88
369.048	4.42
369.416	3.97
369.783	4.02
370.151	3.99
370.519	3.72
370.886	3.8
371.254	3.98
371.621	3.95
371.989	4.04
372.356	4.04
372.724	4.01
373.091	4.1
373.458	3.91
373.826	3.82
374.193	4.26
374.56	3.92
374.927	4.08
375.294	4.1
375.661	3.81
376.028	3.88
376.395	3.9
376.762	4.33
377.129	4.33
377.496	4.05
377.863	3.84
378.229	4.1
378.596	3.96
378.963	3.87
379.329	4.09
379.696	4.05
380.062	4.43
380.429	4.15
380.795	4.01
381.161	4.01
381.528	3.63
381.894	4.25
382.26	3.89
382.626	3.87
382.993	3.66
383.359	4.01
383.725	4.16
384.091	3.99
384.457	4.02
384.823	4.02
385.188	4.26
385.554	4.18
385.92	4.48
386.286	4.42
386.651	4.24
387.017	4.24
387.383	4.22
387.748	4.28
388.114	4.2
388.479	4.28
388.845	4.27
389.21	4.24
389.575	4.41
389.94	4.45
390.306	4.19
390.671	3.94
391.036	4.15
391.401	4.51
391.766	4.34
392.131	4.25
392.496	3.98
392.861	4.08
393.226	4.11
393.591	4.25
393.956	4.16
394.32	4.01
394.685	4.41
395.05	4.05
395.414	4.17
395.779	4.38
396.143	4.4
396.508	4.38
396.872	4.46
397.236	3.82
397.601	4.36
397.965	4.27
398.329	4.56
398.694	3.92
399.058	4.28
399.422	4.35
399.786	4.39
400.15	4.25
400.514	4.37
400.878	4.28
401.242	4.5
401.605	4.49
401.969	4.33
402.333	4.19
402.697	4.47
403.06	4.5
403.424	4.31
403.787	4.31
404.151	4.3
404.514	4.49
404.878	4.31
405.241	4.44
405.604	4.33
405.968	4.21
406.331	4.57
406.694	4.41
407.057	4.55
407.42	4.34
407.783	4.29
408.146	4.31
408.509	4.26
408.872	4.43
409.235	4.26
409.598	4.6
409.961	4.33
410.323	4.34
410.686	4.43
411.049	4.43
411.411	4.42
411.774	4.44
412.136	4.5
412.499	4.34
412.861	4.32
413.223	4.53
413.586	4.47
413.948	4.23
414.31	4.53
414.672	4.46
415.035	4.51
415.397	4.72
415.759	4.25
416.121	4.6
416.483	4.6
416.845	4.54
417.206	4.61
417.568	4.63
417.93	4.54
418.292	4.4
418.653	4.48
419.015	4.6
419.377	4.56
419.738	4.48
420.1	4.43
420.461	4.44
420.822	4.46
421.184	4.51
421.545	4.4
421.906	4.51
422.267	4.36
422.629	4.4
422.99	4.44
423.351	4.47
423.712	4.54
424.073	4.62
424.434	4.52
424.795	4.53
425.155	4.48
425.516	4.48
425.877	4.55
426.238	4.44
426.598	4.62
426.959	4.57
427.32	4.59
427.68	4.62
428.041	4.64
428.401	4.66
428.761	4.69
429.122	4.51
429.482	4.58
429.842	4.76
430.202	4.53
430.563	4.8
430.923	4.84
431.283	4.74
431.643	4.72
432.003	4.74
432.363	4.97
432.722	4.66
433.082	4.68
433.442	4.66
433.802	4.65
434.161	4.64
434.521	4.62
434.881	4.83
435.24	4.59
435.6	4.73
435.959	4.67
436.319	4.67
436.678	4.79
437.037	4.82
437.396	4.8
437.756	4.67
438.115	4.7
438.474	4.76
438.833	4.85
439.192	4.93
439.551	4.87
439.91	4.79
440.269	4.85
440.628	4.76
440.987	4.8
441.345	4.83
441.704	4.74
442.063	4.66
442.421	4.72
442.78	4.74
443.138	4.7
443.497	4.73
443.855	4.82
444.214	4.89
444.572	4.96
444.93	4.97
445.288	4.88
445.647	5
446.005	4.68
446.363	4.85
446.721	4.77
447.079	4.81
447.437	4.77
447.795	4.8
448.153	4.78
448.51	4.76
448.868	4.94
449.226	4.82
449.584	4.87
449.941	5.02
450.299	4.95
450.656	5.01
451.014	4.94
451.371	5.07
451.729	4.99
452.086	4.95
452.443	4.96
452.801	5.23
453.158	5.06
453.515	4.95
453.872	5.09
454.229	4.86
454.586	4.99
454.943	4.94
455.3	5.15
455.657	4.87
456.014	5.05
456.371	5.02
456.727	5.04
457.084	5.09
457.441	5.17
457.797	5.18
458.154	5.02
458.51	5.04
458.867	4.99
459.223	5.06
459.58	5.01
459.936	5.06
460.292	5.13
460.648	5.02
461.005	4.99
461.361	4.93
461.717	5.1
462.073	5.16
462.429	5.15
462.785	5.19
463.141	5.19
463.496	5.19
463.852	5.43
464.208	5.15
464.564	5.22
464.919	5.16
465.275	5.35
465.631	5.22
465.986	5.14
466.342	5.35
466.697	5.12
467.052	5.29
467.408	5.4
467.763	5.18
468.118	5.23
468.473	5.43
468.829	5.27
469.184	5.28
469.539	5.12
469.894	5.38
470.249	5.39
470.603	5.38
470.958	5.4
471.313	5.13
471.668	5.3
472.023	5.47
472.377	5.22
472.732	5.25
473.086	5.32
473.441	5.48
473.795	5.41
474.15	5.34
474.504	5.46
474.859	5.51
475.213	5.34
475.567	5.36
475.921	5.53
476.275	5.27
476.63	5.42
476.984	5.48
477.338	5.53
477.692	5.46
478.045	5.44
478.399	5.49
478.753	5.42
479.107	5.42
479.461	5.49
479.814	5.39
480.168	5.58
480.521	5.4
480.875	5.66
481.228	5.66
481.582	5.49
481.935	5.46
482.289	5.46
482.642	5.53
482.995	5.37
483.348	5.41
483.701	5.47
484.055	5.38
484.408	5.23
484.761	5.11
485.114	5.07
485.466	5.14
485.819	5.23
486.172	5.29
486.525	5.41
486.878	5.4
487.23	5.46
487.583	5.47
487.936	5.45
488.288	5.32
488.641	5.36
488.993	5.28
489.345	5.29
489.698	5.34
490.05	5.4
490.402	5.54
490.754	5.58
491.107	5.58
491.459	5.63
491.811	5.7
492.163	5.59
492.515	5.59
492.866	5.37
493.218	5.41
493.57	5.56
493.922	5.55
494.274	5.71
494.625	5.67
494.977	5.72
495.328	5.91
495.68	5.95
496.031	5.8
496.383	5.72
496.734	5.89
497.086	5.82
497.437	5.87
497.788	5.78
498.139	5.78
498.49	5.83
498.842	5.77
499.193	5.85
499.544	5.98
499.894	5.95
500.245	5.86
500.596	5.94
500.947	6.05
501.298	5.94
501.648	5.93
501.999	6.08
502.35	6.09
502.7	6.04
503.051	6.1
503.401	6.15
503.752	6.05
504.102	6.04
504.452	6.04
504.803	5.94
505.153	6.23
505.503	5.93
505.853	6
506.203	6.03
506.553	6.03
506.903	6.12
507.253	6.04
507.603	6.12
507.953	6.24
508.303	6.16
508.652	6.19
509.002	6.21
509.352	6.21
509.701	6.2
510.051	6.14
510.4	6.25
510.75	6.17
511.099	6.12
511.449	6.22
511.798	6.34
512.147	6.35
512.496	6.43
512.846	6.3
513.195	6.29
513.544	6.22
513.893	6.2
514.242	6.32
514.591	6.33
514.939	6.27
515.288	6.38
515.637	6.44
515.986	6.4
516.334	6.46
516.683	6.34
517.032	6.41
517.38	6.55
517.729	6.42
518.077	6.37
518.426	6.49
518.774	6.52
519.122	6.46
519.47	6.45
519.819	6.44
520.167	6.38
520.515	6.38
520.863	6.41
521.211	6.48
521.559	6.58
521.907	6.52
522.255	6.65
522.602	6.67
522.95	6.75
523.298	6.62
523.645	6.71
523.993	6.84
524.341	6.76
524.688	6.7
525.036	6.86
525.383	6.81
525.73	6.73
526.078	6.77
526.425	6.71
526.772	6.59
527.119	6.64
527.466	6.72
527.814	6.71
528.161	6.73
528.508	6.71
528.854	6.65
529.201	6.67
529.548	6.53
529.895	6.48
530.242	6.55
530.588	6.63
530.935	6.66
531.282	6.81
531.628	6.84
531.975	6.87
532.321	6.93
532.667	6.98
533.014	6.99
533.36	6.91
533.706	7.02
534.052	6.9
534.399	6.79
534.745	6.78
535.091	6.9
535.437	7.02
535.783	7.08
536.129	7.08
536.474	7.2
536.82	7.08
537.166	7.23
537.512	7.12
537.857	7.07
538.203	7.11
538.549	7.26
538.894	7.18
539.239	7.39
539.585	7.49
539.93	7.42
540.276	7.36
540.621	7.43
540.966	7.44
541.311	7.44
541.656	7.36
542.001	7.36
542.346	7.25
542.691	7.19
543.036	7.16
543.381	7.28
543.726	7.39
544.071	7.35
544.415	7.41
544.76	7.33
545.105	7.56
545.449	7.49
545.794	7.64
546.138	7.75
546.483	7.59
546.827	7.65
547.171	7.67
547.516	7.8
547.86	7.76
548.204	7.57
548.548	7.75
548.892	7.92
549.236	7.9
549.58	7.97
549.924	7.89
550.268	8.06
550.612	8.11
550.956	7.88
551.3	8.08
551.643	8.2
551.987	8.04
552.33	8.08
552.674	8.25
553.017	8.16
553.361	8.16
553.704	8.09
554.048	8.21
554.391	8.21
554.734	8.18
555.077	8.37
555.42	8.37
555.764	8.28
556.107	8.35
556.45	8.12
556.793	8.4
557.135	8.52
557.478	8.44
557.821	8.49
558.164	8.55
558.507	8.31
558.849	8.44
559.192	8.65
559.534	8.61
559.877	8.71
560.219	8.93
560.562	8.72
560.904	8.53
561.246	8.81
561.589	8.71
561.931	8.9
562.273	8.67
562.615	8.88
562.957	8.77
563.299	8.94
563.641	8.88
563.983	8.84
564.325	8.83
564.667	8.95
565.008	8.88
565.35	9.13
565.692	9.03
566.033	9.12
566.375	8.89
566.716	9.09
567.058	9.13
567.399	9.06
567.741	9.14
568.082	9.03
568.423	9.01
568.764	9.11
569.105	9.28
569.447	9.33
569.788	9.24
570.129	9.36
570.47	9.52
570.811	9.45
571.151	9.37
571.492	9.62
571.833	9.52
572.174	9.36
572.514	9.35
572.855	9.34
573.195	9.39
573.536	9.42
573.876	9.39
574.217	9.57
574.557	9.79
574.898	9.56
575.238	9.67
575.578	9.7
575.918	9.59
576.258	9.67
576.598	9.56
576.938	9.89
577.278	9.77
577.618	10
577.958	9.97
578.298	9.89
578.638	9.87
578.977	10.07
579.317	10.11
579.657	10.01
579.996	9.94
580.336	9.95
580.675	10.3
581.014	10.26
581.354	10.47
581.693	10.28
582.032	10.06
582.372	10.56
582.711	10.35
583.05	10.52
583.389	10.39
583.728	10.49
584.067	10.54
584.406	10.64
584.745	10.5
585.083	10.54
585.422	10.54
585.761	10.58
586.1	10.77
586.438	10.67
586.777	10.74
587.115	10.87
587.454	10.55
587.792	10.57
588.13	11
588.469	10.8
588.807	10.89
589.145	10.8
589.483	10.72
589.821	10.91
590.159	11.02
590.497	11.03
590.835	11.06
591.173	11.15
591.511	11.05
591.849	11.15
592.187	10.96
592.524	11.01
592.862	10.88
593.2	11.11
593.537	11.33
593.875	10.98
594.212	11.25
594.55	11.26
594.887	11.55
595.224	11.25
595.561	11.34
595.899	11.3
596.236	11.35
596.573	11.25
596.91	11.62
597.247	11.41
597.584	11.67
597.921	11.59
598.258	11.58
598.594	11.41
598.931	11.36
599.268	11.46
599.604	11.73
599.941	11.59
600.277	11.76
600.614	11.71
600.95	11.98
601.287	11.95
601.623	11.97
601.959	11.78
602.296	11.95
602.632	12.13
602.968	11.95
603.304	11.96
603.64	11.97
603.976	12.15
604.312	12.23
604.648	12.02
604.984	11.86
605.319	12.26
605.655	12.2
605.991	12.2
606.326	12.07
606.662	11.83
606.998	12.39
607.333	12.3
607.668	12.39
608.004	12.22
608.339	12.23
608.674	12.29
609.01	12.63
609.345	12.64
609.68	12.4
610.015	12.6
610.35	12.64
610.685	12.69
611.02	12.71
611.355	12.75
611.689	12.51
612.024	12.88
612.359	13.03
612.694	12.97
613.028	12.99
613.363	12.7
613.697	12.73
614.032	12.64
614.366	12.76
614.7	13.22
615.035	12.94
615.369	13.45
615.703	13.15
616.037	13.11
616.371	13.08
616.705	12.96
617.039	13.35
617.373	13.33
617.707	13.4
618.041	13.38
618.375	13.28
618.709	13.32
619.042	13.12
619.376	13.18
619.71	13.35
620.043	13.36
620.377	13.41
620.71	13.42
621.043	13.16
621.377	13.22
621.71	13.92
622.043	13.76
622.376	13.69
622.709	14.09
623.043	13.73
623.376	13.78
623.709	13.92
624.041	13.56
624.374	13.68
624.707	13.58
625.04	14.07
625.373	13.98
625.705	13.89
626.038	13.97
626.37	13.86
626.703	13.78
627.035	14.14
627.368	13.99
627.7	14.28
628.032	13.97
628.365	13.64
628.697	13.83
629.029	14.37
629.361	14.25
629.693	14.27
630.025	14.15
630.357	13.84
630.689	14.47
631.021	14.66
631.353	14.78
631.684	14.62
632.016	14.55
632.348	14.47
632.679	14.32
633.011	14.42
633.342	14.35
633.674	14.8
634.005	14.87
634.336	14.33
634.668	14.69
634.999	14.78
635.33	14.6
635.661	14.81
635.992	14.72
636.323	14.74
636.654	14.87
636.985	14.62
637.316	14.9
637.647	14.81
637.977	14.98
638.308	14.98
638.639	14.99
638.969	14.62
639.3	15.26
639.63	15.16
639.961	15.05
640.291	15.39
640.622	15.71
640.952	15.22
641.282	14.99
641.612	15.21
641.943	15.74
642.273	15.43
642.603	15.24
642.933	15.27
643.263	15.73
643.592	15.79
643.922	15.87
644.252	15.94
644.582	15.57
644.911	15.17
645.241	15.23
645.571	14.96
645.9	16.14
646.23	15.14
646.559	15.6
646.888	15.42
647.218	15.46
647.547	15.78
647.876	15.93
648.205	15.56
648.534	15.58
648.863	15.79
649.192	15.59
649.521	15.45
649.85	16.16
650.179	15.65
650.508	16.19
650.837	15.76
651.165	16.19
651.494	16.33
651.822	15.93
652.151	16.55
652.479	16.45
652.808	16.25
653.136	16.4
653.465	16.15
653.793	16.74
654.121	16.19
654.449	16.45
654.777	15.94
655.105	16.68
655.433	16.18
655.761	16.42
656.089	16.57
656.417	16.12
656.745	16.82
657.073	16.94
657.4	16.62
657.728	16.35
658.056	16.17
658.383	17.29
658.711	16.21
659.038	16.89
659.365	16.38
659.693	16.37
660.02	16.83
660.347	17.18
660.674	16.47
661.001	16.38
661.329	17.05
661.656	16.85
661.982	16.6
662.309	17.32
662.636	17.13
662.963	17.03
663.29	17.43
663.616	17.62
663.943	17.41
664.27	17.52
664.596	17.1
664.923	17.47
665.249	17.09
665.576	17.29
665.902	16.33
666.228	17.45
666.554	17.08
666.881	17.29
667.207	16.66
667.533	17.86
667.859	17.64
668.185	17.44
668.511	16.94
668.837	17.08
669.162	17.56
669.488	17.38
669.814	17.5
670.139	17.83
670.465	17.82
670.791	17.8
671.116	17.77
671.442	17.75
671.767	17.84
672.092	17.69
672.418	17.6
672.743	17.55
673.068	17.94
673.393	18.06
673.718	18.02
674.043	17.96
674.368	18.28
674.693	18.29
675.018	18
675.343	18.09
675.667	18
675.992	18.29
676.317	18.21
676.641	18.1
676.966	18.09
677.29	17.65
677.615	18.36
677.939	18.21
678.264	17.64
678.588	18.62
678.912	18.82
679.236	18.85
679.56	18.48
679.885	18.44
680.209	17.97
680.532	18.12
680.856	19.22
681.18	18.62
681.504	18.35
681.828	17.94
682.152	18.32
682.475	18.37
682.799	18.93
683.122	18.3
683.446	18.23
683.769	18.49
