Data from 0067_forehead_Reflection__3__297.txt Node

Date: Fri Dec 16 16:26:49 CST 2022
User: ToomeyLab
Spectrometer: FLMS14357
Trigger mode: 0
Integration Time (sec): 1.000000E-2
Scans to average: 100
Electric dark correction enabled: true
Nonlinearity correction enabled: false
Boxcar width: 0
XAxis mode: Wavelengths
Number of Pixels in Spectrum: 2048
>>>>>Begin Spectral Data<<<<<
189.047	109.7
189.435	109.7
189.823	109.7
190.211	76.01
190.599	-364.87
190.987	-5.93
191.375	-203.96
191.763	421.01
192.151	-57.01
192.538	32
192.926	540.83
193.314	111.23
193.702	-118.75
194.089	72.25
194.477	240.18
194.864	-299.88
195.252	-138.44
195.639	129.75
196.027	-344.49
196.414	-694.08
196.801	-343790992422850
197.189	46.51
197.576	155.08
197.963	-633.09
198.351	9.42
198.738	-16.88
199.125	27.99
199.512	-37.69
199.899	-31.38
200.286	-26.16
200.673	23.03
201.06	32.76
201.447	26.63
201.833	35.9
202.22	5.79
202.607	-24.28
202.994	35.15
203.38	-47.84
203.767	-68.77
204.154	5.82
204.54	31.14
204.927	-1.47
205.313	47.21
205.699	29.19
206.086	12.27
206.472	-26.21
206.858	-16.38
207.245	-8.65
207.631	-47.35
208.017	12.18
208.403	-3.99
208.789	-10.84
209.175	44.71
209.561	-10.38
209.947	26.29
210.333	-15.41
210.719	-33.13
211.105	-85.02
211.491	11.28
211.876	14.19
212.262	-69.77
212.648	-14.97
213.034	-44.22
213.419	31.79
213.805	-26.06
214.19	-40.46
214.576	-20.36
214.961	-45.6
215.346	-94.96
215.732	-1.81
216.117	5.32
216.502	-1.54
216.888	-3.12
217.273	23.78
217.658	-53.25
218.043	4.7
218.428	4.96
218.813	-2.92
219.198	-31.97
219.583	5.46
219.968	-17.79
220.353	13.73
220.738	-35.18
221.122	-5.62
221.507	-5.04
221.892	1.49
222.276	-3.96
222.661	-1.67
223.046	-4.91
223.43	6.36
223.815	19.21
224.199	4.96
224.583	-2.86
224.968	17.35
225.352	-6.07
225.736	9.31
226.121	-5.97
226.505	3.78
226.889	7.66
227.273	8.5
227.657	3.69
228.041	6.06
228.425	6.17
228.809	7.14
229.193	2.49
229.577	2.76
229.961	6.55
230.344	5.95
230.728	5.94
231.112	5.29
231.495	4.02
231.879	5.7
232.263	4.89
232.646	5.39
233.03	4.09
233.413	5.73
233.797	5.45
234.18	1.51
234.563	4.54
234.946	5.02
235.33	6.3
235.713	6.1
236.096	4.63
236.479	5.58
236.862	5.14
237.245	6.83
237.628	5.64
238.011	4.14
238.394	8.15
238.777	4.56
239.16	4.94
239.543	3.9
239.925	6.72
240.308	6
240.691	5.85
241.073	6.32
241.456	4.67
241.838	5.45
242.221	5.67
242.603	6.37
242.986	7.15
243.368	5.8
243.75	6.04
244.133	6.03
244.515	5.39
244.897	5.73
245.279	5.76
245.661	4.84
246.043	6.25
246.425	5.17
246.807	5.9
247.189	6
247.571	6.36
247.953	6.42
248.335	6.38
248.717	6.08
249.098	5.88
249.48	5.86
249.862	6.18
250.243	6.08
250.625	6.08
251.006	6.47
251.388	6.44
251.769	6.46
252.151	5.79
252.532	6.22
252.913	6.35
253.295	6.41
253.676	6.27
254.057	5.8
254.438	5.98
254.819	5.91
255.2	5.17
255.581	4.93
255.962	6.04
256.343	6.46
256.724	5.01
257.105	5.91
257.486	5.53
257.867	4.52
258.247	6.38
258.628	6.38
259.009	5.61
259.389	6.22
259.77	5.57
260.15	6.66
260.531	6.44
260.911	6.05
261.292	6.22
261.672	5.86
262.052	5.7
262.432	5.57
262.813	5.71
263.193	5.63
263.573	5.75
263.953	5.87
264.333	5.89
264.713	5.49
265.093	5.71
265.473	6.2
265.853	6.57
266.233	5.3
266.612	6.62
266.992	5.26
267.372	5.87
267.752	5.2
268.131	5.84
268.511	5.77
268.89	5.97
269.27	5.71
269.649	6.35
270.029	5.43
270.408	5.45
270.787	5.83
271.167	6.03
271.546	4.85
271.925	5.27
272.304	6
272.683	5.52
273.062	6.06
273.441	6.03
273.82	6.26
274.199	6.24
274.578	5.59
274.957	5.7
275.336	5.16
275.715	6.01
276.093	6.58
276.472	6.32
276.851	5.62
277.229	6.1
277.608	5.5
277.986	5.43
278.365	5.23
278.743	5.78
279.122	5.09
279.5	5.49
279.878	5.52
280.257	5.8
280.635	5.34
281.013	6.1
281.391	5.82
281.769	5.84
282.147	5.45
282.525	5.41
282.903	5.29
283.281	5.77
283.659	5.47
284.037	5.15
284.415	6.03
284.792	6.07
285.17	5.51
285.548	5.38
285.925	5.84
286.303	5.62
286.68	5.63
287.058	5.79
287.435	5.68
287.813	6.07
288.19	6.07
288.567	5.65
288.945	6.07
289.322	5.45
289.699	5.79
290.076	6.17
290.453	5.24
290.83	5.71
291.207	6.11
291.584	5.71
291.961	6.04
292.338	5.83
292.715	6.04
293.092	6
293.469	6.16
293.845	6.41
294.222	5.89
294.599	6.91
294.975	6.37
295.352	6.64
295.728	6.71
296.105	6.45
296.481	7.29
296.858	6.79
297.234	6.39
297.61	6.59
297.986	6.49
298.363	6.44
298.739	6.69
299.115	6.36
299.491	6.81
299.867	6.8
300.243	7.01
300.619	6.6
300.995	6.81
301.371	7.3
301.746	6.61
302.122	7.2
302.498	7.38
302.874	7.02
303.249	6.84
303.625	7.45
304	6.74
304.376	7.32
304.751	7.48
305.127	7.73
305.502	7.48
305.878	7.38
306.253	6.89
306.628	7.5
307.003	7.49
307.378	7.11
307.754	7.71
308.129	7.34
308.504	8.12
308.879	7.95
309.254	8.16
309.629	7.64
310.003	8.23
310.378	8.47
310.753	8.11
311.128	8.24
311.502	7.8
311.877	7.72
312.252	8.51
312.626	7.92
313.001	8.55
313.375	8.33
313.75	7.9
314.124	8.83
314.498	8.16
314.873	8.41
315.247	8.35
315.621	8.48
315.995	8.39
316.369	8.57
316.743	9
317.117	8.48
317.491	8.52
317.865	8.46
318.239	8.79
318.613	8.55
318.987	8.54
319.361	8.83
319.734	8.94
320.108	9.16
320.482	8.8
320.855	8.86
321.229	9.95
321.602	8.87
321.976	8.77
322.349	9
322.723	8.55
323.096	8.82
323.469	9.27
323.843	9.61
324.216	9.11
324.589	10.12
324.962	9.34
325.335	9.18
325.708	9.22
326.081	9.61
326.454	9.27
326.827	9.8
327.2	9.68
327.573	10.15
327.945	9.47
328.318	9.93
328.691	9.95
329.063	9.64
329.436	10.15
329.809	9.79
330.181	10.22
330.553	10.44
330.926	10.11
331.298	10.43
331.671	9.91
332.043	9.97
332.415	10.29
332.787	10.8
333.159	10.21
333.532	10.46
333.904	10.67
334.276	9.98
334.648	9.88
335.02	9.81
335.391	9.83
335.763	10.71
336.135	10.55
336.507	11
336.879	10.27
337.25	10.39
337.622	10.25
337.993	10.64
338.365	10.68
338.736	10.78
339.108	10.44
339.479	10.68
339.851	10.74
340.222	10.63
340.593	10.8
340.964	11.16
341.336	10.33
341.707	10.6
342.078	10.62
342.449	11.09
342.82	10.87
343.191	10.71
343.562	10.89
343.933	10.43
344.303	10.78
344.674	11.5
345.045	11.27
345.416	11.32
345.786	10.95
346.157	11.68
346.527	11.03
346.898	11.25
347.268	11.1
347.639	11.21
348.009	11.48
348.38	11.5
348.75	11.45
349.12	11.7
349.49	11.46
349.861	11.7
350.231	11.91
350.601	11.68
350.971	11.61
351.341	11.54
351.711	11.72
352.081	11.96
352.45	11.55
352.82	11.84
353.19	11.61
353.56	12.16
353.929	12.39
354.299	12.12
354.669	11.98
355.038	11.66
355.408	12.65
355.777	11.76
356.147	12.18
356.516	12.43
356.885	12.11
357.254	12.5
357.624	12.15
357.993	12.18
358.362	12.7
358.731	12.25
359.1	12.52
359.469	12.38
359.838	12.42
360.207	12.34
360.576	12.36
360.945	12.59
361.314	12.69
361.682	12.31
362.051	12.63
362.42	12.59
362.788	12.82
363.157	12.79
363.525	12.72
363.894	12.23
364.262	12.89
364.631	13.21
364.999	12.78
365.367	13.1
365.735	12.68
366.104	12.81
366.472	12.97
366.84	13.1
367.208	12.88
367.576	13.05
367.944	13.7
368.312	12.9
368.68	13.24
369.048	13.51
369.416	13.05
369.783	13.4
370.151	13.33
370.519	12.98
370.886	13.28
371.254	13.63
371.621	13.48
371.989	13.49
372.356	13.26
372.724	13.72
373.091	13.47
373.458	13.89
373.826	13.64
374.193	13.94
374.56	13.62
374.927	13.9
375.294	13.88
375.661	13.62
376.028	14.12
376.395	14.01
376.762	14.16
377.129	14.17
377.496	14.16
377.863	14.22
378.229	14.22
378.596	14.27
378.963	14.11
379.329	14.24
379.696	14.19
380.062	14.39
380.429	14.59
380.795	14.1
381.161	14.68
381.528	14.16
381.894	14.71
382.26	14.49
382.626	14.57
382.993	14.15
383.359	14.35
383.725	14.9
384.091	14.7
384.457	14.79
384.823	14.66
385.188	15.01
385.554	15
385.92	15.07
386.286	14.99
386.651	14.69
387.017	14.8
387.383	14.97
387.748	14.96
388.114	15.15
388.479	14.87
388.845	15.23
389.21	15.24
389.575	15.14
389.94	15.39
390.306	15.27
390.671	15.12
391.036	15.28
391.401	15.57
391.766	15.43
392.131	15.32
392.496	15.38
392.861	15.54
393.226	15.77
393.591	15.69
393.956	15.53
394.32	15.6
394.685	15.44
395.05	15.19
395.414	15.96
395.779	15.61
396.143	15.94
396.508	15.94
396.872	15.91
397.236	15.65
397.601	16.07
397.965	15.41
398.329	16.09
398.694	15.9
399.058	15.94
399.422	16.03
399.786	15.98
400.15	16.21
400.514	16.18
400.878	16.13
401.242	16.26
401.605	16.09
401.969	16.31
402.333	16.47
402.697	16.53
403.06	16.56
403.424	16.22
403.787	16.44
404.151	16.42
404.514	16.49
404.878	16.59
405.241	16.84
405.604	16.77
405.968	16.65
406.331	16.71
406.694	16.69
407.057	16.9
407.42	16.86
407.783	16.64
408.146	16.89
408.509	16.6
408.872	16.86
409.235	16.93
409.598	17.11
409.961	17.11
410.323	17.23
410.686	17.3
411.049	16.95
411.411	17.02
411.774	16.91
412.136	17.16
412.499	17.04
412.861	17.03
413.223	17.36
413.586	17.31
413.948	17.63
414.31	17.75
414.672	17.32
415.035	17.6
415.397	17.77
415.759	17.56
416.121	17.75
416.483	17.77
416.845	17.73
417.206	17.55
417.568	17.76
417.93	17.51
418.292	17.66
418.653	17.75
419.015	17.78
419.377	17.71
419.738	17.72
420.1	17.6
420.461	17.79
420.822	17.86
421.184	17.71
421.545	17.89
421.906	17.78
422.267	17.8
422.629	17.81
422.99	17.78
423.351	17.97
423.712	17.95
424.073	18.03
424.434	18
424.795	18.07
425.155	18.08
425.516	18.02
425.877	17.99
426.238	17.92
426.598	18.26
426.959	18.18
427.32	18.37
427.68	18.48
428.041	18.51
428.401	18.5
428.761	18.56
429.122	18.41
429.482	18.72
429.842	19.05
430.202	18.83
430.563	18.82
430.923	18.87
431.283	19.01
431.643	18.95
432.003	19
432.363	19.25
432.722	18.91
433.082	19.1
433.442	18.98
433.802	19.02
434.161	19.02
434.521	19.23
434.881	19.28
435.24	18.97
435.6	19.21
435.959	19.14
436.319	19.22
436.678	19.35
437.037	19.48
437.396	19.34
437.756	19.36
438.115	19.76
438.474	19.55
438.833	19.63
439.192	19.62
439.551	19.46
439.91	19.68
440.269	19.73
440.628	19.47
440.987	19.51
441.345	19.6
441.704	19.65
442.063	19.59
442.421	19.68
442.78	19.66
443.138	19.73
443.497	19.78
443.855	19.82
444.214	19.92
444.572	20.04
444.93	20.06
445.288	20.03
445.647	20.14
446.005	20.04
446.363	20.01
446.721	20.01
447.079	20.09
447.437	20.02
447.795	19.92
448.153	20
448.51	20.01
448.868	20.14
449.226	20.03
449.584	20.18
449.941	20.44
450.299	20.33
450.656	20.61
451.014	20.59
451.371	20.63
451.729	20.83
452.086	20.5
452.443	20.59
452.801	20.81
453.158	20.91
453.515	20.77
453.872	20.77
454.229	20.86
454.586	20.9
454.943	20.86
455.3	21.01
455.657	21.06
456.014	21.13
456.371	21.21
456.727	21.15
457.084	21.15
457.441	21.22
457.797	21.21
458.154	21.33
458.51	21.04
458.867	21.37
459.223	21.29
459.58	21.33
459.936	21.3
460.292	21.35
460.648	21.33
461.005	21.19
461.361	21.24
461.717	21.19
462.073	21.26
462.429	21.5
462.785	21.51
463.141	21.67
463.496	21.83
463.852	21.87
464.208	21.86
464.564	21.91
464.919	21.78
465.275	21.93
465.631	22.04
465.986	22.11
466.342	21.88
466.697	22.14
467.052	22.13
467.408	22.25
467.763	22.11
468.118	22.2
468.473	22.43
468.829	22.19
469.184	22.31
469.539	22.27
469.894	22.42
470.249	22.4
470.603	22.46
470.958	22.45
471.313	22.59
471.668	22.45
472.023	22.8
472.377	22.6
472.732	22.84
473.086	22.54
473.441	22.92
473.795	23.1
474.15	22.85
474.504	22.82
474.859	22.79
475.213	22.93
475.567	22.88
475.921	22.99
476.275	22.98
476.63	22.97
476.984	22.97
477.338	23.34
477.692	23.28
478.045	23.21
478.399	23.22
478.753	23.03
479.107	23.14
479.461	23.15
479.814	23.21
480.168	23.26
480.521	23.33
480.875	23.39
481.228	23.29
481.582	23.17
481.935	23.33
482.289	23.39
482.642	23.34
482.995	23.42
483.348	23.24
483.701	23.31
484.055	23.29
484.408	22.99
484.761	22.85
485.114	22.8
485.466	22.64
485.819	22.8
486.172	22.73
486.525	22.92
486.878	23.07
487.23	23.3
487.583	23.31
487.936	23.4
488.288	23.39
488.641	23.24
488.993	23.22
489.345	23.19
489.698	23.3
490.05	23.33
490.402	23.42
490.754	23.68
491.107	23.89
491.459	23.96
491.811	24.01
492.163	23.98
492.515	23.94
492.866	23.66
493.218	23.64
493.57	23.65
493.922	23.73
494.274	23.97
494.625	24.17
494.977	24.43
495.328	24.53
495.68	24.84
496.031	24.71
496.383	24.76
496.734	24.81
497.086	24.85
497.437	25.06
497.788	24.92
498.139	24.95
498.49	24.81
498.842	24.79
499.193	24.94
499.544	24.96
499.894	25.09
500.245	25.06
500.596	25.04
500.947	25.14
501.298	25.27
501.648	25.29
501.999	25.44
502.35	25.49
502.7	25.44
503.051	25.64
503.401	25.64
503.752	25.5
504.102	25.51
504.452	25.58
504.803	25.56
505.153	25.75
505.503	25.58
505.853	25.6
506.203	25.74
506.553	25.59
506.903	25.92
507.253	25.75
507.603	25.99
507.953	26.22
508.303	26.01
508.652	25.85
509.002	26.02
509.352	26.1
509.701	26.05
510.051	26.06
510.4	26.1
510.75	25.96
511.099	26.06
511.449	26.15
511.798	26.21
512.147	26.24
512.496	26.38
512.846	26.32
513.195	26.36
513.544	26.34
513.893	26.44
514.242	26.51
514.591	26.58
514.939	26.44
515.288	26.65
515.637	26.85
515.986	26.74
516.334	26.8
516.683	26.9
517.032	26.78
517.38	26.91
517.729	27.09
518.077	27.1
518.426	26.87
518.774	26.93
519.122	26.77
519.47	26.96
519.819	26.82
520.167	26.71
520.515	26.75
520.863	26.81
521.211	26.85
521.559	26.99
521.907	27.03
522.255	27.29
522.602	27.37
522.95	27.52
523.298	27.46
523.645	27.5
523.993	27.61
524.341	27.65
524.688	27.61
525.036	27.84
525.383	27.7
525.73	27.58
526.078	27.8
526.425	27.48
526.772	27.41
527.119	27.5
527.466	27.42
527.814	27.57
528.161	27.55
528.508	27.65
528.854	27.52
529.201	27.47
529.548	27.44
529.895	27.24
530.242	27.25
530.588	27.36
530.935	27.25
531.282	27.36
531.628	27.62
531.975	27.79
532.321	27.84
532.667	28.03
533.014	28.14
533.36	28.09
533.706	28.26
534.052	28.04
534.399	27.91
534.745	27.92
535.091	28.01
535.437	27.97
535.783	28.06
536.129	28.2
536.474	28.37
536.82	28.56
537.166	28.61
537.512	28.71
537.857	28.62
538.203	28.56
538.549	28.63
538.894	28.62
539.239	28.82
539.585	29.05
539.93	28.9
540.276	29.13
540.621	29.28
540.966	29.47
541.311	29.22
541.656	29.4
542.001	29.16
542.346	28.85
542.691	28.82
543.036	28.66
543.381	28.78
543.726	28.85
544.071	28.97
544.415	29.07
544.76	29.07
545.105	29.3
545.449	29.4
545.794	29.49
546.138	29.61
546.483	29.78
546.827	29.83
547.171	29.88
547.516	30.04
547.86	29.79
548.204	29.89
548.548	29.89
548.892	30.14
549.236	30.09
549.58	30.03
549.924	30.17
550.268	30.34
550.612	30.51
550.956	30.31
551.3	30.56
551.643	30.63
551.987	30.62
552.33	30.58
552.674	30.88
553.017	30.8
553.361	30.86
553.704	30.7
554.048	30.98
554.391	30.73
554.734	30.82
555.077	30.87
555.42	30.81
555.764	31.23
556.107	31.25
556.45	30.89
556.793	31.48
557.135	31.3
557.478	31.25
557.821	31.26
558.164	31.58
558.507	31.33
558.849	31.32
559.192	31.63
559.534	31.57
559.877	31.51
560.219	31.83
560.562	31.6
560.904	31.66
561.246	31.76
561.589	31.84
561.931	31.71
562.273	31.78
562.615	31.93
562.957	31.88
563.299	31.68
563.641	31.84
563.983	31.77
564.325	31.95
564.667	32.19
565.008	32.09
565.35	32.35
565.692	32.4
566.033	32.37
566.375	32.08
566.716	32.44
567.058	32.31
567.399	32.22
567.741	32.17
568.082	32.32
568.423	32.1
568.764	32.31
569.105	32.33
569.447	32.45
569.788	32.62
570.129	32.55
570.47	32.84
570.811	32.88
571.151	32.9
571.492	32.74
571.833	32.84
572.174	33.01
572.514	32.94
572.855	33.11
573.195	32.67
573.536	32.96
573.876	33.09
574.217	32.79
574.557	33.02
574.898	33.04
575.238	32.96
575.578	33.17
575.918	32.98
576.258	33.04
576.598	32.95
576.938	33.47
577.278	33.28
577.618	33.27
577.958	33.4
578.298	33.63
578.638	33.23
578.977	33.74
579.317	33.67
579.657	33.62
579.996	33.9
580.336	33.9
580.675	34.21
581.014	34.02
581.354	34.29
581.693	34
582.032	34.04
582.372	34.42
582.711	33.94
583.05	34.44
583.389	34.34
583.728	34.33
584.067	34.43
584.406	34.37
584.745	34.13
585.083	34.24
585.422	34.49
585.761	34.58
586.1	34.74
586.438	34.49
586.777	34.65
587.115	34.82
587.454	34.68
587.792	34.64
588.13	34.81
588.469	34.78
588.807	35.1
589.145	34.82
589.483	34.69
589.821	34.93
590.159	34.99
590.497	34.85
590.835	34.97
591.173	35.2
591.511	35.1
591.849	35.41
592.187	35.05
592.524	35.09
592.862	35.44
593.2	35.32
593.537	35.56
593.875	35.37
594.212	35.13
594.55	35.54
594.887	35.37
595.224	35.22
595.561	35.39
595.899	35.7
596.236	35.57
596.573	35.2
596.91	35.76
597.247	35.71
597.584	35.9
597.921	35.68
598.258	35.74
598.594	35.7
598.931	35.69
599.268	35.48
599.604	35.72
599.941	35.67
600.277	35.92
600.614	35.8
600.95	36.29
601.287	36.14
601.623	36.29
601.959	35.94
602.296	36.47
602.632	36.32
602.968	36.29
603.304	36.42
603.64	36.58
603.976	36.51
604.312	36.62
604.648	36.51
604.984	36.35
605.319	36.5
605.655	36.46
605.991	36.63
606.326	36.62
606.662	36.52
606.998	36.53
607.333	36.71
607.668	36.59
608.004	36.69
608.339	36.83
608.674	37.06
609.01	37.11
609.345	37.22
609.68	37.36
610.015	37.01
610.35	37.24
610.685	37.4
611.02	37.21
611.355	37.14
611.689	37.13
612.024	37.31
612.359	37.37
612.694	37.51
613.028	37.46
613.363	37.25
613.697	37.87
614.032	37.3
614.366	37.36
614.7	38.14
615.035	37.31
615.369	37.8
615.703	37.72
616.037	37.69
616.371	37.67
616.705	37.78
617.039	37.79
617.373	37.74
617.707	37.79
618.041	38.1
618.375	37.84
618.709	37.89
619.042	38.04
619.376	38.13
619.71	37.98
620.043	38.32
620.377	37.99
620.71	38.14
621.043	38.14
621.377	38.15
621.71	38.08
622.043	38.45
622.376	38.29
622.709	38.97
623.043	38.38
623.376	38.75
623.709	38.56
624.041	38.53
624.374	38.74
624.707	38.57
625.04	38.5
625.373	38.32
625.705	38.9
626.038	38.79
626.37	39.13
626.703	38.89
627.035	38.96
627.368	39.11
627.7	39.21
628.032	38.94
628.365	38.6
628.697	39.1
629.029	39.47
629.361	39.43
629.693	38.97
630.025	39.07
630.357	39.03
630.689	39.28
631.021	39.53
631.353	39.42
631.684	39.53
632.016	39.39
632.348	39.37
632.679	39.04
633.011	39.4
633.342	40.06
633.674	39.94
634.005	39.82
634.336	39.71
634.668	39.83
634.999	39.88
635.33	39.56
635.661	39.81
635.992	39.85
636.323	39.83
636.654	40.12
636.985	39.69
637.316	39.67
637.647	39.69
637.977	40.05
638.308	39.92
638.639	40.11
638.969	39.89
639.3	40.11
639.63	40.29
639.961	40.09
640.291	40.73
640.622	40.08
640.952	40.34
641.282	40.04
641.612	40.34
641.943	40.76
642.273	40.59
642.603	40.37
642.933	40.67
643.263	41.2
643.592	41.14
643.922	40.73
644.252	40.68
644.582	40.29
644.911	40.7
645.241	40.73
645.571	40.66
645.9	41.16
646.23	40.71
646.559	40.83
646.888	40.91
647.218	41.41
647.547	41.09
647.876	40.84
648.205	40.96
648.534	40.75
648.863	41.65
649.192	40.93
649.521	40.88
649.85	41.53
650.179	41.3
650.508	41.54
650.837	41.22
651.165	42.15
651.494	41.42
651.822	41.6
652.151	41.77
652.479	41.62
652.808	41.63
653.136	41.62
653.465	42.18
653.793	41.91
654.121	41.88
654.449	41.67
654.777	41.82
655.105	41.92
655.433	42.21
655.761	41.63
656.089	41.96
656.417	41.69
656.745	42.21
657.073	41.76
657.4	41.83
657.728	41.9
658.056	42.01
658.383	42.69
658.711	41.97
659.038	42.7
659.365	42.66
659.693	41.97
660.02	42.32
660.347	42.04
660.674	42.5
661.001	42.57
661.329	42.37
661.656	42.48
661.982	42.55
662.309	42.7
662.636	42.21
662.963	42.84
663.29	42.71
663.616	42.49
663.943	42.79
664.27	43.43
664.596	43
664.923	42.76
665.249	42.82
665.576	43.03
665.902	42.82
666.228	42.47
666.554	42.38
666.881	42.99
667.207	42.76
667.533	43.04
667.859	42.77
668.185	43.36
668.511	42.68
668.837	42.81
669.162	43.07
669.488	43.3
