Data from 0067_crown_Reflection__1__290.txt Node

Date: Fri Dec 16 16:24:53 CST 2022
User: ToomeyLab
Spectrometer: FLMS14357
Trigger mode: 0
Integration Time (sec): 1.000000E-2
Scans to average: 100
Electric dark correction enabled: true
Nonlinearity correction enabled: false
Boxcar width: 0
XAxis mode: Wavelengths
Number of Pixels in Spectrum: 2048
>>>>>Begin Spectral Data<<<<<
189.047	-78.2
189.435	-78.2
189.823	-78.2
190.211	441.39
190.599	218.31
190.987	-34.94
191.375	-51.03
191.763	351.82
192.151	-30.35
192.538	116.18
192.926	-477.92
193.314	66.89
193.702	-246.38
194.089	-160.51
194.477	99.26
194.864	51.79
195.252	-231.09
195.639	157.31
196.027	231.43
196.414	-1103.62
196.801	-239408312645350
197.189	50.15
197.576	-282.62
197.963	-138.6
198.351	26.66
198.738	-34.8
199.125	15.78
199.512	10.15
199.899	-17.01
200.286	-23.95
200.673	17.77
201.06	25.54
201.447	24.13
201.833	-16.86
202.22	2.87
202.607	-28.82
202.994	-100.17
203.38	-23.03
203.767	-173.27
204.154	-141.04
204.54	2.77
204.927	9.06
205.313	10.26
205.699	-56.07
206.086	-51.84
206.472	-32.54
206.858	13.64
207.245	-27.52
207.631	-17.61
208.017	7.24
208.403	0.46
208.789	-18.39
209.175	16.76
209.561	-27.08
209.947	-11.85
210.333	-32.24
210.719	-55.72
211.105	-73.73
211.491	-9.34
211.876	-6.9
212.262	-57.53
212.648	-44.21
213.034	-25.19
213.419	18.64
213.805	-2.42
214.19	-31.25
214.576	-82.24
214.961	-11.43
215.346	-81.09
215.732	-25.41
216.117	-33.93
216.502	-72.4
216.888	-42.72
217.273	-2.98
217.658	-46.85
218.043	-5.63
218.428	-22.07
218.813	-29.73
219.198	-35.85
219.583	-19.79
219.968	-43.77
220.353	2.04
220.738	-25.49
221.122	-17.58
221.507	-18.19
221.892	-10.18
222.276	-3.39
222.661	-0.05
223.046	-14.17
223.43	-17.73
223.815	4.47
224.199	9.68
224.583	-0.9
224.968	1.33
225.352	0.01
225.736	10.29
226.121	-13.07
226.505	-2.2
226.889	1.32
227.273	1.21
227.657	-1.9
228.041	5.75
228.425	-1.11
228.809	4.79
229.193	-0.24
229.577	1.79
229.961	3.11
230.344	2.52
230.728	2.7
231.112	2.3
231.495	2.44
231.879	1.42
232.263	0.2
232.646	1.69
233.03	-0.33
233.413	-0.1
233.797	2.6
234.18	-0.54
234.563	-0.66
234.946	-0.64
235.33	3.41
235.713	1.63
236.096	1.08
236.479	1.9
236.862	1.99
237.245	2.55
237.628	1.19
238.011	1.31
238.394	3.21
238.777	4.68
239.16	-0.74
239.543	0.72
239.925	1.83
240.308	2.51
240.691	0.48
241.073	1.21
241.456	1.23
241.838	1.36
242.221	2.61
242.603	1.22
242.986	3.36
243.368	2.2
243.75	2.11
244.133	2.68
244.515	2.6
244.897	2.27
245.279	1.96
245.661	2.69
246.043	2.9
246.425	1.72
246.807	1.86
247.189	1.74
247.571	2.14
247.953	2.48
248.335	2.65
248.717	2.52
249.098	2.62
249.48	1.85
249.862	2.38
250.243	2.46
250.625	2.35
251.006	1.99
251.388	2.21
251.769	1.35
252.151	1.67
252.532	2.48
252.913	2.41
253.295	2.42
253.676	2.22
254.057	2.48
254.438	2.12
254.819	1.64
255.2	2.26
255.581	1.69
255.962	2.27
256.343	1.55
256.724	1.88
257.105	2.37
257.486	2.03
257.867	0.35
258.247	1.45
258.628	2.71
259.009	2.67
259.389	2.24
259.77	1.94
260.15	2.78
260.531	2.59
260.911	2.3
261.292	2.4
261.672	2.31
262.052	1.87
262.432	1.89
262.813	1.84
263.193	1.54
263.573	1.69
263.953	1.84
264.333	2.28
264.713	1.71
265.093	2.01
265.473	3.53
265.853	1.27
266.233	1.68
266.612	2.5
266.992	0.82
267.372	1.78
267.752	1.17
268.131	1.71
268.511	2.19
268.89	2.31
269.27	1.9
269.649	2.87
270.029	2.07
270.408	2.03
270.787	1.76
271.167	1.98
271.546	1.22
271.925	2.14
272.304	2.46
272.683	1.97
273.062	2.17
273.441	2.75
273.82	2.4
274.199	1.78
274.578	1.92
274.957	2.1
275.336	1.86
275.715	2.59
276.093	2.44
276.472	1.76
276.851	2.57
277.229	2.74
277.608	1.57
277.986	2.36
278.365	2
278.743	2.25
279.122	1.5
279.5	1.64
279.878	1.17
280.257	2.25
280.635	2.09
281.013	2.37
281.391	1.8
281.769	1.61
282.147	1.48
282.525	1.82
282.903	1.77
283.281	1.93
283.659	1.92
284.037	1.8
284.415	1.99
284.792	2.18
285.17	1.38
285.548	1.83
285.925	1.61
286.303	1.56
286.68	2.34
287.058	1.76
287.435	1.73
287.813	2.15
288.19	2.68
288.567	1.8
288.945	1.96
289.322	2.2
289.699	2.3
290.076	1.98
290.453	1.57
290.83	1.95
291.207	1.85
291.584	1.47
291.961	1.95
292.338	2.14
292.715	2.21
293.092	1.36
293.469	1.42
293.845	2.08
294.222	2.04
294.599	1.78
294.975	2.29
295.352	1.45
295.728	2.07
296.105	1.33
296.481	2.09
296.858	1.62
297.234	1.97
297.61	1.91
297.986	2.04
298.363	1.32
298.739	2.24
299.115	1.75
299.491	1.81
299.867	1.77
300.243	1.71
300.619	1.7
300.995	1.65
301.371	2.06
301.746	1.6
302.122	2.24
302.498	2.1
302.874	2.11
303.249	2.5
303.625	2.48
304	1.46
304.376	1.64
304.751	1.78
305.127	1.94
305.502	1.92
305.878	1.61
306.253	1.85
306.628	2.36
307.003	2.08
307.378	1.8
307.754	1.94
308.129	1.06
308.504	1.34
308.879	2.29
309.254	1.88
309.629	1.61
310.003	2.05
310.378	2.52
310.753	2.05
311.128	1.89
311.502	1.98
311.877	1.75
312.252	1.65
312.626	1.58
313.001	2.23
313.375	1.98
313.75	1.51
314.124	1.91
314.498	1.62
314.873	1.65
315.247	1.7
315.621	2.03
315.995	1.74
316.369	2.13
316.743	2.13
317.117	1.73
317.491	1.92
317.865	1.19
318.239	2.37
318.613	1.68
318.987	1.38
319.361	1.71
319.734	1.44
320.108	2.27
320.482	1.77
320.855	1.8
321.229	2.41
321.602	1.71
321.976	1.82
322.349	1.6
322.723	0.87
323.096	1.92
323.469	1.13
323.843	2.46
324.216	1.33
324.589	2.39
324.962	2.45
325.335	1.9
325.708	1.98
326.081	2.31
326.454	1.73
326.827	2.01
327.2	2.06
327.573	2.18
327.945	1.52
328.318	1.98
328.691	1.56
329.063	2.06
329.436	1.64
329.809	1.87
330.181	1.17
330.553	1.76
330.926	2.07
331.298	1.56
331.671	2.1
332.043	1.92
332.415	2.17
332.787	1.83
333.159	1.97
333.532	1.82
333.904	2.44
334.276	1.97
334.648	1.98
335.02	1.98
335.391	1.78
335.763	1.61
336.135	2.05
336.507	1.88
336.879	1.79
337.25	1.98
337.622	2.15
337.993	2.16
338.365	2.52
338.736	2.1
339.108	2.21
339.479	1.91
339.851	2.03
340.222	1.91
340.593	2.1
340.964	1.73
341.336	1.57
341.707	2.01
342.078	1.5
342.449	2.09
342.82	2.02
343.191	1.32
343.562	1.95
343.933	2.18
344.303	2.11
344.674	1.79
345.045	2.06
345.416	2.26
345.786	1.84
346.157	1.89
346.527	1.96
346.898	1.87
347.268	1.87
347.639	2.1
348.009	2.47
348.38	2.05
348.75	2.12
349.12	1.93
349.49	1.9
349.861	2.03
350.231	2.41
350.601	1.86
350.971	1.73
351.341	2.53
351.711	1.89
352.081	1.71
352.45	2.16
352.82	2.29
353.19	2.05
353.56	2.58
353.929	2.28
354.299	1.91
354.669	1.76
355.038	2.02
355.408	2.34
355.777	2.01
356.147	2.41
356.516	2.46
356.885	2.33
357.254	2.19
357.624	2.21
357.993	2.34
358.362	2.28
358.731	2.18
359.1	2.2
359.469	2.08
359.838	2.04
360.207	1.93
360.576	1.9
360.945	1.78
361.314	2.16
361.682	2.3
362.051	2.24
362.42	2.39
362.788	2.34
363.157	1.99
363.525	2.21
363.894	1.98
364.262	1.94
364.631	2.75
364.999	1.8
365.367	2.54
365.735	1.82
366.104	1.95
366.472	2.49
366.84	2.47
367.208	1.9
367.576	2.23
367.944	2.58
368.312	1.83
368.68	2.28
369.048	2.44
369.416	2.2
369.783	2.3
370.151	2.4
370.519	2.01
370.886	2.08
371.254	2.18
371.621	2.2
371.989	1.91
372.356	2.29
372.724	2.5
373.091	2.15
373.458	2.41
373.826	2.29
374.193	2.84
374.56	2.19
374.927	2.46
375.294	2.49
375.661	2.56
376.028	2.33
376.395	2.27
376.762	2.46
377.129	2.61
377.496	2.27
377.863	2.33
378.229	1.86
378.596	2.26
378.963	2.07
379.329	2.26
379.696	2.19
380.062	2.46
380.429	2.2
380.795	2.18
381.161	1.99
381.528	1.9
381.894	2.36
382.26	2.17
382.626	1.85
382.993	2.25
383.359	2.44
383.725	2.23
384.091	2.21
384.457	2.28
384.823	2.3
385.188	2.53
385.554	2.24
385.92	2.53
386.286	2.6
386.651	2.29
387.017	2.11
387.383	2.3
387.748	2.2
388.114	2.36
388.479	2.44
388.845	2.52
389.21	2.62
389.575	2.53
389.94	2.52
390.306	2.2
390.671	2.26
391.036	2.43
391.401	2.7
391.766	2.53
392.131	2.36
392.496	2.37
392.861	2.2
393.226	2.49
393.591	2.39
393.956	2.58
394.32	2.13
394.685	2.46
395.05	2.2
395.414	2.39
395.779	2.26
396.143	2.38
396.508	2.58
396.872	2.39
397.236	2.06
397.601	2.72
397.965	1.98
398.329	2.55
398.694	2.11
399.058	2.31
399.422	2.29
399.786	2.49
400.15	2.47
400.514	2.38
400.878	2.27
401.242	2.53
401.605	2.27
401.969	2.41
402.333	2.31
402.697	2.35
403.06	2.36
403.424	2.22
403.787	2.66
404.151	2.13
404.514	2.35
404.878	2.41
405.241	2.37
405.604	2.51
405.968	2.43
406.331	2.56
406.694	2.36
407.057	2.62
407.42	2.44
407.783	2.48
408.146	2.53
408.509	2.18
408.872	2.31
409.235	2.49
409.598	2.57
409.961	2.64
410.323	2.37
410.686	2.29
411.049	2.17
411.411	2.47
411.774	2.44
412.136	2.48
412.499	2.31
412.861	2.34
413.223	2.65
413.586	2.48
413.948	2.53
414.31	2.54
414.672	2.3
415.035	2.55
415.397	2.5
415.759	2.39
416.121	2.63
416.483	2.53
416.845	2.22
417.206	2.68
417.568	2.49
417.93	2.31
418.292	2.49
418.653	2.47
419.015	2.62
419.377	2.43
419.738	2.36
420.1	2.4
420.461	2.33
420.822	2.45
421.184	2.48
421.545	2.35
421.906	2.38
422.267	2.31
422.629	2.4
422.99	2.41
423.351	2.51
423.712	2.47
424.073	2.63
424.434	2.3
424.795	2.39
425.155	2.39
425.516	2.39
425.877	2.4
426.238	2.34
426.598	2.41
426.959	2.44
427.32	2.39
427.68	2.54
428.041	2.42
428.401	2.41
428.761	2.48
429.122	2.11
429.482	2.48
429.842	2.56
430.202	2.44
430.563	2.41
430.923	2.41
431.283	2.52
431.643	2.36
432.003	2.39
432.363	2.49
432.722	2.44
433.082	2.41
433.442	2.47
433.802	2.56
434.161	2.45
434.521	2.51
434.881	2.45
435.24	2.32
435.6	2.5
435.959	2.53
436.319	2.38
436.678	2.58
437.037	2.5
437.396	2.52
437.756	2.47
438.115	2.52
438.474	2.69
438.833	2.44
439.192	2.55
439.551	2.43
439.91	2.55
440.269	2.63
440.628	2.54
440.987	2.38
441.345	2.47
441.704	2.44
442.063	2.5
442.421	2.54
442.78	2.48
443.138	2.38
443.497	2.41
443.855	2.47
444.214	2.45
444.572	2.48
444.93	2.53
445.288	2.53
445.647	2.54
446.005	2.33
446.363	2.45
446.721	2.37
447.079	2.45
447.437	2.37
447.795	2.48
448.153	2.48
448.51	2.41
448.868	2.57
449.226	2.51
449.584	2.48
449.941	2.56
450.299	2.41
450.656	2.6
451.014	2.55
451.371	2.62
451.729	2.56
452.086	2.49
452.443	2.45
452.801	2.55
453.158	2.47
453.515	2.41
453.872	2.56
454.229	2.43
454.586	2.47
454.943	2.47
455.3	2.68
455.657	2.39
456.014	2.48
456.371	2.61
456.727	2.51
457.084	2.4
457.441	2.52
457.797	2.53
458.154	2.66
458.51	2.6
458.867	2.37
459.223	2.53
459.58	2.46
459.936	2.52
460.292	2.61
460.648	2.33
461.005	2.47
461.361	2.53
461.717	2.56
462.073	2.54
462.429	2.57
462.785	2.53
463.141	2.6
463.496	2.43
463.852	2.53
464.208	2.59
464.564	2.46
464.919	2.55
465.275	2.59
465.631	2.51
465.986	2.51
466.342	2.42
466.697	2.55
467.052	2.54
467.408	2.54
467.763	2.42
468.118	2.59
468.473	2.61
468.829	2.52
469.184	2.62
469.539	2.38
469.894	2.56
470.249	2.53
470.603	2.56
470.958	2.67
471.313	2.48
471.668	2.6
472.023	2.71
472.377	2.47
472.732	2.47
473.086	2.44
473.441	2.59
473.795	2.46
474.15	2.39
474.504	2.54
474.859	2.62
475.213	2.4
475.567	2.5
475.921	2.65
476.275	2.68
476.63	2.58
476.984	2.36
477.338	2.87
477.692	2.47
478.045	2.5
478.399	2.66
478.753	2.49
479.107	2.57
479.461	2.55
479.814	2.44
480.168	2.61
480.521	2.46
480.875	2.73
481.228	2.57
481.582	2.46
481.935	2.54
482.289	2.56
482.642	2.54
482.995	2.58
483.348	2.52
483.701	2.48
484.055	2.42
484.408	2.48
484.761	2.32
485.114	2.32
485.466	2.34
485.819	2.39
486.172	2.47
486.525	2.52
486.878	2.51
487.23	2.46
487.583	2.53
487.936	2.52
488.288	2.45
488.641	2.42
488.993	2.35
489.345	2.39
489.698	2.49
490.05	2.43
490.402	2.54
490.754	2.58
491.107	2.56
491.459	2.58
491.811	2.65
492.163	2.57
492.515	2.5
492.866	2.34
493.218	2.37
493.57	2.52
493.922	2.49
494.274	2.57
494.625	2.57
494.977	2.57
495.328	2.66
495.68	2.66
496.031	2.52
496.383	2.55
496.734	2.64
497.086	2.55
497.437	2.72
497.788	2.53
498.139	2.63
498.49	2.54
498.842	2.53
499.193	2.56
499.544	2.65
499.894	2.57
500.245	2.52
500.596	2.58
500.947	2.63
501.298	2.59
501.648	2.61
501.999	2.78
502.35	2.6
502.7	2.67
503.051	2.67
503.401	2.52
503.752	2.63
504.102	2.61
504.452	2.6
504.803	2.53
505.153	2.47
505.503	2.52
505.853	2.6
506.203	2.6
506.553	2.5
506.903	2.58
507.253	2.59
507.603	2.56
507.953	2.65
508.303	2.57
508.652	2.6
509.002	2.67
509.352	2.65
509.701	2.58
510.051	2.59
510.4	2.54
510.75	2.66
511.099	2.55
511.449	2.57
511.798	2.7
512.147	2.57
512.496	2.6
512.846	2.58
513.195	2.65
513.544	2.58
513.893	2.52
514.242	2.59
514.591	2.55
514.939	2.61
515.288	2.61
515.637	2.68
515.986	2.59
516.334	2.7
516.683	2.63
517.032	2.53
517.38	2.65
517.729	2.71
518.077	2.65
518.426	2.56
518.774	2.53
519.122	2.58
519.47	2.6
519.819	2.56
520.167	2.56
520.515	2.6
520.863	2.58
521.211	2.63
521.559	2.65
521.907	2.51
522.255	2.65
522.602	2.73
522.95	2.61
523.298	2.62
523.645	2.62
523.993	2.67
524.341	2.58
524.688	2.64
525.036	2.61
525.383	2.68
525.73	2.62
526.078	2.73
526.425	2.56
526.772	2.5
527.119	2.47
527.466	2.57
527.814	2.54
528.161	2.59
528.508	2.58
528.854	2.52
529.201	2.53
529.548	2.44
529.895	2.36
530.242	2.42
530.588	2.51
530.935	2.58
531.282	2.62
531.628	2.64
531.975	2.65
532.321	2.61
532.667	2.63
533.014	2.6
533.36	2.58
533.706	2.56
534.052	2.47
534.399	2.5
534.745	2.48
535.091	2.48
535.437	2.56
535.783	2.69
536.129	2.64
536.474	2.69
536.82	2.59
537.166	2.66
537.512	2.6
537.857	2.54
538.203	2.61
538.549	2.69
538.894	2.51
539.239	2.76
539.585	2.64
539.93	2.67
540.276	2.66
540.621	2.57
540.966	2.6
541.311	2.6
541.656	2.52
542.001	2.59
542.346	2.52
542.691	2.47
543.036	2.41
543.381	2.53
543.726	2.6
544.071	2.63
544.415	2.61
544.76	2.52
545.105	2.59
545.449	2.54
545.794	2.61
546.138	2.65
546.483	2.63
546.827	2.61
547.171	2.62
547.516	2.73
547.86	2.69
548.204	2.63
548.548	2.63
548.892	2.73
549.236	2.76
549.58	2.79
549.924	2.7
550.268	2.8
550.612	2.73
550.956	2.64
551.3	2.76
551.643	2.69
551.987	2.68
552.33	2.74
552.674	2.73
553.017	2.65
553.361	2.67
553.704	2.58
554.048	2.67
554.391	2.55
554.734	2.71
555.077	2.72
555.42	2.74
555.764	2.73
556.107	2.79
556.45	2.73
556.793	2.69
557.135	2.71
557.478	2.63
557.821	2.67
558.164	2.78
558.507	2.61
558.849	2.62
559.192	2.74
559.534	2.58
559.877	2.84
560.219	2.85
560.562	2.85
560.904	2.6
561.246	2.78
561.589	2.68
561.931	2.88
562.273	2.75
562.615	2.73
562.957	2.83
563.299	2.7
563.641	2.81
563.983	2.65
564.325	2.49
564.667	2.67
565.008	2.72
565.35	2.82
565.692	2.92
566.033	2.56
566.375	2.52
566.716	2.73
567.058	2.78
567.399	2.62
567.741	2.74
568.082	2.68
568.423	2.75
568.764	2.76
569.105	2.65
569.447	2.8
569.788	2.65
570.129	2.74
570.47	2.71
570.811	2.68
571.151	2.64
571.492	2.71
571.833	2.64
572.174	2.77
572.514	2.66
572.855	2.81
573.195	2.68
573.536	2.61
573.876	2.69
574.217	2.84
574.557	2.86
574.898	2.56
575.238	2.6
575.578	2.77
575.918	2.69
576.258	2.78
576.598	2.76
576.938	2.83
577.278	2.64
577.618	2.68
577.958	2.71
578.298	2.72
578.638	2.68
578.977	2.87
579.317	2.92
579.657	2.67
579.996	2.82
580.336	2.68
580.675	2.85
581.014	2.92
581.354	2.83
581.693	2.82
582.032	2.58
582.372	2.84
582.711	2.89
583.05	2.95
583.389	2.84
583.728	2.83
584.067	2.71
584.406	2.91
584.745	2.72
585.083	2.96
585.422	2.75
585.761	2.95
586.1	2.97
586.438	2.89
586.777	2.81
587.115	2.9
587.454	2.67
587.792	2.57
588.13	3.05
588.469	2.88
588.807	2.81
589.145	3.11
589.483	2.59
589.821	2.72
590.159	2.66
590.497	2.59
590.835	2.71
591.173	2.85
591.511	2.85
591.849	2.99
592.187	2.98
592.524	2.78
592.862	2.84
593.2	2.75
593.537	2.78
593.875	2.81
594.212	2.8
594.55	2.74
594.887	3.05
595.224	2.73
595.561	2.83
595.899	2.78
596.236	2.84
596.573	2.51
596.91	2.88
597.247	2.83
597.584	2.67
597.921	2.85
598.258	2.97
598.594	2.61
598.931	2.79
599.268	2.69
599.604	2.95
599.941	2.85
600.277	2.89
600.614	2.89
600.95	3.04
601.287	2.58
601.623	3.15
601.959	2.89
602.296	2.91
602.632	2.95
602.968	2.86
603.304	2.87
603.64	2.66
603.976	2.88
604.312	3.04
604.648	2.76
604.984	2.88
605.319	2.97
605.655	2.87
605.991	2.81
606.326	2.75
606.662	2.67
606.998	2.73
607.333	2.93
607.668	2.81
608.004	2.81
608.339	2.81
608.674	2.83
609.01	2.84
609.345	3.04
609.68	2.55
610.015	2.96
610.35	2.86
610.685	2.84
611.02	3.02
611.355	2.82
611.689	2.75
612.024	2.91
612.359	2.83
612.694	3.14
613.028	3.13
613.363	2.92
613.697	2.83
614.032	2.99
614.366	2.84
614.7	3.14
615.035	2.86
615.369	2.88
615.703	3.24
616.037	2.8
616.371	2.58
616.705	3.05
617.039	3.14
617.373	3.01
617.707	2.97
618.041	3.21
618.375	2.69
618.709	2.63
619.042	3.1
619.376	2.61
619.71	3.1
620.043	3.06
620.377	2.7
620.71	2.93
621.043	2.75
621.377	3.02
621.71	3.32
622.043	3.19
622.376	2.76
622.709	3.21
623.043	2.58
623.376	2.89
623.709	3.12
624.041	2.73
624.374	2.78
624.707	2.66
625.04	3.15
625.373	2.93
625.705	2.94
626.038	2.92
626.37	2.77
626.703	2.74
627.035	2.86
627.368	3
627.7	3.01
628.032	2.9
628.365	2.67
628.697	2.92
629.029	3.15
629.361	2.83
629.693	3.04
630.025	2.78
630.357	2.93
630.689	3.08
631.021	2.69
631.353	3.04
631.684	3.14
632.016	2.75
632.348	3.02
632.679	2.44
633.011	2.75
633.342	3.02
633.674	3.15
634.005	2.83
634.336	2.86
634.668	2.9
634.999	3.03
635.33	2.85
635.661	2.98
635.992	2.75
636.323	3
636.654	3.03
636.985	2.85
637.316	3.29
637.647	2.79
637.977	2.67
638.308	2.72
638.639	2.93
638.969	2.88
639.3	2.76
639.63	2.93
639.961	2.99
640.291	3.2
640.622	3.15
640.952	2.89
641.282	2.68
641.612	2.88
641.943	3.15
642.273	2.95
642.603	2.78
642.933	2.73
643.263	3.05
643.592	2.74
643.922	3.07
644.252	3.05
644.582	2.68
644.911	2.9
645.241	2.9
645.571	3.16
645.9	3.34
646.23	2.58
646.559	3
646.888	2.52
647.218	3.35
647.547	3.03
647.876	2.97
648.205	2.78
648.534	2.68
648.863	3.58
649.192	2.71
649.521	2.19
649.85	3.36
650.179	2.72
650.508	3.09
650.837	2.69
651.165	2.78
651.494	3.26
651.822	3.11
652.151	3.22
652.479	3.3
652.808	2.9
653.136	2.99
653.465	3.17
653.793	3.19
654.121	3.23
654.449	3.12
654.777	3.16
655.105	3.47
655.433	3.23
655.761	2.75
656.089	3.09
656.417	2.88
656.745	3.52
657.073	3.22
657.4	3.34
657.728	3.15
658.056	3.04
658.383	3.19
658.711	2.9
659.038	3.33
659.365	3.38
659.693	2.68
660.02	2.5
660.347	3.22
660.674	2.9
661.001	2.9
661.329	2.96
661.656	2.86
661.982	3.15
662.309	3.09
662.636	3.03
662.963	3.01
663.29	3.23
663.616	3.69
663.943	3.34
664.27	3.03
664.596	3.1
664.923	3.59
665.249	3.33
665.576	3.27
665.902	2.98
666.228	2.61
666.554	3.24
666.881	3.38
667.207	2.46
667.533	3.07
667.859	2.8
668.185	3.3
668.511	3.17
668.837	2.78
669.162	2.87
669.488	2.79
669.814	3.48
670.139	3.63
670.465	3.08
670.791	3.58
671.116	3.02
671.442	3.25
671.767	3.07
672.092	3.16
672.418	2.84
672.743	2.95
673.068	2.64
673.393	3.4
673.718	2.94
674.043	3.55
674.368	3.64
674.693	3.72
675.018	2.69
675.343	3.14
675.667	2.63
675.992	2.28
676.317	2.89
676.641	3.21
676.966	3.12
677.29	2.65
677.615	3.32
677.939	2.58
678.264	3.02
678.588	3.7
678.912	3.33
679.236	3.17
679.56	3.1
679.885	2.78
680.209	2.67
680.532	2.7
680.856	3.35
681.18	2.92
681.504	2.87
681.828	2.64
682.152	3.27
682.475	3.27
682.799	3.3
683.122	3.03
683.446	2.8
683.769	3.11
684.093	3.67
684.416	3.46
684.739	3.61
685.062	3.7
685.386	3.27
685.709	3.12
686.032	3.35
686.355	3.03
686.678	2.71
687.001	2.59
687.324	2.55
687.646	2.65
687.969	2.9
688.292	3.55
688.614	3.74
688.937	2.96
689.26	2.79
689.582	2.81
689.904	3.09
690.227	3.37
690.549	3.56
690.871	3.53
