Data from 0067_crown_Reflection__3__292.txt Node

Date: Fri Dec 16 16:25:12 CST 2022
User: ToomeyLab
Spectrometer: FLMS14357
Trigger mode: 0
Integration Time (sec): 1.000000E-2
Scans to average: 100
Electric dark correction enabled: true
Nonlinearity correction enabled: false
Boxcar width: 0
XAxis mode: Wavelengths
Number of Pixels in Spectrum: 2048
>>>>>Begin Spectral Data<<<<<
189.047	73.51
189.435	73.51
189.823	73.51
190.211	552.2
190.599	75.31
190.987	-72.39
191.375	194.54
191.763	342.1
192.151	-23.3
192.538	-62.17
192.926	-824.58
193.314	147.22
193.702	-92.46
194.089	-78.24
194.477	13.54
194.864	31.99
195.252	9.74
195.639	177.65
196.027	-636.21
196.414	454.28
196.801	54239665630100
197.189	26.12
197.576	-27.41
197.963	-99.39
198.351	0.06
198.738	0.94
199.125	31.53
199.512	-4.47
199.899	-9.16
200.286	-50.92
200.673	-5.56
201.06	17.24
201.447	3.1
201.833	-8.56
202.22	12.65
202.607	-9.9
202.994	62.17
203.38	-17.07
203.767	-2.16
204.154	8.78
204.54	-5.21
204.927	15.48
205.313	-4.39
205.699	-8.48
206.086	13.03
206.472	-4.4
206.858	-19.83
207.245	-0.09
207.631	-10.62
208.017	18.39
208.403	11.78
208.789	-8.42
209.175	40.03
209.561	20.19
209.947	-30.94
210.333	-8.53
210.719	13.98
211.105	-8.87
211.491	15.46
211.876	32.65
212.262	-89.11
212.648	-25.16
213.034	-34.58
213.419	21.59
213.805	5.66
214.19	-30.14
214.576	-9.98
214.961	-19.85
215.346	-68.8
215.732	-24.74
216.117	-1.62
216.502	-58.53
216.888	-17.56
217.273	9.66
217.658	-37.97
218.043	-1.27
218.428	-31.69
218.813	-24.32
219.198	-55.75
219.583	1.01
219.968	-15.74
220.353	20.26
220.738	6.76
221.122	-15.33
221.507	10.04
221.892	-0.8
222.276	-4.4
222.661	-0.85
223.046	-7.21
223.43	-4.86
223.815	4.97
224.199	8.19
224.583	-2.81
224.968	0.97
225.352	-4.24
225.736	9.63
226.121	0.98
226.505	7.14
226.889	8.46
227.273	2.97
227.657	6.45
228.041	6.1
228.425	5.05
228.809	7.24
229.193	4.8
229.577	4.33
229.961	5.47
230.344	5.67
230.728	5.9
231.112	5.49
231.495	5.2
231.879	4.46
232.263	2.9
232.646	3
233.03	3.55
233.413	4.3
233.797	8.36
234.18	5.31
234.563	6.32
234.946	3.99
235.33	5.41
235.713	5.84
236.096	5.51
236.479	6.26
236.862	5.27
237.245	5.75
237.628	6.21
238.011	4.96
238.394	5.08
238.777	8.06
239.16	2.19
239.543	3.95
239.925	4.79
240.308	4.68
240.691	3.5
241.073	6.27
241.456	4.03
241.838	5.16
242.221	4.88
242.603	5.05
242.986	6.25
243.368	5.37
243.75	4.89
244.133	5.43
244.515	5.51
244.897	4.9
245.279	4.97
245.661	5.59
246.043	4.73
246.425	5.32
246.807	5.47
247.189	3.96
247.571	5.15
247.953	5.11
248.335	5.3
248.717	5.15
249.098	5.29
249.48	5.14
249.862	5.21
250.243	4.61
250.625	5.17
251.006	5.07
251.388	5.89
251.769	4.51
252.151	4.85
252.532	5.38
252.913	5.32
253.295	4.61
253.676	5.63
254.057	4.81
254.438	4.67
254.819	4.96
255.2	5.01
255.581	3.97
255.962	4.43
256.343	4.83
256.724	4.78
257.105	4.84
257.486	3.9
257.867	3.07
258.247	4.99
258.628	4.53
259.009	4.98
259.389	5.4
259.77	4.29
260.15	5.23
260.531	4.9
260.911	4.75
261.292	4.68
261.672	4.72
262.052	4.8
262.432	4.43
262.813	5.04
263.193	4.15
263.573	4.43
263.953	4.84
264.333	4.77
264.713	3.95
265.093	4.46
265.473	5.87
265.853	4.31
266.233	4.29
266.612	4.43
266.992	3.09
267.372	4.76
267.752	4.08
268.131	4.39
268.511	4.48
268.89	4.53
269.27	4.69
269.649	5.16
270.029	4.95
270.408	4.24
270.787	4.6
271.167	4.45
271.546	3.51
271.925	4.73
272.304	4.65
272.683	3.76
273.062	4.95
273.441	4.78
273.82	4.95
274.199	4.31
274.578	4.17
274.957	4.4
275.336	4.67
275.715	4.5
276.093	4.98
276.472	4.44
276.851	4.61
277.229	4.61
277.608	4.24
277.986	4.49
278.365	3.72
278.743	4.59
279.122	3.9
279.5	3.82
279.878	3.02
280.257	4.44
280.635	4.07
281.013	4.56
281.391	3.98
281.769	4.18
282.147	4.2
282.525	4.12
282.903	4.35
283.281	4.59
283.659	4.32
284.037	4.63
284.415	4.7
284.792	4.51
285.17	4.03
285.548	4.06
285.925	4.06
286.303	3.9
286.68	4.49
287.058	4.04
287.435	4
287.813	4.39
288.19	4.85
288.567	4.51
288.945	4.48
289.322	3.78
289.699	4.26
290.076	4.36
290.453	4.4
290.83	4.25
291.207	3.86
291.584	4.05
291.961	4.36
292.338	4.37
292.715	4.51
293.092	4.26
293.469	3.95
293.845	3.99
294.222	4.02
294.599	4.47
294.975	4.5
295.352	4.27
295.728	4.37
296.105	4.09
296.481	4.27
296.858	4.27
297.234	4.21
297.61	4.4
297.986	4.22
298.363	3.87
298.739	4.18
299.115	3.97
299.491	4.12
299.867	4.3
300.243	4.03
300.619	4
300.995	3.96
301.371	4.35
301.746	3.75
302.122	3.76
302.498	4.46
302.874	4.21
303.249	4.33
303.625	4.06
304	4.18
304.376	3.69
304.751	4.43
305.127	4.13
305.502	3.74
305.878	3.74
306.253	3.6
306.628	4.28
307.003	4.12
307.378	3.92
307.754	4.06
308.129	3.89
308.504	3.91
308.879	4.49
309.254	4.27
309.629	3.81
310.003	4.4
310.378	4.12
310.753	4.27
311.128	3.81
311.502	3.63
311.877	4.27
312.252	4.05
312.626	3.56
313.001	3.87
313.375	4.07
313.75	3.82
314.124	4.41
314.498	3.61
314.873	4.02
315.247	4.03
315.621	4.75
315.995	3.78
316.369	3.57
316.743	4.23
317.117	3.93
317.491	3.67
317.865	3.69
318.239	3.97
318.613	4.1
318.987	3.54
319.361	3.7
319.734	4.29
320.108	3.97
320.482	4.16
320.855	3.69
321.229	4.12
321.602	3.49
321.976	3.72
322.349	2.49
322.723	3.11
323.096	4.2
323.469	3.57
323.843	3.93
324.216	3.38
324.589	4.12
324.962	3.51
325.335	3.7
325.708	4.32
326.081	4.21
326.454	3.66
326.827	4.27
327.2	4.62
327.573	4.36
327.945	3.82
328.318	3.95
328.691	3.67
329.063	3.88
329.436	3.78
329.809	3.92
330.181	3.76
330.553	4.36
330.926	4.05
331.298	3.71
331.671	3.77
332.043	4.17
332.415	4.11
332.787	4.45
333.159	4.04
333.532	3.64
333.904	4.1
334.276	4.23
334.648	4.16
335.02	3.72
335.391	3.86
335.763	3.91
336.135	3.93
336.507	4.15
336.879	4.03
337.25	4.41
337.622	3.77
337.993	3.56
338.365	4.55
338.736	3.84
339.108	3.69
339.479	4.14
339.851	4.5
340.222	4.1
340.593	3.94
340.964	4.11
341.336	3.77
341.707	3.89
342.078	3.53
342.449	3.86
342.82	3.72
343.191	3.38
343.562	4.03
343.933	4.02
344.303	3.69
344.674	4.24
345.045	4.12
345.416	3.98
345.786	3.52
346.157	3.86
346.527	4.01
346.898	3.83
347.268	3.97
347.639	3.62
348.009	3.92
348.38	3.89
348.75	3.98
349.12	3.98
349.49	3.23
349.861	4.7
350.231	4.23
350.601	4.17
350.971	4.09
351.341	4.2
351.711	3.99
352.081	3.94
352.45	4.42
352.82	4.2
353.19	4.08
353.56	4
353.929	4.13
354.299	3.77
354.669	4.12
355.038	4.32
355.408	4.22
355.777	3.91
356.147	4.1
356.516	3.99
356.885	3.99
357.254	4.27
357.624	4.46
357.993	4.08
358.362	3.98
358.731	4.07
359.1	4.21
359.469	4.27
359.838	4.13
360.207	4.19
360.576	4
360.945	4.1
361.314	4.06
361.682	3.96
362.051	4.06
362.42	4.36
362.788	3.99
363.157	4.02
363.525	3.81
363.894	3.88
364.262	4.25
364.631	4.5
364.999	3.8
365.367	4.43
365.735	4.01
366.104	3.87
366.472	4.16
366.84	4.06
367.208	3.74
367.576	4.13
367.944	4.45
368.312	4.25
368.68	4.31
369.048	4.44
369.416	4.26
369.783	4.21
370.151	4.42
370.519	4.09
370.886	4.24
371.254	4.15
371.621	3.91
371.989	4.24
372.356	4.1
372.724	4.47
373.091	4.21
373.458	4.15
373.826	4.14
374.193	4.24
374.56	4.12
374.927	4.02
375.294	4.37
375.661	4.28
376.028	4.57
376.395	4.23
376.762	4.64
377.129	4.45
377.496	4.2
377.863	4.28
378.229	4.15
378.596	4.16
378.963	4.15
379.329	4.27
379.696	4.15
380.062	4.4
380.429	4.2
380.795	3.95
381.161	4.14
381.528	4
381.894	4.42
382.26	4.15
382.626	4.42
382.993	4.18
383.359	4.09
383.725	4.44
384.091	4.41
384.457	4.51
384.823	4.24
385.188	4.37
385.554	4.49
385.92	4.44
386.286	4.32
386.651	4.43
387.017	4.59
387.383	4.28
387.748	4.11
388.114	4.34
388.479	4.44
388.845	4.36
389.21	4.38
389.575	4.47
389.94	4.52
390.306	4.31
390.671	4.25
391.036	4.42
391.401	4.72
391.766	4.48
392.131	4.29
392.496	4.16
392.861	4.04
393.226	4.21
393.591	4.43
393.956	4.58
394.32	4.24
394.685	4.51
395.05	4.31
395.414	4.36
395.779	4.29
396.143	4.43
396.508	4.62
396.872	4.47
397.236	4.08
397.601	4.57
397.965	4.12
398.329	4.56
398.694	4.31
399.058	4.37
399.422	4.63
399.786	4.37
400.15	4.46
400.514	4.5
400.878	4.34
401.242	4.53
401.605	4.78
401.969	4.5
402.333	4.36
402.697	4.89
403.06	4.6
403.424	4.29
403.787	4.49
404.151	4.38
404.514	4.44
404.878	4.55
405.241	4.6
405.604	4.49
405.968	4.43
406.331	4.58
406.694	4.41
407.057	4.64
407.42	4.34
407.783	4.3
408.146	4.3
408.509	4.46
408.872	4.51
409.235	4.58
409.598	4.67
409.961	4.61
410.323	4.51
410.686	4.48
411.049	4.23
411.411	4.32
411.774	4.25
412.136	4.49
412.499	4.49
412.861	4.53
413.223	4.66
413.586	4.43
413.948	4.65
414.31	4.59
414.672	4.52
415.035	4.65
415.397	4.76
415.759	4.58
416.121	4.68
416.483	4.59
416.845	4.47
417.206	4.52
417.568	4.44
417.93	4.43
418.292	4.42
418.653	4.42
419.015	4.62
419.377	4.56
419.738	4.38
420.1	4.41
420.461	4.47
420.822	4.46
421.184	4.44
421.545	4.46
421.906	4.38
422.267	4.36
422.629	4.41
422.99	4.44
423.351	4.56
423.712	4.44
424.073	4.57
424.434	4.38
424.795	4.42
425.155	4.41
425.516	4.32
425.877	4.42
426.238	4.32
426.598	4.47
426.959	4.43
427.32	4.57
427.68	4.55
428.041	4.58
428.401	4.45
428.761	4.48
429.122	4.45
429.482	4.35
429.842	4.69
430.202	4.44
430.563	4.64
430.923	4.47
431.283	4.56
431.643	4.58
432.003	4.65
432.363	4.61
432.722	4.59
433.082	4.46
433.442	4.42
433.802	4.45
434.161	4.47
434.521	4.58
434.881	4.51
435.24	4.55
435.6	4.59
435.959	4.51
436.319	4.58
436.678	4.56
437.037	4.67
437.396	4.64
437.756	4.67
438.115	4.54
438.474	4.73
438.833	4.74
439.192	4.61
439.551	4.72
439.91	4.6
440.269	4.72
440.628	4.48
440.987	4.39
441.345	4.43
441.704	4.58
442.063	4.59
442.421	4.51
442.78	4.51
443.138	4.6
443.497	4.48
443.855	4.48
444.214	4.55
444.572	4.56
444.93	4.59
445.288	4.74
445.647	4.73
446.005	4.37
446.363	4.52
446.721	4.51
447.079	4.51
447.437	4.5
447.795	4.56
448.153	4.53
448.51	4.48
448.868	4.55
449.226	4.53
449.584	4.44
449.941	4.69
450.299	4.55
450.656	4.68
451.014	4.56
451.371	4.67
451.729	4.62
452.086	4.42
452.443	4.45
452.801	4.75
453.158	4.69
453.515	4.53
453.872	4.75
454.229	4.52
454.586	4.67
454.943	4.62
455.3	4.82
455.657	4.51
456.014	4.72
456.371	4.65
456.727	4.58
457.084	4.72
457.441	4.54
457.797	4.73
458.154	4.67
458.51	4.53
458.867	4.5
459.223	4.7
459.58	4.57
459.936	4.53
460.292	4.67
460.648	4.38
461.005	4.45
461.361	4.44
461.717	4.49
462.073	4.73
462.429	4.65
462.785	4.6
463.141	4.8
463.496	4.55
463.852	4.74
464.208	4.6
464.564	4.65
464.919	4.6
465.275	4.68
465.631	4.72
465.986	4.71
466.342	4.67
466.697	4.54
467.052	4.83
467.408	4.67
467.763	4.61
468.118	4.61
468.473	4.79
468.829	4.54
469.184	4.77
469.539	4.63
469.894	4.68
470.249	4.69
470.603	4.73
470.958	4.7
471.313	4.62
471.668	4.73
472.023	4.92
472.377	4.7
472.732	4.51
473.086	4.53
473.441	4.74
473.795	4.7
474.15	4.67
474.504	4.63
474.859	4.68
475.213	4.71
475.567	4.67
475.921	5
476.275	4.88
476.63	4.76
476.984	4.75
477.338	4.9
477.692	4.81
478.045	4.67
478.399	4.73
478.753	4.55
479.107	4.58
479.461	4.74
479.814	4.75
480.168	4.73
480.521	4.62
480.875	4.89
481.228	4.86
481.582	4.48
481.935	4.67
482.289	4.66
482.642	4.68
482.995	4.65
483.348	4.6
483.701	4.67
484.055	4.54
484.408	4.52
484.761	4.38
485.114	4.36
485.466	4.31
485.819	4.39
486.172	4.47
486.525	4.57
486.878	4.57
487.23	4.59
487.583	4.52
487.936	4.54
488.288	4.47
488.641	4.44
488.993	4.39
489.345	4.42
489.698	4.54
490.05	4.52
490.402	4.64
490.754	4.64
491.107	4.71
491.459	4.74
491.811	4.68
492.163	4.68
492.515	4.56
492.866	4.43
493.218	4.46
493.57	4.57
493.922	4.58
494.274	4.7
494.625	4.76
494.977	4.75
495.328	4.82
495.68	4.88
496.031	4.66
496.383	4.65
496.734	4.83
497.086	4.65
497.437	4.77
497.788	4.71
498.139	4.67
498.49	4.81
498.842	4.62
499.193	4.8
499.544	4.85
499.894	4.74
500.245	4.74
500.596	4.72
500.947	4.62
501.298	4.73
501.648	4.83
501.999	4.99
502.35	4.72
502.7	4.75
503.051	4.9
503.401	4.86
503.752	4.74
504.102	4.77
504.452	4.75
504.803	4.62
505.153	4.82
505.503	4.71
505.853	4.79
506.203	4.82
506.553	4.77
506.903	4.74
507.253	4.72
507.603	4.87
507.953	4.99
508.303	4.74
508.652	4.81
509.002	4.83
509.352	4.8
509.701	4.67
510.051	4.77
510.4	4.79
510.75	4.72
511.099	4.7
511.449	4.78
511.798	4.87
512.147	4.81
512.496	4.78
512.846	4.81
513.195	4.87
513.544	4.83
513.893	4.65
514.242	4.85
514.591	4.92
514.939	4.82
515.288	4.84
515.637	4.9
515.986	4.79
516.334	4.97
516.683	4.88
517.032	4.88
517.38	4.84
517.729	4.85
518.077	4.87
518.426	4.74
518.774	4.74
519.122	4.86
519.47	4.8
519.819	4.76
520.167	4.75
520.515	4.68
520.863	4.8
521.211	4.82
521.559	4.82
521.907	4.83
522.255	4.84
522.602	4.86
522.95	4.96
523.298	4.94
523.645	4.76
523.993	4.96
524.341	4.89
524.688	4.88
525.036	4.99
525.383	4.9
525.73	4.84
526.078	4.93
526.425	4.78
526.772	4.67
527.119	4.7
527.466	4.77
527.814	4.79
528.161	4.79
528.508	4.82
528.854	4.72
529.201	4.61
529.548	4.6
529.895	4.55
530.242	4.55
530.588	4.65
530.935	4.68
531.282	4.73
531.628	4.74
531.975	4.84
532.321	4.83
532.667	4.83
533.014	4.84
533.36	4.84
533.706	4.89
534.052	4.75
534.399	4.68
534.745	4.62
535.091	4.65
535.437	4.74
535.783	4.86
536.129	4.85
536.474	4.99
536.82	4.9
537.166	4.85
537.512	4.93
537.857	4.81
538.203	4.77
538.549	4.84
538.894	4.8
539.239	5
539.585	4.92
539.93	4.94
540.276	4.96
540.621	4.92
540.966	4.91
541.311	4.96
541.656	4.81
542.001	4.87
542.346	4.73
542.691	4.69
543.036	4.69
543.381	4.74
543.726	4.83
544.071	4.83
544.415	4.83
544.76	4.77
545.105	4.86
545.449	4.8
545.794	4.96
546.138	4.91
546.483	4.92
546.827	4.97
547.171	4.87
547.516	5
547.86	4.91
548.204	4.9
548.548	4.94
548.892	4.99
549.236	4.99
549.58	5.04
549.924	4.97
550.268	5.1
550.612	4.99
550.956	4.93
551.3	5.06
551.643	5.05
551.987	4.88
552.33	4.87
552.674	5.12
553.017	4.96
553.361	4.96
553.704	4.97
554.048	5.13
554.391	4.93
554.734	5.1
555.077	5
555.42	5
555.764	5.04
556.107	5.07
556.45	4.96
556.793	5.17
557.135	5.32
557.478	5.16
557.821	4.99
558.164	5.29
558.507	5.09
558.849	4.99
559.192	5.07
559.534	4.99
559.877	5.27
560.219	5.28
560.562	5.07
560.904	5.03
561.246	5.1
561.589	5.15
561.931	5.21
562.273	5.02
562.615	5.07
562.957	5.04
563.299	5.19
563.641	5.05
563.983	5.2
564.325	4.93
564.667	5.15
565.008	5.13
565.35	5.29
565.692	5.29
566.033	5.1
566.375	4.94
566.716	4.98
567.058	5.17
567.399	5.01
567.741	5.26
568.082	5.06
568.423	5
568.764	5.11
569.105	5.16
569.447	5.17
569.788	5.05
570.129	4.99
570.47	5.1
570.811	5.21
571.151	5.05
571.492	5.26
571.833	5.17
572.174	5.09
572.514	5.14
572.855	5.14
573.195	4.94
573.536	5.17
573.876	5.09
574.217	5.12
574.557	5.17
574.898	5.02
575.238	5.03
575.578	5.17
575.918	5.03
576.258	5.07
576.598	5.04
576.938	5.24
577.278	5.09
577.618	5.17
577.958	5.31
578.298	5.19
578.638	5.19
578.977	5.31
579.317	5.2
579.657	5.14
579.996	4.94
580.336	5.24
580.675	5.42
581.014	5.22
581.354	5.23
581.693	5.06
582.032	5.12
582.372	5.24
582.711	5.11
583.05	5.14
583.389	5.19
583.728	5.36
584.067	5.18
584.406	5.31
584.745	5.07
585.083	5.54
585.422	5.24
585.761	5.39
586.1	5.24
586.438	5.35
586.777	5.36
587.115	5.43
587.454	4.99
587.792	5.08
588.13	5.47
588.469	5.31
588.807	5.32
589.145	5.33
589.483	5.16
589.821	5.25
590.159	5.17
590.497	5.1
590.835	5.29
591.173	5.5
591.511	5.33
591.849	5.49
592.187	5.33
592.524	5.04
592.862	5.23
593.2	5.12
593.537	5.25
593.875	5.35
594.212	5.41
594.55	5.46
594.887	5.38
595.224	5.24
595.561	5.15
595.899	5.27
596.236	5.35
596.573	5.14
596.91	5.4
597.247	5.16
597.584	5.45
597.921	5.31
598.258	5.22
598.594	5.16
598.931	5.23
599.268	5.33
599.604	5.46
599.941	5.11
600.277	5.38
600.614	5.38
600.95	5.42
601.287	5.18
601.623	5.35
601.959	5.29
602.296	5.41
602.632	5.51
602.968	5.27
603.304	5.08
603.64	5.21
603.976	5.18
604.312	5.52
604.648	5.49
604.984	5.38
605.319	5.09
605.655	5.41
605.991	5.26
606.326	5.37
606.662	5.17
606.998	5.22
607.333	5.2
607.668	5.39
608.004	5.26
608.339	5.13
608.674	5.09
609.01	5.46
609.345	5.65
609.68	5.25
610.015	5.52
610.35	5.38
610.685	5.55
611.02	5.32
611.355	5.22
611.689	5.2
612.024	5.52
612.359	5.33
612.694	5.55
613.028	5.6
613.363	5.25
613.697	5.51
614.032	5.59
614.366	5.2
614.7	5.63
615.035	5.39
615.369	5.6
615.703	5.9
616.037	5.4
616.371	5.4
616.705	5.34
617.039	5.49
617.373	5.36
617.707	5.44
618.041	5.7
618.375	5.11
618.709	5.33
619.042	5.49
619.376	5.21
619.71	5.54
620.043	5.22
620.377	5.55
620.71	5.53
621.043	5.12
621.377	5.49
621.71	5.55
622.043	5.48
622.376	5.19
622.709	5.66
623.043	5.52
623.376	5.75
623.709	5.61
624.041	5.22
624.374	5.57
624.707	5.28
625.04	5.79
625.373	5.18
625.705	5.67
626.038	5.61
626.37	5.43
626.703	5.35
627.035	5.82
627.368	5.39
627.7	5.43
628.032	5.37
628.365	5.14
628.697	5.41
629.029	5.94
629.361	5.51
629.693	5.53
630.025	5.72
630.357	5.46
630.689	5.54
631.021	5.44
631.353	5.62
631.684	5.38
632.016	5.5
632.348	5.64
632.679	5.36
633.011	5.35
633.342	5.51
633.674	5.44
634.005	5.3
634.336	5.29
634.668	5.53
634.999	5.56
635.33	5.46
635.661	5.58
635.992	5.47
636.323	5.36
636.654	5.66
636.985	5.64
637.316	5.6
637.647	5.77
637.977	6.04
638.308	5.43
638.639	5.22
638.969	5.17
639.3	5.65
639.63	5.28
639.961	5.55
640.291	6.01
640.622	5.81
640.952	5.32
641.282	5.05
641.612	5.19
641.943	5.5
642.273	5.31
642.603	5.19
642.933	5.51
643.263	6.12
643.592	5.54
643.922	5.85
644.252	5.49
644.582	5.75
644.911	5.35
645.241	5.41
645.571	5.4
645.9	6.14
646.23	5.3
646.559	5.8
646.888	5.36
647.218	5.7
647.547	5.81
647.876	6.09
648.205	5.51
648.534	5.72
648.863	5.88
649.192	5.46
649.521	5.23
649.85	5.86
650.179	5.25
650.508	5.68
650.837	5.51
651.165	5.98
651.494	5.56
651.822	5.5
652.151	6.17
652.479	6
652.808	5.64
653.136	5.65
653.465	5.73
653.793	6.07
654.121	5.69
654.449	5.64
654.777	5.84
655.105	6.16
655.433	6.08
655.761	5.21
656.089	5.69
656.417	5.77
656.745	6.15
657.073	6.12
657.4	5.8
657.728	6.02
658.056	5.42
658.383	5.8
658.711	5.33
659.038	6.22
659.365	6.08
659.693	5.55
660.02	5.38
660.347	5.83
660.674	5.35
661.001	5.42
661.329	5.48
661.656	5.38
661.982	5.41
662.309	5.86
662.636	5.59
662.963	6.05
663.29	5.87
663.616	5.58
663.943	6.23
664.27	5.79
664.596	5.54
664.923	6.15
665.249	5.85
665.576	6.01
665.902	5.59
666.228	5.89
666.554	5.46
666.881	6.1
667.207	5.48
667.533	5.8
667.859	6.02
668.185	5.8
668.511	5.53
668.837	5.35
669.162	5.55
669.488	5.57
669.814	6.28
670.139	6.09
670.465	5.88
670.791	5.63
671.116	5.71
671.442	5.98
671.767	5.58
672.092	5.96
672.418	6.36
672.743	6.16
673.068	5.55
673.393	6.15
673.718	5.88
674.043	5.79
674.368	6.39
674.693	6.04
675.018	5.48
675.343	5.91
675.667	5.58
675.992	6.45
676.317	6.14
676.641	5.81
676.966	5.83
677.29	5.82
677.615	6.27
677.939	6.18
678.264	5.56
678.588	5.55
678.912	6.29
679.236	6.02
679.56	5.8
679.885	5.89
680.209	5.29
680.532	5.86
680.856	6.02
681.18	5.83
681.504	5.6
681.828	5.67
682.152	6.02
682.475	5.83
682.799	6.24
683.122	5.55
683.446	5.5
683.769	6.05
684.093	5.94
684.416	5.55
684.739	6.24
685.062	6.65
685.386	6.25
685.709	6.37
686.032	6.47
686.355	5.88
686.678	5.92
687.001	5.48
687.324	5.18
687.646	5.61
687.969	6.31
688.292	6.5
688.614	6.18
688.937	5.78
689.26	5.81
689.582	5.49
689.904	6.26
690.227	6.35
690.549	6.29
690.871	5.64
691.194	6.71
691.516	6.35
691.838	5.98
692.16	6.33
692.482	6.07
