Data from 0067_chest_Reflection__0__284.txt Node

Date: Fri Dec 16 16:22:28 CST 2022
User: ToomeyLab
Spectrometer: FLMS14357
Trigger mode: 0
Integration Time (sec): 1.000000E-2
Scans to average: 100
Electric dark correction enabled: true
Nonlinearity correction enabled: false
Boxcar width: 0
XAxis mode: Wavelengths
Number of Pixels in Spectrum: 2048
>>>>>Begin Spectral Data<<<<<
189.047	-81.34
189.435	-81.34
189.823	-81.34
190.211	437.16
190.599	-199.25
190.987	13.45
191.375	-114.87
191.763	448.26
192.151	-55.85
192.538	27.05
192.926	1478.33
193.314	106.69
193.702	-102.7
194.089	200.89
194.477	638.69
194.864	-38.86
195.252	-16.46
195.639	52.12
196.027	530.15
196.414	-827.63
196.801	-644321345189300
197.189	90.53
197.576	-167.45
197.963	-431.86
198.351	-7.45
198.738	-51.63
199.125	32.46
199.512	-3.72
199.899	-38.78
200.286	-35.48
200.673	25.32
201.06	8.72
201.447	17.39
201.833	-39.72
202.22	10.94
202.607	-39.69
202.994	39.38
203.38	-45.48
203.767	-118.35
204.154	-41.61
204.54	-3.11
204.927	-0.7
205.313	18.17
205.699	2.58
206.086	-35.72
206.472	-99.88
206.858	-14.3
207.245	-3.44
207.631	-20.44
208.017	-12.87
208.403	-8.32
208.789	13.98
209.175	60.85
209.561	-36.28
209.947	-52.71
210.333	-55.32
210.719	-14.26
211.105	-83.93
211.491	-41.86
211.876	-16.91
212.262	-89.82
212.648	-29.11
213.034	-26.61
213.419	26.5
213.805	-4.52
214.19	-38.56
214.576	-63.83
214.961	-4.86
215.346	-49.35
215.732	-6.7
216.117	-24.7
216.502	-44.78
216.888	-51.93
217.273	-8.45
217.658	-6.57
218.043	-8.59
218.428	-34.62
218.813	-33.17
219.198	-47.89
219.583	-9.94
219.968	-3.95
220.353	-2.73
220.738	2.07
221.122	1.59
221.507	7.59
221.892	-7.1
222.276	5.01
222.661	-19.6
223.046	-9.18
223.43	-12.88
223.815	3.65
224.199	1.44
224.583	-5.57
224.968	5.67
225.352	-7.78
225.736	0.65
226.121	-1.44
226.505	3.86
226.889	5.03
227.273	2.96
227.657	-1.04
228.041	1.95
228.425	-0.54
228.809	1.92
229.193	1.05
229.577	1.33
229.961	3.61
230.344	3.2
230.728	4.17
231.112	2.56
231.495	3.37
231.879	2.69
232.263	2.42
232.646	0.48
233.03	0.1
233.413	-0.11
233.797	3.65
234.18	1.2
234.563	1.93
234.946	2.26
235.33	1.96
235.713	2.64
236.096	3.03
236.479	3.15
236.862	3.68
237.245	3.84
237.628	3.94
238.011	4.29
238.394	4.97
238.777	1.16
239.16	-0.08
239.543	1.99
239.925	3.38
240.308	3.02
240.691	3.62
241.073	2.96
241.456	2.78
241.838	2.81
242.221	2.16
242.603	3.54
242.986	4.54
243.368	3.33
243.75	3.02
244.133	3.68
244.515	4
244.897	3.43
245.279	2.91
245.661	3.88
246.043	2.43
246.425	2.14
246.807	3.56
247.189	2.74
247.571	3.35
247.953	3.69
248.335	3.62
248.717	3.5
249.098	3.6
249.48	2.72
249.862	3.25
250.243	3.28
250.625	3.44
251.006	3.57
251.388	2.81
251.769	2.28
252.151	3.06
252.532	3.62
252.913	3.59
253.295	3.14
253.676	4.12
254.057	3.26
254.438	3.1
254.819	2.89
255.2	2.29
255.581	2.24
255.962	2.74
256.343	3.72
256.724	2.89
257.105	3.6
257.486	2.92
257.867	1.55
258.247	2.27
258.628	3.52
259.009	3.1
259.389	3.92
259.77	2.64
260.15	3.76
260.531	3.4
260.911	3.35
261.292	2.85
261.672	3.24
262.052	3.09
262.432	3.31
262.813	3.19
263.193	3.16
263.573	2.46
263.953	2.71
264.333	2.97
264.713	2.68
265.093	2.88
265.473	3.72
265.853	2.99
266.233	2.3
266.612	3.78
266.992	2.65
267.372	3.51
267.752	2.4
268.131	3.39
268.511	2.73
268.89	3
269.27	2.63
269.649	2.78
270.029	2.73
270.408	2.9
270.787	2.35
271.167	2.81
271.546	2.88
271.925	3.03
272.304	2.94
272.683	2.79
273.062	3.26
273.441	3.12
273.82	3.26
274.199	3.12
274.578	2.79
274.957	2.82
275.336	2.74
275.715	3.34
276.093	3.14
276.472	3.26
276.851	3.06
277.229	3.64
277.608	2.33
277.986	3.05
278.365	2.31
278.743	3.73
279.122	2.73
279.5	2.8
279.878	1.73
280.257	2.96
280.635	2.09
281.013	2.88
281.391	3
281.769	2.92
282.147	2.75
282.525	2.95
282.903	3.09
283.281	2.45
283.659	2.52
284.037	2.73
284.415	2.71
284.792	2.26
285.17	2.7
285.548	2.68
285.925	2.32
286.303	2.45
286.68	2.93
287.058	2.94
287.435	2.55
287.813	2.6
288.19	3.3
288.567	2.08
288.945	2.77
289.322	3.08
289.699	3.14
290.076	3.13
290.453	2.83
290.83	2.64
291.207	2.75
291.584	2.29
291.961	3.19
292.338	2.56
292.715	2.63
293.092	2.64
293.469	3.1
293.845	3.25
294.222	3.05
294.599	2.99
294.975	3.34
295.352	1.95
295.728	3.17
296.105	2.81
296.481	2.74
296.858	3.35
297.234	2.77
297.61	3.33
297.986	2.86
298.363	2.82
298.739	2.93
299.115	2.61
299.491	2.83
299.867	3.17
300.243	2.67
300.619	2.89
300.995	2.82
301.371	2.89
301.746	2.75
302.122	2.69
302.498	3.09
302.874	2.81
303.249	2.97
303.625	2.81
304	2.9
304.376	2.43
304.751	2.55
305.127	2.96
305.502	2.98
305.878	3.12
306.253	2.9
306.628	3.05
307.003	2.81
307.378	2.46
307.754	3.17
308.129	2.83
308.504	2.29
308.879	2.92
309.254	3.14
309.629	3.36
310.003	3.39
310.378	2.98
310.753	3.16
311.128	2.79
311.502	2.79
311.877	2.99
312.252	2.69
312.626	2.6
313.001	2.68
313.375	2.75
313.75	3.01
314.124	3.24
314.498	2.7
314.873	2.84
315.247	2.54
315.621	3.39
315.995	3.21
316.369	3.04
316.743	2.89
317.117	2.63
317.491	2.91
317.865	2.12
318.239	3.9
318.613	2.92
318.987	2.54
319.361	2.55
319.734	2.66
320.108	3.48
320.482	2.9
320.855	2.73
321.229	3.37
321.602	3.13
321.976	2.68
322.349	2.66
322.723	2.4
323.096	2.76
323.469	2.73
323.843	3.13
324.216	2.16
324.589	2.91
324.962	3.23
325.335	3.12
325.708	2.77
326.081	3.48
326.454	2.83
326.827	3.18
327.2	3.2
327.573	3.53
327.945	2.86
328.318	2.85
328.691	3.12
329.063	2.95
329.436	3.15
329.809	2.46
330.181	3.01
330.553	3.2
330.926	3.01
331.298	2.18
331.671	2.56
332.043	2.9
332.415	3.05
332.787	3.26
333.159	2.7
333.532	3.09
333.904	2.68
334.276	2.77
334.648	3.45
335.02	2.88
335.391	3.23
335.763	2.77
336.135	2.81
336.507	2.8
336.879	2.86
337.25	2.7
337.622	2.99
337.993	3.3
338.365	3.56
338.736	2.94
339.108	2.56
339.479	2.96
339.851	3.26
340.222	2.99
340.593	3.01
340.964	3.3
341.336	2.73
341.707	2.85
342.078	2.23
342.449	3.73
342.82	3.15
343.191	2.55
343.562	2.79
343.933	3.03
344.303	2.97
344.674	3.3
345.045	3.12
345.416	3.08
345.786	2.68
346.157	3.21
346.527	2.99
346.898	2.77
347.268	2.97
347.639	2.87
348.009	3.34
348.38	3.38
348.75	3.08
349.12	3.06
349.49	3.07
349.861	3.36
350.231	3.46
350.601	3.34
350.971	2.86
351.341	3.26
351.711	2.89
352.081	3.12
352.45	3.13
352.82	3.29
353.19	3.05
353.56	3.09
353.929	3.39
354.299	3.12
354.669	3.01
355.038	2.83
355.408	3.67
355.777	2.86
356.147	3.18
356.516	3.38
356.885	2.95
357.254	2.83
357.624	3.16
357.993	2.96
358.362	3.1
358.731	3.08
359.1	3.3
359.469	3.27
359.838	3.09
360.207	2.76
360.576	2.93
360.945	3.01
361.314	3.04
361.682	2.96
362.051	2.98
362.42	3.39
362.788	3.33
363.157	3.03
363.525	3.03
363.894	2.87
364.262	3.03
364.631	3.69
364.999	3.03
365.367	3.39
365.735	2.77
366.104	2.81
366.472	3.3
366.84	3.45
367.208	2.97
367.576	3.37
367.944	3.52
368.312	2.82
368.68	3.34
369.048	3.29
369.416	3.09
369.783	2.91
370.151	3.31
370.519	2.96
370.886	3.11
371.254	2.94
371.621	3.25
371.989	3.38
372.356	3.21
372.724	3.21
373.091	2.96
373.458	2.93
373.826	3.04
374.193	3.53
374.56	2.98
374.927	2.88
375.294	3.5
375.661	3
376.028	3.19
376.395	3.3
376.762	3.33
377.129	3.19
377.496	3.28
377.863	3.15
378.229	3.17
378.596	2.88
378.963	3.15
379.329	3.08
379.696	3.02
380.062	3.19
380.429	3.32
380.795	3.1
381.161	3.04
381.528	2.76
381.894	3.35
382.26	3.05
382.626	3.1
382.993	2.85
383.359	3.11
383.725	3.55
384.091	3.23
384.457	3.22
384.823	2.98
385.188	3.36
385.554	3.12
385.92	3.4
386.286	3.47
386.651	3.33
387.017	3.51
387.383	3.16
387.748	2.96
388.114	3.45
388.479	3.26
388.845	3.43
389.21	3.51
389.575	3.32
389.94	3.35
390.306	2.97
390.671	3.19
391.036	3.31
391.401	3.31
391.766	3.12
392.131	3.25
392.496	3.06
392.861	3.26
393.226	3.28
393.591	3.28
393.956	3.42
394.32	3.13
394.685	3.32
395.05	3.01
395.414	3.45
395.779	3.15
396.143	3.38
396.508	3.5
396.872	3.31
397.236	3.02
397.601	3.48
397.965	3.4
398.329	3.42
398.694	2.99
399.058	3.48
399.422	3.34
399.786	3.41
400.15	3.46
400.514	3.52
400.878	3.24
401.242	3.56
401.605	3.17
401.969	3.24
402.333	3.14
402.697	3.83
403.06	3.45
403.424	3.13
403.787	3.57
404.151	3.31
404.514	3.26
404.878	3.34
405.241	3.38
405.604	3.25
405.968	3.2
406.331	3.17
406.694	3.23
407.057	3.56
407.42	3.32
407.783	3.44
408.146	3.28
408.509	3.15
408.872	3.19
409.235	3.39
409.598	3.68
409.961	3.33
410.323	3.37
410.686	3.36
411.049	3.38
411.411	3.28
411.774	3.25
412.136	3.31
412.499	3.29
412.861	2.94
413.223	3.33
413.586	3.31
413.948	3.26
414.31	3.35
414.672	3.3
415.035	3.59
415.397	3.5
415.759	3.35
416.121	3.64
416.483	3.49
416.845	3.42
417.206	3.49
417.568	3.5
417.93	3.38
418.292	3.35
418.653	3.41
419.015	3.51
419.377	3.39
419.738	3.41
420.1	3.4
420.461	3.38
420.822	3.47
421.184	3.31
421.545	3.24
421.906	3.31
422.267	3.21
422.629	3.31
422.99	3.34
423.351	3.5
423.712	3.34
424.073	3.48
424.434	3.29
424.795	3.35
425.155	3.34
425.516	3.3
425.877	3.28
426.238	3.23
426.598	3.35
426.959	3.28
427.32	3.42
427.68	3.47
428.041	3.56
428.401	3.42
428.761	3.37
429.122	3.34
429.482	3.35
429.842	3.46
430.202	3.39
430.563	3.32
430.923	3.43
431.283	3.45
431.643	3.48
432.003	3.54
432.363	3.59
432.722	3.45
433.082	3.32
433.442	3.45
433.802	3.46
434.161	3.41
434.521	3.47
434.881	3.46
435.24	3.33
435.6	3.45
435.959	3.4
436.319	3.42
436.678	3.37
437.037	3.41
437.396	3.4
437.756	3.42
438.115	3.5
438.474	3.62
438.833	3.49
439.192	3.68
439.551	3.51
439.91	3.51
440.269	3.51
440.628	3.44
440.987	3.34
441.345	3.54
441.704	3.54
442.063	3.41
442.421	3.38
442.78	3.37
443.138	3.42
443.497	3.4
443.855	3.38
444.214	3.59
444.572	3.41
444.93	3.59
445.288	3.56
445.647	3.61
446.005	3.38
446.363	3.46
446.721	3.3
447.079	3.54
447.437	3.42
447.795	3.41
448.153	3.49
448.51	3.37
448.868	3.61
449.226	3.46
449.584	3.39
449.941	3.63
450.299	3.45
450.656	3.53
451.014	3.43
451.371	3.48
451.729	3.45
452.086	3.52
452.443	3.41
452.801	3.66
453.158	3.58
453.515	3.48
453.872	3.65
454.229	3.51
454.586	3.55
454.943	3.44
455.3	3.7
455.657	3.47
456.014	3.62
456.371	3.54
456.727	3.39
457.084	3.59
457.441	3.55
457.797	3.55
458.154	3.51
458.51	3.46
458.867	3.5
459.223	3.59
459.58	3.51
459.936	3.41
460.292	3.56
460.648	3.4
461.005	3.37
461.361	3.44
461.717	3.43
462.073	3.51
462.429	3.49
462.785	3.62
463.141	3.69
463.496	3.62
463.852	3.61
464.208	3.63
464.564	3.47
464.919	3.44
465.275	3.7
465.631	3.57
465.986	3.56
466.342	3.52
466.697	3.56
467.052	3.61
467.408	3.64
467.763	3.29
468.118	3.67
468.473	3.6
468.829	3.53
469.184	3.69
469.539	3.59
469.894	3.61
470.249	3.52
470.603	3.68
470.958	3.85
471.313	3.72
471.668	3.72
472.023	3.91
472.377	3.69
472.732	3.42
473.086	3.5
473.441	3.73
473.795	3.63
474.15	3.66
474.504	3.54
474.859	3.85
475.213	3.55
475.567	3.71
475.921	3.7
476.275	3.66
476.63	3.63
476.984	3.59
477.338	3.92
477.692	3.65
478.045	3.73
478.399	3.68
478.753	3.64
479.107	3.55
479.461	3.7
479.814	3.73
480.168	3.64
480.521	3.63
480.875	3.74
481.228	3.77
481.582	3.63
481.935	3.62
482.289	3.54
482.642	3.68
482.995	3.65
483.348	3.68
483.701	3.63
484.055	3.55
484.408	3.55
484.761	3.46
485.114	3.39
485.466	3.44
485.819	3.42
486.172	3.47
486.525	3.51
486.878	3.54
487.23	3.54
487.583	3.56
487.936	3.61
488.288	3.57
488.641	3.53
488.993	3.44
489.345	3.5
489.698	3.51
490.05	3.53
490.402	3.65
490.754	3.68
491.107	3.77
491.459	3.72
491.811	3.72
492.163	3.67
492.515	3.76
492.866	3.51
493.218	3.52
493.57	3.62
493.922	3.66
494.274	3.68
494.625	3.68
494.977	3.73
495.328	3.77
495.68	3.86
496.031	3.82
496.383	3.7
496.734	3.78
497.086	3.64
497.437	3.8
497.788	3.7
498.139	3.76
498.49	3.8
498.842	3.76
499.193	3.74
499.544	3.87
499.894	3.82
500.245	3.75
500.596	3.77
500.947	3.74
501.298	3.65
501.648	3.66
501.999	4.02
502.35	3.89
502.7	3.74
503.051	4.01
503.401	3.82
503.752	3.79
504.102	3.87
504.452	3.77
504.803	3.73
505.153	3.93
505.503	3.73
505.853	3.86
506.203	3.89
506.553	3.89
506.903	3.78
507.253	3.85
507.603	3.84
507.953	4
508.303	3.93
508.652	3.87
509.002	3.87
509.352	3.97
509.701	3.91
510.051	3.86
510.4	3.77
510.75	3.84
511.099	3.82
511.449	3.86
511.798	3.97
512.147	3.87
512.496	3.93
512.846	3.89
513.195	3.88
513.544	3.85
513.893	3.83
514.242	3.99
514.591	3.92
514.939	3.85
515.288	3.96
515.637	3.94
515.986	3.88
516.334	4.04
516.683	4.05
517.032	3.89
517.38	4.03
517.729	3.94
518.077	3.99
518.426	3.93
518.774	3.92
519.122	3.88
519.47	3.93
519.819	3.93
520.167	3.97
520.515	3.93
520.863	3.89
521.211	3.95
521.559	3.99
521.907	3.99
522.255	3.99
522.602	4.12
522.95	4.03
523.298	3.93
523.645	4.03
523.993	4.14
524.341	4.07
524.688	4.01
525.036	4.14
525.383	4.15
525.73	4.01
526.078	4.09
526.425	3.99
526.772	3.88
527.119	3.98
527.466	4.07
527.814	4.03
528.161	4.02
528.508	4.09
528.854	3.97
529.201	3.94
529.548	3.91
529.895	3.86
530.242	3.92
530.588	3.95
530.935	3.99
531.282	4.03
531.628	4.01
531.975	4.13
532.321	4.07
532.667	4.1
533.014	4.16
533.36	4.1
533.706	4.17
534.052	4.08
534.399	4.04
534.745	4.01
535.091	4.12
535.437	4.12
535.783	4.2
536.129	4.17
536.474	4.29
536.82	4.17
537.166	4.28
537.512	4.23
537.857	4.26
538.203	4.17
538.549	4.3
538.894	4.3
539.239	4.35
539.585	4.31
539.93	4.47
540.276	4.37
540.621	4.27
540.966	4.36
541.311	4.46
541.656	4.24
542.001	4.36
542.346	4.3
542.691	4.2
543.036	4.19
543.381	4.3
543.726	4.37
544.071	4.37
544.415	4.35
544.76	4.3
545.105	4.35
545.449	4.36
545.794	4.38
546.138	4.51
546.483	4.32
546.827	4.54
547.171	4.5
547.516	4.52
547.86	4.45
548.204	4.39
548.548	4.55
548.892	4.57
549.236	4.61
549.58	4.58
549.924	4.63
550.268	4.75
550.612	4.64
550.956	4.66
551.3	4.65
551.643	4.63
551.987	4.65
552.33	4.73
552.674	4.74
553.017	4.89
553.361	4.76
553.704	4.66
554.048	4.82
554.391	4.64
554.734	4.62
555.077	4.76
555.42	4.68
555.764	4.93
556.107	4.93
556.45	4.78
556.793	4.89
557.135	4.96
557.478	4.95
557.821	4.74
558.164	4.98
558.507	4.87
558.849	4.94
559.192	4.89
559.534	4.84
559.877	4.99
560.219	5.06
560.562	5.16
560.904	4.84
561.246	5.09
561.589	5.29
561.931	5.26
562.273	5.15
562.615	5.01
562.957	5.17
563.299	5.12
563.641	5.17
563.983	5.16
564.325	5
564.667	5.14
565.008	5.16
565.35	5.27
565.692	5.41
566.033	5.3
566.375	5.26
566.716	5.41
567.058	5.36
567.399	5.35
567.741	5.38
568.082	5.18
568.423	5.2
568.764	5.41
569.105	5.43
569.447	5.27
569.788	5.5
570.129	5.4
570.47	5.42
570.811	5.49
571.151	5.4
571.492	5.64
571.833	5.42
572.174	5.46
572.514	5.39
572.855	5.7
573.195	5.38
573.536	5.42
573.876	5.52
574.217	5.44
574.557	5.59
574.898	5.26
575.238	5.49
575.578	5.73
575.918	5.62
576.258	5.55
576.598	5.65
576.938	5.91
577.278	5.62
577.618	5.79
577.958	5.75
578.298	5.73
578.638	5.7
578.977	5.81
579.317	5.97
579.657	6
579.996	5.89
580.336	5.8
580.675	6.01
581.014	5.85
581.354	6.01
581.693	5.87
582.032	5.75
582.372	6.16
582.711	6.02
583.05	6.08
583.389	6.25
583.728	6.17
584.067	6.01
584.406	6.32
584.745	6.21
585.083	6.15
585.422	6.22
585.761	6.27
586.1	6.25
586.438	6.28
586.777	6.2
587.115	6.48
587.454	6.28
587.792	6.07
588.13	6.43
588.469	6.47
588.807	6.38
589.145	6.39
589.483	6.35
589.821	6.79
590.159	6.31
590.497	6.29
590.835	6.41
591.173	6.69
591.511	6.6
591.849	6.65
592.187	6.73
592.524	6.43
592.862	6.81
593.2	6.6
593.537	6.73
593.875	6.8
594.212	6.73
594.55	6.62
594.887	6.91
595.224	6.59
595.561	6.82
595.899	6.87
596.236	6.85
596.573	6.77
596.91	6.89
597.247	6.82
597.584	6.95
597.921	6.7
598.258	7.04
598.594	6.78
598.931	6.9
599.268	6.81
599.604	7.2
599.941	6.96
600.277	6.95
600.614	7.06
600.95	7.34
601.287	7.31
601.623	7.43
601.959	7.28
602.296	7.27
602.632	7.34
602.968	7.39
603.304	7.08
603.64	7.13
603.976	7.31
604.312	7.51
604.648	7.43
604.984	7.29
605.319	7.32
605.655	7.46
605.991	7.57
606.326	7.44
606.662	7.44
606.998	7.58
607.333	7.43
607.668	7.43
608.004	7.56
608.339	7.66
608.674	7.5
609.01	7.76
609.345	7.61
609.68	7.65
610.015	7.76
610.35	7.84
610.685	7.74
611.02	7.73
611.355	7.6
611.689	7.59
612.024	7.89
612.359	8.04
612.694	8.09
613.028	7.97
613.363	8.14
613.697	8.02
614.032	8.34
614.366	7.92
614.7	8.35
615.035	8.19
615.369	8.24
615.703	8.26
616.037	8.12
616.371	8.26
616.705	8.27
617.039	8.51
617.373	8.31
617.707	8.23
618.041	8.5
618.375	8.07
618.709	8.25
619.042	8.41
619.376	8.5
619.71	8.4
620.043	8.27
620.377	8.5
620.71	8.51
621.043	8.32
621.377	8.73
621.71	8.32
622.043	8.85
622.376	8.29
622.709	8.89
623.043	8.41
623.376	8.72
623.709	8.69
624.041	8.61
624.374	8.72
624.707	8.5
625.04	8.75
625.373	9.01
625.705	9.06
626.038	8.7
626.37	9.07
626.703	8.77
627.035	9.2
627.368	9.06
627.7	9.04
628.032	9.25
628.365	8.8
628.697	8.97
629.029	9.23
629.361	9.03
629.693	9.24
630.025	8.93
630.357	9.11
630.689	9.43
631.021	9.28
631.353	9.41
631.684	9.42
632.016	9.37
632.348	9.28
632.679	9.24
633.011	9.36
633.342	9.57
633.674	9.36
634.005	9.73
634.336	9.59
634.668	9.5
634.999	9.55
635.33	9.51
635.661	9.55
635.992	9.56
636.323	9.85
636.654	9.91
636.985	9.39
637.316	9.92
637.647	9.8
637.977	9.98
638.308	9.9
638.639	9.94
638.969	10.22
639.3	9.96
639.63	9.72
639.961	10.12
640.291	10.51
640.622	10.57
640.952	9.89
641.282	9.77
641.612	10.21
641.943	10.71
642.273	10.33
642.603	10.32
642.933	10.36
643.263	10.83
643.592	10.29
643.922	10.51
644.252	10.43
644.582	10.1
644.911	10.58
645.241	10.58
645.571	10.19
645.9	11.13
646.23	10.47
646.559	10.68
646.888	10.37
647.218	10.77
647.547	10.76
647.876	11.02
648.205	10.76
648.534	10.89
648.863	11.4
649.192	10.63
649.521	10.63
649.85	11.23
650.179	10.68
650.508	11.09
650.837	10.76
651.165	11.25
651.494	11.03
651.822	11.23
652.151	11.33
652.479	11.15
652.808	10.71
653.136	11.12
653.465	11.4
653.793	11.83
654.121	11.44
654.449	11.23
654.777	11.15
655.105	11.91
655.433	11.8
655.761	11.05
656.089	11.27
656.417	10.77
656.745	11.94
657.073	11.76
657.4	11.85
657.728	11.68
658.056	11.46
658.383	11.83
658.711	11.42
659.038	11.99
659.365	11.57
659.693	11.53
660.02	11.72
660.347	11.66
660.674	11.5
661.001	11.41
661.329	11.76
661.656	11.93
661.982	12.07
662.309	12.03
662.636	11.81
662.963	11.79
663.29	12.02
663.616	12.26
663.943	12.24
664.27	12.08
664.596	12.02
664.923	12.26
665.249	12.11
665.576	11.87
665.902	11.7
666.228	11.84
666.554	12.2
666.881	12.22
667.207	12.23
667.533	12.58
667.859	12.35
668.185	12.65
668.511	12.68
668.837	12.23
669.162	12.74
669.488	11.93
669.814	13.01
670.139	13.22
670.465	12.4
670.791	12.98
671.116	12.97
671.442	12.92
671.767	12.62
672.092	12.84
672.418	12.69
672.743	13.26
673.068	12.57
673.393	12.77
673.718	13.05
674.043	13.22
674.368	13.7
674.693	12.8
675.018	13.33
675.343	13.23
675.667	12.83
675.992	12.93
676.317	13.21
676.641	13.19
676.966	13.07
677.29	13.48
677.615	13.59
677.939	12.92
678.264	13.07
678.588	13.23
678.912	13.85
679.236	13.19
679.56	13.53
679.885	14.06
680.209	12.89
680.532	13.66
680.856	14.49
681.18	13.34
681.504	13.68
681.828	13.01
682.152	13.61
682.475	13.66
682.799	14.3
683.122	13.83
683.446	13.96
683.769	14.04
684.093	14.26
684.416	13.78
684.739	13.9
685.062	14.35
685.386	14.21
685.709	13.69
686.032	14.26
686.355	14.29
686.678	13.8
687.001	13.03
687.324	14.21
687.646	13.95
687.969	15.14
