Data from 0067_chest_Reflection__4__288.txt Node

Date: Fri Dec 16 16:23:16 CST 2022
User: ToomeyLab
Spectrometer: FLMS14357
Trigger mode: 0
Integration Time (sec): 1.000000E-2
Scans to average: 100
Electric dark correction enabled: true
Nonlinearity correction enabled: false
Boxcar width: 0
XAxis mode: Wavelengths
Number of Pixels in Spectrum: 2048
>>>>>Begin Spectral Data<<<<<
189.047	-58.38
189.435	-58.38
189.823	-58.38
190.211	372.13
190.599	-93.31
190.987	64.42
191.375	-238.84
191.763	217.62
192.151	-29.59
192.538	127.85
192.926	1177.92
193.314	112.44
193.702	-102.63
194.089	117.95
194.477	265.03
194.864	-64.67
195.252	109.43
195.639	4.92
196.027	471.51
196.414	-127.96
196.801	464888010249850
197.189	67.17
197.576	175.33
197.963	-320.22
198.351	19.34
198.738	-46.53
199.125	35.43
199.512	29.19
199.899	-68.14
200.286	-71.32
200.673	28.48
201.06	2.09
201.447	19.68
201.833	54.22
202.22	-4.05
202.607	-46.48
202.994	28.16
203.38	-14.96
203.767	-66.66
204.154	-152.82
204.54	-20.45
204.927	8.71
205.313	5.77
205.699	38.09
206.086	34.18
206.472	-18.81
206.858	-11.11
207.245	22.27
207.631	19.16
208.017	40.17
208.403	20.81
208.789	-31.35
209.175	48.93
209.561	-0.67
209.947	-13.64
210.333	-2.04
210.719	27.84
211.105	-32.1
211.491	-23.5
211.876	-55.8
212.262	-111.44
212.648	-83.41
213.034	2.79
213.419	40.24
213.805	0.17
214.19	11.5
214.576	-35.32
214.961	-10.93
215.346	-26.87
215.732	5.27
216.117	-24.92
216.502	-46.55
216.888	1.37
217.273	21.33
217.658	-12.95
218.043	-8.43
218.428	-38.53
218.813	-7.93
219.198	-35.43
219.583	8.79
219.968	-13.04
220.353	-8.4
220.738	-23.04
221.122	-29.04
221.507	-21.75
221.892	-13.19
222.276	11.04
222.661	-25.37
223.046	17.42
223.43	-10.56
223.815	-3.59
224.199	-7.07
224.583	-9.88
224.968	11.62
225.352	-4.02
225.736	-1.89
226.121	-14.2
226.505	-0.22
226.889	2.93
227.273	3.14
227.657	-4.27
228.041	4.08
228.425	2.23
228.809	0.33
229.193	-2.41
229.577	1.57
229.961	2.01
230.344	2.17
230.728	1.87
231.112	2.04
231.495	1.58
231.879	1.25
232.263	0.62
232.646	-0.19
233.03	-0.41
233.413	0.48
233.797	3.38
234.18	-0.86
234.563	0.62
234.946	-0.92
235.33	1.08
235.713	2.68
236.096	1.7
236.479	2.14
236.862	2.03
237.245	2.16
237.628	1.93
238.011	2.75
238.394	3.42
238.777	2.85
239.16	-0.44
239.543	1.85
239.925	3.33
240.308	0.09
240.691	2.46
241.073	1.61
241.456	1.97
241.838	3.49
242.221	2.01
242.603	2.66
242.986	3.3
243.368	2.34
243.75	2.6
244.133	2.47
244.515	2.51
244.897	2.57
245.279	3.05
245.661	2.78
246.043	3
246.425	1.52
246.807	3.29
247.189	2.17
247.571	2.81
247.953	2.37
248.335	2.79
248.717	2.66
249.098	2.89
249.48	2.58
249.862	2.83
250.243	3.09
250.625	2.83
251.006	2.57
251.388	3.22
251.769	2.92
252.151	2.78
252.532	2.6
252.913	3.81
253.295	2.55
253.676	2.76
254.057	2.41
254.438	2.05
254.819	3.92
255.2	2.5
255.581	1.29
255.962	1.59
256.343	2.25
256.724	1.99
257.105	2.16
257.486	2.02
257.867	1.24
258.247	2.65
258.628	3.25
259.009	1.96
259.389	2.96
259.77	1.9
260.15	3.52
260.531	2.29
260.911	2.66
261.292	2.61
261.672	2.46
262.052	2.55
262.432	2.24
262.813	2.93
263.193	2.55
263.573	2.48
263.953	2.37
264.333	2.46
264.713	1.69
265.093	1.92
265.473	2.51
265.853	2.46
266.233	2.23
266.612	2.26
266.992	2.91
267.372	2.32
267.752	2.32
268.131	2.67
268.511	2.94
268.89	2.38
269.27	2.65
269.649	2.68
270.029	2.31
270.408	2.45
270.787	2.11
271.167	2.55
271.546	2
271.925	3.13
272.304	2.58
272.683	2.25
273.062	2.36
273.441	2.2
273.82	2.9
274.199	2.46
274.578	2.54
274.957	2.15
275.336	2.01
275.715	2.47
276.093	2.98
276.472	2.57
276.851	2.86
277.229	3.19
277.608	1.79
277.986	2.46
278.365	1.97
278.743	2.69
279.122	2.2
279.5	2.12
279.878	1.19
280.257	2.27
280.635	2.08
281.013	2.19
281.391	2.45
281.769	2.28
282.147	2.31
282.525	2.52
282.903	2.86
283.281	2.49
283.659	2.32
284.037	2.18
284.415	2.36
284.792	2.38
285.17	2.31
285.548	2.32
285.925	2.44
286.303	2.28
286.68	2.55
287.058	2.16
287.435	2.31
287.813	2.82
288.19	2.91
288.567	2.48
288.945	2.44
289.322	2.35
289.699	2.81
290.076	2.59
290.453	2.71
290.83	2.6
291.207	2.13
291.584	2.35
291.961	2.66
292.338	2.4
292.715	2.63
293.092	2.62
293.469	2.98
293.845	2.86
294.222	2.45
294.599	2.92
294.975	3.13
295.352	2.74
295.728	3.3
296.105	2.23
296.481	3.28
296.858	3.01
297.234	2.61
297.61	3.1
297.986	2.97
298.363	2.75
298.739	3.23
299.115	2.65
299.491	3.08
299.867	3.07
300.243	3.23
300.619	2.92
300.995	3.34
301.371	3.36
301.746	2.79
302.122	3.01
302.498	3.09
302.874	3.13
303.249	3.45
303.625	3.35
304	2.68
304.376	2.29
304.751	2.73
305.127	3.65
305.502	3.32
305.878	2.61
306.253	3.45
306.628	3.28
307.003	3.08
307.378	2.92
307.754	3.4
308.129	2.9
308.504	3.16
308.879	3.28
309.254	3.65
309.629	2.93
310.003	3.34
310.378	3.29
310.753	3.53
311.128	2.92
311.502	3.15
311.877	3.37
312.252	3.17
312.626	3.01
313.001	3.11
313.375	3.13
313.75	3.16
314.124	4.07
314.498	3.07
314.873	2.91
315.247	3.11
315.621	3.92
315.995	3.6
316.369	3.33
316.743	3.68
317.117	3.18
317.491	3.83
317.865	2.63
318.239	4.11
318.613	3.06
318.987	3.1
319.361	3.94
319.734	3.67
320.108	3.63
320.482	3.67
320.855	3.51
321.229	4.05
321.602	2.92
321.976	3.66
322.349	2.56
322.723	2.8
323.096	3.27
323.469	3.32
323.843	3.11
324.216	3.32
324.589	3.92
324.962	3.84
325.335	3.59
325.708	3.73
326.081	3.97
326.454	3.77
326.827	4.41
327.2	4.03
327.573	3.91
327.945	4.1
328.318	3.59
328.691	4.05
329.063	3.5
329.436	3.99
329.809	3.43
330.181	3.97
330.553	4.52
330.926	3.67
331.298	3.28
331.671	4.27
332.043	3.59
332.415	4.05
332.787	4.35
333.159	3.67
333.532	3.66
333.904	3.8
334.276	4.06
334.648	4.01
335.02	3.62
335.391	4.05
335.763	3.71
336.135	4.08
336.507	4.29
336.879	3.75
337.25	3.6
337.622	3.87
337.993	4.35
338.365	4.37
338.736	3.86
339.108	3.69
339.479	3.74
339.851	4.31
340.222	3.84
340.593	3.62
340.964	3.94
341.336	3.63
341.707	4.19
342.078	4.04
342.449	4.32
342.82	4.06
343.191	3.71
343.562	3.91
343.933	3.96
344.303	4.32
344.674	4.27
345.045	4.22
345.416	4.24
345.786	3.71
346.157	3.59
346.527	3.87
346.898	3.82
347.268	3.94
347.639	3.78
348.009	4.12
348.38	3.9
348.75	3.84
349.12	4.14
349.49	4.27
349.861	4.21
350.231	4.01
350.601	3.79
350.971	3.94
351.341	4.03
351.711	4.05
352.081	4.05
352.45	4.49
352.82	4.18
353.19	3.95
353.56	4.28
353.929	4.17
354.299	3.52
354.669	4.4
355.038	3.74
355.408	4.26
355.777	3.71
356.147	4.56
356.516	4.16
356.885	3.8
357.254	4.24
357.624	4.1
357.993	4.06
358.362	4.09
358.731	4.09
359.1	4.28
359.469	4.06
359.838	4.07
360.207	3.99
360.576	4.24
360.945	4.22
361.314	4.14
361.682	3.95
362.051	4.16
362.42	4.53
362.788	4.36
363.157	4.15
363.525	4.14
363.894	4.04
364.262	3.98
364.631	4.82
364.999	3.81
365.367	4.59
365.735	4.05
366.104	4.05
366.472	4.33
366.84	4.17
367.208	3.96
367.576	4.45
367.944	4.67
368.312	4.03
368.68	4.48
369.048	4.27
369.416	4.17
369.783	4.38
370.151	4.26
370.519	4.27
370.886	4.18
371.254	4.26
371.621	4.16
371.989	4.24
372.356	4.26
372.724	4.44
373.091	4.34
373.458	4.18
373.826	4.34
374.193	4.55
374.56	4.03
374.927	4.16
375.294	4.55
375.661	4.42
376.028	4.31
376.395	4.2
376.762	4.52
377.129	4.57
377.496	4.35
377.863	4.49
378.229	4.22
378.596	4.37
378.963	4.31
379.329	4.41
379.696	4.55
380.062	4.6
380.429	4.55
380.795	4.18
381.161	4.21
381.528	4.06
381.894	4.5
382.26	4.2
382.626	4.16
382.993	4.34
383.359	4.21
383.725	4.52
384.091	4.07
384.457	4.5
384.823	4.44
385.188	4.62
385.554	4.56
385.92	4.88
386.286	4.41
386.651	4.51
387.017	4.66
387.383	4.42
387.748	4.42
388.114	4.67
388.479	4.55
388.845	4.44
389.21	4.43
389.575	4.54
389.94	4.32
390.306	4.58
390.671	4.57
391.036	4.85
391.401	4.72
391.766	4.52
392.131	4.43
392.496	4.46
392.861	4.52
393.226	4.52
393.591	4.69
393.956	4.49
394.32	4.54
394.685	4.68
395.05	4.7
395.414	4.61
395.779	4.49
396.143	4.68
396.508	4.76
396.872	4.86
397.236	4.31
397.601	4.88
397.965	4.63
398.329	4.69
398.694	4.46
399.058	4.55
399.422	4.84
399.786	4.98
400.15	4.68
400.514	4.69
400.878	4.54
401.242	4.81
401.605	4.65
401.969	4.9
402.333	4.52
402.697	4.75
403.06	4.79
403.424	4.67
403.787	5.11
404.151	4.64
404.514	4.71
404.878	4.87
405.241	4.84
405.604	4.73
405.968	4.61
406.331	4.77
406.694	4.76
407.057	4.97
407.42	4.66
407.783	4.77
408.146	4.64
408.509	4.57
408.872	4.74
409.235	4.8
409.598	4.84
409.961	4.8
410.323	4.76
410.686	4.82
411.049	4.59
411.411	4.83
411.774	4.8
412.136	4.95
412.499	4.68
412.861	4.6
413.223	5.05
413.586	4.86
413.948	4.78
414.31	4.86
414.672	4.87
415.035	4.7
415.397	4.83
415.759	4.76
416.121	5.05
416.483	4.95
416.845	4.91
417.206	4.85
417.568	4.93
417.93	4.84
418.292	4.95
418.653	4.85
419.015	4.9
419.377	4.97
419.738	4.8
420.1	4.88
420.461	4.81
420.822	4.89
421.184	4.87
421.545	4.88
421.906	5
422.267	4.77
422.629	4.8
422.99	4.77
423.351	4.91
423.712	4.91
424.073	5.05
424.434	4.88
424.795	4.78
425.155	4.92
425.516	4.81
425.877	4.97
426.238	4.68
426.598	5.01
426.959	4.91
427.32	4.98
427.68	4.99
428.041	5.11
428.401	4.93
428.761	4.92
429.122	5
429.482	4.85
429.842	5.08
430.202	5.1
430.563	5.06
430.923	4.97
431.283	5.04
431.643	4.96
432.003	5.07
432.363	5.37
432.722	5.15
433.082	5.14
433.442	5
433.802	5.07
434.161	4.91
434.521	5.1
434.881	5.16
435.24	5.17
435.6	5
435.959	5.11
436.319	5.14
436.678	5.21
437.037	5.25
437.396	5.06
437.756	5.14
438.115	5.06
438.474	5.1
438.833	5.2
439.192	5.25
439.551	5.25
439.91	5.29
440.269	5.22
440.628	5.04
440.987	5.02
441.345	5.09
441.704	5.21
442.063	5.15
442.421	5.19
442.78	5.19
443.138	5.15
443.497	5.16
443.855	5.19
444.214	5.04
444.572	5.25
444.93	5.4
445.288	5.31
445.647	5.32
446.005	5.29
446.363	5.25
446.721	5.18
447.079	5.16
447.437	5.16
447.795	5.16
448.153	5.19
448.51	5.19
448.868	5.39
449.226	5.31
449.584	5.32
449.941	5.34
450.299	5.2
450.656	5.33
451.014	5.42
451.371	5.45
451.729	5.34
452.086	5.32
452.443	5.34
452.801	5.43
453.158	5.37
453.515	5.42
453.872	5.52
454.229	5.36
454.586	5.4
454.943	5.32
455.3	5.63
455.657	5.42
456.014	5.44
456.371	5.55
456.727	5.39
457.084	5.41
457.441	5.41
457.797	5.56
458.154	5.51
458.51	5.56
458.867	5.35
459.223	5.45
459.58	5.57
459.936	5.36
460.292	5.49
460.648	5.42
461.005	5.44
461.361	5.45
461.717	5.45
462.073	5.45
462.429	5.51
462.785	5.47
463.141	5.61
463.496	5.56
463.852	5.83
464.208	5.59
464.564	5.45
464.919	5.52
465.275	5.58
465.631	5.56
465.986	5.58
466.342	5.65
466.697	5.73
467.052	5.72
467.408	5.65
467.763	5.48
468.118	5.72
468.473	5.75
468.829	5.72
469.184	5.68
469.539	5.58
469.894	5.75
470.249	5.75
470.603	5.85
470.958	5.91
471.313	5.74
471.668	5.73
472.023	5.82
472.377	5.66
472.732	5.88
473.086	5.73
473.441	5.91
473.795	5.99
474.15	5.8
474.504	5.84
474.859	5.94
475.213	5.82
475.567	5.75
475.921	5.96
476.275	5.99
476.63	5.76
476.984	5.96
477.338	6.09
477.692	5.91
478.045	5.84
478.399	5.97
478.753	5.73
479.107	5.95
479.461	6.02
479.814	5.9
480.168	5.96
480.521	5.91
480.875	6.09
481.228	6.03
481.582	5.87
481.935	5.93
482.289	5.91
482.642	5.9
482.995	5.95
483.348	5.94
483.701	5.95
484.055	5.83
484.408	5.86
484.761	5.66
485.114	5.64
485.466	5.64
485.819	5.68
486.172	5.75
486.525	5.76
486.878	5.83
487.23	5.93
487.583	5.92
487.936	5.97
488.288	5.92
488.641	5.84
488.993	5.75
489.345	5.8
489.698	5.91
490.05	5.86
490.402	5.97
490.754	5.99
491.107	6.04
491.459	6.12
491.811	6.05
492.163	6.07
492.515	6.02
492.866	5.86
493.218	5.9
493.57	5.98
493.922	5.97
494.274	6.09
494.625	6.14
494.977	6.17
495.328	6.27
495.68	6.41
496.031	6.35
496.383	6.14
496.734	6.28
497.086	6.24
497.437	6.33
497.788	6.25
498.139	6.23
498.49	6.19
498.842	6.26
499.193	6.24
499.544	6.35
499.894	6.38
500.245	6.32
500.596	6.26
500.947	6.27
501.298	6.34
501.648	6.45
501.999	6.47
502.35	6.62
502.7	6.51
503.051	6.47
503.401	6.59
503.752	6.49
504.102	6.48
504.452	6.49
504.803	6.48
505.153	6.5
505.503	6.5
505.853	6.46
506.203	6.56
506.553	6.64
506.903	6.49
507.253	6.59
507.603	6.58
507.953	6.67
508.303	6.51
508.652	6.68
509.002	6.58
509.352	6.65
509.701	6.57
510.051	6.61
510.4	6.54
510.75	6.67
511.099	6.6
511.449	6.62
511.798	6.74
512.147	6.57
512.496	6.78
512.846	6.69
513.195	6.68
513.544	6.57
513.893	6.63
514.242	6.74
514.591	6.81
514.939	6.72
515.288	6.68
515.637	6.88
515.986	6.83
516.334	6.84
516.683	6.87
517.032	6.78
517.38	6.98
517.729	6.83
518.077	6.97
518.426	6.82
518.774	6.93
519.122	6.79
519.47	6.9
519.819	6.82
520.167	6.84
520.515	6.87
520.863	6.85
521.211	6.85
521.559	6.92
521.907	6.94
522.255	7.02
522.602	7.03
522.95	7.07
523.298	7.1
523.645	7.08
523.993	7.13
524.341	7.12
524.688	7.04
525.036	7.2
525.383	7.18
525.73	7.13
526.078	7.16
526.425	7.08
526.772	6.96
527.119	6.98
527.466	6.95
527.814	7
528.161	7.07
528.508	7.13
528.854	7
529.201	7.09
529.548	6.98
529.895	6.89
530.242	6.9
530.588	6.98
530.935	7.02
531.282	7.08
531.628	7.15
531.975	7.19
532.321	7.2
532.667	7.21
533.014	7.31
533.36	7.22
533.706	7.26
534.052	7.18
534.399	7.18
534.745	7.13
535.091	7.23
535.437	7.23
535.783	7.34
536.129	7.27
536.474	7.47
536.82	7.44
537.166	7.59
537.512	7.55
537.857	7.42
538.203	7.31
538.549	7.51
538.894	7.4
539.239	7.57
539.585	7.58
539.93	7.6
540.276	7.65
540.621	7.68
540.966	7.7
541.311	7.8
541.656	7.71
542.001	7.57
542.346	7.53
542.691	7.5
543.036	7.45
543.381	7.55
543.726	7.59
544.071	7.61
544.415	7.7
544.76	7.62
545.105	7.75
545.449	7.75
545.794	7.83
546.138	7.88
546.483	7.85
546.827	7.9
547.171	7.94
547.516	7.91
547.86	7.96
548.204	7.83
548.548	8.06
548.892	7.98
549.236	8.15
549.58	8.09
549.924	8.06
550.268	8.22
550.612	8.15
550.956	8.04
551.3	8.18
551.643	8.21
551.987	8.2
552.33	8.22
552.674	8.29
553.017	8.31
553.361	8.25
553.704	8.39
554.048	8.31
554.391	8.33
554.734	8.3
555.077	8.42
555.42	8.54
555.764	8.4
556.107	8.49
556.45	8.26
556.793	8.51
557.135	8.62
557.478	8.54
557.821	8.41
558.164	8.58
558.507	8.44
558.849	8.41
559.192	8.75
559.534	8.47
559.877	8.66
560.219	8.86
560.562	8.64
560.904	8.81
561.246	8.7
561.589	8.83
561.931	8.85
562.273	8.74
562.615	8.86
562.957	8.7
563.299	8.78
563.641	8.89
563.983	8.81
564.325	8.56
564.667	8.91
565.008	8.77
565.35	9.03
565.692	9.05
566.033	9.1
566.375	8.58
566.716	9.25
567.058	9.2
567.399	9.05
567.741	9.13
568.082	8.98
568.423	8.95
568.764	9.02
569.105	9.2
569.447	9.03
569.788	9.13
570.129	9.08
570.47	9.2
570.811	9.14
571.151	9.36
571.492	9.25
571.833	9.32
572.174	9.35
572.514	9.31
572.855	9.27
573.195	9.23
573.536	9.41
573.876	9.38
574.217	9.41
574.557	9.42
574.898	9.39
575.238	9.4
575.578	9.57
575.918	9.54
576.258	9.35
576.598	9.56
576.938	9.83
577.278	9.45
577.618	9.46
577.958	9.46
578.298	9.7
578.638	9.8
578.977	9.61
579.317	9.79
579.657	9.67
579.996	9.73
580.336	9.88
580.675	9.89
581.014	9.68
581.354	10.06
581.693	9.8
582.032	10.08
582.372	10.07
582.711	10.14
583.05	10.03
583.389	10.06
583.728	10.06
584.067	10.11
584.406	10.29
584.745	10.14
585.083	10.37
585.422	10.16
585.761	10.37
586.1	10.09
586.438	10.13
586.777	10.34
587.115	10.14
587.454	10.41
587.792	10.1
588.13	10.53
588.469	10.38
588.807	10.54
589.145	10.45
589.483	10.36
589.821	10.44
590.159	10.19
590.497	10.23
590.835	10.46
591.173	10.57
591.511	10.64
591.849	10.69
592.187	10.7
592.524	10.62
592.862	10.76
593.2	10.64
593.537	10.6
593.875	10.73
594.212	10.65
594.55	10.85
594.887	10.61
595.224	10.77
595.561	10.81
595.899	10.76
596.236	10.83
596.573	10.55
596.91	10.84
597.247	10.86
597.584	11.14
597.921	11.03
598.258	10.87
598.594	10.76
598.931	10.88
599.268	10.86
599.604	11.06
599.941	11.04
600.277	11.22
600.614	10.94
600.95	11.13
601.287	11.02
601.623	11.46
601.959	11.16
602.296	11.26
602.632	11.53
602.968	11.12
603.304	11.36
603.64	11.22
603.976	11.23
604.312	11.5
604.648	11.37
604.984	11.33
605.319	11.22
605.655	11.44
605.991	11.51
606.326	11.35
606.662	11.22
606.998	11.52
607.333	11.32
607.668	11.53
608.004	11.46
608.339	11.59
608.674	11.65
609.01	11.69
609.345	11.88
609.68	11.44
610.015	11.66
610.35	11.53
610.685	11.84
611.02	11.74
611.355	11.83
611.689	11.62
612.024	11.83
612.359	11.91
612.694	12.07
613.028	12.05
613.363	11.84
613.697	11.98
614.032	11.94
614.366	12.08
614.7	12.21
615.035	12.05
615.369	12.11
615.703	12.29
616.037	12.1
616.371	11.83
616.705	12.07
617.039	12.48
617.373	12.3
617.707	12.44
618.041	12.68
618.375	12.47
618.709	12.49
619.042	12.56
619.376	12.04
619.71	12.54
620.043	11.82
620.377	12.37
620.71	12.59
621.043	12.29
621.377	12.62
621.71	12.44
622.043	12.62
622.376	12.49
622.709	13.1
623.043	12.73
623.376	12.96
623.709	12.56
624.041	12.55
624.374	12.73
624.707	12.65
625.04	12.56
625.373	12.57
625.705	12.88
626.038	12.65
626.37	12.82
626.703	12.76
627.035	12.88
627.368	12.94
627.7	12.9
628.032	12.86
628.365	12.6
628.697	12.59
629.029	13.14
629.361	12.77
629.693	13.06
630.025	13.06
630.357	13.09
630.689	13.11
631.021	13.37
631.353	13.42
631.684	13.46
632.016	12.88
632.348	13.32
632.679	12.98
633.011	13.38
633.342	13.61
633.674	13.49
634.005	13.47
634.336	13.21
634.668	13.13
634.999	13.44
635.33	13.2
635.661	13.65
635.992	13.42
636.323	13.39
636.654	13.51
636.985	13.67
637.316	13.4
637.647	13.73
637.977	13.8
638.308	13.59
638.639	13.56
638.969	13.35
639.3	14.13
639.63	13.79
639.961	13.76
640.291	14.22
640.622	13.54
640.952	13.96
641.282	13.52
641.612	13.77
641.943	14.25
642.273	13.79
642.603	14.16
642.933	13.87
643.263	14.68
643.592	14.37
643.922	14.3
644.252	13.9
644.582	14.22
644.911	13.88
645.241	13.77
645.571	14.18
645.9	14.64
646.23	14.23
646.559	14.46
646.888	14.08
647.218	14.43
647.547	14.7
647.876	14.71
648.205	14.07
648.534	14.36
648.863	14.55
649.192	14.39
649.521	13.98
649.85	14.71
650.179	14.1
650.508	14.71
650.837	14.47
651.165	14.77
651.494	14.41
651.822	14.54
652.151	14.75
652.479	15.04
652.808	14.36
653.136	14.77
653.465	14.67
653.793	14.82
654.121	14.64
654.449	14.82
654.777	15.07
655.105	15.03
655.433	14.98
655.761	14.95
656.089	15.13
656.417	14.85
656.745	15.22
657.073	15.07
657.4	14.92
657.728	15.25
658.056	15
658.383	15.55
658.711	14.83
659.038	15.33
659.365	15.34
659.693	14.93
660.02	15.02
660.347	15.33
660.674	14.94
661.001	14.81
661.329	15.34
661.656	15.33
661.982	15.14
662.309	15.53
662.636	15.25
662.963	15.5
663.29	15.09
663.616	15.17
663.943	16.08
664.27	16.07
664.596	15.39
664.923	15.91
665.249	15.22
665.576	15.73
665.902	15.19
666.228	15.39
666.554	15.8
666.881	15.61
667.207	15.14
667.533	15.76
667.859	15.64
668.185	15.89
668.511	15.78
668.837	15.16
669.162	16.07
669.488	15.94
669.814	16.51
670.139	16.13
670.465	15.74
670.791	16.12
671.116	15.73
671.442	16.55
671.767	15.79
672.092	16.32
672.418	16.69
672.743	16.11
673.068	15.93
673.393	16.5
673.718	15.42
674.043	16.44
674.368	16.53
674.693	15.75
675.018	16.53
675.343	16.6
675.667	16.27
675.992	16.13
676.317	16.12
676.641	16.41
676.966	16.99
677.29	16.11
677.615	15.77
677.939	16.55
678.264	16.52
678.588	16.22
678.912	16.93
679.236	16.61
679.56	15.78
679.885	16.75
680.209	16.25
680.532	16.39
680.856	17.08
681.18	15.72
681.504	16.62
681.828	16.23
682.152	16.95
682.475	16.68
682.799	16.98
683.122	16.83
683.446	16.65
683.769	17.11
