Data from 0067_crown_Reflection__2__291.txt Node

Date: Fri Dec 16 16:25:03 CST 2022
User: ToomeyLab
Spectrometer: FLMS14357
Trigger mode: 0
Integration Time (sec): 1.000000E-2
Scans to average: 100
Electric dark correction enabled: true
Nonlinearity correction enabled: false
Boxcar width: 0
XAxis mode: Wavelengths
Number of Pixels in Spectrum: 2048
>>>>>Begin Spectral Data<<<<<
189.047	-58.78
189.435	-58.78
189.823	-58.78
190.211	-225.68
190.599	-122.5
190.987	38.05
191.375	-137.34
191.763	364.58
192.151	87.02
192.538	71.27
192.926	830
193.314	75.76
193.702	-143.63
194.089	277.66
194.477	-377.38
194.864	96.53
195.252	21.25
195.639	67.19
196.027	277.94
196.414	-1823.68
196.801	675128164338850
197.189	11.15
197.576	-89.06
197.963	-100.98
198.351	24.9
198.738	-28.96
199.125	9.2
199.512	5.12
199.899	-58.45
200.286	-31
200.673	12.41
201.06	27.49
201.447	35.43
201.833	8.11
202.22	50.65
202.607	-5.28
202.994	38.8
203.38	-71.04
203.767	-127.19
204.154	-68.05
204.54	14.77
204.927	9.1
205.313	20.99
205.699	-55.15
206.086	-24.23
206.472	-19.79
206.858	-1.67
207.245	-16.86
207.631	14.85
208.017	20.1
208.403	-0.07
208.789	-27.46
209.175	54.37
209.561	-1.08
209.947	-4.9
210.333	-22.36
210.719	-36.77
211.105	-42.82
211.491	-14.95
211.876	-22.36
212.262	-90.44
212.648	-56.07
213.034	12.73
213.419	21.99
213.805	19.58
214.19	-29.97
214.576	-31.9
214.961	-22.3
215.346	-37.28
215.732	-47.34
216.117	4.48
216.502	-49.51
216.888	-68.63
217.273	4.56
217.658	-45.81
218.043	-6.99
218.428	-4.75
218.813	-46.05
219.198	-52.96
219.583	7.03
219.968	7.39
220.353	-5.54
220.738	-37.45
221.122	-29.3
221.507	6.4
221.892	11.56
222.276	-6.01
222.661	-17.2
223.046	9.4
223.43	-15.49
223.815	1.65
224.199	12.63
224.583	2.34
224.968	-0.5
225.352	-4.88
225.736	-0.61
226.121	-5.02
226.505	-4.79
226.889	1.77
227.273	0.19
227.657	-0.28
228.041	1.18
228.425	3.59
228.809	1
229.193	3.4
229.577	3.85
229.961	3.38
230.344	3.96
230.728	3.77
231.112	3.63
231.495	4.01
231.879	4.02
232.263	3.15
232.646	3.62
233.03	1.71
233.413	1.35
233.797	7.15
234.18	2.34
234.563	-0.28
234.946	1.61
235.33	3.76
235.713	1.76
236.096	3.08
236.479	3.2
236.862	5.17
237.245	4.97
237.628	6.08
238.011	0.9
238.394	5.28
238.777	2.4
239.16	0.16
239.543	3.02
239.925	4.8
240.308	4.31
240.691	3.56
241.073	3.99
241.456	2.56
241.838	3.24
242.221	2.54
242.603	4.27
242.986	4.38
243.368	4.34
243.75	4.01
244.133	3.61
244.515	3.9
244.897	3.79
245.279	3.28
245.661	3.7
246.043	3.51
246.425	3.23
246.807	4.23
247.189	3.28
247.571	3.51
247.953	3.91
248.335	3.98
248.717	3.83
249.098	4.15
249.48	3.5
249.862	3.79
250.243	3.73
250.625	3.39
251.006	3.44
251.388	3.86
251.769	3.17
252.151	2.66
252.532	4.29
252.913	2.69
253.295	3.1
253.676	3.92
254.057	2.96
254.438	3.87
254.819	4.02
255.2	2.89
255.581	2.33
255.962	3.37
256.343	3.58
256.724	3.25
257.105	2.48
257.486	2.87
257.867	3.18
258.247	3.68
258.628	3.63
259.009	3.86
259.389	3.52
259.77	3
260.15	3.78
260.531	3.68
260.911	3.85
261.292	3.65
261.672	3.63
262.052	3.74
262.432	3.1
262.813	3.91
263.193	2.83
263.573	3.65
263.953	3.02
264.333	3.59
264.713	3.54
265.093	2.23
265.473	3.64
265.853	2.86
266.233	3.02
266.612	3.54
266.992	2.81
267.372	3.11
267.752	3.28
268.131	3.1
268.511	3.4
268.89	3.75
269.27	3.36
269.649	3.6
270.029	3.59
270.408	3.98
270.787	2.66
271.167	3.81
271.546	3.1
271.925	3.35
272.304	3.38
272.683	3.09
273.062	3.81
273.441	3.56
273.82	3.69
274.199	4.04
274.578	3.09
274.957	3.53
275.336	3.1
275.715	3.54
276.093	4.06
276.472	3.49
276.851	3.42
277.229	3.72
277.608	2.78
277.986	3.66
278.365	3.33
278.743	3.77
279.122	3.52
279.5	2.28
279.878	2.24
280.257	3.04
280.635	3.03
281.013	3.63
281.391	3.48
281.769	2.91
282.147	3.58
282.525	2.82
282.903	3.05
283.281	2.93
283.659	3.17
284.037	3.31
284.415	3.45
284.792	3.25
285.17	3.26
285.548	3.24
285.925	2.86
286.303	3.22
286.68	3.2
287.058	3.38
287.435	3.27
287.813	3.72
288.19	3.29
288.567	3.2
288.945	3.15
289.322	3.56
289.699	2.77
290.076	3.79
290.453	2.73
290.83	3.37
291.207	3.35
291.584	3.01
291.961	3.54
292.338	3.21
292.715	3.63
293.092	3.27
293.469	3.5
293.845	3.21
294.222	3.12
294.599	3.04
294.975	2.94
295.352	2.73
295.728	3.44
296.105	2.72
296.481	3.85
296.858	3.31
297.234	3.02
297.61	3.21
297.986	3.54
298.363	2.82
298.739	3.35
299.115	3.03
299.491	3.41
299.867	3.4
300.243	3.2
300.619	3.19
300.995	3.6
301.371	3.27
301.746	3.04
302.122	3.24
302.498	2.91
302.874	3.38
303.249	3.37
303.625	2.74
304	2.82
304.376	2.94
304.751	2.8
305.127	3.69
305.502	3.63
305.878	2.94
306.253	2.83
306.628	3.45
307.003	3.41
307.378	2.7
307.754	3.22
308.129	2.18
308.504	2.85
308.879	3.2
309.254	3.44
309.629	2.99
310.003	3.41
310.378	3.13
310.753	3.28
311.128	3.08
311.502	3.08
311.877	2.96
312.252	2.99
312.626	2.72
313.001	3.2
313.375	3.43
313.75	3.17
314.124	3.56
314.498	2.81
314.873	2.9
315.247	2.9
315.621	3.69
315.995	2.96
316.369	3.49
316.743	3.28
317.117	3.19
317.491	3.34
317.865	2.42
318.239	3.84
318.613	3.01
318.987	3.11
319.361	3.26
319.734	3.12
320.108	3.09
320.482	3.47
320.855	3.8
321.229	3.38
321.602	3.07
321.976	2.62
322.349	2.49
322.723	2.4
323.096	2.94
323.469	2.57
323.843	2.67
324.216	2.75
324.589	3.08
324.962	2.94
325.335	2.98
325.708	3.13
326.081	3.6
326.454	2.95
326.827	3.43
327.2	3.41
327.573	3.43
327.945	3.06
328.318	3.61
328.691	3.41
329.063	2.95
329.436	2.85
329.809	2.68
330.181	3.42
330.553	3.34
330.926	3.02
331.298	2.58
331.671	2.84
332.043	3.33
332.415	3.31
332.787	3.64
333.159	3.05
333.532	3.29
333.904	3.25
334.276	2.85
334.648	3.24
335.02	3.26
335.391	3.38
335.763	2.62
336.135	2.79
336.507	3.24
336.879	3.07
337.25	3.37
337.622	2.62
337.993	2.95
338.365	3.19
338.736	3.06
339.108	3.16
339.479	3.11
339.851	3.38
340.222	3.23
340.593	3
340.964	2.88
341.336	2.98
341.707	2.98
342.078	2.56
342.449	3.45
342.82	2.95
343.191	3.02
343.562	3.24
343.933	3.22
344.303	3.19
344.674	2.67
345.045	3.27
345.416	2.97
345.786	2.86
346.157	3.17
346.527	2.71
346.898	2.83
347.268	3.35
347.639	3.07
348.009	3.32
348.38	3.03
348.75	3.03
349.12	2.73
349.49	3.36
349.861	3.81
350.231	3.16
350.601	3.33
350.971	2.9
351.341	3.42
351.711	3
352.081	3.09
352.45	3.09
352.82	3.25
353.19	3
353.56	2.97
353.929	3.52
354.299	3
354.669	2.9
355.038	3.02
355.408	3.56
355.777	2.93
356.147	3.35
356.516	3.56
356.885	3.25
357.254	3.41
357.624	3.44
357.993	3
358.362	3.16
358.731	3.1
359.1	3.38
359.469	3.32
359.838	3
360.207	2.82
360.576	3.21
360.945	3.21
361.314	3.33
361.682	2.99
362.051	3.25
362.42	3.39
362.788	3.3
363.157	3.05
363.525	3.08
363.894	3.12
364.262	3.04
364.631	3.79
364.999	2.9
365.367	3.4
365.735	3.04
366.104	2.87
366.472	3.39
366.84	3.29
367.208	3.03
367.576	3.26
367.944	3.18
368.312	3.07
368.68	3.33
369.048	3.39
369.416	3.15
369.783	3.27
370.151	3.25
370.519	3.02
370.886	3.39
371.254	3.07
371.621	3.03
371.989	3.03
372.356	3.11
372.724	3.29
373.091	3.19
373.458	3.2
373.826	3.07
374.193	3.72
374.56	2.95
374.927	2.94
375.294	3.65
375.661	3.61
376.028	3.52
376.395	3.35
376.762	3.34
377.129	3.24
377.496	3.36
377.863	3.07
378.229	3.19
378.596	3.21
378.963	3.09
379.329	3.3
379.696	3.32
380.062	3.47
380.429	3.21
380.795	3.03
381.161	3.35
381.528	2.91
381.894	3.52
382.26	3.26
382.626	3.2
382.993	3.13
383.359	3.33
383.725	3.33
384.091	3.22
384.457	3.59
384.823	3.64
385.188	3.46
385.554	3.42
385.92	3.31
386.286	3.58
386.651	3.51
387.017	3.31
387.383	3.38
387.748	3.38
388.114	3.48
388.479	3.4
388.845	3.35
389.21	3.54
389.575	3.35
389.94	3.36
390.306	3.41
390.671	3.46
391.036	3.3
391.401	3.66
391.766	3.28
392.131	3.25
392.496	3.38
392.861	3.16
393.226	3.28
393.591	3.53
393.956	3.44
394.32	3.47
394.685	3.26
395.05	3.09
395.414	3.38
395.779	3.04
396.143	3.48
396.508	3.26
396.872	3.49
397.236	2.99
397.601	3.55
397.965	3.02
398.329	3.62
398.694	3.16
399.058	3.26
399.422	3.72
399.786	3.4
400.15	3.32
400.514	3.37
400.878	3.05
401.242	3.36
401.605	3.54
401.969	3.44
402.333	3.25
402.697	3.53
403.06	3.5
403.424	3.33
403.787	3.44
404.151	3.26
404.514	3.43
404.878	3.56
405.241	3.55
405.604	3.52
405.968	3.39
406.331	3.48
406.694	3.51
407.057	3.84
407.42	3.47
407.783	3.36
408.146	3.54
408.509	3.26
408.872	3.31
409.235	3.24
409.598	3.53
409.961	3.48
410.323	3.21
410.686	3.44
411.049	3.06
411.411	3.48
411.774	3.57
412.136	3.42
412.499	3.32
412.861	3.25
413.223	3.43
413.586	3.4
413.948	3.67
414.31	3.46
414.672	3.48
415.035	3.76
415.397	3.47
415.759	3.47
416.121	3.73
416.483	3.86
416.845	3.35
417.206	3.65
417.568	3.56
417.93	3.31
418.292	3.43
418.653	3.57
419.015	3.48
419.377	3.66
419.738	3.36
420.1	3.47
420.461	3.51
420.822	3.51
421.184	3.43
421.545	3.54
421.906	3.47
422.267	3.38
422.629	3.48
422.99	3.48
423.351	3.56
423.712	3.53
424.073	3.57
424.434	3.4
424.795	3.42
425.155	3.5
425.516	3.53
425.877	3.49
426.238	3.38
426.598	3.54
426.959	3.44
427.32	3.58
427.68	3.56
428.041	3.62
428.401	3.5
428.761	3.5
429.122	3.38
429.482	3.47
429.842	3.67
430.202	3.61
430.563	3.48
430.923	3.49
431.283	3.76
431.643	3.41
432.003	3.52
432.363	3.72
432.722	3.43
433.082	3.45
433.442	3.47
433.802	3.57
434.161	3.48
434.521	3.52
434.881	3.66
435.24	3.52
435.6	3.63
435.959	3.6
436.319	3.51
436.678	3.58
437.037	3.5
437.396	3.73
437.756	3.47
438.115	3.6
438.474	3.71
438.833	3.71
439.192	3.79
439.551	3.73
439.91	3.78
440.269	3.65
440.628	3.59
440.987	3.49
441.345	3.7
441.704	3.63
442.063	3.6
442.421	3.64
442.78	3.6
443.138	3.56
443.497	3.57
443.855	3.73
444.214	3.66
444.572	3.66
444.93	3.76
445.288	3.77
445.647	3.7
446.005	3.59
446.363	3.57
446.721	3.59
447.079	3.58
447.437	3.64
447.795	3.53
448.153	3.67
448.51	3.56
448.868	3.71
449.226	3.7
449.584	3.61
449.941	3.74
450.299	3.72
450.656	3.67
451.014	3.63
451.371	3.75
451.729	3.59
452.086	3.64
452.443	3.66
452.801	3.69
453.158	3.66
453.515	3.63
453.872	3.76
454.229	3.58
454.586	3.68
454.943	3.61
455.3	3.76
455.657	3.74
456.014	3.72
456.371	3.65
456.727	3.56
457.084	3.62
457.441	3.58
457.797	3.74
458.154	3.7
458.51	3.66
458.867	3.61
459.223	3.88
459.58	3.51
459.936	3.64
460.292	3.79
460.648	3.63
461.005	3.61
461.361	3.6
461.717	3.72
462.073	3.72
462.429	3.78
462.785	3.67
463.141	3.94
463.496	3.73
463.852	4
464.208	3.83
464.564	3.62
464.919	3.66
465.275	3.73
465.631	3.71
465.986	3.58
466.342	3.8
466.697	3.71
467.052	3.88
467.408	3.73
467.763	3.62
468.118	3.74
468.473	3.81
468.829	3.79
469.184	3.97
469.539	3.67
469.894	3.59
470.249	3.87
470.603	3.82
470.958	3.75
471.313	3.64
471.668	3.83
472.023	3.95
472.377	3.76
472.732	3.83
473.086	3.78
473.441	3.76
473.795	3.97
474.15	3.76
474.504	3.63
474.859	3.88
475.213	3.83
475.567	3.82
475.921	3.85
476.275	3.88
476.63	3.79
476.984	3.78
477.338	4.08
477.692	3.87
478.045	3.78
478.399	3.85
478.753	3.76
479.107	3.77
479.461	3.94
479.814	3.89
480.168	3.83
480.521	3.79
480.875	4.01
481.228	3.89
481.582	3.86
481.935	3.86
482.289	3.76
482.642	3.85
482.995	3.9
483.348	3.77
483.701	3.78
484.055	3.72
484.408	3.69
484.761	3.57
485.114	3.55
485.466	3.57
485.819	3.68
486.172	3.71
486.525	3.79
486.878	3.79
487.23	3.86
487.583	3.84
487.936	3.85
488.288	3.73
488.641	3.72
488.993	3.62
489.345	3.67
489.698	3.74
490.05	3.77
490.402	3.87
490.754	3.89
491.107	3.92
491.459	3.98
491.811	3.92
492.163	3.91
492.515	3.86
492.866	3.66
493.218	3.67
493.57	3.78
493.922	3.89
494.274	3.96
494.625	3.91
494.977	4
495.328	4.04
495.68	4.1
496.031	3.99
496.383	3.92
496.734	4.03
497.086	3.81
497.437	4.05
497.788	4.03
498.139	3.95
498.49	4.01
498.842	3.94
499.193	4.01
499.544	4.11
499.894	3.92
500.245	3.92
500.596	3.97
500.947	3.97
501.298	4.03
501.648	4.01
501.999	4.19
502.35	4.1
502.7	4.03
503.051	4.18
503.401	4.05
503.752	3.93
504.102	3.98
504.452	3.86
504.803	3.83
505.153	4.18
505.503	4.03
505.853	3.87
506.203	3.99
506.553	3.98
506.903	4.01
507.253	4.1
507.603	3.97
507.953	4.13
508.303	4.17
508.652	4.07
509.002	4.1
509.352	3.94
509.701	4.03
510.051	4.15
510.4	4.06
510.75	4
511.099	4.01
511.449	4.05
511.798	4.2
512.147	4.02
512.496	4.08
512.846	4.02
513.195	4.13
513.544	4.05
513.893	4
514.242	4.13
514.591	4.14
514.939	4.03
515.288	4.11
515.637	4.11
515.986	4.16
516.334	4.14
516.683	4.2
517.032	4.05
517.38	4.16
517.729	4.14
518.077	4.09
518.426	4.03
518.774	4.11
519.122	4.04
519.47	4.01
519.819	4.05
520.167	4.12
520.515	4.05
520.863	4.08
521.211	4.12
521.559	4.11
521.907	4.09
522.255	4.19
522.602	4.13
522.95	4.2
523.298	4.19
523.645	4.14
523.993	4.28
524.341	4.13
524.688	4.18
525.036	4.28
525.383	4.29
525.73	4.1
526.078	4.13
526.425	4.14
526.772	3.95
527.119	4.07
527.466	4.13
527.814	4.1
528.161	4.24
528.508	4.19
528.854	4
529.201	4.02
529.548	3.98
529.895	3.88
530.242	3.92
530.588	4
530.935	4.07
531.282	4.17
531.628	4.14
531.975	4.22
532.321	4.25
532.667	4.15
533.014	4.19
533.36	4.12
533.706	4.19
534.052	4.07
534.399	4.11
534.745	4.02
535.091	4.1
535.437	4.11
535.783	4.28
536.129	4.18
536.474	4.24
536.82	4.22
537.166	4.22
537.512	4.23
537.857	4.2
538.203	4.17
538.549	4.28
538.894	4.21
539.239	4.37
539.585	4.4
539.93	4.25
540.276	4.23
540.621	4.29
540.966	4.31
541.311	4.41
541.656	4.22
542.001	4.29
542.346	4.18
542.691	4.09
543.036	4.13
543.381	4.17
543.726	4.24
544.071	4.25
544.415	4.32
544.76	4.22
545.105	4.29
545.449	4.17
545.794	4.26
546.138	4.33
546.483	4.3
546.827	4.35
547.171	4.25
547.516	4.41
547.86	4.25
548.204	4.23
548.548	4.42
548.892	4.35
549.236	4.28
549.58	4.38
549.924	4.45
550.268	4.38
550.612	4.39
550.956	4.34
551.3	4.57
551.643	4.48
551.987	4.5
552.33	4.35
552.674	4.61
553.017	4.49
553.361	4.41
553.704	4.26
554.048	4.47
554.391	4.45
554.734	4.41
555.077	4.53
555.42	4.31
555.764	4.42
556.107	4.35
556.45	4.36
556.793	4.65
557.135	4.53
557.478	4.64
557.821	4.42
558.164	4.56
558.507	4.36
558.849	4.31
559.192	4.65
559.534	4.57
559.877	4.58
560.219	4.61
560.562	4.55
560.904	4.46
561.246	4.56
561.589	4.53
561.931	4.67
562.273	4.45
562.615	4.49
562.957	4.65
563.299	4.51
563.641	4.56
563.983	4.63
564.325	4.42
564.667	4.57
565.008	4.44
565.35	4.73
565.692	4.66
566.033	4.56
566.375	4.22
566.716	4.54
567.058	4.6
567.399	4.69
567.741	4.67
568.082	4.45
568.423	4.48
568.764	4.55
569.105	4.55
569.447	4.57
569.788	4.64
570.129	4.54
570.47	4.78
570.811	4.81
571.151	4.64
571.492	4.74
571.833	4.6
572.174	4.67
572.514	4.69
572.855	4.66
573.195	4.54
573.536	4.6
573.876	4.55
574.217	4.6
574.557	4.64
574.898	4.54
575.238	4.65
575.578	4.76
575.918	4.8
576.258	4.61
576.598	4.62
576.938	4.77
577.278	4.66
577.618	4.63
577.958	4.71
578.298	4.79
578.638	4.53
578.977	4.67
579.317	4.82
579.657	4.7
579.996	4.76
580.336	4.61
580.675	5.01
581.014	4.76
581.354	4.86
581.693	4.91
582.032	4.79
582.372	4.9
582.711	4.74
583.05	5.07
583.389	4.7
583.728	4.74
584.067	4.92
584.406	5
584.745	4.85
585.083	5.26
585.422	4.93
585.761	4.85
586.1	4.91
586.438	4.82
586.777	4.97
587.115	4.85
587.454	4.87
587.792	4.87
588.13	5.14
588.469	4.97
588.807	4.92
589.145	5.01
589.483	4.88
589.821	4.88
590.159	4.89
590.497	4.68
590.835	4.71
591.173	5.08
591.511	4.86
591.849	5.07
592.187	4.99
592.524	4.89
592.862	4.91
593.2	4.95
593.537	5.13
593.875	4.77
594.212	4.79
594.55	5
594.887	5.31
595.224	4.91
595.561	4.93
595.899	4.79
596.236	4.95
596.573	4.91
596.91	4.98
597.247	4.95
597.584	5.04
597.921	4.97
598.258	4.98
598.594	4.76
598.931	4.87
599.268	4.8
599.604	5.08
599.941	4.88
600.277	5.22
600.614	5.25
600.95	5.08
601.287	5.31
601.623	5.15
601.959	4.76
602.296	5.04
602.632	5.17
602.968	4.79
603.304	4.97
603.64	4.88
603.976	4.85
604.312	5.23
604.648	5
604.984	5.03
605.319	4.84
605.655	5.05
605.991	4.99
606.326	5.05
606.662	4.76
606.998	5.03
607.333	4.96
607.668	5.1
608.004	5.11
608.339	4.81
608.674	4.92
609.01	5.06
609.345	5.23
609.68	5.03
610.015	5.11
610.35	5.08
610.685	5.17
611.02	5.29
611.355	5.18
611.689	4.89
612.024	5.32
612.359	5.28
612.694	5.25
613.028	5.2
613.363	4.79
613.697	5.33
614.032	5.09
614.366	5.1
614.7	5.32
615.035	4.8
615.369	5.35
615.703	5.36
616.037	5.17
616.371	5.05
616.705	5.37
617.039	5.25
617.373	5.12
617.707	5.37
618.041	5.31
618.375	5.06
618.709	5.11
619.042	5.04
619.376	5.36
619.71	5.42
620.043	5.08
620.377	5.14
620.71	5.52
621.043	4.92
621.377	5.18
621.71	5.13
622.043	5.18
622.376	5.01
622.709	5.36
623.043	5.06
623.376	5.28
623.709	5.24
624.041	5.1
624.374	5.22
624.707	5.09
625.04	5.4
625.373	5.33
625.705	5.22
626.038	5.57
626.37	5.31
626.703	4.98
627.035	5.19
627.368	5.39
627.7	5.44
628.032	5.28
628.365	5.14
628.697	5.12
629.029	5.63
629.361	5.1
629.693	5.71
630.025	5.64
630.357	5.31
630.689	5.52
631.021	5.49
631.353	5.48
631.684	5.44
632.016	5.06
632.348	5.42
632.679	5.27
633.011	5.21
633.342	5.52
633.674	5.48
634.005	5.22
634.336	5.06
634.668	5.24
634.999	5.36
635.33	5.35
635.661	5.28
635.992	5.25
636.323	5.31
636.654	5.33
636.985	5.45
637.316	5.43
637.647	5.29
637.977	5.15
638.308	5.32
638.639	5.56
638.969	5.49
639.3	5.42
639.63	5.09
639.961	5.22
640.291	5.6
640.622	5.77
640.952	5.13
641.282	4.97
641.612	5.57
641.943	5.39
642.273	5.49
642.603	5.45
642.933	5.55
643.263	5.78
643.592	5.66
643.922	5.57
644.252	5.33
644.582	5.49
644.911	5.48
645.241	5.51
645.571	5.07
645.9	5.32
646.23	5.39
646.559	5.59
646.888	5.32
647.218	5.61
647.547	5.6
647.876	5.8
648.205	5.3
648.534	5.36
648.863	5.5
649.192	5.64
649.521	5.34
649.85	5.76
650.179	5
650.508	5.38
650.837	5.84
651.165	5.44
651.494	5.47
651.822	5.68
652.151	6.09
652.479	5.8
652.808	5.03
653.136	5.36
653.465	5.59
653.793	5.71
654.121	5.56
654.449	5.53
654.777	5.1
655.105	5.89
655.433	5.78
655.761	5.9
656.089	5.39
656.417	5.03
656.745	5.67
657.073	5.93
657.4	6.01
657.728	5.66
658.056	5.73
658.383	5.77
658.711	4.95
659.038	5.66
659.365	6.15
659.693	5.67
660.02	5.35
660.347	5.73
660.674	5.8
661.001	5.39
661.329	5.64
661.656	5.81
661.982	5.79
662.309	5.72
662.636	5.63
662.963	6.07
663.29	5.52
663.616	5.38
663.943	5.62
664.27	6.05
664.596	5.42
664.923	6.1
665.249	5.65
665.576	5.74
665.902	5.62
666.228	5.24
666.554	5.44
666.881	5.83
667.207	5.54
667.533	5.95
667.859	5.57
668.185	6.42
668.511	5.58
668.837	5.06
669.162	5.69
669.488	5.54
669.814	6.04
670.139	6.39
670.465	6.09
670.791	6.17
671.116	5.67
671.442	6.14
671.767	5.57
672.092	5.8
672.418	5.8
672.743	5.36
673.068	5.28
673.393	5.63
673.718	5.69
674.043	6.2
674.368	5.99
674.693	5.88
675.018	5.98
675.343	5.85
675.667	6.21
675.992	5.75
676.317	5.86
676.641	5.98
676.966	6.03
677.29	5.71
677.615	5.4
677.939	5.56
678.264	5.67
678.588	6.45
678.912	6.89
679.236	6.58
679.56	5.61
679.885	5.82
680.209	5.21
680.532	5.63
680.856	6.32
681.18	5.74
681.504	5.57
681.828	5.53
682.152	5.54
682.475	6.26
682.799	6.64
683.122	5.56
683.446	5.56
683.769	6.36
684.093	5.78
684.416	5.72
684.739	6.04
685.062	5.96
685.386	6.05
685.709	5.65
686.032	5.65
686.355	6.2
686.678	5.79
687.001	5.25
687.324	5.69
687.646	5.3
687.969	5.8
688.292	6.35
688.614	6.61
688.937	5.84
689.26	5.52
689.582	6.46
689.904	6.2
690.227	6.13
690.549	6.34
690.871	6.15
691.194	6.74
691.516	6.07
691.838	6.97
692.16	5.93
