Data from 0067_forehead_Reflection__2__296.txt Node

Date: Fri Dec 16 16:26:39 CST 2022
User: ToomeyLab
Spectrometer: FLMS14357
Trigger mode: 0
Integration Time (sec): 1.000000E-2
Scans to average: 100
Electric dark correction enabled: true
Nonlinearity correction enabled: false
Boxcar width: 0
XAxis mode: Wavelengths
Number of Pixels in Spectrum: 2048
>>>>>Begin Spectral Data<<<<<
189.047	-42.04
189.435	-42.04
189.823	-42.04
190.211	273.48
190.599	-151.81
190.987	34.74
191.375	-49.6
191.763	237.76
192.151	-49.3
192.538	137.92
192.926	-345.42
193.314	181.08
193.702	-474.69
194.089	40.29
194.477	401.93
194.864	33.85
195.252	-5.16
195.639	98.99
196.027	511.21
196.414	-1199.01
196.801	-184021584600050
197.189	149.31
197.576	-46.03
197.963	-144.73
198.351	53.24
198.738	26.27
199.125	45.84
199.512	-2.3
199.899	-46.38
200.286	-12.36
200.673	17.65
201.06	55.8
201.447	33.43
201.833	89.13
202.22	41.65
202.607	19.76
202.994	43.05
203.38	-56.95
203.767	50.64
204.154	-68.52
204.54	19.63
204.927	-3.39
205.313	33.35
205.699	35.57
206.086	54.45
206.472	0.67
206.858	13.62
207.245	34.8
207.631	-35.3
208.017	27.84
208.403	31.1
208.789	20.35
209.175	34.34
209.561	17.51
209.947	8.13
210.333	-8.97
210.719	20.65
211.105	-31.42
211.491	-23.17
211.876	-10.97
212.262	-40.95
212.648	-3.05
213.034	23.78
213.419	21.68
213.805	-4.79
214.19	-6.09
214.576	-0.6
214.961	-9.53
215.346	-70.9
215.732	-32.75
216.117	-15.47
216.502	-20.08
216.888	-12.86
217.273	29.21
217.658	-16.55
218.043	25.16
218.428	33.44
218.813	9.38
219.198	-14.21
219.583	-4.99
219.968	-13.61
220.353	-5.72
220.738	2.96
221.122	19.47
221.507	3.6
221.892	14.25
222.276	21.8
222.661	-11.39
223.046	9.28
223.43	-3.38
223.815	-4.16
224.199	11.08
224.583	-2.02
224.968	-1.23
225.352	1.91
225.736	6.5
226.121	-1.64
226.505	7.83
226.889	13.39
227.273	9.97
227.657	4.67
228.041	5.2
228.425	7.7
228.809	6.01
229.193	-0.31
229.577	5.29
229.961	5.31
230.344	3.92
230.728	4.56
231.112	4.72
231.495	4.62
231.879	4.79
232.263	3.2
232.646	3.84
233.03	0.19
233.413	3.21
233.797	7.04
234.18	-0.43
234.563	2.1
234.946	4.08
235.33	3.96
235.713	4.51
236.096	3.82
236.479	4.51
236.862	5.67
237.245	5.04
237.628	5.43
238.011	4.54
238.394	5.31
238.777	4.04
239.16	1.25
239.543	2.51
239.925	6.24
240.308	5.97
240.691	5.23
241.073	4.67
241.456	3.17
241.838	3.73
242.221	3.79
242.603	4.74
242.986	4.77
243.368	3.96
243.75	3.93
244.133	4.18
244.515	4.7
244.897	3.8
245.279	3.89
245.661	3.83
246.043	4.93
246.425	4.24
246.807	3.8
247.189	3.9
247.571	4.22
247.953	4.42
248.335	4.38
248.717	4.45
249.098	4.37
249.48	4.31
249.862	4.41
250.243	4.41
250.625	4.57
251.006	4.95
251.388	4.32
251.769	4.39
252.151	5.46
252.532	4.89
252.913	4.75
253.295	4.37
253.676	4.95
254.057	4.17
254.438	4.49
254.819	4.53
255.2	4.46
255.581	3.59
255.962	5.51
256.343	4.08
256.724	5.18
257.105	4.59
257.486	5.02
257.867	3.56
258.247	4.49
258.628	4.84
259.009	4.33
259.389	4.42
259.77	4.18
260.15	5.09
260.531	4.5
260.911	4.25
261.292	4.01
261.672	4.32
262.052	4.37
262.432	4.35
262.813	4.32
263.193	4.08
263.573	4.42
263.953	4.93
264.333	4.74
264.713	4.44
265.093	3.39
265.473	5.14
265.853	4.23
266.233	4.39
266.612	4.63
266.992	4.27
267.372	4.08
267.752	4.18
268.131	4.08
268.511	4.85
268.89	4.64
269.27	4.25
269.649	4.63
270.029	3.91
270.408	4.25
270.787	3.85
271.167	4.42
271.546	3.72
271.925	4.1
272.304	3.94
272.683	3.82
273.062	4.1
273.441	4.04
273.82	4.72
274.199	4.26
274.578	3.9
274.957	3.83
275.336	4.27
275.715	4.59
276.093	4.45
276.472	4.24
276.851	4.39
277.229	4.17
277.608	3.83
277.986	4.02
278.365	4.01
278.743	3.81
279.122	4.21
279.5	4.06
279.878	3.61
280.257	4.68
280.635	3.77
281.013	4.01
281.391	4.14
281.769	3.94
282.147	3.95
282.525	4.12
282.903	4.01
283.281	4.22
283.659	4.41
284.037	4.03
284.415	4.1
284.792	4.05
285.17	3.69
285.548	4.38
285.925	4.12
286.303	3.86
286.68	4.25
287.058	4.12
287.435	4.14
287.813	4.29
288.19	4.45
288.567	4.18
288.945	4.46
289.322	3.84
289.699	4.41
290.076	4.87
290.453	4.34
290.83	4.52
291.207	4.22
291.584	3.72
291.961	4.63
292.338	4.46
292.715	4.61
293.092	4.61
293.469	5.04
293.845	4.54
294.222	4.67
294.599	4.86
294.975	5.01
295.352	4.47
295.728	4.81
296.105	4.77
296.481	5.11
296.858	4.9
297.234	5.18
297.61	5.32
297.986	4.68
298.363	4.74
298.739	5.09
299.115	4.74
299.491	4.96
299.867	5.24
300.243	5.29
300.619	5.15
300.995	5.46
301.371	5.55
301.746	5.01
302.122	5.29
302.498	5.5
302.874	5.52
303.249	5.64
303.625	5.47
304	5.45
304.376	5.77
304.751	5.5
305.127	5
305.502	5.8
305.878	5.8
306.253	5.56
306.628	6.36
307.003	6.12
307.378	5.8
307.754	5.8
308.129	5.46
308.504	5.48
308.879	6.22
309.254	6.4
309.629	6.05
310.003	6.33
310.378	5.96
310.753	6.54
311.128	6.3
311.502	6.27
311.877	6.67
312.252	6.1
312.626	6.37
313.001	6.33
313.375	6.47
313.75	6.19
314.124	7.19
314.498	6.38
314.873	6.29
315.247	6.67
315.621	7.45
315.995	6.77
316.369	7.28
316.743	7.13
317.117	7.21
317.491	6.8
317.865	6.76
318.239	7.12
318.613	7.21
318.987	7.64
319.361	7.93
319.734	7.38
320.108	7.7
320.482	7.27
320.855	7.93
321.229	7.93
321.602	7.49
321.976	7.83
322.349	6.71
322.723	7.17
323.096	7.86
323.469	7.54
323.843	7.85
324.216	7.28
324.589	8.5
324.962	7.94
325.335	7.67
325.708	8.04
326.081	8.6
326.454	8.07
326.827	7.88
327.2	8.43
327.573	8.39
327.945	8.43
328.318	8.42
328.691	8.44
329.063	8.01
329.436	8.32
329.809	7.98
330.181	8.23
330.553	8.73
330.926	8.2
331.298	8.15
331.671	8.79
332.043	8.25
332.415	9.34
332.787	9.06
333.159	9.12
333.532	9.1
333.904	8.78
334.276	8.91
334.648	9.01
335.02	8.98
335.391	9.04
335.763	8.54
336.135	8.78
336.507	9.35
336.879	9.1
337.25	8.9
337.622	9
337.993	8.94
338.365	9.36
338.736	9.37
339.108	9.14
339.479	9.27
339.851	9.63
340.222	9.28
340.593	9.21
340.964	9.49
341.336	9.19
341.707	10.02
342.078	9.4
342.449	9.44
342.82	9.66
343.191	9.33
343.562	9.36
343.933	9.87
344.303	9.56
344.674	9.54
345.045	10.13
345.416	9.3
345.786	9.32
346.157	10.3
346.527	9.48
346.898	10.01
347.268	9.75
347.639	9.7
348.009	10.02
348.38	9.83
348.75	9.86
349.12	10.32
349.49	9.93
349.861	10.37
350.231	10.42
350.601	10.32
350.971	10.55
351.341	10.39
351.711	10.61
352.081	10.47
352.45	10.34
352.82	10.47
353.19	10.55
353.56	10.77
353.929	10.59
354.299	10.37
354.669	10.6
355.038	10.12
355.408	11.1
355.777	10.38
356.147	11.06
356.516	11.25
356.885	10.62
357.254	10.83
357.624	10.9
357.993	11.08
358.362	10.93
358.731	11.14
359.1	11.47
359.469	11.07
359.838	10.62
360.207	10.84
360.576	11.2
360.945	10.8
361.314	11.34
361.682	10.85
362.051	11.2
362.42	11.25
362.788	11.65
363.157	11.23
363.525	11.28
363.894	11.21
364.262	11.38
364.631	12.05
364.999	11.19
365.367	11.72
365.735	11.32
366.104	11.63
366.472	11.65
366.84	11.83
367.208	11.52
367.576	11.79
367.944	11.87
368.312	11.67
368.68	12.08
369.048	12.07
369.416	11.78
369.783	12.15
370.151	12.02
370.519	12.42
370.886	11.92
371.254	12.04
371.621	12.22
371.989	12.38
372.356	12.51
372.724	12.3
373.091	12.17
373.458	12.41
373.826	12.31
374.193	12.92
374.56	12.37
374.927	12.47
375.294	12.92
375.661	12.36
376.028	12.75
376.395	12.48
376.762	13.15
377.129	12.63
377.496	12.6
377.863	12.71
378.229	12.85
378.596	12.55
378.963	12.76
379.329	13
379.696	12.97
380.062	13.26
380.429	13.27
380.795	13.08
381.161	13.4
381.528	12.61
381.894	13.34
382.26	13.44
382.626	13.12
382.993	13.14
383.359	13.08
383.725	13.76
384.091	13.43
384.457	13.53
384.823	13.55
385.188	13.87
385.554	13.42
385.92	13.78
386.286	13.91
386.651	13.83
387.017	13.9
387.383	13.85
387.748	13.62
388.114	13.97
388.479	13.9
388.845	13.84
389.21	14.05
389.575	13.89
389.94	13.91
390.306	13.98
390.671	14.03
391.036	14.35
391.401	14.36
391.766	14.44
392.131	14.19
392.496	14.44
392.861	14.11
393.226	14.34
393.591	14.63
393.956	14.48
394.32	14.58
394.685	14.62
395.05	14.61
395.414	14.75
395.779	14.35
396.143	14.67
396.508	14.74
396.872	14.66
397.236	14.36
397.601	15.07
397.965	14.66
398.329	15.14
398.694	14.76
399.058	15.07
399.422	15
399.786	14.91
400.15	14.98
400.514	15.18
400.878	15.03
401.242	15.25
401.605	15.19
401.969	15.37
402.333	15.13
402.697	15.64
403.06	15.51
403.424	15.19
403.787	15.64
404.151	15.54
404.514	15.55
404.878	15.44
405.241	15.66
405.604	15.3
405.968	15.67
406.331	15.76
406.694	15.62
407.057	16.07
407.42	15.87
407.783	15.76
408.146	15.83
408.509	15.78
408.872	15.73
409.235	16.04
409.598	16
409.961	15.84
410.323	16.11
410.686	16.3
411.049	15.95
411.411	16.44
411.774	16.24
412.136	16.02
412.499	16.27
412.861	16.28
413.223	16.68
413.586	16.57
413.948	16.69
414.31	16.62
414.672	16.4
415.035	16.68
415.397	16.82
415.759	16.49
416.121	16.92
416.483	16.86
416.845	16.92
417.206	16.95
417.568	16.83
417.93	16.74
418.292	16.8
418.653	16.88
419.015	16.87
419.377	16.87
419.738	16.83
420.1	16.76
420.461	16.9
420.822	16.91
421.184	16.8
421.545	16.94
421.906	16.94
422.267	16.84
422.629	16.8
422.99	16.87
423.351	16.94
423.712	17.07
424.073	17.13
424.434	17.02
424.795	17.22
425.155	17.09
425.516	17.15
425.877	17.09
426.238	16.96
426.598	17.33
426.959	17.29
427.32	17.55
427.68	17.63
428.041	17.57
428.401	17.62
428.761	17.68
429.122	17.81
429.482	17.93
429.842	18.1
430.202	18.08
430.563	18.13
430.923	17.99
431.283	18.19
431.643	18.28
432.003	18.15
432.363	18.39
432.722	18.02
433.082	18.28
433.442	18.23
433.802	18.26
434.161	18.31
434.521	18.32
434.881	18.34
435.24	18.23
435.6	18.48
435.959	18.28
436.319	18.53
436.678	18.42
437.037	18.63
437.396	18.63
437.756	18.88
438.115	18.86
438.474	18.93
438.833	18.81
439.192	19
439.551	18.94
439.91	19.09
440.269	18.8
440.628	18.85
440.987	18.93
441.345	18.94
441.704	18.95
442.063	18.9
442.421	18.89
442.78	18.95
443.138	18.92
443.497	18.91
443.855	19.26
444.214	19.29
444.572	19.44
444.93	19.39
445.288	19.35
445.647	19.43
446.005	19.16
446.363	19.45
446.721	19.32
447.079	19.37
447.437	19.19
447.795	19.29
448.153	19.27
448.51	19.22
448.868	19.27
449.226	19.37
449.584	19.48
449.941	19.69
450.299	19.77
450.656	19.91
451.014	19.86
451.371	19.96
451.729	20.06
452.086	19.98
452.443	20.13
452.801	20.25
453.158	20.41
453.515	20.12
453.872	20.21
454.229	20.2
454.586	20.29
454.943	20.18
455.3	20.41
455.657	20.37
456.014	20.37
456.371	20.54
456.727	20.4
457.084	20.47
457.441	20.66
457.797	20.51
458.154	20.78
458.51	20.55
458.867	20.77
459.223	20.73
459.58	20.92
459.936	20.67
460.292	20.87
460.648	20.73
461.005	20.55
461.361	20.59
461.717	20.36
462.073	20.59
462.429	20.73
462.785	20.88
463.141	20.85
463.496	21.12
463.852	21.36
464.208	21.32
464.564	21.11
464.919	21.31
465.275	21.44
465.631	21.54
465.986	21.45
466.342	21.5
466.697	21.53
467.052	21.64
467.408	21.48
467.763	21.65
468.118	21.59
468.473	21.68
468.829	21.83
469.184	21.61
469.539	21.68
469.894	21.83
470.249	22
470.603	21.98
470.958	21.95
471.313	22.08
471.668	21.93
472.023	22.08
472.377	21.99
472.732	22.25
473.086	22.23
473.441	22.3
473.795	22.42
474.15	22.13
474.504	22.22
474.859	22.33
475.213	22.43
475.567	22.28
475.921	22.54
476.275	22.46
476.63	22.73
476.984	22.69
477.338	22.86
477.692	22.72
478.045	22.71
478.399	22.67
478.753	22.52
479.107	22.73
479.461	22.93
479.814	22.83
480.168	22.78
480.521	22.91
480.875	23.2
481.228	22.99
481.582	22.88
481.935	22.94
482.289	22.89
482.642	22.98
482.995	22.92
483.348	22.8
483.701	22.88
484.055	22.72
484.408	22.65
484.761	22.44
485.114	22.32
485.466	22.2
485.819	22.08
486.172	22.14
486.525	22.32
486.878	22.44
487.23	22.69
487.583	22.81
487.936	22.9
488.288	22.95
488.641	22.79
488.993	22.66
489.345	22.7
489.698	22.66
490.05	22.71
490.402	22.82
490.754	23.02
491.107	23.41
491.459	23.44
491.811	23.6
492.163	23.65
492.515	23.66
492.866	23.22
493.218	23.18
493.57	23.16
493.922	23.2
494.274	23.34
494.625	23.6
494.977	23.98
495.328	24.2
495.68	24.38
496.031	24.31
496.383	24.47
496.734	24.55
497.086	24.22
497.437	24.48
497.788	24.41
498.139	24.44
498.49	24.27
498.842	24.27
499.193	24.51
499.544	24.55
499.894	24.62
500.245	24.5
500.596	24.65
500.947	24.76
501.298	24.88
501.648	25.02
501.999	25.07
502.35	25.11
502.7	25.14
503.051	25.18
503.401	25.23
503.752	25.3
504.102	25.27
504.452	25.41
504.803	25.17
505.153	25.51
505.503	25.27
505.853	25.34
506.203	25.4
506.553	25.36
506.903	25.35
507.253	25.6
507.603	25.47
507.953	25.68
508.303	25.54
508.652	25.71
509.002	25.64
509.352	25.68
509.701	25.62
510.051	25.58
510.4	25.66
510.75	25.61
511.099	25.68
511.449	25.8
511.798	25.8
512.147	25.97
512.496	25.94
512.846	25.94
513.195	26.12
513.544	26.06
513.893	26.04
514.242	26.25
514.591	26.33
514.939	26.23
515.288	26.41
515.637	26.57
515.986	26.51
516.334	26.7
516.683	26.57
517.032	26.68
517.38	26.62
517.729	26.87
518.077	26.75
518.426	26.62
518.774	26.63
519.122	26.45
519.47	26.54
519.819	26.5
520.167	26.38
520.515	26.36
520.863	26.47
521.211	26.43
521.559	26.49
521.907	26.68
522.255	26.82
522.602	26.91
522.95	27.13
523.298	27.09
523.645	27.06
523.993	27.24
524.341	27.34
524.688	27.29
525.036	27.51
525.383	27.41
525.73	27.38
526.078	27.58
526.425	27.18
526.772	27.04
527.119	26.97
527.466	27.05
527.814	27.07
528.161	27.11
528.508	27.18
528.854	27.16
529.201	27.19
529.548	26.99
529.895	26.83
530.242	26.84
530.588	26.79
530.935	26.81
531.282	26.87
531.628	27.1
531.975	27.22
532.321	27.38
532.667	27.49
533.014	27.76
533.36	27.87
533.706	27.7
534.052	27.63
534.399	27.58
534.745	27.5
535.091	27.49
535.437	27.55
535.783	27.56
536.129	27.83
536.474	28.1
536.82	28.09
537.166	28.28
537.512	28.33
537.857	28.29
538.203	27.99
538.549	28.25
538.894	28.18
539.239	28.44
539.585	28.37
539.93	28.71
540.276	28.75
540.621	28.85
540.966	28.92
541.311	28.94
541.656	28.87
542.001	28.96
542.346	28.5
542.691	28.45
543.036	28.23
543.381	28.24
543.726	28.35
544.071	28.41
544.415	28.47
544.76	28.61
545.105	28.79
545.449	28.83
545.794	29.12
546.138	29.17
546.483	29.35
546.827	29.5
547.171	29.31
547.516	29.46
547.86	29.42
548.204	29.43
548.548	29.34
548.892	29.49
549.236	29.59
549.58	29.7
549.924	29.75
550.268	29.84
550.612	30.01
550.956	30.04
551.3	30.18
551.643	30.28
551.987	30.48
552.33	30.34
552.674	30.31
553.017	30.37
553.361	30.41
553.704	30.47
554.048	30.53
554.391	30.38
554.734	30.39
555.077	30.34
555.42	30.38
555.764	30.49
556.107	30.47
556.45	30.68
556.793	31.02
557.135	31.05
557.478	30.83
557.821	31.08
558.164	31.1
558.507	30.96
558.849	31.01
559.192	31.32
559.534	31.26
559.877	31.35
560.219	31.59
560.562	31.29
560.904	31.31
561.246	31.57
561.589	31.49
561.931	31.5
562.273	31.45
562.615	31.48
562.957	31.36
563.299	31.56
563.641	31.74
563.983	31.42
564.325	31.61
564.667	31.68
565.008	31.56
565.35	32.06
565.692	32.02
566.033	31.8
566.375	31.83
566.716	32.01
567.058	31.94
567.399	31.8
567.741	31.82
568.082	31.8
568.423	31.72
568.764	31.79
569.105	32.08
569.447	31.99
569.788	32.19
570.129	31.94
570.47	32.27
570.811	32.31
571.151	32.31
571.492	32.43
571.833	32.4
572.174	32.41
572.514	32.31
572.855	32.41
573.195	32.15
573.536	32.57
573.876	32.44
574.217	32.43
574.557	32.57
574.898	32.55
575.238	32.52
575.578	32.68
575.918	32.75
576.258	32.67
576.598	32.57
576.938	32.78
577.278	32.63
577.618	32.9
577.958	32.85
578.298	32.94
578.638	32.94
578.977	33.28
579.317	33.42
579.657	33.45
579.996	33.39
580.336	33.37
580.675	33.74
581.014	33.77
581.354	33.89
581.693	33.91
582.032	33.33
582.372	33.65
582.711	33.92
583.05	33.92
583.389	34.06
583.728	33.85
584.067	33.82
584.406	34.23
584.745	33.86
585.083	34.1
585.422	34.19
585.761	33.96
586.1	34.58
586.438	34.38
586.777	34.47
587.115	34.23
587.454	34.15
587.792	34.14
588.13	34.65
588.469	34.16
588.807	34.62
589.145	34.4
589.483	34.27
589.821	34.62
590.159	34.59
590.497	34.44
590.835	34.55
591.173	34.74
591.511	34.78
591.849	34.59
592.187	34.88
592.524	34.67
592.862	34.75
593.2	34.49
593.537	35.03
593.875	34.94
594.212	34.77
594.55	35.1
594.887	35.11
595.224	34.97
595.561	35.01
595.899	34.81
596.236	34.9
596.573	35.16
596.91	35.41
597.247	35.02
597.584	35.47
597.921	35.36
598.258	35.13
598.594	34.88
598.931	35.21
599.268	35.09
599.604	35.33
599.941	35.32
600.277	35.25
600.614	35.36
600.95	35.62
601.287	35.78
601.623	35.73
601.959	35.81
602.296	35.76
602.632	35.78
602.968	35.87
603.304	35.52
603.64	35.93
603.976	36.12
604.312	35.87
604.648	35.86
604.984	35.97
605.319	35.8
605.655	35.83
605.991	35.76
606.326	35.83
606.662	35.79
606.998	35.88
607.333	35.95
607.668	36.16
608.004	36.19
608.339	36.42
608.674	36.23
609.01	36.61
609.345	36.46
609.68	36.35
610.015	36.46
610.35	36.55
610.685	36.5
611.02	36.22
611.355	36.49
611.689	36.47
612.024	36.68
612.359	36.66
612.694	36.84
613.028	36.94
613.363	36.66
613.697	37.3
614.032	36.94
614.366	36.95
614.7	37.35
615.035	37.1
615.369	37
615.703	37.33
616.037	37.1
616.371	36.81
616.705	37.52
617.039	37.62
617.373	37.41
617.707	37.6
618.041	37.89
618.375	37.59
618.709	37.49
619.042	37.42
619.376	37.68
619.71	37.77
620.043	37.65
620.377	37.57
620.71	37.57
621.043	37.67
621.377	37.52
621.71	37.82
622.043	38.29
622.376	37.88
622.709	38.19
623.043	38.02
623.376	38.27
623.709	37.98
624.041	38.16
624.374	38.1
624.707	38
625.04	38.12
625.373	37.98
625.705	38.58
626.038	38.45
626.37	38.11
626.703	38.1
627.035	38.5
627.368	38.46
627.7	38.28
628.032	38.4
628.365	38.35
628.697	38.25
629.029	38.47
629.361	38.78
629.693	38.47
630.025	38.29
630.357	38.26
630.689	38.71
631.021	38.91
631.353	39.09
631.684	38.78
632.016	38.92
632.348	39.12
632.679	38.78
633.011	38.91
633.342	39.35
633.674	39.3
634.005	38.86
634.336	39.13
634.668	39.03
634.999	39.02
635.33	38.93
635.661	39.31
635.992	39.32
636.323	39.4
636.654	39.44
636.985	39.32
637.316	39.26
637.647	39.05
637.977	39.58
638.308	39.21
638.639	39.2
638.969	38.99
639.3	39.63
639.63	39.73
639.961	39.5
640.291	39.72
640.622	39.7
640.952	39.41
641.282	40.02
641.612	40.12
641.943	39.84
642.273	39.81
642.603	39.57
642.933	40.13
643.263	39.93
643.592	40.27
643.922	39.93
644.252	39.97
644.582	40.03
644.911	39.67
645.241	40.54
645.571	39.82
645.9	40.58
646.23	40.56
646.559	40.85
646.888	40.11
647.218	40.72
647.547	40.51
647.876	40.7
648.205	40.48
648.534	40.26
648.863	40.96
649.192	40.51
649.521	40.37
649.85	41.08
650.179	40.73
650.508	40.47
650.837	40.22
651.165	40.81
651.494	40.55
651.822	40.92
652.151	41.12
652.479	41.03
652.808	40.84
653.136	41.1
653.465	41.23
653.793	41.31
654.121	40.91
654.449	40.97
654.777	41.49
655.105	41.36
655.433	40.87
655.761	40.74
656.089	41.26
656.417	41.24
656.745	41.79
657.073	41.57
657.4	40.7
657.728	41.54
658.056	41.42
658.383	42
658.711	40.75
659.038	42.02
659.365	41.31
659.693	41.27
660.02	41.44
660.347	41.72
660.674	41.33
661.001	41.63
661.329	41.54
661.656	41.52
661.982	41.57
662.309	42.02
662.636	41.63
662.963	41.65
663.29	41.77
663.616	41.6
663.943	42.01
664.27	41.81
664.596	41.9
664.923	42.26
665.249	41.91
665.576	42.15
665.902	42.29
666.228	42.2
666.554	41.9
666.881	42.33
667.207	42.03
667.533	42.8
667.859	42.26
668.185	42.61
668.511	42.13
668.837	42.14
669.162	42.26
669.488	42.06
669.814	42.55
670.139	42.56
670.465	42.46
