Data from 0067_forehead_Reflection__0__294.txt Node

Date: Fri Dec 16 16:26:17 CST 2022
User: ToomeyLab
Spectrometer: FLMS14357
Trigger mode: 0
Integration Time (sec): 1.000000E-2
Scans to average: 100
Electric dark correction enabled: true
Nonlinearity correction enabled: false
Boxcar width: 0
XAxis mode: Wavelengths
Number of Pixels in Spectrum: 2048
>>>>>Begin Spectral Data<<<<<
189.047	-43.14
189.435	-43.14
189.823	-43.14
190.211	114.7
190.599	141.44
190.987	79.06
191.375	-368.91
191.763	463.11
192.151	40.85
192.538	180.27
192.926	282.92
193.314	89.3
193.702	-85.72
194.089	60.68
194.477	679.91
194.864	257.86
195.252	142.14
195.639	97.23
196.027	257.54
196.414	-1939.8
196.801	-95533912575150
197.189	44.93
197.576	-91.08
197.963	-193.26
198.351	57.29
198.738	3.25
199.125	12.16
199.512	26.84
199.899	35.4
200.286	16.62
200.673	37.74
201.06	10.72
201.447	41.78
201.833	-64.74
202.22	40.97
202.607	25.19
202.994	28.36
203.38	5.85
203.767	30.96
204.154	-41
204.54	48.4
204.927	60.05
205.313	49.99
205.699	71.15
206.086	-51.45
206.472	-17.9
206.858	46.72
207.245	8.59
207.631	-0.89
208.017	7.93
208.403	36.66
208.789	43.99
209.175	57.42
209.561	10.45
209.947	-46.87
210.333	-6.94
210.719	3.19
211.105	15.42
211.491	-14.28
211.876	-30.46
212.262	20.34
212.648	-102.99
213.034	-5.27
213.419	44.79
213.805	28.47
214.19	10.63
214.576	-51.97
214.961	1.06
215.346	-46.98
215.732	-15.07
216.117	0.27
216.502	-9.68
216.888	-55.28
217.273	3.35
217.658	25.03
218.043	-9.42
218.428	4.61
218.813	-12.58
219.198	-40
219.583	0.05
219.968	-22.42
220.353	5.46
220.738	-0.37
221.122	12.09
221.507	-5.45
221.892	20.78
222.276	12.15
222.661	-14.12
223.046	9.29
223.43	-8.08
223.815	-0.15
224.199	10.53
224.583	11.59
224.968	17.04
225.352	12.2
225.736	9.01
226.121	0.98
226.505	6.75
226.889	14.64
227.273	3.97
227.657	8.09
228.041	7.27
228.425	5.68
228.809	2.78
229.193	5.31
229.577	5.02
229.961	4.85
230.344	5.78
230.728	6.25
231.112	6.42
231.495	4.73
231.879	5.07
232.263	4.44
232.646	5.8
233.03	2.64
233.413	3.58
233.797	5.5
234.18	3.32
234.563	3.82
234.946	5.53
235.33	6.22
235.713	6.94
236.096	5.62
236.479	6.81
236.862	5.44
237.245	6.56
237.628	6.77
238.011	5.09
238.394	7.72
238.777	5.3
239.16	5.17
239.543	4.28
239.925	4.03
240.308	4.01
240.691	5.88
241.073	6.41
241.456	5.8
241.838	5.56
242.221	6.68
242.603	6.65
242.986	6.74
243.368	5.53
243.75	5.83
244.133	5.72
244.515	5.94
244.897	5.45
245.279	5.19
245.661	5.84
246.043	5.85
246.425	5.69
246.807	5.89
247.189	6.05
247.571	5.91
247.953	6.16
248.335	6.09
248.717	6.09
249.098	6.4
249.48	5.78
249.862	6.07
250.243	6
250.625	6.16
251.006	6.4
251.388	6.47
251.769	6.01
252.151	6.19
252.532	5.49
252.913	5.63
253.295	6.2
253.676	6.35
254.057	5.53
254.438	5.77
254.819	6.57
255.2	5.73
255.581	6.75
255.962	5.32
256.343	5.45
256.724	4.79
257.105	7.42
257.486	6.63
257.867	4.67
258.247	5.4
258.628	6.64
259.009	6.3
259.389	6.59
259.77	5.8
260.15	6.66
260.531	6.16
260.911	5.83
261.292	5.94
261.672	5.69
262.052	5.74
262.432	5.92
262.813	5.85
263.193	5.96
263.573	5.25
263.953	5.46
264.333	5.99
264.713	6.08
265.093	5.14
265.473	6.33
265.853	6.25
266.233	6.52
266.612	5.46
266.992	5.46
267.372	5.47
267.752	5.79
268.131	6.17
268.511	5.55
268.89	5.99
269.27	5.81
269.649	5.97
270.029	6.41
270.408	5.64
270.787	5.4
271.167	5.83
271.546	5.15
271.925	5.76
272.304	5.84
272.683	5.29
273.062	6.09
273.441	6.49
273.82	6.19
274.199	5.94
274.578	5.52
274.957	6.12
275.336	5.36
275.715	5.92
276.093	6.11
276.472	5.67
276.851	5.89
277.229	6.2
277.608	5.21
277.986	5.04
278.365	5.77
278.743	5.58
279.122	5.15
279.5	5.14
279.878	4.55
280.257	5.38
280.635	5.13
281.013	5.93
281.391	5.35
281.769	5.67
282.147	5.75
282.525	5.59
282.903	5.03
283.281	5.19
283.659	5.38
284.037	5.51
284.415	5.34
284.792	5.69
285.17	5.4
285.548	5.69
285.925	5.71
286.303	5.4
286.68	5.68
287.058	5.57
287.435	5.47
287.813	5.46
288.19	6.01
288.567	5.66
288.945	5.19
289.322	5.81
289.699	5.67
290.076	6.29
290.453	5.74
290.83	6.16
291.207	5.83
291.584	5.64
291.961	5.92
292.338	5.98
292.715	6.03
293.092	6.22
293.469	6.27
293.845	6.35
294.222	5.71
294.599	6.49
294.975	6.22
295.352	6.02
295.728	6.48
296.105	6.23
296.481	6.75
296.858	7.05
297.234	5.92
297.61	6.61
297.986	6.54
298.363	6.26
298.739	6.7
299.115	6.37
299.491	6.38
299.867	6.89
300.243	6.54
300.619	6.69
300.995	7.19
301.371	7.54
301.746	7.26
302.122	7.11
302.498	7.41
302.874	7.35
303.249	7.58
303.625	6.8
304	7.02
304.376	7.22
304.751	7.35
305.127	6.66
305.502	7.47
305.878	7.16
306.253	6.93
306.628	7.94
307.003	7.55
307.378	6.99
307.754	7.8
308.129	7.03
308.504	7.37
308.879	7.99
309.254	7.93
309.629	7.73
310.003	7.31
310.378	7.93
310.753	8.12
311.128	7.61
311.502	7.96
311.877	8.01
312.252	7.83
312.626	7.89
313.001	7.96
313.375	7.91
313.75	7.92
314.124	8.74
314.498	8.2
314.873	7.78
315.247	8.14
315.621	8.24
315.995	8.78
316.369	8.43
316.743	8.56
317.117	8.48
317.491	9
317.865	8.69
318.239	8.93
318.613	8.76
318.987	9.1
319.361	9.02
319.734	9.67
320.108	8.58
320.482	9.11
320.855	8.83
321.229	9.32
321.602	9.03
321.976	9.17
322.349	8.5
322.723	8.9
323.096	8.59
323.469	9.03
323.843	9.71
324.216	8.77
324.589	8.97
324.962	9.29
325.335	9.47
325.708	9.6
326.081	9.91
326.454	9.59
326.827	9.75
327.2	10.14
327.573	9.45
327.945	9.29
328.318	10.1
328.691	9.89
329.063	8.9
329.436	9.38
329.809	9.83
330.181	9.78
330.553	9.93
330.926	10.39
331.298	9.37
331.671	9.7
332.043	9.75
332.415	10.06
332.787	10.59
333.159	10.15
333.532	10.01
333.904	10.68
334.276	10.29
334.648	10.65
335.02	10.17
335.391	10.37
335.763	9.81
336.135	10.39
336.507	10.67
336.879	10.08
337.25	10.46
337.622	11.01
337.993	10.85
338.365	10.79
338.736	10.66
339.108	9.9
339.479	10.71
339.851	10.92
340.222	10.91
340.593	10.52
340.964	10.81
341.336	10.38
341.707	10.96
342.078	10.74
342.449	11.34
342.82	10.59
343.191	10.71
343.562	11.09
343.933	11.07
344.303	11.13
344.674	11.22
345.045	11.63
345.416	11.24
345.786	10.85
346.157	11.5
346.527	11.16
346.898	11.02
347.268	11.34
347.639	11.01
348.009	11.29
348.38	11.13
348.75	11.45
349.12	11.22
349.49	11.14
349.861	11.42
350.231	11.79
350.601	11.37
350.971	11.58
351.341	11.27
351.711	11.66
352.081	11.6
352.45	11.95
352.82	11.78
353.19	11.79
353.56	11.74
353.929	12.5
354.299	11.79
354.669	11.72
355.038	12.38
355.408	12.04
355.777	11.75
356.147	12.54
356.516	12.28
356.885	11.92
357.254	12.47
357.624	12.42
357.993	11.8
358.362	12.05
358.731	12.18
359.1	12.25
359.469	12.09
359.838	11.97
360.207	12.23
360.576	12.37
360.945	12.52
361.314	12.72
361.682	12.12
362.051	12.25
362.42	12.68
362.788	12.5
363.157	12.3
363.525	12.38
363.894	12.3
364.262	12.24
364.631	13.17
364.999	12.27
365.367	13.2
365.735	12.58
366.104	12.82
366.472	12.91
366.84	13.15
367.208	12.56
367.576	12.86
367.944	12.98
368.312	13.04
368.68	13.04
369.048	13.38
369.416	12.89
369.783	12.93
370.151	13.36
370.519	12.58
370.886	13.06
371.254	13.3
371.621	13.43
371.989	13.44
372.356	13.59
372.724	13.36
373.091	13.5
373.458	13.64
373.826	13.53
374.193	13.99
374.56	13.3
374.927	13.56
375.294	14.08
375.661	13.89
376.028	14.08
376.395	13.56
376.762	14.21
377.129	13.89
377.496	14.26
377.863	13.7
378.229	13.83
378.596	13.93
378.963	13.73
379.329	13.9
379.696	13.95
380.062	14.37
380.429	14.07
380.795	13.82
381.161	14.44
381.528	13.83
381.894	14.23
382.26	14.2
382.626	14.2
382.993	14.12
383.359	14.5
383.725	14.32
384.091	14.37
384.457	14.64
384.823	14.12
385.188	14.8
385.554	14.32
385.92	14.82
386.286	14.75
386.651	14.43
387.017	14.85
387.383	14.86
387.748	14.69
388.114	14.76
388.479	14.95
388.845	15.13
389.21	14.88
389.575	14.93
389.94	15.16
390.306	14.96
390.671	15.09
391.036	15.31
391.401	15.43
391.766	15.15
392.131	15.28
392.496	15.37
392.861	15.24
393.226	15.26
393.591	15.3
393.956	15.41
394.32	15.43
394.685	15.31
395.05	15.29
395.414	15.44
395.779	15.34
396.143	15.67
396.508	15.87
396.872	15.69
397.236	15.51
397.601	15.69
397.965	15.65
398.329	15.96
398.694	15.98
399.058	15.74
399.422	15.91
399.786	15.93
400.15	16.19
400.514	16.13
400.878	16.1
401.242	16.26
401.605	16.22
401.969	16.27
402.333	16.21
402.697	16.35
403.06	16.27
403.424	16.35
403.787	16.47
404.151	16.29
404.514	16.46
404.878	16.6
405.241	16.54
405.604	16.49
405.968	16.29
406.331	16.41
406.694	16.55
407.057	17.12
407.42	16.68
407.783	16.59
408.146	16.51
408.509	16.89
408.872	16.72
409.235	16.95
409.598	17.23
409.961	17.12
410.323	16.83
410.686	16.92
411.049	16.83
411.411	17.05
411.774	17.21
412.136	17.16
412.499	17.21
412.861	17.19
413.223	17.05
413.586	17.26
413.948	17.19
414.31	17.47
414.672	17.23
415.035	17.44
415.397	17.57
415.759	17.31
416.121	17.44
416.483	17.67
416.845	17.49
417.206	17.6
417.568	17.63
417.93	17.59
418.292	17.69
418.653	17.58
419.015	17.49
419.377	17.51
419.738	17.61
420.1	17.5
420.461	17.53
420.822	17.78
421.184	17.61
421.545	17.73
421.906	17.61
422.267	17.48
422.629	17.53
422.99	17.67
423.351	17.73
423.712	17.9
424.073	18.02
424.434	17.99
424.795	17.99
425.155	17.97
425.516	17.76
425.877	17.89
426.238	17.91
426.598	18.21
426.959	18.15
427.32	18.22
427.68	18.42
428.041	18.55
428.401	18.43
428.761	18.61
429.122	18.51
429.482	18.79
429.842	18.77
430.202	18.68
430.563	18.79
430.923	18.7
431.283	18.73
431.643	19.04
432.003	18.84
432.363	19.17
432.722	18.95
433.082	19.02
433.442	19.04
433.802	19
434.161	19
434.521	18.98
434.881	19.34
435.24	19.08
435.6	19.15
435.959	19.3
436.319	19.42
436.678	19.32
437.037	19.47
437.396	19.46
437.756	19.35
438.115	19.55
438.474	19.64
438.833	19.49
439.192	19.67
439.551	19.37
439.91	19.53
440.269	19.78
440.628	19.42
440.987	19.51
441.345	19.46
441.704	19.44
442.063	19.5
442.421	19.48
442.78	19.57
443.138	19.69
443.497	19.82
443.855	19.93
444.214	19.95
444.572	20.14
444.93	20.11
445.288	20
445.647	19.99
446.005	19.96
446.363	20.01
446.721	19.84
447.079	19.95
447.437	19.8
447.795	19.83
448.153	19.92
448.51	20.15
448.868	20.08
449.226	20.11
449.584	20.21
449.941	20.53
450.299	20.35
450.656	20.55
451.014	20.71
451.371	20.69
451.729	20.66
452.086	20.65
452.443	20.71
452.801	20.84
453.158	20.9
453.515	20.75
453.872	20.83
454.229	20.83
454.586	20.98
454.943	20.96
455.3	21.17
455.657	20.98
456.014	21.19
456.371	21.32
456.727	20.94
457.084	20.97
457.441	21.18
457.797	21.29
458.154	21.31
458.51	21.23
458.867	21.44
459.223	21.31
459.58	21.4
459.936	21.15
460.292	21.43
460.648	21.04
461.005	21.09
461.361	21.06
461.717	21.08
462.073	21.32
462.429	21.42
462.785	21.5
463.141	21.73
463.496	21.65
463.852	22.05
464.208	21.87
464.564	21.83
464.919	21.82
465.275	21.9
465.631	21.86
465.986	22.18
466.342	22.04
466.697	22.02
467.052	22.37
467.408	22.29
467.763	22.09
468.118	22.04
468.473	22.11
468.829	22.28
469.184	22.34
469.539	22.37
469.894	22.58
470.249	22.43
470.603	22.51
470.958	22.56
471.313	22.6
471.668	22.66
472.023	22.75
472.377	22.48
472.732	22.83
473.086	22.68
473.441	22.88
473.795	23.13
474.15	22.81
474.504	22.9
474.859	22.79
475.213	22.72
475.567	23.08
475.921	23.1
476.275	23.03
476.63	23.13
476.984	23.15
477.338	23.35
477.692	23.09
478.045	23.13
478.399	23.34
478.753	23.2
479.107	23.34
479.461	23.39
479.814	23.32
480.168	23.32
480.521	23.37
480.875	23.57
481.228	23.59
481.582	23.39
481.935	23.56
482.289	23.4
482.642	23.39
482.995	23.37
483.348	23.32
483.701	23.35
484.055	23.05
484.408	22.92
484.761	22.63
485.114	22.5
485.466	22.51
485.819	22.73
486.172	23.01
486.525	23.17
486.878	23.26
487.23	23.41
487.583	23.5
487.936	23.48
488.288	23.3
488.641	23.12
488.993	23.22
489.345	23.19
489.698	23.28
490.05	23.39
490.402	23.67
490.754	23.94
491.107	24.07
491.459	24.17
491.811	24.18
492.163	24.09
492.515	23.83
492.866	23.5
493.218	23.58
493.57	23.82
493.922	24.05
494.274	24.26
494.625	24.31
494.977	24.61
495.328	24.77
495.68	24.85
496.031	24.87
496.383	25.03
496.734	25.02
497.086	24.98
497.437	24.96
497.788	24.99
498.139	24.82
498.49	24.96
498.842	25
499.193	24.97
499.544	25.23
499.894	25.01
500.245	25.14
500.596	25.27
500.947	25.21
501.298	25.42
501.648	25.4
501.999	25.75
502.35	25.54
502.7	25.53
503.051	25.81
503.401	25.86
503.752	25.87
504.102	25.8
504.452	25.74
504.803	25.85
505.153	25.83
505.503	25.82
505.853	25.77
506.203	25.92
506.553	26.05
506.903	25.96
507.253	26.18
507.603	26.1
507.953	26.26
508.303	26.08
508.652	26.25
509.002	26.18
509.352	26.15
509.701	25.93
510.051	26.15
510.4	26.19
510.75	26.26
511.099	26.31
511.449	26.25
511.798	26.46
512.147	26.49
512.496	26.51
512.846	26.5
513.195	26.48
513.544	26.41
513.893	26.62
514.242	26.79
514.591	26.72
514.939	26.62
515.288	26.73
515.637	26.93
515.986	26.98
516.334	27.1
516.683	26.91
517.032	26.91
517.38	27.06
517.729	27.2
518.077	27.05
518.426	26.94
518.774	26.95
519.122	27.08
519.47	27.03
519.819	26.61
520.167	26.9
520.515	26.86
520.863	26.9
521.211	27.16
521.559	27.29
521.907	27.32
522.255	27.47
522.602	27.53
522.95	27.76
523.298	27.89
523.645	27.84
523.993	27.95
524.341	27.84
524.688	27.83
525.036	27.97
525.383	27.91
525.73	27.93
526.078	28.09
526.425	27.75
526.772	27.53
527.119	27.37
527.466	27.6
527.814	27.79
528.161	27.88
528.508	27.91
528.854	27.78
529.201	27.58
529.548	27.36
529.895	27.16
530.242	27.22
530.588	27.5
530.935	27.56
531.282	27.8
531.628	28
531.975	28.14
532.321	28.32
532.667	28.3
533.014	28.48
533.36	28.5
533.706	28.34
534.052	28.2
534.399	28.05
534.745	27.92
535.091	28.16
535.437	28.26
535.783	28.43
536.129	28.66
536.474	28.81
536.82	28.89
537.166	28.95
537.512	28.8
537.857	28.75
538.203	28.69
538.549	28.93
538.894	28.96
539.239	29.28
539.585	29.32
539.93	29.33
540.276	29.54
540.621	29.49
540.966	29.65
541.311	29.55
541.656	29.35
542.001	29.21
542.346	28.89
542.691	28.7
543.036	28.7
543.381	28.91
543.726	29.07
544.071	29.2
544.415	29.4
544.76	29.38
545.105	29.56
545.449	29.63
545.794	29.82
546.138	30.03
546.483	30.04
546.827	29.93
547.171	30.02
547.516	30.03
547.86	30.14
548.204	29.92
548.548	29.96
548.892	30.45
549.236	30.36
549.58	30.44
549.924	30.61
550.268	30.71
550.612	31
550.956	30.6
551.3	31.07
551.643	30.95
551.987	30.86
552.33	30.86
552.674	31.23
553.017	31.02
553.361	31.02
553.704	30.97
554.048	30.88
554.391	30.9
554.734	31.08
555.077	31.1
555.42	31.28
555.764	31.48
556.107	31.34
556.45	31.3
556.793	31.65
557.135	31.62
557.478	31.64
557.821	31.5
558.164	31.64
558.507	31.6
558.849	31.83
559.192	31.83
559.534	31.87
559.877	32.06
560.219	32.04
560.562	31.98
560.904	31.72
561.246	32.17
561.589	32.17
561.931	32.21
562.273	32.07
562.615	32.11
562.957	32.28
563.299	32.03
563.641	32.45
563.983	32.08
564.325	32.05
564.667	32.42
565.008	32.36
565.35	32.53
565.692	32.69
566.033	32.72
566.375	32.54
566.716	32.78
567.058	32.44
567.399	32.42
567.741	32.48
568.082	32.49
568.423	32.54
568.764	32.56
569.105	32.71
569.447	32.68
569.788	32.92
570.129	32.99
570.47	33.18
570.811	32.85
571.151	33.24
571.492	33.12
571.833	32.95
572.174	33.13
572.514	33.14
572.855	33.11
573.195	32.99
573.536	33.05
573.876	33.03
574.217	33.21
574.557	33.18
574.898	33.36
575.238	33.4
575.578	33.6
575.918	33.47
576.258	33.35
576.598	33.37
576.938	33.49
577.278	33.7
577.618	33.71
577.958	33.66
578.298	34.12
578.638	33.94
578.977	33.88
579.317	33.92
579.657	34.12
579.996	34.22
580.336	34.35
580.675	34.33
581.014	34.5
581.354	34.41
581.693	34.29
582.032	34.25
582.372	34.56
582.711	34.38
583.05	34.81
583.389	34.6
583.728	34.76
584.067	34.64
584.406	34.85
584.745	34.65
585.083	34.98
585.422	34.93
585.761	35.21
586.1	35.19
586.438	35.15
586.777	35.01
587.115	34.78
587.454	35.03
587.792	34.84
588.13	35.34
588.469	35.43
588.807	35.35
589.145	34.85
589.483	34.91
589.821	35.19
590.159	35.48
590.497	35.14
590.835	35.24
591.173	35.45
591.511	35.42
591.849	35.5
592.187	35.76
592.524	35.53
592.862	35.74
593.2	35.47
593.537	35.73
593.875	35.8
594.212	35.78
594.55	35.81
594.887	35.95
595.224	35.75
595.561	35.91
595.899	35.9
596.236	35.75
596.573	35.92
596.91	35.89
597.247	35.75
597.584	36.05
597.921	35.99
598.258	36.03
598.594	35.48
598.931	35.87
599.268	36.12
599.604	35.96
599.941	36.14
600.277	36.3
600.614	36.7
600.95	36.38
601.287	36.73
601.623	36.58
601.959	36.69
602.296	36.54
602.632	36.9
602.968	36.9
603.304	36.74
603.64	36.7
603.976	36.78
604.312	36.56
604.648	36.42
604.984	36.82
605.319	36.89
605.655	36.61
605.991	36.7
606.326	36.64
606.662	36.65
606.998	36.87
607.333	37.11
607.668	37.13
608.004	37.26
608.339	37.38
608.674	37.43
609.01	37.61
609.345	37.74
609.68	37.32
610.015	37.45
610.35	37.37
610.685	37.55
611.02	37.12
611.355	37.36
611.689	37.39
612.024	37.66
612.359	37.78
612.694	37.94
613.028	38.19
613.363	37.86
613.697	37.6
614.032	37.96
614.366	37.95
614.7	38.4
615.035	37.87
615.369	37.83
615.703	38.36
616.037	38.15
616.371	38.26
616.705	38.42
617.039	38.08
617.373	38.25
617.707	38.62
618.041	38.88
618.375	38.09
618.709	38.15
619.042	38.62
619.376	38.51
619.71	38.57
620.043	38.34
620.377	38.26
620.71	38.49
621.043	38.42
621.377	38.62
621.71	38.52
622.043	38.69
622.376	38.93
622.709	38.68
623.043	39.26
623.376	39.05
623.709	38.97
624.041	39.1
624.374	38.9
624.707	39.03
625.04	39.17
625.373	39.14
625.705	39.47
626.038	38.85
626.37	38.91
626.703	39.17
627.035	39.29
627.368	39.24
627.7	39.22
628.032	39.33
628.365	38.97
628.697	39.9
629.029	39.93
629.361	39.6
629.693	39.29
630.025	39.33
630.357	39.67
630.689	39.93
631.021	39.81
631.353	39.79
631.684	39.85
632.016	39.91
632.348	40.1
632.679	39.44
633.011	39.76
633.342	40.11
633.674	40.07
634.005	39.97
634.336	39.96
634.668	40.35
634.999	40.35
635.33	39.76
635.661	39.97
635.992	40.03
636.323	40.39
636.654	40.04
636.985	40.18
637.316	40.11
637.647	39.78
637.977	40.79
638.308	40.22
638.639	40.36
638.969	40.36
639.3	40.69
639.63	40.31
639.961	40.28
640.291	41.33
640.622	40.59
640.952	40.45
641.282	41.28
641.612	40.61
641.943	41.29
642.273	40.76
642.603	40.83
642.933	40.84
643.263	41.19
643.592	41.45
643.922	40.94
644.252	41.25
644.582	41.52
644.911	40.99
645.241	41.31
645.571	41.64
645.9	41.66
646.23	41.17
646.559	41.47
646.888	41.24
647.218	41.66
647.547	41.56
647.876	41.75
648.205	41.34
648.534	41.64
648.863	41.98
649.192	41.44
649.521	41.42
649.85	41.81
650.179	41.05
650.508	41.42
650.837	41.77
651.165	42.08
651.494	41.86
651.822	42.13
652.151	41.57
652.479	41.93
652.808	41.41
653.136	42.23
653.465	42.4
653.793	42.61
654.121	42.03
654.449	42.35
654.777	42.72
655.105	42.33
655.433	42.29
655.761	42.1
656.089	42.26
656.417	42.18
656.745	42.8
657.073	42.31
657.4	42.81
657.728	42.3
658.056	42.49
658.383	43.18
658.711	41.88
659.038	43.01
659.365	43.08
659.693	42.57
660.02	42.17
660.347	42.91
660.674	42.51
661.001	42.28
661.329	42.78
661.656	42.66
661.982	42.83
662.309	43.23
662.636	43.16
662.963	43.01
663.29	43.05
663.616	42.36
663.943	43.54
664.27	42.79
664.596	43
664.923	43.19
665.249	43.45
665.576	43.14
665.902	43.25
666.228	43.46
666.554	43
666.881	43.92
667.207	43.05
667.533	43.95
667.859	43.77
668.185	43.06
668.511	43.56
668.837	43.87
669.162	44.55
669.488	43.02
669.814	44.02
