Data from 0067_crown_Reflection__4__293.txt Node

Date: Fri Dec 16 16:25:22 CST 2022
User: ToomeyLab
Spectrometer: FLMS14357
Trigger mode: 0
Integration Time (sec): 1.000000E-2
Scans to average: 100
Electric dark correction enabled: true
Nonlinearity correction enabled: false
Boxcar width: 0
XAxis mode: Wavelengths
Number of Pixels in Spectrum: 2048
>>>>>Begin Spectral Data<<<<<
189.047	-142.29
189.435	-142.29
189.823	-142.29
190.211	1323.48
190.599	-165.31
190.987	156.45
191.375	-331.25
191.763	175.95
192.151	7.91
192.538	77.1
192.926	-628.75
193.314	74.81
193.702	108.15
194.089	-18.22
194.477	-11.16
194.864	137.31
195.252	85.26
195.639	124.77
196.027	171.51
196.414	-1754.28
196.801	-319047217467850
197.189	129.5
197.576	-12.17
197.963	-461.4
198.351	-15.66
198.738	-48.12
199.125	44.13
199.512	21.68
199.899	-5.34
200.286	-23.09
200.673	4.72
201.06	25.22
201.447	43.12
201.833	-54.83
202.22	-2.4
202.607	-11.82
202.994	16.97
203.38	-58.9
203.767	-71.22
204.154	-61.12
204.54	2.02
204.927	-56.17
205.313	13.54
205.699	-20.9
206.086	-11.59
206.472	-25.17
206.858	-0.98
207.245	-11.33
207.631	-6.47
208.017	9.2
208.403	31.86
208.789	-13.3
209.175	60.18
209.561	-24.37
209.947	-22.26
210.333	-17.04
210.719	-11.85
211.105	-31.52
211.491	-32.08
211.876	-75.35
212.262	-137.21
212.648	-70.79
213.034	10.94
213.419	10.85
213.805	-18.44
214.19	-33.42
214.576	-7.42
214.961	-31.16
215.346	-50.75
215.732	-16.86
216.117	-14.86
216.502	-38.73
216.888	13.79
217.273	0.07
217.658	25.41
218.043	-7.14
218.428	-8.62
218.813	0.08
219.198	-39.84
219.583	-42.41
219.968	20.29
220.353	-3.98
220.738	-14.11
221.122	-15.54
221.507	-5.66
221.892	9.19
222.276	9.48
222.661	-6.86
223.046	-2.74
223.43	-2.03
223.815	9.4
224.199	13.11
224.583	-8.8
224.968	7.82
225.352	15.12
225.736	7.49
226.121	5.39
226.505	6.42
226.889	1.97
227.273	1.44
227.657	4.45
228.041	3.86
228.425	4.73
228.809	6.29
229.193	3.65
229.577	3.29
229.961	5.6
230.344	5.56
230.728	4.9
231.112	4.49
231.495	3.7
231.879	5.12
232.263	3.81
232.646	3.64
233.03	3.11
233.413	4.39
233.797	3.33
234.18	1.02
234.563	4.71
234.946	3.36
235.33	5.1
235.713	5.51
236.096	3.94
236.479	4.06
236.862	5.43
237.245	4.17
237.628	6.2
238.011	4.18
238.394	5.62
238.777	5
239.16	1.52
239.543	2.56
239.925	5.1
240.308	3.39
240.691	2.67
241.073	4.05
241.456	3.45
241.838	4.6
242.221	4.55
242.603	3.93
242.986	5.77
243.368	4.48
243.75	4.3
244.133	4.88
244.515	4.59
244.897	4.38
245.279	4.56
245.661	4.23
246.043	5.4
246.425	3.99
246.807	3.93
247.189	3.57
247.571	4.16
247.953	4.38
248.335	4.49
248.717	4.5
249.098	4.54
249.48	4.2
249.862	4.45
250.243	4.31
250.625	4.57
251.006	4.25
251.388	4.26
251.769	4.24
252.151	3.54
252.532	3.63
252.913	4.36
253.295	3.83
253.676	4.48
254.057	3.85
254.438	2.91
254.819	3.73
255.2	3.68
255.581	4.05
255.962	2.98
256.343	5.11
256.724	3.25
257.105	3.67
257.486	3.36
257.867	2.5
258.247	4.39
258.628	4.87
259.009	3.71
259.389	4.34
259.77	3.93
260.15	4.47
260.531	4.26
260.911	3.94
261.292	3.89
261.672	3.82
262.052	3.63
262.432	3.9
262.813	3.55
263.193	3.8
263.573	3.97
263.953	3.8
264.333	3.26
264.713	3.31
265.093	2.46
265.473	3.98
265.853	2.96
266.233	3.76
266.612	3.5
266.992	3.64
267.372	3.92
267.752	2.76
268.131	3.53
268.511	3.96
268.89	4.22
269.27	3.59
269.649	3.61
270.029	3.92
270.408	3.84
270.787	3.42
271.167	3.41
271.546	2.89
271.925	3.61
272.304	3.25
272.683	3.54
273.062	3.65
273.441	3.94
273.82	4.03
274.199	3.37
274.578	3.2
274.957	3.64
275.336	3.03
275.715	3.82
276.093	3.96
276.472	3.69
276.851	3.58
277.229	4.26
277.608	2.78
277.986	3.41
278.365	3.11
278.743	3.35
279.122	2.95
279.5	3.54
279.878	2.14
280.257	3.36
280.635	3.24
281.013	3.84
281.391	3.41
281.769	3.12
282.147	3.39
282.525	2.76
282.903	3.12
283.281	3.36
283.659	3.38
284.037	3.54
284.415	3.64
284.792	3.28
285.17	3.15
285.548	3.53
285.925	2.96
286.303	3.21
286.68	3.28
287.058	3.29
287.435	3.19
287.813	3.42
288.19	4.11
288.567	3.44
288.945	3.04
289.322	2.85
289.699	3.43
290.076	3.29
290.453	3.1
290.83	3.19
291.207	3.15
291.584	2.99
291.961	3.24
292.338	3.26
292.715	3.08
293.092	3.08
293.469	3.39
293.845	3.42
294.222	3.27
294.599	3.34
294.975	3.7
295.352	3.01
295.728	3.17
296.105	3.26
296.481	3.8
296.858	3.38
297.234	3.41
297.61	2.72
297.986	3.43
298.363	2.94
298.739	3.48
299.115	2.65
299.491	3.13
299.867	3.16
300.243	2.8
300.619	3.02
300.995	3.23
301.371	3.66
301.746	3.46
302.122	3.53
302.498	3.43
302.874	3.51
303.249	3.52
303.625	3.06
304	2.83
304.376	3.24
304.751	2.84
305.127	3.09
305.502	3.57
305.878	2.76
306.253	3.07
306.628	3.6
307.003	2.93
307.378	2.6
307.754	2.86
308.129	2.6
308.504	2.77
308.879	3.43
309.254	3.17
309.629	2.86
310.003	3.52
310.378	3.03
310.753	3.46
311.128	2.98
311.502	2.99
311.877	3.21
312.252	2.83
312.626	3.05
313.001	2.9
313.375	3.29
313.75	3.05
314.124	3.66
314.498	3.15
314.873	2.97
315.247	3.16
315.621	3.39
315.995	2.99
316.369	3.39
316.743	3.74
317.117	2.78
317.491	2.67
317.865	3.27
318.239	3.72
318.613	2.84
318.987	3.05
319.361	3.62
319.734	2.82
320.108	3.04
320.482	3.35
320.855	3.24
321.229	3.74
321.602	3.11
321.976	3.54
322.349	2.38
322.723	2.37
323.096	2.81
323.469	2.77
323.843	2.72
324.216	2.56
324.589	3.52
324.962	3.39
325.335	3.06
325.708	3.37
326.081	3.33
326.454	3.31
326.827	3.37
327.2	3.79
327.573	2.87
327.945	3.17
328.318	3.44
328.691	3.49
329.063	3.23
329.436	2.87
329.809	3.14
330.181	3.04
330.553	3.23
330.926	3.49
331.298	2.8
331.671	3.2
332.043	2.82
332.415	3.26
332.787	3.33
333.159	3.52
333.532	3.3
333.904	2.96
334.276	2.86
334.648	3.25
335.02	2.73
335.391	3.2
335.763	2.8
336.135	2.96
336.507	3.46
336.879	2.94
337.25	3.12
337.622	3.77
337.993	3.65
338.365	3.62
338.736	3.76
339.108	3.03
339.479	3.35
339.851	3.93
340.222	3.24
340.593	3
340.964	3.36
341.336	2.61
341.707	2.91
342.078	2.9
342.449	3.41
342.82	2.97
343.191	3.18
343.562	3.18
343.933	3.46
344.303	2.91
344.674	3.29
345.045	3.57
345.416	2.94
345.786	2.87
346.157	3.17
346.527	3.42
346.898	2.96
347.268	3.2
347.639	3.3
348.009	3.48
348.38	3.31
348.75	3.34
349.12	3.23
349.49	3.38
349.861	3.27
350.231	3.43
350.601	3.4
350.971	3.33
351.341	3.11
351.711	3.27
352.081	3.45
352.45	3.34
352.82	3.4
353.19	3.1
353.56	3.53
353.929	3.23
354.299	3.24
354.669	3.67
355.038	3.24
355.408	3.57
355.777	3.24
356.147	3.55
356.516	3.56
356.885	2.82
357.254	3.54
357.624	3.47
357.993	3.39
358.362	3.31
358.731	3.01
359.1	3.63
359.469	3.31
359.838	3.32
360.207	3.47
360.576	2.83
360.945	2.95
361.314	3.59
361.682	3.11
362.051	3.26
362.42	3.68
362.788	3.57
363.157	3.3
363.525	3.32
363.894	3.23
364.262	3.34
364.631	3.93
364.999	3.17
365.367	3.53
365.735	3.27
366.104	3.55
366.472	3.47
366.84	3.38
367.208	3.08
367.576	3.49
367.944	3.57
368.312	2.98
368.68	3.27
369.048	3.67
369.416	3.14
369.783	3.31
370.151	3.41
370.519	3.46
370.886	3.37
371.254	3.3
371.621	3.51
371.989	3.56
372.356	3.37
372.724	3.17
373.091	3.35
373.458	3.34
373.826	3.33
374.193	3.83
374.56	3.21
374.927	3.49
375.294	3.88
375.661	3.33
376.028	3.22
376.395	3.27
376.762	3.94
377.129	3.6
377.496	3.57
377.863	3.56
378.229	3.32
378.596	3.38
378.963	3.53
379.329	3.47
379.696	3.67
380.062	3.55
380.429	3.74
380.795	3.41
381.161	3.32
381.528	3.26
381.894	3.48
382.26	3.5
382.626	3.41
382.993	3.32
383.359	3.26
383.725	3.6
384.091	3.42
384.457	3.72
384.823	3.3
385.188	3.51
385.554	3.6
385.92	3.93
386.286	3.6
386.651	3.37
387.017	3.72
387.383	3.54
387.748	3.54
388.114	3.72
388.479	3.59
388.845	3.41
389.21	3.72
389.575	3.83
389.94	3.67
390.306	3.56
390.671	3.69
391.036	3.71
391.401	3.82
391.766	3.57
392.131	3.74
392.496	3.32
392.861	3.2
393.226	3.76
393.591	3.8
393.956	3.6
394.32	3.49
394.685	3.54
395.05	3.34
395.414	3.67
395.779	3.49
396.143	3.67
396.508	3.74
396.872	3.75
397.236	3.32
397.601	3.5
397.965	3.32
398.329	3.8
398.694	3.4
399.058	3.73
399.422	3.79
399.786	3.52
400.15	3.68
400.514	3.75
400.878	3.74
401.242	3.89
401.605	3.65
401.969	3.75
402.333	3.61
402.697	3.83
403.06	3.77
403.424	3.49
403.787	3.66
404.151	3.44
404.514	3.45
404.878	3.83
405.241	3.64
405.604	3.74
405.968	3.67
406.331	3.82
406.694	3.78
407.057	3.96
407.42	3.61
407.783	3.59
408.146	3.65
408.509	3.4
408.872	3.52
409.235	3.53
409.598	3.8
409.961	3.81
410.323	3.78
410.686	3.47
411.049	3.57
411.411	3.57
411.774	3.56
412.136	3.81
412.499	3.55
412.861	3.34
413.223	3.96
413.586	3.46
413.948	3.83
414.31	3.77
414.672	3.74
415.035	3.75
415.397	3.57
415.759	3.59
416.121	3.77
416.483	3.74
416.845	3.77
417.206	3.81
417.568	3.67
417.93	3.56
418.292	3.67
418.653	3.68
419.015	3.8
419.377	3.66
419.738	3.6
420.1	3.62
420.461	3.68
420.822	3.67
421.184	3.66
421.545	3.51
421.906	3.7
422.267	3.55
422.629	3.66
422.99	3.69
423.351	3.72
423.712	3.63
424.073	3.66
424.434	3.59
424.795	3.59
425.155	3.69
425.516	3.62
425.877	3.69
426.238	3.61
426.598	3.68
426.959	3.47
427.32	3.75
427.68	3.69
428.041	3.85
428.401	3.71
428.761	3.73
429.122	3.65
429.482	3.79
429.842	3.77
430.202	3.72
430.563	3.75
430.923	3.72
431.283	3.82
431.643	3.69
432.003	3.74
432.363	3.64
432.722	3.69
433.082	3.72
433.442	3.73
433.802	3.77
434.161	3.64
434.521	3.67
434.881	3.84
435.24	3.73
435.6	3.67
435.959	3.6
436.319	3.71
436.678	3.7
437.037	3.86
437.396	3.88
437.756	3.76
438.115	3.9
438.474	3.78
438.833	3.8
439.192	3.9
439.551	3.81
439.91	3.83
440.269	3.82
440.628	3.66
440.987	3.58
441.345	3.71
441.704	3.84
442.063	3.75
442.421	3.66
442.78	3.72
443.138	3.7
443.497	3.62
443.855	3.65
444.214	3.77
444.572	3.65
444.93	3.77
445.288	3.76
445.647	3.74
446.005	3.65
446.363	3.6
446.721	3.65
447.079	3.71
447.437	3.68
447.795	3.69
448.153	3.73
448.51	3.6
448.868	3.82
449.226	3.76
449.584	3.68
449.941	3.81
450.299	3.78
450.656	3.81
451.014	3.75
451.371	3.85
451.729	3.76
452.086	3.75
452.443	3.71
452.801	3.83
453.158	3.78
453.515	3.66
453.872	3.71
454.229	3.76
454.586	3.84
454.943	3.76
455.3	3.74
455.657	3.7
456.014	3.8
456.371	3.8
456.727	3.69
457.084	3.79
457.441	3.72
457.797	3.91
458.154	3.71
458.51	3.72
458.867	3.7
459.223	3.85
459.58	3.73
459.936	3.71
460.292	3.61
460.648	3.7
461.005	3.63
461.361	3.66
461.717	3.71
462.073	3.85
462.429	3.8
462.785	3.82
463.141	3.83
463.496	3.75
463.852	3.85
464.208	3.76
464.564	3.77
464.919	3.83
465.275	3.97
465.631	3.75
465.986	3.58
466.342	3.72
466.697	3.89
467.052	4.02
467.408	3.65
467.763	3.59
468.118	3.83
468.473	4
468.829	3.68
469.184	3.92
469.539	3.7
469.894	3.77
470.249	3.89
470.603	3.88
470.958	3.76
471.313	3.85
471.668	3.92
472.023	3.93
472.377	3.79
472.732	3.79
473.086	3.79
473.441	4.01
473.795	3.96
474.15	3.76
474.504	3.8
474.859	3.76
475.213	3.86
475.567	3.83
475.921	3.89
476.275	3.9
476.63	3.83
476.984	3.8
477.338	4.07
477.692	3.68
478.045	3.65
478.399	3.78
478.753	3.72
479.107	3.78
479.461	3.75
479.814	3.7
480.168	3.84
480.521	3.75
480.875	3.94
481.228	3.89
481.582	3.68
481.935	3.79
482.289	3.63
482.642	3.78
482.995	3.76
483.348	3.72
483.701	3.69
484.055	3.62
484.408	3.64
484.761	3.44
485.114	3.42
485.466	3.45
485.819	3.54
486.172	3.66
486.525	3.76
486.878	3.7
487.23	3.76
487.583	3.76
487.936	3.67
488.288	3.56
488.641	3.56
488.993	3.52
489.345	3.6
489.698	3.63
490.05	3.65
490.402	3.73
490.754	3.8
491.107	3.77
491.459	3.78
491.811	3.82
492.163	3.73
492.515	3.71
492.866	3.52
493.218	3.57
493.57	3.68
493.922	3.71
494.274	3.81
494.625	3.78
494.977	3.8
495.328	3.87
495.68	3.87
496.031	3.88
496.383	3.85
496.734	3.84
497.086	3.71
497.437	3.91
497.788	3.82
498.139	3.8
498.49	3.79
498.842	3.82
499.193	3.84
499.544	3.97
499.894	3.8
500.245	3.91
500.596	3.82
500.947	3.89
501.298	3.83
501.648	3.81
501.999	4.04
502.35	4.04
502.7	3.81
503.051	4.03
503.401	3.93
503.752	3.83
504.102	3.79
504.452	3.76
504.803	3.67
505.153	3.93
505.503	3.8
505.853	3.76
506.203	3.91
506.553	3.78
506.903	3.78
507.253	3.9
507.603	3.82
507.953	3.95
508.303	3.83
508.652	3.74
509.002	3.93
509.352	3.7
509.701	3.8
510.051	3.9
510.4	3.8
510.75	3.87
511.099	3.77
511.449	3.8
511.798	3.91
512.147	3.81
512.496	3.94
512.846	3.89
513.195	3.82
513.544	3.79
513.893	3.76
514.242	4.07
514.591	3.87
514.939	3.79
515.288	3.95
515.637	3.95
515.986	3.82
516.334	3.92
516.683	3.79
517.032	3.67
517.38	3.66
517.729	3.73
518.077	3.8
518.426	3.92
518.774	3.75
519.122	3.75
519.47	3.84
519.819	3.78
520.167	3.83
520.515	3.74
520.863	3.83
521.211	3.8
521.559	3.83
521.907	3.9
522.255	3.89
522.602	3.99
522.95	3.79
523.298	3.82
523.645	3.83
523.993	3.87
524.341	3.89
524.688	4.01
525.036	3.95
525.383	3.89
525.73	3.92
526.078	3.89
526.425	3.73
526.772	3.7
527.119	3.75
527.466	3.69
527.814	3.8
528.161	3.81
528.508	3.81
528.854	3.69
529.201	3.71
529.548	3.58
529.895	3.55
530.242	3.53
530.588	3.66
530.935	3.73
531.282	3.79
531.628	3.83
531.975	3.87
532.321	3.79
532.667	3.82
533.014	3.84
533.36	3.8
533.706	3.82
534.052	3.68
534.399	3.66
534.745	3.65
535.091	3.68
535.437	3.83
535.783	3.82
536.129	3.88
536.474	3.93
536.82	3.83
537.166	3.74
537.512	3.86
537.857	3.77
538.203	3.75
538.549	3.85
538.894	3.77
539.239	3.89
539.585	3.88
539.93	3.98
540.276	3.78
540.621	3.82
540.966	3.82
541.311	3.85
541.656	3.75
542.001	3.8
542.346	3.73
542.691	3.65
543.036	3.64
543.381	3.78
543.726	3.82
544.071	3.81
544.415	3.76
544.76	3.74
545.105	3.8
545.449	3.77
545.794	3.85
546.138	3.94
546.483	3.87
546.827	3.88
547.171	3.77
547.516	3.96
547.86	3.84
548.204	3.79
548.548	3.89
548.892	3.97
549.236	3.99
549.58	3.89
549.924	3.97
550.268	3.94
550.612	3.93
550.956	3.96
551.3	3.98
551.643	3.96
551.987	3.9
552.33	3.86
552.674	4
553.017	3.91
553.361	3.88
553.704	3.8
554.048	3.94
554.391	3.91
554.734	3.9
555.077	3.96
555.42	3.98
555.764	3.85
556.107	3.76
556.45	3.95
556.793	4.09
557.135	4.03
557.478	4
557.821	3.84
558.164	3.94
558.507	3.74
558.849	3.85
559.192	3.91
559.534	3.86
559.877	3.99
560.219	4.07
560.562	4.11
560.904	3.76
561.246	4.21
561.589	4.01
561.931	4.2
562.273	3.67
562.615	4.02
562.957	3.99
563.299	4
563.641	3.97
563.983	3.96
564.325	3.93
564.667	3.8
565.008	3.79
565.35	4.17
565.692	3.94
566.033	3.96
566.375	3.63
566.716	3.9
567.058	3.96
567.399	3.99
567.741	3.98
568.082	4.01
568.423	3.85
568.764	3.95
569.105	4.06
569.447	3.91
569.788	4.06
570.129	3.93
570.47	4
570.811	3.9
571.151	3.85
571.492	3.98
571.833	4
572.174	3.81
572.514	3.8
572.855	4.08
573.195	3.83
573.536	3.85
573.876	4.06
574.217	3.9
574.557	3.97
574.898	3.85
575.238	3.89
575.578	4.03
575.918	3.81
576.258	3.73
576.598	3.85
576.938	3.98
577.278	3.93
577.618	3.91
577.958	3.78
578.298	4.02
578.638	3.95
578.977	3.96
579.317	3.92
579.657	4.04
579.996	3.92
580.336	3.84
580.675	4.26
581.014	3.84
581.354	3.95
581.693	4
582.032	3.9
582.372	4.04
582.711	3.81
583.05	4.32
583.389	4.13
583.728	3.81
584.067	3.94
584.406	4
584.745	3.87
585.083	4.29
585.422	3.91
585.761	4.15
586.1	4.13
586.438	4.24
586.777	3.98
587.115	4.07
587.454	4.04
587.792	3.87
588.13	4.11
588.469	4.11
588.807	4.22
589.145	4.11
589.483	3.77
589.821	3.94
590.159	3.95
590.497	3.94
590.835	3.96
591.173	4.17
591.511	3.96
591.849	4.11
592.187	4.21
592.524	4
592.862	4
593.2	3.92
593.537	4.16
593.875	4.03
594.212	4.14
594.55	4.12
594.887	4.04
595.224	4.11
595.561	4.08
595.899	3.92
596.236	4.1
596.573	3.73
596.91	3.94
597.247	3.83
597.584	4.04
597.921	4
598.258	3.94
598.594	3.81
598.931	3.81
599.268	3.86
599.604	4.13
599.941	3.95
600.277	3.9
600.614	4.11
600.95	3.98
601.287	4.06
601.623	4.23
601.959	3.8
602.296	4.21
602.632	4.11
602.968	3.97
603.304	3.85
603.64	3.78
603.976	3.99
604.312	4.09
604.648	3.98
604.984	3.99
605.319	4.08
605.655	3.86
605.991	4.02
606.326	3.98
606.662	3.83
606.998	3.94
607.333	3.91
607.668	4.07
608.004	3.9
608.339	3.9
608.674	3.85
609.01	4.06
609.345	4.34
609.68	3.59
610.015	4.12
610.35	3.88
610.685	3.98
611.02	4.2
611.355	4.18
611.689	3.99
612.024	4.1
612.359	4.23
612.694	4.27
613.028	4.41
613.363	3.73
613.697	4.06
614.032	4.13
614.366	3.65
614.7	4.39
615.035	3.91
615.369	4.42
615.703	4.25
616.037	4.1
616.371	4
616.705	3.98
617.039	4.11
617.373	3.95
617.707	4.15
618.041	4.31
618.375	4.03
618.709	4.17
619.042	4.27
619.376	3.93
619.71	3.9
620.043	4.23
620.377	3.96
620.71	4.14
621.043	3.83
621.377	3.76
621.71	3.95
622.043	4.23
622.376	4.15
622.709	4.45
623.043	3.87
623.376	4.17
623.709	4.15
624.041	3.66
624.374	3.99
624.707	3.84
625.04	4.36
625.373	4.09
625.705	3.97
626.038	3.9
626.37	3.98
626.703	3.84
627.035	3.92
627.368	4.29
627.7	4.17
628.032	4.04
628.365	3.83
628.697	3.84
629.029	4.4
629.361	4.01
629.693	4.33
630.025	4.01
630.357	3.94
630.689	3.91
631.021	3.96
631.353	4.2
631.684	4.25
632.016	3.91
632.348	3.97
632.679	3.64
633.011	4.03
633.342	4.16
633.674	4.04
634.005	3.9
634.336	3.8
634.668	4
634.999	4.15
635.33	4.09
635.661	4.11
635.992	3.91
636.323	3.94
636.654	4.17
636.985	3.98
637.316	4.06
637.647	4.18
637.977	4.04
638.308	3.69
638.639	3.84
638.969	3.86
639.3	4.13
639.63	4.23
639.961	3.9
640.291	4.34
640.622	4.29
640.952	3.99
641.282	3.67
641.612	3.9
641.943	4.12
642.273	4.37
642.603	3.82
642.933	4.24
643.263	4.18
643.592	4.29
643.922	4.41
644.252	4.19
644.582	4.07
644.911	4.01
645.241	3.81
645.571	3.82
645.9	4.45
646.23	4.05
646.559	3.9
646.888	3.89
647.218	4.25
647.547	4.55
647.876	4.36
648.205	3.8
648.534	4.03
648.863	4.47
649.192	3.91
649.521	4.14
649.85	4.01
650.179	3.8
650.508	4.22
650.837	4.07
651.165	4.07
651.494	3.98
651.822	4.14
652.151	4.46
652.479	4.32
652.808	3.87
653.136	3.84
653.465	3.87
653.793	4.09
654.121	4.24
654.449	4.11
654.777	3.87
655.105	4.93
655.433	4.15
655.761	3.83
656.089	4.55
656.417	3.8
656.745	4.78
657.073	4.73
657.4	4.2
657.728	4.46
658.056	4.06
658.383	4.21
658.711	3.95
659.038	4.49
659.365	4.12
659.693	4.34
660.02	4.04
660.347	4
660.674	4.14
661.001	4.03
661.329	3.92
661.656	4.18
661.982	4.36
662.309	4.63
662.636	4.03
662.963	4.62
663.29	4.56
663.616	4.27
663.943	4.53
664.27	4.23
664.596	4.19
664.923	4.6
665.249	3.67
665.576	3.84
665.902	4.07
666.228	3.85
666.554	4.13
666.881	4.4
667.207	4.14
667.533	4.6
667.859	4.32
668.185	4.2
668.511	4.05
668.837	3.55
669.162	4.45
669.488	4.44
669.814	4.54
670.139	4.48
670.465	4.63
670.791	4.28
671.116	3.77
671.442	4.3
671.767	4.28
672.092	4.48
672.418	3.96
672.743	3.77
673.068	3.46
673.393	3.99
673.718	4.01
674.043	4.25
674.368	4.41
674.693	4.43
675.018	4.26
675.343	4.25
675.667	3.94
675.992	3.64
676.317	4.31
676.641	4.7
676.966	4.42
677.29	4.1
677.615	4.17
677.939	3.83
678.264	4.05
678.588	4.33
678.912	4.17
679.236	4.24
679.56	3.99
679.885	4.01
680.209	4.24
680.532	3.94
680.856	4.63
681.18	3.91
681.504	4.06
681.828	3.88
682.152	3.83
682.475	4.14
682.799	4.25
683.122	4.1
683.446	3.97
683.769	4.73
684.093	4.55
684.416	3.5
684.739	4.2
685.062	4.46
685.386	4.6
685.709	4.32
686.032	3.92
686.355	4.09
686.678	4.15
687.001	2.95
687.324	3.9
687.646	3.82
687.969	4.24
688.292	4.66
688.614	4.69
688.937	3.95
689.26	3.74
689.582	4.01
689.904	4.39
690.227	3.7
690.549	4.14
690.871	4.47
691.194	4.06
691.516	3.41
691.838	4.4
692.16	4.37
692.482	4.22
