Data from 0067_chest_Reflection__3__287.txt Node

Date: Fri Dec 16 16:23:00 CST 2022
User: ToomeyLab
Spectrometer: FLMS14357
Trigger mode: 0
Integration Time (sec): 1.000000E-2
Scans to average: 100
Electric dark correction enabled: true
Nonlinearity correction enabled: false
Boxcar width: 0
XAxis mode: Wavelengths
Number of Pixels in Spectrum: 2048
>>>>>Begin Spectral Data<<<<<
189.047	-81.13
189.435	-81.13
189.823	-81.13
190.211	190.03
190.599	-87.69
190.987	71.04
191.375	-378.88
191.763	182.38
192.151	-94.77
192.538	285.59
192.926	1235.42
193.314	123.5
193.702	-93.44
194.089	92.69
194.477	13.54
194.864	-160.09
195.252	72.24
195.639	148.35
196.027	-480.33
196.414	738.49
196.801	-310198450265500
197.189	65.73
197.576	213.22
197.963	-320.96
198.351	63.66
198.738	-8.57
199.125	40.34
199.512	12.75
199.899	-20.77
200.286	-86.55
200.673	28.02
201.06	26.42
201.447	-3.36
201.833	-24.41
202.22	29.64
202.607	-31.61
202.994	36.98
203.38	25.38
203.767	49.17
204.154	-175.34
204.54	-12.51
204.927	15.48
205.313	22.25
205.699	-16.16
206.086	49.79
206.472	-26.82
206.858	8.71
207.245	-17.68
207.631	-76.64
208.017	0.04
208.403	1.15
208.789	-16.25
209.175	56.32
209.561	2.57
209.947	1.09
210.333	-38.38
210.719	-27.41
211.105	-75.08
211.491	-6.26
211.876	2.32
212.262	-21.8
212.648	-56.59
213.034	-7.32
213.419	-12.18
213.805	-10.3
214.19	-29.3
214.576	-44.31
214.961	-53.67
215.346	-84.72
215.732	-29.57
216.117	-1.4
216.502	-55.41
216.888	-54.67
217.273	14.17
217.658	-52.21
218.043	21.61
218.428	7.84
218.813	-21.27
219.198	-52.35
219.583	-14.78
219.968	-13.22
220.353	-0.91
220.738	-17.3
221.122	5.49
221.507	-17.68
221.892	3.15
222.276	3.82
222.661	-6.62
223.046	-10.56
223.43	-14.81
223.815	7.18
224.199	5.43
224.583	-13.5
224.968	10.84
225.352	-10.15
225.736	4.42
226.121	-10.11
226.505	-0.35
226.889	1
227.273	6.17
227.657	2.91
228.041	4.96
228.425	1.99
228.809	4.05
229.193	1.31
229.577	3.74
229.961	4.19
230.344	4.1
230.728	3.83
231.112	4.45
231.495	2.25
231.879	4.23
232.263	2.36
232.646	3.09
233.03	1.19
233.413	3.7
233.797	7.43
234.18	-0.33
234.563	4.98
234.946	2.66
235.33	3.67
235.713	4.86
236.096	4.47
236.479	4.88
236.862	5.36
237.245	6.86
237.628	6.77
238.011	3
238.394	6.67
238.777	4.52
239.16	2.3
239.543	2.86
239.925	6.24
240.308	4.94
240.691	2.83
241.073	4.29
241.456	3.48
241.838	4.01
242.221	5.61
242.603	4.91
242.986	5.79
243.368	4.53
243.75	4.93
244.133	5.21
244.515	4.6
244.897	4.58
245.279	4.48
245.661	4.97
246.043	3.77
246.425	4.05
246.807	3.99
247.189	3.69
247.571	4.86
247.953	4.5
248.335	4.95
248.717	5.02
249.098	4.71
249.48	4.37
249.862	5.19
250.243	4.6
250.625	5.12
251.006	5.56
251.388	5.5
251.769	4.5
252.151	4.26
252.532	4.43
252.913	4.76
253.295	4.23
253.676	5.05
254.057	4.7
254.438	4.49
254.819	4.89
255.2	5.34
255.581	3.96
255.962	3.31
256.343	5.41
256.724	4.92
257.105	4.19
257.486	3.89
257.867	1.86
258.247	4.69
258.628	4.96
259.009	3.85
259.389	4.94
259.77	3.73
260.15	5.05
260.531	4.76
260.911	4.81
261.292	4.57
261.672	4.41
262.052	4.36
262.432	3.97
262.813	4.86
263.193	4.63
263.573	4.62
263.953	4.24
264.333	4.7
264.713	5.05
265.093	3.96
265.473	5.11
265.853	3.9
266.233	3.92
266.612	3.59
266.992	3.91
267.372	4.67
267.752	4.67
268.131	4.75
268.511	4.79
268.89	4.7
269.27	4.52
269.649	4.71
270.029	4.45
270.408	3.51
270.787	3.85
271.167	3.87
271.546	3.43
271.925	4.23
272.304	4.38
272.683	3.96
273.062	4.37
273.441	4.68
273.82	4.47
274.199	4.49
274.578	4.51
274.957	4.35
275.336	3.94
275.715	4.62
276.093	4.88
276.472	4.25
276.851	4.11
277.229	5.18
277.608	4.21
277.986	3.8
278.365	3.96
278.743	3.94
279.122	3.54
279.5	3.97
279.878	3.15
280.257	4.24
280.635	3.77
281.013	4.96
281.391	3.84
281.769	3.65
282.147	3.91
282.525	4.1
282.903	4.58
283.281	4.05
283.659	4.01
284.037	4.21
284.415	4.42
284.792	3.97
285.17	3.8
285.548	3.83
285.925	3.83
286.303	4.07
286.68	4.39
287.058	3.92
287.435	4.01
287.813	4.26
288.19	3.97
288.567	3.98
288.945	4.1
289.322	3.9
289.699	4.25
290.076	4.47
290.453	4.21
290.83	4.21
291.207	4.81
291.584	4.11
291.961	4.43
292.338	4.19
292.715	4.43
293.092	4.16
293.469	3.82
293.845	4.14
294.222	3.9
294.599	4.9
294.975	4.69
295.352	4.22
295.728	4.11
296.105	4.57
296.481	4.76
296.858	4.24
297.234	4.1
297.61	4.63
297.986	4.33
298.363	4.23
298.739	4.71
299.115	4.2
299.491	4.28
299.867	4.6
300.243	4.48
300.619	4.34
300.995	3.83
301.371	4.08
301.746	4.02
302.122	4.42
302.498	4.53
302.874	4.6
303.249	4.8
303.625	4.67
304	4.19
304.376	3.97
304.751	4.24
305.127	4.5
305.502	4.82
305.878	3.99
306.253	4.22
306.628	4.62
307.003	4.86
307.378	4.03
307.754	4.64
308.129	4.02
308.504	4.04
308.879	3.93
309.254	4.74
309.629	4.26
310.003	5.04
310.378	4.71
310.753	4.43
311.128	4.51
311.502	4.23
311.877	4.51
312.252	4.2
312.626	4.18
313.001	4.33
313.375	4.39
313.75	4.41
314.124	4.68
314.498	4.3
314.873	4.02
315.247	4.08
315.621	4.88
315.995	4.51
316.369	4.71
316.743	5.06
317.117	4.47
317.491	4.77
317.865	3.87
318.239	5.1
318.613	4.23
318.987	4.85
319.361	4.64
319.734	4.5
320.108	4.63
320.482	4.38
320.855	4.81
321.229	5.33
321.602	4.9
321.976	4.53
322.349	3.7
322.723	3.54
323.096	4.56
323.469	3.86
323.843	4.77
324.216	4.24
324.589	5.06
324.962	4.62
325.335	4.38
325.708	4.6
326.081	4.77
326.454	4.42
326.827	4.15
327.2	5.1
327.573	4.67
327.945	4.25
328.318	4.43
328.691	4.53
329.063	4.3
329.436	4.37
329.809	4.42
330.181	4.5
330.553	4.67
330.926	4.55
331.298	4.4
331.671	4.44
332.043	4.38
332.415	4.84
332.787	4.69
333.159	4.87
333.532	4.42
333.904	4.87
334.276	4.48
334.648	4.36
335.02	3.83
335.391	4.52
335.763	4.51
336.135	4.37
336.507	5.24
336.879	4.74
337.25	4.84
337.622	4.49
337.993	4.36
338.365	4.86
338.736	3.97
339.108	4.45
339.479	4.66
339.851	4.94
340.222	4.94
340.593	4.58
340.964	4.74
341.336	4.12
341.707	4.54
342.078	4.33
342.449	4.51
342.82	4.55
343.191	4.13
343.562	4.49
343.933	4.7
344.303	4.85
344.674	4.4
345.045	5.12
345.416	4.69
345.786	3.99
346.157	4.64
346.527	4.59
346.898	4.61
347.268	4.53
347.639	4.5
348.009	5.23
348.38	4.75
348.75	4.67
349.12	4.71
349.49	4.22
349.861	4.81
350.231	5
350.601	4.55
350.971	4.57
351.341	4.96
351.711	4.24
352.081	4.95
352.45	4.47
352.82	4.53
353.19	4.38
353.56	4.52
353.929	4.64
354.299	4.63
354.669	4.56
355.038	4.65
355.408	4.9
355.777	4.56
356.147	5
356.516	5
356.885	4.88
357.254	4.91
357.624	4.76
357.993	4.45
358.362	4.69
358.731	4.59
359.1	5.08
359.469	4.91
359.838	4.64
360.207	4.2
360.576	4.73
360.945	4.87
361.314	4.74
361.682	4.64
362.051	4.81
362.42	5.07
362.788	4.98
363.157	4.43
363.525	4.71
363.894	4.48
364.262	4.77
364.631	5.19
364.999	4.48
365.367	5.17
365.735	4.54
366.104	4.34
366.472	4.86
366.84	5.01
367.208	4.68
367.576	4.75
367.944	4.96
368.312	4.43
368.68	4.93
369.048	5.19
369.416	4.84
369.783	4.64
370.151	5.04
370.519	4.71
370.886	4.83
371.254	4.79
371.621	4.83
371.989	4.79
372.356	4.75
372.724	4.99
373.091	4.7
373.458	4.73
373.826	4.68
374.193	5.2
374.56	4.65
374.927	4.51
375.294	4.96
375.661	4.93
376.028	5
376.395	4.72
376.762	5.22
377.129	4.93
377.496	4.99
377.863	4.78
378.229	4.74
378.596	4.95
378.963	4.63
379.329	5.16
379.696	4.86
380.062	4.9
380.429	5.04
380.795	4.6
381.161	4.72
381.528	4.42
381.894	5.03
382.26	4.89
382.626	4.76
382.993	4.57
383.359	4.8
383.725	5.01
384.091	5.04
384.457	4.96
384.823	4.92
385.188	5.09
385.554	4.63
385.92	5.09
386.286	5.17
386.651	5.09
387.017	5.16
387.383	4.79
387.748	4.54
388.114	5.12
388.479	5.11
388.845	4.95
389.21	5.01
389.575	4.83
389.94	5.02
390.306	5.07
390.671	5.03
391.036	5.31
391.401	5.08
391.766	5.05
392.131	5.11
392.496	5.15
392.861	4.87
393.226	5.2
393.591	5.09
393.956	5.07
394.32	4.98
394.685	5.12
395.05	4.68
395.414	5.02
395.779	4.91
396.143	4.88
396.508	4.8
396.872	5.14
397.236	4.65
397.601	4.97
397.965	4.84
398.329	5.09
398.694	4.61
399.058	5.1
399.422	4.94
399.786	5
400.15	4.88
400.514	5.19
400.878	5.04
401.242	5.3
401.605	5.05
401.969	5.12
402.333	5
402.697	5.26
403.06	5.07
403.424	5.37
403.787	5.15
404.151	5.02
404.514	5.18
404.878	5.23
405.241	5.39
405.604	5.15
405.968	5.14
406.331	5.28
406.694	4.98
407.057	5.3
407.42	5.04
407.783	5.14
408.146	5.03
408.509	4.86
408.872	4.96
409.235	4.95
409.598	5.15
409.961	5.12
410.323	5.01
410.686	4.91
411.049	5.07
411.411	5.13
411.774	5.1
412.136	5.29
412.499	5.2
412.861	5.11
413.223	5.03
413.586	5.17
413.948	5.15
414.31	5.26
414.672	5.04
415.035	5.41
415.397	5.26
415.759	5.18
416.121	5.35
416.483	5.31
416.845	5.1
417.206	5.24
417.568	4.95
417.93	5.14
418.292	5.19
418.653	5.15
419.015	5.26
419.377	5.22
419.738	5.06
420.1	5.16
420.461	5.06
420.822	5.26
421.184	5.14
421.545	5.13
421.906	5.07
422.267	5.02
422.629	5.08
422.99	5.15
423.351	5.17
423.712	5.11
424.073	5.24
424.434	5.04
424.795	5.1
425.155	5.14
425.516	5.08
425.877	5.13
426.238	5.01
426.598	5.24
426.959	5.21
427.32	5.2
427.68	5.34
428.041	5.3
428.401	5.12
428.761	4.99
429.122	5.21
429.482	5.11
429.842	5.33
430.202	5.25
430.563	5.15
430.923	5.34
431.283	5.31
431.643	5.43
432.003	5.41
432.363	5.47
432.722	5.32
433.082	5.29
433.442	5.23
433.802	5.33
434.161	5.31
434.521	5.36
434.881	5.4
435.24	5.26
435.6	5.26
435.959	5.36
436.319	5.39
436.678	5.41
437.037	5.51
437.396	5.44
437.756	5.48
438.115	5.29
438.474	5.43
438.833	5.47
439.192	5.48
439.551	5.43
439.91	5.56
440.269	5.53
440.628	5.36
440.987	5.19
441.345	5.3
441.704	5.38
442.063	5.32
442.421	5.37
442.78	5.42
443.138	5.41
443.497	5.44
443.855	5.46
444.214	5.53
444.572	5.51
444.93	5.52
445.288	5.56
445.647	5.55
446.005	5.31
446.363	5.32
446.721	5.24
447.079	5.34
447.437	5.43
447.795	5.28
448.153	5.34
448.51	5.29
448.868	5.54
449.226	5.39
449.584	5.5
449.941	5.5
450.299	5.47
450.656	5.48
451.014	5.49
451.371	5.59
451.729	5.49
452.086	5.54
452.443	5.53
452.801	5.61
453.158	5.55
453.515	5.55
453.872	5.53
454.229	5.42
454.586	5.49
454.943	5.48
455.3	5.66
455.657	5.47
456.014	5.68
456.371	5.67
456.727	5.51
457.084	5.55
457.441	5.51
457.797	5.57
458.154	5.52
458.51	5.58
458.867	5.44
459.223	5.74
459.58	5.57
459.936	5.52
460.292	5.59
460.648	5.46
461.005	5.47
461.361	5.41
461.717	5.48
462.073	5.66
462.429	5.64
462.785	5.64
463.141	5.71
463.496	5.67
463.852	5.59
464.208	5.61
464.564	5.49
464.919	5.49
465.275	5.82
465.631	5.7
465.986	5.6
466.342	5.65
466.697	5.59
467.052	5.7
467.408	5.62
467.763	5.64
468.118	5.61
468.473	5.8
468.829	5.64
469.184	5.93
469.539	5.64
469.894	5.62
470.249	5.91
470.603	5.73
470.958	5.88
471.313	5.66
471.668	5.95
472.023	6.05
472.377	5.82
472.732	5.76
473.086	5.61
473.441	6.02
473.795	5.88
474.15	5.62
474.504	5.76
474.859	5.97
475.213	5.86
475.567	5.84
475.921	5.92
476.275	5.8
476.63	5.83
476.984	5.86
477.338	6.15
477.692	5.82
478.045	5.8
478.399	6
478.753	5.77
479.107	5.8
479.461	5.86
479.814	5.83
480.168	6.05
480.521	5.73
480.875	6.18
481.228	6.01
481.582	5.84
481.935	5.85
482.289	5.83
482.642	5.99
482.995	5.81
483.348	5.81
483.701	5.79
484.055	5.68
484.408	5.64
484.761	5.53
485.114	5.48
485.466	5.5
485.819	5.58
486.172	5.7
486.525	5.8
486.878	5.82
487.23	5.82
487.583	5.84
487.936	5.8
488.288	5.76
488.641	5.66
488.993	5.65
489.345	5.68
489.698	5.78
490.05	5.79
490.402	5.89
490.754	5.96
491.107	6
491.459	6.08
491.811	5.97
492.163	6.04
492.515	5.84
492.866	5.69
493.218	5.74
493.57	5.87
493.922	5.87
494.274	6.02
494.625	6.04
494.977	6.08
495.328	6.21
495.68	6.21
496.031	6.13
496.383	6.15
496.734	6.19
497.086	6.08
497.437	6.06
497.788	6.14
498.139	6.17
498.49	6.18
498.842	6.11
499.193	6.12
499.544	6.25
499.894	6.3
500.245	6.14
500.596	6.22
500.947	6.25
501.298	6.24
501.648	6.27
501.999	6.41
502.35	6.42
502.7	6.24
503.051	6.38
503.401	6.25
503.752	6.27
504.102	6.39
504.452	6.27
504.803	6.38
505.153	6.56
505.503	6.38
505.853	6.23
506.203	6.39
506.553	6.43
506.903	6.19
507.253	6.44
507.603	6.39
507.953	6.52
508.303	6.43
508.652	6.44
509.002	6.4
509.352	6.44
509.701	6.33
510.051	6.45
510.4	6.34
510.75	6.48
511.099	6.48
511.449	6.44
511.798	6.56
512.147	6.52
512.496	6.65
512.846	6.53
513.195	6.54
513.544	6.52
513.893	6.52
514.242	6.51
514.591	6.49
514.939	6.6
515.288	6.57
515.637	6.66
515.986	6.57
516.334	6.84
516.683	6.55
517.032	6.63
517.38	6.7
517.729	6.65
518.077	6.75
518.426	6.57
518.774	6.6
519.122	6.48
519.47	6.62
519.819	6.52
520.167	6.58
520.515	6.56
520.863	6.69
521.211	6.61
521.559	6.69
521.907	6.69
522.255	6.81
522.602	6.84
522.95	6.86
523.298	6.85
523.645	6.78
523.993	6.96
524.341	6.8
524.688	6.76
525.036	6.96
525.383	6.96
525.73	7
526.078	6.97
526.425	6.8
526.772	6.73
527.119	6.69
527.466	6.8
527.814	6.85
528.161	6.88
528.508	6.84
528.854	6.86
529.201	6.77
529.548	6.63
529.895	6.59
530.242	6.61
530.588	6.72
530.935	6.73
531.282	6.92
531.628	6.96
531.975	6.98
532.321	7.01
532.667	7.02
533.014	7.04
533.36	7.1
533.706	7.03
534.052	6.95
534.399	6.88
534.745	6.81
535.091	6.93
535.437	7.07
535.783	7.11
536.129	7.13
536.474	7.27
536.82	7.21
537.166	7.14
537.512	7.25
537.857	7.25
538.203	7.15
538.549	7.28
538.894	7.32
539.239	7.41
539.585	7.48
539.93	7.38
540.276	7.37
540.621	7.37
540.966	7.42
541.311	7.55
541.656	7.44
542.001	7.31
542.346	7.25
542.691	7.12
543.036	7.19
543.381	7.29
543.726	7.39
544.071	7.4
544.415	7.45
544.76	7.36
545.105	7.54
545.449	7.49
545.794	7.54
546.138	7.66
546.483	7.58
546.827	7.73
547.171	7.76
547.516	7.71
547.86	7.59
548.204	7.59
548.548	7.83
548.892	7.79
549.236	7.83
549.58	7.91
549.924	7.94
550.268	8.04
550.612	8.01
550.956	7.88
551.3	8.11
551.643	8.1
551.987	8.04
552.33	7.96
552.674	8.34
553.017	8.06
553.361	8.02
553.704	8.08
554.048	8.16
554.391	8.12
554.734	8.08
555.077	8.18
555.42	8.21
555.764	8.31
556.107	8.11
556.45	8.16
556.793	8.41
557.135	8.52
557.478	8.52
557.821	8.42
558.164	8.51
558.507	8.33
558.849	8.43
559.192	8.42
559.534	8.39
559.877	8.56
560.219	8.71
560.562	8.56
560.904	8.54
561.246	8.63
561.589	8.65
561.931	8.44
562.273	8.64
562.615	8.76
562.957	8.75
563.299	8.81
563.641	8.74
563.983	8.66
564.325	8.7
564.667	8.87
565.008	8.69
565.35	8.96
565.692	8.96
566.033	8.97
566.375	8.75
566.716	8.89
567.058	9.01
567.399	8.92
567.741	8.98
568.082	8.9
568.423	8.96
568.764	9.02
569.105	9.17
569.447	9.05
569.788	9.22
570.129	9.23
570.47	9.33
570.811	9.25
571.151	9.27
571.492	9.24
571.833	9.09
572.174	9.19
572.514	9.25
572.855	9.35
573.195	9.2
573.536	9.4
573.876	9.41
574.217	9.52
574.557	9.32
574.898	9.36
575.238	9.44
575.578	9.57
575.918	9.54
576.258	9.48
576.598	9.61
576.938	9.81
577.278	9.62
577.618	9.6
577.958	9.83
578.298	9.75
578.638	9.75
578.977	9.8
579.317	9.85
579.657	9.9
579.996	9.93
580.336	9.98
580.675	10
581.014	10.05
581.354	10.09
581.693	10.1
582.032	10.05
582.372	10.19
582.711	10.06
583.05	10.31
583.389	10.24
583.728	10.3
584.067	10.31
584.406	10.6
584.745	10.22
585.083	10.54
585.422	10.66
585.761	10.51
586.1	10.52
586.438	10.47
586.777	10.53
587.115	10.65
587.454	10.37
587.792	10.46
588.13	10.73
588.469	10.82
588.807	10.77
589.145	10.74
589.483	10.49
589.821	10.72
590.159	10.6
590.497	10.39
590.835	10.63
591.173	10.86
591.511	10.91
591.849	11.15
592.187	10.7
592.524	10.89
592.862	10.96
593.2	10.87
593.537	11.18
593.875	11.09
594.212	11.05
594.55	11.09
594.887	11.24
595.224	10.99
595.561	11.32
595.899	11.27
596.236	11.19
596.573	11.33
596.91	11.31
597.247	11.27
597.584	11.52
597.921	11.55
598.258	11.38
598.594	11.37
598.931	11.32
599.268	11.54
599.604	11.63
599.941	11.56
600.277	11.64
600.614	11.84
600.95	11.71
601.287	11.78
601.623	11.74
601.959	11.59
602.296	11.69
602.632	11.81
602.968	11.91
603.304	11.58
603.64	11.77
603.976	12.04
604.312	11.97
604.648	12.1
604.984	11.97
605.319	11.9
605.655	12.04
605.991	12
606.326	11.88
606.662	11.84
606.998	12.09
607.333	12.16
607.668	12.08
608.004	12.1
608.339	12.12
608.674	12.37
609.01	12.45
609.345	12.46
609.68	12.19
610.015	12.65
610.35	12.42
610.685	12.48
611.02	12.49
611.355	12.62
611.689	12.38
612.024	12.76
612.359	12.67
612.694	12.79
613.028	12.99
613.363	12.61
613.697	13.07
614.032	13.13
614.366	12.78
614.7	13.37
615.035	12.88
615.369	13.08
615.703	13.15
616.037	13.07
616.371	12.88
616.705	12.93
617.039	13.58
617.373	13.37
617.707	12.99
618.041	13.49
618.375	13.02
618.709	13.11
619.042	13.37
619.376	13.28
619.71	13.28
620.043	13.46
620.377	13.45
620.71	13.59
621.043	13.13
621.377	13.33
621.71	13.75
622.043	13.79
622.376	13.5
622.709	14.12
623.043	13.76
623.376	13.77
623.709	13.62
624.041	14.19
624.374	13.76
624.707	13.73
625.04	14.1
625.373	14.13
625.705	14.18
626.038	14.11
626.37	13.85
626.703	14
627.035	14.29
627.368	14.29
627.7	14.22
628.032	14.13
628.365	14
628.697	14.12
629.029	14.24
629.361	14.4
629.693	14.4
630.025	14.24
630.357	14.09
630.689	14.66
631.021	14.81
631.353	14.6
631.684	14.38
632.016	14.6
632.348	14.72
632.679	14.6
633.011	14.83
633.342	14.75
633.674	14.57
634.005	14.96
634.336	14.88
634.668	14.94
634.999	14.94
635.33	14.53
635.661	14.69
635.992	14.93
636.323	15.2
636.654	15.02
636.985	15.01
637.316	14.95
637.647	15.15
637.977	15.19
638.308	15.12
638.639	15.2
638.969	15.1
639.3	15.35
639.63	15.42
639.961	15.33
640.291	15.79
640.622	15.55
640.952	15.45
641.282	15.01
641.612	15.37
641.943	15.64
642.273	15.56
642.603	15.32
642.933	15.39
643.263	15.59
643.592	16.25
643.922	16.48
644.252	16
644.582	15.7
644.911	15.68
645.241	16.03
645.571	15.85
645.9	16.15
646.23	15.87
646.559	16.05
646.888	15.86
647.218	16.2
647.547	16.49
647.876	16.57
648.205	16.05
648.534	16.08
648.863	16.65
649.192	16.13
649.521	15.82
649.85	16.69
650.179	15.98
650.508	16.51
650.837	16.38
651.165	16.32
651.494	16.8
651.822	16.46
652.151	16.9
652.479	16.85
652.808	16.47
653.136	16.63
653.465	16.81
653.793	16.73
654.121	16.79
654.449	17.29
654.777	17.26
655.105	17.06
655.433	16.64
655.761	17.01
656.089	17.01
656.417	16.66
656.745	17.62
657.073	17.28
657.4	17.35
657.728	17.06
658.056	17.13
658.383	17.58
658.711	17.04
659.038	17.33
659.365	17.48
659.693	17.11
660.02	17.33
660.347	17.12
660.674	17.44
661.001	17.37
661.329	17.35
661.656	17.33
661.982	17.55
662.309	17.97
662.636	17.43
662.963	17.66
663.29	18.05
663.616	17.91
663.943	17.75
664.27	18.08
664.596	17.78
664.923	18.15
665.249	17.81
665.576	17.74
665.902	18.22
666.228	17.79
666.554	17.75
666.881	18.21
667.207	18.23
667.533	18.68
667.859	17.99
668.185	18.73
668.511	17.96
668.837	18.08
669.162	18.56
669.488	18.41
669.814	18.57
670.139	19.14
670.465	18.42
670.791	18.55
671.116	18.77
671.442	18.39
671.767	18.84
672.092	18.69
672.418	19.21
672.743	18.38
673.068	18.54
673.393	19.78
673.718	18.84
674.043	18.72
674.368	19.22
674.693	19.35
675.018	19.76
675.343	19.13
675.667	18.7
675.992	18.19
676.317	19.15
676.641	19.31
676.966	19.38
677.29	18.88
677.615	19
677.939	19.12
678.264	18.84
678.588	19.97
678.912	20.11
679.236	19.52
679.56	19.66
679.885	19.77
680.209	19.36
680.532	19.23
680.856	20.11
681.18	19.65
681.504	19.85
681.828	19.46
682.152	19.63
682.475	19.93
682.799	19.91
683.122	19.09
683.446	19.95
683.769	19.71
684.093	19.92
684.416	19.58
684.739	19.97
