Data from 0067_chest_Reflection__1__285.txt Node

Date: Fri Dec 16 16:22:38 CST 2022
User: ToomeyLab
Spectrometer: FLMS14357
Trigger mode: 0
Integration Time (sec): 1.000000E-2
Scans to average: 100
Electric dark correction enabled: true
Nonlinearity correction enabled: false
Boxcar width: 0
XAxis mode: Wavelengths
Number of Pixels in Spectrum: 2048
>>>>>Begin Spectral Data<<<<<
189.047	-23.41
189.435	-23.41
189.823	-23.41
190.211	216.22
190.599	-185
190.987	27.89
191.375	12.66
191.763	152.78
192.151	0.96
192.538	98.51
192.926	1740
193.314	18.31
193.702	-131.37
194.089	39.72
194.477	71.43
194.864	-100
195.252	-121.67
195.639	99.03
196.027	267.65
196.414	-1100
196.801	-681682806711000
197.189	139.39
197.576	-110.42
197.963	-605.88
198.351	46.8
198.738	-16.9
199.125	31.83
199.512	5.87
199.899	-53.24
200.286	-53.35
200.673	3.06
201.06	12
201.447	32.31
201.833	60
202.22	45.28
202.607	-12.95
202.994	82.44
203.38	-37.06
203.767	-57.79
204.154	-53.79
204.54	-17.1
204.927	31.48
205.313	20.75
205.699	-30.48
206.086	-3.78
206.472	-51.35
206.858	16
207.245	-35.17
207.631	-46.21
208.017	-5.97
208.403	12.71
208.789	12.88
209.175	13.55
209.561	-15.72
209.947	-19.35
210.333	-37.14
210.719	-17.35
211.105	-26.8
211.491	-50.27
211.876	-13.26
212.262	-63.99
212.648	-68.33
213.034	-31.33
213.419	-8.87
213.805	-9.82
214.19	10.99
214.576	-42.63
214.961	-24.04
215.346	-64.53
215.732	-34.78
216.117	-27.77
216.502	-18.16
216.888	-1.57
217.273	19.26
217.658	-20.6
218.043	-1.94
218.428	10.14
218.813	-26.16
219.198	-71.79
219.583	-22
219.968	-8.71
220.353	-7.36
220.738	-25.11
221.122	4.82
221.507	-8.92
221.892	-17.28
222.276	-3.18
222.661	-9.12
223.046	9.16
223.43	-8.05
223.815	8.33
224.199	6.49
224.583	-0.87
224.968	19.9
225.352	-0.77
225.736	-2.12
226.121	-0.21
226.505	-3.08
226.889	15.71
227.273	4.64
227.657	6.31
228.041	5.11
228.425	3.04
228.809	8.54
229.193	2.86
229.577	5.97
229.961	7.1
230.344	7.1
230.728	6.48
231.112	7.03
231.495	5.55
231.879	5.68
232.263	4.8
232.646	5.69
233.03	3.26
233.413	2.04
233.797	7.46
234.18	3.11
234.563	4.73
234.946	6.47
235.33	6.58
235.713	6.12
236.096	6.39
236.479	5.2
236.862	6.9
237.245	5.53
237.628	4.92
238.011	6.13
238.394	7.97
238.777	4.64
239.16	3.92
239.543	5.43
239.925	7.05
240.308	5.3
240.691	6.35
241.073	7.97
241.456	6.62
241.838	6.21
242.221	7.03
242.603	7.15
242.986	6.73
243.368	6.5
243.75	5.75
244.133	6.21
244.515	6.7
244.897	5.63
245.279	5.99
245.661	5.86
246.043	5.96
246.425	5.92
246.807	6.6
247.189	6.02
247.571	5.9
247.953	6.14
248.335	6.34
248.717	6.2
249.098	6.38
249.48	6.05
249.862	5.99
250.243	6.07
250.625	6.09
251.006	5.89
251.388	5.58
251.769	5.35
252.151	5.76
252.532	6.51
252.913	5.61
253.295	6.13
253.676	6.27
254.057	5.49
254.438	6.05
254.819	6.16
255.2	4.85
255.581	4.11
255.962	5.56
256.343	6.2
256.724	5.64
257.105	5.54
257.486	5.5
257.867	4.66
258.247	5.99
258.628	6.11
259.009	5.75
259.389	6
259.77	5.34
260.15	6.81
260.531	6.18
260.911	5.87
261.292	5.83
261.672	5.63
262.052	5.59
262.432	5.39
262.813	5.64
263.193	5.67
263.573	5.03
263.953	5.3
264.333	5.06
264.713	5.28
265.093	5.04
265.473	5.36
265.853	5.89
266.233	5.26
266.612	4.53
266.992	4.46
267.372	5.46
267.752	4.96
268.131	5.81
268.511	5.49
268.89	5.47
269.27	5.2
269.649	5.93
270.029	5.46
270.408	5.32
270.787	5.36
271.167	6.09
271.546	4.75
271.925	5.47
272.304	5.77
272.683	5.14
273.062	5.49
273.441	5.26
273.82	5.32
274.199	5.44
274.578	5.17
274.957	5.5
275.336	5.52
275.715	5.15
276.093	5.69
276.472	5.12
276.851	6.12
277.229	5.42
277.608	5.27
277.986	4.89
278.365	5.46
278.743	5.37
279.122	4.66
279.5	4.64
279.878	4.47
280.257	5.58
280.635	4.91
281.013	5.62
281.391	5.05
281.769	5.08
282.147	5.56
282.525	4.58
282.903	5.11
283.281	5.02
283.659	5.93
284.037	5.47
284.415	5.44
284.792	5.37
285.17	4.97
285.548	5.04
285.925	5.36
286.303	5.17
286.68	5.52
287.058	5.35
287.435	4.99
287.813	5.19
288.19	5.53
288.567	4.84
288.945	5.03
289.322	4.62
289.699	5.12
290.076	5.92
290.453	4.6
290.83	5.53
291.207	5.45
291.584	5.02
291.961	5.63
292.338	4.95
292.715	5.17
293.092	5.09
293.469	5.13
293.845	5.07
294.222	5.15
294.599	5.61
294.975	5.55
295.352	4.54
295.728	5.65
296.105	4.96
296.481	5.87
296.858	5.19
297.234	4.98
297.61	4.89
297.986	4.97
298.363	4.86
298.739	5.39
299.115	4.63
299.491	4.91
299.867	4.67
300.243	5.16
300.619	5.1
300.995	4.87
301.371	4.73
301.746	4.82
302.122	5.19
302.498	5.07
302.874	4.95
303.249	5.21
303.625	4.45
304	4.75
304.376	4.9
304.751	4.82
305.127	5.45
305.502	5.08
305.878	4.72
306.253	4.22
306.628	5.33
307.003	5.23
307.378	4.47
307.754	4.88
308.129	4.06
308.504	4.58
308.879	4.85
309.254	4.92
309.629	4.99
310.003	5.04
310.378	5.03
310.753	4.94
311.128	5.13
311.502	4.42
311.877	4.66
312.252	4.88
312.626	4.73
313.001	5.03
313.375	4.92
313.75	4.67
314.124	5.34
314.498	4.52
314.873	4.48
315.247	4.88
315.621	5.01
315.995	4.72
316.369	5.1
316.743	4.86
317.117	4.75
317.491	4.53
317.865	3.85
318.239	5
318.613	4.45
318.987	5.02
319.361	4.76
319.734	4.61
320.108	4.82
320.482	4.1
320.855	4.71
321.229	5.29
321.602	4.69
321.976	4.5
322.349	3.71
322.723	4.17
323.096	4.15
323.469	4.24
323.843	4.84
324.216	4.28
324.589	4.89
324.962	4.84
325.335	4.41
325.708	5.14
326.081	5.01
326.454	4.58
326.827	4.91
327.2	5.07
327.573	4.86
327.945	4.81
328.318	4.35
328.691	4.74
329.063	4.37
329.436	4.48
329.809	4.5
330.181	4.95
330.553	5
330.926	4.55
331.298	4.67
331.671	4.7
332.043	5.15
332.415	5.41
332.787	5.02
333.159	4.11
333.532	5.21
333.904	4.36
334.276	4.93
334.648	4.94
335.02	4.47
335.391	5.01
335.763	3.83
336.135	5.1
336.507	4.89
336.879	5.12
337.25	4.67
337.622	5.13
337.993	4.7
338.365	4.98
338.736	4.49
339.108	4.4
339.479	4.57
339.851	5.07
340.222	5.3
340.593	4.42
340.964	4.83
341.336	4.45
341.707	4.89
342.078	4.55
342.449	5.38
342.82	4.78
343.191	4.58
343.562	4.5
343.933	4.83
344.303	4.75
344.674	4.68
345.045	5.13
345.416	4.6
345.786	4.45
346.157	4.89
346.527	4.66
346.898	4.79
347.268	4.73
347.639	4.83
348.009	4.87
348.38	4.95
348.75	4.94
349.12	4.56
349.49	4.69
349.861	4.65
350.231	4.69
350.601	4.58
350.971	4.61
351.341	4.8
351.711	4.58
352.081	4.56
352.45	4.97
352.82	4.64
353.19	4.69
353.56	4.68
353.929	4.59
354.299	4.49
354.669	4.53
355.038	4.84
355.408	5.27
355.777	4.41
356.147	4.97
356.516	4.84
356.885	4.62
357.254	5.05
357.624	4.96
357.993	4.68
358.362	5.04
358.731	4.79
359.1	5
359.469	4.88
359.838	4.78
360.207	4.77
360.576	4.66
360.945	4.74
361.314	4.67
361.682	4.71
362.051	4.55
362.42	4.89
362.788	4.82
363.157	4.62
363.525	4.77
363.894	4.66
364.262	4.8
364.631	5.36
364.999	4.48
365.367	5.04
365.735	4.59
366.104	4.83
366.472	4.97
366.84	4.93
367.208	4.49
367.576	4.61
367.944	5.23
368.312	4.6
368.68	4.98
369.048	5.07
369.416	4.62
369.783	4.67
370.151	4.96
370.519	4.69
370.886	4.77
371.254	5.01
371.621	4.78
371.989	4.94
372.356	4.75
372.724	5.07
373.091	5.06
373.458	4.91
373.826	4.89
374.193	5.31
374.56	4.48
374.927	4.61
375.294	5.07
375.661	4.96
376.028	4.91
376.395	4.75
376.762	5.2
377.129	5.22
377.496	5.04
377.863	4.91
378.229	4.8
378.596	4.76
378.963	4.84
379.329	4.96
379.696	4.8
380.062	5.18
380.429	4.87
380.795	4.81
381.161	4.93
381.528	4.48
381.894	5.04
382.26	4.87
382.626	4.84
382.993	4.84
383.359	4.8
383.725	5.09
384.091	4.88
384.457	5.27
384.823	5.13
385.188	4.75
385.554	4.75
385.92	4.99
386.286	5.22
386.651	4.89
387.017	5.21
387.383	5.01
387.748	4.93
388.114	5.14
388.479	4.91
388.845	4.82
389.21	4.96
389.575	5.02
389.94	4.98
390.306	4.99
390.671	4.89
391.036	4.8
391.401	5.47
391.766	4.86
392.131	4.94
392.496	4.92
392.861	4.89
393.226	4.84
393.591	4.92
393.956	4.84
394.32	4.89
394.685	5.23
395.05	4.96
395.414	4.92
395.779	4.87
396.143	4.92
396.508	5.35
396.872	4.97
397.236	4.92
397.601	5.1
397.965	4.75
398.329	5.2
398.694	4.92
399.058	5.15
399.422	4.97
399.786	5.1
400.15	5.12
400.514	4.94
400.878	5.06
401.242	5.29
401.605	4.99
401.969	5.03
402.333	5.03
402.697	5.39
403.06	4.99
403.424	5.09
403.787	5.22
404.151	5.06
404.514	5.2
404.878	5.12
405.241	5.21
405.604	5.04
405.968	5.23
406.331	4.95
406.694	5.08
407.057	5.55
407.42	5.17
407.783	5
408.146	5.15
408.509	5.02
408.872	4.99
409.235	5.2
409.598	5.13
409.961	5.32
410.323	5.24
410.686	5.1
411.049	4.91
411.411	5.08
411.774	5.21
412.136	5.25
412.499	5.08
412.861	4.96
413.223	5.13
413.586	5.12
413.948	5.06
414.31	5.19
414.672	5.18
415.035	5.33
415.397	5.08
415.759	5.21
416.121	5.25
416.483	5.23
416.845	5.23
417.206	5.29
417.568	5.19
417.93	5.22
418.292	5.26
418.653	5.2
419.015	5.23
419.377	5.25
419.738	5.18
420.1	5.29
420.461	4.97
420.822	5.06
421.184	5.14
421.545	5.08
421.906	5.19
422.267	5.12
422.629	5.16
422.99	5.11
423.351	5.12
423.712	5.08
424.073	5.27
424.434	5.07
424.795	5.18
425.155	5.22
425.516	5.02
425.877	5.15
426.238	5.1
426.598	5.18
426.959	5.05
427.32	5.33
427.68	5.3
428.041	5.29
428.401	5.07
428.761	5.11
429.122	5.12
429.482	5.14
429.842	5.3
430.202	5.1
430.563	5.15
430.923	5.32
431.283	5.29
431.643	5.17
432.003	5.19
432.363	5.45
432.722	5.19
433.082	5.2
433.442	5.16
433.802	5.35
434.161	5.25
434.521	5.18
434.881	5.4
435.24	5.18
435.6	5.15
435.959	5.25
436.319	5.2
436.678	5.23
437.037	5.46
437.396	5.25
437.756	5.32
438.115	5.31
438.474	5.41
438.833	5.51
439.192	5.54
439.551	5.34
439.91	5.38
440.269	5.37
440.628	5.12
440.987	5.24
441.345	5.27
441.704	5.31
442.063	5.27
442.421	5.23
442.78	5.26
443.138	5.17
443.497	5.25
443.855	5.25
444.214	5.34
444.572	5.25
444.93	5.34
445.288	5.36
445.647	5.29
446.005	5.31
446.363	5.38
446.721	5.25
447.079	5.33
447.437	5.2
447.795	5.16
448.153	5.25
448.51	5.13
448.868	5.3
449.226	5.34
449.584	5.31
449.941	5.4
450.299	5.25
450.656	5.27
451.014	5.37
451.371	5.42
451.729	5.38
452.086	5.25
452.443	5.25
452.801	5.19
453.158	5.35
453.515	5.41
453.872	5.5
454.229	5.21
454.586	5.37
454.943	5.35
455.3	5.46
455.657	5.3
456.014	5.41
456.371	5.35
456.727	5.32
457.084	5.39
457.441	5.32
457.797	5.37
458.154	5.33
458.51	5.29
458.867	5.49
459.223	5.44
459.58	5.46
459.936	5.3
460.292	5.39
460.648	5.37
461.005	5.4
461.361	5.31
461.717	5.26
462.073	5.34
462.429	5.33
462.785	5.3
463.141	5.37
463.496	5.35
463.852	5.55
464.208	5.54
464.564	5.33
464.919	5.36
465.275	5.39
465.631	5.48
465.986	5.32
466.342	5.58
466.697	5.56
467.052	5.44
467.408	5.4
467.763	5.41
468.118	5.47
468.473	5.61
468.829	5.36
469.184	5.53
469.539	5.36
469.894	5.41
470.249	5.36
470.603	5.53
470.958	5.53
471.313	5.45
471.668	5.54
472.023	5.5
472.377	5.48
472.732	5.46
473.086	5.4
473.441	5.58
473.795	5.6
474.15	5.45
474.504	5.36
474.859	5.57
475.213	5.4
475.567	5.43
475.921	5.57
476.275	5.43
476.63	5.59
476.984	5.52
477.338	5.72
477.692	5.46
478.045	5.5
478.399	5.6
478.753	5.45
479.107	5.47
479.461	5.57
479.814	5.46
480.168	5.56
480.521	5.55
480.875	5.58
481.228	5.64
481.582	5.59
481.935	5.47
482.289	5.47
482.642	5.63
482.995	5.49
483.348	5.48
483.701	5.56
484.055	5.46
484.408	5.46
484.761	5.34
485.114	5.3
485.466	5.26
485.819	5.24
486.172	5.23
486.525	5.3
486.878	5.28
487.23	5.36
487.583	5.43
487.936	5.43
488.288	5.4
488.641	5.38
488.993	5.35
489.345	5.33
489.698	5.31
490.05	5.35
490.402	5.38
490.754	5.46
491.107	5.45
491.459	5.5
491.811	5.54
492.163	5.5
492.515	5.58
492.866	5.36
493.218	5.4
493.57	5.41
493.922	5.43
494.274	5.44
494.625	5.47
494.977	5.56
495.328	5.62
495.68	5.66
496.031	5.64
496.383	5.58
496.734	5.66
497.086	5.6
497.437	5.67
497.788	5.62
498.139	5.58
498.49	5.62
498.842	5.64
499.193	5.55
499.544	5.74
499.894	5.59
500.245	5.65
500.596	5.68
500.947	5.72
501.298	5.57
501.648	5.59
501.999	5.81
502.35	5.84
502.7	5.76
503.051	5.86
503.401	5.65
503.752	5.74
504.102	5.75
504.452	5.73
504.803	5.71
505.153	5.78
505.503	5.74
505.853	5.67
506.203	5.7
506.553	5.75
506.903	5.73
507.253	5.75
507.603	5.72
507.953	5.86
508.303	5.79
508.652	5.74
509.002	5.71
509.352	5.76
509.701	5.77
510.051	5.82
510.4	5.82
510.75	5.61
511.099	5.72
511.449	5.77
511.798	5.81
512.147	5.95
512.496	5.89
512.846	5.85
513.195	5.89
513.544	5.68
513.893	5.63
514.242	5.85
514.591	5.87
514.939	5.76
515.288	5.91
515.637	5.95
515.986	5.82
516.334	5.91
516.683	5.84
517.032	5.91
517.38	5.94
517.729	5.91
518.077	5.95
518.426	5.8
518.774	5.9
519.122	5.9
519.47	5.86
519.819	5.86
520.167	5.86
520.515	5.83
520.863	5.85
521.211	5.8
521.559	5.81
521.907	5.89
522.255	6.07
522.602	5.95
522.95	6.04
523.298	5.87
523.645	5.95
523.993	6.13
524.341	6.07
524.688	6.02
525.036	6.1
525.383	6.04
525.73	6.18
526.078	6.04
526.425	5.97
526.772	5.88
527.119	5.95
527.466	5.94
527.814	5.94
528.161	6.11
528.508	6.01
528.854	5.92
529.201	5.97
529.548	5.97
529.895	5.87
530.242	5.86
530.588	5.88
530.935	5.89
531.282	5.86
531.628	5.94
531.975	5.98
532.321	6.03
532.667	6.09
533.014	6.1
533.36	6.1
533.706	6.11
534.052	6.09
534.399	6.06
534.745	5.99
535.091	6.06
535.437	6.06
535.783	6.09
536.129	6.07
536.474	6.28
536.82	6.11
537.166	6.27
537.512	6.24
537.857	6.18
538.203	6.25
538.549	6.3
538.894	6.19
539.239	6.34
539.585	6.3
539.93	6.35
540.276	6.27
540.621	6.28
540.966	6.34
541.311	6.43
541.656	6.23
542.001	6.39
542.346	6.37
542.691	6.2
543.036	6.18
543.381	6.29
543.726	6.3
544.071	6.36
544.415	6.35
544.76	6.33
545.105	6.37
545.449	6.37
545.794	6.43
546.138	6.48
546.483	6.51
546.827	6.47
547.171	6.51
547.516	6.63
547.86	6.55
548.204	6.47
548.548	6.62
548.892	6.67
549.236	6.69
549.58	6.58
549.924	6.64
550.268	6.84
550.612	6.73
550.956	6.53
551.3	6.76
551.643	6.86
551.987	6.84
552.33	6.81
552.674	6.79
553.017	6.78
553.361	6.74
553.704	6.79
554.048	6.97
554.391	6.73
554.734	6.62
555.077	6.84
555.42	6.9
555.764	6.81
556.107	6.93
556.45	6.77
556.793	7.09
557.135	7.03
557.478	7.04
557.821	6.89
558.164	7.12
558.507	6.89
558.849	6.84
559.192	7.17
559.534	6.88
559.877	7.03
560.219	7.36
560.562	7.14
560.904	7.06
561.246	7.24
561.589	7.37
561.931	7.2
562.273	7.12
562.615	7.13
562.957	7.21
563.299	7.33
563.641	7.2
563.983	7.17
564.325	7.23
564.667	7.3
565.008	7.26
565.35	7.54
565.692	7.58
566.033	7.46
566.375	7.33
566.716	7.52
567.058	7.49
567.399	7.44
567.741	7.41
568.082	7.51
568.423	7.44
568.764	7.41
569.105	7.45
569.447	7.55
569.788	7.53
570.129	7.46
570.47	7.48
570.811	7.67
571.151	7.65
571.492	7.72
571.833	7.61
572.174	7.68
572.514	7.64
572.855	7.73
573.195	7.64
573.536	7.64
573.876	7.6
574.217	7.64
574.557	7.81
574.898	7.73
575.238	7.78
575.578	7.82
575.918	7.76
576.258	7.75
576.598	7.91
576.938	8.02
577.278	7.88
577.618	7.95
577.958	7.98
578.298	8.09
578.638	8.04
578.977	8.15
579.317	8.15
579.657	7.98
579.996	8.15
580.336	7.88
580.675	8.16
581.014	8.19
581.354	8.14
581.693	8.31
582.032	8.24
582.372	8.41
582.711	8.2
583.05	8.6
583.389	8.39
583.728	8.2
584.067	8.45
584.406	8.28
584.745	8.26
585.083	8.86
585.422	8.63
585.761	8.76
586.1	8.83
586.438	8.48
586.777	8.84
587.115	8.61
587.454	8.58
587.792	8.7
588.13	8.92
588.469	8.84
588.807	8.63
589.145	8.83
589.483	8.64
589.821	8.79
590.159	8.74
590.497	8.67
590.835	8.76
591.173	8.86
591.511	8.87
591.849	9.13
592.187	8.89
592.524	8.79
592.862	9.11
593.2	8.92
593.537	8.92
593.875	9.19
594.212	8.93
594.55	9.03
594.887	9.2
595.224	8.81
595.561	9.21
595.899	9.08
596.236	9.12
596.573	9.11
596.91	9.18
597.247	9.16
597.584	9.37
597.921	9.38
598.258	9.47
598.594	9
598.931	9.31
599.268	9.24
599.604	9.5
599.941	9.3
600.277	9.41
600.614	9.37
600.95	9.58
601.287	9.49
601.623	9.82
601.959	9.58
602.296	9.78
602.632	9.91
602.968	9.5
603.304	9.57
603.64	9.66
603.976	9.91
604.312	9.98
604.648	9.98
604.984	9.69
605.319	9.92
605.655	9.94
605.991	9.95
606.326	9.73
606.662	9.76
606.998	10.01
607.333	10.02
607.668	9.93
608.004	10.01
608.339	9.91
608.674	9.93
609.01	10.19
609.345	10.29
609.68	9.92
610.015	10.2
610.35	10.33
610.685	10.27
611.02	10.27
611.355	10.32
611.689	10.14
612.024	10.45
612.359	10.48
612.694	10.32
613.028	10.5
613.363	10.44
613.697	10.74
614.032	10.45
614.366	10.47
614.7	10.97
615.035	10.43
615.369	10.7
615.703	10.98
616.037	10.67
616.371	10.72
616.705	10.76
617.039	11.06
617.373	10.52
617.707	10.86
618.041	10.8
618.375	10.92
618.709	10.6
619.042	10.95
619.376	10.83
619.71	10.95
620.043	11.03
620.377	11.06
620.71	11
621.043	10.94
621.377	11.11
621.71	11.22
622.043	11.35
622.376	11.14
622.709	11.55
623.043	10.99
623.376	11.42
623.709	11.6
624.041	11.16
624.374	11.24
624.707	11.29
625.04	11.71
625.373	11.17
625.705	11.35
626.038	11.79
626.37	11.62
626.703	11.36
627.035	11.53
627.368	11.64
627.7	11.68
628.032	11.73
628.365	11.63
628.697	11.66
629.029	12
629.361	11.92
629.693	11.72
630.025	11.66
630.357	11.72
630.689	11.89
631.021	12.06
631.353	11.86
631.684	11.9
632.016	11.94
632.348	12.09
632.679	11.84
633.011	12.21
633.342	11.91
633.674	12.1
634.005	11.93
634.336	12.09
634.668	12.13
634.999	12.17
635.33	12.47
635.661	12.21
635.992	12.43
636.323	12.42
636.654	12.29
636.985	12.35
637.316	12.05
637.647	12.61
637.977	12.43
638.308	12.53
638.639	12.14
638.969	12.4
639.3	12.56
639.63	12.62
639.961	12.48
640.291	12.86
640.622	12.94
640.952	12.68
641.282	12.26
641.612	12.48
641.943	12.91
642.273	12.68
642.603	12.49
642.933	13.17
643.263	13.26
643.592	13.11
643.922	12.87
644.252	12.87
644.582	12.91
644.911	12.74
645.241	13.29
645.571	13.18
645.9	13.36
646.23	12.93
646.559	13.55
646.888	13.1
647.218	13.4
647.547	13.4
647.876	13.65
648.205	13
648.534	13.88
648.863	13.93
649.192	13.37
649.521	13.24
649.85	13.91
650.179	13.18
650.508	13.52
650.837	13.64
651.165	13.76
651.494	13.77
651.822	13.61
652.151	14.03
652.479	14.16
652.808	13.48
653.136	13.82
653.465	14.14
653.793	14.38
654.121	13.91
654.449	13.84
654.777	13.93
655.105	14.21
655.433	14.17
655.761	14.07
656.089	14.06
656.417	13.93
656.745	14.44
657.073	14.38
657.4	14.12
657.728	14.15
658.056	14.13
658.383	14.93
658.711	13.83
659.038	14.9
659.365	14.87
659.693	14.33
660.02	14.42
660.347	14.74
660.674	14.16
661.001	14.59
661.329	14.45
661.656	14.66
661.982	14.49
662.309	14.62
662.636	14.43
662.963	14.7
663.29	14.58
663.616	14.83
663.943	15.33
664.27	15.14
664.596	15
664.923	15.04
665.249	14.91
665.576	14.64
665.902	15.01
666.228	14.8
666.554	14.29
666.881	15.26
667.207	14.62
667.533	15.39
667.859	15.22
668.185	15.42
668.511	14.6
668.837	14.72
669.162	15.32
669.488	15.11
669.814	16.05
670.139	16.17
670.465	15.51
670.791	15.38
671.116	15.26
671.442	15.33
671.767	15.4
672.092	15.86
672.418	15.31
672.743	15.81
673.068	15.77
673.393	15.56
673.718	15.64
674.043	16.14
674.368	15.66
674.693	15.82
675.018	16.17
675.343	16.13
675.667	15.46
675.992	15.26
676.317	16.09
676.641	15.7
676.966	15.69
677.29	15.95
677.615	16.03
677.939	16.15
678.264	15.94
678.588	16.16
678.912	16.71
679.236	16.1
679.56	16.08
679.885	16.11
680.209	16.17
680.532	15.59
680.856	17
681.18	16.16
681.504	16.23
681.828	16.37
682.152	16.43
682.475	16.64
682.799	17.08
683.122	16.17
683.446	16.42
683.769	17.1
684.093	16.87
684.416	16.66
684.739	16.9
685.062	16.68
685.386	16.65
685.709	16.59
686.032	16.97
686.355	16.57
686.678	16.48
