Data from 0067_forehead_Reflection__1__295.txt Node

Date: Fri Dec 16 16:26:27 CST 2022
User: ToomeyLab
Spectrometer: FLMS14357
Trigger mode: 0
Integration Time (sec): 1.000000E-2
Scans to average: 100
Electric dark correction enabled: true
Nonlinearity correction enabled: false
Boxcar width: 0
XAxis mode: Wavelengths
Number of Pixels in Spectrum: 2048
>>>>>Begin Spectral Data<<<<<
189.047	-178.17
189.435	-178.17
189.823	-178.17
190.211	265.54
190.599	165.25
190.987	80.58
191.375	-66.14
191.763	71.18
192.151	8.73
192.538	43.84
192.926	228.33
193.314	84.83
193.702	6.62
194.089	214.72
194.477	1.79
194.864	80.45
195.252	-1.87
195.639	116.89
196.027	-253.68
196.414	-72.37
196.801	-205160306250400
197.189	58.82
197.576	28.91
197.963	49.51
198.351	14.65
198.738	18.71
199.125	61.04
199.512	8.64
199.899	-7.98
200.286	18.75
200.673	40.58
201.06	62.51
201.447	41.21
201.833	77.08
202.22	24.44
202.607	-11.11
202.994	104.9
203.38	18.48
203.767	-15.11
204.154	-13.99
204.54	32.64
204.927	19.97
205.313	38.96
205.699	48.96
206.086	44.91
206.472	13.39
206.858	-6.1
207.245	32.71
207.631	-5.78
208.017	56
208.403	23.24
208.789	-1.23
209.175	38.06
209.561	-11.12
209.947	-30.82
210.333	31.89
210.719	29.34
211.105	-11.02
211.491	17.06
211.876	11.97
212.262	-7.96
212.648	-48.04
213.034	23.11
213.419	20.44
213.805	-25.13
214.19	7.55
214.576	19.63
214.961	18.34
215.346	5.23
215.732	-18.76
216.117	19.16
216.502	-29.64
216.888	-10.65
217.273	20.39
217.658	-35.13
218.043	16.27
218.428	-7.38
218.813	-20.94
219.198	-25.28
219.583	-1.06
219.968	3.19
220.353	9.32
220.738	12.74
221.122	-9.95
221.507	16.84
221.892	13.68
222.276	23.87
222.661	-14.81
223.046	1.37
223.43	0.65
223.815	23.79
224.199	11.27
224.583	16.06
224.968	14.2
225.352	-3.47
225.736	14.56
226.121	-1.89
226.505	2.97
226.889	16.88
227.273	10.36
227.657	7.32
228.041	4.46
228.425	5.83
228.809	8.58
229.193	3.61
229.577	7.65
229.961	6.83
230.344	6.93
230.728	6.23
231.112	6.42
231.495	5.88
231.879	5.66
232.263	4.14
232.646	5.72
233.03	3.82
233.413	6.63
233.797	6.9
234.18	3.98
234.563	4.08
234.946	7.19
235.33	6.72
235.713	7.54
236.096	5.69
236.479	6.91
236.862	9.04
237.245	7.62
237.628	7.44
238.011	6.89
238.394	8.75
238.777	6.08
239.16	4.9
239.543	5.34
239.925	6.09
240.308	6.64
240.691	5.85
241.073	5.98
241.456	7.23
241.838	7.53
242.221	7.13
242.603	6.64
242.986	7.44
243.368	6.48
243.75	5.61
244.133	6.49
244.515	6.25
244.897	6.28
245.279	6.41
245.661	7.04
246.043	6.33
246.425	6.13
246.807	6.33
247.189	5.9
247.571	6.45
247.953	6.2
248.335	6.44
248.717	6.05
249.098	6.41
249.48	5.97
249.862	6.78
250.243	6.28
250.625	6.12
251.006	6.18
251.388	6.47
251.769	6.89
252.151	6.07
252.532	6.93
252.913	6.66
253.295	6.42
253.676	6.66
254.057	6.24
254.438	5.55
254.819	6.41
255.2	5.91
255.581	6.22
255.962	6.74
256.343	7.37
256.724	6.82
257.105	5.68
257.486	6.51
257.867	5.4
258.247	6.02
258.628	6.91
259.009	6.16
259.389	7.12
259.77	5.74
260.15	6.6
260.531	6.07
260.911	5.9
261.292	5.96
261.672	5.96
262.052	6.07
262.432	5.6
262.813	6.53
263.193	5.53
263.573	6.01
263.953	5.72
264.333	6.19
264.713	6.11
265.093	5.67
265.473	6.78
265.853	6.57
266.233	5.46
266.612	5.99
266.992	5.98
267.372	6.12
267.752	5.49
268.131	6.37
268.511	6.28
268.89	6.45
269.27	6.19
269.649	6.62
270.029	5.74
270.408	5.56
270.787	6.22
271.167	6.08
271.546	5.29
271.925	5.27
272.304	5.93
272.683	5.75
273.062	6.22
273.441	6.12
273.82	5.74
274.199	6.21
274.578	6.03
274.957	6.09
275.336	5.92
275.715	6.15
276.093	6.25
276.472	5.73
276.851	6.23
277.229	5.92
277.608	5.72
277.986	5.53
278.365	5.25
278.743	6.28
279.122	5.22
279.5	5.25
279.878	4.74
280.257	6.49
280.635	5.34
281.013	6.03
281.391	6.44
281.769	5.41
282.147	6.18
282.525	5.46
282.903	5.44
283.281	5.73
283.659	5.72
284.037	5.32
284.415	5.93
284.792	5.57
285.17	5.32
285.548	5.74
285.925	5.89
286.303	5.58
286.68	5.72
287.058	5.83
287.435	5.33
287.813	5.81
288.19	5.86
288.567	5.57
288.945	5.91
289.322	5.67
289.699	5.68
290.076	6.35
290.453	5.83
290.83	6.66
291.207	6.4
291.584	5.74
291.961	6.38
292.338	5.74
292.715	6.2
293.092	6.11
293.469	6.27
293.845	6.5
294.222	6.26
294.599	6.64
294.975	6.8
295.352	6.2
295.728	6.2
296.105	6.26
296.481	6.63
296.858	6.78
297.234	6.59
297.61	6.81
297.986	6.59
298.363	6.26
298.739	6.48
299.115	6.46
299.491	6.61
299.867	6.83
300.243	6.61
300.619	6.53
300.995	6.94
301.371	7.18
301.746	6.75
302.122	7.27
302.498	6.86
302.874	7.13
303.249	7.41
303.625	7.23
304	6.78
304.376	7.26
304.751	7.4
305.127	7.38
305.502	7.04
305.878	7.53
306.253	7.37
306.628	7.75
307.003	7.67
307.378	7.92
307.754	8.04
308.129	7.32
308.504	7.97
308.879	8.15
309.254	8.3
309.629	8.09
310.003	8.04
310.378	8.02
310.753	8.06
311.128	8.5
311.502	7.88
311.877	8.07
312.252	8.1
312.626	8.11
313.001	8.35
313.375	8.21
313.75	8.21
314.124	8.93
314.498	8.64
314.873	8.77
315.247	8.38
315.621	8.83
315.995	9.15
316.369	8.97
316.743	9.19
317.117	9.24
317.491	9.21
317.865	8.23
318.239	9.62
318.613	9.05
318.987	9.2
319.361	9.35
319.734	9.4
320.108	9.75
320.482	9.84
320.855	9.41
321.229	10.12
321.602	10.11
321.976	9.82
322.349	9.28
322.723	9.83
323.096	9.61
323.469	9.53
323.843	10.03
324.216	9.48
324.589	10.42
324.962	10.3
325.335	9.74
325.708	10.3
326.081	10.66
326.454	10.46
326.827	10.61
327.2	10.48
327.573	10.34
327.945	10.23
328.318	10.23
328.691	10.86
329.063	10.3
329.436	10.43
329.809	9.89
330.181	10.33
330.553	10.8
330.926	10.81
331.298	10.81
331.671	10.42
332.043	10.72
332.415	10.97
332.787	11.38
333.159	10.72
333.532	10.74
333.904	11.22
334.276	11.35
334.648	11.5
335.02	11.42
335.391	11.32
335.763	10.89
336.135	11.24
336.507	11.41
336.879	11.12
337.25	11.18
337.622	11.78
337.993	11.49
338.365	11.47
338.736	11.89
339.108	11.11
339.479	11.99
339.851	11.75
340.222	11.8
340.593	11.68
340.964	12.08
341.336	11.35
341.707	11.53
342.078	11.41
342.449	12.24
342.82	11.84
343.191	11.56
343.562	11.55
343.933	11.86
344.303	11.98
344.674	12.27
345.045	12.52
345.416	11.95
345.786	11.8
346.157	12.49
346.527	12.2
346.898	12.43
347.268	12.55
347.639	12.23
348.009	12.5
348.38	12.52
348.75	12.47
349.12	12.78
349.49	12.27
349.861	13.15
350.231	12.95
350.601	12.94
350.971	12.54
351.341	13.01
351.711	12.82
352.081	12.71
352.45	13.22
352.82	13.55
353.19	13.4
353.56	13.25
353.929	13.33
354.299	13.05
354.669	13.36
355.038	13.19
355.408	13.76
355.777	13.16
356.147	13.35
356.516	13.89
356.885	13.44
357.254	13.76
357.624	13.55
357.993	13.43
358.362	13.76
358.731	13.74
359.1	14.02
359.469	13.71
359.838	13.32
360.207	13.64
360.576	14.09
360.945	13.69
361.314	13.91
361.682	13.79
362.051	13.72
362.42	14.16
362.788	14.05
363.157	13.78
363.525	13.94
363.894	13.77
364.262	13.92
364.631	14.75
364.999	14.19
365.367	14.44
365.735	13.9
366.104	14.07
366.472	14.69
366.84	14.6
367.208	14.45
367.576	14.72
367.944	14.91
368.312	14.32
368.68	14.86
369.048	14.92
369.416	14.77
369.783	14.82
370.151	15.12
370.519	14.85
370.886	14.79
371.254	15.47
371.621	15.31
371.989	15.37
372.356	15.18
372.724	15
373.091	14.78
373.458	15.02
373.826	15.33
374.193	15.74
374.56	15.2
374.927	15.32
375.294	15.84
375.661	15.75
376.028	15.54
376.395	15.31
376.762	16.13
377.129	15.44
377.496	15.84
377.863	15.71
378.229	15.51
378.596	15.71
378.963	15.72
379.329	15.65
379.696	15.68
380.062	16.15
380.429	16.3
380.795	16.15
381.161	15.98
381.528	15.65
381.894	16.64
382.26	15.99
382.626	16.17
382.993	15.93
383.359	16.24
383.725	16.55
384.091	16.35
384.457	16.56
384.823	16.53
385.188	16.67
385.554	16.55
385.92	16.77
386.286	16.56
386.651	16.75
387.017	16.95
387.383	16.83
387.748	16.63
388.114	16.91
388.479	17.16
388.845	17.3
389.21	16.93
389.575	17.14
389.94	16.94
390.306	17.12
390.671	16.87
391.036	17.2
391.401	17.52
391.766	17.39
392.131	17.09
392.496	17.56
392.861	17.13
393.226	17.33
393.591	17.34
393.956	17.6
394.32	17.57
394.685	17.86
395.05	17.49
395.414	17.61
395.779	17.52
396.143	17.67
396.508	17.66
396.872	17.79
397.236	17.39
397.601	17.88
397.965	17.76
398.329	18.27
398.694	17.7
399.058	17.94
399.422	18.12
399.786	18.45
400.15	18.23
400.514	18.16
400.878	18.19
401.242	18.35
401.605	18.72
401.969	18.25
402.333	18.22
402.697	18.76
403.06	18.88
403.424	18.96
403.787	18.8
404.151	18.99
404.514	18.67
404.878	18.83
405.241	18.86
405.604	18.75
405.968	18.69
406.331	18.9
406.694	18.89
407.057	19.05
407.42	19.24
407.783	19.24
408.146	19.01
408.509	19.14
408.872	19.31
409.235	19.22
409.598	19.45
409.961	19.39
410.323	19.45
410.686	19.38
411.049	19.39
411.411	19.63
411.774	19.61
412.136	19.65
412.499	19.34
412.861	19.38
413.223	19.82
413.586	19.94
413.948	19.79
414.31	19.86
414.672	19.53
415.035	19.99
415.397	19.96
415.759	19.96
416.121	20.14
416.483	20.23
416.845	20.03
417.206	20.16
417.568	20
417.93	19.99
418.292	20
418.653	20.14
419.015	20.18
419.377	20.12
419.738	20.2
420.1	20.09
420.461	20.29
420.822	20.29
421.184	20.25
421.545	20.21
421.906	20.29
422.267	20.25
422.629	20.17
422.99	20.21
423.351	20.42
423.712	20.41
424.073	20.65
424.434	20.5
424.795	20.71
425.155	20.57
425.516	20.52
425.877	20.58
426.238	20.54
426.598	20.73
426.959	20.79
427.32	20.92
427.68	21.03
428.041	21.21
428.401	21.18
428.761	21.36
429.122	21.3
429.482	21.35
429.842	21.47
430.202	21.48
430.563	21.56
430.923	21.58
431.283	21.64
431.643	21.71
432.003	21.84
432.363	22.08
432.722	21.88
433.082	21.9
433.442	22.06
433.802	21.89
434.161	21.88
434.521	22
434.881	22
435.24	21.86
435.6	21.95
435.959	22.02
436.319	22.22
436.678	22.13
437.037	22.4
437.396	22.37
437.756	22.26
438.115	22.43
438.474	22.57
438.833	22.48
439.192	22.35
439.551	22.53
439.91	22.7
440.269	22.66
440.628	22.61
440.987	22.37
441.345	22.31
441.704	22.61
442.063	22.6
442.421	22.63
442.78	22.51
443.138	22.65
443.497	22.7
443.855	22.92
444.214	22.98
444.572	23.24
444.93	23.05
445.288	23.21
445.647	23.17
446.005	23.1
446.363	23.17
446.721	22.89
447.079	23.13
447.437	23.06
447.795	22.96
448.153	23
448.51	23.03
448.868	23.2
449.226	23.16
449.584	23.26
449.941	23.48
450.299	23.56
450.656	23.59
451.014	23.61
451.371	23.9
451.729	23.85
452.086	24.02
452.443	24
452.801	24.07
453.158	24.22
453.515	24.07
453.872	24.08
454.229	24.25
454.586	24.27
454.943	24.13
455.3	24.41
455.657	24.15
456.014	24.49
456.371	24.44
456.727	24.4
457.084	24.24
457.441	24.58
457.797	24.55
458.154	24.62
458.51	24.55
458.867	24.69
459.223	24.83
459.58	24.62
459.936	24.75
460.292	24.63
460.648	24.57
461.005	24.52
461.361	24.46
461.717	24.46
462.073	24.62
462.429	24.76
462.785	24.84
463.141	25.15
463.496	25
463.852	25.2
464.208	25.39
464.564	25.26
464.919	25.31
465.275	25.5
465.631	25.49
465.986	25.41
466.342	25.5
466.697	25.51
467.052	25.84
467.408	25.81
467.763	25.79
468.118	25.74
468.473	25.82
468.829	25.59
469.184	25.84
469.539	25.95
469.894	26.09
470.249	25.98
470.603	26.12
470.958	26.1
471.313	25.95
471.668	26.32
472.023	26.18
472.377	26.29
472.732	26.31
473.086	26.4
473.441	26.35
473.795	26.64
474.15	26.39
474.504	26.3
474.859	26.49
475.213	26.51
475.567	26.39
475.921	26.78
476.275	26.63
476.63	26.86
476.984	26.71
477.338	27.17
477.692	26.77
478.045	26.91
478.399	26.85
478.753	26.94
479.107	26.83
479.461	26.87
479.814	26.8
480.168	27.03
480.521	27
480.875	27.21
481.228	27.35
481.582	27.04
481.935	27.1
482.289	27.16
482.642	27.2
482.995	27.05
483.348	27.15
483.701	27.09
484.055	26.97
484.408	26.71
484.761	26.51
485.114	26.35
485.466	26.28
485.819	26.33
486.172	26.43
486.525	26.58
486.878	26.79
487.23	26.91
487.583	27.1
487.936	27.12
488.288	27.02
488.641	26.99
488.993	26.94
489.345	26.91
489.698	26.99
490.05	27.04
490.402	27.1
490.754	27.47
491.107	27.62
491.459	27.75
491.811	27.91
492.163	27.76
492.515	27.71
492.866	27.35
493.218	27.45
493.57	27.53
493.922	27.68
494.274	27.84
494.625	27.97
494.977	28.21
495.328	28.48
495.68	28.77
496.031	28.7
496.383	28.84
496.734	28.93
497.086	28.99
497.437	29.06
497.788	28.86
498.139	28.85
498.49	28.74
498.842	28.68
499.193	28.89
499.544	29.06
499.894	28.95
500.245	29.05
500.596	29.2
500.947	29.3
501.298	29.27
501.648	29.41
501.999	29.49
502.35	29.64
502.7	29.59
503.051	29.77
503.401	29.85
503.752	29.64
504.102	29.81
504.452	29.79
504.803	29.75
505.153	29.83
505.503	29.57
505.853	29.78
506.203	29.81
506.553	29.93
506.903	29.94
507.253	29.99
507.603	30.13
507.953	30.02
508.303	30.11
508.652	30.09
509.002	30.16
509.352	30.15
509.701	30.12
510.051	30.05
510.4	30.18
510.75	30.13
511.099	30.17
511.449	30.16
511.798	30.28
512.147	30.39
512.496	30.64
512.846	30.52
513.195	30.65
513.544	30.46
513.893	30.59
514.242	30.78
514.591	30.97
514.939	30.61
515.288	30.83
515.637	30.87
515.986	31.04
516.334	31.06
516.683	31.09
517.032	31.19
517.38	31.09
517.729	31.33
518.077	31.33
518.426	31.07
518.774	31.18
519.122	31.11
519.47	31
519.819	30.88
520.167	30.91
520.515	31
520.863	30.93
521.211	31.1
521.559	31.22
521.907	31.4
522.255	31.56
522.602	31.57
522.95	31.83
523.298	31.79
523.645	31.58
523.993	31.96
524.341	31.9
524.688	31.86
525.036	32.16
525.383	32
525.73	31.95
526.078	31.95
526.425	31.84
526.772	31.58
527.119	31.6
527.466	31.59
527.814	31.73
528.161	31.81
528.508	31.78
528.854	31.69
529.201	31.7
529.548	31.51
529.895	31.32
530.242	31.42
530.588	31.43
530.935	31.58
531.282	31.58
531.628	31.76
531.975	32
532.321	32.15
532.667	32.35
533.014	32.31
533.36	32.49
533.706	32.48
534.052	32.33
534.399	32.19
534.745	32.06
535.091	32.18
535.437	32.29
535.783	32.17
536.129	32.55
536.474	32.69
536.82	32.92
537.166	32.88
537.512	32.98
537.857	32.85
538.203	32.96
538.549	32.93
538.894	32.88
539.239	33.14
539.585	33.39
539.93	33.28
540.276	33.44
540.621	33.51
540.966	33.64
541.311	33.81
541.656	33.58
542.001	33.55
542.346	33.07
542.691	32.88
543.036	32.91
543.381	33.03
543.726	33.16
544.071	33.06
544.415	33.27
544.76	33.4
545.105	33.64
545.449	33.53
545.794	33.78
546.138	34.08
546.483	34.06
546.827	34.03
547.171	34.07
547.516	34.04
547.86	34.24
548.204	34.17
548.548	34.2
548.892	34.36
549.236	34.4
549.58	34.38
549.924	34.58
550.268	34.6
550.612	34.58
550.956	34.67
551.3	35
551.643	35.19
551.987	35.29
552.33	35.18
552.674	35.06
553.017	35.07
553.361	35.17
553.704	35.12
554.048	35.35
554.391	35.05
554.734	35.24
555.077	35.35
555.42	35.34
555.764	35.58
556.107	35.48
556.45	35.4
556.793	35.77
557.135	35.69
557.478	35.64
557.821	35.85
558.164	36.01
558.507	35.72
558.849	35.92
559.192	36.12
559.534	35.95
559.877	35.94
560.219	36.22
560.562	36.07
560.904	36.18
561.246	36.35
561.589	36.34
561.931	36.46
562.273	36.2
562.615	36.26
562.957	36.39
563.299	36.31
563.641	36.35
563.983	36.29
564.325	36.47
564.667	36.57
565.008	36.82
565.35	36.82
565.692	36.68
566.033	36.87
566.375	36.65
566.716	36.99
567.058	36.86
567.399	36.64
567.741	36.65
568.082	36.78
568.423	36.62
568.764	36.7
569.105	36.78
569.447	36.73
569.788	37.07
570.129	37.1
570.47	37.2
570.811	37.21
571.151	37.29
571.492	37.19
571.833	37.17
572.174	37.38
572.514	37.55
572.855	37.31
573.195	37.28
573.536	37.3
573.876	37.34
574.217	37.17
574.557	37.25
574.898	37.3
575.238	37.66
575.578	37.57
575.918	37.56
576.258	37.46
576.598	37.51
576.938	37.75
577.278	37.77
577.618	37.81
577.958	38
578.298	37.83
578.638	37.97
578.977	37.92
579.317	38.16
579.657	38.22
579.996	38.17
580.336	38.47
580.675	38.33
581.014	38.58
581.354	38.72
581.693	38.46
582.032	38.47
582.372	38.85
582.711	38.59
583.05	38.53
583.389	38.71
583.728	38.75
584.067	38.83
584.406	38.76
584.745	38.71
585.083	38.89
585.422	38.76
585.761	38.95
586.1	39.14
586.438	38.94
586.777	39.03
587.115	38.9
587.454	39.18
587.792	39.04
588.13	39.31
588.469	39.27
588.807	39.4
589.145	39.51
589.483	39.52
589.821	39.57
590.159	39.46
590.497	39.13
590.835	39.22
591.173	39.61
591.511	39.58
591.849	39.72
592.187	39.79
592.524	39.47
592.862	39.73
593.2	39.42
593.537	40.07
593.875	39.72
594.212	39.82
594.55	40.12
594.887	39.78
595.224	40.02
595.561	39.98
595.899	39.98
596.236	40.31
596.573	40.02
596.91	40.11
597.247	40.08
597.584	40.49
597.921	40.09
598.258	40.01
598.594	39.84
598.931	39.72
599.268	40.16
599.604	40
599.941	40.25
600.277	40.47
600.614	40.67
600.95	40.86
601.287	40.86
601.623	40.96
601.959	40.65
602.296	40.27
602.632	40.89
602.968	40.72
603.304	40.9
603.64	41.06
603.976	40.94
604.312	40.94
604.648	40.49
604.984	40.63
605.319	40.89
605.655	40.85
605.991	40.97
606.326	40.94
606.662	40.79
606.998	40.82
607.333	40.79
607.668	41.1
608.004	41.2
608.339	41.32
608.674	41.52
609.01	41.71
609.345	41.53
609.68	41.32
610.015	41.66
610.35	41.44
610.685	41.63
611.02	41.38
611.355	41.56
611.689	41.08
612.024	41.47
612.359	41.69
612.694	41.73
613.028	41.87
613.363	41.88
613.697	41.88
614.032	42.15
614.366	41.88
614.7	42.04
615.035	42.29
615.369	41.93
615.703	42.23
616.037	41.89
616.371	42.02
616.705	42.64
617.039	42.26
617.373	42.37
617.707	42
618.041	42.79
618.375	42.32
618.709	42.22
619.042	42.9
619.376	42.61
619.71	42.19
620.043	42.37
620.377	42.58
620.71	42.92
621.043	42.61
621.377	43.24
621.71	42.97
622.043	42.94
622.376	42.88
622.709	42.92
623.043	43.06
623.376	43.12
623.709	43.22
624.041	42.98
624.374	42.86
624.707	42.97
625.04	43
625.373	42.72
625.705	43.35
626.038	43.12
626.37	43.73
626.703	43.33
627.035	43.46
627.368	43.3
627.7	43.56
628.032	43.2
628.365	43.12
628.697	43.37
629.029	43.4
629.361	43.75
629.693	43.69
630.025	43.18
630.357	43.51
630.689	43.77
631.021	43.87
631.353	43.61
631.684	43.92
632.016	43.91
632.348	43.83
632.679	43.71
633.011	44.03
633.342	44.17
633.674	44.13
634.005	44.09
634.336	43.84
634.668	44.37
634.999	43.64
635.33	44.04
635.661	44.23
635.992	44.09
636.323	44.09
636.654	44.28
636.985	44.3
637.316	44.07
637.647	43.98
637.977	44.27
638.308	44.39
638.639	43.92
638.969	44.26
639.3	44.77
639.63	44.55
639.961	43.85
640.291	44.95
640.622	44.36
640.952	44.23
641.282	44.58
641.612	44.92
641.943	45.02
642.273	44.85
642.603	44.64
642.933	44.81
643.263	44.81
643.592	45.07
643.922	44.87
644.252	45.17
644.582	45.21
644.911	44.91
645.241	45.12
645.571	44.87
645.9	45.86
646.23	45.13
646.559	45.67
646.888	45.15
647.218	45.52
647.547	45.67
647.876	45.76
648.205	45.18
648.534	45.3
648.863	45.77
649.192	45.71
649.521	45.4
649.85	44.89
650.179	45.27
650.508	45.87
650.837	45.38
651.165	46.05
651.494	45.52
651.822	45.54
652.151	45.54
652.479	45.99
652.808	45.66
653.136	45.53
653.465	45.77
653.793	46.08
654.121	46.15
654.449	45.91
654.777	46.23
655.105	45.84
655.433	46.12
655.761	45.97
656.089	46.31
656.417	46.38
656.745	46.51
657.073	46.3
657.4	46.42
657.728	46.56
658.056	46.35
658.383	46.56
658.711	46.11
659.038	46.66
659.365	46.23
659.693	46.09
660.02	46.33
660.347	46.21
660.674	46.37
661.001	46.54
661.329	46.48
661.656	46.54
661.982	46.47
662.309	46.58
662.636	46.9
662.963	46.52
663.29	46.79
663.616	46.69
663.943	46.92
664.27	46.58
664.596	47.14
664.923	47.38
665.249	46.69
665.576	47.24
665.902	46.74
666.228	47.08
666.554	46.86
666.881	47.22
667.207	46.31
667.533	47.11
667.859	46.81
668.185	47.46
668.511	47.5
668.837	47.92
669.162	47.85
