Data from 0230_crown_Reflection__3__306.txt Node

Date: Fri Sep 22 23:07:31 CDT 2023
User: ToomeyLab
Spectrometer: FLMS14357
Trigger mode: 0
Integration Time (sec): 1.000000E-2
Scans to average: 100
Electric dark correction enabled: true
Nonlinearity correction enabled: false
Boxcar width: 0
XAxis mode: Wavelengths
Number of Pixels in Spectrum: 2048
>>>>>Begin Spectral Data<<<<<
189.047	-113.15
189.435	-113.15
189.823	-113.15
190.211	16.06
190.599	321.37
190.987	137.27
191.375	203.17
191.763	311.61
192.151	126.14
192.538	-30.27
192.926	75.45
193.314	46.54
193.702	1709.94
194.089	54.64
194.477	-108.07
194.864	44.4
195.252	-13.39
195.639	258.91
196.027	50.88
196.414	425.87
196.801	-16.06
197.189	60.59
197.576	170.1
197.963	229.38
198.351	14.04
198.738	17.28
199.125	-41.55
199.512	16.82
199.899	29.47
200.286	51.27
200.673	14.44
201.06	22.57
201.447	33.18
201.833	-16.12
202.22	34.93
202.607	59.85
202.994	54.38
203.38	27.11
203.767	53.37
204.154	23.27
204.54	15.21
204.927	28.24
205.313	24.58
205.699	48.1
206.086	32.28
206.472	54.12
206.858	58.64
207.245	-0.68
207.631	37.91
208.017	26.42
208.403	5.13
208.789	28.1
209.175	36.46
209.561	60
209.947	34.96
210.333	19.93
210.719	-4.12
211.105	15.52
211.491	10.55
211.876	23.16
212.262	4.81
212.648	36.38
213.034	11.64
213.419	16.3
213.805	11.27
214.19	19.85
214.576	37.19
214.961	81.88
215.346	18.54
215.732	12.28
216.117	-4.71
216.502	32.31
216.888	40.26
217.273	13.1
217.658	-19.55
218.043	32.18
218.428	40.14
218.813	-20.01
219.198	-14.85
219.583	17.22
219.968	9.16
220.353	39.56
220.738	-22.59
221.122	11.07
221.507	-16.37
221.892	10.37
222.276	4.55
222.661	-27.22
223.046	16.2
223.43	17.62
223.815	6.64
224.199	-2.03
224.583	11.93
224.968	15.69
225.352	8.31
225.736	9.78
226.121	22.02
226.505	22.72
226.889	8.63
227.273	11.65
227.657	7.29
228.041	11.08
228.425	18.66
228.809	10.03
229.193	9.68
229.577	10.75
229.961	11.02
230.344	11.53
230.728	9.62
231.112	12.57
231.495	11.36
231.879	10.98
232.263	10.17
232.646	11.61
233.03	11.34
233.413	12.87
233.797	10.54
234.18	11.31
234.563	10.72
234.946	12.17
235.33	10.22
235.713	9.04
236.096	9.7
236.479	10.91
236.862	11.96
237.245	10.74
237.628	11.43
238.011	10.31
238.394	10.16
238.777	12.03
239.16	12.26
239.543	13.69
239.925	12.63
240.308	10
240.691	10.52
241.073	12.15
241.456	10.16
241.838	10.17
242.221	10.23
242.603	10.12
242.986	10.34
243.368	10.61
243.75	10.35
244.133	10.87
244.515	10.13
244.897	9.56
245.279	9.92
245.661	10.65
246.043	10.26
246.425	9.97
246.807	10.8
247.189	10.23
247.571	9.79
247.953	10.03
248.335	10.23
248.717	9.61
249.098	9.8
249.48	9.37
249.862	9.34
250.243	9.47
250.625	9.59
251.006	9.21
251.388	9.28
251.769	9.66
252.151	9.53
252.532	8.68
252.913	9.44
253.295	10.16
253.676	9.22
254.057	9.16
254.438	9.49
254.819	9.03
255.2	8.91
255.581	8.97
255.962	8.73
256.343	9.91
256.724	8.7
257.105	9.14
257.486	8.65
257.867	8.35
258.247	9.21
258.628	9.66
259.009	8.28
259.389	8.86
259.77	8.84
260.15	9.12
260.531	7.81
260.911	8.62
261.292	8.6
261.672	8.09
262.052	8.45
262.432	8.45
262.813	8.37
263.193	8.27
263.573	9.19
263.953	8.89
264.333	8.27
264.713	8.23
265.093	8.31
265.473	7.73
265.853	8.12
266.233	7.14
266.612	8.38
266.992	9
267.372	8.78
267.752	9.05
268.131	7.23
268.511	7.97
268.89	8.31
269.27	7.76
269.649	8.03
270.029	8.13
270.408	8.1
270.787	7.72
271.167	8.01
271.546	8.23
271.925	8.22
272.304	7.66
272.683	8.04
273.062	8.35
273.441	8.25
273.82	8.65
274.199	8.1
274.578	7.71
274.957	7.65
275.336	7.47
275.715	7.57
276.093	7.55
276.472	8.17
276.851	7.65
277.229	7.06
277.608	7.75
277.986	7.34
278.365	7.5
278.743	7.83
279.122	8.21
279.5	8.13
279.878	7.73
280.257	7.83
280.635	7.72
281.013	8.12
281.391	7.21
281.769	7.8
282.147	7.63
282.525	7.04
282.903	8.08
283.281	7.63
283.659	7.25
284.037	7.32
284.415	7.47
284.792	7.57
285.17	7.79
285.548	7.91
285.925	7.75
286.303	7.87
286.68	7.29
287.058	7.16
287.435	7.33
287.813	7.37
288.19	6.81
288.567	7.37
288.945	7
289.322	7.3
289.699	7.03
290.076	7.56
290.453	7.11
290.83	6.98
291.207	7.16
291.584	6.72
291.961	6.74
292.338	7.1
292.715	7.35
293.092	7.42
293.469	7.42
293.845	6.79
294.222	7.26
294.599	7.56
294.975	7.38
295.352	6.77
295.728	7.05
296.105	7.16
296.481	6.89
296.858	7.19
297.234	6.88
297.61	7.24
297.986	7.15
298.363	6.92
298.739	7.02
299.115	7.13
299.491	6.89
299.867	6.76
300.243	6.88
300.619	6.61
300.995	6.8
301.371	6.92
301.746	7.28
302.122	6.64
302.498	6.73
302.874	7
303.249	6.73
303.625	6.39
304	7.03
304.376	7.28
304.751	6.94
305.127	6.88
305.502	7.43
305.878	6.93
306.253	6.98
306.628	6.59
307.003	7.45
307.378	6.55
307.754	6.4
308.129	6.38
308.504	6.75
308.879	6.86
309.254	6.51
309.629	6.86
310.003	7.08
310.378	7.41
310.753	6.67
311.128	6.8
311.502	6.75
311.877	6.18
312.252	6.83
312.626	6.6
313.001	6.94
313.375	6.62
313.75	6.92
314.124	6.92
314.498	6.43
314.873	6.54
315.247	6.8
315.621	6.78
315.995	6.6
316.369	6.55
316.743	6.77
317.117	6.48
317.491	6.74
317.865	6.2
318.239	6.48
318.613	6.66
318.987	6.63
319.361	6.81
319.734	6.56
320.108	6.43
320.482	6.52
320.855	6.13
321.229	7.04
321.602	6.68
321.976	6.2
322.349	6.86
322.723	6.11
323.096	6.67
323.469	6.36
323.843	6.57
324.216	7.3
324.589	6.91
324.962	5.95
325.335	6.06
325.708	6.63
326.081	6.97
326.454	5.92
326.827	6.69
327.2	6.32
327.573	7.1
327.945	6.4
328.318	6.7
328.691	6.46
329.063	6.43
329.436	6.33
329.809	6.66
330.181	6.77
330.553	6.35
330.926	6.32
331.298	6.67
331.671	6.61
332.043	6.08
332.415	6.26
332.787	6.85
333.159	6.4
333.532	5.92
333.904	6.39
334.276	6.52
334.648	6
335.02	6.7
335.391	6.38
335.763	6.92
336.135	6.39
336.507	6.45
336.879	6.36
337.25	6.76
337.622	6.44
337.993	6.64
338.365	6.48
338.736	6.71
339.108	6.52
339.479	6.56
339.851	6.03
340.222	6.29
340.593	6.51
340.964	6.27
341.336	6.5
341.707	6.46
342.078	6.57
342.449	6.73
342.82	6.13
343.191	6.09
343.562	6.26
343.933	6.47
344.303	6.8
344.674	6.51
345.045	6.54
345.416	6.87
345.786	6.25
346.157	6.46
346.527	6.35
346.898	6.39
347.268	6.44
347.639	6.25
348.009	6.43
348.38	6.8
348.75	6.8
349.12	6.94
349.49	6.84
349.861	6.28
350.231	6.37
350.601	6.37
350.971	6.83
351.341	6.38
351.711	6.43
352.081	6.5
352.45	6.55
352.82	6.85
353.19	6.66
353.56	6.49
353.929	6.6
354.299	6.64
354.669	6.14
355.038	6.28
355.408	6.3
355.777	6.7
356.147	6.53
356.516	6.81
356.885	6.6
357.254	6.81
357.624	6.44
357.993	6.77
358.362	6.73
358.731	6.11
359.1	6.56
359.469	6.74
359.838	6.29
360.207	6.68
360.576	6.81
360.945	6.56
361.314	6.73
361.682	7.09
362.051	7.01
362.42	6.48
362.788	6.47
363.157	6.68
363.525	6.53
363.894	6.7
364.262	6.47
364.631	6.42
364.999	6.45
365.367	6.78
365.735	6.51
366.104	6.72
366.472	6.76
366.84	6.46
367.208	6.87
367.576	6.91
367.944	6.97
368.312	6.81
368.68	6.64
369.048	6.77
369.416	6.77
369.783	6.78
370.151	6.72
370.519	6.65
370.886	6.43
371.254	6.89
371.621	6.45
371.989	6.86
372.356	6.58
372.724	7.12
373.091	6.8
373.458	6.63
373.826	6.42
374.193	6.99
374.56	6.84
374.927	6.8
375.294	6.38
375.661	6.63
376.028	6.98
376.395	6.9
376.762	6.78
377.129	7.12
377.496	7.08
377.863	6.63
378.229	6.79
378.596	6.66
378.963	7.28
379.329	6.74
379.696	6.97
380.062	6.73
380.429	6.79
380.795	6.85
381.161	6.95
381.528	6.8
381.894	6.64
382.26	6.73
382.626	6.71
382.993	7.26
383.359	6.88
383.725	6.92
384.091	7.13
384.457	6.77
384.823	6.95
385.188	6.99
385.554	6.72
385.92	7.11
386.286	6.74
386.651	7.15
387.017	7.25
387.383	6.98
387.748	6.99
388.114	7.07
388.479	7.04
388.845	6.78
389.21	6.78
389.575	7.15
389.94	6.7
390.306	7.08
390.671	7.43
391.036	6.85
391.401	6.79
391.766	6.78
392.131	6.9
392.496	6.97
392.861	6.88
393.226	7.09
393.591	7.14
393.956	6.85
394.32	6.87
394.685	6.99
395.05	7.21
395.414	7.03
395.779	7.06
396.143	6.93
396.508	6.88
396.872	6.94
397.236	7.14
397.601	6.85
397.965	7.09
398.329	7.2
398.694	6.97
399.058	7.03
399.422	7.13
399.786	7.15
400.15	6.81
400.514	7.43
400.878	7.02
401.242	7.21
401.605	7.17
401.969	7.04
402.333	7.13
402.697	6.96
403.06	7.14
403.424	7.02
403.787	7.29
404.151	7.18
404.514	7.11
404.878	7.25
405.241	7.5
405.604	7.02
405.968	7.13
406.331	7.19
406.694	7.14
407.057	6.97
407.42	7.11
407.783	7.02
408.146	7
408.509	7.1
408.872	7.25
409.235	6.89
409.598	7.12
409.961	7.21
410.323	7.37
410.686	7.12
411.049	7.3
411.411	7.22
411.774	7.02
412.136	7.31
412.499	7.1
412.861	7.14
413.223	7.21
413.586	7.06
413.948	7.26
414.31	7.27
414.672	7.09
415.035	7.16
415.397	7.19
415.759	7.55
416.121	7.04
416.483	7.09
416.845	7.13
417.206	7.18
417.568	7.14
417.93	7.19
418.292	7.18
418.653	7.11
419.015	7.15
419.377	6.99
419.738	7.23
420.1	7
420.461	7.11
420.822	7.15
421.184	7.3
421.545	7.23
421.906	7.17
422.267	7.18
422.629	7.2
422.99	7.17
423.351	7.05
423.712	7.03
424.073	6.95
424.434	7.15
424.795	7.21
425.155	7.1
425.516	7.13
425.877	7.02
426.238	6.97
426.598	7.02
426.959	7.07
427.32	7.1
427.68	7.06
428.041	7.17
428.401	7.24
428.761	7.28
429.122	7.14
429.482	7.09
429.842	7.22
430.202	7.02
430.563	7.15
430.923	7.37
431.283	7.28
431.643	7.41
432.003	7.39
432.363	7.38
432.722	7.31
433.082	7.3
433.442	7.25
433.802	7.47
434.161	7.34
434.521	7.46
434.881	7.35
435.24	7.18
435.6	7.21
435.959	7.21
436.319	7.28
436.678	7.33
437.037	7.27
437.396	7.18
437.756	7.37
438.115	7.28
438.474	7.16
438.833	7.42
439.192	7.26
439.551	7.34
439.91	7.31
440.269	7.28
440.628	7.1
440.987	7.33
441.345	7.37
441.704	7.44
442.063	7.22
442.421	7.29
442.78	7.27
443.138	7.17
443.497	7.3
443.855	7.22
444.214	7.18
444.572	7.32
444.93	7.25
445.288	7.33
445.647	7.45
446.005	7.21
446.363	7.26
446.721	7.32
447.079	7.11
447.437	7.29
447.795	7.24
448.153	7.19
448.51	7.25
448.868	7.19
449.226	7.29
449.584	7.23
449.941	7.05
450.299	7.35
450.656	7.24
451.014	7.27
451.371	7.23
451.729	7.22
452.086	7.32
452.443	7.39
452.801	7.35
453.158	7.24
453.515	7.37
453.872	7.19
454.229	7.42
454.586	7.38
454.943	7.38
455.3	7.46
455.657	7.17
456.014	7.42
456.371	7.35
456.727	7.51
457.084	7.39
457.441	7.24
457.797	7.42
458.154	7.33
458.51	7.29
458.867	7.25
459.223	7.34
459.58	7.4
459.936	7.29
460.292	7.4
460.648	7.63
461.005	7.36
461.361	7.29
461.717	7.12
462.073	7.18
462.429	7.22
462.785	7.14
463.141	7.15
463.496	7.37
463.852	7.32
464.208	7.36
464.564	7.49
464.919	7.37
465.275	7.5
465.631	7.44
465.986	7.5
466.342	7.59
466.697	7.43
467.052	7.32
467.408	7.52
467.763	7.43
468.118	7.5
468.473	7.3
468.829	7.49
469.184	7.45
469.539	7.3
469.894	7.45
470.249	7.32
470.603	7.15
470.958	7.44
471.313	7.37
471.668	7.3
472.023	7.52
472.377	7.4
472.732	7.16
473.086	7.59
473.441	7.31
473.795	7.47
474.15	7.21
474.504	7.31
474.859	7.37
475.213	7.16
475.567	7.22
475.921	7.27
476.275	7.31
476.63	7.2
476.984	7.25
477.338	7.41
477.692	7.28
478.045	7.32
478.399	7.44
478.753	7.24
479.107	7.3
479.461	7.2
479.814	7.22
480.168	7.25
480.521	7.33
480.875	7.44
481.228	7.13
481.582	7.21
481.935	7.22
482.289	7.15
482.642	7.09
482.995	7.14
483.348	7.23
483.701	7.31
484.055	7.13
484.408	7.19
484.761	7.21
485.114	6.98
485.466	6.95
485.819	6.88
486.172	6.88
486.525	6.83
486.878	6.81
487.23	6.77
487.583	6.86
487.936	6.96
488.288	7.03
488.641	7.02
488.993	6.99
489.345	6.96
489.698	6.92
490.05	6.92
490.402	6.89
490.754	6.92
491.107	6.9
491.459	7
491.811	6.97
492.163	7.01
492.515	6.95
492.866	7.05
493.218	7.09
493.57	7.05
493.922	6.92
494.274	6.97
494.625	6.95
494.977	6.98
495.328	7.05
495.68	7.07
496.031	7.02
496.383	7.15
496.734	7.19
497.086	7.19
497.437	7.16
497.788	7.14
498.139	6.98
498.49	7.28
498.842	6.98
499.193	7.07
499.544	7.09
499.894	7.04
500.245	7.12
500.596	7.08
500.947	7.13
501.298	7
501.648	7.17
501.999	7.2
502.35	7.16
502.7	7.27
503.051	7.17
503.401	7.16
503.752	7.15
504.102	7.14
504.452	7.08
504.803	7.16
505.153	7.2
505.503	7.07
505.853	7.23
506.203	7.02
506.553	7.09
506.903	7.06
507.253	7.05
507.603	7.11
507.953	7.03
508.303	7.09
508.652	7.1
509.002	7.15
509.352	7.06
509.701	7.04
510.051	7.03
510.4	7.12
510.75	6.96
511.099	6.9
511.449	7.05
511.798	7.01
512.147	7.02
512.496	6.96
512.846	6.9
513.195	6.99
513.544	6.99
513.893	7.06
514.242	6.96
514.591	6.95
514.939	6.94
515.288	6.93
515.637	6.93
515.986	6.96
516.334	6.98
516.683	6.95
517.032	7.02
517.38	7.07
517.729	6.9
518.077	7.05
518.426	7.04
518.774	7
519.122	6.89
519.47	6.88
519.819	6.97
520.167	6.91
520.515	6.88
520.863	6.85
521.211	6.87
521.559	6.92
521.907	6.81
522.255	6.93
522.602	6.98
522.95	6.78
523.298	6.94
523.645	6.93
523.993	6.89
524.341	6.93
524.688	6.91
525.036	6.82
525.383	6.87
525.73	6.99
526.078	6.95
526.425	6.89
526.772	6.94
527.119	6.78
527.466	6.72
527.814	6.76
528.161	6.72
528.508	6.75
528.854	6.73
529.201	6.75
529.548	6.68
529.895	6.72
530.242	6.59
530.588	6.55
530.935	6.53
531.282	6.5
531.628	6.53
531.975	6.48
532.321	6.49
532.667	6.55
533.014	6.67
533.36	6.65
533.706	6.71
534.052	6.82
534.399	6.7
534.745	6.72
535.091	6.61
535.437	6.6
535.783	6.56
536.129	6.61
536.474	6.64
536.82	6.53
537.166	6.69
537.512	6.69
537.857	6.67
538.203	6.74
538.549	6.67
538.894	6.56
539.239	6.63
539.585	6.58
539.93	6.76
540.276	6.56
540.621	6.7
540.966	6.66
541.311	6.72
541.656	6.66
542.001	6.7
542.346	6.64
542.691	6.64
543.036	6.63
543.381	6.52
543.726	6.52
544.071	6.5
544.415	6.46
544.76	6.45
545.105	6.43
545.449	6.57
545.794	6.65
546.138	6.61
546.483	6.48
546.827	6.59
547.171	6.59
547.516	6.62
547.86	6.69
548.204	6.65
548.548	6.58
548.892	6.61
549.236	6.58
549.58	6.66
549.924	6.66
550.268	6.69
550.612	6.59
550.956	6.59
551.3	6.64
551.643	6.69
551.987	6.68
552.33	6.73
552.674	6.56
553.017	6.64
553.361	6.65
553.704	6.75
554.048	6.82
554.391	6.73
554.734	6.78
555.077	6.67
555.42	6.62
555.764	6.62
556.107	6.71
556.45	6.61
556.793	6.65
557.135	6.6
557.478	6.43
557.821	6.6
558.164	6.77
558.507	6.71
558.849	6.63
559.192	6.63
559.534	6.72
559.877	6.59
560.219	6.59
560.562	6.58
560.904	6.76
561.246	6.85
561.589	6.65
561.931	6.68
562.273	6.55
562.615	6.62
562.957	6.65
563.299	6.63
563.641	6.61
563.983	6.64
564.325	6.68
564.667	6.58
565.008	6.46
565.35	6.59
565.692	6.61
566.033	6.75
566.375	6.6
566.716	6.56
567.058	6.59
567.399	6.74
567.741	6.63
568.082	6.54
568.423	6.56
568.764	6.73
569.105	6.36
569.447	6.44
569.788	6.41
570.129	6.74
570.47	6.68
570.811	6.56
571.151	6.52
571.492	6.66
571.833	6.42
572.174	6.49
572.514	6.51
572.855	6.54
573.195	6.35
573.536	6.51
573.876	6.64
574.217	6.5
574.557	6.49
574.898	6.69
575.238	6.4
575.578	6.5
575.918	6.58
576.258	6.4
576.598	6.53
576.938	6.5
577.278	6.63
577.618	6.32
577.958	6.45
578.298	6.41
578.638	6.38
578.977	6.51
579.317	6.52
579.657	6.46
579.996	6.46
580.336	6.5
580.675	6.6
581.014	6.37
581.354	6.54
581.693	6.46
582.032	6.69
582.372	6.63
582.711	6.5
583.05	6.55
583.389	6.65
583.728	6.54
584.067	6.63
584.406	6.52
584.745	6.1
585.083	6.54
585.422	6.77
585.761	6.47
586.1	6.3
586.438	6.6
586.777	6.61
587.115	6.6
587.454	6.42
587.792	6.66
588.13	6.51
588.469	6.59
588.807	6.71
589.145	6.62
589.483	6.44
589.821	6.5
590.159	6.47
590.497	6.53
590.835	6.64
591.173	6.41
591.511	6.41
591.849	6.62
592.187	6.39
592.524	6.51
592.862	6.58
593.2	6.47
593.537	6.34
593.875	6.63
594.212	6.4
594.55	6.65
594.887	6.43
595.224	6.66
595.561	6.44
595.899	6.29
596.236	6.71
596.573	6.79
596.91	6.49
597.247	6.34
597.584	6.55
597.921	6.54
598.258	6.63
598.594	6.35
598.931	6.45
599.268	6.46
599.604	6.6
599.941	6.55
600.277	6.31
600.614	6.39
600.95	6.43
601.287	6.27
601.623	6.51
601.959	6.57
602.296	6.4
602.632	6.44
602.968	6.33
603.304	6.49
603.64	6.31
603.976	6.58
604.312	6.28
604.648	6.65
604.984	6.47
605.319	6.41
605.655	6.45
605.991	6.54
606.326	6.38
606.662	6.5
606.998	6.3
607.333	6.48
607.668	6.48
608.004	6.48
608.339	6.26
608.674	6.34
609.01	6.28
609.345	6.57
609.68	6.55
610.015	6.62
610.35	6.44
610.685	6.54
611.02	6.51
611.355	6.61
611.689	6.3
612.024	6.53
612.359	6.47
612.694	6.45
613.028	6.41
613.363	6.39
613.697	6.3
614.032	6.51
614.366	6.15
614.7	6.51
615.035	6.29
615.369	6.27
615.703	6.57
616.037	6.19
616.371	6.67
616.705	6.43
617.039	6.58
617.373	6.56
617.707	6.37
618.041	6.38
618.375	6.65
618.709	6.51
619.042	6.59
619.376	6.25
619.71	6.42
620.043	6.1
620.377	6.25
620.71	6.62
621.043	6.52
621.377	6.41
621.71	6.62
622.043	6.52
622.376	6.98
622.709	6.67
623.043	6.35
623.376	6.2
623.709	6.57
624.041	6.2
624.374	6.48
624.707	6.48
625.04	6.72
625.373	6.09
625.705	6.51
626.038	6.37
626.37	6.75
626.703	6.81
627.035	6.53
627.368	6.7
627.7	6.62
628.032	6.4
628.365	6.6
628.697	6.62
629.029	6.48
629.361	6.58
629.693	6.33
630.025	6.41
630.357	6.35
630.689	6.64
631.021	6.39
631.353	6.5
631.684	6.38
632.016	6.78
632.348	6.42
632.679	6.18
633.011	6.38
633.342	6.65
633.674	6.97
634.005	6.37
634.336	6.65
634.668	6.44
634.999	6.7
635.33	6.4
635.661	6.38
635.992	6.48
636.323	6.39
636.654	6.58
636.985	6.35
637.316	6.21
637.647	6.62
637.977	5.71
638.308	6.84
638.639	6.42
638.969	6.52
639.3	6.74
639.63	6.75
639.961	6.34
640.291	6.34
640.622	6.62
640.952	6.86
641.282	6.61
641.612	6.48
641.943	6.4
642.273	6.75
642.603	6.85
642.933	6.71
643.263	6.1
643.592	6.55
643.922	7.16
644.252	6.38
644.582	6.78
644.911	6.45
645.241	6.68
645.571	6.26
645.9	6.47
646.23	6.62
646.559	6.66
646.888	6.4
647.218	6.41
647.547	6.39
647.876	6.28
648.205	6.45
648.534	6.74
648.863	6.02
649.192	6.23
649.521	6.92
649.85	6.64
650.179	6.62
650.508	6.34
650.837	6.8
651.165	6.71
651.494	6.46
651.822	6.18
652.151	6.29
652.479	6.35
652.808	6.65
653.136	6.9
653.465	6.8
653.793	6.34
654.121	7.02
654.449	6.33
654.777	6.57
655.105	6.8
655.433	7.02
655.761	6.67
656.089	6.93
656.417	6.47
656.745	6.88
657.073	6.72
657.4	7.21
657.728	6.55
658.056	6.59
658.383	6.59
658.711	6.44
659.038	6.28
659.365	6.41
659.693	6.26
660.02	6.9
660.347	6.97
660.674	6.23
661.001	6.14
661.329	6.73
661.656	6.62
661.982	6.26
662.309	6.65
662.636	6.44
662.963	6.63
663.29	6.73
663.616	6.8
663.943	6.58
664.27	6.51
664.596	6.31
664.923	6.79
665.249	6.96
665.576	6.66
665.902	6.7
666.228	6.61
666.554	6.37
666.881	6.95
667.207	6.61
667.533	6.84
667.859	6.94
668.185	7.04
668.511	7.49
668.837	6.42
669.162	6.99
669.488	6.89
669.814	6.56
670.139	6.96
670.465	7.25
670.791	6.51
671.116	6.82
671.442	7.12
671.767	6.13
672.092	7.08
672.418	7.34
672.743	6.82
673.068	6.59
673.393	6.42
673.718	6.68
674.043	7.22
674.368	7.15
674.693	7.1
675.018	6.63
675.343	6.58
675.667	6.94
675.992	7
676.317	6.84
676.641	6.87
676.966	7.54
677.29	6.34
677.615	6.75
677.939	7
678.264	6.92
678.588	7.3
678.912	7.26
679.236	6.98
679.56	6.68
679.885	7.28
680.209	7.88
680.532	7.06
680.856	6.49
681.18	7.04
681.504	7.08
681.828	6.94
682.152	7.07
682.475	7.27
682.799	7.24
683.122	6.83
683.446	6.31
683.769	6.58
684.093	7.54
684.416	7.21
684.739	6.54
685.062	7.3
685.386	6.97
685.709	6.93
686.032	6.43
686.355	6.47
686.678	6.76
687.001	7.4
687.324	7.51
687.646	6.99
687.969	6.95
688.292	6.96
688.614	7.12
688.937	7.02
689.26	6.43
689.582	7.38
689.904	7.04
690.227	7.66
690.549	7.62
690.871	7.65
691.194	7.13
691.516	6.97
