Data from 0230_crown_Reflection__0__303.txt Node

Date: Fri Sep 22 23:07:03 CDT 2023
User: ToomeyLab
Spectrometer: FLMS14357
Trigger mode: 0
Integration Time (sec): 1.000000E-2
Scans to average: 100
Electric dark correction enabled: true
Nonlinearity correction enabled: false
Boxcar width: 0
XAxis mode: Wavelengths
Number of Pixels in Spectrum: 2048
>>>>>Begin Spectral Data<<<<<
189.047	647
189.435	647
189.823	647
190.211	30.04
190.599	-25.93
190.987	-102.59
191.375	304.84
191.763	323.1
192.151	63.83
192.538	2.28
192.926	39.67
193.314	108.94
193.702	1556.35
194.089	73.74
194.477	-37.12
194.864	85.66
195.252	174.77
195.639	512.08
196.027	71.52
196.414	248.98
196.801	33.35
197.189	38.85
197.576	42.98
197.963	-24.69
198.351	22.64
198.738	-1.54
199.125	16.31
199.512	15.89
199.899	32.74
200.286	-2.87
200.673	2.77
201.06	-16.74
201.447	75.04
201.833	10.82
202.22	17.39
202.607	28.23
202.994	27.55
203.38	32.47
203.767	15.39
204.154	32.33
204.54	10.51
204.927	-11.51
205.313	53.6
205.699	50.77
206.086	26.83
206.472	36.72
206.858	-4.31
207.245	6.97
207.631	33.31
208.017	31.31
208.403	18.98
208.789	22.18
209.175	40.78
209.561	33.9
209.947	28.73
210.333	26.42
210.719	-3.02
211.105	12.91
211.491	57.3
211.876	28.81
212.262	-12.19
212.648	9.25
213.034	20.02
213.419	25.24
213.805	16.1
214.19	14.05
214.576	23.67
214.961	13.15
215.346	4.82
215.732	22.2
216.117	0.38
216.502	34.38
216.888	26.1
217.273	4.92
217.658	19.27
218.043	18.52
218.428	17.5
218.813	-9.87
219.198	28.23
219.583	0.76
219.968	-14.55
220.353	43.14
220.738	-4.27
221.122	3.77
221.507	1.62
221.892	-17.74
222.276	1.22
222.661	-31.87
223.046	22.21
223.43	28.66
223.815	-5.68
224.199	-7.48
224.583	6.91
224.968	21.53
225.352	-9.32
225.736	11.11
226.121	20.31
226.505	17.92
226.889	10.99
227.273	8.04
227.657	6.37
228.041	6.61
228.425	11.53
228.809	6.2
229.193	6.03
229.577	8.98
229.961	8.75
230.344	7.92
230.728	4.74
231.112	6.15
231.495	5.31
231.879	5.88
232.263	5.31
232.646	5.42
233.03	5.37
233.413	5.59
233.797	7.44
234.18	7.9
234.563	8.76
234.946	7.8
235.33	4.75
235.713	3.19
236.096	6.66
236.479	5.1
236.862	8.11
237.245	6.32
237.628	7.39
238.011	6.81
238.394	6.34
238.777	8.98
239.16	7.32
239.543	6.59
239.925	7.01
240.308	6.11
240.691	5.41
241.073	8.41
241.456	6.22
241.838	4.55
242.221	6.09
242.603	5.29
242.986	5.24
243.368	5.18
243.75	5.85
244.133	5.73
244.515	5.65
244.897	5.49
245.279	5.91
245.661	5.63
246.043	5.96
246.425	4.8
246.807	5.33
247.189	4.38
247.571	5.47
247.953	5.93
248.335	5.46
248.717	5.69
249.098	5.83
249.48	5.37
249.862	5.28
250.243	5.33
250.625	5.89
251.006	5.29
251.388	5.81
251.769	5.92
252.151	5.84
252.532	5.63
252.913	4.82
253.295	6.51
253.676	5.41
254.057	5.55
254.438	5.75
254.819	4.7
255.2	5.4
255.581	4.24
255.962	6.39
256.343	5.2
256.724	3.17
257.105	6.74
257.486	5.25
257.867	5.22
258.247	6.28
258.628	5.84
259.009	5.11
259.389	4.65
259.77	4.73
260.15	5.73
260.531	4.83
260.911	5.12
261.292	4.87
261.672	4.68
262.052	4.76
262.432	4.87
262.813	4.89
263.193	4.64
263.573	5.66
263.953	5.12
264.333	4.78
264.713	5.17
265.093	4.61
265.473	5.15
265.853	4.19
266.233	4.77
266.612	5.29
266.992	5.11
267.372	5.49
267.752	4.77
268.131	5.35
268.511	4.47
268.89	4.78
269.27	4.9
269.649	4.81
270.029	4.56
270.408	4.48
270.787	4.65
271.167	4.87
271.546	4.24
271.925	4.61
272.304	4.86
272.683	4.86
273.062	5.58
273.441	4.7
273.82	5.14
274.199	4.83
274.578	5.04
274.957	4.81
275.336	4.55
275.715	4.93
276.093	4.25
276.472	4.33
276.851	4.88
277.229	3.54
277.608	4.66
277.986	4.03
278.365	5.52
278.743	4.75
279.122	4.95
279.5	4.97
279.878	4.7
280.257	5.06
280.635	4.48
281.013	4.69
281.391	3.99
281.769	4.18
282.147	4.63
282.525	4.04
282.903	4.62
283.281	5.19
283.659	4.84
284.037	4.4
284.415	4.14
284.792	5.09
285.17	4.42
285.548	4.82
285.925	4.21
286.303	4.62
286.68	4.1
287.058	4.02
287.435	4.53
287.813	4.34
288.19	4.08
288.567	4.51
288.945	4.3
289.322	4.39
289.699	4.01
290.076	4.86
290.453	4.34
290.83	4.16
291.207	4.47
291.584	3.96
291.961	4.31
292.338	4.22
292.715	4.39
293.092	4.08
293.469	4.38
293.845	4.37
294.222	4.36
294.599	4.49
294.975	4.55
295.352	4.24
295.728	4.37
296.105	4.49
296.481	4.71
296.858	4.4
297.234	4.24
297.61	4.02
297.986	4.33
298.363	3.87
298.739	3.8
299.115	4.72
299.491	4.66
299.867	4.32
300.243	4.1
300.619	4.19
300.995	3.77
301.371	4.52
301.746	4.13
302.122	3.69
302.498	4.08
302.874	3.86
303.249	4.27
303.625	3.97
304	4.79
304.376	4.31
304.751	4.79
305.127	4.57
305.502	4.98
305.878	4.15
306.253	4.31
306.628	4.28
307.003	4.05
307.378	4.1
307.754	4.24
308.129	3.61
308.504	4.24
308.879	4.06
309.254	4.31
309.629	3.95
310.003	4.78
310.378	4.5
310.753	4.18
311.128	4.21
311.502	4.12
311.877	3.75
312.252	4.32
312.626	4.42
313.001	4.21
313.375	4.31
313.75	4.3
314.124	4.5
314.498	3.89
314.873	4.17
315.247	4.35
315.621	4.01
315.995	3.62
316.369	3.36
316.743	4.63
317.117	4.32
317.491	4.35
317.865	3.73
318.239	4.29
318.613	4.62
318.987	4.6
319.361	3.47
319.734	3.79
320.108	4.57
320.482	4.04
320.855	4.38
321.229	4.91
321.602	4.49
321.976	4.35
322.349	4.06
322.723	4.22
323.096	4.39
323.469	4.14
323.843	3.72
324.216	4.09
324.589	3.84
324.962	3.5
325.335	3.8
325.708	3.96
326.081	4.36
326.454	3.91
326.827	4.11
327.2	3.86
327.573	4.22
327.945	4.07
328.318	4.69
328.691	4.27
329.063	3.74
329.436	3.9
329.809	4.29
330.181	4.39
330.553	3.57
330.926	4.45
331.298	4.3
331.671	4.06
332.043	3.76
332.415	3.77
332.787	4.67
333.159	4.11
333.532	3.97
333.904	3.91
334.276	3.88
334.648	3.86
335.02	3.79
335.391	4.07
335.763	4.7
336.135	4.19
336.507	4.01
336.879	3.68
337.25	4.17
337.622	4.16
337.993	4.29
338.365	4.65
338.736	4.04
339.108	4.64
339.479	4.34
339.851	3.7
340.222	4.02
340.593	3.66
340.964	3.96
341.336	4.04
341.707	4.31
342.078	3.97
342.449	4.47
342.82	4
343.191	3.87
343.562	4.05
343.933	4.39
344.303	3.96
344.674	4.5
345.045	4.04
345.416	4.05
345.786	3.62
346.157	4.13
346.527	4.03
346.898	4.27
347.268	3.69
347.639	4.2
348.009	3.93
348.38	4.27
348.75	4.12
349.12	3.83
349.49	4.36
349.861	4.05
350.231	4.55
350.601	4.56
350.971	4.58
351.341	4
351.711	4.36
352.081	3.82
352.45	4.1
352.82	4.44
353.19	4.28
353.56	4.16
353.929	4.54
354.299	4.22
354.669	3.81
355.038	4.25
355.408	4.13
355.777	4.34
356.147	4.35
356.516	4.25
356.885	4.18
357.254	4.24
357.624	3.78
357.993	4.37
358.362	4.18
358.731	3.94
359.1	4.2
359.469	4.26
359.838	3.91
360.207	3.92
360.576	4.36
360.945	3.98
361.314	4.04
361.682	4.34
362.051	4.11
362.42	4.19
362.788	4.11
363.157	4.33
363.525	4.09
363.894	3.85
364.262	4.04
364.631	4.09
364.999	3.99
365.367	4.16
365.735	4.12
366.104	4.33
366.472	4.5
366.84	4.04
367.208	4.54
367.576	4.41
367.944	4.15
368.312	4.36
368.68	4.22
369.048	4.52
369.416	3.97
369.783	4.09
370.151	4.03
370.519	4.28
370.886	4.13
371.254	4.68
371.621	4.21
371.989	4.27
372.356	4.31
372.724	4.78
373.091	4.48
373.458	4.43
373.826	4.5
374.193	4.59
374.56	4.36
374.927	4.45
375.294	4.24
375.661	4.2
376.028	4.05
376.395	4.41
376.762	4.32
377.129	4.63
377.496	4.33
377.863	4.39
378.229	4.42
378.596	4.29
378.963	4.75
379.329	4.34
379.696	4.72
380.062	4.22
380.429	4.28
380.795	4.17
381.161	4.49
381.528	4.3
381.894	4.24
382.26	4.3
382.626	4.43
382.993	4.44
383.359	4.24
383.725	4.23
384.091	4.41
384.457	4.17
384.823	4.3
385.188	4.4
385.554	4.76
385.92	4.71
386.286	4.54
386.651	4.25
387.017	4.47
387.383	4.43
387.748	4.33
388.114	4.49
388.479	4.5
388.845	4.18
389.21	4.23
389.575	4.63
389.94	3.99
390.306	4.38
390.671	4.65
391.036	4.29
391.401	4.32
391.766	4.4
392.131	4.35
392.496	4.51
392.861	4.4
393.226	4.75
393.591	4.55
393.956	4.32
394.32	4.52
394.685	4.5
395.05	4.68
395.414	4.37
395.779	4.54
396.143	4.65
396.508	4.47
396.872	4.22
397.236	4.45
397.601	4.33
397.965	4.66
398.329	4.36
398.694	4.42
399.058	4.51
399.422	4.54
399.786	4.65
400.15	4.52
400.514	4.51
400.878	4.43
401.242	4.72
401.605	4.5
401.969	4.36
402.333	4.59
402.697	4.48
403.06	4.48
403.424	4.6
403.787	4.68
404.151	4.7
404.514	4.74
404.878	4.68
405.241	4.81
405.604	4.57
405.968	4.48
406.331	4.56
406.694	4.63
407.057	4.45
407.42	4.65
407.783	4.73
408.146	4.66
408.509	4.55
408.872	4.59
409.235	4.66
409.598	4.47
409.961	4.67
410.323	4.68
410.686	4.59
411.049	4.91
411.411	4.7
411.774	4.62
412.136	4.87
412.499	4.41
412.861	4.59
413.223	4.62
413.586	4.65
413.948	4.72
414.31	4.65
414.672	4.7
415.035	4.49
415.397	4.91
415.759	4.98
416.121	4.48
416.483	4.53
416.845	4.71
417.206	4.49
417.568	4.7
417.93	4.59
418.292	4.61
418.653	4.44
419.015	4.62
419.377	4.69
419.738	4.82
420.1	4.56
420.461	4.63
420.822	4.59
421.184	4.63
421.545	4.55
421.906	4.57
422.267	4.62
422.629	4.62
422.99	4.48
423.351	4.49
423.712	4.5
424.073	4.58
424.434	4.57
424.795	4.58
425.155	4.61
425.516	4.52
425.877	4.58
426.238	4.45
426.598	4.53
426.959	4.59
427.32	4.63
427.68	4.59
428.041	4.6
428.401	4.67
428.761	4.63
429.122	4.7
429.482	4.77
429.842	4.68
430.202	4.57
430.563	4.77
430.923	4.75
431.283	4.88
431.643	4.65
432.003	4.84
432.363	4.75
432.722	4.76
433.082	4.78
433.442	4.78
433.802	4.79
434.161	4.84
434.521	4.75
434.881	4.68
435.24	4.72
435.6	4.57
435.959	4.55
436.319	4.54
436.678	4.88
437.037	4.82
437.396	4.74
437.756	4.68
438.115	4.76
438.474	4.73
438.833	5.04
439.192	4.72
439.551	4.77
439.91	4.97
440.269	4.83
440.628	4.59
440.987	4.71
441.345	4.93
441.704	4.78
442.063	4.73
442.421	4.69
442.78	4.73
443.138	4.76
443.497	4.72
443.855	4.74
444.214	4.68
444.572	4.82
444.93	4.89
445.288	4.81
445.647	5.02
446.005	4.87
446.363	4.61
446.721	4.79
447.079	4.71
447.437	4.75
447.795	4.92
448.153	4.64
448.51	4.73
448.868	4.76
449.226	4.74
449.584	4.72
449.941	4.74
450.299	4.85
450.656	4.82
451.014	4.91
451.371	4.83
451.729	4.96
452.086	4.83
452.443	4.91
452.801	4.88
453.158	4.85
453.515	5.03
453.872	4.78
454.229	4.9
454.586	4.88
454.943	4.89
455.3	4.91
455.657	4.89
456.014	4.91
456.371	5.06
456.727	5.11
457.084	4.89
457.441	4.85
457.797	5.05
458.154	5.04
458.51	4.81
458.867	4.91
459.223	4.77
459.58	5.07
459.936	4.95
460.292	4.89
460.648	5.06
461.005	4.81
461.361	5.05
461.717	4.69
462.073	4.86
462.429	4.8
462.785	4.88
463.141	4.73
463.496	5.07
463.852	4.94
464.208	4.97
464.564	5.14
464.919	4.99
465.275	4.98
465.631	5.1
465.986	5.05
466.342	4.98
466.697	5.05
467.052	4.89
467.408	5.16
467.763	5.01
468.118	5.11
468.473	5.04
468.829	4.86
469.184	5.1
469.539	5.04
469.894	5.03
470.249	5.08
470.603	5.15
470.958	5.14
471.313	5.07
471.668	5.07
472.023	5.05
472.377	5.06
472.732	5.06
473.086	5.31
473.441	4.88
473.795	5.32
474.15	4.97
474.504	4.92
474.859	5.01
475.213	4.83
475.567	4.97
475.921	5.01
476.275	4.94
476.63	5.14
476.984	4.88
477.338	5.2
477.692	5.07
478.045	5.14
478.399	5.19
478.753	5.01
479.107	5
479.461	5
479.814	5.15
480.168	5.03
480.521	5.08
480.875	5.17
481.228	5.02
481.582	5.04
481.935	4.93
482.289	5.06
482.642	4.91
482.995	5
483.348	5.07
483.701	5.01
484.055	4.85
484.408	4.89
484.761	4.98
485.114	4.77
485.466	4.73
485.819	4.69
486.172	4.69
486.525	4.67
486.878	4.68
487.23	4.79
487.583	4.8
487.936	4.86
488.288	4.88
488.641	4.82
488.993	4.88
489.345	4.81
489.698	4.78
490.05	4.73
490.402	4.8
490.754	4.73
491.107	4.76
491.459	4.9
491.811	4.87
492.163	4.93
492.515	4.97
492.866	4.97
493.218	4.98
493.57	4.9
493.922	4.78
494.274	4.79
494.625	4.83
494.977	4.98
495.328	4.99
495.68	5.02
496.031	5.03
496.383	5.12
496.734	5.11
497.086	5.03
497.437	5.07
497.788	5.08
498.139	5.26
498.49	5.17
498.842	4.96
499.193	5.01
499.544	5.12
499.894	4.97
500.245	5.1
500.596	5.11
500.947	5.16
501.298	5.16
501.648	5.07
501.999	5.15
502.35	5.06
502.7	5.09
503.051	5.14
503.401	5.01
503.752	5.21
504.102	4.98
504.452	5.02
504.803	5.1
505.153	5.08
505.503	5.13
505.853	5.26
506.203	5.16
506.553	5.1
506.903	5.17
507.253	5.03
507.603	5.1
507.953	5.24
508.303	5.27
508.652	5.04
509.002	5.13
509.352	5.2
509.701	5.13
510.051	5.11
510.4	5.07
510.75	4.96
511.099	4.88
511.449	5.04
511.798	5.06
512.147	5.07
512.496	4.96
512.846	5.05
513.195	5.02
513.544	5.13
513.893	5.17
514.242	5.09
514.591	5.1
514.939	5.1
515.288	4.96
515.637	5.01
515.986	5.05
516.334	5.1
516.683	5.21
517.032	5.14
517.38	5.17
517.729	5
518.077	5.2
518.426	5.07
518.774	5.13
519.122	5.14
519.47	5.09
519.819	5.12
520.167	5.07
520.515	5.08
520.863	4.99
521.211	5
521.559	5
521.907	5
522.255	5.04
522.602	5
522.95	5.1
523.298	5.18
523.645	5.13
523.993	5.11
524.341	5.13
524.688	5.14
525.036	5.08
525.383	5.14
525.73	5.13
526.078	5.14
526.425	5.1
526.772	5.15
527.119	5.12
527.466	4.92
527.814	4.87
528.161	4.89
528.508	5.03
528.854	5.03
529.201	5.04
529.548	4.98
529.895	4.9
530.242	4.9
530.588	4.82
530.935	4.75
531.282	4.77
531.628	4.82
531.975	4.77
532.321	4.85
532.667	4.93
533.014	4.96
533.36	5
533.706	5.06
534.052	5.01
534.399	5.02
534.745	5.01
535.091	4.97
535.437	4.86
535.783	4.81
536.129	4.85
536.474	5.02
536.82	4.9
537.166	4.98
537.512	4.99
537.857	5.03
538.203	5.16
538.549	4.97
538.894	4.94
539.239	4.9
539.585	4.9
539.93	5.09
540.276	5.08
540.621	5.09
540.966	5.13
541.311	5.11
541.656	5.01
542.001	5.03
542.346	5.05
542.691	5.11
543.036	4.96
543.381	4.84
543.726	4.79
544.071	4.83
544.415	4.88
544.76	4.85
545.105	4.87
545.449	4.89
545.794	5
546.138	4.95
546.483	4.97
546.827	4.98
547.171	4.99
547.516	5.11
547.86	5.01
548.204	5.03
548.548	5.15
548.892	5.07
549.236	4.96
549.58	5
549.924	5.19
550.268	5.22
550.612	5
550.956	5.01
551.3	5.09
551.643	5.1
551.987	5.19
552.33	5.18
552.674	5.11
553.017	5.01
553.361	5
553.704	5.19
554.048	5.24
554.391	5.07
554.734	5.22
555.077	5.09
555.42	5.02
555.764	5.12
556.107	5.26
556.45	5.13
556.793	5.07
557.135	5.21
557.478	5.06
557.821	5.12
558.164	5.38
558.507	5.3
558.849	5.05
559.192	5.24
559.534	5.39
559.877	5.23
560.219	5.24
560.562	5.31
560.904	5.22
561.246	5.33
561.589	5.38
561.931	5.22
562.273	4.98
562.615	5.13
562.957	5.23
563.299	5.23
563.641	5.16
563.983	5.25
564.325	5.16
564.667	5.18
565.008	5.17
565.35	5.25
565.692	5.39
566.033	5.15
566.375	5.21
566.716	5.25
567.058	5.13
567.399	5.26
567.741	5.42
568.082	5.05
568.423	5.18
568.764	5.4
569.105	5.11
569.447	5.08
569.788	4.98
570.129	5.16
570.47	5.19
570.811	5.03
571.151	5.39
571.492	5.25
571.833	5.14
572.174	5.06
572.514	5.22
572.855	5.11
573.195	5.07
573.536	5.1
573.876	5.1
574.217	5.13
574.557	5.04
574.898	5.17
575.238	5.13
575.578	5.35
575.918	5.05
576.258	5.02
576.598	5.01
576.938	5.2
577.278	5.17
577.618	5.12
577.958	5.19
578.298	5.33
578.638	5.07
578.977	5.22
579.317	5.18
579.657	5.2
579.996	5.29
580.336	5.12
580.675	5.26
581.014	4.94
581.354	5.11
581.693	5.26
582.032	5.28
582.372	5.22
582.711	5.32
583.05	5.19
583.389	5.13
583.728	5.3
584.067	5.27
584.406	5.28
584.745	5.18
585.083	5.34
585.422	5.33
585.761	5.25
586.1	5.05
586.438	5.13
586.777	5.12
587.115	5.29
587.454	5.02
587.792	5.44
588.13	5.35
588.469	5
588.807	5.28
589.145	5.29
589.483	5.27
589.821	5.09
590.159	5.25
590.497	5.43
590.835	5.31
591.173	5.1
591.511	5.14
591.849	5.3
592.187	5.3
592.524	5.39
592.862	5.24
593.2	5.19
593.537	5.12
593.875	5.28
594.212	5.31
594.55	5.5
594.887	5.15
595.224	5.43
595.561	5.18
595.899	5.51
596.236	5.68
596.573	5.55
596.91	5.36
597.247	5.21
597.584	5.26
597.921	5.53
598.258	5.29
598.594	5.4
598.931	5.19
599.268	5.17
599.604	5.35
599.941	5.28
600.277	5.1
600.614	5.26
600.95	5.23
601.287	5.12
601.623	5.25
601.959	5.45
602.296	5.4
602.632	5.15
602.968	5.27
603.304	5.29
603.64	5.15
603.976	5.29
604.312	5.3
604.648	5.54
604.984	5.57
605.319	5.03
605.655	5.35
605.991	5.46
606.326	5.41
606.662	5.12
606.998	5.14
607.333	5.39
607.668	5.2
608.004	5.43
608.339	5.1
608.674	5.46
609.01	5.43
609.345	5.22
609.68	5.47
610.015	5.25
610.35	5.46
610.685	5.62
611.02	5.5
611.355	5.26
611.689	5.28
612.024	5.4
612.359	5.08
612.694	5.17
613.028	5.16
613.363	5.17
613.697	5.32
614.032	5.33
614.366	5.33
614.7	5.22
615.035	5.42
615.369	5.46
615.703	5.29
616.037	5.54
616.371	5.49
616.705	5.59
617.039	5.52
617.373	5.39
617.707	5.16
618.041	5.66
618.375	5.51
618.709	5.07
619.042	5.48
619.376	6.02
619.71	5.26
620.043	5.29
620.377	5.09
620.71	5.38
621.043	5.55
621.377	5.38
621.71	5.38
622.043	5.25
622.376	5.53
622.709	5.2
623.043	5.54
623.376	5.66
623.709	5.59
624.041	5.61
624.374	5.65
624.707	5.45
625.04	5.96
625.373	5.42
625.705	5.69
626.038	5.76
626.37	5.69
626.703	5.5
627.035	5.62
627.368	5.27
627.7	5.72
628.032	5.7
628.365	5.37
628.697	5.61
629.029	5.56
629.361	5.62
629.693	5.61
630.025	5.42
630.357	5.38
630.689	5.44
631.021	5.19
631.353	5.44
631.684	5.51
632.016	5.73
632.348	5.53
632.679	5.3
633.011	5.43
633.342	5.38
633.674	6.11
634.005	5.43
634.336	5.81
634.668	5.54
634.999	5.71
635.33	5.77
635.661	5.51
635.992	5.55
636.323	5.46
636.654	5.28
636.985	5.39
637.316	5.64
637.647	5.89
637.977	5.12
638.308	5.82
638.639	5.39
638.969	5.59
639.3	5.47
639.63	5.9
639.961	5.47
640.291	5.56
640.622	5.71
640.952	5.76
641.282	5.53
641.612	5.68
641.943	5.77
642.273	5.44
642.603	5.31
642.933	5.63
643.263	4.96
643.592	5.72
643.922	5.52
644.252	5.19
644.582	5.89
644.911	5.81
645.241	5.97
645.571	5.68
645.9	5.54
646.23	6.14
646.559	5.96
646.888	5.44
647.218	5.65
647.547	5.44
647.876	5.29
648.205	5.07
648.534	6
648.863	5.88
649.192	5.14
649.521	5.88
649.85	6.24
650.179	5.55
650.508	5.31
650.837	6.2
651.165	5.53
651.494	5.25
651.822	5.78
652.151	5.57
652.479	6.19
652.808	5.53
653.136	5.68
653.465	5.59
653.793	5.91
654.121	6.08
654.449	5.6
654.777	5.57
655.105	5.63
655.433	5.77
655.761	5.88
656.089	5.8
656.417	5.71
656.745	5.76
657.073	5.9
657.4	6.55
657.728	6.02
658.056	5.97
658.383	6.11
658.711	5.59
659.038	5.75
659.365	5.67
659.693	5.39
660.02	6.23
660.347	5.96
660.674	5.86
661.001	5.41
661.329	5.59
661.656	5.96
661.982	5.66
662.309	6.07
662.636	5.69
662.963	5.47
663.29	6.05
663.616	5.77
663.943	5.94
664.27	6.02
664.596	5.72
664.923	5.85
665.249	6.39
665.576	5.78
665.902	5.86
666.228	5.98
666.554	5.33
666.881	6.61
667.207	5.82
667.533	5.97
667.859	6.33
668.185	6.05
668.511	6.74
668.837	6.21
669.162	5.5
669.488	6.05
669.814	5.73
670.139	5.89
670.465	6.6
670.791	5.77
671.116	5.53
671.442	6.49
671.767	5.53
672.092	6.21
672.418	6.1
672.743	6.07
673.068	6.16
673.393	5.52
673.718	6.12
674.043	6.2
674.368	6.35
674.693	5.71
675.018	5.76
675.343	6.47
675.667	6.31
675.992	6
676.317	6.86
676.641	6.24
676.966	6.27
677.29	6.12
677.615	6.77
677.939	5.87
678.264	6.33
678.588	6.25
678.912	6.31
679.236	6.15
679.56	6.07
679.885	6.08
680.209	6.56
680.532	5.62
680.856	5.44
681.18	6.54
681.504	6.01
681.828	6.49
682.152	6.53
682.475	6.74
682.799	6.26
683.122	6.02
683.446	6
683.769	6.29
684.093	6.42
684.416	5.83
684.739	5.95
685.062	6.86
685.386	6.31
685.709	6.65
686.032	6.24
686.355	6.11
686.678	6.06
687.001	6.82
687.324	7.27
687.646	6.45
687.969	7.09
688.292	6.9
688.614	7.09
688.937	6.2
689.26	6.2
689.582	6.55
689.904	6.03
690.227	7.13
690.549	6.5
690.871	6.23
691.194	5.83
691.516	6.49
691.838	6.4
692.16	5.83
692.482	6
692.804	5.86
693.126	5.7
693.448	7.17
