Data from 0230_chest_Reflection__2__300.txt Node

Date: Fri Sep 22 23:05:44 CDT 2023
User: ToomeyLab
Spectrometer: FLMS14357
Trigger mode: 0
Integration Time (sec): 1.000000E-2
Scans to average: 100
Electric dark correction enabled: true
Nonlinearity correction enabled: false
Boxcar width: 0
XAxis mode: Wavelengths
Number of Pixels in Spectrum: 2048
>>>>>Begin Spectral Data<<<<<
189.047	93.42
189.435	93.42
189.823	93.42
190.211	55.2
190.599	-77.79
190.987	59.17
191.375	323.59
191.763	290.48
192.151	3.93
192.538	5.07
192.926	97.99
193.314	96.77
193.702	3069.06
194.089	54.16
194.477	-76.7
194.864	42.91
195.252	456.2
195.639	646.83
196.027	69.22
196.414	188
196.801	3.55
197.189	-175.88
197.576	69.38
197.963	-143.49
198.351	21.87
198.738	18.2
199.125	-5.52
199.512	20.12
199.899	32.81
200.286	-11.46
200.673	62.67
201.06	40.04
201.447	45.92
201.833	-0.91
202.22	14.06
202.607	35.05
202.994	46.14
203.38	30.28
203.767	6.79
204.154	38.78
204.54	6.61
204.927	13.59
205.313	41.33
205.699	65.15
206.086	38.36
206.472	47.71
206.858	69.1
207.245	7.95
207.631	48.95
208.017	46.05
208.403	16.81
208.789	36.91
209.175	30.35
209.561	32.35
209.947	55.37
210.333	38.36
210.719	7.85
211.105	15.05
211.491	-13.01
211.876	53.32
212.262	32.23
212.648	13.87
213.034	14.3
213.419	4.88
213.805	19.59
214.19	4.19
214.576	49.16
214.961	11.44
215.346	-1.75
215.732	23.29
216.117	7.99
216.502	58.21
216.888	14.84
217.273	7.7
217.658	-10.16
218.043	21.81
218.428	54.68
218.813	3.51
219.198	-2.65
219.583	10.23
219.968	-1.67
220.353	48.83
220.738	3.2
221.122	31.38
221.507	-1.72
221.892	5.61
222.276	8.92
222.661	-28.27
223.046	10.08
223.43	28.16
223.815	23.94
224.199	-6.37
224.583	12.99
224.968	8.13
225.352	14.43
225.736	14.1
226.121	20.83
226.505	8.02
226.889	9.66
227.273	10.22
227.657	4.97
228.041	12.24
228.425	11.27
228.809	8.26
229.193	5.75
229.577	11.47
229.961	7.39
230.344	9.61
230.728	6.68
231.112	7.39
231.495	6.54
231.879	6.25
232.263	6.54
232.646	6.01
233.03	6.39
233.413	7.48
233.797	7.11
234.18	6.61
234.563	8.24
234.946	6.88
235.33	4.73
235.713	7.44
236.096	6.81
236.479	5.87
236.862	9.14
237.245	7.19
237.628	7.42
238.011	9.06
238.394	4.95
238.777	8.42
239.16	8.67
239.543	7.16
239.925	6.42
240.308	7.61
240.691	8.36
241.073	6.75
241.456	7.51
241.838	6.35
242.221	7.47
242.603	8.04
242.986	6.83
243.368	6.53
243.75	7.36
244.133	6.77
244.515	6.14
244.897	6.05
245.279	6.53
245.661	6.22
246.043	6.24
246.425	6.15
246.807	6.61
247.189	4.96
247.571	5.8
247.953	5.57
248.335	6.34
248.717	6.29
249.098	6.06
249.48	5.58
249.862	5.79
250.243	5.92
250.625	6.38
251.006	5.77
251.388	6.19
251.769	6.57
252.151	5.36
252.532	6.34
252.913	5.23
253.295	6.51
253.676	5.58
254.057	5.23
254.438	5.75
254.819	5.77
255.2	6
255.581	5.78
255.962	6.62
256.343	5.86
256.724	5.26
257.105	6.01
257.486	6.55
257.867	6.57
258.247	6.38
258.628	6.27
259.009	5.73
259.389	5.85
259.77	5.94
260.15	6.08
260.531	6.2
260.911	5.4
261.292	5.42
261.672	5.11
262.052	5.25
262.432	5.34
262.813	5.62
263.193	5.31
263.573	5.86
263.953	5.42
264.333	5.57
264.713	5.43
265.093	5.45
265.473	5.13
265.853	5.44
266.233	5.21
266.612	5.45
266.992	5.47
267.372	5.92
267.752	6.12
268.131	5.11
268.511	5.12
268.89	5.76
269.27	5.33
269.649	6.11
270.029	5.28
270.408	5.52
270.787	5.07
271.167	4.92
271.546	5.32
271.925	5.27
272.304	5.34
272.683	5.4
273.062	5.66
273.441	5.2
273.82	5.6
274.199	5.56
274.578	5.79
274.957	4.99
275.336	5.19
275.715	4.95
276.093	5.42
276.472	5.38
276.851	6.05
277.229	4.57
277.608	5.61
277.986	5.22
278.365	5.64
278.743	5.3
279.122	5.26
279.5	5.79
279.878	5.13
280.257	6
280.635	5.63
281.013	6.37
281.391	5.18
281.769	5.72
282.147	5.7
282.525	5.07
282.903	5.4
283.281	5.65
283.659	5.21
284.037	4.41
284.415	5.4
284.792	4.61
285.17	5.21
285.548	5.59
285.925	4.76
286.303	5.08
286.68	4.55
287.058	4.76
287.435	5.18
287.813	4.87
288.19	4.44
288.567	5.08
288.945	4.57
289.322	5.18
289.699	5.14
290.076	5.17
290.453	4.87
290.83	4.17
291.207	4.62
291.584	4.99
291.961	4.11
292.338	4.99
292.715	5.09
293.092	5.09
293.469	4.82
293.845	4.51
294.222	4.71
294.599	5.2
294.975	5.03
295.352	5.09
295.728	5.05
296.105	4.89
296.481	4.93
296.858	4.61
297.234	4.98
297.61	5.08
297.986	4.77
298.363	4.78
298.739	4.97
299.115	5
299.491	4.84
299.867	4.75
300.243	4.3
300.619	4.88
300.995	4.87
301.371	5.35
301.746	4.9
302.122	4.91
302.498	4.66
302.874	4.3
303.249	4.66
303.625	4.79
304	5.32
304.376	4.95
304.751	4.66
305.127	4.74
305.502	4.77
305.878	4.55
306.253	4.81
306.628	4.6
307.003	4.75
307.378	4.69
307.754	5.31
308.129	4.73
308.504	4.31
308.879	4.67
309.254	4.74
309.629	4.9
310.003	5.53
310.378	5.05
310.753	5.03
311.128	4.82
311.502	4.81
311.877	4.46
312.252	4.69
312.626	4.9
313.001	4.61
313.375	5.21
313.75	4.9
314.124	5.04
314.498	4.56
314.873	4.76
315.247	4.81
315.621	5.1
315.995	4.83
316.369	4.68
316.743	4.42
317.117	4.83
317.491	5.37
317.865	4.55
318.239	4.53
318.613	4.9
318.987	4.73
319.361	4.65
319.734	4.44
320.108	5.23
320.482	4.56
320.855	4.67
321.229	5.38
321.602	4.91
321.976	4.41
322.349	4.46
322.723	5.06
323.096	4.75
323.469	4.81
323.843	4.63
324.216	4.77
324.589	4.32
324.962	4.5
325.335	4.46
325.708	4.53
326.081	5.02
326.454	4.23
326.827	4.72
327.2	4.75
327.573	5.02
327.945	4.52
328.318	4.57
328.691	5.31
329.063	4.87
329.436	4.73
329.809	4.79
330.181	4.71
330.553	4.74
330.926	4.64
331.298	5.07
331.671	5.41
332.043	4.09
332.415	4.65
332.787	4.94
333.159	4.03
333.532	4.85
333.904	4.83
334.276	4.59
334.648	4.24
335.02	4.31
335.391	4.25
335.763	4.53
336.135	4.42
336.507	5.15
336.879	3.76
337.25	4.79
337.622	4.87
337.993	4.64
338.365	5.05
338.736	4.71
339.108	4.59
339.479	4.47
339.851	4.38
340.222	4.44
340.593	4.77
340.964	4.32
341.336	4.78
341.707	4.5
342.078	4.73
342.449	4.96
342.82	4.62
343.191	4.28
343.562	4.74
343.933	5.07
344.303	4.34
344.674	4.71
345.045	4.73
345.416	5.09
345.786	4.32
346.157	4.79
346.527	4.11
346.898	4.43
347.268	4.18
347.639	4.81
348.009	4.46
348.38	4.85
348.75	4.79
349.12	4.37
349.49	4.54
349.861	4.25
350.231	4.42
350.601	4.69
350.971	4.92
351.341	4.45
351.711	4.3
352.081	4.49
352.45	4.33
352.82	4.73
353.19	4.92
353.56	4.46
353.929	4.72
354.299	4.45
354.669	4.43
355.038	4.17
355.408	4.73
355.777	5.14
356.147	4.58
356.516	4.51
356.885	4.38
357.254	4.93
357.624	4.15
357.993	4.57
358.362	4.49
358.731	4.28
359.1	4.28
359.469	4.64
359.838	4.35
360.207	4.57
360.576	4.43
360.945	4.42
361.314	4.77
361.682	4.79
362.051	4.44
362.42	4.33
362.788	4.44
363.157	4.77
363.525	4.35
363.894	4.59
364.262	4.31
364.631	4.28
364.999	4.56
365.367	4.7
365.735	4.69
366.104	4.44
366.472	4.89
366.84	4.58
367.208	4.77
367.576	4.72
367.944	4.77
368.312	4.74
368.68	4.44
369.048	4.72
369.416	4.54
369.783	4.53
370.151	4.52
370.519	4.92
370.886	4.31
371.254	4.89
371.621	4.36
371.989	4.7
372.356	4.71
372.724	4.76
373.091	4.7
373.458	4.62
373.826	4.71
374.193	4.6
374.56	4.83
374.927	4.62
375.294	4.57
375.661	4.69
376.028	4.54
376.395	4.64
376.762	4.51
377.129	4.81
377.496	4.86
377.863	4.94
378.229	4.69
378.596	4.58
378.963	4.86
379.329	4.41
379.696	4.98
380.062	4.57
380.429	4.47
380.795	4.74
381.161	4.73
381.528	4.78
381.894	4.46
382.26	4.67
382.626	4.86
382.993	5.08
383.359	4.5
383.725	4.71
384.091	4.93
384.457	4.7
384.823	4.66
385.188	4.82
385.554	4.61
385.92	5
386.286	4.74
386.651	4.61
387.017	4.85
387.383	4.86
387.748	4.56
388.114	4.63
388.479	4.86
388.845	4.34
389.21	4.58
389.575	4.77
389.94	4.51
390.306	4.93
390.671	4.9
391.036	4.55
391.401	4.6
391.766	4.45
392.131	4.84
392.496	4.48
392.861	4.47
393.226	4.83
393.591	4.71
393.956	4.75
394.32	4.78
394.685	4.63
395.05	5.09
395.414	4.74
395.779	4.74
396.143	4.66
396.508	4.81
396.872	4.69
397.236	4.81
397.601	4.48
397.965	4.75
398.329	4.84
398.694	4.78
399.058	4.61
399.422	4.69
399.786	4.82
400.15	4.88
400.514	4.69
400.878	4.72
401.242	4.75
401.605	4.71
401.969	4.56
402.333	4.96
402.697	4.77
403.06	4.86
403.424	4.64
403.787	4.96
404.151	4.95
404.514	4.74
404.878	5.01
405.241	4.97
405.604	4.76
405.968	4.83
406.331	4.78
406.694	4.73
407.057	4.74
407.42	4.73
407.783	4.84
408.146	4.89
408.509	4.66
408.872	4.83
409.235	5.03
409.598	4.69
409.961	5
410.323	4.93
410.686	4.83
411.049	4.78
411.411	4.73
411.774	4.82
412.136	4.66
412.499	4.56
412.861	4.78
413.223	4.96
413.586	4.72
413.948	4.76
414.31	4.93
414.672	4.9
415.035	4.85
415.397	5.14
415.759	5.12
416.121	4.77
416.483	4.91
416.845	4.86
417.206	4.79
417.568	4.84
417.93	4.77
418.292	4.91
418.653	4.73
419.015	4.88
419.377	4.49
419.738	4.97
420.1	4.62
420.461	4.78
420.822	4.75
421.184	4.73
421.545	4.7
421.906	4.71
422.267	4.77
422.629	4.78
422.99	4.71
423.351	4.62
423.712	4.53
424.073	4.61
424.434	4.7
424.795	4.67
425.155	4.85
425.516	4.61
425.877	4.73
426.238	4.57
426.598	4.68
426.959	4.69
427.32	4.7
427.68	4.71
428.041	4.57
428.401	4.76
428.761	4.96
429.122	4.78
429.482	4.87
429.842	4.76
430.202	4.76
430.563	4.82
430.923	5.06
431.283	4.79
431.643	4.94
432.003	4.91
432.363	5.09
432.722	4.95
433.082	4.91
433.442	4.78
433.802	4.87
434.161	4.91
434.521	4.78
434.881	4.84
435.24	4.8
435.6	4.7
435.959	4.62
436.319	4.75
436.678	4.89
437.037	4.78
437.396	4.78
437.756	4.89
438.115	4.91
438.474	4.96
438.833	4.95
439.192	4.98
439.551	4.86
439.91	4.87
440.269	4.97
440.628	4.63
440.987	4.68
441.345	4.88
441.704	4.88
442.063	4.91
442.421	4.9
442.78	4.85
443.138	4.83
443.497	4.8
443.855	4.92
444.214	4.67
444.572	4.96
444.93	4.82
445.288	4.72
445.647	5
446.005	4.89
446.363	4.77
446.721	4.93
447.079	4.77
447.437	4.91
447.795	4.85
448.153	4.79
448.51	4.95
448.868	4.75
449.226	4.79
449.584	4.75
449.941	4.71
450.299	4.88
450.656	4.86
451.014	4.8
451.371	4.79
451.729	4.9
452.086	4.86
452.443	5.04
452.801	4.99
453.158	4.99
453.515	5.02
453.872	4.86
454.229	4.92
454.586	4.92
454.943	4.87
455.3	4.83
455.657	4.85
456.014	4.92
456.371	5.04
456.727	5.08
457.084	5.02
457.441	4.87
457.797	4.98
458.154	5.14
458.51	5.01
458.867	4.98
459.223	5
459.58	4.99
459.936	5.01
460.292	4.92
460.648	5
461.005	5.08
461.361	4.98
461.717	4.82
462.073	4.88
462.429	4.81
462.785	4.84
463.141	4.92
463.496	5.11
463.852	4.96
464.208	4.9
464.564	4.96
464.919	5.05
465.275	5.19
465.631	5.12
465.986	5.18
466.342	5.06
466.697	5.07
467.052	4.97
467.408	5.09
467.763	5.08
468.118	5.22
468.473	4.92
468.829	5.06
469.184	4.96
469.539	5.04
469.894	5
470.249	5.05
470.603	5.01
470.958	5.12
471.313	5.21
471.668	4.94
472.023	5.11
472.377	5.08
472.732	5.03
473.086	5.24
473.441	4.94
473.795	5.26
474.15	5
474.504	4.94
474.859	5.2
475.213	4.97
475.567	4.92
475.921	5.07
476.275	5.21
476.63	5.07
476.984	4.96
477.338	5.4
477.692	5.12
478.045	5.22
478.399	5.32
478.753	5.11
479.107	5.2
479.461	5.08
479.814	5.21
480.168	5.14
480.521	5.12
480.875	5.16
481.228	5
481.582	5.04
481.935	5.09
482.289	4.99
482.642	4.97
482.995	4.95
483.348	5.12
483.701	5.1
484.055	5.02
484.408	5
484.761	5.02
485.114	4.84
485.466	4.84
485.819	4.77
486.172	4.71
486.525	4.71
486.878	4.77
487.23	4.86
487.583	4.89
487.936	4.94
488.288	4.96
488.641	4.87
488.993	4.89
489.345	4.83
489.698	4.82
490.05	4.87
490.402	4.81
490.754	4.8
491.107	4.88
491.459	5
491.811	4.98
492.163	5.04
492.515	5.09
492.866	5.1
493.218	5
493.57	4.98
493.922	4.89
494.274	4.9
494.625	4.99
494.977	5.02
495.328	5.12
495.68	5.2
496.031	5.15
496.383	5.24
496.734	5.26
497.086	5.16
497.437	5.24
497.788	5.16
498.139	5.31
498.49	5.32
498.842	5.13
499.193	5.17
499.544	5.32
499.894	5.15
500.245	5.21
500.596	5.21
500.947	5.27
501.298	5.27
501.648	5.35
501.999	5.36
502.35	5.36
502.7	5.38
503.051	5.33
503.401	5.38
503.752	5.4
504.102	5.32
504.452	5.38
504.803	5.31
505.153	5.36
505.503	5.28
505.853	5.48
506.203	5.28
506.553	5.37
506.903	5.44
507.253	5.25
507.603	5.36
507.953	5.51
508.303	5.43
508.652	5.34
509.002	5.51
509.352	5.33
509.701	5.43
510.051	5.4
510.4	5.41
510.75	5.42
511.099	5.27
511.449	5.31
511.798	5.43
512.147	5.47
512.496	5.46
512.846	5.35
513.195	5.35
513.544	5.5
513.893	5.56
514.242	5.38
514.591	5.43
514.939	5.4
515.288	5.31
515.637	5.44
515.986	5.38
516.334	5.46
516.683	5.47
517.032	5.58
517.38	5.57
517.729	5.56
518.077	5.52
518.426	5.52
518.774	5.56
519.122	5.56
519.47	5.51
519.819	5.48
520.167	5.46
520.515	5.41
520.863	5.39
521.211	5.41
521.559	5.42
521.907	5.4
522.255	5.58
522.602	5.5
522.95	5.57
523.298	5.72
523.645	5.69
523.993	5.56
524.341	5.47
524.688	5.63
525.036	5.68
525.383	5.69
525.73	5.83
526.078	5.65
526.425	5.75
526.772	5.72
527.119	5.67
527.466	5.58
527.814	5.5
528.161	5.5
528.508	5.6
528.854	5.58
529.201	5.69
529.548	5.68
529.895	5.49
530.242	5.5
530.588	5.45
530.935	5.36
531.282	5.39
531.628	5.48
531.975	5.51
532.321	5.57
532.667	5.58
533.014	5.66
533.36	5.73
533.706	5.79
534.052	5.81
534.399	5.74
534.745	5.83
535.091	5.61
535.437	5.6
535.783	5.58
536.129	5.61
536.474	5.74
536.82	5.71
537.166	5.89
537.512	5.89
537.857	5.8
538.203	6.03
538.549	5.83
538.894	5.75
539.239	5.79
539.585	5.83
539.93	5.94
540.276	5.98
540.621	6
540.966	6
541.311	6.12
541.656	5.88
542.001	6.04
542.346	6.07
542.691	6.07
543.036	5.95
543.381	5.81
543.726	5.89
544.071	5.86
544.415	5.87
544.76	5.9
545.105	5.93
545.449	5.95
545.794	6.11
546.138	6.12
546.483	6.14
546.827	6.08
547.171	6.16
547.516	6.28
547.86	6.25
548.204	6.17
548.548	6.29
548.892	6.24
549.236	6.21
549.58	6.22
549.924	6.28
550.268	6.39
550.612	6.29
550.956	6.42
551.3	6.59
551.643	6.48
551.987	6.62
552.33	6.66
552.674	6.54
553.017	6.52
553.361	6.48
553.704	6.59
554.048	6.69
554.391	6.65
554.734	6.5
555.077	6.58
555.42	6.6
555.764	6.53
556.107	6.78
556.45	6.71
556.793	6.69
557.135	6.81
557.478	6.75
557.821	6.88
558.164	6.99
558.507	6.94
558.849	6.72
559.192	6.86
559.534	7.03
559.877	6.73
560.219	7.2
560.562	6.88
560.904	6.96
561.246	7.2
561.589	6.96
561.931	7.06
562.273	6.75
562.615	6.95
562.957	6.97
563.299	7.12
563.641	7.09
563.983	7.12
564.325	7.26
564.667	7.13
565.008	7
565.35	7.13
565.692	7.39
566.033	7.24
566.375	7.17
566.716	7.22
567.058	7.18
567.399	7.15
567.741	7.43
568.082	7.17
568.423	7.34
568.764	7.52
569.105	7.27
569.447	7.39
569.788	7.13
570.129	7.61
570.47	7.61
570.811	7.6
571.151	7.62
571.492	7.35
571.833	7.49
572.174	7.47
572.514	7.57
572.855	7.52
573.195	7.47
573.536	7.55
573.876	7.54
574.217	7.62
574.557	7.51
574.898	7.64
575.238	7.51
575.578	7.74
575.918	7.64
576.258	7.69
576.598	7.82
576.938	7.8
577.278	7.87
577.618	7.85
577.958	7.98
578.298	8.13
578.638	7.92
578.977	7.96
579.317	8.05
579.657	8.14
579.996	8.2
580.336	8.17
580.675	8.29
581.014	8.15
581.354	8.01
581.693	8.46
582.032	8.33
582.372	8.48
582.711	8.25
583.05	8.44
583.389	8.33
583.728	8.35
584.067	8.57
584.406	8.55
584.745	8.29
585.083	8.74
585.422	8.75
585.761	8.21
586.1	8.67
586.438	8.57
586.777	8.57
587.115	8.59
587.454	8.51
587.792	9
588.13	8.84
588.469	8.73
588.807	8.93
589.145	8.91
589.483	8.55
589.821	8.8
590.159	8.7
590.497	9.13
590.835	9.07
591.173	8.83
591.511	8.87
591.849	9.12
592.187	8.84
592.524	9.15
592.862	9.05
593.2	8.97
593.537	9
593.875	9.15
594.212	9.38
594.55	9.6
594.887	9.32
595.224	9.39
595.561	9.54
595.899	9.36
596.236	9.78
596.573	9.58
596.91	9.35
597.247	9.41
597.584	9.55
597.921	9.57
598.258	9.51
598.594	9.5
598.931	9.55
599.268	9.53
599.604	9.64
599.941	9.56
600.277	9.44
600.614	9.66
600.95	9.78
601.287	9.69
601.623	9.82
601.959	9.8
602.296	9.79
602.632	9.87
602.968	9.83
603.304	9.9
603.64	9.95
603.976	9.86
604.312	10.28
604.648	10.38
604.984	10.22
605.319	9.74
605.655	10.1
605.991	10.17
606.326	10.16
606.662	10.11
606.998	10.04
607.333	10.35
607.668	10.23
608.004	10.08
608.339	10.38
608.674	10.58
609.01	10.3
609.345	10.36
609.68	10.46
610.015	10.66
610.35	10.63
610.685	10.9
611.02	10.59
611.355	10.86
611.689	10.55
612.024	10.75
612.359	10.56
612.694	10.69
613.028	10.55
613.363	10.58
613.697	10.8
614.032	10.8
614.366	11.14
614.7	10.84
615.035	10.96
615.369	10.96
615.703	11.02
616.037	11.16
616.371	11.21
616.705	11.47
617.039	11.09
617.373	10.99
617.707	11.04
618.041	11.27
618.375	11.18
618.709	11.25
619.042	11.61
619.376	11.56
619.71	11.44
620.043	11.66
620.377	11.45
620.71	11.69
621.043	11.63
621.377	11.46
621.71	11.85
622.043	11.54
622.376	12.1
622.709	11.68
623.043	11.81
623.376	12
623.709	12.19
624.041	11.87
624.374	12.05
624.707	12.4
625.04	11.92
625.373	11.76
625.705	12.23
626.038	12.15
626.37	12.1
626.703	12.06
627.035	12.25
627.368	12.36
627.7	12.32
628.032	12.17
628.365	12.56
628.697	12.09
629.029	12.27
629.361	12.67
629.693	12.44
630.025	12.59
630.357	12.45
630.689	12.77
631.021	12.76
631.353	12.86
631.684	12.7
632.016	12.99
632.348	12.54
632.679	12.46
633.011	12.83
633.342	13.27
633.674	13.17
634.005	12.57
634.336	13.34
634.668	12.91
634.999	13.11
635.33	13.29
635.661	13.08
635.992	13.14
636.323	13.15
636.654	12.92
636.985	12.91
637.316	13.2
637.647	13.1
637.977	12.85
638.308	13.81
638.639	13.31
638.969	13.64
639.3	13.61
639.63	13.62
639.961	13.36
640.291	13.81
640.622	13.74
640.952	14.2
641.282	13.99
641.612	13.89
641.943	13.92
642.273	13.57
642.603	13.74
642.933	13.86
643.263	13.48
643.592	14.21
643.922	14.06
644.252	14.05
644.582	14.48
644.911	14.31
645.241	14.47
645.571	14.13
645.9	14.45
646.23	14.76
646.559	14.53
646.888	14.55
647.218	14.19
647.547	14.22
647.876	14.69
648.205	14.48
648.534	15.1
648.863	14.69
649.192	14.65
649.521	14.72
649.85	14.9
650.179	14.73
650.508	14.41
650.837	15.27
651.165	15.39
651.494	14.87
651.822	14.53
652.151	15.14
652.479	15.11
652.808	15.03
653.136	15.16
653.465	15.34
653.793	14.42
654.121	15.67
654.449	14.58
654.777	15.71
655.105	15.54
655.433	15.24
655.761	15.72
656.089	15.33
656.417	15.58
656.745	15.67
657.073	15.61
657.4	15.68
657.728	15.92
658.056	15.92
658.383	15.92
658.711	15.63
659.038	15.88
659.365	15.46
659.693	15.7
660.02	15.83
660.347	16.31
660.674	15.46
661.001	15.87
661.329	15.46
661.656	15.9
661.982	15.79
662.309	16.3
662.636	15.86
662.963	16.28
663.29	16.33
663.616	16.34
663.943	16.14
664.27	16.55
664.596	16.02
664.923	16.43
665.249	16.56
665.576	15.97
665.902	16.58
666.228	16.53
666.554	15.84
666.881	17.09
667.207	16.38
667.533	16.67
667.859	17.47
668.185	16.83
668.511	17.69
668.837	16.72
669.162	16.73
669.488	17.15
669.814	16.99
670.139	17.38
670.465	18.08
670.791	17.04
671.116	16.99
671.442	17.57
671.767	16.9
672.092	17.49
672.418	17.68
672.743	17.62
673.068	17.66
673.393	16.91
673.718	17.62
674.043	18.01
674.368	17.87
674.693	17.59
675.018	18.28
675.343	17.76
675.667	17.96
675.992	18.13
676.317	18.1
676.641	17.37
676.966	17.59
677.29	17.96
677.615	18.18
677.939	18.19
678.264	17.67
678.588	18.37
678.912	18.7
679.236	18.04
679.56	18.52
679.885	17.93
680.209	18.96
680.532	18.05
680.856	18.41
681.18	18.5
681.504	18.41
681.828	18.75
682.152	18.11
682.475	19.61
682.799	18.75
683.122	18.61
683.446	18.38
683.769	18.77
684.093	18.55
684.416	18.77
684.739	19.05
685.062	19.83
685.386	18.62
685.709	18.63
686.032	18.76
686.355	19.1
686.678	19.31
687.001	19.2
687.324	19.69
