Data from 0230_forehead_Reflection__0__308.txt Node

Date: Fri Sep 22 23:08:11 CDT 2023
User: ToomeyLab
Spectrometer: FLMS14357
Trigger mode: 0
Integration Time (sec): 1.000000E-2
Scans to average: 100
Electric dark correction enabled: true
Nonlinearity correction enabled: false
Boxcar width: 0
XAxis mode: Wavelengths
Number of Pixels in Spectrum: 2048
>>>>>Begin Spectral Data<<<<<
189.047	-192.84
189.435	-192.84
189.823	-192.84
190.211	-28.54
190.599	170.72
190.987	35.16
191.375	85.72
191.763	221.3
192.151	34.38
192.538	29.04
192.926	140.74
193.314	62.37
193.702	341.99
194.089	69.61
194.477	-209.93
194.864	11.36
195.252	169.46
195.639	1543.5
196.027	43.25
196.414	76.36
196.801	-52.81
197.189	-24.47
197.576	34.3
197.963	119.45
198.351	-3.86
198.738	25.66
199.125	1.73
199.512	20.39
199.899	41.77
200.286	34.46
200.673	53.8
201.06	63.08
201.447	59.22
201.833	44.04
202.22	58.19
202.607	22.54
202.994	66.71
203.38	45.76
203.767	69.28
204.154	44.25
204.54	51.78
204.927	8.37
205.313	14.4
205.699	60.03
206.086	38.31
206.472	70.11
206.858	83.9
207.245	2.41
207.631	62.1
208.017	19.75
208.403	26.43
208.789	31.89
209.175	69.12
209.561	48.78
209.947	83.06
210.333	46.68
210.719	-3.27
211.105	43.89
211.491	7.78
211.876	57.5
212.262	39.33
212.648	28.43
213.034	57.62
213.419	24.14
213.805	26.07
214.19	27.48
214.576	34.3
214.961	28.96
215.346	15.52
215.732	43.8
216.117	47.14
216.502	63.48
216.888	27.75
217.273	24.5
217.658	13.37
218.043	24.43
218.428	37.43
218.813	7.94
219.198	-0.3
219.583	21.21
219.968	5
220.353	32.79
220.738	23.36
221.122	17.2
221.507	25.49
221.892	9.75
222.276	2.08
222.661	-4.57
223.046	17.21
223.43	22.69
223.815	21.57
224.199	15.03
224.583	18.18
224.968	15.94
225.352	2.19
225.736	11.68
226.121	10.35
226.505	19.13
226.889	7.78
227.273	10.76
227.657	13.91
228.041	7.6
228.425	14.79
228.809	4.79
229.193	8.22
229.577	8.17
229.961	6.43
230.344	7.44
230.728	3.91
231.112	5.68
231.495	4.32
231.879	5.05
232.263	4.46
232.646	5.6
233.03	4.71
233.413	4.37
233.797	6.03
234.18	5.85
234.563	9.51
234.946	8.9
235.33	4.35
235.713	4.66
236.096	5.49
236.479	4.92
236.862	7.57
237.245	5.07
237.628	6.9
238.011	6.03
238.394	4.97
238.777	6.97
239.16	5.46
239.543	8.7
239.925	6.86
240.308	7.22
240.691	6.85
241.073	6.68
241.456	6.06
241.838	4.89
242.221	4.99
242.603	6.31
242.986	5.58
243.368	4.88
243.75	5.22
244.133	6.42
244.515	4.99
244.897	5
245.279	4.72
245.661	4.61
246.043	5.48
246.425	5.18
246.807	6.26
247.189	3.85
247.571	6.1
247.953	6.07
248.335	5.27
248.717	5.1
249.098	4.67
249.48	4.81
249.862	4.74
250.243	4.95
250.625	4.88
251.006	4.32
251.388	4.8
251.769	5.62
252.151	4.83
252.532	5.44
252.913	5.13
253.295	5.62
253.676	4.98
254.057	5.68
254.438	5.79
254.819	4.65
255.2	5.85
255.581	4.64
255.962	5.6
256.343	6.07
256.724	4.41
257.105	5.93
257.486	6.01
257.867	5.61
258.247	6.12
258.628	6.07
259.009	5.77
259.389	5.42
259.77	5.95
260.15	5.89
260.531	4.73
260.911	5.51
261.292	5.45
261.672	4.53
262.052	4.81
262.432	4.93
262.813	4.94
263.193	4.92
263.573	5.38
263.953	4.72
264.333	5.15
264.713	5.5
265.093	5.06
265.473	5.32
265.853	5.12
266.233	5.45
266.612	5.11
266.992	5.98
267.372	5.64
267.752	5.83
268.131	5.17
268.511	4.79
268.89	5.43
269.27	5.07
269.649	5.8
270.029	5.22
270.408	5.13
270.787	5.1
271.167	5.36
271.546	5.28
271.925	4.69
272.304	5.18
272.683	5.38
273.062	5.38
273.441	4.77
273.82	5.31
274.199	5.11
274.578	5.18
274.957	5.18
275.336	5.13
275.715	4.89
276.093	4.6
276.472	4.94
276.851	5.06
277.229	4.68
277.608	5.22
277.986	4.68
278.365	5.11
278.743	5.45
279.122	5.35
279.5	4.8
279.878	4.75
280.257	5.99
280.635	5.08
281.013	5.76
281.391	4.79
281.769	4.91
282.147	5.14
282.525	5.1
282.903	5.14
283.281	5.24
283.659	5.22
284.037	4.85
284.415	5.35
284.792	5.14
285.17	5.25
285.548	5.82
285.925	5.08
286.303	5.09
286.68	5
287.058	5.25
287.435	5.12
287.813	5.4
288.19	4.63
288.567	5.24
288.945	5.09
289.322	5.27
289.699	5.51
290.076	5.46
290.453	4.98
290.83	4.67
291.207	5.24
291.584	4.75
291.961	5.25
292.338	5.67
292.715	5.37
293.092	5.54
293.469	5.6
293.845	5.3
294.222	5.96
294.599	5.73
294.975	6.1
295.352	5.73
295.728	5.88
296.105	5.87
296.481	5.94
296.858	5.53
297.234	5.67
297.61	5.71
297.986	5.98
298.363	6.28
298.739	6.26
299.115	6.2
299.491	6.14
299.867	6.17
300.243	6.06
300.619	6.09
300.995	6.39
301.371	6.75
301.746	6.96
302.122	6.54
302.498	6.03
302.874	6.33
303.249	6.26
303.625	6.24
304	7.07
304.376	7.01
304.751	7.21
305.127	7.26
305.502	7.03
305.878	7.08
306.253	7.24
306.628	6.83
307.003	7.07
307.378	7.06
307.754	7.21
308.129	6.93
308.504	7
308.879	7.25
309.254	7.8
309.629	7.62
310.003	7.72
310.378	7.84
310.753	7.52
311.128	7.69
311.502	8.12
311.877	7.29
312.252	7.6
312.626	7.71
313.001	7.96
313.375	8.03
313.75	8.2
314.124	8.29
314.498	7.69
314.873	7.79
315.247	8.5
315.621	8.46
315.995	8.34
316.369	9.11
316.743	8.33
317.117	8.74
317.491	8.96
317.865	9.06
318.239	8.44
318.613	8.75
318.987	8.73
319.361	8.62
319.734	8.58
320.108	9.49
320.482	8.52
320.855	8.92
321.229	10.05
321.602	9.18
321.976	9.53
322.349	9.71
322.723	9.39
323.096	9.18
323.469	8.93
323.843	9.34
324.216	9.53
324.589	9.54
324.962	9.3
325.335	9.71
325.708	9.74
326.081	10.06
326.454	9.04
326.827	9.9
327.2	9.89
327.573	10.35
327.945	10.12
328.318	10.4
328.691	10.24
329.063	9.41
329.436	10.16
329.809	9.98
330.181	10.18
330.553	10.16
330.926	9.95
331.298	10.48
331.671	10.28
332.043	9.97
332.415	10.23
332.787	10.59
333.159	10.25
333.532	10.35
333.904	10.64
334.276	10.36
334.648	9.95
335.02	10.55
335.391	11.02
335.763	11.07
336.135	10.68
336.507	10.85
336.879	11.05
337.25	11.35
337.622	11.35
337.993	11.19
338.365	11.72
338.736	11.29
339.108	11.27
339.479	11.02
339.851	11.11
340.222	11.09
340.593	10.99
340.964	11.03
341.336	11.32
341.707	11.21
342.078	11.72
342.449	11.43
342.82	11.56
343.191	11.38
343.562	11.74
343.933	11.59
344.303	11.92
344.674	12.06
345.045	11.98
345.416	11.99
345.786	11.41
346.157	11.58
346.527	11.63
346.898	12.1
347.268	12.09
347.639	11.74
348.009	11.85
348.38	12.1
348.75	12.42
349.12	12.01
349.49	12.62
349.861	12.63
350.231	12.19
350.601	12.51
350.971	12.48
351.341	12.39
351.711	12.65
352.081	12.68
352.45	12.46
352.82	12.76
353.19	13.27
353.56	12.75
353.929	12.92
354.299	12.84
354.669	12.56
355.038	13.02
355.408	12.64
355.777	13.12
356.147	13.45
356.516	13.52
356.885	13.09
357.254	13.06
357.624	12.62
357.993	13.37
358.362	13.12
358.731	13.31
359.1	13.28
359.469	13.32
359.838	12.85
360.207	13.37
360.576	13.58
360.945	13.75
361.314	13.62
361.682	14.01
362.051	13.73
362.42	13.56
362.788	13.84
363.157	13.98
363.525	13.66
363.894	13.68
364.262	13.89
364.631	13.81
364.999	14.01
365.367	13.93
365.735	14.04
366.104	14.02
366.472	14.71
366.84	13.96
367.208	14.29
367.576	14.36
367.944	14.22
368.312	14.35
368.68	14.43
369.048	14.51
369.416	14.52
369.783	14.24
370.151	14.56
370.519	14.97
370.886	14.73
371.254	15.01
371.621	14.68
371.989	14.78
372.356	15.04
372.724	15.15
373.091	15.22
373.458	14.96
373.826	15.24
374.193	15.48
374.56	15.03
374.927	15.17
375.294	15.2
375.661	15.05
376.028	15.59
376.395	15.73
376.762	15.32
377.129	15.87
377.496	15.96
377.863	15.64
378.229	15.66
378.596	15.29
378.963	16.02
379.329	15.65
379.696	15.95
380.062	15.84
380.429	15.77
380.795	16.02
381.161	15.99
381.528	16.24
381.894	15.8
382.26	16.26
382.626	16.2
382.993	16.27
383.359	16.16
383.725	16.39
384.091	16.6
384.457	16.15
384.823	16.38
385.188	16.43
385.554	16.4
385.92	16.87
386.286	16.85
386.651	16.78
387.017	16.87
387.383	16.73
387.748	16.87
388.114	16.72
388.479	16.99
388.845	16.75
389.21	16.82
389.575	17.12
389.94	16.73
390.306	17.14
390.671	17.6
391.036	17.18
391.401	17.3
391.766	17.44
392.131	17.5
392.496	17.67
392.861	17.44
393.226	17.6
393.591	17.66
393.956	17.58
394.32	17.61
394.685	17.57
395.05	17.81
395.414	17.87
395.779	17.86
396.143	17.74
396.508	17.61
396.872	17.69
397.236	17.94
397.601	17.98
397.965	18.17
398.329	18.26
398.694	18.04
399.058	18.23
399.422	18.14
399.786	18.25
400.15	18.44
400.514	18.49
400.878	18.44
401.242	18.63
401.605	18.37
401.969	18.51
402.333	18.72
402.697	18.62
403.06	18.48
403.424	18.66
403.787	18.68
404.151	18.8
404.514	19.19
404.878	19.32
405.241	19.18
405.604	18.76
405.968	19.09
406.331	19.02
406.694	19.25
407.057	19.1
407.42	19.03
407.783	19.36
408.146	19.07
408.509	19.41
408.872	19.21
409.235	19.5
409.598	19.41
409.961	19.73
410.323	19.43
410.686	19.69
411.049	19.65
411.411	19.83
411.774	19.65
412.136	19.72
412.499	19.95
412.861	20.05
413.223	19.95
413.586	19.77
413.948	19.99
414.31	19.92
414.672	20.27
415.035	20.1
415.397	20.32
415.759	20.62
416.121	20.27
416.483	20.21
416.845	20.36
417.206	20.27
417.568	20.53
417.93	20.22
418.292	20.31
418.653	20.28
419.015	20.2
419.377	20.4
419.738	20.39
420.1	20.49
420.461	20.35
420.822	20.52
421.184	20.32
421.545	20.37
421.906	20.43
422.267	20.47
422.629	20.5
422.99	20.55
423.351	20.42
423.712	20.48
424.073	20.64
424.434	20.76
424.795	20.82
425.155	20.91
425.516	20.67
425.877	20.85
426.238	20.69
426.598	20.71
426.959	20.84
427.32	20.9
427.68	21.08
428.041	21.01
428.401	21.48
428.761	21.39
429.122	21.45
429.482	21.62
429.842	21.67
430.202	21.52
430.563	21.89
430.923	21.96
431.283	22.05
431.643	21.97
432.003	21.88
432.363	22.07
432.722	22.12
433.082	22.15
433.442	22.15
433.802	22.04
434.161	22.39
434.521	22.16
434.881	22.23
435.24	22.28
435.6	22.16
435.959	22.11
436.319	22.23
436.678	22.35
437.037	22.54
437.396	22.41
437.756	22.53
438.115	22.57
438.474	22.89
438.833	22.67
439.192	22.85
439.551	22.85
439.91	22.93
440.269	23.02
440.628	22.78
440.987	22.94
441.345	22.95
441.704	23.12
442.063	23
442.421	22.93
442.78	22.95
443.138	22.91
443.497	22.94
443.855	23.1
444.214	23.08
444.572	23.39
444.93	23.3
445.288	23.34
445.647	23.68
446.005	23.63
446.363	23.55
446.721	23.6
447.079	23.38
447.437	23.66
447.795	23.49
448.153	23.44
448.51	23.48
448.868	23.45
449.226	23.53
449.584	23.57
449.941	23.71
450.299	24.02
450.656	23.95
451.014	23.99
451.371	24.08
451.729	24.2
452.086	24.11
452.443	24.36
452.801	24.46
453.158	24.69
453.515	24.7
453.872	24.53
454.229	24.61
454.586	24.79
454.943	24.74
455.3	24.78
455.657	24.51
456.014	24.93
456.371	24.99
456.727	25.08
457.084	25.04
457.441	24.85
457.797	25.34
458.154	25.1
458.51	25.22
458.867	25.13
459.223	25.44
459.58	25.41
459.936	25.42
460.292	25.37
460.648	25.38
461.005	25.29
461.361	25.37
461.717	25.22
462.073	25.18
462.429	25.04
462.785	25.16
463.141	25.32
463.496	25.6
463.852	25.51
464.208	25.67
464.564	25.92
464.919	25.92
465.275	26.12
465.631	26.23
465.986	26.2
466.342	26.33
466.697	26.29
467.052	26.34
467.408	26.34
467.763	26.25
468.118	26.52
468.473	26.46
468.829	26.43
469.184	26.48
469.539	26.61
469.894	26.65
470.249	26.58
470.603	26.61
470.958	26.71
471.313	26.89
471.668	27.02
472.023	26.92
472.377	27.03
472.732	26.96
473.086	27.37
473.441	26.84
473.795	27.52
474.15	27.22
474.504	27.2
474.859	27.34
475.213	27.07
475.567	27.31
475.921	27.43
476.275	27.5
476.63	27.39
476.984	27.46
477.338	27.72
477.692	27.61
478.045	27.85
478.399	27.73
478.753	27.85
479.107	27.73
479.461	27.6
479.814	27.85
480.168	27.65
480.521	27.73
480.875	27.91
481.228	27.9
481.582	27.88
481.935	28
482.289	27.96
482.642	28.02
482.995	27.99
483.348	28.23
483.701	28.04
484.055	28.09
484.408	27.89
484.761	27.98
485.114	27.75
485.466	27.62
485.819	27.29
486.172	27.37
486.525	27.38
486.878	27.26
487.23	27.43
487.583	27.55
487.936	27.72
488.288	28.01
488.641	28.03
488.993	27.88
489.345	28.07
489.698	28
490.05	27.97
490.402	27.93
490.754	27.93
491.107	28.06
491.459	28.21
491.811	28.45
492.163	28.58
492.515	28.66
492.866	28.71
493.218	28.71
493.57	28.61
493.922	28.5
494.274	28.52
494.625	28.54
494.977	28.77
495.328	29.02
495.68	29.19
496.031	29.37
496.383	29.61
496.734	29.67
497.086	29.81
497.437	29.96
497.788	29.99
498.139	29.95
498.49	30.04
498.842	29.91
499.193	29.86
499.544	30.07
499.894	30.05
500.245	30.16
500.596	30.3
500.947	30.19
501.298	30.18
501.648	30.36
501.999	30.58
502.35	30.54
502.7	30.64
503.051	30.87
503.401	30.67
503.752	30.73
504.102	30.83
504.452	30.97
504.803	30.97
505.153	31.02
505.503	31.09
505.853	31.07
506.203	31.02
506.553	30.99
506.903	31.35
507.253	31.18
507.603	31.46
507.953	31.51
508.303	31.27
508.652	31.36
509.002	31.66
509.352	31.62
509.701	31.48
510.051	31.58
510.4	31.62
510.75	31.59
511.099	31.44
511.449	31.58
511.798	31.61
512.147	31.78
512.496	31.67
512.846	31.58
513.195	31.88
513.544	32.01
513.893	31.92
514.242	31.91
514.591	32.1
514.939	32.06
515.288	32.07
515.637	32.19
515.986	32.28
516.334	32.21
516.683	32.36
517.032	32.61
517.38	32.65
517.729	32.67
518.077	32.77
518.426	32.53
518.774	32.53
519.122	32.5
519.47	32.54
519.819	32.68
520.167	32.72
520.515	32.55
520.863	32.39
521.211	32.43
521.559	32.45
521.907	32.56
522.255	32.69
522.602	32.98
522.95	33.08
523.298	33.25
523.645	33.21
523.993	33.3
524.341	33.33
524.688	33.5
525.036	33.46
525.383	33.53
525.73	33.58
526.078	33.77
526.425	33.84
526.772	33.84
527.119	33.6
527.466	33.44
527.814	33.36
528.161	33.4
528.508	33.5
528.854	33.36
529.201	33.51
529.548	33.57
529.895	33.67
530.242	33.5
530.588	33.17
530.935	33.12
531.282	33.28
531.628	33.18
531.975	33.15
532.321	33.33
532.667	33.61
533.014	33.85
533.36	33.91
533.706	34.18
534.052	34.24
534.399	34.16
534.745	34.31
535.091	34.1
535.437	34.06
535.783	33.92
536.129	33.98
536.474	34.17
536.82	34.29
537.166	34.4
537.512	34.62
537.857	34.83
538.203	34.87
538.549	34.9
538.894	34.75
539.239	34.69
539.585	34.88
539.93	34.99
540.276	35.12
540.621	35.38
540.966	35.35
541.311	35.69
541.656	35.52
542.001	35.62
542.346	35.75
542.691	35.66
543.036	35.34
543.381	35.1
543.726	35.05
544.071	35.12
544.415	35.19
544.76	35.16
545.105	35.37
545.449	35.5
545.794	35.7
546.138	35.88
546.483	35.93
546.827	35.8
547.171	36.24
547.516	36.37
547.86	36.44
548.204	36.63
548.548	36.42
548.892	36.32
549.236	36.38
549.58	36.5
549.924	36.54
550.268	36.61
550.612	36.73
550.956	36.86
551.3	37.07
551.643	37.05
551.987	37.3
552.33	37.32
552.674	37.52
553.017	37.26
553.361	37.38
553.704	37.92
554.048	37.63
554.391	37.55
554.734	37.6
555.077	37.77
555.42	37.54
555.764	37.67
556.107	37.7
556.45	37.81
556.793	37.81
557.135	38.03
557.478	38
557.821	38.06
558.164	38.51
558.507	38.42
558.849	38.13
559.192	38.57
559.534	38.55
559.877	38.35
560.219	38.52
560.562	38.89
560.904	38.72
561.246	38.94
561.589	38.7
561.931	38.57
562.273	38.75
562.615	38.99
562.957	38.73
563.299	38.97
563.641	38.83
563.983	39.01
564.325	39.05
564.667	39.2
565.008	39.11
565.35	39.31
565.692	39.3
566.033	39.56
566.375	39.5
566.716	39.45
567.058	39.09
567.399	39.57
567.741	39.63
568.082	39.38
568.423	39.69
568.764	39.58
569.105	39.12
569.447	39.51
569.788	39.48
570.129	39.8
570.47	39.78
570.811	39.86
571.151	40.04
571.492	40.09
571.833	40.26
572.174	39.96
572.514	40.33
572.855	40.06
573.195	40.12
573.536	40.35
573.876	40.36
574.217	40.31
574.557	40.27
574.898	40.23
575.238	40.28
575.578	40.52
575.918	40.5
576.258	40.44
576.598	40.55
576.938	40.69
577.278	40.72
577.618	40.59
577.958	40.79
578.298	40.73
578.638	40.76
578.977	41.05
579.317	41.01
579.657	41.11
579.996	41.14
580.336	41.1
580.675	41.41
581.014	41.25
581.354	41.39
581.693	41.49
582.032	41.91
582.372	41.85
582.711	41.71
583.05	41.61
583.389	41.84
583.728	42.07
584.067	41.95
584.406	42.06
584.745	42.17
585.083	42.26
585.422	42.19
585.761	42.06
586.1	42.17
586.438	42.3
586.777	42.28
587.115	42.71
587.454	42.46
587.792	42.67
588.13	42.69
588.469	42.57
588.807	42.7
589.145	42.73
589.483	42.75
589.821	42.65
590.159	42.84
590.497	43.04
590.835	42.83
591.173	43.17
591.511	42.48
591.849	43.02
592.187	42.87
592.524	43.34
592.862	43.19
593.2	43.31
593.537	43.45
593.875	43.32
594.212	43.33
594.55	43.37
594.887	43.39
595.224	43.61
595.561	43.61
595.899	43.85
596.236	43.95
596.573	43.94
596.91	43.35
597.247	43.68
597.584	43.93
597.921	43.84
598.258	44.02
598.594	43.97
598.931	43.75
599.268	43.63
599.604	43.82
599.941	43.76
600.277	43.82
600.614	43.96
600.95	44.04
601.287	44.08
601.623	44.06
601.959	44.23
602.296	44.48
602.632	44.2
602.968	44.58
603.304	44.31
603.64	44.73
603.976	44.63
604.312	44.93
604.648	44.58
604.984	44.41
605.319	44.61
605.655	44.64
605.991	44.58
606.326	44.59
606.662	44.55
606.998	44.48
607.333	44.79
607.668	44.87
608.004	44.88
608.339	44.89
608.674	45.16
609.01	44.98
609.345	45.38
609.68	45.56
610.015	45.55
610.35	45.33
610.685	45.64
611.02	45.37
611.355	45.81
611.689	45.58
612.024	45.21
612.359	45.12
612.694	45.4
613.028	45.5
613.363	45.51
613.697	45.91
614.032	45.75
614.366	46.16
614.7	46.03
615.035	46.27
615.369	46.11
615.703	46.23
616.037	46.03
616.371	46.49
616.705	46.74
617.039	46.63
617.373	46.63
617.707	46.53
618.041	46.7
618.375	46.74
618.709	46.46
619.042	46.86
619.376	47.09
619.71	47.34
620.043	46.88
620.377	46.87
620.71	46.74
621.043	47.35
621.377	47.2
621.71	47.01
622.043	47.3
622.376	47.04
622.709	47.07
623.043	47.45
623.376	47.37
623.709	47.1
624.041	47.33
624.374	47.71
624.707	47.15
625.04	47.72
625.373	47.46
625.705	47.34
626.038	47.5
626.37	47.67
626.703	47.78
627.035	48.15
627.368	48.35
627.7	48.02
628.032	47.73
628.365	47.96
628.697	47.67
629.029	48.19
629.361	47.84
629.693	48.16
630.025	48.3
630.357	48.23
630.689	48
631.021	48.19
631.353	48.23
631.684	48.22
632.016	48.8
632.348	48.3
632.679	48.56
633.011	48.76
633.342	48.98
633.674	49.16
634.005	48.7
634.336	48.76
634.668	49.02
634.999	48.87
635.33	49.2
635.661	48.86
635.992	49.16
636.323	48.62
636.654	48.81
636.985	48.7
637.316	48.95
637.647	49.41
637.977	48.84
638.308	49.31
638.639	49.61
638.969	49.26
639.3	49.6
639.63	49.3
639.961	49.07
640.291	49.29
640.622	49.76
640.952	49.73
641.282	49.61
641.612	49.65
641.943	49.78
642.273	50.24
642.603	49.99
642.933	49.72
643.263	49.6
643.592	49.78
643.922	50.5
644.252	49.74
644.582	50.56
644.911	49.5
645.241	50.41
645.571	50.13
645.9	50.59
646.23	50.55
646.559	50.41
646.888	50.25
647.218	50.02
647.547	49.88
647.876	49.8
648.205	50.51
648.534	50.26
648.863	50.48
649.192	50.76
649.521	50.52
649.85	50.93
650.179	50.86
650.508	50.82
650.837	50.97
651.165	50.8
651.494	50.78
651.822	50.98
652.151	51.17
652.479	50.97
652.808	50.86
653.136	51.2
653.465	51.33
653.793	50.89
654.121	51.57
654.449	51.36
654.777	51.37
655.105	50.95
655.433	51.33
655.761	51.1
656.089	51.58
656.417	51.41
656.745	51.79
657.073	51.57
657.4	51.92
657.728	51.51
658.056	51.86
658.383	51.91
658.711	52.03
659.038	51.79
659.365	51.69
659.693	51.87
660.02	51.94
660.347	52.39
660.674	51.93
661.001	51.92
661.329	51.82
661.656	52.16
661.982	51.61
662.309	52.27
662.636	52.13
662.963	51.63
663.29	51.87
663.616	51.87
663.943	52.49
664.27	52.37
664.596	52.3
664.923	52.67
665.249	51.66
665.576	52.31
665.902	52.46
666.228	52.58
666.554	52.46
666.881	52.05
667.207	52.21
667.533	53.16
667.859	53.07
668.185	52.74
668.511	53.04
668.837	52.51
669.162	52.84
669.488	52.87
669.814	53.34
