Data from 0230_forehead_Reflection__1__309.txt Node

Date: Fri Sep 22 23:08:23 CDT 2023
User: ToomeyLab
Spectrometer: FLMS14357
Trigger mode: 0
Integration Time (sec): 1.000000E-2
Scans to average: 100
Electric dark correction enabled: true
Nonlinearity correction enabled: false
Boxcar width: 0
XAxis mode: Wavelengths
Number of Pixels in Spectrum: 2048
>>>>>Begin Spectral Data<<<<<
189.047	348.36
189.435	348.36
189.823	348.36
190.211	51.59
190.599	88.48
190.987	155.58
191.375	77.9
191.763	15.26
192.151	51.42
192.538	20.23
192.926	46.53
193.314	31.61
193.702	1101.1
194.089	89.19
194.477	-116.58
194.864	70.72
195.252	125.91
195.639	-181.57
196.027	-17.34
196.414	-0.62
196.801	23.28
197.189	48.9
197.576	-8.31
197.963	120.15
198.351	54.54
198.738	16.37
199.125	47.04
199.512	12.24
199.899	80.69
200.286	1.55
200.673	29.65
201.06	55.08
201.447	73.2
201.833	-21.35
202.22	36.85
202.607	42.86
202.994	65.71
203.38	55.66
203.767	42.99
204.154	34.52
204.54	10.88
204.927	19.14
205.313	29.15
205.699	52.64
206.086	29.28
206.472	42.76
206.858	130.06
207.245	28.96
207.631	35.81
208.017	42.97
208.403	5.28
208.789	39.45
209.175	40.18
209.561	50.98
209.947	51.25
210.333	30.12
210.719	24.42
211.105	5.24
211.491	51.32
211.876	32.09
212.262	22.67
212.648	45.02
213.034	23.3
213.419	3.1
213.805	21.88
214.19	22.04
214.576	37.02
214.961	73.65
215.346	24.91
215.732	29.37
216.117	6.81
216.502	44.45
216.888	24.72
217.273	40.85
217.658	5.01
218.043	13.48
218.428	36.28
218.813	-17.75
219.198	28.11
219.583	1.92
219.968	5.1
220.353	41.19
220.738	25.46
221.122	6.03
221.507	0.27
221.892	15.05
222.276	9.07
222.661	-27.31
223.046	19.79
223.43	32.77
223.815	11.04
224.199	24.81
224.583	18.7
224.968	23.72
225.352	10.22
225.736	19.68
226.121	23.68
226.505	10.91
226.889	3.45
227.273	0.9
227.657	3.76
228.041	8.21
228.425	10.65
228.809	7.02
229.193	5.29
229.577	6.37
229.961	6.37
230.344	6.65
230.728	3.1
231.112	4.45
231.495	3.58
231.879	3.03
232.263	3.37
232.646	3.76
233.03	1.27
233.413	5.82
233.797	3.37
234.18	3.44
234.563	8.46
234.946	6.25
235.33	0.5
235.713	1.75
236.096	4.94
236.479	2.18
236.862	4.19
237.245	3.81
237.628	5.65
238.011	5.81
238.394	4.34
238.777	6.4
239.16	4.16
239.543	4.97
239.925	6.42
240.308	4.68
240.691	5.74
241.073	5.24
241.456	4.78
241.838	4.13
242.221	4.6
242.603	3.21
242.986	3.9
243.368	3.85
243.75	4.06
244.133	4.1
244.515	3.48
244.897	3.49
245.279	3.52
245.661	3.93
246.043	3.27
246.425	2.46
246.807	3.65
247.189	2.5
247.571	4.22
247.953	4
248.335	3.63
248.717	3.7
249.098	3.5
249.48	3.37
249.862	3.59
250.243	3.49
250.625	3.78
251.006	3.47
251.388	4.01
251.769	4.04
252.151	3.63
252.532	2.93
252.913	5.99
253.295	5.21
253.676	4.49
254.057	3.94
254.438	4.36
254.819	3.49
255.2	3.53
255.581	3.9
255.962	4.31
256.343	5.41
256.724	3.51
257.105	3.89
257.486	4.3
257.867	3.72
258.247	4.38
258.628	4.95
259.009	3.64
259.389	4.43
259.77	4.57
260.15	4.72
260.531	3.25
260.911	4.29
261.292	4
261.672	3.71
262.052	3.64
262.432	3.49
262.813	3.69
263.193	3.61
263.573	4.3
263.953	3.85
264.333	3.58
264.713	3.45
265.093	3.06
265.473	3.79
265.853	3.48
266.233	3.85
266.612	3.72
266.992	4.28
267.372	4.52
267.752	4.51
268.131	4.11
268.511	3.32
268.89	3.76
269.27	3.81
269.649	3.79
270.029	3.35
270.408	3.9
270.787	3.63
271.167	4.35
271.546	3.95
271.925	4.26
272.304	3.21
272.683	3.98
273.062	4.03
273.441	3.28
273.82	4.13
274.199	3.96
274.578	3.93
274.957	3.78
275.336	3.65
275.715	3.75
276.093	3.61
276.472	3.46
276.851	3.8
277.229	2.6
277.608	4.15
277.986	3.64
278.365	4.1
278.743	3.63
279.122	4.07
279.5	4.1
279.878	2.98
280.257	4.53
280.635	3.93
281.013	4.26
281.391	3.7
281.769	3.49
282.147	3.63
282.525	4.07
282.903	3.89
283.281	3.47
283.659	3.56
284.037	3.92
284.415	4.06
284.792	3.88
285.17	3.72
285.548	3.98
285.925	4.15
286.303	3.48
286.68	3.23
287.058	2.98
287.435	3.7
287.813	4.02
288.19	3.16
288.567	3.78
288.945	3.62
289.322	3.86
289.699	3.79
290.076	4.07
290.453	2.98
290.83	3.76
291.207	3.87
291.584	3.96
291.961	3.86
292.338	4.24
292.715	4.14
293.092	3.64
293.469	3.81
293.845	3.78
294.222	4.39
294.599	4.02
294.975	4.43
295.352	4.55
295.728	4.31
296.105	4.75
296.481	4.32
296.858	4.12
297.234	4.32
297.61	4.32
297.986	4.2
298.363	4.44
298.739	4.39
299.115	4.35
299.491	4.69
299.867	4.49
300.243	4.23
300.619	4.74
300.995	4.4
301.371	4.37
301.746	4.53
302.122	4.37
302.498	4.54
302.874	4.52
303.249	4.53
303.625	4.36
304	4.94
304.376	4.95
304.751	4.72
305.127	4.83
305.502	5.46
305.878	4.85
306.253	5.28
306.628	4.76
307.003	5.53
307.378	5.04
307.754	5.26
308.129	5.5
308.504	5.17
308.879	5.4
309.254	5.25
309.629	5.27
310.003	5.49
310.378	6.04
310.753	5.64
311.128	5.17
311.502	5.72
311.877	5.14
312.252	5.44
312.626	5.53
313.001	5.42
313.375	5.39
313.75	5.86
314.124	5.87
314.498	5.43
314.873	5.99
315.247	5.59
315.621	5.74
315.995	6.1
316.369	5.87
316.743	5.94
317.117	6.28
317.491	6.35
317.865	5.61
318.239	5.87
318.613	6.32
318.987	6.18
319.361	5.9
319.734	6
320.108	6.08
320.482	6.23
320.855	5.95
321.229	6.87
321.602	6.77
321.976	6.08
322.349	6.41
322.723	6.05
323.096	6.53
323.469	6.19
323.843	6.23
324.216	6.09
324.589	6.34
324.962	6.49
325.335	6.34
325.708	6.43
326.081	7.08
326.454	5.89
326.827	6.63
327.2	6.2
327.573	6.33
327.945	6.39
328.318	6.77
328.691	6.44
329.063	6.37
329.436	6.94
329.809	6.4
330.181	6.74
330.553	6.67
330.926	6.79
331.298	6.99
331.671	6.92
332.043	6.14
332.415	6.74
332.787	7.25
333.159	6.55
333.532	6.58
333.904	6.95
334.276	7.07
334.648	6.39
335.02	7.06
335.391	7.1
335.763	7.26
336.135	7.2
336.507	7.46
336.879	6.87
337.25	7.12
337.622	7.5
337.993	7.13
338.365	7.62
338.736	7.36
339.108	7.21
339.479	7.22
339.851	7.13
340.222	7.03
340.593	7.08
340.964	6.99
341.336	7.08
341.707	7.27
342.078	7.35
342.449	7.69
342.82	7.15
343.191	7.18
343.562	7.11
343.933	7.27
344.303	7.66
344.674	7.64
345.045	7.85
345.416	7.86
345.786	7.29
346.157	7.47
346.527	7.39
346.898	7.45
347.268	7.8
347.639	7.66
348.009	7.66
348.38	7.76
348.75	8.01
349.12	7.6
349.49	7.71
349.861	7.58
350.231	8.01
350.601	8.21
350.971	8.55
351.341	7.67
351.711	7.86
352.081	7.91
352.45	7.63
352.82	8.58
353.19	8.51
353.56	7.75
353.929	7.97
354.299	8.2
354.669	8.2
355.038	7.69
355.408	7.96
355.777	8.26
356.147	8.16
356.516	8.29
356.885	8.15
357.254	8.36
357.624	8.12
357.993	8.36
358.362	8.37
358.731	8
359.1	8.41
359.469	8.26
359.838	8.01
360.207	8.24
360.576	8.45
360.945	8.38
361.314	8.55
361.682	8.57
362.051	8.85
362.42	8.57
362.788	8.2
363.157	8.77
363.525	8.6
363.894	8.45
364.262	8.66
364.631	8.45
364.999	8.61
365.367	8.94
365.735	8.65
366.104	8.69
366.472	9.1
366.84	8.66
367.208	9.21
367.576	8.77
367.944	8.92
368.312	9.1
368.68	8.9
369.048	8.86
369.416	9.38
369.783	8.9
370.151	8.89
370.519	8.93
370.886	9.07
371.254	9.43
371.621	9.01
371.989	9.08
372.356	9.21
372.724	9.33
373.091	9.32
373.458	9.08
373.826	9.52
374.193	9.17
374.56	9.34
374.927	9.58
375.294	9.52
375.661	9.28
376.028	9.5
376.395	9.77
376.762	9.45
377.129	9.61
377.496	9.63
377.863	9.48
378.229	9.45
378.596	9.74
378.963	9.78
379.329	9.42
379.696	9.96
380.062	9.51
380.429	9.67
380.795	9.82
381.161	9.79
381.528	9.65
381.894	9.63
382.26	9.9
382.626	9.84
382.993	10.13
383.359	9.47
383.725	9.93
384.091	10.21
384.457	10.27
384.823	9.94
385.188	10.02
385.554	10
385.92	10.42
386.286	10.18
386.651	10.22
387.017	10.26
387.383	10.15
387.748	9.98
388.114	9.97
388.479	10.34
388.845	10.01
389.21	10.34
389.575	10.52
389.94	10.28
390.306	10.46
390.671	10.58
391.036	10.36
391.401	10.39
391.766	10.57
392.131	10.23
392.496	10.83
392.861	10.52
393.226	10.76
393.591	10.69
393.956	10.58
394.32	10.49
394.685	10.64
395.05	10.92
395.414	10.91
395.779	10.65
396.143	10.9
396.508	10.8
396.872	10.65
397.236	11
397.601	10.74
397.965	11.09
398.329	11.08
398.694	10.83
399.058	10.95
399.422	10.69
399.786	11.01
400.15	11.28
400.514	11.12
400.878	11.27
401.242	11.24
401.605	11.13
401.969	11.05
402.333	11.33
402.697	11.09
403.06	11.41
403.424	11.24
403.787	11.42
404.151	11.44
404.514	11.69
404.878	11.49
405.241	11.59
405.604	11.41
405.968	11.36
406.331	11.52
406.694	11.62
407.057	11.25
407.42	11.6
407.783	11.58
408.146	11.65
408.509	11.58
408.872	11.73
409.235	11.68
409.598	11.67
409.961	11.95
410.323	11.95
410.686	12
411.049	11.82
411.411	12.07
411.774	12.1
412.136	11.74
412.499	11.82
412.861	11.84
413.223	12.08
413.586	12
413.948	11.99
414.31	12.08
414.672	12.11
415.035	12.3
415.397	12.41
415.759	12.33
416.121	12.22
416.483	12.35
416.845	11.94
417.206	12.13
417.568	12.41
417.93	12.11
418.292	12.31
418.653	12.02
419.015	12.39
419.377	12.14
419.738	12.37
420.1	12.31
420.461	12.27
420.822	12.22
421.184	12.26
421.545	12.19
421.906	12.28
422.267	12.16
422.629	12.37
422.99	12.28
423.351	12.2
423.712	12.1
424.073	12.16
424.434	12.29
424.795	12.35
425.155	12.51
425.516	12.38
425.877	12.34
426.238	12.28
426.598	12.4
426.959	12.53
427.32	12.43
427.68	12.58
428.041	12.55
428.401	12.78
428.761	12.96
429.122	12.87
429.482	12.87
429.842	12.97
430.202	12.9
430.563	13
430.923	12.99
431.283	13.19
431.643	13.09
432.003	13.17
432.363	13.29
432.722	13.16
433.082	13.33
433.442	13.13
433.802	13.37
434.161	13.33
434.521	13.24
434.881	13.47
435.24	13.31
435.6	13.09
435.959	13.28
436.319	13.3
436.678	13.43
437.037	13.49
437.396	13.51
437.756	13.65
438.115	13.8
438.474	13.59
438.833	13.84
439.192	13.62
439.551	13.6
439.91	13.74
440.269	13.69
440.628	13.63
440.987	13.78
441.345	13.75
441.704	13.64
442.063	13.71
442.421	13.64
442.78	13.67
443.138	13.63
443.497	13.77
443.855	13.79
444.214	13.84
444.572	13.96
444.93	14.05
445.288	14.06
445.647	14.15
446.005	14.15
446.363	14.16
446.721	14.08
447.079	13.98
447.437	14.14
447.795	14.21
448.153	14.08
448.51	13.94
448.868	13.99
449.226	14.06
449.584	14.19
449.941	14.11
450.299	14.24
450.656	14.33
451.014	14.62
451.371	14.55
451.729	14.57
452.086	14.54
452.443	14.73
452.801	14.7
453.158	14.76
453.515	14.91
453.872	14.68
454.229	14.82
454.586	14.77
454.943	14.86
455.3	14.79
455.657	14.92
456.014	14.92
456.371	15.12
456.727	15.13
457.084	15.18
457.441	15.27
457.797	15.28
458.154	14.98
458.51	15.16
458.867	15.18
459.223	15.33
459.58	15.48
459.936	15.38
460.292	15.33
460.648	15.41
461.005	15.26
461.361	15.3
461.717	15.11
462.073	15.07
462.429	14.96
462.785	15.16
463.141	15.27
463.496	15.39
463.852	15.5
464.208	15.38
464.564	15.66
464.919	15.63
465.275	15.78
465.631	16
465.986	15.99
466.342	16.03
466.697	15.9
467.052	15.9
467.408	15.99
467.763	15.9
468.118	16.2
468.473	16.07
468.829	16.05
469.184	16.02
469.539	16.21
469.894	16.22
470.249	16.17
470.603	16.17
470.958	16.3
471.313	16.36
471.668	16.42
472.023	16.48
472.377	16.49
472.732	16.35
473.086	16.56
473.441	16.25
473.795	16.78
474.15	16.44
474.504	16.54
474.859	16.66
475.213	16.42
475.567	16.5
475.921	16.76
476.275	16.85
476.63	16.71
476.984	16.73
477.338	16.8
477.692	16.93
478.045	17.11
478.399	17
478.753	16.85
479.107	16.91
479.461	16.94
479.814	16.96
480.168	17.08
480.521	16.95
480.875	17.06
481.228	17.08
481.582	16.96
481.935	17.16
482.289	17.28
482.642	17.08
482.995	17.12
483.348	17.28
483.701	17.16
484.055	17.22
484.408	17.01
484.761	16.98
485.114	16.93
485.466	16.64
485.819	16.3
486.172	16.32
486.525	16.35
486.878	16.49
487.23	16.65
487.583	16.76
487.936	16.99
488.288	17.13
488.641	17.06
488.993	16.93
489.345	16.9
489.698	16.88
490.05	16.87
490.402	16.92
490.754	16.97
491.107	17.08
491.459	17.28
491.811	17.47
492.163	17.61
492.515	17.61
492.866	17.63
493.218	17.56
493.57	17.48
493.922	17.27
494.274	17.3
494.625	17.51
494.977	17.75
495.328	17.84
495.68	18.1
496.031	18.09
496.383	18.44
496.734	18.48
497.086	18.63
497.437	18.65
497.788	18.57
498.139	18.49
498.49	18.66
498.842	18.37
499.193	18.3
499.544	18.63
499.894	18.5
500.245	18.77
500.596	18.67
500.947	18.73
501.298	18.76
501.648	18.71
501.999	18.98
502.35	19.03
502.7	19.17
503.051	19.17
503.401	19.27
503.752	19.26
504.102	19.2
504.452	19.21
504.803	19.39
505.153	19.24
505.503	19.38
505.853	19.51
506.203	19.29
506.553	19.49
506.903	19.5
507.253	19.5
507.603	19.61
507.953	19.67
508.303	19.64
508.652	19.71
509.002	19.82
509.352	19.73
509.701	19.76
510.051	19.81
510.4	19.75
510.75	19.73
511.099	19.56
511.449	19.76
511.798	19.88
512.147	19.9
512.496	19.96
512.846	19.86
513.195	19.9
513.544	20.17
513.893	20.14
514.242	19.9
514.591	20.17
514.939	20.15
515.288	20.09
515.637	20.26
515.986	20.33
516.334	20.32
516.683	20.28
517.032	20.62
517.38	20.6
517.729	20.72
518.077	20.69
518.426	20.74
518.774	20.65
519.122	20.72
519.47	20.51
519.819	20.63
520.167	20.58
520.515	20.45
520.863	20.4
521.211	20.43
521.559	20.48
521.907	20.62
522.255	20.76
522.602	20.84
522.95	20.81
523.298	21
523.645	21.16
523.993	21.15
524.341	21.3
524.688	21.32
525.036	21.34
525.383	21.41
525.73	21.43
526.078	21.39
526.425	21.45
526.772	21.57
527.119	21.44
527.466	21.24
527.814	21.05
528.161	21.14
528.508	21.23
528.854	21.14
529.201	21.37
529.548	21.33
529.895	21.3
530.242	21.08
530.588	20.79
530.935	20.71
531.282	20.87
531.628	21.05
531.975	21.07
532.321	21.25
532.667	21.43
533.014	21.58
533.36	21.81
533.706	21.76
534.052	21.96
534.399	21.91
534.745	21.92
535.091	21.78
535.437	21.59
535.783	21.44
536.129	21.69
536.474	21.91
536.82	22.07
537.166	22.22
537.512	22.35
537.857	22.43
538.203	22.46
538.549	22.41
538.894	22.27
539.239	22.24
539.585	22.42
539.93	22.65
540.276	22.7
540.621	22.85
540.966	22.97
541.311	22.99
541.656	22.99
542.001	23.1
542.346	23.07
542.691	22.96
543.036	22.71
543.381	22.36
543.726	22.46
544.071	22.47
544.415	22.61
544.76	22.74
545.105	22.96
545.449	22.96
545.794	23.12
546.138	23.28
546.483	23.28
546.827	23.39
547.171	23.6
547.516	23.71
547.86	23.74
548.204	23.66
548.548	23.71
548.892	23.75
549.236	23.79
549.58	23.82
549.924	24.08
550.268	24.14
550.612	23.98
550.956	24.07
551.3	24.58
551.643	24.45
551.987	24.51
552.33	24.73
552.674	24.78
553.017	24.66
553.361	24.72
553.704	24.73
554.048	25.13
554.391	24.76
554.734	24.94
555.077	24.88
555.42	24.69
555.764	24.85
556.107	25.02
556.45	25.31
556.793	24.96
557.135	25.2
557.478	25.13
557.821	25.31
558.164	25.44
558.507	25.58
558.849	25.56
559.192	25.38
559.534	25.93
559.877	25.57
560.219	25.74
560.562	25.67
560.904	25.81
561.246	26
561.589	25.83
561.931	26.09
562.273	25.86
562.615	25.92
562.957	26.12
563.299	25.93
563.641	26.32
563.983	26.2
564.325	26.26
564.667	26.29
565.008	26.34
565.35	26.4
565.692	26.51
566.033	26.57
566.375	26.54
566.716	26.57
567.058	26.42
567.399	26.64
567.741	26.53
568.082	26.3
568.423	26.59
568.764	26.56
569.105	26.38
569.447	26.77
569.788	26.61
570.129	26.71
570.47	26.89
570.811	27.12
571.151	27.02
571.492	27.16
571.833	27.22
572.174	27.11
572.514	27.36
572.855	27.12
573.195	27.07
573.536	27.19
573.876	27.18
574.217	27.32
574.557	27.31
574.898	27.45
575.238	27.38
575.578	27.33
575.918	27.58
576.258	27.43
576.598	27.58
576.938	27.74
577.278	27.85
577.618	27.69
577.958	27.89
578.298	28.03
578.638	27.7
578.977	28.03
579.317	27.95
579.657	28.19
579.996	28.46
580.336	28.31
580.675	28.5
581.014	28.05
581.354	28.61
581.693	28.59
582.032	28.51
582.372	28.88
582.711	28.61
583.05	28.88
583.389	28.84
583.728	28.97
584.067	29.09
584.406	28.93
584.745	28.8
585.083	28.97
585.422	29.3
585.761	29.27
586.1	29.31
586.438	29.42
586.777	28.97
587.115	29.69
587.454	29.13
587.792	29.54
588.13	29.59
588.469	29.42
588.807	29.6
589.145	30.01
589.483	29.89
589.821	29.63
590.159	29.77
590.497	29.78
590.835	29.93
591.173	29.68
591.511	29.39
591.849	30.04
592.187	29.76
592.524	30.11
592.862	30
593.2	30.21
593.537	30.18
593.875	30.65
594.212	30.69
594.55	30.37
594.887	30.28
595.224	30.75
595.561	30.99
595.899	30.61
596.236	30.92
596.573	30.86
596.91	30.5
597.247	30.49
597.584	30.94
597.921	30.61
598.258	30.77
598.594	31.04
598.931	30.59
599.268	30.55
599.604	30.48
599.941	30.69
600.277	30.77
600.614	30.92
600.95	31.14
601.287	31.04
601.623	31.11
601.959	31.27
602.296	31.22
602.632	31.22
602.968	31.51
603.304	31.63
603.64	31.33
603.976	31.52
604.312	31.86
604.648	31.94
604.984	31.63
605.319	31.53
605.655	31.68
605.991	31.58
606.326	31.64
606.662	31.56
606.998	31.38
607.333	31.84
607.668	31.68
608.004	31.71
608.339	31.78
608.674	31.85
609.01	32.22
609.345	32.14
609.68	32.65
610.015	32.51
610.35	32.28
610.685	32.38
611.02	32.52
611.355	32.35
611.689	32.11
612.024	32.16
612.359	32.23
612.694	32.34
613.028	32.5
613.363	32.52
613.697	32.52
614.032	32.55
614.366	33.14
614.7	32.9
615.035	33.05
615.369	32.89
615.703	33.27
616.037	32.94
616.371	33.43
616.705	33.54
617.039	33.09
617.373	33.47
617.707	33.14
618.041	33.93
618.375	33.72
618.709	33.64
619.042	33.81
619.376	33.87
619.71	34.03
620.043	33.73
620.377	33.6
620.71	33.77
621.043	33.86
621.377	34.1
621.71	34.22
622.043	33.5
622.376	34.19
622.709	34.16
623.043	34.16
623.376	34.42
623.709	34.57
624.041	34.4
624.374	35.1
624.707	34.1
625.04	34.33
625.373	34.33
625.705	34.56
626.038	34.19
626.37	34.99
626.703	34.71
627.035	34.71
627.368	35.1
627.7	34.86
628.032	35.05
628.365	34.75
628.697	35.08
629.029	35.22
629.361	34.98
629.693	35.03
630.025	35.02
630.357	35.25
630.689	34.9
631.021	35.19
631.353	35.22
631.684	35.4
632.016	35.36
632.348	35.37
632.679	35.58
633.011	35.81
633.342	35.73
633.674	35.74
634.005	35.41
634.336	35.83
634.668	35.62
634.999	35.5
635.33	35.88
635.661	35.47
635.992	36.28
636.323	35.87
636.654	36.02
636.985	35.75
637.316	35.88
637.647	36.18
637.977	35.7
638.308	36.5
638.639	36.21
638.969	36.69
639.3	36.81
639.63	36.78
639.961	35.91
640.291	36.54
640.622	36.45
640.952	36.81
641.282	36.79
641.612	37.17
641.943	37.01
642.273	36.96
642.603	36.34
642.933	36.58
643.263	36.61
643.592	36.52
643.922	37.45
644.252	37.16
644.582	37.44
644.911	37.07
645.241	37.54
645.571	37.28
645.9	37.36
646.23	37.65
646.559	36.86
646.888	37.58
647.218	37.77
647.547	37.97
647.876	38.01
648.205	37.47
648.534	38.31
648.863	37.81
649.192	37.46
649.521	37.81
649.85	38.16
650.179	38.27
650.508	38.02
650.837	38.38
651.165	38.13
651.494	38.31
651.822	38.48
652.151	38.15
652.479	38.68
652.808	38.47
653.136	38.29
653.465	38.13
653.793	38.58
654.121	38.75
654.449	37.94
654.777	38.52
655.105	38.53
655.433	38.71
655.761	38.59
656.089	38.68
656.417	38.82
656.745	38.94
657.073	38.32
657.4	39.47
657.728	39.35
658.056	38.97
658.383	39.34
658.711	39
659.038	39
659.365	38.84
659.693	39.41
660.02	39.8
660.347	39.55
660.674	39.01
661.001	39.42
661.329	39.15
661.656	38.96
661.982	38.99
662.309	39.03
662.636	39.52
662.963	39.56
663.29	39.51
663.616	39.36
663.943	39.66
664.27	39.99
664.596	39.88
664.923	39.63
665.249	39.88
665.576	39.77
665.902	40.08
666.228	40.1
666.554	39.81
666.881	39.29
667.207	39.77
667.533	40.35
667.859	40.61
668.185	39.93
668.511	40.59
668.837	40.61
669.162	40.34
669.488	39.98
669.814	40.26
670.139	40.46
670.465	41.53
670.791	40.55
671.116	40.94
671.442	41.23
671.767	40.01
672.092	41.1
672.418	40.5
672.743	41.09
673.068	40.8
673.393	40.58
673.718	40.41
