Data from 0230_forehead_Reflection__3__311.txt Node

Date: Fri Sep 22 23:08:44 CDT 2023
User: ToomeyLab
Spectrometer: FLMS14357
Trigger mode: 0
Integration Time (sec): 1.000000E-2
Scans to average: 100
Electric dark correction enabled: true
Nonlinearity correction enabled: false
Boxcar width: 0
XAxis mode: Wavelengths
Number of Pixels in Spectrum: 2048
>>>>>Begin Spectral Data<<<<<
189.047	-675.82
189.435	-675.82
189.823	-675.82
190.211	-10.02
190.599	-3.67
190.987	19.79
191.375	104.66
191.763	214.86
192.151	96.23
192.538	32.29
192.926	90.57
193.314	147.71
193.702	-330.39
194.089	94.74
194.477	158.18
194.864	8.27
195.252	230.6
195.639	1.81
196.027	21.34
196.414	33.6
196.801	19.35
197.189	143.18
197.576	113.64
197.963	-25.84
198.351	42.45
198.738	61.98
199.125	39.25
199.512	11.91
199.899	64.63
200.286	36.96
200.673	27.59
201.06	45.76
201.447	66.93
201.833	-26.13
202.22	46.41
202.607	46.82
202.994	53.59
203.38	54.57
203.767	39.44
204.154	47.77
204.54	20.13
204.927	31.24
205.313	68.88
205.699	98.85
206.086	59.09
206.472	55.18
206.858	95.32
207.245	-3.94
207.631	61.11
208.017	52.76
208.403	38.59
208.789	39.97
209.175	39.68
209.561	65.82
209.947	80.38
210.333	43.55
210.719	18.49
211.105	31.12
211.491	45.28
211.876	39.92
212.262	42.72
212.648	47.08
213.034	49.7
213.419	9.38
213.805	52.34
214.19	20.31
214.576	30.64
214.961	46.16
215.346	26.73
215.732	20.58
216.117	22.83
216.502	62.66
216.888	44.72
217.273	43.47
217.658	26.15
218.043	34.18
218.428	34.02
218.813	21.96
219.198	39.3
219.583	3.62
219.968	18.44
220.353	38.56
220.738	20.93
221.122	16.83
221.507	27.2
221.892	14.78
222.276	4.26
222.661	-4.81
223.046	29.47
223.43	38.26
223.815	27.4
224.199	1.14
224.583	16.31
224.968	27.04
225.352	3.66
225.736	17.73
226.121	9.35
226.505	15.26
226.889	14.68
227.273	12.94
227.657	10.78
228.041	6.2
228.425	14.51
228.809	6.13
229.193	6.25
229.577	9.08
229.961	6.2
230.344	6.44
230.728	3.88
231.112	6.09
231.495	5.05
231.879	5.66
232.263	5.55
232.646	6.7
233.03	4.82
233.413	4.54
233.797	5.88
234.18	5.17
234.563	7.7
234.946	6.44
235.33	4.89
235.713	3.74
236.096	5.1
236.479	5.53
236.862	7.97
237.245	5.58
237.628	7.25
238.011	7.12
238.394	7.69
238.777	8.39
239.16	6.99
239.543	5.92
239.925	7.91
240.308	4.48
240.691	6.87
241.073	5.66
241.456	5.7
241.838	5.61
242.221	5.01
242.603	5.73
242.986	4.4
243.368	5.05
243.75	4.84
244.133	5.69
244.515	5.04
244.897	4.38
245.279	4.89
245.661	4.98
246.043	5.4
246.425	4.68
246.807	5.37
247.189	3.57
247.571	5.47
247.953	5.52
248.335	5.37
248.717	5.14
249.098	5.31
249.48	5.01
249.862	4.75
250.243	4.93
250.625	5.43
251.006	4.59
251.388	5.63
251.769	5.78
252.151	5.16
252.532	5.98
252.913	5.73
253.295	6.66
253.676	5.24
254.057	5.5
254.438	5.92
254.819	5.08
255.2	4.99
255.581	5.85
255.962	7.33
256.343	5.75
256.724	4.74
257.105	5.62
257.486	6.99
257.867	5.85
258.247	6.93
258.628	7.12
259.009	5.31
259.389	5.31
259.77	5.47
260.15	5.21
260.531	5.18
260.911	5.51
261.292	4.97
261.672	5.23
262.052	4.91
262.432	4.93
262.813	5.08
263.193	4.85
263.573	5.41
263.953	5.31
264.333	5.58
264.713	5.02
265.093	4.93
265.473	5.36
265.853	4.77
266.233	5.5
266.612	5.01
266.992	5.73
267.372	5.98
267.752	5.78
268.131	5.31
268.511	5.09
268.89	5.32
269.27	4.41
269.649	5.2
270.029	4.97
270.408	4.92
270.787	4.99
271.167	5.62
271.546	5.33
271.925	5.36
272.304	4.31
272.683	5.59
273.062	5.08
273.441	5.23
273.82	5.15
274.199	5.03
274.578	5.17
274.957	5.07
275.336	4.85
275.715	5.23
276.093	4.92
276.472	5.23
276.851	5
277.229	4.34
277.608	5.46
277.986	4.97
278.365	5.39
278.743	5.38
279.122	5.35
279.5	5.54
279.878	5.26
280.257	5.9
280.635	5.31
281.013	6.08
281.391	5.08
281.769	5.51
282.147	5.34
282.525	5.04
282.903	5.13
283.281	5.06
283.659	5.12
284.037	5.2
284.415	5.45
284.792	5.18
285.17	5.22
285.548	5.45
285.925	5.29
286.303	5
286.68	4.95
287.058	5.09
287.435	5.34
287.813	5.3
288.19	4.74
288.567	5.42
288.945	4.86
289.322	4.99
289.699	5.28
290.076	5.55
290.453	5.16
290.83	4.77
291.207	5.01
291.584	5.13
291.961	5.12
292.338	5.58
292.715	5.41
293.092	5.41
293.469	5.73
293.845	5.54
294.222	6.01
294.599	6.24
294.975	6.38
295.352	5.61
295.728	5.49
296.105	6.22
296.481	5.9
296.858	6.36
297.234	6.34
297.61	5.98
297.986	5.87
298.363	5.85
298.739	6.15
299.115	6.13
299.491	6.04
299.867	6.06
300.243	5.91
300.619	6.53
300.995	6.08
301.371	6.58
301.746	6.76
302.122	6.18
302.498	6.58
302.874	6.08
303.249	6.57
303.625	6.2
304	6.88
304.376	6.98
304.751	6.94
305.127	6.56
305.502	6.87
305.878	6.85
306.253	7.01
306.628	7.4
307.003	7.19
307.378	6.66
307.754	7.31
308.129	7
308.504	6.85
308.879	7.68
309.254	6.64
309.629	7.01
310.003	8.14
310.378	7.87
310.753	7.63
311.128	7.22
311.502	7.37
311.877	7.35
312.252	7.44
312.626	7.47
313.001	7.64
313.375	7.64
313.75	8.15
314.124	7.93
314.498	7.5
314.873	7.94
315.247	8.02
315.621	8.01
315.995	7.98
316.369	8.36
316.743	8.28
317.117	8.72
317.491	8.57
317.865	8.43
318.239	8.33
318.613	8.39
318.987	8.51
319.361	8.48
319.734	8.59
320.108	9.12
320.482	8.5
320.855	8.69
321.229	9.4
321.602	8.86
321.976	8.81
322.349	8.98
322.723	9.1
323.096	9.3
323.469	8.98
323.843	9.1
324.216	9.46
324.589	9.28
324.962	9.13
325.335	8.98
325.708	9.43
326.081	9.88
326.454	9.28
326.827	9.11
327.2	9.3
327.573	10.06
327.945	9.44
328.318	9.67
328.691	9.96
329.063	9.67
329.436	9.9
329.809	9.69
330.181	9.93
330.553	10.23
330.926	9.84
331.298	10.11
331.671	10.12
332.043	9.89
332.415	9.81
332.787	10.5
333.159	10.29
333.532	9.61
333.904	10.28
334.276	10.22
334.648	10.21
335.02	9.72
335.391	10.58
335.763	10.77
336.135	10.54
336.507	10.51
336.879	10.11
337.25	10.46
337.622	10.61
337.993	10.96
338.365	10.66
338.736	10.9
339.108	10.73
339.479	10.26
339.851	10.53
340.222	10.62
340.593	10.66
340.964	10.73
341.336	10.96
341.707	10.74
342.078	11.35
342.449	11.28
342.82	10.84
343.191	10.74
343.562	10.9
343.933	11.41
344.303	10.74
344.674	11.08
345.045	11.16
345.416	11.62
345.786	11.04
346.157	10.97
346.527	11.13
346.898	11.27
347.268	11.26
347.639	11.52
348.009	11.14
348.38	11.59
348.75	11.75
349.12	11.75
349.49	11.94
349.861	11.82
350.231	11.74
350.601	11.6
350.971	12.03
351.341	11.74
351.711	11.79
352.081	11.91
352.45	11.96
352.82	11.93
353.19	12.14
353.56	12.14
353.929	11.91
354.299	11.95
354.669	12.12
355.038	11.89
355.408	11.93
355.777	12.2
356.147	12.42
356.516	12.39
356.885	12.21
357.254	12.72
357.624	12.35
357.993	12.19
358.362	12.57
358.731	12.25
359.1	12.34
359.469	12.91
359.838	12.31
360.207	12.66
360.576	12.46
360.945	12.84
361.314	12.8
361.682	13.02
362.051	13.08
362.42	12.98
362.788	12.79
363.157	13.01
363.525	12.89
363.894	13
364.262	13.05
364.631	12.88
364.999	13.05
365.367	13.27
365.735	13.4
366.104	13.19
366.472	13.4
366.84	13.24
367.208	13.91
367.576	13.59
367.944	13.46
368.312	13.71
368.68	13.3
369.048	13.9
369.416	13.79
369.783	13.54
370.151	13.83
370.519	13.47
370.886	13.59
371.254	14.02
371.621	13.73
371.989	14.02
372.356	13.42
372.724	14.21
373.091	14.2
373.458	14.02
373.826	14.39
374.193	14.16
374.56	14.15
374.927	14.33
375.294	14.21
375.661	14.04
376.028	14.42
376.395	14.46
376.762	14.35
377.129	14.66
377.496	14.8
377.863	14.42
378.229	14.56
378.596	14.57
378.963	14.97
379.329	14.61
379.696	14.99
380.062	14.51
380.429	14.67
380.795	14.85
381.161	15.07
381.528	14.89
381.894	14.8
382.26	15.04
382.626	14.99
382.993	15.06
383.359	15.09
383.725	14.86
384.091	15.4
384.457	15.22
384.823	15.14
385.188	15.32
385.554	15.25
385.92	15.4
386.286	15.56
386.651	15.62
387.017	15.59
387.383	15.55
387.748	15.6
388.114	15.57
388.479	15.97
388.845	15.68
389.21	16.09
389.575	15.89
389.94	15.81
390.306	15.95
390.671	16.03
391.036	15.82
391.401	15.97
391.766	15.75
392.131	15.85
392.496	15.9
392.861	15.93
393.226	16.39
393.591	16.15
393.956	16.16
394.32	16.27
394.685	16.1
395.05	16.41
395.414	16.25
395.779	16.28
396.143	16.24
396.508	16.54
396.872	16.58
397.236	16.56
397.601	16.54
397.965	16.73
398.329	16.84
398.694	16.61
399.058	16.77
399.422	16.58
399.786	16.98
400.15	16.95
400.514	16.86
400.878	16.85
401.242	16.93
401.605	17.12
401.969	16.96
402.333	17.36
402.697	17.02
403.06	17.03
403.424	17.3
403.787	17.3
404.151	17.47
404.514	17.12
404.878	17.54
405.241	17.69
405.604	17.41
405.968	17.42
406.331	17.62
406.694	17.33
407.057	17.19
407.42	17.68
407.783	17.64
408.146	17.66
408.509	17.78
408.872	17.8
409.235	17.93
409.598	17.63
409.961	18.19
410.323	17.73
410.686	18.26
411.049	18.38
411.411	18.09
411.774	17.78
412.136	18.05
412.499	18.07
412.861	18.25
413.223	18.2
413.586	18.1
413.948	18.21
414.31	18.47
414.672	18.44
415.035	18.44
415.397	18.69
415.759	18.43
416.121	18.28
416.483	18.49
416.845	18.25
417.206	18.54
417.568	18.66
417.93	18.61
418.292	18.63
418.653	18.56
419.015	18.88
419.377	18.52
419.738	18.87
420.1	18.52
420.461	18.66
420.822	18.55
421.184	18.69
421.545	18.59
421.906	18.55
422.267	18.62
422.629	18.79
422.99	18.78
423.351	18.77
423.712	18.68
424.073	18.7
424.434	18.88
424.795	18.98
425.155	19.08
425.516	19.01
425.877	19.05
426.238	18.85
426.598	18.99
426.959	19.04
427.32	18.95
427.68	19.17
428.041	19.27
428.401	19.5
428.761	19.48
429.122	19.62
429.482	19.72
429.842	19.61
430.202	19.63
430.563	19.81
430.923	19.96
431.283	19.88
431.643	19.95
432.003	20
432.363	20.01
432.722	20.24
433.082	20.3
433.442	20.07
433.802	20.12
434.161	20.23
434.521	20.22
434.881	20.28
435.24	20.16
435.6	20.1
435.959	20.32
436.319	20.37
436.678	20.44
437.037	20.68
437.396	20.47
437.756	20.8
438.115	20.62
438.474	20.78
438.833	20.93
439.192	20.88
439.551	20.82
439.91	20.72
440.269	20.98
440.628	20.67
440.987	20.86
441.345	21.13
441.704	20.98
442.063	20.91
442.421	20.79
442.78	20.91
443.138	20.98
443.497	20.88
443.855	21.09
444.214	20.99
444.572	21.2
444.93	21.26
445.288	21.25
445.647	21.59
446.005	21.29
446.363	21.41
446.721	21.34
447.079	21.42
447.437	21.46
447.795	21.47
448.153	21.25
448.51	21.17
448.868	21.13
449.226	21.35
449.584	21.48
449.941	21.34
450.299	21.44
450.656	21.73
451.014	21.84
451.371	21.74
451.729	21.96
452.086	22.03
452.443	22.3
452.801	22.3
453.158	22.18
453.515	22.35
453.872	22.19
454.229	22.27
454.586	22.36
454.943	22.36
455.3	22.42
455.657	22.33
456.014	22.71
456.371	22.47
456.727	22.64
457.084	22.67
457.441	22.62
457.797	22.85
458.154	22.73
458.51	22.85
458.867	22.85
459.223	23.06
459.58	22.99
459.936	23
460.292	22.97
460.648	23.03
461.005	22.97
461.361	22.98
461.717	22.69
462.073	22.79
462.429	22.59
462.785	22.74
463.141	22.99
463.496	23.08
463.852	23.19
464.208	23.32
464.564	23.46
464.919	23.36
465.275	23.9
465.631	23.72
465.986	23.67
466.342	23.82
466.697	23.86
467.052	23.93
467.408	24.23
467.763	23.96
468.118	24.21
468.473	23.95
468.829	23.99
469.184	23.96
469.539	23.99
469.894	24.1
470.249	24.11
470.603	24.16
470.958	24.16
471.313	24.33
471.668	24.43
472.023	24.32
472.377	24.26
472.732	24.46
473.086	24.47
473.441	24.26
473.795	24.79
474.15	24.41
474.504	24.52
474.859	24.81
475.213	24.61
475.567	24.64
475.921	24.85
476.275	24.73
476.63	24.83
476.984	24.84
477.338	25.02
477.692	24.92
478.045	25.39
478.399	25.27
478.753	25.03
479.107	24.93
479.461	25
479.814	25.15
480.168	25.02
480.521	25.05
480.875	25.3
481.228	25.22
481.582	25.23
481.935	25.45
482.289	25.37
482.642	25.26
482.995	25.35
483.348	25.26
483.701	25.25
484.055	25.32
484.408	25.24
484.761	25.21
485.114	25.03
485.466	24.87
485.819	24.65
486.172	24.55
486.525	24.62
486.878	24.69
487.23	24.81
487.583	24.96
487.936	25.09
488.288	25.23
488.641	25.31
488.993	25.17
489.345	25.14
489.698	25.16
490.05	25.18
490.402	25.25
490.754	25.24
491.107	25.38
491.459	25.57
491.811	25.8
492.163	25.96
492.515	25.99
492.866	26.02
493.218	25.94
493.57	25.75
493.922	25.64
494.274	25.78
494.625	25.89
494.977	25.96
495.328	26.24
495.68	26.48
496.031	26.58
496.383	26.94
496.734	26.95
497.086	26.91
497.437	27.05
497.788	26.98
498.139	27.06
498.49	27.05
498.842	26.98
499.193	27.07
499.544	27.08
499.894	27.03
500.245	27.26
500.596	27.24
500.947	27.29
501.298	27.34
501.648	27.49
501.999	27.56
502.35	27.76
502.7	27.83
503.051	27.74
503.401	27.8
503.752	27.87
504.102	27.93
504.452	27.88
504.803	27.93
505.153	28.12
505.503	28.2
505.853	28.07
506.203	28.06
506.553	27.91
506.903	28.23
507.253	28.32
507.603	28.46
507.953	28.43
508.303	28.37
508.652	28.42
509.002	28.61
509.352	28.39
509.701	28.44
510.051	28.48
510.4	28.46
510.75	28.54
511.099	28.48
511.449	28.58
511.798	28.7
512.147	28.64
512.496	28.67
512.846	28.76
513.195	28.76
513.544	28.83
513.893	28.89
514.242	28.8
514.591	29
514.939	29.02
515.288	28.93
515.637	29.03
515.986	29.07
516.334	29.13
516.683	29.34
517.032	29.42
517.38	29.52
517.729	29.52
518.077	29.67
518.426	29.67
518.774	29.7
519.122	29.67
519.47	29.56
519.819	29.76
520.167	29.53
520.515	29.5
520.863	29.36
521.211	29.44
521.559	29.63
521.907	29.66
522.255	29.7
522.602	29.86
522.95	29.95
523.298	30.02
523.645	30.27
523.993	30.17
524.341	30.3
524.688	30.25
525.036	30.34
525.383	30.6
525.73	30.47
526.078	30.49
526.425	30.59
526.772	30.8
527.119	30.45
527.466	30.26
527.814	30.12
528.161	30.25
528.508	30.21
528.854	30.4
529.201	30.38
529.548	30.36
529.895	30.38
530.242	30.3
530.588	29.93
530.935	29.94
531.282	30.04
531.628	30.11
531.975	30.15
532.321	30.32
532.667	30.53
533.014	30.65
533.36	30.81
533.706	31.02
534.052	31.03
534.399	31.11
534.745	31.16
535.091	30.98
535.437	30.82
535.783	30.8
536.129	30.95
536.474	30.97
536.82	31.07
537.166	31.44
537.512	31.6
537.857	31.65
538.203	31.84
538.549	31.62
538.894	31.48
539.239	31.57
539.585	31.78
539.93	31.79
540.276	31.92
540.621	32.23
540.966	32.36
541.311	32.32
541.656	32.4
542.001	32.49
542.346	32.46
542.691	32.37
543.036	32.27
543.381	31.74
543.726	31.64
544.071	31.9
544.415	31.92
544.76	32.07
545.105	32.25
545.449	32.32
545.794	32.5
546.138	32.59
546.483	32.45
546.827	32.77
547.171	32.94
547.516	33.07
547.86	33.07
548.204	33.22
548.548	33.27
548.892	33.01
549.236	33.04
549.58	33.26
549.924	33.38
550.268	33.46
550.612	33.56
550.956	33.81
551.3	33.87
551.643	33.81
551.987	34.06
552.33	34.14
552.674	34.18
553.017	34.03
553.361	34.19
553.704	34.29
554.048	34.38
554.391	34.32
554.734	34.43
555.077	34.38
555.42	34.35
555.764	34.38
556.107	34.52
556.45	34.55
556.793	34.44
557.135	34.67
557.478	34.8
557.821	34.99
558.164	34.93
558.507	35.16
558.849	35.18
559.192	35.12
559.534	35.18
559.877	34.99
560.219	35.4
560.562	35.33
560.904	35.19
561.246	35.43
561.589	35.47
561.931	35.54
562.273	35.28
562.615	35.64
562.957	35.68
563.299	35.84
563.641	35.72
563.983	35.49
564.325	35.79
564.667	36.01
565.008	35.92
565.35	36.27
565.692	36.02
566.033	36.17
566.375	36.02
566.716	36.09
567.058	35.96
567.399	36.18
567.741	36.11
568.082	36.02
568.423	36.35
568.764	36.22
569.105	35.99
569.447	36.34
569.788	36.08
570.129	36.51
570.47	36.55
570.811	36.51
571.151	36.48
571.492	36.75
571.833	36.78
572.174	36.78
572.514	36.8
572.855	36.87
573.195	36.8
573.536	36.74
573.876	36.76
574.217	36.98
574.557	36.79
574.898	37.1
575.238	37.14
575.578	37.06
575.918	37.2
576.258	37.1
576.598	37.23
576.938	37.43
577.278	37.45
577.618	37.3
577.958	37.44
578.298	37.49
578.638	37.32
578.977	37.68
579.317	37.75
579.657	37.92
579.996	37.98
580.336	38
580.675	38.26
581.014	37.86
581.354	38.26
581.693	38.29
582.032	38.44
582.372	38.3
582.711	38.7
583.05	38.45
583.389	38.54
583.728	38.66
584.067	38.79
584.406	38.86
584.745	38.5
585.083	38.87
585.422	39.04
585.761	38.9
586.1	39.07
586.438	39.29
586.777	39.03
587.115	39.17
587.454	38.88
587.792	39.32
588.13	39.08
588.469	39.26
588.807	39.6
589.145	39.4
589.483	39.24
589.821	39.55
590.159	39.59
590.497	39.67
590.835	39.59
591.173	39.67
591.511	39.53
591.849	39.77
592.187	39.62
592.524	39.84
592.862	40
593.2	39.92
593.537	39.86
593.875	40.13
594.212	40.01
594.55	40.34
594.887	40.13
595.224	40.22
595.561	40.5
595.899	40.19
596.236	40.38
596.573	40.52
596.91	40.67
597.247	40.38
597.584	40.51
597.921	40.61
598.258	40.49
598.594	40.8
598.931	40.22
599.268	40.18
599.604	40.76
599.941	40.46
600.277	40.36
600.614	40.53
600.95	40.77
601.287	40.87
601.623	40.86
601.959	40.85
602.296	40.97
602.632	41.1
602.968	41.39
603.304	41.39
603.64	41.32
603.976	41.54
604.312	41.6
604.648	41.23
604.984	41.64
605.319	41.32
605.655	41.17
605.991	41.48
606.326	41.48
606.662	41.4
606.998	41.33
607.333	41.52
607.668	41.78
608.004	41.38
608.339	41.53
608.674	41.61
609.01	41.75
609.345	42.15
609.68	42.07
610.015	42.25
610.35	42.11
610.685	42.14
611.02	42.15
611.355	42.3
611.689	42.18
612.024	42.07
612.359	42.16
612.694	41.93
613.028	42.38
613.363	42.18
613.697	42.52
614.032	43.09
614.366	42.75
614.7	42.97
615.035	42.84
615.369	43.3
615.703	43.13
616.037	42.47
616.371	43.38
616.705	43.31
617.039	43.34
617.373	43.53
617.707	43.32
618.041	43.24
618.375	43.28
618.709	43.2
619.042	43.41
619.376	43.32
619.71	44.05
620.043	43.47
620.377	43.75
620.71	43.51
621.043	43.55
621.377	44.13
621.71	43.87
622.043	43.93
622.376	44.11
622.709	44.31
623.043	43.98
623.376	44.07
623.709	44.05
624.041	43.72
624.374	44.08
624.707	44.16
625.04	44.21
625.373	44.06
625.705	44.15
626.038	44.06
626.37	44.4
626.703	44.07
627.035	44.43
627.368	44.46
627.7	44.49
628.032	44.79
628.365	44.76
628.697	44.49
629.029	44.78
629.361	45.21
629.693	44.9
630.025	45
630.357	44.91
630.689	44.99
631.021	45.24
631.353	44.74
631.684	44.99
632.016	45.33
632.348	45.24
632.679	45.45
633.011	45.21
633.342	45.31
633.674	45.41
634.005	45.39
634.336	45.72
634.668	45.58
634.999	45.62
635.33	45.56
635.661	45.52
635.992	45.75
636.323	45.7
636.654	45.5
636.985	45.51
637.316	45.66
637.647	45.96
637.977	45.78
638.308	46.29
638.639	46.22
638.969	46.46
639.3	46.62
639.63	46.43
639.961	46.08
640.291	46.43
640.622	46.79
640.952	46.26
641.282	46.7
641.612	46.41
641.943	46.28
642.273	46.39
642.603	46.62
642.933	46.64
643.263	46.66
643.592	46.98
643.922	46.95
644.252	47.07
644.582	47.26
644.911	47.07
645.241	46.91
645.571	46.98
645.9	47.12
646.23	47.27
646.559	47.13
646.888	47.41
647.218	47.18
647.547	47.24
647.876	47.08
648.205	47.76
648.534	47.46
648.863	47.57
649.192	46.95
649.521	47.67
649.85	47.02
650.179	47.61
650.508	47.37
650.837	47.23
651.165	47.78
651.494	47.71
651.822	47.62
652.151	47.36
652.479	47.99
652.808	47.36
653.136	48.1
653.465	48.17
653.793	48.06
654.121	48.55
654.449	47.75
654.777	48.08
655.105	47.64
655.433	47.97
655.761	48.37
656.089	48.32
656.417	47.97
656.745	48.35
657.073	48.45
657.4	49.01
657.728	48.08
658.056	48.61
658.383	48.62
658.711	48.54
659.038	48.84
659.365	48.68
659.693	48.86
660.02	48.95
660.347	48.6
660.674	48.67
661.001	48.52
661.329	48.51
661.656	49.03
661.982	48.76
662.309	48.83
662.636	48.67
662.963	48.83
663.29	48.98
663.616	48.82
663.943	49.59
664.27	48.87
664.596	48.44
664.923	49.39
665.249	48.9
665.576	48.51
665.902	48.95
666.228	49.08
666.554	48.69
666.881	49.17
667.207	48.8
667.533	49.86
667.859	49.82
668.185	49.79
668.511	50.06
668.837	49.81
669.162	49.88
669.488	49.52
669.814	49.81
