Data from 0230_chest_Reflection__3__301.txt Node

Date: Fri Sep 22 23:05:55 CDT 2023
User: ToomeyLab
Spectrometer: FLMS14357
Trigger mode: 0
Integration Time (sec): 1.000000E-2
Scans to average: 100
Electric dark correction enabled: true
Nonlinearity correction enabled: false
Boxcar width: 0
XAxis mode: Wavelengths
Number of Pixels in Spectrum: 2048
>>>>>Begin Spectral Data<<<<<
189.047	116.44
189.435	116.44
189.823	116.44
190.211	-0.2
190.599	32.37
190.987	-0.96
191.375	85.79
191.763	226
192.151	13.74
192.538	-3.61
192.926	55.55
193.314	113.59
193.702	1039.78
194.089	103.9
194.477	123.53
194.864	46.13
195.252	166.44
195.639	804.23
196.027	66.06
196.414	140.27
196.801	-5.6
197.189	78.04
197.576	53.01
197.963	10.07
198.351	47.11
198.738	-4.41
199.125	3.26
199.512	22.25
199.899	52.15
200.286	45.41
200.673	5.91
201.06	21.14
201.447	47.85
201.833	-18.98
202.22	30.13
202.607	49.03
202.994	43.09
203.38	34.04
203.767	25.4
204.154	42.82
204.54	22.02
204.927	34.41
205.313	29.76
205.699	58.62
206.086	33.7
206.472	51.97
206.858	14.28
207.245	14.5
207.631	4.13
208.017	24.71
208.403	33.43
208.789	48.76
209.175	20.81
209.561	29.32
209.947	31.46
210.333	17.56
210.719	13.54
211.105	27.79
211.491	-14.65
211.876	38.22
212.262	40.89
212.648	37.21
213.034	55.33
213.419	24.84
213.805	28.64
214.19	13.81
214.576	15.97
214.961	19.85
215.346	5.23
215.732	11.88
216.117	15.39
216.502	35.56
216.888	27.85
217.273	11.45
217.658	3.68
218.043	25.4
218.428	24.43
218.813	-18.38
219.198	18.06
219.583	26.26
219.968	19.82
220.353	27.91
220.738	3.78
221.122	13.28
221.507	20.08
221.892	0.29
222.276	7.56
222.661	-10.81
223.046	7.9
223.43	16.03
223.815	14.42
224.199	11.41
224.583	19.12
224.968	18.22
225.352	-0.19
225.736	16.34
226.121	0.54
226.505	-2.76
226.889	5.07
227.273	10
227.657	11.43
228.041	0.09
228.425	11.86
228.809	7.7
229.193	7.17
229.577	7.2
229.961	5.95
230.344	6.03
230.728	3.2
231.112	6.57
231.495	5.3
231.879	5.21
232.263	4.83
232.646	4.83
233.03	6.19
233.413	6.46
233.797	6.45
234.18	6.13
234.563	7.42
234.946	9.26
235.33	5.17
235.713	5.29
236.096	5.87
236.479	4.81
236.862	6.65
237.245	4.7
237.628	5.39
238.011	7.16
238.394	5.95
238.777	6.91
239.16	4.1
239.543	6.01
239.925	6.02
240.308	7.96
240.691	6.47
241.073	8.57
241.456	5.57
241.838	5.28
242.221	5.26
242.603	6.19
242.986	4.69
243.368	5.9
243.75	5.22
244.133	6.11
244.515	5.15
244.897	4.63
245.279	4.96
245.661	4.8
246.043	5.71
246.425	5.77
246.807	6.98
247.189	4.48
247.571	5.41
247.953	5.63
248.335	5.24
248.717	5.6
249.098	4.77
249.48	4.67
249.862	4.67
250.243	4.46
250.625	5
251.006	4.56
251.388	4.95
251.769	4.62
252.151	4.26
252.532	4.16
252.913	5.34
253.295	5.52
253.676	5.18
254.057	5.09
254.438	4.36
254.819	4.48
255.2	4.69
255.581	4.18
255.962	5.28
256.343	4.06
256.724	3.3
257.105	4.64
257.486	5.07
257.867	5.1
258.247	5.4
258.628	5.58
259.009	4.4
259.389	4.71
259.77	5.07
260.15	4.57
260.531	4.91
260.911	4.34
261.292	4.13
261.672	4.26
262.052	4.5
262.432	4.28
262.813	4.61
263.193	3.96
263.573	4.82
263.953	4.33
264.333	4.04
264.713	4.17
265.093	4.26
265.473	4.83
265.853	4.65
266.233	3.64
266.612	3.88
266.992	5.11
267.372	4.42
267.752	4.89
268.131	4.41
268.511	4.58
268.89	5.16
269.27	4.19
269.649	4.63
270.029	3.74
270.408	4.08
270.787	4.23
271.167	4.5
271.546	4.47
271.925	3.99
272.304	4.01
272.683	4.27
273.062	4.89
273.441	4.45
273.82	4.54
274.199	4.7
274.578	4.32
274.957	4.27
275.336	4.48
275.715	3.91
276.093	3.65
276.472	4.29
276.851	4.19
277.229	4.17
277.608	4.23
277.986	3.61
278.365	4.6
278.743	4.06
279.122	4.85
279.5	4.8
279.878	4.48
280.257	4.97
280.635	4.28
281.013	4.38
281.391	3.62
281.769	3.74
282.147	4.57
282.525	4.49
282.903	4.15
283.281	4.1
283.659	4.23
284.037	4.22
284.415	4.01
284.792	4.11
285.17	4.36
285.548	4.36
285.925	3.85
286.303	4.18
286.68	3.95
287.058	3.96
287.435	4.09
287.813	4.12
288.19	3.58
288.567	4.07
288.945	3.63
289.322	4.04
289.699	3.83
290.076	4.13
290.453	3.86
290.83	3.49
291.207	3.68
291.584	3.42
291.961	4
292.338	4.05
292.715	4.37
293.092	3.76
293.469	4.37
293.845	4.04
294.222	4.29
294.599	3.7
294.975	4.43
295.352	4.16
295.728	4.19
296.105	4.38
296.481	3.66
296.858	4.09
297.234	3.95
297.61	3.64
297.986	3.9
298.363	3.83
298.739	3.95
299.115	3.95
299.491	3.82
299.867	3.76
300.243	3.41
300.619	4.14
300.995	3.65
301.371	4.28
301.746	3.81
302.122	3.69
302.498	4.07
302.874	3.7
303.249	4.25
303.625	4.01
304	4.86
304.376	4.12
304.751	4.03
305.127	4.29
305.502	4.2
305.878	3.73
306.253	3.96
306.628	4.04
307.003	3.8
307.378	3.93
307.754	3.93
308.129	4.03
308.504	3.72
308.879	3.98
309.254	4.55
309.629	3.47
310.003	4.04
310.378	4.32
310.753	3.91
311.128	3.99
311.502	4.11
311.877	3.33
312.252	4.05
312.626	3.8
313.001	4.13
313.375	3.71
313.75	4.13
314.124	3.95
314.498	3.43
314.873	3.96
315.247	4.04
315.621	3.94
315.995	4.02
316.369	3.63
316.743	3.75
317.117	4.16
317.491	4.68
317.865	3.93
318.239	3.58
318.613	3.32
318.987	3.88
319.361	3.95
319.734	3.59
320.108	3.98
320.482	3.76
320.855	4.19
321.229	4.26
321.602	3.77
321.976	3.34
322.349	3.78
322.723	4.17
323.096	3.97
323.469	3.65
323.843	4.18
324.216	4.01
324.589	3.77
324.962	3.35
325.335	3.53
325.708	3.63
326.081	3.67
326.454	3.63
326.827	3.8
327.2	4.12
327.573	4.5
327.945	3.89
328.318	4.01
328.691	3.63
329.063	3.69
329.436	3.4
329.809	3.77
330.181	3.71
330.553	3.27
330.926	4.42
331.298	3.81
331.671	4.45
332.043	3.51
332.415	3.9
332.787	4.35
333.159	3.34
333.532	4.3
333.904	4.13
334.276	4.44
334.648	3.33
335.02	3.86
335.391	3.9
335.763	4.01
336.135	3.95
336.507	4
336.879	3.33
337.25	4.04
337.622	4.07
337.993	3.83
338.365	4.16
338.736	3.98
339.108	3.76
339.479	3.64
339.851	3.8
340.222	4.15
340.593	3.71
340.964	3.84
341.336	3.82
341.707	3.41
342.078	3.79
342.449	3.72
342.82	3.81
343.191	3.46
343.562	3.64
343.933	3.76
344.303	3.9
344.674	3.45
345.045	3.48
345.416	3.83
345.786	3.85
346.157	3.73
346.527	3.7
346.898	3.48
347.268	3.49
347.639	3.6
348.009	3.73
348.38	3.78
348.75	3.85
349.12	3.65
349.49	3.71
349.861	3.52
350.231	3.68
350.601	3.87
350.971	3.85
351.341	3.37
351.711	3.47
352.081	3.76
352.45	3.88
352.82	3.92
353.19	4.35
353.56	3.69
353.929	3.55
354.299	3.68
354.669	3.73
355.038	3.52
355.408	3.72
355.777	4.07
356.147	3.87
356.516	4.18
356.885	3.74
357.254	4
357.624	3.22
357.993	3.87
358.362	3.58
358.731	3.61
359.1	3.77
359.469	3.67
359.838	3.26
360.207	3.79
360.576	3.73
360.945	3.67
361.314	3.77
361.682	3.67
362.051	3.95
362.42	3.56
362.788	3.49
363.157	3.65
363.525	3.65
363.894	3.49
364.262	3.67
364.631	3.61
364.999	3.65
365.367	3.93
365.735	3.77
366.104	3.72
366.472	3.95
366.84	3.56
367.208	4.1
367.576	4
367.944	3.55
368.312	3.97
368.68	3.98
369.048	4.05
369.416	3.75
369.783	3.51
370.151	3.78
370.519	3.44
370.886	3.66
371.254	3.93
371.621	3.61
371.989	3.7
372.356	3.79
372.724	4.08
373.091	3.73
373.458	4.04
373.826	4.05
374.193	4.07
374.56	3.99
374.927	3.68
375.294	4.06
375.661	3.89
376.028	3.85
376.395	4.09
376.762	3.5
377.129	4.02
377.496	4.07
377.863	4.16
378.229	3.77
378.596	3.73
378.963	4.19
379.329	3.85
379.696	4.06
380.062	3.71
380.429	4.04
380.795	3.94
381.161	3.67
381.528	3.93
381.894	3.61
382.26	3.83
382.626	3.75
382.993	3.85
383.359	3.76
383.725	3.72
384.091	4.02
384.457	3.59
384.823	3.57
385.188	3.87
385.554	3.95
385.92	4.06
386.286	3.9
386.651	3.57
387.017	4.08
387.383	3.71
387.748	3.68
388.114	3.83
388.479	3.98
388.845	3.82
389.21	3.81
389.575	4.08
389.94	3.49
390.306	4
390.671	4.25
391.036	3.44
391.401	3.82
391.766	3.82
392.131	3.86
392.496	3.69
392.861	3.74
393.226	3.88
393.591	3.85
393.956	3.76
394.32	3.85
394.685	3.88
395.05	3.98
395.414	4.06
395.779	3.83
396.143	3.8
396.508	3.79
396.872	3.79
397.236	3.99
397.601	3.79
397.965	4.2
398.329	3.86
398.694	3.97
399.058	3.73
399.422	3.92
399.786	3.87
400.15	3.8
400.514	3.82
400.878	3.66
401.242	3.96
401.605	3.73
401.969	3.71
402.333	3.81
402.697	3.75
403.06	4
403.424	4.01
403.787	3.93
404.151	3.95
404.514	3.97
404.878	4.02
405.241	3.99
405.604	3.83
405.968	4.07
406.331	4.1
406.694	3.87
407.057	3.99
407.42	3.98
407.783	4.04
408.146	3.86
408.509	3.65
408.872	3.93
409.235	4.09
409.598	3.78
409.961	4.1
410.323	3.95
410.686	4.1
411.049	3.96
411.411	4.05
411.774	3.85
412.136	4.07
412.499	4.05
412.861	3.78
413.223	3.91
413.586	3.76
413.948	3.89
414.31	4
414.672	4.05
415.035	3.84
415.397	4.06
415.759	4.17
416.121	3.78
416.483	3.68
416.845	3.88
417.206	3.76
417.568	3.85
417.93	3.73
418.292	3.87
418.653	3.93
419.015	3.8
419.377	3.85
419.738	4.06
420.1	3.92
420.461	3.81
420.822	3.71
421.184	3.99
421.545	3.86
421.906	3.93
422.267	3.75
422.629	3.85
422.99	3.86
423.351	3.71
423.712	3.79
424.073	3.7
424.434	3.89
424.795	3.79
425.155	3.92
425.516	3.84
425.877	3.84
426.238	3.66
426.598	3.76
426.959	3.79
427.32	3.83
427.68	3.74
428.041	3.75
428.401	3.96
428.761	4.12
429.122	3.92
429.482	3.94
429.842	3.89
430.202	3.95
430.563	4.1
430.923	3.99
431.283	4.1
431.643	3.94
432.003	3.95
432.363	4.11
432.722	4.05
433.082	3.98
433.442	3.87
433.802	3.97
434.161	3.98
434.521	4.02
434.881	3.94
435.24	3.78
435.6	3.92
435.959	3.92
436.319	3.85
436.678	4.05
437.037	3.97
437.396	3.77
437.756	4.12
438.115	4.08
438.474	3.91
438.833	4.1
439.192	3.97
439.551	3.86
439.91	4.07
440.269	3.85
440.628	3.73
440.987	3.88
441.345	3.99
441.704	4.08
442.063	3.98
442.421	3.87
442.78	3.99
443.138	3.9
443.497	3.86
443.855	3.97
444.214	3.81
444.572	4.08
444.93	3.87
445.288	4.01
445.647	4
446.005	4.02
446.363	3.98
446.721	3.92
447.079	3.78
447.437	4.05
447.795	3.97
448.153	3.77
448.51	3.91
448.868	3.92
449.226	3.92
449.584	3.9
449.941	3.9
450.299	4
450.656	3.91
451.014	3.98
451.371	3.88
451.729	4
452.086	4.01
452.443	4.13
452.801	4.05
453.158	3.99
453.515	4.15
453.872	4.02
454.229	4.12
454.586	4.03
454.943	4.08
455.3	3.97
455.657	4.1
456.014	4.06
456.371	4.03
456.727	4.11
457.084	4.07
457.441	3.95
457.797	4
458.154	3.97
458.51	4.04
458.867	4.02
459.223	3.97
459.58	4.09
459.936	4.05
460.292	4.16
460.648	4.17
461.005	3.99
461.361	4
461.717	3.89
462.073	3.97
462.429	3.87
462.785	3.94
463.141	4.05
463.496	4.15
463.852	4.07
464.208	3.91
464.564	4.21
464.919	3.95
465.275	4.2
465.631	4.11
465.986	4.12
466.342	4.07
466.697	4.2
467.052	4
467.408	4.08
467.763	4.02
468.118	4.19
468.473	4.09
468.829	3.99
469.184	4.14
469.539	4
469.894	4.03
470.249	4.12
470.603	3.98
470.958	4.07
471.313	4.24
471.668	4.15
472.023	4.04
472.377	3.93
472.732	3.91
473.086	4.1
473.441	3.93
473.795	4.21
474.15	3.91
474.504	4.03
474.859	4.19
475.213	4
475.567	3.97
475.921	4
476.275	4.03
476.63	4.07
476.984	4
477.338	4.3
477.692	4.13
478.045	4.21
478.399	4.29
478.753	4
479.107	4.13
479.461	4.1
479.814	4.15
480.168	4.13
480.521	4.08
480.875	4.12
481.228	4.07
481.582	4.07
481.935	4.1
482.289	4.14
482.642	4.04
482.995	4.04
483.348	4.18
483.701	4.08
484.055	4.09
484.408	4.04
484.761	4.16
485.114	3.95
485.466	3.92
485.819	3.81
486.172	3.81
486.525	3.82
486.878	3.82
487.23	3.87
487.583	3.95
487.936	3.94
488.288	4
488.641	3.94
488.993	3.97
489.345	3.9
489.698	3.9
490.05	3.89
490.402	3.9
490.754	3.9
491.107	3.91
491.459	3.98
491.811	4.05
492.163	4.02
492.515	4.12
492.866	4.03
493.218	3.98
493.57	4.01
493.922	3.93
494.274	3.93
494.625	3.95
494.977	4.07
495.328	4.21
495.68	4.1
496.031	4.15
496.383	4.19
496.734	4.13
497.086	4.22
497.437	4.27
497.788	4.11
498.139	4.22
498.49	4.23
498.842	4.19
499.193	4.13
499.544	4.14
499.894	4.16
500.245	4.09
500.596	4.2
500.947	4.2
501.298	4.19
501.648	4.27
501.999	4.19
502.35	4.24
502.7	4.43
503.051	4.24
503.401	4.34
503.752	4.41
504.102	4.27
504.452	4.23
504.803	4.19
505.153	4.24
505.503	4.26
505.853	4.32
506.203	4.22
506.553	4.29
506.903	4.36
507.253	4.26
507.603	4.29
507.953	4.25
508.303	4.29
508.652	4.13
509.002	4.33
509.352	4.22
509.701	4.4
510.051	4.31
510.4	4.3
510.75	4.33
511.099	4.17
511.449	4.35
511.798	4.31
512.147	4.26
512.496	4.17
512.846	4.31
513.195	4.29
513.544	4.32
513.893	4.41
514.242	4.23
514.591	4.35
514.939	4.36
515.288	4.16
515.637	4.27
515.986	4.28
516.334	4.4
516.683	4.34
517.032	4.41
517.38	4.4
517.729	4.34
518.077	4.39
518.426	4.4
518.774	4.35
519.122	4.37
519.47	4.34
519.819	4.38
520.167	4.36
520.515	4.33
520.863	4.25
521.211	4.33
521.559	4.37
521.907	4.37
522.255	4.34
522.602	4.5
522.95	4.35
523.298	4.48
523.645	4.52
523.993	4.37
524.341	4.31
524.688	4.41
525.036	4.58
525.383	4.53
525.73	4.57
526.078	4.51
526.425	4.5
526.772	4.5
527.119	4.46
527.466	4.42
527.814	4.35
528.161	4.31
528.508	4.4
528.854	4.49
529.201	4.46
529.548	4.43
529.895	4.35
530.242	4.35
530.588	4.29
530.935	4.26
531.282	4.24
531.628	4.3
531.975	4.37
532.321	4.35
532.667	4.43
533.014	4.48
533.36	4.56
533.706	4.53
534.052	4.61
534.399	4.52
534.745	4.53
535.091	4.47
535.437	4.47
535.783	4.34
536.129	4.46
536.474	4.55
536.82	4.5
537.166	4.61
537.512	4.64
537.857	4.58
538.203	4.65
538.549	4.63
538.894	4.48
539.239	4.6
539.585	4.59
539.93	4.74
540.276	4.73
540.621	4.7
540.966	4.81
541.311	4.75
541.656	4.68
542.001	4.74
542.346	4.79
542.691	4.78
543.036	4.71
543.381	4.61
543.726	4.59
544.071	4.56
544.415	4.56
544.76	4.61
545.105	4.62
545.449	4.63
545.794	4.7
546.138	4.81
546.483	4.76
546.827	4.85
547.171	4.81
547.516	4.97
547.86	4.99
548.204	4.89
548.548	4.94
548.892	4.94
549.236	4.8
549.58	4.86
549.924	4.95
550.268	4.98
550.612	4.95
550.956	5.08
551.3	5.15
551.643	5.09
551.987	5.08
552.33	5.29
552.674	4.99
553.017	5.06
553.361	4.98
553.704	5.18
554.048	5.16
554.391	5.1
554.734	5.23
555.077	5.12
555.42	5.13
555.764	5.32
556.107	5.25
556.45	5.15
556.793	5.18
557.135	5.25
557.478	5.04
557.821	5.17
558.164	5.41
558.507	5.44
558.849	5.3
559.192	5.51
559.534	5.34
559.877	5.35
560.219	5.38
560.562	5.46
560.904	5.61
561.246	5.55
561.589	5.51
561.931	5.49
562.273	5.4
562.615	5.46
562.957	5.44
563.299	5.56
563.641	5.47
563.983	5.54
564.325	5.49
564.667	5.58
565.008	5.36
565.35	5.64
565.692	5.74
566.033	5.65
566.375	5.66
566.716	5.62
567.058	5.63
567.399	5.58
567.741	5.87
568.082	5.72
568.423	5.78
568.764	5.79
569.105	5.58
569.447	5.71
569.788	5.47
570.129	5.79
570.47	5.7
570.811	5.7
571.151	5.93
571.492	5.74
571.833	5.77
572.174	5.86
572.514	5.86
572.855	5.9
573.195	5.73
573.536	6.01
573.876	5.78
574.217	5.76
574.557	5.87
574.898	6.08
575.238	5.85
575.578	5.93
575.918	6
576.258	5.84
576.598	6.03
576.938	5.97
577.278	6.08
577.618	5.94
577.958	6.07
578.298	6.17
578.638	5.94
578.977	6.22
579.317	6.14
579.657	6.22
579.996	6.2
580.336	6.27
580.675	6.45
581.014	6.19
581.354	5.95
581.693	6.27
582.032	6.27
582.372	6.4
582.711	6.21
583.05	6.48
583.389	6.44
583.728	6.49
584.067	6.49
584.406	6.55
584.745	6.06
585.083	6.72
585.422	6.69
585.761	6.61
586.1	6.56
586.438	6.78
586.777	6.6
587.115	6.67
587.454	6.57
587.792	6.96
588.13	6.68
588.469	6.53
588.807	6.77
589.145	7.05
589.483	6.82
589.821	6.58
590.159	6.77
590.497	6.97
590.835	6.83
591.173	6.8
591.511	7.01
591.849	6.94
592.187	6.86
592.524	6.79
592.862	6.92
593.2	6.88
593.537	7.01
593.875	7.04
594.212	6.93
594.55	7.27
594.887	7.14
595.224	7.02
595.561	7.32
595.899	7.14
596.236	7.26
596.573	7.34
596.91	7.23
597.247	7.28
597.584	7.31
597.921	7.35
598.258	7.31
598.594	7.39
598.931	7.18
599.268	7.21
599.604	7.29
599.941	7.23
600.277	7.3
600.614	7.3
600.95	7.56
601.287	7.26
601.623	7.51
601.959	7.51
602.296	7.61
602.632	7.42
602.968	7.61
603.304	7.68
603.64	7.59
603.976	7.59
604.312	7.8
604.648	7.55
604.984	7.35
605.319	7.68
605.655	7.6
605.991	7.76
606.326	7.9
606.662	7.43
606.998	7.77
607.333	7.79
607.668	7.67
608.004	7.93
608.339	7.62
608.674	7.81
609.01	7.82
609.345	7.92
609.68	8.04
610.015	7.85
610.35	8.14
610.685	8.14
611.02	8.04
611.355	8.11
611.689	8.02
612.024	7.94
612.359	7.97
612.694	8.1
613.028	7.99
613.363	8.15
613.697	8.05
614.032	8.23
614.366	8.11
614.7	8.25
615.035	8.17
615.369	8.15
615.703	8.5
616.037	8.23
616.371	8.69
616.705	8.61
617.039	8.31
617.373	8.43
617.707	8.4
618.041	8.57
618.375	8.57
618.709	8.63
619.042	8.71
619.376	8.69
619.71	8.59
620.043	8.66
620.377	8.34
620.71	8.64
621.043	8.71
621.377	8.53
621.71	8.8
622.043	8.71
622.376	8.96
622.709	8.94
623.043	8.66
623.376	8.78
623.709	8.94
624.041	8.92
624.374	8.99
624.707	9.27
625.04	9.01
625.373	8.63
625.705	9.13
626.038	8.99
626.37	9.36
626.703	9.08
627.035	8.97
627.368	8.98
627.7	9.61
628.032	9.26
628.365	9.14
628.697	9.16
629.029	9.57
629.361	9.2
629.693	9.48
630.025	9.43
630.357	9.18
630.689	9.42
631.021	9.16
631.353	9.36
631.684	9.55
632.016	9.77
632.348	9.6
632.679	9.25
633.011	9.38
633.342	9.51
633.674	9.86
634.005	9.5
634.336	9.71
634.668	9.63
634.999	9.55
635.33	9.78
635.661	9.84
635.992	9.77
636.323	9.32
636.654	9.74
636.985	9.55
637.316	9.86
637.647	9.65
637.977	9.52
638.308	10.42
638.639	10.37
638.969	10.39
639.3	9.84
639.63	10.36
639.961	9.78
640.291	9.52
640.622	10.12
640.952	9.87
641.282	10.34
641.612	10.07
641.943	9.97
642.273	10.55
642.603	10.32
642.933	10.33
643.263	9.88
643.592	10.24
643.922	10.58
644.252	10.18
644.582	10.92
644.911	10.65
645.241	10.7
645.571	10.25
645.9	10.66
646.23	10.76
646.559	10.45
646.888	10.86
647.218	10.43
647.547	10.55
647.876	10.5
648.205	10.45
648.534	11.21
648.863	10.72
649.192	10.31
649.521	10.97
649.85	10.42
650.179	11.02
650.508	10.19
650.837	10.89
651.165	11.22
651.494	10.51
651.822	10.88
652.151	10.68
652.479	11.09
652.808	11.12
653.136	11.62
653.465	11.11
653.793	10.94
654.121	11.44
654.449	10.75
654.777	11.17
655.105	11.16
655.433	11.12
655.761	11.4
656.089	11.33
656.417	11.24
656.745	11.64
657.073	11.15
657.4	11.51
657.728	11.68
658.056	11.05
658.383	11.65
658.711	11.36
659.038	11.46
659.365	11.7
659.693	11.35
660.02	11.33
660.347	11.81
660.674	11.47
661.001	11.59
661.329	11.45
661.656	11.57
661.982	11.44
662.309	11.9
662.636	11.41
662.963	11.41
663.29	11.59
663.616	11.7
663.943	11.81
664.27	11.99
664.596	11.91
664.923	11.86
665.249	11.58
665.576	11.7
665.902	11.71
666.228	12.01
666.554	11.8
666.881	12.5
667.207	12.19
667.533	11.6
667.859	12.19
668.185	12.45
668.511	12.71
668.837	11.89
669.162	12.36
669.488	12.44
669.814	12.13
670.139	12.63
670.465	12.88
670.791	12.76
671.116	12.39
671.442	13.11
671.767	11.85
672.092	12.71
672.418	12.7
672.743	12.71
673.068	12.71
673.393	11.91
673.718	12.67
674.043	13.13
674.368	12.85
674.693	12.52
675.018	12.28
675.343	12.49
675.667	12.71
675.992	12.71
676.317	12.74
676.641	12.97
676.966	12.94
677.29	12.78
677.615	13.13
677.939	13.28
678.264	12.92
678.588	13.06
678.912	12.61
679.236	12.89
679.56	13.16
679.885	13.33
680.209	13.17
680.532	13.39
680.856	13.21
681.18	13.83
681.504	13.1
681.828	13.47
682.152	13.21
682.475	13.66
682.799	13.44
683.122	13.43
683.446	13.24
683.769	13.17
684.093	13.75
684.416	13.41
684.739	13.57
685.062	13.41
685.386	12.62
685.709	13.27
686.032	13.71
686.355	13.33
686.678	13.85
687.001	14.05
687.324	13.58
687.646	14.06
687.969	14.06
688.292	13.74
688.614	14
688.937	13.83
689.26	13
689.582	14.84
689.904	14.02
690.227	14.5
