Data from 0230_forehead_Reflection__4__312.txt Node

Date: Fri Sep 22 23:08:54 CDT 2023
User: ToomeyLab
Spectrometer: FLMS14357
Trigger mode: 0
Integration Time (sec): 1.000000E-2
Scans to average: 100
Electric dark correction enabled: true
Nonlinearity correction enabled: false
Boxcar width: 0
XAxis mode: Wavelengths
Number of Pixels in Spectrum: 2048
>>>>>Begin Spectral Data<<<<<
189.047	-180.85
189.435	-180.85
189.823	-180.85
190.211	47.77
190.599	23.94
190.987	-11
191.375	246.74
191.763	269.7
192.151	79.78
192.538	38.8
192.926	5.38
193.314	71.24
193.702	1092.27
194.089	86.42
194.477	-47.27
194.864	68.95
195.252	161.44
195.639	625.68
196.027	-8.72
196.414	64.8
196.801	10.05
197.189	249.85
197.576	55.5
197.963	4.44
198.351	29.63
198.738	53.58
199.125	17.3
199.512	-8.88
199.899	62.13
200.286	41.44
200.673	55.29
201.06	48.48
201.447	44.64
201.833	-82
202.22	45.96
202.607	33.63
202.994	44.72
203.38	27.96
203.767	20.78
204.154	54.72
204.54	17.72
204.927	27.31
205.313	54.28
205.699	36.33
206.086	37.46
206.472	61.4
206.858	5.03
207.245	15.88
207.631	33.08
208.017	59.19
208.403	31.52
208.789	56.49
209.175	32.5
209.561	61.12
209.947	58.21
210.333	13.29
210.719	11.89
211.105	30.43
211.491	15.77
211.876	56.62
212.262	34.48
212.648	37.1
213.034	54.65
213.419	24.15
213.805	35.89
214.19	16.49
214.576	30.4
214.961	10.87
215.346	36.66
215.732	27.34
216.117	5.95
216.502	56.72
216.888	49.48
217.273	24.92
217.658	-3.92
218.043	10.42
218.428	29.3
218.813	-8.5
219.198	31.4
219.583	21.99
219.968	9.61
220.353	28.79
220.738	2.65
221.122	9.81
221.507	11.57
221.892	22.21
222.276	7.45
222.661	-25.34
223.046	41.64
223.43	21.98
223.815	9.23
224.199	7.11
224.583	17.35
224.968	18.26
225.352	9.53
225.736	14.91
226.121	15.8
226.505	12.33
226.889	5.61
227.273	2.05
227.657	6.71
228.041	8.64
228.425	12.58
228.809	7.76
229.193	4.01
229.577	8.35
229.961	7.3
230.344	6.66
230.728	3.96
231.112	5.59
231.495	4.82
231.879	4.9
232.263	5.06
232.646	5.99
233.03	3
233.413	5.52
233.797	4.62
234.18	3.28
234.563	6.54
234.946	8.79
235.33	2.5
235.713	5.21
236.096	4.47
236.479	4.01
236.862	6.77
237.245	5.8
237.628	6.87
238.011	6.64
238.394	5.42
238.777	6.01
239.16	6.84
239.543	9.23
239.925	5.94
240.308	6.44
240.691	6.28
241.073	6.79
241.456	6.17
241.838	4.51
242.221	5.44
242.603	5.3
242.986	5.01
243.368	4.21
243.75	4.91
244.133	5.38
244.515	4.88
244.897	4.64
245.279	4.68
245.661	5.06
246.043	4.75
246.425	3.89
246.807	5.04
247.189	3.01
247.571	5.28
247.953	5.56
248.335	4.6
248.717	4.64
249.098	4.52
249.48	4.42
249.862	4.36
250.243	4.49
250.625	4.54
251.006	4.24
251.388	4.75
251.769	5.86
252.151	4.28
252.532	5.09
252.913	5.13
253.295	5.96
253.676	4.89
254.057	5.7
254.438	5.07
254.819	4.63
255.2	5.1
255.581	4.52
255.962	4.91
256.343	5.97
256.724	4.37
257.105	5.43
257.486	5.19
257.867	4.79
258.247	5.1
258.628	5.76
259.009	4.13
259.389	4.78
259.77	5.88
260.15	5.42
260.531	4.8
260.911	4.9
261.292	4.47
261.672	4.17
262.052	4.7
262.432	4.64
262.813	4.75
263.193	4.69
263.573	5.4
263.953	4.88
264.333	5.32
264.713	5.08
265.093	5.08
265.473	4.82
265.853	5.32
266.233	5.77
266.612	4.62
266.992	5.67
267.372	5.18
267.752	5.36
268.131	5.38
268.511	4.63
268.89	5.01
269.27	4.37
269.649	5.03
270.029	4.97
270.408	5.04
270.787	4.71
271.167	4.78
271.546	4.51
271.925	4.77
272.304	4.43
272.683	5.21
273.062	5.81
273.441	4.87
273.82	5.29
274.199	4.82
274.578	5.18
274.957	4.57
275.336	4.58
275.715	4.74
276.093	4.83
276.472	4.32
276.851	4.61
277.229	3.39
277.608	4.89
277.986	4.3
278.365	5.82
278.743	4.75
279.122	4.89
279.5	5.21
279.878	4.59
280.257	5.42
280.635	4.79
281.013	4.85
281.391	4.39
281.769	4.85
282.147	4.64
282.525	4.36
282.903	5.08
283.281	5.3
283.659	4.44
284.037	4.35
284.415	5
284.792	4.8
285.17	5.12
285.548	5.94
285.925	5.21
286.303	5.02
286.68	4.75
287.058	4.83
287.435	4.86
287.813	4.68
288.19	4.52
288.567	4.83
288.945	4.62
289.322	4.78
289.699	5.48
290.076	5.23
290.453	5.07
290.83	3.99
291.207	5.02
291.584	4.93
291.961	4.93
292.338	5.13
292.715	5.66
293.092	5.43
293.469	5.39
293.845	4.79
294.222	5.35
294.599	5.3
294.975	5.98
295.352	5.77
295.728	5.59
296.105	5.71
296.481	5.6
296.858	5.66
297.234	5.65
297.61	5.36
297.986	5.3
298.363	5.84
298.739	5.96
299.115	5.8
299.491	5.71
299.867	5.7
300.243	5.78
300.619	6.01
300.995	6.08
301.371	6.35
301.746	6.23
302.122	5.97
302.498	6.15
302.874	5.99
303.249	5.54
303.625	6.04
304	6.02
304.376	6.17
304.751	6.73
305.127	6.48
305.502	6.47
305.878	6.42
306.253	6.36
306.628	6.5
307.003	6.98
307.378	6.53
307.754	5.95
308.129	7.16
308.504	6.82
308.879	6.79
309.254	6.87
309.629	6.79
310.003	6.95
310.378	7.5
310.753	6.69
311.128	7
311.502	7.28
311.877	6.91
312.252	7.03
312.626	7.34
313.001	7.46
313.375	7.3
313.75	7.77
314.124	7.63
314.498	7.34
314.873	7.58
315.247	8.16
315.621	7.74
315.995	7.3
316.369	8.13
316.743	7.45
317.117	8.04
317.491	8.16
317.865	7.76
318.239	8.19
318.613	8.03
318.987	8.06
319.361	8.3
319.734	8.38
320.108	8.21
320.482	8.27
320.855	8.25
321.229	8.35
321.602	8.39
321.976	8.41
322.349	8.59
322.723	8.75
323.096	8.58
323.469	8.58
323.843	7.9
324.216	8.82
324.589	8.71
324.962	8.53
325.335	9.03
325.708	8.82
326.081	9.07
326.454	8.33
326.827	8.88
327.2	8.49
327.573	9.54
327.945	8.83
328.318	9.45
328.691	9.2
329.063	8.74
329.436	8.9
329.809	9.27
330.181	8.92
330.553	9.1
330.926	9.15
331.298	9.35
331.671	9.71
332.043	9.24
332.415	9.58
332.787	9.76
333.159	9.34
333.532	8.82
333.904	9.49
334.276	9.31
334.648	9.48
335.02	9.18
335.391	9.64
335.763	9.95
336.135	9.9
336.507	9.86
336.879	9.51
337.25	10.07
337.622	10.29
337.993	10.05
338.365	10.26
338.736	10.26
339.108	9.82
339.479	10.24
339.851	9.81
340.222	9.93
340.593	9.51
340.964	9.44
341.336	9.72
341.707	9.94
342.078	9.88
342.449	10.35
342.82	9.96
343.191	9.95
343.562	10.71
343.933	10.83
344.303	10.56
344.674	10.55
345.045	10.74
345.416	11.08
345.786	10.29
346.157	10.6
346.527	10.36
346.898	10.6
347.268	10.47
347.639	10.57
348.009	10.13
348.38	10.77
348.75	10.89
349.12	10.87
349.49	11.31
349.861	11.03
350.231	10.98
350.601	10.9
350.971	11.18
351.341	11.17
351.711	11.16
352.081	11
352.45	11.07
352.82	11.32
353.19	11.43
353.56	11.65
353.929	11.4
354.299	11.66
354.669	11.38
355.038	11.23
355.408	11.59
355.777	11.88
356.147	11.64
356.516	11.7
356.885	11.27
357.254	11.85
357.624	11.48
357.993	11.67
358.362	11.69
358.731	11.84
359.1	11.6
359.469	12.16
359.838	11.43
360.207	11.83
360.576	12.17
360.945	12.14
361.314	12.22
361.682	12.14
362.051	12.27
362.42	11.88
362.788	11.72
363.157	12.42
363.525	12.27
363.894	11.88
364.262	12.2
364.631	12.27
364.999	12.42
365.367	12.19
365.735	12.29
366.104	12.37
366.472	12.8
366.84	12.27
367.208	12.85
367.576	12.57
367.944	12.45
368.312	12.48
368.68	12.65
369.048	12.87
369.416	12.84
369.783	12.76
370.151	12.86
370.519	12.99
370.886	13.26
371.254	12.99
371.621	12.92
371.989	12.96
372.356	13.03
372.724	13.57
373.091	13.27
373.458	13.32
373.826	13.26
374.193	13.22
374.56	13.6
374.927	13.42
375.294	13.61
375.661	13.44
376.028	13.79
376.395	13.6
376.762	13.84
377.129	14.01
377.496	13.77
377.863	13.8
378.229	13.79
378.596	13.46
378.963	14.26
379.329	13.83
379.696	13.87
380.062	13.65
380.429	13.92
380.795	14.11
381.161	14.12
381.528	13.94
381.894	14.06
382.26	14.26
382.626	14.1
382.993	14.33
383.359	14
383.725	14.2
384.091	14.29
384.457	14.12
384.823	14.35
385.188	14.67
385.554	14.89
385.92	14.75
386.286	14.41
386.651	14.59
387.017	14.82
387.383	14.82
387.748	14.71
388.114	14.74
388.479	14.61
388.845	14.61
389.21	14.86
389.575	15.18
389.94	14.74
390.306	15.39
390.671	14.8
391.036	14.95
391.401	15.04
391.766	14.94
392.131	15.11
392.496	15.25
392.861	15.07
393.226	15.56
393.591	15.52
393.956	15.4
394.32	15.51
394.685	15.36
395.05	15.72
395.414	15.74
395.779	15.81
396.143	15.66
396.508	15.72
396.872	15.64
397.236	15.55
397.601	15.59
397.965	15.91
398.329	15.82
398.694	15.73
399.058	16.24
399.422	15.89
399.786	15.9
400.15	15.92
400.514	16.04
400.878	16.17
401.242	16.31
401.605	16.23
401.969	16.06
402.333	16.35
402.697	16.27
403.06	16.39
403.424	16.52
403.787	16.59
404.151	16.54
404.514	16.59
404.878	16.82
405.241	16.98
405.604	16.49
405.968	16.79
406.331	16.63
406.694	16.62
407.057	16.55
407.42	16.8
407.783	16.78
408.146	16.93
408.509	17.02
408.872	16.87
409.235	16.87
409.598	16.9
409.961	17.09
410.323	17.04
410.686	17.42
411.049	17.57
411.411	17.37
411.774	17.29
412.136	17.48
412.499	17.17
412.861	17.43
413.223	17.47
413.586	17.43
413.948	17.77
414.31	17.38
414.672	17.75
415.035	17.59
415.397	17.82
415.759	17.92
416.121	17.75
416.483	17.92
416.845	17.61
417.206	17.93
417.568	17.87
417.93	17.93
418.292	17.8
418.653	17.86
419.015	17.76
419.377	17.75
419.738	17.94
420.1	17.83
420.461	17.9
420.822	17.91
421.184	17.89
421.545	17.98
421.906	18.1
422.267	17.96
422.629	17.95
422.99	18.11
423.351	17.95
423.712	17.94
424.073	18.04
424.434	18.35
424.795	18.24
425.155	18.27
425.516	18.32
425.877	18.28
426.238	18.21
426.598	18.18
426.959	18.25
427.32	18.32
427.68	18.36
428.041	18.42
428.401	18.72
428.761	18.9
429.122	18.76
429.482	19.09
429.842	19.17
430.202	19.07
430.563	19.27
430.923	19.17
431.283	19.17
431.643	19.4
432.003	19.25
432.363	19.55
432.722	19.37
433.082	19.43
433.442	19.59
433.802	19.64
434.161	19.51
434.521	19.65
434.881	19.54
435.24	19.54
435.6	19.51
435.959	19.56
436.319	19.66
436.678	19.83
437.037	19.76
437.396	19.75
437.756	19.76
438.115	19.99
438.474	19.89
438.833	20.13
439.192	20.02
439.551	20.31
439.91	20.32
440.269	20.32
440.628	20.07
440.987	20.23
441.345	20.33
441.704	20.28
442.063	20.31
442.421	20.18
442.78	20.19
443.138	20.31
443.497	20.35
443.855	20.46
444.214	20.37
444.572	20.63
444.93	20.56
445.288	20.87
445.647	21.01
446.005	20.72
446.363	20.75
446.721	20.77
447.079	20.75
447.437	20.94
447.795	20.81
448.153	20.62
448.51	20.65
448.868	20.7
449.226	20.67
449.584	20.81
449.941	20.78
450.299	21
450.656	21.17
451.014	21.35
451.371	21.12
451.729	21.41
452.086	21.62
452.443	21.51
452.801	21.73
453.158	21.61
453.515	21.95
453.872	21.81
454.229	21.94
454.586	21.98
454.943	21.91
455.3	21.91
455.657	21.86
456.014	21.96
456.371	22.12
456.727	22.07
457.084	22.05
457.441	22.25
457.797	22.37
458.154	22.42
458.51	22.22
458.867	22.42
459.223	22.54
459.58	22.56
459.936	22.43
460.292	22.39
460.648	22.44
461.005	22.38
461.361	22.47
461.717	22.14
462.073	22.04
462.429	22.09
462.785	22.35
463.141	22.42
463.496	22.69
463.852	22.59
464.208	22.9
464.564	23.05
464.919	22.84
465.275	23.22
465.631	23.26
465.986	23.27
466.342	23.33
466.697	23.59
467.052	23.43
467.408	23.34
467.763	23.43
468.118	23.68
468.473	23.27
468.829	23.49
469.184	23.43
469.539	23.58
469.894	23.64
470.249	23.59
470.603	23.52
470.958	23.71
471.313	23.92
471.668	23.98
472.023	23.71
472.377	23.79
472.732	23.98
473.086	24.11
473.441	24.12
473.795	24.24
474.15	24.21
474.504	24.34
474.859	24.45
475.213	24.21
475.567	24.2
475.921	24.25
476.275	24.65
476.63	24.55
476.984	24.56
477.338	24.79
477.692	24.57
478.045	25.03
478.399	24.8
478.753	24.56
479.107	24.71
479.461	24.82
479.814	24.99
480.168	24.67
480.521	24.72
480.875	25.12
481.228	24.92
481.582	24.97
481.935	24.95
482.289	24.99
482.642	24.89
482.995	25.08
483.348	25.07
483.701	24.99
484.055	24.99
484.408	25.01
484.761	24.91
485.114	24.77
485.466	24.52
485.819	24.23
486.172	24.21
486.525	24.23
486.878	24.4
487.23	24.58
487.583	24.77
487.936	24.84
488.288	25.07
488.641	25.12
488.993	25.07
489.345	24.82
489.698	24.92
490.05	24.93
490.402	25.05
490.754	25.04
491.107	25.22
491.459	25.31
491.811	25.62
492.163	25.74
492.515	25.74
492.866	25.87
493.218	25.72
493.57	25.56
493.922	25.42
494.274	25.46
494.625	25.61
494.977	25.77
495.328	26.08
495.68	26.35
496.031	26.43
496.383	26.73
496.734	26.83
497.086	26.8
497.437	26.79
497.788	26.85
498.139	26.98
498.49	26.88
498.842	26.75
499.193	26.71
499.544	26.81
499.894	26.91
500.245	27.02
500.596	27.12
500.947	27.1
501.298	27.15
501.648	27.26
501.999	27.48
502.35	27.31
502.7	27.58
503.051	27.65
503.401	27.5
503.752	27.8
504.102	27.77
504.452	27.87
504.803	27.76
505.153	28.05
505.503	27.94
505.853	28.12
506.203	27.99
506.553	27.99
506.903	28.22
507.253	28.1
507.603	28.19
507.953	28.32
508.303	28.22
508.652	28.44
509.002	28.53
509.352	28.48
509.701	28.33
510.051	28.58
510.4	28.52
510.75	28.45
511.099	28.39
511.449	28.51
511.798	28.78
512.147	28.68
512.496	28.59
512.846	28.83
513.195	28.7
513.544	28.86
513.893	28.9
514.242	28.94
514.591	28.87
514.939	29.06
515.288	28.89
515.637	29.14
515.986	29.22
516.334	29.39
516.683	29.33
517.032	29.61
517.38	29.48
517.729	29.61
518.077	29.74
518.426	29.64
518.774	29.69
519.122	29.71
519.47	29.66
519.819	29.66
520.167	29.74
520.515	29.48
520.863	29.29
521.211	29.44
521.559	29.53
521.907	29.47
522.255	29.89
522.602	29.85
522.95	30.05
523.298	30.21
523.645	30.42
523.993	30.46
524.341	30.27
524.688	30.71
525.036	30.45
525.383	30.6
525.73	30.63
526.078	30.69
526.425	30.69
526.772	30.87
527.119	30.61
527.466	30.37
527.814	30.38
528.161	30.22
528.508	30.38
528.854	30.49
529.201	30.62
529.548	30.51
529.895	30.52
530.242	30.36
530.588	30.16
530.935	30.04
531.282	30.19
531.628	30.28
531.975	30.45
532.321	30.51
532.667	30.77
533.014	30.87
533.36	31.01
533.706	31.09
534.052	31.19
534.399	31.31
534.745	31.26
535.091	31.16
535.437	30.91
535.783	30.92
536.129	31.11
536.474	31.3
536.82	31.42
537.166	31.68
537.512	31.88
537.857	31.93
538.203	32.02
538.549	31.83
538.894	31.72
539.239	31.68
539.585	31.94
539.93	32.2
540.276	32.33
540.621	32.44
540.966	32.53
541.311	32.69
541.656	32.67
542.001	32.76
542.346	32.89
542.691	32.53
543.036	32.46
543.381	32.03
543.726	31.88
544.071	32
544.415	32.2
544.76	32.33
545.105	32.51
545.449	32.57
545.794	32.66
546.138	32.89
546.483	33.02
546.827	33.17
547.171	33.26
547.516	33.63
547.86	33.3
548.204	33.51
548.548	33.63
548.892	33.49
549.236	33.51
549.58	33.57
549.924	33.73
550.268	33.92
550.612	34.05
550.956	34.16
551.3	34.57
551.643	34.37
551.987	34.63
552.33	34.62
552.674	34.66
553.017	34.61
553.361	34.84
553.704	34.76
554.048	35.12
554.391	34.85
554.734	34.9
555.077	34.85
555.42	34.96
555.764	34.77
556.107	35.03
556.45	35.17
556.793	34.96
557.135	35.16
557.478	35.18
557.821	35.59
558.164	35.69
558.507	35.76
558.849	35.54
559.192	35.54
559.534	35.94
559.877	35.97
560.219	35.92
560.562	35.77
560.904	36.07
561.246	35.96
561.589	36.14
561.931	36.05
562.273	35.97
562.615	36.17
562.957	36.1
563.299	36.2
563.641	36.24
563.983	36.21
564.325	36.24
564.667	36.67
565.008	36.52
565.35	36.39
565.692	36.59
566.033	36.64
566.375	36.83
566.716	36.86
567.058	36.68
567.399	36.92
567.741	36.94
568.082	36.6
568.423	36.84
568.764	36.88
569.105	37.01
569.447	36.78
569.788	36.93
570.129	37.34
570.47	37.31
570.811	37.11
571.151	37.42
571.492	37.42
571.833	37.08
572.174	37.31
572.514	37.55
572.855	37.59
573.195	37.5
573.536	37.65
573.876	37.51
574.217	37.81
574.557	37.6
574.898	37.86
575.238	37.64
575.578	38.06
575.918	37.95
576.258	37.98
576.598	37.89
576.938	38.15
577.278	38.32
577.618	38.29
577.958	38.38
578.298	38.28
578.638	38.41
578.977	38.39
579.317	38.59
579.657	38.73
579.996	38.85
580.336	38.83
580.675	39.05
581.014	38.83
581.354	39.05
581.693	39.22
582.032	39.25
582.372	39.24
582.711	39.31
583.05	39.39
583.389	39.58
583.728	39.63
584.067	39.64
584.406	39.56
584.745	39.55
585.083	39.76
585.422	39.84
585.761	39.6
586.1	39.78
586.438	40.06
586.777	39.96
587.115	40.26
587.454	39.82
587.792	40.27
588.13	40.37
588.469	40.32
588.807	40.2
589.145	40.35
589.483	40.28
589.821	40.29
590.159	40.36
590.497	40.51
590.835	40.37
591.173	40.58
591.511	40.36
591.849	40.76
592.187	40.7
592.524	40.85
592.862	40.96
593.2	40.92
593.537	40.8
593.875	41.31
594.212	41.02
594.55	41.12
594.887	41.48
595.224	41.22
595.561	41.63
595.899	41.7
596.236	41.44
596.573	41.66
596.91	41.52
597.247	41.52
597.584	41.52
597.921	41.63
598.258	41.67
598.594	41.74
598.931	41.12
599.268	41.46
599.604	41.49
599.941	41.56
600.277	41.76
600.614	41.86
600.95	41.96
601.287	42.05
601.623	42.18
601.959	42.09
602.296	42.3
602.632	42.45
602.968	42.36
603.304	42.57
603.64	42.38
603.976	42.44
604.312	42.82
604.648	42.65
604.984	42.65
605.319	42.67
605.655	42.45
605.991	42.53
606.326	42.69
606.662	42.51
606.998	42.44
607.333	42.79
607.668	42.77
608.004	42.82
608.339	42.71
608.674	43.01
609.01	43.19
609.345	43.42
609.68	43.55
610.015	43.63
610.35	43.31
610.685	44.01
611.02	43.46
611.355	43.47
611.689	43.09
612.024	43.25
612.359	43.35
612.694	43.61
613.028	43.42
613.363	43.66
613.697	43.71
614.032	43.96
614.366	43.91
614.7	43.92
615.035	44.11
615.369	44.24
615.703	44.52
616.037	44.26
616.371	44.72
616.705	44.19
617.039	44.65
617.373	44.6
617.707	44.7
618.041	44.68
618.375	44.83
618.709	44.45
619.042	44.71
619.376	44.55
619.71	45
620.043	44.75
620.377	45.06
620.71	45.22
621.043	45.06
621.377	44.93
621.71	45.13
622.043	45.27
622.376	45.14
622.709	45.4
623.043	45.23
623.376	45.69
623.709	45.57
624.041	45.51
624.374	45.91
624.707	45.61
625.04	45.69
625.373	46.2
625.705	45.77
626.038	45.51
626.37	45.94
626.703	45.66
627.035	46.07
627.368	45.76
627.7	46.14
628.032	45.96
628.365	46.03
628.697	45.83
629.029	46.35
629.361	46.11
629.693	45.91
630.025	46.43
630.357	46.18
630.689	46.31
631.021	46.63
631.353	46.65
631.684	46.52
632.016	46.7
632.348	46.67
632.679	46.68
633.011	47.05
633.342	46.98
633.674	47.41
634.005	46.76
634.336	47.43
634.668	47.17
634.999	47.16
635.33	47.49
635.661	47.24
635.992	47.56
636.323	47.36
636.654	47.19
636.985	47.3
637.316	47.37
637.647	47.21
637.977	47.2
638.308	47.99
638.639	47.7
638.969	47.8
639.3	47.85
639.63	47.7
639.961	47.89
640.291	47.98
640.622	48.02
640.952	48.49
641.282	48.46
641.612	48.2
641.943	48
642.273	48.96
642.603	47.8
642.933	48.19
643.263	48.01
643.592	48.58
643.922	48.84
644.252	48.21
644.582	48.34
644.911	48.37
645.241	49.24
645.571	48.47
645.9	48.88
646.23	49.6
646.559	48.99
646.888	48.83
647.218	48.9
647.547	49.07
647.876	49.09
648.205	48.55
648.534	48.56
648.863	49.73
649.192	48.68
649.521	49.59
649.85	49.37
650.179	49.23
650.508	49.52
650.837	49.72
651.165	49.59
651.494	49.58
651.822	49.41
652.151	49.38
652.479	49.76
652.808	49.59
653.136	50.03
653.465	50.15
653.793	49.36
654.121	50.28
654.449	50.4
654.777	49.91
655.105	49.69
655.433	50.07
655.761	50.13
656.089	50.67
656.417	50.13
656.745	50.64
657.073	50.15
657.4	50.59
657.728	50.32
658.056	50.54
658.383	50.68
658.711	51.08
659.038	50.8
659.365	50.55
659.693	50.47
660.02	50.56
660.347	51.02
660.674	50.84
661.001	50.29
661.329	50.43
661.656	50.73
661.982	50.9
662.309	51.29
662.636	50.73
662.963	50.98
663.29	51.03
663.616	50.92
663.943	51.37
664.27	51.34
664.596	50.4
664.923	51.28
665.249	51.5
665.576	51.06
665.902	51.14
666.228	51.25
666.554	51.3
666.881	51.11
667.207	51.19
667.533	52.29
667.859	51.53
668.185	51.55
668.511	51.31
668.837	51.75
669.162	51.83
669.488	52.08
669.814	51.82
670.139	52.22
670.465	52.45
