Data from 0230_chest_Reflection__4__302.txt Node

Date: Fri Sep 22 23:06:07 CDT 2023
User: ToomeyLab
Spectrometer: FLMS14357
Trigger mode: 0
Integration Time (sec): 1.000000E-2
Scans to average: 100
Electric dark correction enabled: true
Nonlinearity correction enabled: false
Boxcar width: 0
XAxis mode: Wavelengths
Number of Pixels in Spectrum: 2048
>>>>>Begin Spectral Data<<<<<
189.047	438.88
189.435	438.88
189.823	438.88
190.211	24.99
190.599	169.98
190.987	7.22
191.375	-113.04
191.763	51.25
192.151	-5.22
192.538	12.25
192.926	79.43
193.314	26.52
193.702	-788.4
194.089	59.2
194.477	-182.6
194.864	83.51
195.252	222.89
195.639	-849.85
196.027	-13.09
196.414	278.49
196.801	79.41
197.189	76.79
197.576	144.59
197.963	214.51
198.351	-0.23
198.738	1.17
199.125	4.15
199.512	9.6
199.899	31.55
200.286	-10.54
200.673	-21.21
201.06	14.4
201.447	22.76
201.833	-57.36
202.22	23.85
202.607	25.02
202.994	40.77
203.38	41.4
203.767	31.51
204.154	44.4
204.54	4.23
204.927	-21.31
205.313	22.93
205.699	40.15
206.086	35.7
206.472	47.74
206.858	40.38
207.245	-51.55
207.631	45.07
208.017	-8.65
208.403	-16.39
208.789	24.25
209.175	34.81
209.561	23.05
209.947	-0.98
210.333	13.18
210.719	-45.63
211.105	17.09
211.491	37.85
211.876	30.52
212.262	15.13
212.648	14.04
213.034	26.09
213.419	34.7
213.805	22.67
214.19	-7.15
214.576	-8.99
214.961	19.82
215.346	-1.17
215.732	12.57
216.117	-3.61
216.502	30.56
216.888	0.59
217.273	-0.72
217.658	12.14
218.043	40.12
218.428	32.12
218.813	-8.44
219.198	16.73
219.583	-13.39
219.968	-4.58
220.353	25.98
220.738	1.06
221.122	-7.54
221.507	-11.75
221.892	7.95
222.276	-6.24
222.661	-16.41
223.046	21.35
223.43	27.32
223.815	-3.76
224.199	-1.78
224.583	16.85
224.968	11.5
225.352	-4.26
225.736	6.01
226.121	6.75
226.505	6.55
226.889	7.11
227.273	0.21
227.657	1.7
228.041	2.15
228.425	6.42
228.809	-1.1
229.193	0.66
229.577	5.69
229.961	2.74
230.344	5.33
230.728	1.43
231.112	2.95
231.495	2.48
231.879	2.55
232.263	2.15
232.646	2.76
233.03	1.99
233.413	4.66
233.797	2.63
234.18	2.37
234.563	5.07
234.946	2.5
235.33	-0.82
235.713	1.57
236.096	2.42
236.479	2.06
236.862	5.06
237.245	1.03
237.628	2.29
238.011	3.33
238.394	2.02
238.777	4.93
239.16	3.98
239.543	4.4
239.925	4
240.308	1.75
240.691	2.71
241.073	5.92
241.456	3.21
241.838	1.86
242.221	2.59
242.603	2.96
242.986	3.07
243.368	1.68
243.75	2.71
244.133	3.15
244.515	2.39
244.897	2.35
245.279	2.55
245.661	2.21
246.043	2.77
246.425	3.08
246.807	2.73
247.189	2.24
247.571	1.93
247.953	3.06
248.335	2.86
248.717	2.82
249.098	2.83
249.48	2.58
249.862	2.39
250.243	2.52
250.625	3.05
251.006	2.29
251.388	2.6
251.769	3.08
252.151	1.64
252.532	3.06
252.913	2.53
253.295	2.79
253.676	2.43
254.057	2.67
254.438	2.94
254.819	2.28
255.2	2.8
255.581	2.45
255.962	2.65
256.343	3.33
256.724	2.19
257.105	2.93
257.486	3.02
257.867	2.01
258.247	3.99
258.628	2.01
259.009	1.94
259.389	2.33
259.77	2.8
260.15	3.03
260.531	2.47
260.911	1.78
261.292	2.02
261.672	2.28
262.052	2.31
262.432	2.51
262.813	2.51
263.193	2.24
263.573	2.62
263.953	2.25
264.333	3.27
264.713	2.74
265.093	2.4
265.473	2.01
265.853	1.55
266.233	1.98
266.612	2.08
266.992	3.59
267.372	2.63
267.752	2.62
268.131	2.36
268.511	2.47
268.89	3.19
269.27	2.29
269.649	2.61
270.029	1.96
270.408	1.91
270.787	2.27
271.167	2.54
271.546	2.28
271.925	2.45
272.304	2.03
272.683	2.17
273.062	2.46
273.441	2.53
273.82	2.35
274.199	2.66
274.578	2.98
274.957	2.04
275.336	1.9
275.715	2.12
276.093	1.58
276.472	2.1
276.851	2
277.229	2.33
277.608	2.15
277.986	1.43
278.365	2.48
278.743	2.82
279.122	3.19
279.5	2.31
279.878	2.62
280.257	2.7
280.635	2.22
281.013	2.66
281.391	1.73
281.769	2.48
282.147	2.35
282.525	2.32
282.903	2.62
283.281	2.15
283.659	2.37
284.037	2.27
284.415	2.86
284.792	2.47
285.17	2.83
285.548	2.83
285.925	2.34
286.303	2.17
286.68	2.19
287.058	2.08
287.435	2.21
287.813	2.02
288.19	2.12
288.567	2.41
288.945	2.22
289.322	2.23
289.699	2.46
290.076	2.38
290.453	2.07
290.83	2.36
291.207	2.49
291.584	1.93
291.961	1.68
292.338	2.35
292.715	2.66
293.092	2.53
293.469	2.53
293.845	1.98
294.222	2.51
294.599	2.52
294.975	3.08
295.352	2.56
295.728	2.73
296.105	2.68
296.481	2.8
296.858	2.67
297.234	2.78
297.61	2.8
297.986	2.83
298.363	2.87
298.739	2.88
299.115	3.07
299.491	3.05
299.867	2.85
300.243	2.98
300.619	2.76
300.995	2.84
301.371	3.33
301.746	2.88
302.122	3.02
302.498	3.12
302.874	2.84
303.249	2.37
303.625	3.06
304	3.14
304.376	3.42
304.751	2.93
305.127	3.11
305.502	3.42
305.878	3.24
306.253	3.57
306.628	3.07
307.003	3.2
307.378	2.94
307.754	3.03
308.129	3.21
308.504	2.96
308.879	3.33
309.254	3.31
309.629	2.76
310.003	3.8
310.378	3.67
310.753	3.08
311.128	3.31
311.502	3.22
311.877	2.81
312.252	3.2
312.626	3.25
313.001	3.38
313.375	3.36
313.75	3.56
314.124	3.43
314.498	3.04
314.873	3.41
315.247	3.59
315.621	3.25
315.995	3.26
316.369	3.37
316.743	3.27
317.117	3.56
317.491	3.72
317.865	3.18
318.239	3.73
318.613	3.62
318.987	3.17
319.361	3.43
319.734	3.52
320.108	4.4
320.482	2.95
320.855	3.3
321.229	4.15
321.602	4.2
321.976	3.39
322.349	3.69
322.723	3.08
323.096	3.16
323.469	3.29
323.843	3.35
324.216	3.91
324.589	3.52
324.962	2.99
325.335	3.23
325.708	3.38
326.081	3.62
326.454	3.05
326.827	3.69
327.2	3.62
327.573	3.7
327.945	3.12
328.318	3.92
328.691	3.96
329.063	3.48
329.436	3.24
329.809	3.28
330.181	3.82
330.553	3.81
330.926	3.52
331.298	3.44
331.671	3.92
332.043	3.24
332.415	3.09
332.787	4.12
333.159	3.08
333.532	2.99
333.904	3.93
334.276	3.37
334.648	3.11
335.02	3.42
335.391	3.63
335.763	4.32
336.135	3.84
336.507	3.56
336.879	3.25
337.25	3.51
337.622	3.53
337.993	3.88
338.365	3.79
338.736	3.34
339.108	3.38
339.479	3.6
339.851	3.32
340.222	3.66
340.593	3.78
340.964	3.3
341.336	3.48
341.707	3.5
342.078	3.41
342.449	3.58
342.82	2.88
343.191	3.24
343.562	3.87
343.933	3.78
344.303	3.83
344.674	3.26
345.045	3.38
345.416	3.79
345.786	3.45
346.157	3.86
346.527	3.25
346.898	3.72
347.268	3.21
347.639	3.5
348.009	3.56
348.38	3.66
348.75	3.67
349.12	3.78
349.49	3.76
349.861	3.47
350.231	3.66
350.601	3.53
350.971	4.03
351.341	3.48
351.711	3.15
352.081	3.53
352.45	3.4
352.82	3.59
353.19	4.07
353.56	3.31
353.929	3.72
354.299	3.45
354.669	3.8
355.038	3.58
355.408	3.66
355.777	3.76
356.147	3.69
356.516	3.6
356.885	3.6
357.254	3.9
357.624	3.32
357.993	3.71
358.362	3.74
358.731	3.67
359.1	3.6
359.469	3.82
359.838	3.17
360.207	3.39
360.576	3.82
360.945	3.72
361.314	3.68
361.682	3.86
362.051	3.8
362.42	3.55
362.788	3.26
363.157	3.71
363.525	3.62
363.894	3.49
364.262	3.54
364.631	3.6
364.999	3.68
365.367	3.68
365.735	3.55
366.104	3.4
366.472	4.12
366.84	3.69
367.208	4.03
367.576	3.9
367.944	3.98
368.312	3.91
368.68	3.68
369.048	3.78
369.416	3.6
369.783	3.55
370.151	3.63
370.519	3.88
370.886	3.52
371.254	4.05
371.621	3.53
371.989	3.56
372.356	3.61
372.724	3.58
373.091	3.76
373.458	3.67
373.826	3.99
374.193	3.69
374.56	3.75
374.927	3.86
375.294	3.69
375.661	3.79
376.028	3.76
376.395	3.77
376.762	3.89
377.129	3.9
377.496	3.94
377.863	4.01
378.229	3.61
378.596	3.75
378.963	4.27
379.329	3.74
379.696	4.09
380.062	3.56
380.429	3.61
380.795	3.75
381.161	3.9
381.528	3.85
381.894	3.5
382.26	3.63
382.626	3.74
382.993	3.86
383.359	3.75
383.725	3.54
384.091	3.75
384.457	3.67
384.823	3.79
385.188	3.9
385.554	3.94
385.92	4.01
386.286	3.55
386.651	3.77
387.017	4.01
387.383	3.77
387.748	3.58
388.114	3.67
388.479	3.87
388.845	3.66
389.21	3.74
389.575	4.03
389.94	3.68
390.306	4
390.671	4.03
391.036	3.81
391.401	3.71
391.766	3.88
392.131	3.65
392.496	4.04
392.861	3.59
393.226	4.15
393.591	3.99
393.956	3.89
394.32	3.93
394.685	4.04
395.05	4.08
395.414	3.94
395.779	3.97
396.143	3.9
396.508	3.85
396.872	3.76
397.236	3.9
397.601	3.88
397.965	4.18
398.329	4
398.694	4.11
399.058	3.99
399.422	3.74
399.786	4.37
400.15	3.96
400.514	3.93
400.878	4.01
401.242	4.02
401.605	4.03
401.969	3.91
402.333	4.08
402.697	3.84
403.06	3.89
403.424	3.9
403.787	3.98
404.151	4.15
404.514	4.29
404.878	4.04
405.241	4.21
405.604	4.11
405.968	3.98
406.331	4.06
406.694	3.93
407.057	3.92
407.42	3.89
407.783	4.06
408.146	3.97
408.509	3.97
408.872	4.09
409.235	3.75
409.598	4
409.961	4.11
410.323	3.89
410.686	4.11
411.049	3.96
411.411	4.07
411.774	4.04
412.136	3.96
412.499	4.12
412.861	4.16
413.223	4.1
413.586	4.11
413.948	4.27
414.31	4.1
414.672	4.01
415.035	3.88
415.397	4.19
415.759	4.46
416.121	4.18
416.483	4.07
416.845	3.71
417.206	4
417.568	4.18
417.93	4
418.292	4.03
418.653	3.96
419.015	4.03
419.377	3.93
419.738	4.17
420.1	3.97
420.461	4.08
420.822	4.07
421.184	4.01
421.545	4.09
421.906	4.03
422.267	3.92
422.629	4.09
422.99	3.97
423.351	3.94
423.712	3.97
424.073	3.89
424.434	4.05
424.795	3.99
425.155	4.07
425.516	4.03
425.877	4.08
426.238	3.89
426.598	4.02
426.959	3.99
427.32	4.14
427.68	3.99
428.041	3.91
428.401	4.16
428.761	4.18
429.122	4.08
429.482	4.03
429.842	4.01
430.202	4.05
430.563	4.19
430.923	4.23
431.283	4.23
431.643	4.26
432.003	4.21
432.363	4.24
432.722	4.27
433.082	4.4
433.442	4.09
433.802	4.19
434.161	4.16
434.521	4.12
434.881	4.31
435.24	4.16
435.6	3.99
435.959	4.13
436.319	4.1
436.678	4.34
437.037	4.24
437.396	4.2
437.756	4.21
438.115	4.23
438.474	4.27
438.833	4.33
439.192	4.31
439.551	4.14
439.91	4.38
440.269	4.27
440.628	4.09
440.987	4.19
441.345	4.3
441.704	4.28
442.063	4.21
442.421	4.18
442.78	4.27
443.138	4.17
443.497	4.14
443.855	4.29
444.214	4.13
444.572	4.35
444.93	4.27
445.288	4.32
445.647	4.41
446.005	4.38
446.363	4.2
446.721	4.34
447.079	4.1
447.437	4.22
447.795	4.35
448.153	4.18
448.51	4.27
448.868	4.21
449.226	4.25
449.584	4.27
449.941	4.16
450.299	4.3
450.656	4.43
451.014	4.48
451.371	4.34
451.729	4.33
452.086	4.39
452.443	4.4
452.801	4.5
453.158	4.45
453.515	4.51
453.872	4.4
454.229	4.41
454.586	4.44
454.943	4.42
455.3	4.46
455.657	4.39
456.014	4.29
456.371	4.44
456.727	4.55
457.084	4.37
457.441	4.41
457.797	4.45
458.154	4.45
458.51	4.33
458.867	4.53
459.223	4.43
459.58	4.71
459.936	4.55
460.292	4.32
460.648	4.48
461.005	4.42
461.361	4.54
461.717	4.18
462.073	4.32
462.429	4.24
462.785	4.43
463.141	4.4
463.496	4.57
463.852	4.49
464.208	4.42
464.564	4.53
464.919	4.42
465.275	4.62
465.631	4.58
465.986	4.65
466.342	4.41
466.697	4.71
467.052	4.35
467.408	4.54
467.763	4.71
468.118	4.79
468.473	4.56
468.829	4.58
469.184	4.6
469.539	4.72
469.894	4.63
470.249	4.6
470.603	4.5
470.958	4.63
471.313	4.57
471.668	4.66
472.023	4.65
472.377	4.65
472.732	4.58
473.086	4.82
473.441	4.42
473.795	4.84
474.15	4.64
474.504	4.46
474.859	4.76
475.213	4.47
475.567	4.43
475.921	4.65
476.275	4.65
476.63	4.6
476.984	4.66
477.338	4.9
477.692	4.71
478.045	4.89
478.399	4.74
478.753	4.73
479.107	4.64
479.461	4.61
479.814	4.71
480.168	4.74
480.521	4.84
480.875	4.78
481.228	4.61
481.582	4.66
481.935	4.68
482.289	4.73
482.642	4.58
482.995	4.67
483.348	4.8
483.701	4.64
484.055	4.64
484.408	4.71
484.761	4.64
485.114	4.55
485.466	4.56
485.819	4.42
486.172	4.39
486.525	4.41
486.878	4.43
487.23	4.55
487.583	4.56
487.936	4.69
488.288	4.71
488.641	4.61
488.993	4.56
489.345	4.57
489.698	4.51
490.05	4.58
490.402	4.53
490.754	4.58
491.107	4.57
491.459	4.63
491.811	4.69
492.163	4.74
492.515	4.71
492.866	4.76
493.218	4.76
493.57	4.62
493.922	4.57
494.274	4.6
494.625	4.69
494.977	4.8
495.328	4.84
495.68	4.87
496.031	4.87
496.383	4.97
496.734	4.95
497.086	4.96
497.437	5
497.788	4.92
498.139	4.89
498.49	5.05
498.842	4.83
499.193	4.83
499.544	4.98
499.894	5.01
500.245	4.93
500.596	4.93
500.947	5.07
501.298	5.04
501.648	4.97
501.999	5.02
502.35	5.12
502.7	5.21
503.051	5.17
503.401	4.97
503.752	5.03
504.102	5.16
504.452	5.06
504.803	5.02
505.153	5.1
505.503	5.16
505.853	5.32
506.203	5.09
506.553	5.1
506.903	5.22
507.253	5.06
507.603	5.22
507.953	5.24
508.303	5.18
508.652	5.12
509.002	5.34
509.352	5.08
509.701	5.15
510.051	5.21
510.4	5.18
510.75	5.14
511.099	5.02
511.449	5.16
511.798	5.23
512.147	5.26
512.496	5.29
512.846	5.14
513.195	5.12
513.544	5.31
513.893	5.33
514.242	5.23
514.591	5.29
514.939	5.43
515.288	5.28
515.637	5.32
515.986	5.27
516.334	5.25
516.683	5.34
517.032	5.44
517.38	5.44
517.729	5.27
518.077	5.43
518.426	5.4
518.774	5.53
519.122	5.44
519.47	5.41
519.819	5.39
520.167	5.36
520.515	5.36
520.863	5.32
521.211	5.39
521.559	5.38
521.907	5.39
522.255	5.47
522.602	5.51
522.95	5.49
523.298	5.57
523.645	5.51
523.993	5.51
524.341	5.43
524.688	5.68
525.036	5.61
525.383	5.59
525.73	5.68
526.078	5.61
526.425	5.55
526.772	5.66
527.119	5.53
527.466	5.43
527.814	5.46
528.161	5.44
528.508	5.44
528.854	5.52
529.201	5.59
529.548	5.53
529.895	5.47
530.242	5.43
530.588	5.37
530.935	5.33
531.282	5.35
531.628	5.47
531.975	5.49
532.321	5.55
532.667	5.58
533.014	5.56
533.36	5.67
533.706	5.69
534.052	5.75
534.399	5.75
534.745	5.69
535.091	5.63
535.437	5.56
535.783	5.53
536.129	5.61
536.474	5.77
536.82	5.74
537.166	5.83
537.512	5.89
537.857	5.88
538.203	5.85
538.549	5.75
538.894	5.73
539.239	5.75
539.585	5.87
539.93	5.94
540.276	5.99
540.621	5.95
540.966	6.02
541.311	6.03
541.656	5.92
542.001	6.07
542.346	5.95
542.691	6.05
543.036	5.84
543.381	5.8
543.726	5.83
544.071	5.86
544.415	5.95
544.76	5.92
545.105	5.89
545.449	5.98
545.794	6.08
546.138	6.12
546.483	6.17
546.827	6.18
547.171	6.22
547.516	6.33
547.86	6.24
548.204	6.24
548.548	6.32
548.892	6.33
549.236	6.23
549.58	6.34
549.924	6.34
550.268	6.51
550.612	6.25
550.956	6.41
551.3	6.59
551.643	6.42
551.987	6.57
552.33	6.77
552.674	6.51
553.017	6.44
553.361	6.71
553.704	6.63
554.048	6.67
554.391	6.66
554.734	6.69
555.077	6.58
555.42	6.66
555.764	6.56
556.107	6.85
556.45	6.63
556.793	6.68
557.135	6.73
557.478	6.66
557.821	6.62
558.164	6.96
558.507	6.89
558.849	6.98
559.192	6.82
559.534	7.03
559.877	6.83
560.219	7.03
560.562	7.07
560.904	7.12
561.246	7.17
561.589	6.98
561.931	7.01
562.273	6.81
562.615	7.09
562.957	7.05
563.299	7.2
563.641	7.18
563.983	7
564.325	7.12
564.667	7.33
565.008	7.15
565.35	7.25
565.692	7.19
566.033	7.28
566.375	7.29
566.716	7.35
567.058	7.29
567.399	7.28
567.741	7.28
568.082	7.21
568.423	7.26
568.764	7.5
569.105	7.16
569.447	7.48
569.788	7.14
570.129	7.47
570.47	7.54
570.811	7.46
571.151	7.48
571.492	7.37
571.833	7.42
572.174	7.54
572.514	7.51
572.855	7.56
573.195	7.53
573.536	7.58
573.876	7.48
574.217	7.58
574.557	7.6
574.898	7.75
575.238	7.75
575.578	7.8
575.918	7.77
576.258	7.61
576.598	7.64
576.938	7.77
577.278	7.81
577.618	7.67
577.958	7.89
578.298	7.89
578.638	7.85
578.977	7.93
579.317	7.95
579.657	7.93
579.996	8.07
580.336	8.06
580.675	8.08
581.014	8
581.354	8.07
581.693	8.22
582.032	8.1
582.372	8.17
582.711	8.22
583.05	8.31
583.389	8.19
583.728	8.17
584.067	8.15
584.406	8.43
584.745	8.11
585.083	8.61
585.422	8.55
585.761	8.49
586.1	8.48
586.438	8.41
586.777	8.47
587.115	8.53
587.454	8.33
587.792	8.77
588.13	8.71
588.469	8.62
588.807	8.73
589.145	8.67
589.483	8.71
589.821	8.67
590.159	8.61
590.497	8.85
590.835	8.59
591.173	8.77
591.511	8.53
591.849	9
592.187	8.77
592.524	9.08
592.862	8.88
593.2	8.97
593.537	8.92
593.875	8.89
594.212	8.94
594.55	9.38
594.887	8.99
595.224	9.03
595.561	9.3
595.899	9.44
596.236	9.33
596.573	9.37
596.91	9.27
597.247	9.21
597.584	9.36
597.921	9.34
598.258	9.23
598.594	9.45
598.931	9.35
599.268	9.3
599.604	9.34
599.941	9.32
600.277	9.24
600.614	9.47
600.95	9.62
601.287	9.44
601.623	9.53
601.959	9.66
602.296	9.68
602.632	9.28
602.968	9.66
603.304	9.52
603.64	9.79
603.976	9.78
604.312	10
604.648	9.86
604.984	9.76
605.319	9.56
605.655	9.73
605.991	9.85
606.326	9.88
606.662	9.74
606.998	9.63
607.333	9.7
607.668	9.77
608.004	9.9
608.339	9.87
608.674	10.01
609.01	9.94
609.345	9.88
609.68	10.13
610.015	10.2
610.35	10.13
610.685	10.2
611.02	10.19
611.355	10.14
611.689	10.27
612.024	10.22
612.359	10.19
612.694	10.23
613.028	10.1
613.363	10.25
613.697	10.27
614.032	10.54
614.366	10.29
614.7	10.3
615.035	10.4
615.369	10.34
615.703	10.58
616.037	10.36
616.371	10.78
616.705	11.07
617.039	10.97
617.373	10.83
617.707	10.68
618.041	10.84
618.375	10.99
618.709	10.43
619.042	11.13
619.376	10.86
619.71	11.06
620.043	11.15
620.377	10.41
620.71	10.98
621.043	11.1
621.377	10.95
621.71	10.93
622.043	11.11
622.376	11.11
622.709	11.28
623.043	11.05
623.376	11.22
623.709	11.04
624.041	10.95
624.374	10.71
624.707	11.44
625.04	11.3
625.373	10.99
625.705	11.29
626.038	11.21
626.37	11.41
626.703	11.42
627.035	11.27
627.368	11.4
627.7	11.77
628.032	11.69
628.365	11.51
628.697	11.41
629.029	11.42
629.361	11.48
629.693	11.46
630.025	11.61
630.357	11.66
630.689	11.71
631.021	11.57
631.353	11.46
631.684	11.59
632.016	11.93
632.348	12
632.679	11.5
633.011	12
633.342	12.26
633.674	12.53
634.005	11.76
634.336	12.2
634.668	12.24
634.999	12.16
635.33	12.19
635.661	12.19
635.992	12.17
636.323	12.07
636.654	12.06
636.985	11.73
637.316	12.01
637.647	12.26
637.977	12.02
638.308	12.24
638.639	12
638.969	12.49
639.3	12.17
639.63	12.62
639.961	12.36
640.291	12.27
640.622	12.3
640.952	12.59
641.282	12.68
641.612	12.5
641.943	12.95
642.273	12.7
642.603	12.32
642.933	12.4
643.263	12.42
643.592	12.51
643.922	12.53
644.252	12.71
644.582	13.24
644.911	12.46
645.241	13.17
645.571	12.77
645.9	12.86
646.23	13.35
646.559	13.3
646.888	13.44
647.218	12.86
647.547	12.89
647.876	12.96
648.205	13.18
648.534	12.75
648.863	12.9
649.192	13.19
649.521	13.3
649.85	13.45
650.179	13.02
650.508	13.08
650.837	13.18
651.165	13.68
651.494	13.37
651.822	13.3
652.151	13.17
652.479	12.93
652.808	13.3
653.136	13.64
653.465	13.41
653.793	13.19
654.121	13.52
654.449	13.46
654.777	13.26
655.105	14.11
655.433	13.7
655.761	14
656.089	13.72
656.417	13.47
656.745	14.06
657.073	13.47
657.4	14.19
657.728	14.1
658.056	14.29
658.383	14.12
658.711	13.57
659.038	13.68
659.365	13.58
659.693	13.72
660.02	13.83
660.347	14.48
660.674	13.74
661.001	13.95
661.329	13.6
661.656	14.1
661.982	14.05
662.309	14.43
662.636	13.99
662.963	14.26
663.29	14.44
663.616	14.31
663.943	14.51
664.27	14.15
664.596	14.24
664.923	14.12
665.249	14.29
665.576	13.81
665.902	14.12
666.228	14.05
666.554	14.06
666.881	14.72
667.207	14.6
667.533	14.69
667.859	15.1
668.185	14.49
668.511	14.94
668.837	14.92
669.162	14.89
669.488	14.68
669.814	14.89
670.139	14.91
670.465	15.1
670.791	14.87
671.116	14.52
671.442	15.35
671.767	14.46
672.092	14.92
672.418	15.39
672.743	14.87
673.068	15.05
673.393	14.9
673.718	15.03
674.043	16.29
674.368	15.37
674.693	15.01
675.018	15.35
675.343	15.39
675.667	15.71
675.992	14.99
676.317	15.25
676.641	15.15
676.966	15.52
677.29	14.96
677.615	14.93
677.939	16.02
678.264	15.35
678.588	16.12
678.912	15.62
679.236	15.53
679.56	15.26
679.885	15.77
680.209	16.33
680.532	15.74
680.856	14.81
681.18	15.9
681.504	15.84
681.828	15.73
682.152	15.52
682.475	16.18
682.799	15.9
683.122	15.3
683.446	16.23
683.769	16.31
684.093	16.07
684.416	15.87
684.739	16.02
685.062	16.08
685.386	15.28
685.709	15.73
686.032	15.83
686.355	16.55
686.678	16.13
687.001	16
687.324	16.49
