Data from 0230_chest_Reflection__0__298.txt Node

Date: Fri Sep 22 23:05:26 CDT 2023
User: ToomeyLab
Spectrometer: FLMS14357
Trigger mode: 0
Integration Time (sec): 1.000000E-2
Scans to average: 100
Electric dark correction enabled: true
Nonlinearity correction enabled: false
Boxcar width: 0
XAxis mode: Wavelengths
Number of Pixels in Spectrum: 2048
>>>>>Begin Spectral Data<<<<<
189.047	-389.75
189.435	-389.75
189.823	-389.75
190.211	24.58
190.599	46.15
190.987	147.57
191.375	238.3
191.763	219.09
192.151	132.47
192.538	70.31
192.926	157.56
193.314	149.67
193.702	619.34
194.089	61.17
194.477	-145.86
194.864	13.27
195.252	185.63
195.639	922.96
196.027	46.6
196.414	157.96
196.801	-35.49
197.189	58.94
197.576	65.9
197.963	221.9
198.351	-16.37
198.738	7.64
199.125	-23.5
199.512	15.89
199.899	55.28
200.286	-0.26
200.673	-8.94
201.06	-5.55
201.447	29.64
201.833	4.75
202.22	22.72
202.607	11.25
202.994	35.57
203.38	9.44
203.767	4.63
204.154	31.45
204.54	26.18
204.927	-1.52
205.313	22.53
205.699	39.93
206.086	45.68
206.472	46.93
206.858	25.13
207.245	-28.66
207.631	49.78
208.017	27.59
208.403	16.24
208.789	10.2
209.175	49.72
209.561	34.88
209.947	11.73
210.333	23.72
210.719	23.79
211.105	26.09
211.491	13.21
211.876	27.25
212.262	9.8
212.648	29.48
213.034	24.28
213.419	5.67
213.805	29.76
214.19	23.71
214.576	36.34
214.961	22.66
215.346	25.59
215.732	34.98
216.117	-2.01
216.502	33.1
216.888	33.53
217.273	18.14
217.658	7.71
218.043	8.05
218.428	25.13
218.813	-9.17
219.198	-17.13
219.583	-1.29
219.968	3.03
220.353	33.7
220.738	1.21
221.122	12.06
221.507	11.38
221.892	-5.21
222.276	11.38
222.661	-15.44
223.046	24.06
223.43	30.77
223.815	0.39
224.199	14.56
224.583	13.82
224.968	14.57
225.352	-8.36
225.736	20.6
226.121	12
226.505	13.25
226.889	10.96
227.273	7.13
227.657	-0.03
228.041	0.99
228.425	9.77
228.809	2.45
229.193	7.8
229.577	9.42
229.961	4.09
230.344	7.1
230.728	4.41
231.112	6.58
231.495	5.49
231.879	5.66
232.263	5.73
232.646	6.14
233.03	6.82
233.413	6.22
233.797	6.47
234.18	5.6
234.563	8.68
234.946	7.41
235.33	2.06
235.713	4.98
236.096	4.25
236.479	7.06
236.862	7.28
237.245	6.09
237.628	6.56
238.011	5.27
238.394	6.17
238.777	7.5
239.16	7.03
239.543	6.44
239.925	7.31
240.308	5.3
240.691	5.19
241.073	6.46
241.456	5.86
241.838	5.86
242.221	4.39
242.603	6.15
242.986	5.98
243.368	5.32
243.75	5.73
244.133	6.39
244.515	5.31
244.897	4.77
245.279	5.36
245.661	5.06
246.043	5.78
246.425	4.93
246.807	5.71
247.189	4.37
247.571	5.92
247.953	5.78
248.335	5.71
248.717	5.26
249.098	5.31
249.48	5.09
249.862	5.23
250.243	5.17
250.625	5.51
251.006	4.71
251.388	5.4
251.769	5.2
252.151	5.03
252.532	4.67
252.913	4.86
253.295	6.56
253.676	6.15
254.057	6.12
254.438	5.4
254.819	4.59
255.2	4.78
255.581	4.84
255.962	6.07
256.343	4.85
256.724	4.19
257.105	5.68
257.486	5.52
257.867	6.2
258.247	6.37
258.628	5.51
259.009	4.68
259.389	4.68
259.77	4.79
260.15	5.18
260.531	4.3
260.911	4.54
261.292	4.91
261.672	4.62
262.052	4.75
262.432	4.71
262.813	4.74
263.193	3.98
263.573	5.05
263.953	4.78
264.333	5.55
264.713	4.43
265.093	4.81
265.473	5.19
265.853	4.88
266.233	4.56
266.612	4.45
266.992	5.45
267.372	5.93
267.752	4.83
268.131	4.98
268.511	4.45
268.89	5.19
269.27	4.77
269.649	4.47
270.029	4.5
270.408	5.14
270.787	4.4
271.167	4.49
271.546	4.67
271.925	4.37
272.304	4.32
272.683	4.44
273.062	4.83
273.441	4.72
273.82	5.36
274.199	4.55
274.578	4.76
274.957	4.31
275.336	4.08
275.715	4.57
276.093	4.57
276.472	4.55
276.851	4.45
277.229	3.3
277.608	4.76
277.986	4.98
278.365	4.48
278.743	4.67
279.122	4.2
279.5	5.13
279.878	4.58
280.257	4.83
280.635	4.4
281.013	4.71
281.391	3.99
281.769	4.85
282.147	4.55
282.525	4.25
282.903	4.84
283.281	4.23
283.659	4.27
284.037	4.32
284.415	4.92
284.792	4.32
285.17	4.58
285.548	5.12
285.925	4.49
286.303	4.12
286.68	4.57
287.058	4.72
287.435	4.52
287.813	4.22
288.19	4.32
288.567	4.48
288.945	4.26
289.322	4.59
289.699	4.45
290.076	4.36
290.453	4.23
290.83	3.94
291.207	4.42
291.584	4.44
291.961	3.86
292.338	4.46
292.715	4.6
293.092	4.48
293.469	4.25
293.845	4.41
294.222	4.38
294.599	3.89
294.975	4.92
295.352	4.39
295.728	4.77
296.105	4.9
296.481	4.71
296.858	4.73
297.234	4.37
297.61	4.2
297.986	4.42
298.363	4.77
298.739	4.35
299.115	4.73
299.491	4.55
299.867	4.62
300.243	4.31
300.619	4.46
300.995	3.8
301.371	4.78
301.746	4.56
302.122	4.71
302.498	4.02
302.874	4.35
303.249	4.74
303.625	4.34
304	4.63
304.376	5.18
304.751	4.27
305.127	4.7
305.502	5.12
305.878	4.18
306.253	4.21
306.628	4.02
307.003	4.5
307.378	4.4
307.754	3.73
308.129	4.23
308.504	4.38
308.879	4.23
309.254	4.52
309.629	4.06
310.003	4.94
310.378	4.96
310.753	4.12
311.128	4.25
311.502	4.35
311.877	4.1
312.252	4.29
312.626	4.41
313.001	4.46
313.375	4.42
313.75	4.88
314.124	4.86
314.498	4.09
314.873	4.26
315.247	4.42
315.621	4.81
315.995	4.44
316.369	4.34
316.743	4.19
317.117	5.4
317.491	5.33
317.865	4.01
318.239	4.73
318.613	5.33
318.987	4.27
319.361	4.56
319.734	3.92
320.108	4.49
320.482	4.12
320.855	4.61
321.229	5.5
321.602	5.03
321.976	4.47
322.349	4.67
322.723	4.48
323.096	4.37
323.469	4.32
323.843	4.58
324.216	5
324.589	4.59
324.962	4.21
325.335	4.51
325.708	4.58
326.081	4.92
326.454	3.61
326.827	4.33
327.2	4.63
327.573	4.89
327.945	4.52
328.318	4.54
328.691	4.73
329.063	4.52
329.436	5.12
329.809	4.42
330.181	4.6
330.553	4.25
330.926	4.25
331.298	4.81
331.671	4.64
332.043	4.14
332.415	4.48
332.787	4.82
333.159	3.95
333.532	4.37
333.904	4.49
334.276	4.18
334.648	4.19
335.02	4.56
335.391	4.5
335.763	4.48
336.135	4.29
336.507	4.78
336.879	3.91
337.25	4.37
337.622	4.53
337.993	4.62
338.365	4.79
338.736	4.29
339.108	5.25
339.479	4.56
339.851	4.27
340.222	4.68
340.593	4.12
340.964	4.53
341.336	4.71
341.707	4.61
342.078	4.62
342.449	4.46
342.82	3.89
343.191	4
343.562	4.06
343.933	4.56
344.303	4.19
344.674	4.76
345.045	4.67
345.416	4.87
345.786	3.99
346.157	4.42
346.527	4.36
346.898	4.25
347.268	4.7
347.639	4.47
348.009	4.61
348.38	4.52
348.75	4.68
349.12	4.75
349.49	4.83
349.861	4.32
350.231	4.69
350.601	4.73
350.971	4.4
351.341	4.53
351.711	4.18
352.081	4.4
352.45	4.53
352.82	4.74
353.19	4.81
353.56	4.53
353.929	5.03
354.299	4.43
354.669	4.46
355.038	4.3
355.408	4.68
355.777	4.79
356.147	4.26
356.516	4.57
356.885	4.39
357.254	4.79
357.624	4.27
357.993	4.39
358.362	4.37
358.731	4.35
359.1	4.4
359.469	4.82
359.838	4.27
360.207	4.43
360.576	4.59
360.945	4.36
361.314	4.46
361.682	4.66
362.051	4.65
362.42	4.47
362.788	4.4
363.157	4.47
363.525	4.67
363.894	4.59
364.262	4.45
364.631	4.51
364.999	4.47
365.367	4.53
365.735	4.42
366.104	4.66
366.472	4.74
366.84	4.38
367.208	4.8
367.576	4.67
367.944	4.61
368.312	4.6
368.68	4.54
369.048	4.74
369.416	4.8
369.783	4.35
370.151	4.55
370.519	4.45
370.886	4.65
371.254	4.59
371.621	4.58
371.989	4.63
372.356	4.55
372.724	4.89
373.091	4.67
373.458	4.34
373.826	4.7
374.193	4.81
374.56	4.66
374.927	4.7
375.294	4.45
375.661	4.21
376.028	4.46
376.395	4.77
376.762	4.48
377.129	4.64
377.496	4.86
377.863	4.67
378.229	4.54
378.596	4.57
378.963	4.89
379.329	4.48
379.696	4.97
380.062	4.18
380.429	4.65
380.795	4.59
381.161	4.78
381.528	4.48
381.894	4.06
382.26	4.4
382.626	4.69
382.993	4.74
383.359	4.37
383.725	4.68
384.091	4.45
384.457	4.45
384.823	4.69
385.188	4.79
385.554	4.61
385.92	4.71
386.286	4.7
386.651	4.37
387.017	4.71
387.383	4.67
387.748	4.54
388.114	4.47
388.479	4.68
388.845	4.27
389.21	4.33
389.575	4.77
389.94	4.57
390.306	4.53
390.671	4.8
391.036	4.27
391.401	4.29
391.766	4.63
392.131	4.38
392.496	4.59
392.861	4.59
393.226	4.87
393.591	4.64
393.956	4.76
394.32	4.58
394.685	4.6
395.05	4.81
395.414	4.76
395.779	4.44
396.143	4.83
396.508	4.81
396.872	4.63
397.236	4.83
397.601	4.69
397.965	4.68
398.329	4.76
398.694	4.56
399.058	4.43
399.422	4.56
399.786	4.55
400.15	4.87
400.514	4.77
400.878	4.75
401.242	4.8
401.605	4.72
401.969	4.36
402.333	4.68
402.697	4.54
403.06	4.57
403.424	4.53
403.787	4.75
404.151	4.89
404.514	4.89
404.878	4.67
405.241	4.87
405.604	4.67
405.968	4.82
406.331	4.69
406.694	4.69
407.057	4.7
407.42	4.7
407.783	4.58
408.146	4.52
408.509	4.58
408.872	4.59
409.235	4.55
409.598	4.66
409.961	4.76
410.323	4.69
410.686	4.81
411.049	4.81
411.411	4.88
411.774	4.75
412.136	4.53
412.499	4.61
412.861	4.79
413.223	4.82
413.586	4.86
413.948	4.8
414.31	4.68
414.672	4.74
415.035	4.5
415.397	4.82
415.759	5.04
416.121	4.64
416.483	4.76
416.845	4.53
417.206	4.71
417.568	4.62
417.93	4.54
418.292	4.53
418.653	4.55
419.015	4.67
419.377	4.52
419.738	4.81
420.1	4.69
420.461	4.68
420.822	4.56
421.184	4.63
421.545	4.74
421.906	4.68
422.267	4.62
422.629	4.71
422.99	4.65
423.351	4.58
423.712	4.54
424.073	4.51
424.434	4.71
424.795	4.63
425.155	4.63
425.516	4.68
425.877	4.68
426.238	4.46
426.598	4.56
426.959	4.61
427.32	4.63
427.68	4.58
428.041	4.67
428.401	4.7
428.761	4.84
429.122	4.78
429.482	4.83
429.842	4.67
430.202	4.62
430.563	4.76
430.923	4.84
431.283	4.82
431.643	4.81
432.003	4.82
432.363	4.93
432.722	4.91
433.082	4.94
433.442	4.65
433.802	4.81
434.161	4.85
434.521	4.77
434.881	4.89
435.24	4.72
435.6	4.62
435.959	4.61
436.319	4.74
436.678	4.79
437.037	4.72
437.396	4.55
437.756	4.75
438.115	4.85
438.474	4.83
438.833	4.89
439.192	4.76
439.551	4.83
439.91	4.97
440.269	4.92
440.628	4.56
440.987	4.88
441.345	4.82
441.704	4.93
442.063	4.74
442.421	4.83
442.78	4.77
443.138	4.72
443.497	4.74
443.855	4.67
444.214	4.69
444.572	4.82
444.93	4.77
445.288	4.79
445.647	4.95
446.005	4.79
446.363	4.73
446.721	4.81
447.079	4.72
447.437	4.82
447.795	4.88
448.153	4.71
448.51	4.64
448.868	4.69
449.226	4.74
449.584	4.67
449.941	4.79
450.299	4.93
450.656	4.84
451.014	4.95
451.371	4.87
451.729	4.87
452.086	4.76
452.443	4.85
452.801	5.1
453.158	4.81
453.515	4.96
453.872	5.07
454.229	4.86
454.586	4.81
454.943	4.86
455.3	4.87
455.657	4.85
456.014	4.89
456.371	4.92
456.727	4.99
457.084	4.95
457.441	4.76
457.797	5.05
458.154	4.94
458.51	4.69
458.867	4.83
459.223	4.9
459.58	4.89
459.936	5.05
460.292	4.91
460.648	4.94
461.005	4.87
461.361	4.98
461.717	4.68
462.073	4.84
462.429	4.72
462.785	4.8
463.141	4.84
463.496	4.99
463.852	4.93
464.208	4.78
464.564	5.05
464.919	4.9
465.275	4.95
465.631	5.06
465.986	5.08
466.342	4.98
466.697	5.09
467.052	4.87
467.408	5.03
467.763	4.94
468.118	5.06
468.473	4.99
468.829	4.87
469.184	4.96
469.539	5
469.894	4.93
470.249	5.03
470.603	4.93
470.958	5.1
471.313	5.05
471.668	5
472.023	4.99
472.377	5.2
472.732	5.02
473.086	5.16
473.441	4.97
473.795	5.01
474.15	4.81
474.504	4.93
474.859	5.16
475.213	4.98
475.567	4.91
475.921	5.05
476.275	4.8
476.63	4.82
476.984	4.9
477.338	5.1
477.692	5.11
478.045	5.05
478.399	5.07
478.753	4.96
479.107	5.15
479.461	4.96
479.814	5.08
480.168	5.03
480.521	5.06
480.875	5.17
481.228	4.96
481.582	4.92
481.935	5.04
482.289	5.12
482.642	4.93
482.995	4.98
483.348	5.06
483.701	4.93
484.055	4.98
484.408	4.89
484.761	4.93
485.114	4.86
485.466	4.83
485.819	4.79
486.172	4.71
486.525	4.71
486.878	4.69
487.23	4.77
487.583	4.81
487.936	4.84
488.288	4.95
488.641	4.87
488.993	4.96
489.345	4.81
489.698	4.85
490.05	4.89
490.402	4.82
490.754	4.78
491.107	4.78
491.459	4.94
491.811	4.95
492.163	4.95
492.515	4.98
492.866	4.94
493.218	4.98
493.57	4.92
493.922	4.92
494.274	4.91
494.625	4.93
494.977	5
495.328	5
495.68	5.03
496.031	5.05
496.383	5.21
496.734	5.16
497.086	5.17
497.437	5.16
497.788	5.19
498.139	5.06
498.49	5.26
498.842	5
499.193	5
499.544	5.2
499.894	5.08
500.245	5.06
500.596	5.16
500.947	5.14
501.298	5.21
501.648	5.32
501.999	5.36
502.35	5.12
502.7	5.23
503.051	5.17
503.401	5.18
503.752	5.29
504.102	5.25
504.452	5.23
504.803	5.13
505.153	5.24
505.503	5.24
505.853	5.39
506.203	5.04
506.553	5.41
506.903	5.26
507.253	5.18
507.603	5.29
507.953	5.3
508.303	5.25
508.652	5.21
509.002	5.41
509.352	5.25
509.701	5.33
510.051	5.26
510.4	5.33
510.75	5.33
511.099	5.15
511.449	5.33
511.798	5.25
512.147	5.34
512.496	5.34
512.846	5.26
513.195	5.43
513.544	5.39
513.893	5.39
514.242	5.25
514.591	5.37
514.939	5.36
515.288	5.26
515.637	5.36
515.986	5.41
516.334	5.42
516.683	5.33
517.032	5.53
517.38	5.27
517.729	5.39
518.077	5.46
518.426	5.42
518.774	5.45
519.122	5.46
519.47	5.46
519.819	5.39
520.167	5.48
520.515	5.41
520.863	5.39
521.211	5.42
521.559	5.37
521.907	5.37
522.255	5.53
522.602	5.51
522.95	5.46
523.298	5.55
523.645	5.58
523.993	5.54
524.341	5.45
524.688	5.48
525.036	5.6
525.383	5.67
525.73	5.62
526.078	5.59
526.425	5.61
526.772	5.73
527.119	5.59
527.466	5.51
527.814	5.45
528.161	5.51
528.508	5.52
528.854	5.54
529.201	5.58
529.548	5.51
529.895	5.51
530.242	5.41
530.588	5.42
530.935	5.39
531.282	5.41
531.628	5.47
531.975	5.4
532.321	5.47
532.667	5.55
533.014	5.64
533.36	5.67
533.706	5.6
534.052	5.71
534.399	5.68
534.745	5.69
535.091	5.6
535.437	5.58
535.783	5.53
536.129	5.64
536.474	5.68
536.82	5.64
537.166	5.83
537.512	5.72
537.857	5.82
538.203	5.81
538.549	5.7
538.894	5.75
539.239	5.76
539.585	5.76
539.93	5.98
540.276	5.83
540.621	5.94
540.966	5.94
541.311	5.91
541.656	5.93
542.001	6
542.346	6.02
542.691	5.99
543.036	5.96
543.381	5.83
543.726	5.81
544.071	5.83
544.415	5.8
544.76	5.85
545.105	5.78
545.449	5.99
545.794	6.05
546.138	6.05
546.483	6.09
546.827	6.01
547.171	6.12
547.516	6.09
547.86	6.19
548.204	6.13
548.548	6.22
548.892	6.15
549.236	6.13
549.58	6.13
549.924	6.26
550.268	6.29
550.612	6.27
550.956	6.33
551.3	6.39
551.643	6.45
551.987	6.5
552.33	6.46
552.674	6.35
553.017	6.25
553.361	6.38
553.704	6.35
554.048	6.49
554.391	6.52
554.734	6.49
555.077	6.36
555.42	6.4
555.764	6.45
556.107	6.5
556.45	6.44
556.793	6.37
557.135	6.49
557.478	6.65
557.821	6.86
558.164	6.7
558.507	6.81
558.849	6.46
559.192	6.73
559.534	6.69
559.877	6.76
560.219	6.75
560.562	6.84
560.904	6.79
561.246	7
561.589	6.83
561.931	6.76
562.273	6.7
562.615	6.7
562.957	6.81
563.299	6.88
563.641	6.91
563.983	6.96
564.325	6.87
564.667	6.96
565.008	7.02
565.35	7.15
565.692	7.06
566.033	6.99
566.375	7.09
566.716	6.93
567.058	7.06
567.399	7.12
567.741	7.07
568.082	7.05
568.423	7.21
568.764	7.27
569.105	7.05
569.447	7.18
569.788	7
570.129	7.21
570.47	7.3
570.811	7.3
571.151	7.28
571.492	7.27
571.833	7.24
572.174	7.39
572.514	7.4
572.855	7.31
573.195	7.2
573.536	7.45
573.876	7.31
574.217	7.46
574.557	7.29
574.898	7.51
575.238	7.39
575.578	7.49
575.918	7.51
576.258	7.48
576.598	7.49
576.938	7.55
577.278	7.67
577.618	7.58
577.958	7.54
578.298	7.65
578.638	7.54
578.977	7.55
579.317	7.58
579.657	7.81
579.996	7.76
580.336	7.83
580.675	8.04
581.014	7.72
581.354	7.72
581.693	7.91
582.032	7.94
582.372	8.01
582.711	8
583.05	8.26
583.389	8.11
583.728	8.14
584.067	8.09
584.406	8.03
584.745	7.83
585.083	8.25
585.422	8.26
585.761	8.14
586.1	8.22
586.438	8.23
586.777	8.3
587.115	8.56
587.454	8.14
587.792	8.58
588.13	8.47
588.469	8.46
588.807	8.32
589.145	8.52
589.483	8.18
589.821	8.41
590.159	8.41
590.497	8.73
590.835	8.54
591.173	8.41
591.511	8.71
591.849	8.91
592.187	8.52
592.524	8.77
592.862	8.46
593.2	8.65
593.537	8.59
593.875	8.71
594.212	8.81
594.55	9.1
594.887	8.7
595.224	8.96
595.561	8.94
595.899	9.08
596.236	9.32
596.573	9.02
596.91	8.88
597.247	8.87
597.584	9.26
597.921	9.01
598.258	9.19
598.594	9.14
598.931	8.98
599.268	9.1
599.604	9.32
599.941	9.19
600.277	9.02
600.614	9.3
600.95	9.21
601.287	9.25
601.623	9.31
601.959	9.54
602.296	9.47
602.632	9.21
602.968	9.33
603.304	9.49
603.64	9.55
603.976	9.69
604.312	9.75
604.648	9.62
604.984	9.65
605.319	9.59
605.655	9.6
605.991	9.53
606.326	9.52
606.662	9.57
606.998	9.8
607.333	9.78
607.668	9.79
608.004	9.93
608.339	9.59
608.674	9.73
609.01	9.72
609.345	9.87
609.68	10.09
610.015	9.82
610.35	9.94
610.685	10.17
611.02	10.02
611.355	10.14
611.689	10.08
612.024	9.82
612.359	9.94
612.694	10.17
613.028	10.26
613.363	10.02
613.697	10.08
614.032	10.22
614.366	10.19
614.7	10.17
615.035	10.42
615.369	10.1
615.703	10.53
616.037	10.46
616.371	10.46
616.705	10.86
617.039	10.64
617.373	10.47
617.707	10.51
618.041	10.69
618.375	10.4
618.709	10.5
619.042	10.76
619.376	10.81
619.71	10.69
620.043	10.32
620.377	10.51
620.71	10.96
621.043	10.81
621.377	10.78
621.71	10.98
622.043	10.88
622.376	11.23
622.709	11.12
623.043	11.01
623.376	11.06
623.709	11.35
624.041	11.13
624.374	11.44
624.707	11.35
625.04	11.47
625.373	10.97
625.705	11.1
626.038	11.19
626.37	11.36
626.703	11.35
627.035	11.4
627.368	11.53
627.7	11.99
628.032	11.44
628.365	11.59
628.697	11.73
629.029	11.37
629.361	11.72
629.693	11.66
630.025	11.73
630.357	11.53
630.689	11.86
631.021	11.77
631.353	11.78
631.684	12.04
632.016	12.14
632.348	11.95
632.679	11.74
633.011	12.12
633.342	12.05
633.674	12.03
634.005	11.84
634.336	11.94
634.668	12.02
634.999	11.93
635.33	12.1
635.661	12.16
635.992	12.22
636.323	12.11
636.654	11.88
636.985	11.91
637.316	12.18
637.647	12.09
637.977	11.75
638.308	12.29
638.639	12.37
638.969	12.62
639.3	12.21
639.63	13.1
639.961	12.36
640.291	12.6
640.622	12.86
640.952	12.82
641.282	12.72
641.612	12.59
641.943	12.77
642.273	13.02
642.603	12.42
642.933	12.9
643.263	12.54
643.592	12.52
643.922	13.28
644.252	12.89
644.582	13.06
644.911	13.1
645.241	13.26
645.571	12.95
645.9	13
646.23	13.1
646.559	13.16
646.888	13.57
647.218	13.34
647.547	13.23
647.876	13.05
648.205	13.14
648.534	13.59
648.863	13.09
649.192	13.04
649.521	13.07
649.85	13.55
650.179	13.56
650.508	13.18
650.837	13.69
651.165	13.4
651.494	13.48
651.822	13.65
652.151	13.37
652.479	13.71
652.808	13.61
653.136	13.92
653.465	13.89
653.793	13.8
654.121	13.87
654.449	13.5
654.777	14.15
655.105	13.77
655.433	13.85
655.761	14.27
656.089	13.82
656.417	13.78
656.745	14.13
657.073	13.86
657.4	14.48
657.728	14.52
658.056	14.22
658.383	14.33
658.711	14.27
659.038	13.76
659.365	14.19
659.693	13.95
660.02	14.77
660.347	14.51
660.674	14.17
661.001	14.18
661.329	14.27
661.656	14.69
661.982	14.4
662.309	14.7
662.636	14.6
662.963	14.32
663.29	14.77
663.616	14.49
663.943	15.04
664.27	14.88
664.596	14.8
664.923	14.71
665.249	14.39
665.576	13.88
665.902	14.88
666.228	14.56
666.554	14.41
666.881	15.13
667.207	14.73
667.533	15.06
667.859	14.93
668.185	15.14
668.511	15.68
668.837	14.98
669.162	15.03
669.488	15.49
669.814	15.06
670.139	15.33
670.465	15.36
670.791	15.59
671.116	14.98
671.442	15.92
671.767	15.22
672.092	15.31
672.418	16
672.743	15.62
673.068	15.86
673.393	15.15
673.718	15.53
674.043	15.88
674.368	16.25
674.693	15.64
675.018	15.76
675.343	15.89
675.667	15.65
675.992	15.63
676.317	16.81
676.641	15.7
676.966	16.36
677.29	15.69
677.615	15.97
677.939	16.42
678.264	16.19
678.588	16.11
678.912	15.74
679.236	16.17
679.56	16.04
679.885	16.43
680.209	17.1
680.532	15.93
680.856	16.01
681.18	16.4
681.504	16.42
681.828	16.81
682.152	16.34
682.475	17.14
682.799	16.63
683.122	16.22
683.446	16.6
683.769	16.79
684.093	17.06
684.416	16.68
684.739	16.74
685.062	17.06
685.386	16.91
685.709	16.59
686.032	16.31
686.355	17.2
686.678	17.69
687.001	17.01
687.324	17.33
