Data from 0230_crown_Reflection__4__307.txt Node

Date: Fri Sep 22 23:07:40 CDT 2023
User: ToomeyLab
Spectrometer: FLMS14357
Trigger mode: 0
Integration Time (sec): 1.000000E-2
Scans to average: 100
Electric dark correction enabled: true
Nonlinearity correction enabled: false
Boxcar width: 0
XAxis mode: Wavelengths
Number of Pixels in Spectrum: 2048
>>>>>Begin Spectral Data<<<<<
189.047	-110.06
189.435	-110.06
189.823	-110.06
190.211	52.06
190.599	-62.49
190.987	37.09
191.375	203.17
191.763	199.25
192.151	90.37
192.538	59.36
192.926	16.51
193.314	59.75
193.702	1816.02
194.089	55.28
194.477	130.92
194.864	28.91
195.252	16.22
195.639	374.92
196.027	39.23
196.414	-300.89
196.801	-2.84
197.189	147.9
197.576	104.54
197.963	259.7
198.351	11.65
198.738	3
199.125	9.24
199.512	5.61
199.899	41.06
200.286	-7.14
200.673	-21.45
201.06	19.04
201.447	46.62
201.833	25.03
202.22	10.63
202.607	15.92
202.994	30.99
203.38	27.65
203.767	52.01
204.154	10.58
204.54	14.26
204.927	9.17
205.313	23.47
205.699	61.37
206.086	40.93
206.472	47.91
206.858	27.21
207.245	-3.29
207.631	28.08
208.017	12.79
208.403	13.96
208.789	23.84
209.175	37.51
209.561	32.25
209.947	33.27
210.333	34.06
210.719	-7.91
211.105	9.48
211.491	35.16
211.876	33.65
212.262	24.51
212.648	39.18
213.034	21.6
213.419	5.2
213.805	26.56
214.19	20.33
214.576	11.28
214.961	64.55
215.346	9.43
215.732	49.31
216.117	0.05
216.502	26.56
216.888	5.77
217.273	27.31
217.658	-3.57
218.043	5.2
218.428	23.29
218.813	-14.52
219.198	9.84
219.583	17.82
219.968	13.12
220.353	9.29
220.738	1.35
221.122	-9.21
221.507	19.24
221.892	10.11
222.276	8.18
222.661	0.29
223.046	24.64
223.43	17.93
223.815	13.5
224.199	8.57
224.583	24.23
224.968	13.16
225.352	12.37
225.736	4.6
226.121	21.76
226.505	9.11
226.889	16.52
227.273	11
227.657	7.29
228.041	11.24
228.425	17.9
228.809	7.97
229.193	7.62
229.577	11.98
229.961	11.53
230.344	12.5
230.728	8.43
231.112	10.01
231.495	9.52
231.879	9.86
232.263	8
232.646	9.25
233.03	8.55
233.413	8.44
233.797	10.77
234.18	8.17
234.563	10.22
234.946	9.18
235.33	7.28
235.713	7.59
236.096	8.73
236.479	7.38
236.862	11.08
237.245	8.53
237.628	11.02
238.011	6.71
238.394	9.04
238.777	9.59
239.16	8.9
239.543	9.66
239.925	10.46
240.308	10.67
240.691	10.26
241.073	8.79
241.456	9.94
241.838	8.48
242.221	7.4
242.603	9.47
242.986	9.35
243.368	7.71
243.75	8.78
244.133	9.08
244.515	8.24
244.897	7.97
245.279	7.74
245.661	7.95
246.043	8.02
246.425	7.82
246.807	9.18
247.189	7.27
247.571	8.12
247.953	8.83
248.335	8.16
248.717	7.85
249.098	7.71
249.48	7.42
249.862	7.65
250.243	7.72
250.625	7.78
251.006	7.64
251.388	7.69
251.769	8.02
252.151	6.76
252.532	7.42
252.913	7.78
253.295	8.04
253.676	7.61
254.057	8.22
254.438	8.18
254.819	7.29
255.2	7.5
255.581	8.06
255.962	7.9
256.343	8.58
256.724	5.77
257.105	7.39
257.486	7.13
257.867	7.25
258.247	7.2
258.628	8.02
259.009	7.17
259.389	7.82
259.77	7.81
260.15	7.95
260.531	6.67
260.911	7.31
261.292	7.49
261.672	7.02
262.052	6.93
262.432	6.92
262.813	6.96
263.193	6.82
263.573	7.24
263.953	7.85
264.333	6.99
264.713	7.29
265.093	6.91
265.473	6.69
265.853	6.6
266.233	7.64
266.612	6.09
266.992	6.75
267.372	7.58
267.752	7.83
268.131	6.57
268.511	6.31
268.89	7.36
269.27	6.09
269.649	6.79
270.029	6.41
270.408	6.39
270.787	6.84
271.167	7.47
271.546	6.66
271.925	6.44
272.304	6.26
272.683	6.68
273.062	6.72
273.441	6.97
273.82	7.07
274.199	6.94
274.578	6.83
274.957	6.43
275.336	6.52
275.715	6.55
276.093	6.39
276.472	6.57
276.851	6.09
277.229	6.15
277.608	6.66
277.986	6.23
278.365	6.88
278.743	6.65
279.122	6.23
279.5	6.91
279.878	6.37
280.257	6.88
280.635	6.47
281.013	7.37
281.391	6.44
281.769	5.9
282.147	6.38
282.525	6.47
282.903	7.17
283.281	6.59
283.659	6.85
284.037	6.5
284.415	6.38
284.792	6.62
285.17	6.38
285.548	7.08
285.925	6.63
286.303	6.23
286.68	5.98
287.058	6.01
287.435	6.16
287.813	6.31
288.19	6.2
288.567	6.54
288.945	6.37
289.322	6.64
289.699	6.18
290.076	6.76
290.453	5.88
290.83	6.12
291.207	6.34
291.584	6.24
291.961	6.24
292.338	6.18
292.715	6.66
293.092	6.12
293.469	6.63
293.845	6.19
294.222	6.41
294.599	6.48
294.975	6.58
295.352	6.29
295.728	5.96
296.105	6.4
296.481	6.42
296.858	5.88
297.234	6.21
297.61	6.18
297.986	6.14
298.363	6.07
298.739	6.27
299.115	6.2
299.491	6.51
299.867	6.31
300.243	5.94
300.619	5.92
300.995	6.17
301.371	6.51
301.746	6.19
302.122	6.35
302.498	6.04
302.874	5.74
303.249	6.07
303.625	5.93
304	6.12
304.376	6.38
304.751	6.02
305.127	5.81
305.502	6.32
305.878	5.96
306.253	6.35
306.628	6.29
307.003	6.21
307.378	6.07
307.754	5.79
308.129	6.3
308.504	6.1
308.879	6.01
309.254	5.81
309.629	6.52
310.003	6.14
310.378	6.75
310.753	5.84
311.128	5.75
311.502	6.28
311.877	5.95
312.252	5.97
312.626	5.87
313.001	6.32
313.375	6.11
313.75	6.46
314.124	6.45
314.498	5.71
314.873	5.65
315.247	6.15
315.621	6.07
315.995	6.37
316.369	5.9
316.743	6.08
317.117	6.52
317.491	6.3
317.865	6
318.239	5.88
318.613	6.58
318.987	6.55
319.361	6.09
319.734	5.49
320.108	6.28
320.482	5.98
320.855	6.53
321.229	6.39
321.602	6.2
321.976	5.58
322.349	5.72
322.723	6.14
323.096	6.02
323.469	5.81
323.843	5.84
324.216	6.45
324.589	6.09
324.962	5.78
325.335	5.92
325.708	5.46
326.081	6.31
326.454	5.68
326.827	6.15
327.2	6.16
327.573	6.1
327.945	5.77
328.318	5.95
328.691	6.02
329.063	5.34
329.436	5.92
329.809	5.68
330.181	6.49
330.553	5.89
330.926	6.06
331.298	5.89
331.671	6.41
332.043	5.59
332.415	6.2
332.787	6.17
333.159	6.08
333.532	6
333.904	5.88
334.276	5.56
334.648	6.24
335.02	6.08
335.391	6.37
335.763	6.08
336.135	5.9
336.507	6.3
336.879	5.99
337.25	6.1
337.622	5.62
337.993	6.03
338.365	6.16
338.736	6.14
339.108	6.53
339.479	5.45
339.851	6.06
340.222	6.03
340.593	5.91
340.964	5.68
341.336	5.93
341.707	6.19
342.078	6
342.449	6.24
342.82	5.44
343.191	5.75
343.562	6.1
343.933	6.34
344.303	5.91
344.674	5.63
345.045	6
345.416	6.12
345.786	5.63
346.157	6
346.527	5.66
346.898	5.81
347.268	6.06
347.639	5.89
348.009	5.9
348.38	6.32
348.75	6.08
349.12	5.96
349.49	6.35
349.861	5.54
350.231	6.3
350.601	6.12
350.971	6.23
351.341	5.72
351.711	6.18
352.081	6.06
352.45	5.74
352.82	6.26
353.19	6.46
353.56	6.11
353.929	6.04
354.299	5.94
354.669	5.88
355.038	5.97
355.408	5.96
355.777	6.06
356.147	5.77
356.516	5.78
356.885	5.64
357.254	6.34
357.624	5.78
357.993	6.05
358.362	6.32
358.731	5.87
359.1	6.09
359.469	6.05
359.838	5.99
360.207	5.99
360.576	5.92
360.945	5.87
361.314	6.03
361.682	6.04
362.051	6.17
362.42	5.98
362.788	5.88
363.157	5.93
363.525	5.84
363.894	5.87
364.262	5.84
364.631	5.85
364.999	5.8
365.367	6.22
365.735	5.88
366.104	6.01
366.472	6.05
366.84	5.89
367.208	6.15
367.576	6.07
367.944	6.02
368.312	6.08
368.68	5.88
369.048	6.19
369.416	5.91
369.783	5.91
370.151	5.85
370.519	6.03
370.886	6.24
371.254	6.08
371.621	5.94
371.989	6.15
372.356	5.7
372.724	6.15
373.091	6.2
373.458	6.19
373.826	6.2
374.193	6.19
374.56	6.25
374.927	5.93
375.294	5.83
375.661	6.11
376.028	6.16
376.395	6.06
376.762	5.88
377.129	6.26
377.496	6.38
377.863	6.31
378.229	6.14
378.596	6.08
378.963	6.19
379.329	6.15
379.696	6.25
380.062	5.9
380.429	6.09
380.795	6.03
381.161	6.04
381.528	6.35
381.894	5.55
382.26	5.74
382.626	6.18
382.993	6.15
383.359	5.89
383.725	6.07
384.091	6.27
384.457	5.9
384.823	6.11
385.188	6.32
385.554	5.88
385.92	6.3
386.286	6.32
386.651	6.18
387.017	6.27
387.383	6
387.748	6.27
388.114	5.74
388.479	6.26
388.845	5.87
389.21	6.02
389.575	6.21
389.94	6.06
390.306	6.32
390.671	6.37
391.036	6.11
391.401	6
391.766	6.03
392.131	6.2
392.496	6.23
392.861	6.09
393.226	6.2
393.591	6.29
393.956	6.28
394.32	6.12
394.685	5.9
395.05	6.23
395.414	6.3
395.779	6.09
396.143	6.08
396.508	6.15
396.872	5.92
397.236	6.27
397.601	6.01
397.965	6.3
398.329	5.9
398.694	6.05
399.058	6.19
399.422	6.18
399.786	6.02
400.15	6.2
400.514	6.12
400.878	6.37
401.242	6.39
401.605	5.95
401.969	6.07
402.333	6.28
402.697	6.13
403.06	6.1
403.424	6.07
403.787	6.22
404.151	6.15
404.514	6.32
404.878	6.43
405.241	6.27
405.604	6.24
405.968	6.39
406.331	6.27
406.694	6.32
407.057	6.03
407.42	6.19
407.783	6.34
408.146	6.41
408.509	6.16
408.872	6.08
409.235	6.05
409.598	6.18
409.961	6.27
410.323	6.14
410.686	6.42
411.049	6.43
411.411	6.33
411.774	6.41
412.136	6.22
412.499	6.2
412.861	6.17
413.223	6.22
413.586	6.48
413.948	6.37
414.31	6.09
414.672	6.23
415.035	6.09
415.397	6.46
415.759	6.46
416.121	6.15
416.483	6.16
416.845	6.09
417.206	6.09
417.568	6.2
417.93	6.17
418.292	6.22
418.653	6.2
419.015	6.18
419.377	6.03
419.738	6.21
420.1	6.02
420.461	6.1
420.822	6.06
421.184	5.93
421.545	6.08
421.906	6.01
422.267	6.06
422.629	6.18
422.99	6.05
423.351	6.01
423.712	5.99
424.073	5.94
424.434	6.09
424.795	5.98
425.155	6.03
425.516	6.07
425.877	6.03
426.238	5.95
426.598	5.95
426.959	5.98
427.32	6.05
427.68	5.95
428.041	6.03
428.401	6.1
428.761	6.09
429.122	6.12
429.482	6.12
429.842	5.94
430.202	6.06
430.563	6.25
430.923	6.13
431.283	6.15
431.643	6.11
432.003	6.27
432.363	6.37
432.722	6.16
433.082	6.2
433.442	6.11
433.802	6.33
434.161	6.3
434.521	6.1
434.881	6.15
435.24	6.05
435.6	5.99
435.959	5.97
436.319	6.06
436.678	6.09
437.037	6.15
437.396	6.18
437.756	6.09
438.115	6.22
438.474	6.34
438.833	6.25
439.192	6.1
439.551	6.07
439.91	6.34
440.269	6.29
440.628	6.02
440.987	6.11
441.345	6.09
441.704	6.14
442.063	6.01
442.421	6.02
442.78	6.11
443.138	6.06
443.497	6.06
443.855	6.04
444.214	5.97
444.572	6.11
444.93	6.06
445.288	6.06
445.647	6.21
446.005	6.24
446.363	5.99
446.721	6.13
447.079	5.98
447.437	6.23
447.795	6.2
448.153	5.92
448.51	6.04
448.868	5.98
449.226	5.93
449.584	5.94
449.941	5.93
450.299	6.15
450.656	6.11
451.014	6.02
451.371	6.14
451.729	6.02
452.086	6.02
452.443	6.26
452.801	6.02
453.158	6.2
453.515	6.33
453.872	6.13
454.229	6.19
454.586	6.17
454.943	6.11
455.3	6.12
455.657	6.11
456.014	6.23
456.371	6.08
456.727	6.32
457.084	6.31
457.441	6.07
457.797	6.21
458.154	6.22
458.51	6.01
458.867	6.14
459.223	6.24
459.58	6.25
459.936	6.28
460.292	6.22
460.648	6.28
461.005	6.14
461.361	6.09
461.717	5.84
462.073	6.05
462.429	5.76
462.785	5.94
463.141	6.04
463.496	6.21
463.852	6.02
464.208	6.14
464.564	6.17
464.919	6.15
465.275	6.38
465.631	6.21
465.986	6.23
466.342	6.2
466.697	6.22
467.052	6.09
467.408	6.05
467.763	6.1
468.118	6.2
468.473	6.12
468.829	6.05
469.184	6.3
469.539	6.21
469.894	6.11
470.249	6.1
470.603	6.02
470.958	6.2
471.313	6.24
471.668	6.19
472.023	6.21
472.377	6.2
472.732	6.09
473.086	6.17
473.441	6.14
473.795	6.26
474.15	6.03
474.504	6.08
474.859	6.31
475.213	5.95
475.567	5.93
475.921	6.06
476.275	6.19
476.63	5.99
476.984	5.98
477.338	6.29
477.692	6.09
478.045	6.2
478.399	6.27
478.753	6.07
479.107	6.1
479.461	6.03
479.814	6.19
480.168	6.02
480.521	6.1
480.875	6.03
481.228	6.14
481.582	6.11
481.935	6.24
482.289	5.99
482.642	6.08
482.995	6.04
483.348	6.09
483.701	6.06
484.055	5.99
484.408	6
484.761	5.86
485.114	5.8
485.466	5.78
485.819	5.68
486.172	5.66
486.525	5.63
486.878	5.65
487.23	5.72
487.583	5.76
487.936	5.82
488.288	5.85
488.641	5.9
488.993	5.75
489.345	5.73
489.698	5.73
490.05	5.7
490.402	5.69
490.754	5.67
491.107	5.69
491.459	5.8
491.811	5.8
492.163	5.88
492.515	5.93
492.866	5.97
493.218	5.99
493.57	5.84
493.922	5.77
494.274	5.74
494.625	5.8
494.977	5.8
495.328	5.9
495.68	5.88
496.031	5.92
496.383	6.02
496.734	6
497.086	5.93
497.437	6.02
497.788	5.99
498.139	6.02
498.49	6.15
498.842	5.89
499.193	5.84
499.544	5.99
499.894	6
500.245	6.08
500.596	5.99
500.947	6.05
501.298	5.97
501.648	6.05
501.999	6.11
502.35	6.04
502.7	6.02
503.051	6.09
503.401	5.98
503.752	6.02
504.102	6
504.452	6.03
504.803	6.01
505.153	6.01
505.503	6.08
505.853	6.07
506.203	5.93
506.553	6
506.903	6.02
507.253	5.97
507.603	5.97
507.953	6.09
508.303	6.16
508.652	5.88
509.002	6.14
509.352	5.91
509.701	5.99
510.051	6.05
510.4	6.02
510.75	5.91
511.099	5.82
511.449	5.96
511.798	5.98
512.147	5.95
512.496	5.97
512.846	5.89
513.195	5.95
513.544	5.97
513.893	6.05
514.242	5.84
514.591	5.93
514.939	5.96
515.288	5.92
515.637	5.89
515.986	5.8
516.334	5.96
516.683	5.9
517.032	6.06
517.38	5.87
517.729	5.81
518.077	5.93
518.426	5.84
518.774	5.95
519.122	5.91
519.47	5.88
519.819	5.96
520.167	5.87
520.515	5.87
520.863	5.76
521.211	5.79
521.559	5.8
521.907	5.83
522.255	5.75
522.602	5.82
522.95	5.84
523.298	5.89
523.645	5.99
523.993	5.93
524.341	5.85
524.688	5.87
525.036	5.9
525.383	5.89
525.73	6.04
526.078	5.92
526.425	5.86
526.772	6.02
527.119	5.89
527.466	5.75
527.814	5.73
528.161	5.73
528.508	5.77
528.854	5.79
529.201	5.83
529.548	5.75
529.895	5.65
530.242	5.64
530.588	5.57
530.935	5.5
531.282	5.51
531.628	5.54
531.975	5.55
532.321	5.56
532.667	5.61
533.014	5.73
533.36	5.76
533.706	5.77
534.052	5.77
534.399	5.76
534.745	5.75
535.091	5.65
535.437	5.61
535.783	5.5
536.129	5.65
536.474	5.74
536.82	5.62
537.166	5.76
537.512	5.78
537.857	5.68
538.203	5.85
538.549	5.71
538.894	5.64
539.239	5.62
539.585	5.67
539.93	5.78
540.276	5.79
540.621	5.75
540.966	5.78
541.311	5.91
541.656	5.74
542.001	5.75
542.346	5.78
542.691	5.77
543.036	5.73
543.381	5.59
543.726	5.54
544.071	5.56
544.415	5.54
544.76	5.57
545.105	5.48
545.449	5.54
545.794	5.72
546.138	5.71
546.483	5.69
546.827	5.71
547.171	5.79
547.516	5.86
547.86	5.87
548.204	5.75
548.548	5.8
548.892	5.76
549.236	5.76
549.58	5.65
549.924	5.9
550.268	5.86
550.612	5.8
550.956	5.88
551.3	5.91
551.643	5.84
551.987	5.83
552.33	6
552.674	5.88
553.017	5.83
553.361	5.83
553.704	5.85
554.048	5.95
554.391	5.87
554.734	5.87
555.077	5.88
555.42	5.77
555.764	5.83
556.107	5.95
556.45	5.83
556.793	5.87
557.135	5.94
557.478	5.76
557.821	5.9
558.164	5.95
558.507	6.01
558.849	5.74
559.192	5.87
559.534	5.99
559.877	5.81
560.219	5.95
560.562	6.02
560.904	5.91
561.246	6.16
561.589	6.04
561.931	5.71
562.273	5.76
562.615	5.69
562.957	5.77
563.299	6.01
563.641	5.92
563.983	6.01
564.325	5.94
564.667	5.8
565.008	5.69
565.35	5.89
565.692	5.95
566.033	5.95
566.375	5.92
566.716	5.96
567.058	5.95
567.399	5.87
567.741	6.07
568.082	5.64
568.423	5.98
568.764	6.11
569.105	5.75
569.447	5.69
569.788	5.69
570.129	5.95
570.47	5.94
570.811	5.86
571.151	5.96
571.492	5.68
571.833	5.8
572.174	5.83
572.514	5.77
572.855	5.97
573.195	5.74
573.536	5.9
573.876	5.97
574.217	5.68
574.557	5.69
574.898	5.8
575.238	5.79
575.578	5.8
575.918	5.74
576.258	5.83
576.598	5.77
576.938	5.9
577.278	5.94
577.618	5.78
577.958	5.86
578.298	5.84
578.638	5.74
578.977	5.84
579.317	5.87
579.657	5.9
579.996	5.87
580.336	6.02
580.675	6.1
581.014	5.6
581.354	5.63
581.693	5.96
582.032	5.87
582.372	6.15
582.711	5.88
583.05	5.99
583.389	5.91
583.728	5.92
584.067	5.8
584.406	6.02
584.745	5.93
585.083	6.26
585.422	6.14
585.761	5.84
586.1	6.08
586.438	5.76
586.777	6.03
587.115	6.21
587.454	5.79
587.792	6.11
588.13	5.75
588.469	5.87
588.807	6.09
589.145	5.96
589.483	6
589.821	6.13
590.159	5.81
590.497	6.15
590.835	5.91
591.173	5.83
591.511	5.89
591.849	6.16
592.187	5.81
592.524	5.9
592.862	5.9
593.2	5.89
593.537	5.67
593.875	5.91
594.212	5.8
594.55	6.01
594.887	6.09
595.224	6.2
595.561	6.02
595.899	5.97
596.236	6.2
596.573	6.25
596.91	5.87
597.247	5.94
597.584	5.94
597.921	5.88
598.258	6.12
598.594	5.91
598.931	5.84
599.268	5.95
599.604	6.03
599.941	5.91
600.277	5.83
600.614	5.83
600.95	6.02
601.287	5.94
601.623	5.97
601.959	5.75
602.296	6.04
602.632	5.79
602.968	6
603.304	5.97
603.64	5.99
603.976	6.03
604.312	5.97
604.648	5.98
604.984	5.84
605.319	5.84
605.655	5.74
605.991	5.8
606.326	6.01
606.662	5.87
606.998	5.89
607.333	5.94
607.668	5.92
608.004	6.03
608.339	5.8
608.674	5.99
609.01	5.92
609.345	6.13
609.68	6.02
610.015	6.07
610.35	5.75
610.685	6.26
611.02	6
611.355	6.03
611.689	6.03
612.024	6
612.359	5.93
612.694	5.74
613.028	5.83
613.363	6
613.697	5.79
614.032	6.14
614.366	5.87
614.7	6.05
615.035	6.16
615.369	5.74
615.703	5.89
616.037	6.2
616.371	6.17
616.705	6.37
617.039	6.05
617.373	6.08
617.707	5.82
618.041	6.19
618.375	5.93
618.709	5.86
619.042	6.33
619.376	6.09
619.71	5.95
620.043	5.83
620.377	6.11
620.71	6.02
621.043	6.18
621.377	6
621.71	6.13
622.043	6.11
622.376	6.07
622.709	6.05
623.043	6.03
623.376	6.41
623.709	6.22
624.041	5.77
624.374	6.33
624.707	6.12
625.04	6.38
625.373	5.72
625.705	6.15
626.038	6.17
626.37	6.44
626.703	6.22
627.035	6.01
627.368	6.11
627.7	6.57
628.032	6.23
628.365	6.04
628.697	6.1
629.029	6.22
629.361	6.03
629.693	6.37
630.025	6.04
630.357	5.92
630.689	6.18
631.021	6.01
631.353	6.18
631.684	6.25
632.016	6.15
632.348	6.11
632.679	6.02
633.011	5.97
633.342	6.14
633.674	6.49
634.005	6
634.336	6.42
634.668	6.3
634.999	6.11
635.33	6.27
635.661	6.27
635.992	6.01
636.323	6.04
636.654	6.31
636.985	5.85
637.316	6.05
637.647	6.26
637.977	5.99
638.308	6.7
638.639	6.13
638.969	6.55
639.3	6.52
639.63	6.31
639.961	6.15
640.291	6.06
640.622	6.37
640.952	6.3
641.282	6.26
641.612	6.21
641.943	6.67
642.273	6.34
642.603	6.22
642.933	6.08
643.263	5.61
643.592	5.92
643.922	6.38
644.252	6.05
644.582	6.56
644.911	6.38
645.241	6.86
645.571	6.1
645.9	6.15
646.23	6.77
646.559	6.59
646.888	6.52
647.218	6.35
647.547	6.37
647.876	6.11
648.205	6.22
648.534	6.49
648.863	6.08
649.192	5.82
649.521	6.54
649.85	6.34
650.179	6.42
650.508	6.01
650.837	6.75
651.165	6.51
651.494	6.26
651.822	6.43
652.151	6.29
652.479	6.08
652.808	6.22
653.136	6.66
653.465	6.73
653.793	6.33
654.121	6.48
654.449	6.14
654.777	6.41
655.105	6.14
655.433	6.03
655.761	6.99
656.089	6.67
656.417	6.18
656.745	6.68
657.073	6.49
657.4	7.05
657.728	6.65
658.056	6.31
658.383	6.84
658.711	6.14
659.038	6.18
659.365	6.24
659.693	6.08
660.02	6.62
660.347	6.6
660.674	5.84
661.001	6.15
661.329	6.4
661.656	6.45
661.982	6.18
662.309	6.72
662.636	6.16
662.963	6.61
663.29	6.62
663.616	6.48
663.943	6.53
664.27	6.6
664.596	6.58
664.923	6.64
665.249	6.47
665.576	6.46
665.902	5.94
666.228	6.58
666.554	5.98
666.881	6.47
667.207	6.27
667.533	6.07
667.859	6.37
668.185	6.82
668.511	6.87
668.837	6.28
669.162	6.65
669.488	6.65
669.814	6.57
670.139	6.98
670.465	7.1
670.791	6.49
671.116	6.33
671.442	6.83
671.767	6.31
672.092	6.97
672.418	6.9
672.743	6.55
673.068	6.68
673.393	6.54
673.718	6.62
674.043	6.61
674.368	7.17
674.693	6.69
675.018	6.36
675.343	6.32
675.667	6.17
675.992	6.45
676.317	6.88
676.641	6.12
676.966	6.61
677.29	6.38
677.615	7.03
677.939	6.81
678.264	6.7
678.588	7.12
678.912	6.92
679.236	6.74
679.56	6.31
679.885	5.99
680.209	7.61
680.532	6.79
680.856	6.78
681.18	6.75
681.504	6.59
681.828	7.17
682.152	6.77
682.475	7.08
682.799	6.72
683.122	6.74
683.446	6.76
683.769	6.73
684.093	7.45
684.416	7.15
684.739	7.41
685.062	7.14
685.386	6.89
685.709	6.39
686.032	6.78
686.355	6.78
686.678	7.06
687.001	7.33
687.324	7.67
687.646	6.49
687.969	7.21
688.292	6.86
688.614	7.24
688.937	7.28
689.26	7.16
689.582	6.94
689.904	6.38
690.227	7.31
690.549	7.13
690.871	6.79
691.194	6.62
691.516	6.79
691.838	6.91
692.16	6.24
692.482	7.29
692.804	6.07
693.126	6.39
