Data from 0230_chest_Reflection__1__299.txt Node

Date: Fri Sep 22 23:05:35 CDT 2023
User: ToomeyLab
Spectrometer: FLMS14357
Trigger mode: 0
Integration Time (sec): 1.000000E-2
Scans to average: 100
Electric dark correction enabled: true
Nonlinearity correction enabled: false
Boxcar width: 0
XAxis mode: Wavelengths
Number of Pixels in Spectrum: 2048
>>>>>Begin Spectral Data<<<<<
189.047	-720.31
189.435	-720.31
189.823	-720.31
190.211	-26.05
190.599	153.59
190.987	-20.3
191.375	285.79
191.763	222.63
192.151	81.93
192.538	-32.32
192.926	63.83
193.314	182.04
193.702	-95.03
194.089	70.37
194.477	-374.31
194.864	-0.28
195.252	283.53
195.639	1076.74
196.027	16.36
196.414	171.02
196.801	-8.49
197.189	13.34
197.576	43.62
197.963	53.67
198.351	-21.17
198.738	3.03
199.125	29.09
199.512	22.29
199.899	32.16
200.286	20.6
200.673	37.32
201.06	37.91
201.447	35.98
201.833	-51.17
202.22	45.53
202.607	17.69
202.994	48.37
203.38	12.9
203.767	5.42
204.154	40.93
204.54	45.41
204.927	17.52
205.313	45.53
205.699	61.39
206.086	28.16
206.472	34.13
206.858	62.8
207.245	41.7
207.631	14.08
208.017	27.23
208.403	21.97
208.789	23.41
209.175	36.82
209.561	28.7
209.947	50.99
210.333	10.09
210.719	20.76
211.105	33.79
211.491	-10.28
211.876	39.06
212.262	11.24
212.648	22.02
213.034	21.28
213.419	40.25
213.805	5.34
214.19	20.73
214.576	32.98
214.961	6.61
215.346	19.02
215.732	35.05
216.117	-11.85
216.502	31.62
216.888	0.17
217.273	6.39
217.658	-10.6
218.043	23.09
218.428	32.67
218.813	-29.16
219.198	2.04
219.583	5.53
219.968	-13.73
220.353	27.35
220.738	-18.56
221.122	6.2
221.507	-0.17
221.892	-2.49
222.276	-11.29
222.661	-17.43
223.046	18.7
223.43	33.73
223.815	7.87
224.199	9.25
224.583	21.18
224.968	22.66
225.352	4.7
225.736	15.04
226.121	1.32
226.505	12.18
226.889	7.25
227.273	5.97
227.657	7.42
228.041	7.06
228.425	11.59
228.809	8.52
229.193	0.28
229.577	6.44
229.961	8.26
230.344	9.26
230.728	6.26
231.112	6.97
231.495	6.01
231.879	7.04
232.263	6.07
232.646	6.64
233.03	4.38
233.413	6.22
233.797	6.95
234.18	6.02
234.563	7.47
234.946	7.19
235.33	4.78
235.713	4.63
236.096	7.36
236.479	5.71
236.862	8.26
237.245	6.39
237.628	5.67
238.011	8.04
238.394	6.59
238.777	8.3
239.16	5.78
239.543	6.55
239.925	7.59
240.308	6.39
240.691	5.38
241.073	6.53
241.456	6.02
241.838	5.6
242.221	5.14
242.603	5.88
242.986	5.96
243.368	5.91
243.75	6.35
244.133	6.15
244.515	5.55
244.897	5.11
245.279	5.9
245.661	5.71
246.043	6.04
246.425	4.92
246.807	6.13
247.189	4.44
247.571	5.51
247.953	6.02
248.335	5.96
248.717	5.73
249.098	5.89
249.48	5.36
249.862	5.35
250.243	5.47
250.625	5.53
251.006	5.55
251.388	5.76
251.769	5.59
252.151	5.26
252.532	5.05
252.913	4.95
253.295	6.9
253.676	6.06
254.057	5.78
254.438	5.78
254.819	4.9
255.2	5.28
255.581	5.05
255.962	5.84
256.343	4.6
256.724	4.38
257.105	5.11
257.486	4.39
257.867	4.01
258.247	5.17
258.628	5.29
259.009	5.08
259.389	4.71
259.77	4.95
260.15	5.56
260.531	4.13
260.911	4.91
261.292	5.25
261.672	4.81
262.052	4.9
262.432	5.07
262.813	5.09
263.193	4.35
263.573	5.8
263.953	5
264.333	5.09
264.713	5.07
265.093	5.12
265.473	4.78
265.853	4.76
266.233	5.15
266.612	4.47
266.992	5.06
267.372	4.09
267.752	5.2
268.131	5.07
268.511	4.49
268.89	5.13
269.27	4.38
269.649	4.74
270.029	4.56
270.408	4.75
270.787	5.08
271.167	4.64
271.546	4.04
271.925	5.05
272.304	4.84
272.683	4.51
273.062	4.62
273.441	4.64
273.82	5.12
274.199	4.42
274.578	4.85
274.957	4.54
275.336	4.6
275.715	4.94
276.093	4.35
276.472	4.39
276.851	4.81
277.229	4.49
277.608	4.68
277.986	4.75
278.365	4.26
278.743	4.87
279.122	4.87
279.5	4.57
279.878	4.61
280.257	5.19
280.635	4.45
281.013	4.82
281.391	4.62
281.769	4.4
282.147	4.6
282.525	4.43
282.903	4.94
283.281	4.7
283.659	4.95
284.037	4.56
284.415	4.37
284.792	4.68
285.17	4.67
285.548	4.76
285.925	4.12
286.303	4.67
286.68	3.88
287.058	4.32
287.435	4.55
287.813	4.06
288.19	4.02
288.567	4.81
288.945	4.46
289.322	4.58
289.699	4.05
290.076	4.48
290.453	4.31
290.83	3.97
291.207	4.47
291.584	3.91
291.961	4.38
292.338	4.41
292.715	4.5
293.092	4.88
293.469	4.65
293.845	4.54
294.222	4.82
294.599	4.27
294.975	4.66
295.352	4.77
295.728	3.88
296.105	4.01
296.481	4.51
296.858	4.22
297.234	4.2
297.61	4.42
297.986	4.5
298.363	4.15
298.739	3.81
299.115	4.13
299.491	4.43
299.867	4.62
300.243	4.17
300.619	4.08
300.995	4.26
301.371	4.76
301.746	5.24
302.122	4.64
302.498	4.02
302.874	3.88
303.249	4.4
303.625	3.85
304	4.66
304.376	4.63
304.751	4.68
305.127	4.11
305.502	4.81
305.878	4.3
306.253	4.33
306.628	3.57
307.003	4.13
307.378	3.86
307.754	4.1
308.129	4.45
308.504	4.37
308.879	4.12
309.254	4.3
309.629	4.04
310.003	4.84
310.378	4.92
310.753	4.08
311.128	4.8
311.502	4.29
311.877	4.11
312.252	4.63
312.626	3.96
313.001	4.62
313.375	4.35
313.75	4.61
314.124	4.58
314.498	4.26
314.873	4.54
315.247	4.5
315.621	4.67
315.995	4.28
316.369	3.87
316.743	4.02
317.117	4.28
317.491	4.96
317.865	3.98
318.239	4.21
318.613	4.69
318.987	4.32
319.361	3.89
319.734	4.38
320.108	4.76
320.482	4.36
320.855	4.05
321.229	5.08
321.602	4.25
321.976	3.97
322.349	4.1
322.723	4.27
323.096	4.72
323.469	4.23
323.843	4.33
324.216	4.2
324.589	4.67
324.962	3.74
325.335	3.79
325.708	4.13
326.081	4.48
326.454	4.01
326.827	4.14
327.2	4.3
327.573	4.25
327.945	4.52
328.318	4.6
328.691	4.56
329.063	3.61
329.436	4.28
329.809	4.81
330.181	4.66
330.553	4.26
330.926	4.02
331.298	4.67
331.671	4.56
332.043	3.9
332.415	4.06
332.787	4.63
333.159	3.84
333.532	4.01
333.904	4.01
334.276	3.92
334.648	3.36
335.02	3.91
335.391	4.36
335.763	4.86
336.135	4.28
336.507	4.55
336.879	3.87
337.25	3.92
337.622	4.61
337.993	4.2
338.365	4.23
338.736	4.53
339.108	4.33
339.479	4.13
339.851	3.86
340.222	3.99
340.593	4.25
340.964	3.79
341.336	4.21
341.707	4.06
342.078	4.63
342.449	4.19
342.82	3.95
343.191	3.89
343.562	4.3
343.933	4.44
344.303	4.06
344.674	4.55
345.045	3.99
345.416	4.48
345.786	3.89
346.157	4.23
346.527	4.3
346.898	4.11
347.268	4.34
347.639	4.13
348.009	4.06
348.38	4.38
348.75	4.51
349.12	4.24
349.49	4.67
349.861	3.92
350.231	4.39
350.601	4.09
350.971	4.45
351.341	3.94
351.711	3.74
352.081	4.36
352.45	4.23
352.82	4.53
353.19	4.43
353.56	3.67
353.929	4.23
354.299	4.8
354.669	3.92
355.038	4.42
355.408	3.74
355.777	4.62
356.147	3.95
356.516	4.39
356.885	4.19
357.254	4.53
357.624	3.88
357.993	4.23
358.362	4.17
358.731	4.36
359.1	4.15
359.469	4.04
359.838	3.85
360.207	4.2
360.576	4.28
360.945	4.27
361.314	4.32
361.682	4.15
362.051	4.3
362.42	4.02
362.788	4
363.157	4.52
363.525	4.23
363.894	3.99
364.262	4.2
364.631	4.06
364.999	3.97
365.367	4.32
365.735	4.17
366.104	4.08
366.472	4.34
366.84	4.06
367.208	4.4
367.576	4.38
367.944	4.16
368.312	4.3
368.68	4.55
369.048	4.72
369.416	4.28
369.783	4.22
370.151	3.88
370.519	4.38
370.886	4.31
371.254	4.49
371.621	4.31
371.989	4.18
372.356	4.2
372.724	4.42
373.091	4.26
373.458	4.05
373.826	4.14
374.193	4.69
374.56	4.29
374.927	4.45
375.294	4.44
375.661	4.13
376.028	4.24
376.395	4.32
376.762	3.9
377.129	4.74
377.496	4.66
377.863	4.31
378.229	4.11
378.596	4.35
378.963	4.65
379.329	4.26
379.696	4.56
380.062	4.26
380.429	4.4
380.795	4.27
381.161	4.06
381.528	4.04
381.894	3.85
382.26	4.02
382.626	4.37
382.993	4.51
383.359	3.89
383.725	4.54
384.091	4.13
384.457	4.46
384.823	4.36
385.188	4.53
385.554	4.43
385.92	4.48
386.286	4.22
386.651	4.4
387.017	4.31
387.383	4.4
387.748	4.4
388.114	4.4
388.479	4.32
388.845	3.99
389.21	4.12
389.575	4.44
389.94	4.21
390.306	4.58
390.671	4.6
391.036	4.09
391.401	4.38
391.766	4.41
392.131	4.44
392.496	4.51
392.861	4.18
393.226	4.48
393.591	4.56
393.956	4.23
394.32	4.3
394.685	4.33
395.05	4.6
395.414	4.48
395.779	4.29
396.143	4.45
396.508	4.33
396.872	4.22
397.236	4.46
397.601	4.36
397.965	4.55
398.329	4.12
398.694	4.32
399.058	4.12
399.422	4.24
399.786	4.41
400.15	4.45
400.514	4.6
400.878	4.26
401.242	4.47
401.605	4.3
401.969	4.03
402.333	4.46
402.697	4.34
403.06	4.37
403.424	4.56
403.787	4.45
404.151	4.54
404.514	4.71
404.878	4.6
405.241	4.52
405.604	4.48
405.968	4.46
406.331	4.44
406.694	4.41
407.057	4.17
407.42	4.36
407.783	4.39
408.146	4.39
408.509	4.26
408.872	4.5
409.235	4.53
409.598	4.24
409.961	4.66
410.323	4.48
410.686	4.42
411.049	4.51
411.411	4.72
411.774	4.36
412.136	4.47
412.499	4.36
412.861	4.3
413.223	4.48
413.586	4.49
413.948	4.35
414.31	4.36
414.672	4.26
415.035	4.5
415.397	4.54
415.759	4.69
416.121	4.26
416.483	4.47
416.845	4.27
417.206	4.46
417.568	4.3
417.93	4.33
418.292	4.27
418.653	4.26
419.015	4.26
419.377	4.19
419.738	4.33
420.1	4.35
420.461	4.36
420.822	4.34
421.184	4.28
421.545	4.33
421.906	4.25
422.267	4.25
422.629	4.33
422.99	4.35
423.351	4.23
423.712	4.34
424.073	4.21
424.434	4.36
424.795	4.24
425.155	4.39
425.516	4.26
425.877	4.23
426.238	4.21
426.598	4.22
426.959	4.31
427.32	4.31
427.68	4.18
428.041	4.24
428.401	4.45
428.761	4.51
429.122	4.37
429.482	4.41
429.842	4.14
430.202	4.3
430.563	4.59
430.923	4.57
431.283	4.56
431.643	4.49
432.003	4.36
432.363	4.44
432.722	4.4
433.082	4.43
433.442	4.27
433.802	4.45
434.161	4.42
434.521	4.25
434.881	4.52
435.24	4.37
435.6	4.36
435.959	4.32
436.319	4.45
436.678	4.54
437.037	4.39
437.396	4.35
437.756	4.39
438.115	4.43
438.474	4.39
438.833	4.53
439.192	4.41
439.551	4.42
439.91	4.55
440.269	4.45
440.628	4.46
440.987	4.4
441.345	4.45
441.704	4.53
442.063	4.47
442.421	4.35
442.78	4.46
443.138	4.36
443.497	4.36
443.855	4.47
444.214	4.25
444.572	4.46
444.93	4.47
445.288	4.52
445.647	4.44
446.005	4.45
446.363	4.4
446.721	4.48
447.079	4.3
447.437	4.58
447.795	4.48
448.153	4.33
448.51	4.46
448.868	4.36
449.226	4.32
449.584	4.39
449.941	4.39
450.299	4.41
450.656	4.47
451.014	4.52
451.371	4.36
451.729	4.4
452.086	4.42
452.443	4.5
452.801	4.41
453.158	4.35
453.515	4.55
453.872	4.42
454.229	4.58
454.586	4.57
454.943	4.44
455.3	4.33
455.657	4.47
456.014	4.57
456.371	4.64
456.727	4.79
457.084	4.55
457.441	4.46
457.797	4.54
458.154	4.41
458.51	4.4
458.867	4.47
459.223	4.54
459.58	4.51
459.936	4.62
460.292	4.56
460.648	4.61
461.005	4.54
461.361	4.5
461.717	4.31
462.073	4.41
462.429	4.33
462.785	4.34
463.141	4.46
463.496	4.55
463.852	4.35
464.208	4.49
464.564	4.63
464.919	4.44
465.275	4.71
465.631	4.62
465.986	4.6
466.342	4.57
466.697	4.66
467.052	4.59
467.408	4.7
467.763	4.42
468.118	4.73
468.473	4.52
468.829	4.53
469.184	4.57
469.539	4.52
469.894	4.48
470.249	4.61
470.603	4.55
470.958	4.61
471.313	4.66
471.668	4.66
472.023	4.63
472.377	4.62
472.732	4.44
473.086	4.64
473.441	4.31
473.795	4.74
474.15	4.43
474.504	4.58
474.859	4.67
475.213	4.42
475.567	4.56
475.921	4.56
476.275	4.52
476.63	4.5
476.984	4.53
477.338	4.67
477.692	4.64
478.045	4.61
478.399	4.74
478.753	4.53
479.107	4.63
479.461	4.53
479.814	4.64
480.168	4.81
480.521	4.49
480.875	4.69
481.228	4.47
481.582	4.49
481.935	4.57
482.289	4.52
482.642	4.49
482.995	4.45
483.348	4.62
483.701	4.69
484.055	4.51
484.408	4.45
484.761	4.59
485.114	4.38
485.466	4.36
485.819	4.29
486.172	4.27
486.525	4.28
486.878	4.28
487.23	4.32
487.583	4.39
487.936	4.44
488.288	4.49
488.641	4.41
488.993	4.44
489.345	4.41
489.698	4.4
490.05	4.36
490.402	4.39
490.754	4.34
491.107	4.34
491.459	4.51
491.811	4.44
492.163	4.48
492.515	4.43
492.866	4.55
493.218	4.51
493.57	4.53
493.922	4.41
494.274	4.38
494.625	4.47
494.977	4.53
495.328	4.56
495.68	4.61
496.031	4.63
496.383	4.65
496.734	4.59
497.086	4.62
497.437	4.71
497.788	4.62
498.139	4.67
498.49	4.8
498.842	4.61
499.193	4.6
499.544	4.61
499.894	4.71
500.245	4.68
500.596	4.64
500.947	4.76
501.298	4.72
501.648	4.81
501.999	4.77
502.35	4.71
502.7	4.8
503.051	4.75
503.401	4.79
503.752	4.78
504.102	4.76
504.452	4.69
504.803	4.67
505.153	4.76
505.503	4.81
505.853	4.84
506.203	4.7
506.553	4.85
506.903	4.78
507.253	4.78
507.603	4.87
507.953	4.87
508.303	4.85
508.652	4.83
509.002	5.02
509.352	4.71
509.701	4.82
510.051	4.81
510.4	4.85
510.75	4.69
511.099	4.72
511.449	4.78
511.798	4.85
512.147	4.78
512.496	4.75
512.846	4.7
513.195	4.87
513.544	4.87
513.893	4.9
514.242	4.78
514.591	4.89
514.939	4.87
515.288	4.7
515.637	4.78
515.986	4.8
516.334	4.89
516.683	4.95
517.032	4.93
517.38	4.78
517.729	4.82
518.077	4.95
518.426	5.02
518.774	4.87
519.122	4.9
519.47	4.94
519.819	4.97
520.167	4.99
520.515	4.79
520.863	4.84
521.211	4.84
521.559	4.82
521.907	4.87
522.255	4.9
522.602	4.91
522.95	4.86
523.298	4.97
523.645	4.99
523.993	5.02
524.341	4.9
524.688	4.9
525.036	5.04
525.383	4.94
525.73	5.02
526.078	5
526.425	5
526.772	5
527.119	5
527.466	4.92
527.814	5.03
528.161	4.93
528.508	4.96
528.854	4.98
529.201	5.06
529.548	5.01
529.895	4.9
530.242	4.91
530.588	4.83
530.935	4.83
531.282	4.84
531.628	4.86
531.975	4.85
532.321	4.9
532.667	5.02
533.014	4.95
533.36	5.09
533.706	5.06
534.052	5.18
534.399	5.13
534.745	5.09
535.091	5.01
535.437	4.99
535.783	4.91
536.129	5.01
536.474	5.11
536.82	4.99
537.166	5.17
537.512	5.23
537.857	5.2
538.203	5.26
538.549	5.1
538.894	5.08
539.239	5.22
539.585	5.16
539.93	5.33
540.276	5.25
540.621	5.33
540.966	5.3
541.311	5.34
541.656	5.3
542.001	5.39
542.346	5.31
542.691	5.37
543.036	5.39
543.381	5.14
543.726	5.2
544.071	5.21
544.415	5.22
544.76	5.22
545.105	5.21
545.449	5.36
545.794	5.38
546.138	5.43
546.483	5.37
546.827	5.42
547.171	5.43
547.516	5.53
547.86	5.61
548.204	5.52
548.548	5.49
548.892	5.55
549.236	5.46
549.58	5.53
549.924	5.61
550.268	5.64
550.612	5.54
550.956	5.65
551.3	5.69
551.643	5.77
551.987	5.79
552.33	5.76
552.674	5.83
553.017	5.64
553.361	5.73
553.704	5.73
554.048	5.97
554.391	5.9
554.734	6.04
555.077	5.78
555.42	5.64
555.764	5.79
556.107	6.01
556.45	5.93
556.793	6
557.135	6.03
557.478	5.83
557.821	5.99
558.164	5.96
558.507	6.13
558.849	5.8
559.192	6
559.534	6.15
559.877	6.21
560.219	6.22
560.562	6.08
560.904	6.22
561.246	6.28
561.589	6.12
561.931	6.03
562.273	6.03
562.615	5.98
562.957	6.23
563.299	6.34
563.641	6.27
563.983	6.34
564.325	6.23
564.667	6.38
565.008	6.32
565.35	6.47
565.692	6.46
566.033	6.48
566.375	6.38
566.716	6.3
567.058	6.5
567.399	6.42
567.741	6.53
568.082	6.41
568.423	6.7
568.764	6.72
569.105	6.43
569.447	6.44
569.788	6.41
570.129	6.52
570.47	6.68
570.811	6.53
571.151	6.76
571.492	6.53
571.833	6.49
572.174	6.84
572.514	6.84
572.855	6.71
573.195	6.53
573.536	6.7
573.876	6.73
574.217	6.68
574.557	6.68
574.898	6.88
575.238	6.71
575.578	6.93
575.918	6.93
576.258	6.73
576.598	7.05
576.938	6.94
577.278	6.95
577.618	6.96
577.958	7.03
578.298	7.2
578.638	6.9
578.977	7.06
579.317	7.02
579.657	7.07
579.996	7.27
580.336	7.2
580.675	7.28
581.014	7.03
581.354	7.3
581.693	7.26
582.032	7.45
582.372	7.37
582.711	7.39
583.05	7.49
583.389	7.46
583.728	7.53
584.067	7.42
584.406	7.57
584.745	7.3
585.083	7.76
585.422	7.65
585.761	7.63
586.1	7.57
586.438	7.73
586.777	7.62
587.115	7.66
587.454	7.51
587.792	8.03
588.13	7.71
588.469	7.74
588.807	7.69
589.145	7.8
589.483	7.8
589.821	7.98
590.159	8.05
590.497	8
590.835	8.06
591.173	7.88
591.511	7.76
591.849	8.03
592.187	8
592.524	8.11
592.862	8.03
593.2	7.99
593.537	8.12
593.875	8.26
594.212	8.01
594.55	8.45
594.887	8.18
595.224	7.98
595.561	8.32
595.899	8.41
596.236	8.72
596.573	8.66
596.91	8.43
597.247	8.35
597.584	8.54
597.921	8.54
598.258	8.56
598.594	8.44
598.931	8.54
599.268	8.37
599.604	8.7
599.941	8.75
600.277	8.5
600.614	8.51
600.95	8.73
601.287	8.59
601.623	8.78
601.959	8.83
602.296	8.77
602.632	8.56
602.968	8.74
603.304	9.06
603.64	8.64
603.976	8.97
604.312	9.09
604.648	8.99
604.984	9.17
605.319	8.86
605.655	9.21
605.991	9.19
606.326	9.01
606.662	8.93
606.998	8.87
607.333	9.18
607.668	9.1
608.004	9.29
608.339	9.02
608.674	9.35
609.01	9.3
609.345	9.43
609.68	9.61
610.015	9.49
610.35	9.38
610.685	9.28
611.02	9.42
611.355	9.56
611.689	9.52
612.024	9.48
612.359	9.31
612.694	9.58
613.028	9.56
613.363	9.55
613.697	9.74
614.032	9.84
614.366	9.76
614.7	9.61
615.035	9.86
615.369	9.69
615.703	9.91
616.037	10.22
616.371	10.1
616.705	10.02
617.039	10.09
617.373	10.41
617.707	10.01
618.041	10.16
618.375	10.34
618.709	10.02
619.042	10.56
619.376	10.76
619.71	10.45
620.043	10.01
620.377	10.3
620.71	10.74
621.043	10.4
621.377	10.29
621.71	10.33
622.043	10.4
622.376	10.89
622.709	10.62
623.043	10.73
623.376	10.6
623.709	10.81
624.041	10.58
624.374	10.69
624.707	10.99
625.04	11.01
625.373	10.55
625.705	10.76
626.038	10.75
626.37	11.33
626.703	10.77
627.035	10.91
627.368	11.21
627.7	11.27
628.032	11.33
628.365	11.17
628.697	11.05
629.029	11.09
629.361	11.24
629.693	11.24
630.025	11.35
630.357	11.01
630.689	11.36
631.021	11.22
631.353	11.3
631.684	11.2
632.016	11.65
632.348	11.59
632.679	11.31
633.011	11.39
633.342	11.43
633.674	11.94
634.005	11.36
634.336	11.95
634.668	11.77
634.999	12.02
635.33	11.81
635.661	11.92
635.992	11.84
636.323	11.9
636.654	11.65
636.985	11.85
637.316	11.73
637.647	12.05
637.977	11.71
638.308	12.54
638.639	11.96
638.969	12.43
639.3	12.07
639.63	12.25
639.961	11.94
640.291	12.1
640.622	12.26
640.952	12.12
641.282	12.33
641.612	12.27
641.943	12.28
642.273	12.28
642.603	12.25
642.933	12.2
643.263	11.96
643.592	12.22
643.922	12.77
644.252	12.66
644.582	12.82
644.911	12.59
645.241	13
645.571	12.85
645.9	12.62
646.23	13.13
646.559	13
646.888	12.9
647.218	12.89
647.547	12.97
647.876	13.32
648.205	12.9
648.534	13.3
648.863	12.89
649.192	12.71
649.521	13.01
649.85	13.66
650.179	13.3
650.508	13
650.837	13.42
651.165	13.52
651.494	13.11
651.822	13.5
652.151	13.45
652.479	13.35
652.808	13.61
653.136	13.96
653.465	13.54
653.793	13.15
654.121	13.9
654.449	13.5
654.777	13.6
655.105	13.57
655.433	13.63
655.761	14.43
656.089	13.82
656.417	13.88
656.745	14.41
657.073	14.04
657.4	14.71
657.728	14.11
658.056	13.83
658.383	13.82
658.711	13.78
659.038	14.16
659.365	14.08
659.693	14.4
660.02	14.32
660.347	14.17
660.674	13.83
661.001	13.79
661.329	14.45
661.656	14.51
661.982	13.95
662.309	14.29
662.636	13.9
662.963	14.25
663.29	14.52
663.616	14.17
663.943	14.92
664.27	14.72
664.596	14.67
664.923	14.6
665.249	14.8
665.576	14.4
665.902	14.69
666.228	14.63
666.554	14.13
666.881	15.14
667.207	14.73
667.533	14.75
667.859	15.49
668.185	15.39
668.511	15.75
668.837	14.78
669.162	15.59
669.488	15.34
669.814	14.99
670.139	15.33
670.465	15.67
670.791	15.27
671.116	15.05
671.442	15.13
671.767	15.2
672.092	15.53
672.418	16.03
672.743	16.11
673.068	15.65
673.393	15.11
673.718	16.15
674.043	16.26
674.368	16.14
674.693	15.63
675.018	15.62
675.343	16.24
675.667	16.2
675.992	15.65
676.317	16.47
676.641	16.08
676.966	16.83
677.29	16.13
677.615	16.06
677.939	16.18
678.264	15.91
678.588	16.62
678.912	16.19
679.236	16.19
679.56	16.5
679.885	16.33
680.209	16.93
680.532	16.11
680.856	16.54
681.18	16.79
681.504	16.66
681.828	16.95
682.152	16.28
682.475	17.22
682.799	16.36
683.122	16.72
683.446	16.92
683.769	16.48
684.093	16.75
684.416	17.25
684.739	17.08
685.062	17.37
685.386	16.88
685.709	17.21
686.032	16.99
686.355	16.56
686.678	17.18
687.001	17.41
687.324	17.84
687.646	17.35
687.969	17.69
