Data from 0174_forehead_Reflection__3__099.txt Node

Date: Mon Aug 28 19:29:32 CDT 2023
User: ToomeyLab
Spectrometer: FLMS14357
Trigger mode: 0
Integration Time (sec): 1.000000E-2
Scans to average: 100
Electric dark correction enabled: true
Nonlinearity correction enabled: false
Boxcar width: 0
XAxis mode: Wavelengths
Number of Pixels in Spectrum: 2048
>>>>>Begin Spectral Data<<<<<
189.047	52.05
189.435	52.05
189.823	52.05
190.211	-2446.51
190.599	369.71
190.987	233.38
191.375	88.93
191.763	112.49
192.151	49.35
192.538	42.41
192.926	276.95
193.314	914.67
193.702	157.73
194.089	50.16
194.477	748.24
194.864	-129.92
195.252	160.11
195.639	-1124.79
196.027	128.32
196.414	55.27
196.801	127.28
197.189	134.33
197.576	-326.06
197.963	-92.87
198.351	16.85
198.738	71.22
199.125	19.35
199.512	118.29
199.899	-2.43
200.286	-80
200.673	13.3
201.06	12.71
201.447	-56.84
201.833	-3.38
202.22	16.99
202.607	11.5
202.994	27.47
203.38	-5.72
203.767	11.77
204.154	-37.04
204.54	-2.35
204.927	-39.84
205.313	20.04
205.699	-8.49
206.086	24.22
206.472	-11.45
206.858	28.45
207.245	-8
207.631	28.09
208.017	-3.11
208.403	21.07
208.789	-1.5
209.175	-10.44
209.561	21.83
209.947	2.7
210.333	6.62
210.719	29.56
211.105	21.27
211.491	16.8
211.876	43.62
212.262	79.48
212.648	30.48
213.034	13.11
213.419	4.33
213.805	37.52
214.19	8.77
214.576	11.36
214.961	-14.17
215.346	20.83
215.732	25.66
216.117	-28.73
216.502	8.2
216.888	-10.64
217.273	-2.33
217.658	-6.72
218.043	13.5
218.428	-0.38
218.813	14.4
219.198	9.05
219.583	-17.31
219.968	16.94
220.353	0.71
220.738	12.32
221.122	-1.9
221.507	-6.28
221.892	-6.6
222.276	15.69
222.661	2.12
223.046	-11.85
223.43	14.3
223.815	14.41
224.199	6.27
224.583	10.78
224.968	8.8
225.352	14.18
225.736	17.62
226.121	-5.14
226.505	-0.11
226.889	-0.35
227.273	10.97
227.657	3.56
228.041	3.93
228.425	6.16
228.809	6.63
229.193	4.11
229.577	2.65
229.961	1.51
230.344	1.91
230.728	2.03
231.112	1.14
231.495	2.43
231.879	1.4
232.263	1.56
232.646	1.57
233.03	3.72
233.413	4.45
233.797	3.08
234.18	1.68
234.563	3.04
234.946	7.82
235.33	-0.64
235.713	0.5
236.096	3.18
236.479	2.51
236.862	4.21
237.245	2.04
237.628	3.05
238.011	3.38
238.394	3.44
238.777	2.44
239.16	1.7
239.543	0.18
239.925	3.52
240.308	1.31
240.691	2.01
241.073	2.02
241.456	3.59
241.838	0.74
242.221	3.45
242.603	2.73
242.986	2.77
243.368	1.39
243.75	1.39
244.133	1.68
244.515	1.7
244.897	2.38
245.279	2.05
245.661	1.72
246.043	2.52
246.425	1.78
246.807	3.98
247.189	1.43
247.571	2.76
247.953	1.85
248.335	1.88
248.717	1.86
249.098	2.05
249.48	2.03
249.862	2.09
250.243	2.13
250.625	2.45
251.006	2.66
251.388	2.5
251.769	3.11
252.151	2.84
252.532	2.26
252.913	3.73
253.295	2.01
253.676	2.52
254.057	2.4
254.438	2.02
254.819	2.19
255.2	3.12
255.581	2.58
255.962	3.08
256.343	3.53
256.724	2.39
257.105	2.3
257.486	3.71
257.867	2.82
258.247	1.75
258.628	2.95
259.009	1.89
259.389	1.58
259.77	1.93
260.15	1.73
260.531	2.17
260.911	1.85
261.292	1.99
261.672	2.07
262.052	1.87
262.432	1.96
262.813	2.22
263.193	1.89
263.573	2.09
263.953	2.15
264.333	1.67
264.713	1.87
265.093	2.7
265.473	2.13
265.853	1.28
266.233	1.17
266.612	2.32
266.992	1.81
267.372	1.6
267.752	2.6
268.131	2.32
268.511	1.63
268.89	1.95
269.27	1.92
269.649	2.26
270.029	2.38
270.408	2.39
270.787	2.29
271.167	2.22
271.546	1.89
271.925	2.73
272.304	1.9
272.683	2.25
273.062	2.05
273.441	2.11
273.82	2.06
274.199	1.64
274.578	2.01
274.957	2.17
275.336	2.21
275.715	2.44
276.093	1.86
276.472	1.88
276.851	1.65
277.229	2.1
277.608	2.53
277.986	2.22
278.365	2.34
278.743	2.62
279.122	2
279.5	1.99
279.878	1.87
280.257	2.13
280.635	2.38
281.013	1.97
281.391	1.73
281.769	1.78
282.147	1.97
282.525	2.19
282.903	2.01
283.281	2.18
283.659	2.53
284.037	2.62
284.415	1.99
284.792	1.86
285.17	2.26
285.548	2
285.925	2.65
286.303	2.15
286.68	2.46
287.058	2.47
287.435	1.86
287.813	2.03
288.19	2.33
288.567	2.08
288.945	2.14
289.322	2.04
289.699	2.51
290.076	2.55
290.453	2.45
290.83	2.25
291.207	1.92
291.584	2.22
291.961	2.36
292.338	2.2
292.715	1.75
293.092	2.38
293.469	2.37
293.845	1.93
294.222	2.09
294.599	2.32
294.975	2.99
295.352	2.02
295.728	2.43
296.105	2.43
296.481	1.97
296.858	2.81
297.234	3.06
297.61	2.52
297.986	2.45
298.363	2.7
298.739	2.43
299.115	2.42
299.491	2.71
299.867	2.59
300.243	2.69
300.619	2.91
300.995	3.39
301.371	2.83
301.746	2.37
302.122	2.85
302.498	3.02
302.874	3.16
303.249	2.79
303.625	3.24
304	2.86
304.376	2.74
304.751	2.91
305.127	3.36
305.502	3.38
305.878	2.83
306.253	2.98
306.628	2.97
307.003	3.17
307.378	2.95
307.754	3.31
308.129	2.58
308.504	4.16
308.879	3.16
309.254	3.21
309.629	2.84
310.003	3.32
310.378	2.91
310.753	3.6
311.128	3.26
311.502	3.76
311.877	3.2
312.252	3.77
312.626	3.32
313.001	3.31
313.375	3.7
313.75	3.63
314.124	3.59
314.498	3.71
314.873	3.97
315.247	3.97
315.621	3.68
315.995	3.99
316.369	3.97
316.743	3.74
317.117	3.87
317.491	3.02
317.865	3.13
318.239	3.99
318.613	3.92
318.987	4.45
319.361	3.53
319.734	3.71
320.108	3.87
320.482	3.93
320.855	3.69
321.229	3.87
321.602	4.44
321.976	4.1
322.349	4.69
322.723	4.28
323.096	4.76
323.469	4.42
323.843	4.13
324.216	4.37
324.589	4.27
324.962	4.74
325.335	4.42
325.708	4.1
326.081	4.14
326.454	4.48
326.827	4.73
327.2	4.03
327.573	4.55
327.945	4.82
328.318	4.8
328.691	4.21
329.063	4.24
329.436	3.91
329.809	5.01
330.181	4.24
330.553	4.55
330.926	4.82
331.298	4.96
331.671	5
332.043	4.78
332.415	5.3
332.787	4.81
333.159	5.16
333.532	5.12
333.904	5.08
334.276	4.56
334.648	5.09
335.02	4.97
335.391	4.65
335.763	4.66
336.135	5.42
336.507	4.75
336.879	4.28
337.25	5.39
337.622	5.22
337.993	5.53
338.365	4.75
338.736	5.41
339.108	4.7
339.479	4.62
339.851	5.26
340.222	5.22
340.593	5.03
340.964	5.63
341.336	4.78
341.707	4.93
342.078	4.97
342.449	5.33
342.82	5.46
343.191	5.08
343.562	5.25
343.933	4.92
344.303	5.44
344.674	5.54
345.045	5.51
345.416	5.33
345.786	5.4
346.157	5.38
346.527	4.97
346.898	5.34
347.268	5.4
347.639	4.87
348.009	5.33
348.38	5.85
348.75	5.24
349.12	5.73
349.49	5.17
349.861	5.48
350.231	5.16
350.601	5.77
350.971	6.02
351.341	5.69
351.711	5.54
352.081	5.35
352.45	5.59
352.82	6.02
353.19	6.13
353.56	5.89
353.929	5.78
354.299	5.22
354.669	6.13
355.038	6.01
355.408	6.02
355.777	6.08
356.147	5.84
356.516	6.32
356.885	6.17
357.254	6.36
357.624	5.86
357.993	6.29
358.362	5.78
358.731	6.19
359.1	6.27
359.469	6.14
359.838	5.91
360.207	6.01
360.576	6.29
360.945	6.11
361.314	5.98
361.682	6
362.051	6.27
362.42	6.2
362.788	6.12
363.157	6.32
363.525	5.98
363.894	6.26
364.262	6.32
364.631	6.42
364.999	6.39
365.367	6.83
365.735	6.48
366.104	6.42
366.472	6.34
366.84	6.48
367.208	6.64
367.576	6.25
367.944	6.85
368.312	7.05
368.68	6.75
369.048	6.59
369.416	6.77
369.783	6.61
370.151	7
370.519	7.03
370.886	6.62
371.254	6.83
371.621	6.55
371.989	7.03
372.356	7.11
372.724	7.29
373.091	7.12
373.458	6.86
373.826	6.99
374.193	6.83
374.56	6.77
374.927	7.2
375.294	7.12
375.661	7.38
376.028	6.91
376.395	6.73
376.762	7.43
377.129	6.82
377.496	7.22
377.863	7.48
378.229	7.13
378.596	7.34
378.963	7.3
379.329	7.18
379.696	7.17
380.062	7.07
380.429	7.19
380.795	7.44
381.161	7.53
381.528	7.68
381.894	7.71
382.26	7.57
382.626	7.88
382.993	7.81
383.359	7.61
383.725	7.86
384.091	7.76
384.457	7.64
384.823	8.05
385.188	7.68
385.554	7.5
385.92	7.69
386.286	7.74
386.651	7.67
387.017	7.9
387.383	7.98
387.748	8.03
388.114	7.57
388.479	7.64
388.845	7.91
389.21	7.67
389.575	8.23
389.94	7.85
390.306	8.21
390.671	8.16
391.036	7.87
391.401	8.3
391.766	8.18
392.131	8.23
392.496	8
392.861	7.9
393.226	8.21
393.591	7.73
393.956	8.13
394.32	8.06
394.685	8.3
395.05	8.47
395.414	8.41
395.779	8.32
396.143	8.15
396.508	8.12
396.872	8.74
397.236	8.23
397.601	8.53
397.965	8.75
398.329	8.7
398.694	8.56
399.058	8.48
399.422	8.71
399.786	8.66
400.15	9
400.514	8.76
400.878	8.66
401.242	8.51
401.605	8.8
401.969	8.55
402.333	8.79
402.697	9.13
403.06	8.82
403.424	9.04
403.787	9.01
404.151	9
404.514	8.95
404.878	9.03
405.241	8.97
405.604	9.05
405.968	8.92
406.331	9.04
406.694	8.81
407.057	9
407.42	8.92
407.783	8.98
408.146	9.08
408.509	9.19
408.872	9.06
409.235	9.2
409.598	9.23
409.961	9.26
410.323	9.73
410.686	9.52
411.049	9.46
411.411	9.35
411.774	9.32
412.136	9.11
412.499	9.56
412.861	9.5
413.223	9.26
413.586	9.5
413.948	9.6
414.31	9.69
414.672	9.5
415.035	9.64
415.397	9.53
415.759	9.64
416.121	9.93
416.483	9.54
416.845	9.78
417.206	9.81
417.568	9.69
417.93	9.62
418.292	9.69
418.653	9.56
419.015	9.62
419.377	9.4
419.738	9.74
420.1	9.64
420.461	9.6
420.822	9.56
421.184	9.76
421.545	9.71
421.906	9.84
422.267	9.65
422.629	9.62
422.99	9.61
423.351	9.55
423.712	9.65
424.073	9.73
424.434	9.85
424.795	9.94
425.155	9.89
425.516	9.88
425.877	9.76
426.238	9.66
426.598	9.75
426.959	9.93
427.32	10
427.68	10
428.041	10.19
428.401	10.24
428.761	10.14
429.122	10.34
429.482	10.34
429.842	10.53
430.202	10.47
430.563	10.51
430.923	10.46
431.283	10.55
431.643	10.45
432.003	10.66
432.363	10.85
432.722	10.83
433.082	10.63
433.442	10.62
433.802	10.76
434.161	10.7
434.521	10.69
434.881	10.6
435.24	10.59
435.6	10.62
435.959	10.65
436.319	10.85
436.678	10.77
437.037	10.94
437.396	11.22
437.756	11.02
438.115	11.14
438.474	11.11
438.833	10.93
439.192	11.1
439.551	11.01
439.91	11.04
440.269	10.89
440.628	10.9
440.987	10.96
441.345	10.97
441.704	10.9
442.063	10.84
442.421	10.98
442.78	11.12
443.138	10.98
443.497	10.96
443.855	11.14
444.214	11.53
444.572	11.47
444.93	11.48
445.288	11.35
445.647	11.54
446.005	11.5
446.363	11.45
446.721	11.35
447.079	11.31
447.437	11.16
447.795	11.08
448.153	11.26
448.51	11.16
448.868	11.15
449.226	11.17
449.584	11.3
449.941	11.45
450.299	11.57
450.656	11.77
451.014	11.79
451.371	11.73
451.729	11.66
452.086	11.81
452.443	12
452.801	12.07
453.158	12.1
453.515	12.03
453.872	11.92
454.229	11.86
454.586	12
454.943	11.79
455.3	12.01
455.657	12.06
456.014	12.18
456.371	12.17
456.727	12.23
457.084	12.1
457.441	12.29
457.797	12.39
458.154	12.34
458.51	12.33
458.867	12.49
459.223	12.29
459.58	12.27
459.936	12.34
460.292	12.34
460.648	12.16
461.005	12.19
461.361	12.28
461.717	11.91
462.073	11.89
462.429	11.88
462.785	12.27
463.141	12.39
463.496	12.58
463.852	12.63
464.208	12.7
464.564	12.82
464.919	12.74
465.275	12.92
465.631	12.74
465.986	13.05
466.342	12.95
466.697	12.66
467.052	12.8
467.408	12.64
467.763	12.94
468.118	12.95
468.473	12.87
468.829	13.01
469.184	12.86
469.539	12.95
469.894	13.12
470.249	13.06
470.603	13.15
470.958	13.2
471.313	13.4
471.668	13.12
472.023	13.22
472.377	13.23
472.732	13.26
473.086	13.33
473.441	13.26
473.795	13.49
474.15	13.41
474.504	13.49
474.859	13.33
475.213	13.46
475.567	13.38
475.921	13.7
476.275	13.52
476.63	13.71
476.984	13.6
477.338	13.74
477.692	13.57
478.045	13.85
478.399	13.52
478.753	13.44
479.107	13.49
479.461	13.58
479.814	13.78
480.168	13.66
480.521	13.53
480.875	13.75
481.228	13.61
481.582	13.86
481.935	13.8
482.289	13.71
482.642	13.82
482.995	13.88
483.348	13.66
483.701	13.72
484.055	13.6
484.408	13.54
484.761	13.38
485.114	13.24
485.466	12.95
485.819	12.55
486.172	12.34
486.525	12.62
486.878	13.01
487.23	13.6
487.583	13.92
487.936	14.02
488.288	13.91
488.641	13.72
488.993	13.37
489.345	13.17
489.698	13.11
490.05	13.1
490.402	13.24
490.754	13.47
491.107	13.79
491.459	14
491.811	14.17
492.163	14.34
492.515	14.3
492.866	14.08
493.218	13.81
493.57	13.36
493.922	13.15
494.274	13.42
494.625	13.8
494.977	14.22
495.328	14.62
495.68	14.72
496.031	14.7
496.383	14.8
496.734	14.67
497.086	14.93
497.437	14.91
497.788	14.8
498.139	14.69
498.49	14.58
498.842	14.49
499.193	14.34
499.544	14.55
499.894	14.69
500.245	14.73
500.596	14.81
500.947	14.8
501.298	15.01
501.648	14.87
501.999	15.04
502.35	15.04
502.7	15.06
503.051	15.27
503.401	15.28
503.752	15.14
504.102	15.24
504.452	15.15
504.803	15.34
505.153	15.28
505.503	15.11
505.853	15.3
506.203	15.23
506.553	15.13
506.903	15.34
507.253	15.33
507.603	15.4
507.953	15.49
508.303	15.55
508.652	15.67
509.002	15.57
509.352	15.34
509.701	15.36
510.051	15.51
510.4	15.4
510.75	15.38
511.099	15.36
511.449	15.23
511.798	15.41
512.147	15.32
512.496	15.55
512.846	15.57
513.195	15.65
513.544	15.71
513.893	15.52
514.242	15.55
514.591	15.62
514.939	15.5
515.288	15.73
515.637	15.81
515.986	15.81
516.334	15.95
516.683	15.92
517.032	16.02
517.38	16.06
517.729	15.99
518.077	15.99
518.426	15.83
518.774	16.03
519.122	15.98
519.47	15.79
519.819	15.69
520.167	15.74
520.515	15.56
520.863	15.37
521.211	15.6
521.559	15.81
521.907	15.94
522.255	16.06
522.602	16.12
522.95	16.25
523.298	16.36
523.645	16.36
523.993	16.29
524.341	16.4
524.688	16.61
525.036	16.41
525.383	16.45
525.73	16.61
526.078	16.49
526.425	16.35
526.772	16.27
527.119	16.34
527.466	15.98
527.814	15.71
528.161	15.79
528.508	15.98
528.854	16.2
529.201	16.32
529.548	16.22
529.895	16.1
530.242	15.67
530.588	15.12
530.935	14.95
531.282	15.26
531.628	15.67
531.975	16.12
532.321	16.4
532.667	16.49
533.014	16.65
533.36	16.66
533.706	16.6
534.052	16.55
534.399	16.58
534.745	16.46
535.091	16.14
535.437	15.79
535.783	15.76
536.129	16.12
536.474	16.5
536.82	16.9
537.166	17.08
537.512	17.08
537.857	17.1
538.203	16.85
538.549	16.56
538.894	16.23
539.239	16.48
539.585	16.73
539.93	17.01
540.276	17.27
540.621	17.39
540.966	17.33
541.311	17.55
541.656	17.34
542.001	17.4
542.346	17.24
542.691	16.82
543.036	16.58
543.381	16.05
543.726	15.9
544.071	16.23
544.415	16.65
544.76	17
545.105	17.16
545.449	17.12
545.794	17.18
546.138	17.29
546.483	17.37
546.827	17.52
547.171	17.72
547.516	17.41
547.86	17.43
548.204	17.43
548.548	17.52
548.892	17.17
549.236	17.1
549.58	17.36
549.924	17.62
550.268	17.79
550.612	18.04
550.956	18.12
551.3	18.23
551.643	18.25
551.987	18.12
552.33	18.1
552.674	18.26
553.017	18.25
553.361	18.21
553.704	18.15
554.048	18.27
554.391	18.09
554.734	17.89
555.077	17.93
555.42	18.02
555.764	18.33
556.107	18.27
556.45	18.47
556.793	18.5
557.135	18.77
557.478	18.64
557.821	18.58
558.164	18.72
558.507	18.68
558.849	18.76
559.192	18.44
559.534	18.33
559.877	18.7
560.219	18.77
560.562	18.67
560.904	18.81
561.246	18.76
561.589	18.7
561.931	18.95
562.273	18.72
562.615	18.84
562.957	18.69
563.299	18.67
563.641	18.65
563.983	18.75
564.325	18.85
564.667	18.98
565.008	18.87
565.35	19.21
565.692	18.93
566.033	18.94
566.375	18.93
566.716	19.01
567.058	19.01
567.399	18.78
567.741	18.9
568.082	18.78
568.423	18.56
568.764	18.38
569.105	18.86
569.447	18.99
569.788	19
570.129	19.16
570.47	19.46
570.811	19.47
571.151	19.24
571.492	19.04
571.833	19.06
572.174	19.18
572.514	19.22
572.855	19.35
573.195	19.21
573.536	19.22
573.876	18.87
574.217	18.79
574.557	19.02
574.898	19.04
575.238	19.32
575.578	19.3
575.918	19.55
576.258	19.61
576.598	19.33
576.938	19.4
577.278	19.33
577.618	19.28
577.958	19.33
578.298	19.61
578.638	19.62
578.977	19.55
579.317	19.48
579.657	19.8
579.996	19.74
580.336	19.6
580.675	19.84
581.014	20.37
581.354	20
581.693	19.84
582.032	20.3
582.372	20.02
582.711	20.27
583.05	20.12
583.389	20.09
583.728	20.21
584.067	20.35
584.406	20.09
584.745	19.81
585.083	20.4
585.422	20.28
585.761	20.26
586.1	20.2
586.438	20.11
586.777	20.3
587.115	20.36
587.454	20.27
587.792	20.57
588.13	20.43
588.469	20.38
588.807	20.47
589.145	20.66
589.483	20.51
589.821	20.27
590.159	20.53
590.497	20.64
590.835	20.58
591.173	20.14
591.511	20.19
591.849	20.33
592.187	20.31
592.524	20.52
592.862	20.64
593.2	20.34
593.537	20.7
593.875	20.97
594.212	20.77
594.55	20.67
594.887	20.65
595.224	21.09
595.561	20.69
595.899	20.46
596.236	20.57
596.573	20.8
596.91	20.58
597.247	20.78
597.584	20.68
597.921	20.5
598.258	20.53
598.594	20.49
598.931	20.18
599.268	20.17
599.604	20.31
599.941	20.59
600.277	20.56
600.614	20.96
600.95	21.01
601.287	21.19
601.623	21.19
601.959	21.34
602.296	21.07
602.632	20.88
602.968	21.33
603.304	21.23
603.64	20.89
603.976	21.14
604.312	21.15
604.648	20.91
604.984	20.82
605.319	20.91
605.655	20.96
605.991	21.12
606.326	20.89
606.662	20.68
606.998	20.48
607.333	20.45
607.668	20.96
608.004	21.06
608.339	21.09
608.674	21.31
609.01	21.49
609.345	21.67
609.68	21.66
610.015	21.81
610.35	21.47
610.685	21.51
611.02	21.17
611.355	20.98
611.689	20.84
612.024	20.98
612.359	21.26
612.694	21.37
613.028	21.43
613.363	21.44
613.697	21.51
614.032	21.55
614.366	21.47
614.7	21.92
615.035	21.68
615.369	21.76
615.703	21.98
616.037	21.47
616.371	21.35
616.705	21.67
617.039	22.07
617.373	21.97
617.707	21.77
618.041	21.99
618.375	21.99
618.709	22.09
619.042	21.94
619.376	22.11
619.71	21.78
620.043	21.9
620.377	22.4
620.71	21.93
621.043	22.24
621.377	22.29
621.71	22.12
622.043	21.76
622.376	22.32
622.709	21.96
623.043	22.43
623.376	22.56
623.709	22.05
624.041	22.36
624.374	22.07
624.707	22.04
625.04	22.08
625.373	22.33
625.705	22.29
626.038	22.1
626.37	22.11
626.703	22.23
627.035	22.29
627.368	22.49
627.7	22
628.032	22.38
628.365	22.03
628.697	22.06
629.029	22.18
629.361	22.33
629.693	22.21
630.025	22.12
630.357	22.11
630.689	22.51
631.021	22.67
631.353	22.47
631.684	22.76
632.016	22.5
632.348	22.2
632.679	22.73
633.011	22.42
633.342	22.49
633.674	22.98
634.005	22.72
634.336	22.64
634.668	22.88
634.999	22.71
635.33	22.81
635.661	22.8
635.992	22.62
636.323	22.6
636.654	22.57
636.985	22.27
637.316	22.42
637.647	22.87
637.977	22.54
638.308	22.69
638.639	22.82
638.969	23.07
639.3	22.83
639.63	22.7
639.961	22.85
640.291	22.69
640.622	23.05
640.952	22.56
641.282	22.85
641.612	22.85
641.943	23
642.273	22.97
642.603	22.74
642.933	22.89
643.263	23.55
643.592	23.3
643.922	23.52
644.252	22.99
644.582	22.99
644.911	23.65
645.241	23.22
645.571	23.37
645.9	23.39
646.23	23.32
646.559	23.36
646.888	23.1
647.218	23.07
647.547	23.42
647.876	23.57
648.205	23.37
648.534	23.68
648.863	23.32
649.192	23.19
649.521	23.27
649.85	23.68
650.179	23.47
650.508	23.52
650.837	23.12
651.165	23.36
651.494	23.45
651.822	23.25
652.151	23.08
652.479	23.79
652.808	23.33
653.136	23.28
653.465	23.89
653.793	23.43
654.121	24.03
654.449	23.49
654.777	23.8
655.105	23.38
655.433	23.35
655.761	23.49
656.089	23.87
656.417	23.21
656.745	23.95
657.073	23.27
657.4	23.42
657.728	23.71
658.056	23.65
658.383	23.6
658.711	24.04
659.038	23.88
659.365	23.82
659.693	23.57
660.02	23.57
660.347	23.61
660.674	23.86
661.001	23.9
661.329	23.36
661.656	23.57
661.982	23.16
662.309	23.56
662.636	23.88
662.963	23.99
663.29	24.05
663.616	23.66
663.943	24.22
664.27	24.29
664.596	24.41
664.923	24.73
665.249	24.16
665.576	24.25
665.902	23.59
666.228	23.92
666.554	24.14
666.881	24.45
667.207	24.13
667.533	24.4
667.859	23.77
668.185	24.12
668.511	24.41
668.837	23.97
669.162	24.32
669.488	23.81
669.814	24.46
670.139	24.3
670.465	24.5
670.791	24.24
671.116	24.04
671.442	23.69
671.767	24.03
672.092	24.52
672.418	24.17
672.743	25.08
673.068	24.36
673.393	24.29
673.718	23.56
674.043	24.1
674.368	24.81
674.693	24.78
675.018	24.59
675.343	24.65
675.667	24.38
675.992	24.6
676.317	23.92
