Data from 0174_chest_Reflection__1__092.txt Node

Date: Mon Aug 28 19:27:02 CDT 2023
User: ToomeyLab
Spectrometer: FLMS14357
Trigger mode: 0
Integration Time (sec): 1.000000E-2
Scans to average: 100
Electric dark correction enabled: true
Nonlinearity correction enabled: false
Boxcar width: 0
XAxis mode: Wavelengths
Number of Pixels in Spectrum: 2048
>>>>>Begin Spectral Data<<<<<
189.047	-15.71
189.435	-15.71
189.823	-15.71
190.211	-286.05
190.599	250.38
190.987	-133.12
191.375	-120.46
191.763	123.03
192.151	41.41
192.538	146.15
192.926	246.33
193.314	723.48
193.702	58.49
194.089	66.61
194.477	-1474.12
194.864	-377.53
195.252	-21.38
195.639	-578.63
196.027	124.87
196.414	38.61
196.801	88.39
197.189	138.87
197.576	-416.3
197.963	29.15
198.351	59.18
198.738	29.39
199.125	11
199.512	27.33
199.899	18.1
200.286	1.38
200.673	33.65
201.06	32.43
201.447	14.3
201.833	-6.92
202.22	12.85
202.607	10.96
202.994	36.67
203.38	-12.56
203.767	29.2
204.154	15.04
204.54	-11.04
204.927	34.13
205.313	44.23
205.699	5.58
206.086	22.26
206.472	1.79
206.858	-22.18
207.245	28.54
207.631	50.2
208.017	21.14
208.403	20.74
208.789	-0.04
209.175	-37.27
209.561	10.65
209.947	-15.58
210.333	-24.82
210.719	3.43
211.105	23.85
211.491	-0.84
211.876	3.49
212.262	-64.23
212.648	15.94
213.034	37.7
213.419	3.71
213.805	6.7
214.19	8.76
214.576	14.51
214.961	-18.15
215.346	-12.71
215.732	48.11
216.117	-0.88
216.502	3.41
216.888	-47.81
217.273	22.48
217.658	20.58
218.043	3.73
218.428	14.68
218.813	9.94
219.198	30.1
219.583	-1.71
219.968	24.25
220.353	1.63
220.738	22.76
221.122	11.76
221.507	-12.64
221.892	17.66
222.276	21.29
222.661	9.14
223.046	-2.75
223.43	4.51
223.815	8.57
224.199	18.82
224.583	8.63
224.968	12.4
225.352	19.88
225.736	12.24
226.121	1.66
226.505	0.64
226.889	6.81
227.273	12.49
227.657	4
228.041	6.73
228.425	6.88
228.809	6.37
229.193	6.22
229.577	9.27
229.961	3.5
230.344	6.04
230.728	5.16
231.112	4.09
231.495	4.35
231.879	4.5
232.263	5.5
232.646	3.36
233.03	5.43
233.413	7.74
233.797	3.49
234.18	4.98
234.563	2.85
234.946	7.65
235.33	2.42
235.713	3.23
236.096	5.9
236.479	4.93
236.862	5.21
237.245	5.37
237.628	7.06
238.011	7.6
238.394	5.98
238.777	6.37
239.16	2.57
239.543	1.28
239.925	7.24
240.308	5.8
240.691	4.51
241.073	3.87
241.456	5.53
241.838	4.02
242.221	7.13
242.603	6.3
242.986	5.62
243.368	4.54
243.75	4.14
244.133	4.85
244.515	4.09
244.897	5.02
245.279	4.84
245.661	4.79
246.043	4.97
246.425	3.77
246.807	5.93
247.189	4.13
247.571	5.13
247.953	4.7
248.335	4.53
248.717	4.45
249.098	4.38
249.48	4.67
249.862	4.25
250.243	4.36
250.625	4.88
251.006	4.61
251.388	4.53
251.769	5.54
252.151	4.51
252.532	5.09
252.913	5.32
253.295	3.33
253.676	4.72
254.057	4.39
254.438	3.88
254.819	3.84
255.2	4.56
255.581	4.45
255.962	5.32
256.343	4.37
256.724	4.52
257.105	2.91
257.486	4.85
257.867	3.87
258.247	5.06
258.628	5.82
259.009	3.09
259.389	3.98
259.77	4.49
260.15	3.82
260.531	4.45
260.911	4.42
261.292	4.04
261.672	3.96
262.052	3.92
262.432	4
262.813	3.87
263.193	4.45
263.573	3.9
263.953	4.11
264.333	3.84
264.713	3.47
265.093	4.29
265.473	4.17
265.853	3.92
266.233	3.34
266.612	4.45
266.992	3.64
267.372	3.38
267.752	4.75
268.131	4.34
268.511	3.27
268.89	4.59
269.27	3.84
269.649	3.9
270.029	3.6
270.408	3.93
270.787	4.55
271.167	4.09
271.546	3.75
271.925	4.11
272.304	4.19
272.683	4.42
273.062	3.01
273.441	4.18
273.82	3.81
274.199	3.37
274.578	3.62
274.957	4.07
275.336	4.39
275.715	4.09
276.093	3.5
276.472	3.71
276.851	3.71
277.229	4.42
277.608	4.83
277.986	4.32
278.365	4
278.743	3.75
279.122	3.67
279.5	3.46
279.878	3.7
280.257	3.94
280.635	3.33
281.013	4.07
281.391	3.35
281.769	4.1
282.147	3.88
282.525	3.73
282.903	3.94
283.281	3.95
283.659	4.24
284.037	4.23
284.415	3.9
284.792	3.74
285.17	3.52
285.548	3.58
285.925	4.02
286.303	3.77
286.68	4.05
287.058	3.82
287.435	3.41
287.813	3.44
288.19	3.85
288.567	3.74
288.945	3.85
289.322	3.74
289.699	3.59
290.076	3.96
290.453	4.13
290.83	3.18
291.207	3.63
291.584	3.55
291.961	4.14
292.338	3.66
292.715	3.76
293.092	3.77
293.469	3.8
293.845	3.66
294.222	3.64
294.599	3.82
294.975	3.79
295.352	3.65
295.728	3.41
296.105	4.22
296.481	4.02
296.858	4.09
297.234	3.61
297.61	3.91
297.986	3.96
298.363	4.14
298.739	3.7
299.115	3.64
299.491	3.9
299.867	3.59
300.243	3.57
300.619	3.63
300.995	4.01
301.371	3.31
301.746	3.98
302.122	3.98
302.498	3.97
302.874	3.66
303.249	3.66
303.625	3.89
304	3.82
304.376	4.04
304.751	3.8
305.127	3.33
305.502	4.46
305.878	3.75
306.253	3.74
306.628	3.98
307.003	3
307.378	3.36
307.754	4.06
308.129	4.14
308.504	4.08
308.879	4.01
309.254	3.72
309.629	4.17
310.003	3.49
310.378	3.58
310.753	3.67
311.128	3.85
311.502	4.15
311.877	4.09
312.252	3.96
312.626	3.59
313.001	3.89
313.375	4.03
313.75	3.74
314.124	3.48
314.498	3.65
314.873	3.73
315.247	4.21
315.621	3.49
315.995	3.78
316.369	4.28
316.743	3.4
317.117	4.27
317.491	2.8
317.865	3.49
318.239	3.63
318.613	3.81
318.987	3.66
319.361	3.79
319.734	3.51
320.108	4.32
320.482	3.96
320.855	3.75
321.229	3.55
321.602	3.74
321.976	3.78
322.349	4.25
322.723	3.7
323.096	3.76
323.469	3.16
323.843	3.93
324.216	3.87
324.589	3.44
324.962	4.54
325.335	3.91
325.708	4.21
326.081	3.81
326.454	3.94
326.827	3.66
327.2	3.01
327.573	3.84
327.945	4.07
328.318	4.08
328.691	3.49
329.063	3.03
329.436	3.55
329.809	4.64
330.181	3.18
330.553	3.62
330.926	3.83
331.298	3.71
331.671	3.57
332.043	3.55
332.415	4.62
332.787	3.35
333.159	3.52
333.532	4.28
333.904	4.03
334.276	3.31
334.648	3.86
335.02	4.14
335.391	3.88
335.763	3.77
336.135	4.03
336.507	3.86
336.879	3.33
337.25	4.03
337.622	4.21
337.993	4.62
338.365	3.61
338.736	4.23
339.108	3.36
339.479	3.15
339.851	3.78
340.222	4.02
340.593	3.66
340.964	3.83
341.336	4.47
341.707	3.72
342.078	3.65
342.449	3.51
342.82	3.92
343.191	3.7
343.562	3.61
343.933	3.55
344.303	4.23
344.674	3.88
345.045	4.1
345.416	3.83
345.786	3.93
346.157	3.94
346.527	3.43
346.898	3.43
347.268	3.63
347.639	3.12
348.009	3.44
348.38	3.9
348.75	4.1
349.12	3.85
349.49	3.9
349.861	3.33
350.231	3.12
350.601	3.79
350.971	3.97
351.341	3.87
351.711	3.94
352.081	3.75
352.45	3.98
352.82	3.93
353.19	4.21
353.56	4.14
353.929	3.89
354.299	3.63
354.669	3.83
355.038	3.99
355.408	3.79
355.777	3.72
356.147	3.82
356.516	4.29
356.885	3.83
357.254	3.84
357.624	3.68
357.993	3.97
358.362	3.71
358.731	3.97
359.1	3.79
359.469	3.98
359.838	3.68
360.207	3.85
360.576	4.28
360.945	3.78
361.314	3.64
361.682	3.78
362.051	3.84
362.42	4.08
362.788	3.85
363.157	4.06
363.525	3.67
363.894	3.81
364.262	3.79
364.631	3.83
364.999	3.66
365.367	3.86
365.735	3.65
366.104	3.66
366.472	3.71
366.84	3.74
367.208	3.6
367.576	3.88
367.944	3.99
368.312	4
368.68	4.06
369.048	4.2
369.416	3.7
369.783	3.74
370.151	3.77
370.519	4.23
370.886	3.56
371.254	3.94
371.621	3.51
371.989	4.24
372.356	3.88
372.724	4.31
373.091	4.02
373.458	3.77
373.826	3.89
374.193	3.77
374.56	3.9
374.927	3.73
375.294	3.96
375.661	4.44
376.028	3.72
376.395	3.49
376.762	3.78
377.129	3.59
377.496	3.76
377.863	3.93
378.229	3.39
378.596	4.17
378.963	3.96
379.329	4.11
379.696	3.72
380.062	3.88
380.429	3.81
380.795	3.97
381.161	3.75
381.528	4.13
381.894	3.94
382.26	3.91
382.626	4.28
382.993	4.01
383.359	4.02
383.725	4.14
384.091	4.14
384.457	3.74
384.823	3.86
385.188	3.86
385.554	4.29
385.92	3.81
386.286	4.25
386.651	3.58
387.017	3.77
387.383	3.94
387.748	3.9
388.114	3.78
388.479	3.78
388.845	4.04
389.21	3.87
389.575	4.08
389.94	3.99
390.306	4.07
390.671	3.69
391.036	3.76
391.401	4.11
391.766	4.25
392.131	3.86
392.496	3.82
392.861	3.92
393.226	4.01
393.591	3.7
393.956	3.82
394.32	3.68
394.685	3.83
395.05	4.09
395.414	3.67
395.779	3.97
396.143	4.04
396.508	3.8
396.872	4.13
397.236	3.99
397.601	3.84
397.965	3.96
398.329	4.03
398.694	4.11
399.058	3.8
399.422	4.14
399.786	3.95
400.15	4.3
400.514	3.85
400.878	4.02
401.242	3.84
401.605	3.95
401.969	4.05
402.333	3.92
402.697	3.94
403.06	4.21
403.424	3.98
403.787	3.85
404.151	3.76
404.514	3.93
404.878	3.98
405.241	4.16
405.604	3.84
405.968	3.79
406.331	4.14
406.694	4.08
407.057	4.07
407.42	3.99
407.783	3.74
408.146	3.98
408.509	4.06
408.872	3.91
409.235	3.92
409.598	4.03
409.961	3.94
410.323	4.18
410.686	4.05
411.049	4.28
411.411	4.1
411.774	4.05
412.136	4.04
412.499	3.91
412.861	4.17
413.223	3.94
413.586	3.85
413.948	4.04
414.31	4.23
414.672	3.92
415.035	4.01
415.397	4
415.759	3.99
416.121	4.15
416.483	3.9
416.845	4.03
417.206	4.27
417.568	4.19
417.93	4
418.292	4.18
418.653	3.81
419.015	4.03
419.377	3.83
419.738	4.15
420.1	3.96
420.461	3.97
420.822	4.07
421.184	3.96
421.545	4.03
421.906	3.88
422.267	3.92
422.629	3.91
422.99	3.8
423.351	3.9
423.712	3.87
424.073	3.98
424.434	4.06
424.795	3.94
425.155	3.91
425.516	3.91
425.877	3.9
426.238	3.78
426.598	3.88
426.959	3.93
427.32	3.9
427.68	4.03
428.041	4
428.401	4.04
428.761	3.96
429.122	3.95
429.482	4.05
429.842	4.11
430.202	4.2
430.563	4.04
430.923	4.04
431.283	4.08
431.643	3.95
432.003	4.12
432.363	4.2
432.722	4.23
433.082	4.06
433.442	4.16
433.802	3.92
434.161	4.13
434.521	4.07
434.881	4.02
435.24	4.16
435.6	4.01
435.959	4.02
436.319	4.1
436.678	3.97
437.037	4.1
437.396	4.16
437.756	3.98
438.115	4.19
438.474	4.06
438.833	4.1
439.192	4.09
439.551	4.16
439.91	4.12
440.269	4.02
440.628	4.08
440.987	4.03
441.345	3.93
441.704	4.13
442.063	4.05
442.421	4.01
442.78	4.08
443.138	4.07
443.497	4.04
443.855	4.04
444.214	4.06
444.572	4.17
444.93	4.19
445.288	4.05
445.647	4.19
446.005	4.2
446.363	4.01
446.721	4.16
447.079	4.03
447.437	3.93
447.795	4.07
448.153	3.99
448.51	3.97
448.868	4.08
449.226	4
449.584	4.02
449.941	4.11
450.299	4.18
450.656	4.03
451.014	4.06
451.371	4.05
451.729	4.04
452.086	4.17
452.443	4.27
452.801	4.14
453.158	4.13
453.515	4.19
453.872	4.16
454.229	4.2
454.586	4.17
454.943	4.07
455.3	4.13
455.657	4.21
456.014	4.11
456.371	4.15
456.727	4.2
457.084	4.09
457.441	4.2
457.797	4.18
458.154	4.18
458.51	4.26
458.867	4.19
459.223	4.2
459.58	4.16
459.936	4.27
460.292	4.16
460.648	4.05
461.005	4.09
461.361	4.12
461.717	4.06
462.073	4.06
462.429	4.03
462.785	4.07
463.141	4.13
463.496	4.21
463.852	4.12
464.208	4.1
464.564	4.16
464.919	4.2
465.275	4.38
465.631	4.18
465.986	4.24
466.342	4.24
466.697	4.08
467.052	4.15
467.408	4.24
467.763	4.15
468.118	4.09
468.473	4.15
468.829	4.13
469.184	4.18
469.539	4.17
469.894	4.25
470.249	4.33
470.603	4.28
470.958	4.1
471.313	4.2
471.668	4.14
472.023	4.25
472.377	4.38
472.732	4.29
473.086	4.34
473.441	4.13
473.795	4.25
474.15	4.41
474.504	4.23
474.859	4.29
475.213	4.25
475.567	4.21
475.921	4.56
476.275	4.41
476.63	4.48
476.984	4.22
477.338	4.4
477.692	4.25
478.045	4.34
478.399	4.18
478.753	4.24
479.107	4.2
479.461	4.31
479.814	4.36
480.168	4.26
480.521	4.16
480.875	4.29
481.228	4.28
481.582	4.22
481.935	4.3
482.289	4.28
482.642	4.41
482.995	4.38
483.348	4.25
483.701	4.29
484.055	4.26
484.408	4.17
484.761	4.2
485.114	4.18
485.466	4.06
485.819	4
486.172	3.92
486.525	3.93
486.878	3.96
487.23	4.06
487.583	4.11
487.936	4.22
488.288	4.21
488.641	4.23
488.993	4.16
489.345	4.11
489.698	4.05
490.05	4.05
490.402	4.01
490.754	4.1
491.107	4.15
491.459	4.16
491.811	4.22
492.163	4.25
492.515	4.31
492.866	4.3
493.218	4.16
493.57	4.1
493.922	4.06
494.274	4.12
494.625	4.11
494.977	4.27
495.328	4.26
495.68	4.32
496.031	4.4
496.383	4.19
496.734	4.39
497.086	4.5
497.437	4.59
497.788	4.39
498.139	4.4
498.49	4.39
498.842	4.41
499.193	4.31
499.544	4.36
499.894	4.3
500.245	4.34
500.596	4.39
500.947	4.39
501.298	4.55
501.648	4.34
501.999	4.46
502.35	4.36
502.7	4.42
503.051	4.52
503.401	4.41
503.752	4.48
504.102	4.42
504.452	4.43
504.803	4.63
505.153	4.38
505.503	4.55
505.853	4.36
506.203	4.39
506.553	4.43
506.903	4.53
507.253	4.6
507.603	4.52
507.953	4.63
508.303	4.57
508.652	4.42
509.002	4.65
509.352	4.51
509.701	4.52
510.051	4.42
510.4	4.39
510.75	4.5
511.099	4.54
511.449	4.5
511.798	4.53
512.147	4.47
512.496	4.48
512.846	4.5
513.195	4.51
513.544	4.6
513.893	4.5
514.242	4.68
514.591	4.62
514.939	4.42
515.288	4.52
515.637	4.66
515.986	4.59
516.334	4.62
516.683	4.56
517.032	4.7
517.38	4.68
517.729	4.6
518.077	4.65
518.426	4.71
518.774	4.63
519.122	4.73
519.47	4.59
519.819	4.66
520.167	4.52
520.515	4.58
520.863	4.45
521.211	4.49
521.559	4.59
521.907	4.51
522.255	4.51
522.602	4.61
522.95	4.71
523.298	4.76
523.645	4.71
523.993	4.77
524.341	4.69
524.688	4.79
525.036	4.79
525.383	4.8
525.73	4.82
526.078	4.9
526.425	4.8
526.772	4.73
527.119	4.77
527.466	4.67
527.814	4.61
528.161	4.63
528.508	4.68
528.854	4.67
529.201	4.8
529.548	4.65
529.895	4.75
530.242	4.66
530.588	4.51
530.935	4.49
531.282	4.52
531.628	4.54
531.975	4.6
532.321	4.62
532.667	4.71
533.014	4.83
533.36	4.75
533.706	4.84
534.052	4.85
534.399	4.92
534.745	4.86
535.091	4.79
535.437	4.74
535.783	4.71
536.129	4.8
536.474	4.78
536.82	4.85
537.166	4.89
537.512	4.94
537.857	4.92
538.203	4.95
538.549	4.97
538.894	4.87
539.239	4.87
539.585	4.94
539.93	4.95
540.276	4.98
540.621	5.03
540.966	5.08
541.311	5.22
541.656	5.1
542.001	5.16
542.346	5.14
542.691	5.04
543.036	5
543.381	4.85
543.726	4.79
544.071	4.92
544.415	4.93
544.76	4.97
545.105	5.04
545.449	5.02
545.794	5.14
546.138	5.21
546.483	5.16
546.827	5.17
547.171	5.25
547.516	5.21
547.86	5.28
548.204	5.39
548.548	5.34
548.892	5.16
549.236	5.14
549.58	5.13
549.924	5.22
550.268	5.37
550.612	5.38
550.956	5.41
551.3	5.44
551.643	5.77
551.987	5.46
552.33	5.53
552.674	5.43
553.017	5.33
553.361	5.58
553.704	5.5
554.048	5.58
554.391	5.65
554.734	5.61
555.077	5.59
555.42	5.53
555.764	5.52
556.107	5.56
556.45	5.62
556.793	5.56
557.135	5.84
557.478	5.71
557.821	5.57
558.164	5.83
558.507	5.76
558.849	5.78
559.192	5.72
559.534	5.6
559.877	5.68
560.219	6.02
560.562	5.6
560.904	5.97
561.246	5.85
561.589	5.89
561.931	5.91
562.273	5.65
562.615	5.78
562.957	5.93
563.299	5.89
563.641	5.92
563.983	6.04
564.325	5.96
564.667	5.72
565.008	5.94
565.35	6.22
565.692	6.16
566.033	6.05
566.375	5.93
566.716	6.03
567.058	6.17
567.399	6.02
567.741	6.09
568.082	5.9
568.423	6.13
568.764	6.1
569.105	6.2
569.447	6.1
569.788	6.22
570.129	6.17
570.47	6.18
570.811	6.32
571.151	6.13
571.492	6.17
571.833	6.21
572.174	6.39
572.514	6.17
572.855	6.24
573.195	6.4
573.536	6.42
573.876	6.18
574.217	6.45
574.557	6.43
574.898	6.45
575.238	6.4
575.578	6.44
575.918	6.38
576.258	6.5
576.598	6.37
576.938	6.52
577.278	6.36
577.618	6.42
577.958	6.55
578.298	6.67
578.638	6.55
578.977	6.77
579.317	6.5
579.657	6.62
579.996	6.71
580.336	6.85
580.675	6.89
581.014	6.9
581.354	6.87
581.693	6.84
582.032	7.22
582.372	6.89
582.711	7.12
583.05	6.91
583.389	7.06
583.728	7.01
584.067	6.93
584.406	6.78
584.745	6.87
585.083	7.07
585.422	7.17
585.761	7.07
586.1	7.21
586.438	7.12
586.777	7.26
587.115	7.32
587.454	7.33
587.792	7.22
588.13	7.54
588.469	7.22
588.807	6.92
589.145	7.28
589.483	7.33
589.821	7.25
590.159	7.32
590.497	7.53
590.835	7.39
591.173	7.15
591.511	7.18
591.849	7.3
592.187	7.4
592.524	7.36
592.862	7.57
593.2	7.44
593.537	7.49
593.875	7.74
594.212	8.01
594.55	7.61
594.887	7.52
595.224	7.76
595.561	7.62
595.899	7.52
596.236	7.73
596.573	8.07
596.91	7.7
597.247	8.1
597.584	7.82
597.921	7.75
598.258	7.74
598.594	7.73
598.931	7.7
599.268	7.81
599.604	7.81
599.941	7.6
600.277	7.67
600.614	8.31
600.95	8.07
601.287	8.08
601.623	8.31
601.959	8.21
602.296	8.03
602.632	7.97
602.968	8.34
603.304	8.2
603.64	7.95
603.976	8.3
604.312	8.1
604.648	8
604.984	8.25
605.319	8.34
605.655	8.29
605.991	8.29
606.326	8.32
606.662	8.31
606.998	8.23
607.333	8.3
607.668	8.32
608.004	8.33
608.339	8.46
608.674	8.25
609.01	8.63
609.345	8.82
609.68	8.56
610.015	8.58
610.35	8.74
610.685	8.74
611.02	8.7
611.355	8.82
611.689	8.62
612.024	8.72
612.359	8.93
612.694	8.86
613.028	8.72
613.363	8.55
613.697	8.8
614.032	9.16
614.366	8.69
614.7	9.12
615.035	8.9
615.369	9.02
615.703	9.05
616.037	9.05
616.371	8.98
616.705	9.19
617.039	9.22
617.373	9.32
617.707	9.21
618.041	9.14
618.375	9.27
618.709	9.27
619.042	9.55
619.376	9.19
619.71	9.14
620.043	9.52
620.377	9.51
620.71	9.43
621.043	9.22
621.377	9.36
621.71	9.44
622.043	9.19
622.376	9.37
622.709	9.55
623.043	9.68
623.376	9.53
623.709	9.71
624.041	9.96
624.374	9.91
624.707	9.28
625.04	9.4
625.373	9.73
625.705	10.02
626.038	10.13
626.37	9.88
626.703	9.86
627.035	10.1
627.368	10.04
627.7	9.96
628.032	10.05
628.365	9.71
628.697	9.83
629.029	10
629.361	9.85
629.693	10.01
630.025	9.88
630.357	9.86
630.689	10.09
631.021	10.2
631.353	10.33
631.684	10.41
632.016	10.05
632.348	10.22
632.679	10.18
633.011	10.12
633.342	10.07
633.674	10.1
634.005	10.29
634.336	10.14
634.668	10.5
634.999	10.74
635.33	10.49
635.661	10.69
635.992	10.44
636.323	10.72
636.654	10.38
636.985	10.66
637.316	10.67
637.647	10.66
637.977	10.65
638.308	10.63
638.639	10.53
638.969	11.08
639.3	10.52
639.63	10.42
639.961	11.01
640.291	10.81
640.622	11.01
640.952	10.99
641.282	11.04
641.612	11.13
641.943	11.02
642.273	11.7
642.603	10.69
642.933	11
643.263	11.32
643.592	10.93
643.922	11.4
644.252	11.37
644.582	10.9
644.911	11.58
645.241	11.62
645.571	10.69
645.9	11.18
646.23	11.28
646.559	11.41
646.888	11.73
647.218	11.04
647.547	11.17
647.876	11.77
648.205	11.54
648.534	12.21
648.863	11.62
649.192	11.54
649.521	11.64
649.85	11.45
650.179	12.02
650.508	12.09
650.837	11.25
651.165	11.93
651.494	11.69
651.822	11.74
652.151	12.17
652.479	12.6
652.808	11.99
653.136	11.73
653.465	11.56
653.793	12.41
654.121	12.41
654.449	11.66
654.777	12.03
655.105	12.25
655.433	11.85
655.761	11.68
656.089	11.88
656.417	12.01
656.745	12.15
657.073	12.13
657.4	12.13
657.728	12.55
658.056	12.57
658.383	12.49
658.711	12.92
659.038	12.58
659.365	12.37
659.693	12.25
660.02	12.52
660.347	12.71
660.674	12.47
661.001	12.68
661.329	12.44
661.656	12.7
661.982	12.55
662.309	12.65
662.636	12.11
662.963	12.82
663.29	12.78
663.616	12.68
663.943	12.83
664.27	12.87
664.596	12.48
664.923	13.27
665.249	12.96
665.576	13.11
665.902	12.89
666.228	13.33
666.554	12.7
666.881	13.41
667.207	12.82
667.533	13.34
667.859	12.53
668.185	13.48
668.511	13.55
668.837	12.8
669.162	13.35
669.488	13.05
669.814	13.02
670.139	13.75
670.465	13.75
670.791	13.59
671.116	13.75
671.442	13.48
671.767	12.46
672.092	13.47
672.418	13.37
672.743	14.28
673.068	13.32
673.393	13.56
673.718	13.53
674.043	13.37
674.368	13.79
674.693	13.83
675.018	13.95
675.343	13.79
675.667	13.71
675.992	13.5
676.317	13.16
676.641	13.58
676.966	13.82
677.29	13.44
677.615	14.55
677.939	13.81
678.264	14.25
678.588	13.95
678.912	14.09
679.236	13.42
679.56	13.92
679.885	14.25
680.209	13.6
680.532	14.62
680.856	14.21
681.18	14.3
681.504	14.06
681.828	13.91
682.152	14.11
682.475	14.42
682.799	14.46
683.122	14.44
683.446	14.24
683.769	14.32
684.093	14.08
684.416	14.82
684.739	14.8
685.062	14.87
685.386	14.19
685.709	14.78
686.032	14.16
686.355	14.04
686.678	14.91
687.001	13.9
687.324	14.74
687.646	14.94
687.969	14.56
688.292	14.44
688.614	14.93
