Data from 0174_forehead_Reflection__1__097.txt Node

Date: Mon Aug 28 19:29:08 CDT 2023
User: ToomeyLab
Spectrometer: FLMS14357
Trigger mode: 0
Integration Time (sec): 1.000000E-2
Scans to average: 100
Electric dark correction enabled: true
Nonlinearity correction enabled: false
Boxcar width: 0
XAxis mode: Wavelengths
Number of Pixels in Spectrum: 2048
>>>>>Begin Spectral Data<<<<<
189.047	-76.48
189.435	-76.48
189.823	-76.48
190.211	-9918.6
190.599	205.53
190.987	427.55
191.375	-57.28
191.763	93.91
192.151	128.89
192.538	123.45
192.926	280.08
193.314	185.78
193.702	55.99
194.089	134.34
194.477	1497.65
194.864	-222.7
195.252	-26.11
195.639	-2440.17
196.027	102.76
196.414	219.19
196.801	33.96
197.189	16.24
197.576	-693.32
197.963	-46.35
198.351	40.81
198.738	111.24
199.125	32.69
199.512	6.98
199.899	40.79
200.286	163.1
200.673	31.38
201.06	23.82
201.447	76.6
201.833	26.76
202.22	46.28
202.607	33.61
202.994	23.74
203.38	113.26
203.767	58.43
204.154	33.18
204.54	18.45
204.927	13.91
205.313	57.76
205.699	-5.39
206.086	81.9
206.472	58.73
206.858	69.48
207.245	17.57
207.631	47.83
208.017	21.92
208.403	18.35
208.789	40.4
209.175	6.82
209.561	33.3
209.947	18.72
210.333	23.88
210.719	22.14
211.105	43.19
211.491	17.71
211.876	49.81
212.262	24.84
212.648	34.48
213.034	24.9
213.419	2.22
213.805	37.94
214.19	42.16
214.576	42.15
214.961	11.42
215.346	22.85
215.732	25.28
216.117	29.61
216.502	13.91
216.888	5.15
217.273	13.33
217.658	35.65
218.043	56.4
218.428	7.49
218.813	22.77
219.198	21.36
219.583	41
219.968	16.02
220.353	5.59
220.738	30.39
221.122	32.39
221.507	8.84
221.892	31.01
222.276	38.26
222.661	9.68
223.046	27.23
223.43	19.51
223.815	40.11
224.199	21.26
224.583	15.26
224.968	14.97
225.352	21.05
225.736	20.86
226.121	14.95
226.505	4.65
226.889	9.45
227.273	16.54
227.657	11.27
228.041	10.95
228.425	8.11
228.809	9.39
229.193	6.99
229.577	8.06
229.961	5.36
230.344	6.08
230.728	5.48
231.112	4.28
231.495	5.26
231.879	4.71
232.263	6.08
232.646	6.7
233.03	6.2
233.413	8.37
233.797	5.14
234.18	6.3
234.563	3.18
234.946	9.89
235.33	9.47
235.713	4.68
236.096	6.39
236.479	6.58
236.862	7.19
237.245	7.06
237.628	5.67
238.011	7.45
238.394	5.7
238.777	6.36
239.16	3.58
239.543	2.83
239.925	7.11
240.308	5.51
240.691	6.09
241.073	4.52
241.456	6.97
241.838	5.59
242.221	7.53
242.603	5.41
242.986	5.63
243.368	5.18
243.75	6.32
244.133	5.34
244.515	4.58
244.897	5.41
245.279	5.45
245.661	5.05
246.043	4.84
246.425	4.53
246.807	6.91
247.189	4.98
247.571	5.48
247.953	5.56
248.335	5.17
248.717	5.13
249.098	4.87
249.48	4.94
249.862	4.89
250.243	5.26
250.625	5.49
251.006	5.65
251.388	6.05
251.769	6.24
252.151	6.07
252.532	4.45
252.913	6.85
253.295	4.34
253.676	5.56
254.057	5.24
254.438	5.04
254.819	4.82
255.2	6.41
255.581	5.73
255.962	6.04
256.343	7.06
256.724	4.97
257.105	4.83
257.486	6.68
257.867	5.84
258.247	5.75
258.628	7.07
259.009	5.84
259.389	5.41
259.77	5.98
260.15	5.21
260.531	5.01
260.911	5.36
261.292	5.32
261.672	5.21
262.052	4.84
262.432	5.02
262.813	5.08
263.193	5.32
263.573	5.12
263.953	5.8
264.333	4.84
264.713	5.7
265.093	5.74
265.473	5.59
265.853	5.07
266.233	5.07
266.612	6.33
266.992	4.28
267.372	5.53
267.752	6.55
268.131	5.13
268.511	5.23
268.89	5.73
269.27	5.2
269.649	5.23
270.029	5.02
270.408	4.92
270.787	5.53
271.167	5.35
271.546	4.72
271.925	5.75
272.304	5.53
272.683	5.22
273.062	5.12
273.441	5.26
273.82	4.67
274.199	4.69
274.578	5.08
274.957	4.88
275.336	5.28
275.715	5.67
276.093	5
276.472	4.41
276.851	4.7
277.229	5.5
277.608	5.36
277.986	4.97
278.365	5.2
278.743	5.24
279.122	5
279.5	4.77
279.878	4.58
280.257	4.97
280.635	5.42
281.013	5.46
281.391	4.96
281.769	4.91
282.147	5.28
282.525	5.54
282.903	5.45
283.281	4.95
283.659	5.97
284.037	5.19
284.415	5.09
284.792	5
285.17	4.92
285.548	5.13
285.925	5.53
286.303	5.13
286.68	5.61
287.058	5.7
287.435	4.9
287.813	4.98
288.19	5.57
288.567	5.45
288.945	5.05
289.322	5.51
289.699	5.44
290.076	5.64
290.453	5.93
290.83	5.01
291.207	5.2
291.584	5.76
291.961	5.85
292.338	5.74
292.715	5.73
293.092	6.37
293.469	6.01
293.845	6.33
294.222	5.77
294.599	6.3
294.975	6.43
295.352	5.99
295.728	6.25
296.105	6.13
296.481	6.57
296.858	6.96
297.234	6.8
297.61	6.67
297.986	6.5
298.363	7.02
298.739	6.44
299.115	6.57
299.491	6.82
299.867	6.61
300.243	6.9
300.619	6.6
300.995	7.49
301.371	6.71
301.746	7.72
302.122	7.2
302.498	7.5
302.874	7.7
303.249	7.47
303.625	7.53
304	7.3
304.376	7.39
304.751	7.62
305.127	7.7
305.502	8.3
305.878	7.9
306.253	7.85
306.628	8.08
307.003	8.08
307.378	8.18
307.754	8.92
308.129	8.57
308.504	9.12
308.879	8.61
309.254	9.03
309.629	8.44
310.003	8.68
310.378	9.06
310.753	8.8
311.128	8.98
311.502	9.48
311.877	9.33
312.252	9.2
312.626	9.07
313.001	9.48
313.375	9.77
313.75	9.54
314.124	9.24
314.498	9.78
314.873	10.07
315.247	10.19
315.621	10
315.995	10.88
316.369	10.5
316.743	9.95
317.117	10.08
317.491	9.72
317.865	10.51
318.239	10.75
318.613	10.65
318.987	11.13
319.361	11.5
319.734	10.94
320.108	11.08
320.482	11.37
320.855	10.74
321.229	11.13
321.602	11.18
321.976	11.42
322.349	12.2
322.723	11.77
323.096	12.47
323.469	11.85
323.843	11.99
324.216	12.34
324.589	12.13
324.962	12.38
325.335	12.65
325.708	12.57
326.081	12.52
326.454	12.49
326.827	12.81
327.2	12.21
327.573	12.44
327.945	13.01
328.318	13.32
328.691	13.04
329.063	12.55
329.436	12.81
329.809	13.56
330.181	13.09
330.553	13.77
330.926	14.23
331.298	13.86
331.671	13.96
332.043	13.15
332.415	14.75
332.787	13.64
333.159	13.53
333.532	14.45
333.904	14.22
334.276	13.84
334.648	14.69
335.02	14.58
335.391	14.38
335.763	14.52
336.135	14.79
336.507	14.09
336.879	14.04
337.25	15.46
337.622	14.33
337.993	15.72
338.365	15.27
338.736	15.18
339.108	14.92
339.479	15.12
339.851	16.14
340.222	15.25
340.593	15.47
340.964	15.97
341.336	15.69
341.707	16
342.078	15.54
342.449	15.75
342.82	16
343.191	15.82
343.562	15.79
343.933	16.21
344.303	16
344.674	16.23
345.045	16.33
345.416	16.44
345.786	16.97
346.157	16.87
346.527	16.69
346.898	16.97
347.268	16.75
347.639	16.65
348.009	16.8
348.38	16.97
348.75	16.9
349.12	17.39
349.49	17.38
349.861	16.92
350.231	17.9
350.601	18.35
350.971	17.84
351.341	17.75
351.711	17.8
352.081	18.02
352.45	18.27
352.82	18.2
353.19	18.48
353.56	18.56
353.929	18.57
354.299	18.29
354.669	18.61
355.038	18.26
355.408	18.76
355.777	18.61
356.147	18.99
356.516	18.96
356.885	18.68
357.254	18.99
357.624	18.93
357.993	19.09
358.362	19.28
358.731	19.39
359.1	19.39
359.469	19.82
359.838	19.16
360.207	19.49
360.576	19.54
360.945	19.64
361.314	19.59
361.682	19.58
362.051	20.37
362.42	19.84
362.788	19.86
363.157	19.9
363.525	19.91
363.894	20.29
364.262	20.23
364.631	20.01
364.999	20.24
365.367	20.64
365.735	20.95
366.104	20.68
366.472	21.14
366.84	20.84
367.208	21.02
367.576	20.8
367.944	21.41
368.312	21.29
368.68	21.64
369.048	21.69
369.416	21.37
369.783	21.76
370.151	21.96
370.519	22.1
370.886	22.15
371.254	21.98
371.621	22.17
371.989	22.27
372.356	22.22
372.724	22.73
373.091	22.53
373.458	22.73
373.826	22.68
374.193	22.71
374.56	23.11
374.927	22.67
375.294	22.94
375.661	23.21
376.028	23.18
376.395	22.95
376.762	23.58
377.129	23.17
377.496	23.14
377.863	23.55
378.229	23.93
378.596	23.95
378.963	23.9
379.329	24.08
379.696	23.61
380.062	23.91
380.429	24.07
380.795	24.15
381.161	24.47
381.528	24.66
381.894	24.96
382.26	24.71
382.626	24.88
382.993	25.25
383.359	24.97
383.725	25.01
384.091	24.85
384.457	25.32
384.823	25.17
385.188	25.44
385.554	25.1
385.92	25.34
386.286	25.37
386.651	25.57
387.017	25.99
387.383	26.07
387.748	25.92
388.114	25.64
388.479	26
388.845	26.25
389.21	26.12
389.575	26.55
389.94	26.24
390.306	26.54
390.671	26.48
391.036	26.72
391.401	26.99
391.766	26.94
392.131	26.93
392.496	27.08
392.861	27.33
393.226	27.25
393.591	26.98
393.956	27.21
394.32	27.12
394.685	27.63
395.05	27.47
395.414	27.83
395.779	27.99
396.143	27.59
396.508	27.91
396.872	28.03
397.236	28.16
397.601	27.88
397.965	28.41
398.329	28.74
398.694	28.44
399.058	28.42
399.422	28.47
399.786	29.15
400.15	29.05
400.514	28.98
400.878	29.06
401.242	29.06
401.605	29.27
401.969	29.27
402.333	29.35
402.697	29.6
403.06	29.63
403.424	30
403.787	30.01
404.151	29.91
404.514	30.09
404.878	29.8
405.241	30.23
405.604	30.25
405.968	29.91
406.331	30.27
406.694	30.08
407.057	30.14
407.42	30.25
407.783	30.29
408.146	30.59
408.509	30.67
408.872	30.84
409.235	31.21
409.598	31.13
409.961	31.38
410.323	31.41
410.686	31.52
411.049	31.36
411.411	31.42
411.774	31.49
412.136	31.46
412.499	31.42
412.861	31.81
413.223	31.93
413.586	31.87
413.948	32.11
414.31	32.19
414.672	32.07
415.035	31.95
415.397	32.27
415.759	32.45
416.121	32.9
416.483	32.79
416.845	32.83
417.206	32.92
417.568	32.59
417.93	32.78
418.292	32.8
418.653	32.87
419.015	32.63
419.377	32.59
419.738	33.1
420.1	32.91
420.461	32.94
420.822	32.87
421.184	32.78
421.545	32.89
421.906	32.99
422.267	33.07
422.629	33.08
422.99	32.91
423.351	32.94
423.712	32.88
424.073	33.15
424.434	33.52
424.795	33.49
425.155	33.56
425.516	33.54
425.877	33.78
426.238	33.55
426.598	33.28
426.959	33.65
427.32	33.78
427.68	33.9
428.041	34.18
428.401	34.35
428.761	34.68
429.122	34.86
429.482	34.87
429.842	35.11
430.202	35.22
430.563	35.33
430.923	35.49
431.283	35.48
431.643	35.28
432.003	35.59
432.363	35.64
432.722	35.87
433.082	35.82
433.442	36.05
433.802	35.68
434.161	36.18
434.521	36.05
434.881	35.88
435.24	35.85
435.6	35.95
435.959	35.82
436.319	35.98
436.678	36.22
437.037	36.49
437.396	36.68
437.756	36.9
438.115	36.98
438.474	37
438.833	36.85
439.192	37.23
439.551	36.93
439.91	36.95
440.269	37.08
440.628	37.13
440.987	37.13
441.345	37.04
441.704	36.93
442.063	36.92
442.421	36.84
442.78	37.35
443.138	37.19
443.497	37.35
443.855	37.34
444.214	37.64
444.572	37.87
444.93	37.97
445.288	38.06
445.647	38.17
446.005	38.22
446.363	38.37
446.721	38.2
447.079	38.13
447.437	38.18
447.795	38
448.153	37.65
448.51	37.72
448.868	37.89
449.226	37.89
449.584	38.13
449.941	38.47
450.299	38.49
450.656	38.69
451.014	38.73
451.371	38.88
451.729	39.14
452.086	39.27
452.443	39.72
452.801	39.74
453.158	39.73
453.515	39.7
453.872	39.78
454.229	39.83
454.586	39.79
454.943	39.65
455.3	39.77
455.657	39.72
456.014	39.88
456.371	39.91
456.727	39.84
457.084	39.95
457.441	40.46
457.797	40.27
458.154	40.52
458.51	41.08
458.867	40.55
459.223	40.54
459.58	40.57
459.936	40.94
460.292	40.72
460.648	40.71
461.005	40.75
461.361	40.57
461.717	40.2
462.073	40.09
462.429	40.12
462.785	40.27
463.141	40.62
463.496	40.93
463.852	41.03
464.208	41.33
464.564	41.61
464.919	41.51
465.275	41.79
465.631	41.56
465.986	42.15
466.342	42.16
466.697	41.99
467.052	41.92
467.408	41.82
467.763	42.18
468.118	42.2
468.473	42.32
468.829	42.2
469.184	42.16
469.539	42.17
469.894	42.28
470.249	42.42
470.603	42.38
470.958	42.55
471.313	42.99
471.668	42.67
472.023	42.86
472.377	42.7
472.732	43.02
473.086	42.76
473.441	43.24
473.795	43.18
474.15	43.21
474.504	43.62
474.859	43.38
475.213	43.44
475.567	43.39
475.921	43.67
476.275	43.75
476.63	43.59
476.984	43.89
477.338	44.06
477.692	43.87
478.045	44.08
478.399	43.93
478.753	43.91
479.107	43.99
479.461	43.78
479.814	44.04
480.168	44.18
480.521	44.08
480.875	44.03
481.228	44.08
481.582	44.29
481.935	44.18
482.289	44.39
482.642	44.49
482.995	44.56
483.348	44.55
483.701	44.23
484.055	44.16
484.408	44.21
484.761	44.1
485.114	44.24
485.466	44
485.819	43.67
486.172	43.14
486.525	43.03
486.878	43.08
487.23	43.15
487.583	43.44
487.936	43.8
488.288	44.25
488.641	44.39
488.993	44.2
489.345	44.09
489.698	43.86
490.05	43.89
490.402	43.85
490.754	43.93
491.107	44.12
491.459	44.45
491.811	44.78
492.163	45.21
492.515	45.51
492.866	45.61
493.218	45.26
493.57	44.86
493.922	44.37
494.274	44.35
494.625	44.42
494.977	44.84
495.328	45.38
495.68	45.76
496.031	45.93
496.383	46.14
496.734	46.5
497.086	46.63
497.437	46.66
497.788	46.87
498.139	46.83
498.49	46.62
498.842	46.4
499.193	46.12
499.544	46.26
499.894	46.47
500.245	46.64
500.596	46.6
500.947	46.57
501.298	46.74
501.648	46.89
501.999	47.22
502.35	47.02
502.7	47.27
503.051	47.48
503.401	47.15
503.752	47.48
504.102	47.66
504.452	47.56
504.803	47.61
505.153	47.56
505.503	47.61
505.853	47.74
506.203	47.78
506.553	47.69
506.903	47.64
507.253	47.73
507.603	47.65
507.953	48.04
508.303	48.24
508.652	48.23
509.002	48.31
509.352	47.98
509.701	48.25
510.051	48.06
510.4	47.92
510.75	48.09
511.099	47.98
511.449	47.97
511.798	48.18
512.147	48.15
512.496	48.09
512.846	48.38
513.195	48.48
513.544	48.78
513.893	48.44
514.242	48.6
514.591	48.43
514.939	48.44
515.288	48.69
515.637	48.95
515.986	48.77
516.334	49.08
516.683	49.02
517.032	49.2
517.38	49.34
517.729	49.39
518.077	49.29
518.426	49.51
518.774	49.55
519.122	49.57
519.47	49.17
519.819	49.39
520.167	49.1
520.515	48.9
520.863	48.65
521.211	48.81
521.559	48.59
521.907	48.8
522.255	49.01
522.602	49.12
522.95	49.54
523.298	49.8
523.645	49.85
523.993	49.92
524.341	49.99
524.688	50.02
525.036	50.16
525.383	50.3
525.73	50.08
526.078	50.3
526.425	50.25
526.772	50.13
527.119	50.24
527.466	49.85
527.814	49.54
528.161	49.42
528.508	49.52
528.854	49.63
529.201	49.92
529.548	49.87
529.895	50.13
530.242	49.78
530.588	49.39
530.935	48.97
531.282	48.87
531.628	48.95
531.975	48.97
532.321	49.18
532.667	49.4
533.014	49.88
533.36	50.19
533.706	50.09
534.052	50.53
534.399	50.51
534.745	50.64
535.091	50.36
535.437	50.06
535.783	49.71
536.129	49.74
536.474	49.94
536.82	50.23
537.166	50.53
537.512	51.02
537.857	51.32
538.203	51.22
538.549	50.88
538.894	50.5
539.239	50.58
539.585	50.57
539.93	50.89
540.276	51.06
540.621	51.52
540.966	51.54
541.311	51.83
541.656	52.08
542.001	51.81
542.346	52.31
542.691	51.86
543.036	51.53
543.381	50.7
543.726	50.34
544.071	50.45
544.415	50.53
544.76	50.73
545.105	50.97
545.449	51.15
545.794	51.46
546.138	51.68
546.483	51.8
546.827	51.8
547.171	52.32
547.516	52.29
547.86	52.21
548.204	52.21
548.548	52.23
548.892	51.9
549.236	51.9
549.58	52.03
549.924	52.24
550.268	52.55
550.612	52.73
550.956	53.1
551.3	52.96
551.643	53.12
551.987	53.26
552.33	53.43
552.674	53.34
553.017	53.54
553.361	53.64
553.704	53.28
554.048	53.73
554.391	53.32
554.734	53.54
555.077	53.11
555.42	53.32
555.764	53.24
556.107	53.58
556.45	53.71
556.793	53.69
557.135	54.03
557.478	53.75
557.821	53.97
558.164	54.13
558.507	54.3
558.849	54.16
559.192	54.21
559.534	54.16
559.877	54.29
560.219	54.29
560.562	54.1
560.904	54.4
561.246	54.42
561.589	54.43
561.931	54.3
562.273	54.27
562.615	54.18
562.957	54.58
563.299	54.57
563.641	54.13
563.983	54.3
564.325	54.65
564.667	54.69
565.008	54.62
565.35	55.21
565.692	55.02
566.033	54.79
566.375	54.63
566.716	54.94
567.058	54.86
567.399	54.87
567.741	54.86
568.082	54.51
568.423	54.5
568.764	54.28
569.105	54.4
569.447	54.52
569.788	54.54
570.129	54.73
570.47	55.05
570.811	55.29
571.151	55.24
571.492	55.17
571.833	55.17
572.174	55.22
572.514	55.27
572.855	55.52
573.195	55.07
573.536	55.17
573.876	55.17
574.217	55.1
574.557	55
574.898	55.22
575.238	55.13
575.578	55.29
575.918	55.38
576.258	55.43
576.598	55.42
576.938	55.3
577.278	55.59
577.618	55.46
577.958	55.51
578.298	55.92
578.638	55.62
578.977	55.28
579.317	56.04
579.657	55.7
579.996	55.82
580.336	55.92
580.675	56.26
581.014	56.59
581.354	56.34
581.693	56.59
582.032	56.55
582.372	56.57
582.711	56.54
583.05	56.57
583.389	56.77
583.728	56.58
584.067	56.95
584.406	56.85
584.745	56.63
585.083	56.45
585.422	56.35
585.761	56.63
586.1	56.91
586.438	57.02
586.777	56.98
587.115	56.56
587.454	57.18
587.792	57.09
588.13	56.75
588.469	56.9
588.807	56.96
589.145	57.15
589.483	57.02
589.821	57.08
590.159	57.4
590.497	57.33
590.835	57.22
591.173	56.89
591.511	56.94
591.849	57.25
592.187	57.42
592.524	57.09
592.862	57.06
593.2	57.01
593.537	57.29
593.875	57.4
594.212	57.19
594.55	57.47
594.887	57.64
595.224	58.01
595.561	57.47
595.899	57.4
596.236	57.82
596.573	57.57
596.91	57.62
597.247	57.63
597.584	57.62
597.921	57.82
598.258	58.1
598.594	57.86
598.931	57.63
599.268	56.82
599.604	56.75
599.941	56.96
600.277	56.94
600.614	57.5
600.95	57.53
601.287	57.68
601.623	58.1
601.959	58.38
602.296	57.99
602.632	58.13
602.968	58.69
603.304	58.33
603.64	58.38
603.976	58.13
604.312	58.36
604.648	58.33
604.984	58.08
605.319	58.19
605.655	58.02
605.991	57.76
606.326	58.14
606.662	57.69
606.998	57.42
607.333	57.36
607.668	57.54
608.004	57.37
608.339	58.11
608.674	58.06
609.01	58.58
609.345	58.79
609.68	58.5
610.015	58.62
610.35	59.02
610.685	58.61
611.02	58.48
611.355	58.55
611.689	58.01
612.024	58.19
612.359	58.17
612.694	58.17
613.028	58.64
613.363	58.37
613.697	58.96
614.032	58.92
614.366	58.62
614.7	59.15
615.035	59.09
615.369	59.15
615.703	59.3
616.037	58.89
616.371	59.14
616.705	59.43
617.039	59.36
617.373	59.33
617.707	59.37
618.041	59.27
618.375	59.29
618.709	59.17
619.042	59.61
619.376	59.69
619.71	59.4
620.043	59.87
620.377	59.99
620.71	60.05
621.043	59.61
621.377	59.04
621.71	59.52
622.043	59.57
622.376	60.07
622.709	59.44
623.043	59.49
623.376	59.48
623.709	59.77
624.041	60.06
624.374	60.07
624.707	59.78
625.04	60.09
625.373	60.06
625.705	60.13
626.038	60.17
626.37	60.07
626.703	60.16
627.035	60.26
627.368	60.47
627.7	59.79
628.032	60.61
628.365	60.28
628.697	59.72
629.029	59.66
629.361	59.82
629.693	59.64
630.025	59.45
630.357	59.58
630.689	59.81
631.021	60.2
631.353	60.14
631.684	59.95
632.016	59.95
632.348	60.24
632.679	60.38
633.011	60.02
633.342	60.53
633.674	60.18
634.005	60.83
634.336	60.22
634.668	60.66
634.999	60.71
635.33	60.78
635.661	60.8
635.992	60.26
636.323	60.86
636.654	60.2
636.985	60.41
637.316	60
637.647	60.21
637.977	60.28
638.308	60.83
638.639	60.59
638.969	60.84
639.3	60.8
639.63	61.02
639.961	60.73
640.291	60.5
640.622	60.78
640.952	60.8
641.282	60.95
641.612	60.88
641.943	60.77
642.273	61.33
642.603	60.65
642.933	60.74
643.263	61.19
643.592	61.36
643.922	60.99
644.252	61.21
644.582	60.88
644.911	61.62
645.241	61.36
645.571	61.33
645.9	61.53
646.23	60.58
646.559	61.08
646.888	61.78
647.218	61.54
647.547	61.08
647.876	61.95
648.205	61.42
648.534	61.87
648.863	61.51
649.192	61.32
649.521	61.39
649.85	62.12
650.179	61.81
650.508	62.32
650.837	61.68
651.165	61.81
651.494	61.15
651.822	61.71
652.151	61.66
652.479	61.49
652.808	61.84
653.136	61.75
653.465	62.17
653.793	62.25
654.121	62.11
654.449	62.34
654.777	61.52
655.105	61.6
655.433	61.77
655.761	61.5
656.089	61.5
656.417	61.95
656.745	62.13
657.073	61.76
657.4	62.08
657.728	61.98
658.056	62.17
658.383	62.16
658.711	62.85
659.038	62.21
659.365	62.19
659.693	62.05
660.02	62.43
660.347	63.06
660.674	62.57
661.001	62.03
661.329	62
661.656	62.42
661.982	61.54
662.309	61.48
662.636	61.88
662.963	62.48
663.29	62.53
663.616	62.35
663.943	61.83
664.27	62.64
664.596	62.87
664.923	62.46
665.249	62.01
665.576	62.92
665.902	62.21
666.228	62.04
666.554	62.49
666.881	62.35
667.207	62.09
667.533	62.81
667.859	62.88
668.185	62.45
668.511	62.89
668.837	62.4
669.162	62.9
