Data from 0174_crown_Reflection__4__105.txt Node

Date: Mon Aug 28 19:33:07 CDT 2023
User: ToomeyLab
Spectrometer: FLMS14357
Trigger mode: 0
Integration Time (sec): 1.000000E-2
Scans to average: 100
Electric dark correction enabled: true
Nonlinearity correction enabled: false
Boxcar width: 0
XAxis mode: Wavelengths
Number of Pixels in Spectrum: 2048
>>>>>Begin Spectral Data<<<<<
189.047	-59.74
189.435	-59.74
189.823	-59.74
190.211	2086.05
190.599	50.26
190.987	-329.24
191.375	59.24
191.763	97.11
192.151	183.71
192.538	23.91
192.926	163.86
193.314	184.42
193.702	206.24
194.089	98.55
194.477	582.35
194.864	232.95
195.252	43.75
195.639	2638.46
196.027	99.75
196.414	59.82
196.801	104.35
197.189	85.67
197.576	-318.23
197.963	86.52
198.351	14.89
198.738	-1.19
199.125	22.81
199.512	73.93
199.899	55.14
200.286	-42.02
200.673	-17.93
201.06	-7.39
201.447	-49.22
201.833	-70.56
202.22	11.18
202.607	17.28
202.994	24.74
203.38	-59.64
203.767	-21.45
204.154	13.02
204.54	-42.68
204.927	-15.5
205.313	2.38
205.699	-8.3
206.086	-2.46
206.472	-10.58
206.858	-8.26
207.245	15.24
207.631	-1.78
208.017	-19.68
208.403	13.29
208.789	14.5
209.175	12.01
209.561	-9.43
209.947	9.19
210.333	0.84
210.719	4.86
211.105	2.22
211.491	-12.69
211.876	45.02
212.262	-60.76
212.648	1.95
213.034	3.61
213.419	-13.67
213.805	-9.52
214.19	28.09
214.576	11.19
214.961	-17.23
215.346	-22.53
215.732	39.26
216.117	-17.13
216.502	6.21
216.888	-23.26
217.273	-13.48
217.658	13.49
218.043	-24.62
218.428	24.63
218.813	-12.24
219.198	16.98
219.583	-11.92
219.968	4.66
220.353	-7.29
220.738	0.45
221.122	6.27
221.507	-1.69
221.892	18.68
222.276	-2.61
222.661	4.82
223.046	-8.94
223.43	7.04
223.815	15.07
224.199	3.61
224.583	9.68
224.968	2.48
225.352	14.01
225.736	6.39
226.121	2.74
226.505	3.3
226.889	7.78
227.273	8.65
227.657	6.07
228.041	8.63
228.425	7.21
228.809	2.32
229.193	1.49
229.577	4.79
229.961	2.59
230.344	5.4
230.728	5.6
231.112	4.6
231.495	5.83
231.879	5.12
232.263	5.69
232.646	5.04
233.03	6.3
233.413	7.88
233.797	4.45
234.18	3.22
234.563	3.61
234.946	7.9
235.33	5.45
235.713	2.59
236.096	7.58
236.479	5.65
236.862	6.6
237.245	5
237.628	8.17
238.011	8.05
238.394	4.93
238.777	6.46
239.16	3.42
239.543	1.51
239.925	6.8
240.308	3.5
240.691	4.57
241.073	5.03
241.456	4.99
241.838	4.11
242.221	6.1
242.603	5.97
242.986	5.51
243.368	5.41
243.75	4.93
244.133	5.42
244.515	4.7
244.897	5.49
245.279	5.65
245.661	4.81
246.043	5.19
246.425	5.01
246.807	6.43
247.189	4.15
247.571	5
247.953	5.49
248.335	5.41
248.717	5.12
249.098	5.25
249.48	5.1
249.862	4.96
250.243	4.77
250.625	5.48
251.006	5.24
251.388	5.1
251.769	5.21
252.151	4.32
252.532	4.05
252.913	6.88
253.295	4.57
253.676	4.84
254.057	4.99
254.438	4.77
254.819	4.95
255.2	4.93
255.581	5.59
255.962	4.95
256.343	6.82
256.724	3.86
257.105	4.25
257.486	4.92
257.867	4.38
258.247	4.84
258.628	6.37
259.009	2.57
259.389	3.78
259.77	4.53
260.15	4.92
260.531	4.17
260.911	4.59
261.292	4.88
261.672	4.82
262.052	4.47
262.432	4.43
262.813	4.5
263.193	4.86
263.573	4.2
263.953	4.44
264.333	4.36
264.713	3.92
265.093	4.4
265.473	4.95
265.853	4
266.233	3.93
266.612	5.22
266.992	4.84
267.372	3.59
267.752	4.55
268.131	5.09
268.511	4.13
268.89	4.56
269.27	4.6
269.649	3.95
270.029	5.08
270.408	4.87
270.787	4.86
271.167	4.63
271.546	4.41
271.925	4.56
272.304	4.13
272.683	4.65
273.062	4.22
273.441	4.52
273.82	4.09
274.199	3.88
274.578	4.14
274.957	4.59
275.336	4.73
275.715	4.37
276.093	3.54
276.472	4.1
276.851	4.33
277.229	4.66
277.608	4.33
277.986	4.63
278.365	4.11
278.743	4.15
279.122	4.21
279.5	3.47
279.878	3.72
280.257	3.68
280.635	4.43
281.013	4.64
281.391	3.79
281.769	4.11
282.147	4.17
282.525	4.6
282.903	4.22
283.281	3.84
283.659	5.03
284.037	4.3
284.415	3.66
284.792	4.14
285.17	3.84
285.548	4.02
285.925	4.44
286.303	3.8
286.68	4.44
287.058	4.48
287.435	3.96
287.813	3.98
288.19	4.58
288.567	4.23
288.945	4.15
289.322	4.19
289.699	4.32
290.076	4.15
290.453	3.99
290.83	3.91
291.207	4.18
291.584	4.39
291.961	4.37
292.338	4.06
292.715	3.69
293.092	3.7
293.469	4.22
293.845	3.75
294.222	3.92
294.599	4.02
294.975	4.03
295.352	3.52
295.728	3.93
296.105	4.32
296.481	3.88
296.858	4.59
297.234	4.31
297.61	3.69
297.986	3.83
298.363	4.25
298.739	4.04
299.115	3.82
299.491	4.09
299.867	4.15
300.243	4.2
300.619	4.17
300.995	4.37
301.371	3.86
301.746	4.29
302.122	3.79
302.498	3.89
302.874	3.63
303.249	3.77
303.625	4.13
304	3.44
304.376	3.87
304.751	3.72
305.127	4.04
305.502	4.19
305.878	3.97
306.253	3.8
306.628	3.5
307.003	3.95
307.378	4.01
307.754	4.25
308.129	3.75
308.504	4.5
308.879	3.97
309.254	3.96
309.629	3.48
310.003	3.97
310.378	3.61
310.753	4.07
311.128	4.28
311.502	4.14
311.877	4.12
312.252	4.16
312.626	3.64
313.001	3.81
313.375	4.17
313.75	3.58
314.124	4
314.498	4.08
314.873	3.95
315.247	4.1
315.621	3.75
315.995	3.98
316.369	4.25
316.743	3.48
317.117	3.61
317.491	3.15
317.865	3.51
318.239	3.87
318.613	3.97
318.987	3.61
319.361	4.16
319.734	3.7
320.108	3.79
320.482	3.63
320.855	3.62
321.229	4.34
321.602	4.1
321.976	2.99
322.349	3.96
322.723	4.1
323.096	4.11
323.469	3.52
323.843	3.39
324.216	3.61
324.589	4.07
324.962	4.38
325.335	3.79
325.708	3.78
326.081	3.51
326.454	4.16
326.827	3.71
327.2	3.85
327.573	3.15
327.945	3.96
328.318	4.4
328.691	3.7
329.063	3.38
329.436	3.45
329.809	3.6
330.181	3.21
330.553	3.63
330.926	4.31
331.298	3.3
331.671	3.72
332.043	3.55
332.415	4.52
332.787	3.59
333.159	3.62
333.532	4.12
333.904	3.82
334.276	3.69
334.648	3.85
335.02	3.99
335.391	3.64
335.763	3.29
336.135	4.09
336.507	3.77
336.879	3.74
337.25	3.97
337.622	3.39
337.993	4.12
338.365	3.52
338.736	3.88
339.108	3.05
339.479	3
339.851	3.72
340.222	4.12
340.593	3.62
340.964	3.89
341.336	3.59
341.707	3.27
342.078	3.32
342.449	3.31
342.82	3.5
343.191	3.76
343.562	3.74
343.933	3.53
344.303	3.49
344.674	3.75
345.045	3.85
345.416	3.6
345.786	3.75
346.157	3.54
346.527	3.27
346.898	3.53
347.268	3.48
347.639	3.54
348.009	3.83
348.38	3.89
348.75	3.33
349.12	3.97
349.49	3.48
349.861	3.36
350.231	3.04
350.601	3.65
350.971	3.75
351.341	3.65
351.711	3.2
352.081	3.79
352.45	3.7
352.82	3.57
353.19	4.34
353.56	4.07
353.929	3.69
354.299	3.42
354.669	3.71
355.038	4.04
355.408	3.6
355.777	3.6
356.147	3.58
356.516	4
356.885	3.76
357.254	3.87
357.624	3.65
357.993	4.11
358.362	3.31
358.731	3.65
359.1	3.96
359.469	3.86
359.838	3.55
360.207	3.62
360.576	3.91
360.945	3.34
361.314	3.51
361.682	3.39
362.051	3.89
362.42	3.92
362.788	3.96
363.157	3.82
363.525	3.54
363.894	3.97
364.262	4.03
364.631	3.75
364.999	3.75
365.367	3.9
365.735	3.58
366.104	3.7
366.472	3.68
366.84	3.6
367.208	3.67
367.576	3.82
367.944	3.94
368.312	3.89
368.68	3.87
369.048	3.79
369.416	3.74
369.783	3.73
370.151	3.89
370.519	3.77
370.886	3.66
371.254	3.46
371.621	3.62
371.989	3.58
372.356	3.68
372.724	4.25
373.091	4.06
373.458	3.73
373.826	4.09
374.193	3.76
374.56	3.88
374.927	3.39
375.294	3.94
375.661	3.96
376.028	3.74
376.395	3.68
376.762	4.08
377.129	3.6
377.496	3.5
377.863	4.11
378.229	3.8
378.596	3.78
378.963	3.88
379.329	4.06
379.696	3.71
380.062	3.9
380.429	3.85
380.795	3.99
381.161	4.07
381.528	4
381.894	3.81
382.26	3.81
382.626	4.24
382.993	3.61
383.359	4.24
383.725	4.15
384.091	3.67
384.457	4.01
384.823	3.81
385.188	3.87
385.554	3.72
385.92	3.75
386.286	4.24
386.651	4.03
387.017	4.2
387.383	4.07
387.748	3.89
388.114	3.83
388.479	3.82
388.845	4.02
389.21	3.71
389.575	4.13
389.94	3.84
390.306	3.89
390.671	3.8
391.036	3.91
391.401	4.14
391.766	4.23
392.131	3.85
392.496	3.84
392.861	3.93
393.226	4.2
393.591	3.78
393.956	4.01
394.32	3.77
394.685	3.95
395.05	4.02
395.414	4.18
395.779	4.06
396.143	4
396.508	3.76
396.872	4.16
397.236	3.83
397.601	3.91
397.965	3.86
398.329	4.18
398.694	3.91
399.058	4.21
399.422	4.12
399.786	3.77
400.15	4.04
400.514	4.1
400.878	4.06
401.242	3.96
401.605	3.92
401.969	3.82
402.333	3.89
402.697	4.04
403.06	4.1
403.424	4.21
403.787	3.65
404.151	3.9
404.514	4.03
404.878	3.95
405.241	4.25
405.604	4.3
405.968	3.93
406.331	4.18
406.694	4.18
407.057	4.03
407.42	3.93
407.783	4.03
408.146	3.91
408.509	4.08
408.872	4.09
409.235	4.14
409.598	3.87
409.961	3.8
410.323	4.12
410.686	4.39
411.049	4.18
411.411	4.41
411.774	4.33
412.136	4.28
412.499	3.96
412.861	4.05
413.223	4.03
413.586	3.91
413.948	3.96
414.31	4.08
414.672	4.03
415.035	4.03
415.397	4.18
415.759	4.12
416.121	4.28
416.483	3.94
416.845	4.25
417.206	4.44
417.568	4.14
417.93	4.07
418.292	4.18
418.653	3.9
419.015	4
419.377	3.99
419.738	4.31
420.1	4.18
420.461	4.15
420.822	4.13
421.184	4.14
421.545	4.06
421.906	4.15
422.267	4.04
422.629	4
422.99	3.99
423.351	4.1
423.712	4.07
424.073	4
424.434	4.17
424.795	4.05
425.155	4.04
425.516	4.11
425.877	4.02
426.238	4.02
426.598	3.97
426.959	4.12
427.32	4.07
427.68	4.22
428.041	4.1
428.401	4.15
428.761	4.08
429.122	4.13
429.482	4.33
429.842	4.4
430.202	4.31
430.563	4.35
430.923	4.35
431.283	4.25
431.643	4.16
432.003	4.21
432.363	4.33
432.722	4.27
433.082	4.22
433.442	4.31
433.802	4.28
434.161	4.21
434.521	4.11
434.881	4.14
435.24	4.2
435.6	4.23
435.959	4.28
436.319	4.39
436.678	4.19
437.037	4.29
437.396	4.31
437.756	4.27
438.115	4.41
438.474	4.24
438.833	4.22
439.192	4.46
439.551	4.28
439.91	4.34
440.269	4.27
440.628	4.31
440.987	4.18
441.345	4.2
441.704	4.26
442.063	4.08
442.421	4.22
442.78	4.26
443.138	4.23
443.497	4.17
443.855	4.24
444.214	4.32
444.572	4.2
444.93	4.42
445.288	4.3
445.647	4.42
446.005	4.29
446.363	4.36
446.721	4.44
447.079	4.34
447.437	4.22
447.795	4.2
448.153	4.34
448.51	4.09
448.868	4.27
449.226	4.15
449.584	4.22
449.941	4.25
450.299	4.38
450.656	4.34
451.014	4.25
451.371	4.23
451.729	4.23
452.086	4.34
452.443	4.48
452.801	4.38
453.158	4.41
453.515	4.35
453.872	4.41
454.229	4.36
454.586	4.46
454.943	4.36
455.3	4.46
455.657	4.33
456.014	4.39
456.371	4.39
456.727	4.47
457.084	4.21
457.441	4.45
457.797	4.37
458.154	4.56
458.51	4.62
458.867	4.21
459.223	4.44
459.58	4.4
459.936	4.57
460.292	4.45
460.648	4.34
461.005	4.29
461.361	4.36
461.717	4.3
462.073	4.27
462.429	4.21
462.785	4.28
463.141	4.32
463.496	4.44
463.852	4.32
464.208	4.41
464.564	4.42
464.919	4.45
465.275	4.62
465.631	4.35
465.986	4.59
466.342	4.39
466.697	4.4
467.052	4.31
467.408	4.57
467.763	4.38
468.118	4.46
468.473	4.41
468.829	4.46
469.184	4.46
469.539	4.35
469.894	4.48
470.249	4.44
470.603	4.41
470.958	4.59
471.313	4.64
471.668	4.42
472.023	4.64
472.377	4.42
472.732	4.53
473.086	4.38
473.441	4.48
473.795	4.66
474.15	4.68
474.504	4.62
474.859	4.62
475.213	4.56
475.567	4.42
475.921	4.61
476.275	4.46
476.63	4.55
476.984	4.54
477.338	4.54
477.692	4.54
478.045	4.6
478.399	4.49
478.753	4.47
479.107	4.53
479.461	4.45
479.814	4.61
480.168	4.6
480.521	4.44
480.875	4.48
481.228	4.5
481.582	4.45
481.935	4.54
482.289	4.56
482.642	4.49
482.995	4.55
483.348	4.57
483.701	4.63
484.055	4.43
484.408	4.46
484.761	4.46
485.114	4.47
485.466	4.4
485.819	4.29
486.172	4.17
486.525	4.2
486.878	4.25
487.23	4.32
487.583	4.38
487.936	4.42
488.288	4.49
488.641	4.47
488.993	4.43
489.345	4.38
489.698	4.37
490.05	4.33
490.402	4.32
490.754	4.4
491.107	4.39
491.459	4.42
491.811	4.48
492.163	4.59
492.515	4.47
492.866	4.51
493.218	4.5
493.57	4.43
493.922	4.35
494.274	4.39
494.625	4.39
494.977	4.5
495.328	4.55
495.68	4.61
496.031	4.66
496.383	4.54
496.734	4.58
497.086	4.76
497.437	4.74
497.788	4.59
498.139	4.61
498.49	4.58
498.842	4.61
499.193	4.56
499.544	4.62
499.894	4.54
500.245	4.59
500.596	4.63
500.947	4.59
501.298	4.78
501.648	4.58
501.999	4.63
502.35	4.65
502.7	4.64
503.051	4.76
503.401	4.78
503.752	4.57
504.102	4.67
504.452	4.67
504.803	4.74
505.153	4.57
505.503	4.55
505.853	4.67
506.203	4.67
506.553	4.67
506.903	4.78
507.253	4.69
507.603	4.64
507.953	4.77
508.303	4.71
508.652	4.73
509.002	4.85
509.352	4.7
509.701	4.57
510.051	4.7
510.4	4.63
510.75	4.64
511.099	4.69
511.449	4.68
511.798	4.7
512.147	4.7
512.496	4.75
512.846	4.56
513.195	4.74
513.544	4.77
513.893	4.75
514.242	4.72
514.591	4.77
514.939	4.63
515.288	4.64
515.637	4.75
515.986	4.8
516.334	4.74
516.683	4.83
517.032	4.87
517.38	4.75
517.729	4.91
518.077	4.69
518.426	4.65
518.774	4.77
519.122	4.83
519.47	4.65
519.819	4.79
520.167	4.63
520.515	4.69
520.863	4.6
521.211	4.61
521.559	4.63
521.907	4.76
522.255	4.59
522.602	4.74
522.95	4.86
523.298	4.86
523.645	4.85
523.993	4.75
524.341	4.84
524.688	4.8
525.036	4.88
525.383	4.87
525.73	4.84
526.078	4.95
526.425	4.91
526.772	4.88
527.119	4.84
527.466	4.69
527.814	4.68
528.161	4.64
528.508	4.7
528.854	4.72
529.201	4.77
529.548	4.71
529.895	4.72
530.242	4.69
530.588	4.57
530.935	4.5
531.282	4.53
531.628	4.52
531.975	4.58
532.321	4.64
532.667	4.61
533.014	4.76
533.36	4.71
533.706	4.77
534.052	4.71
534.399	4.68
534.745	4.76
535.091	4.75
535.437	4.65
535.783	4.65
536.129	4.61
536.474	4.65
536.82	4.66
537.166	4.74
537.512	4.81
537.857	4.98
538.203	4.71
538.549	4.72
538.894	4.74
539.239	4.65
539.585	4.71
539.93	4.82
540.276	4.75
540.621	4.86
540.966	4.96
541.311	4.98
541.656	4.94
542.001	4.93
542.346	4.92
542.691	4.87
543.036	4.77
543.381	4.71
543.726	4.67
544.071	4.67
544.415	4.68
544.76	4.76
545.105	4.71
545.449	4.8
545.794	4.78
546.138	4.82
546.483	4.78
546.827	4.81
547.171	4.82
547.516	4.82
547.86	4.95
548.204	4.95
548.548	4.82
548.892	4.81
549.236	4.74
549.58	4.85
549.924	4.79
550.268	4.91
550.612	4.89
550.956	4.88
551.3	5.03
551.643	5.12
551.987	4.79
552.33	4.92
552.674	4.91
553.017	4.98
553.361	5.04
553.704	5.04
554.048	4.94
554.391	4.95
554.734	4.97
555.077	4.99
555.42	4.91
555.764	4.92
556.107	4.81
556.45	4.9
556.793	4.93
557.135	5
557.478	4.99
557.821	5.04
558.164	5.08
558.507	5.06
558.849	5
559.192	4.89
559.534	5
559.877	5.02
560.219	5.1
560.562	4.98
560.904	5.09
561.246	4.89
561.589	4.9
561.931	5.2
562.273	4.88
562.615	4.94
562.957	5.09
563.299	5.11
563.641	4.97
563.983	5.05
564.325	4.93
564.667	4.92
565.008	4.9
565.35	5.17
565.692	5.12
566.033	5.13
566.375	5.12
566.716	5.06
567.058	4.8
567.399	4.94
567.741	5.03
568.082	4.98
568.423	4.93
568.764	4.96
569.105	5.07
569.447	5.11
569.788	5.04
570.129	4.93
570.47	4.99
570.811	5.05
571.151	4.95
571.492	4.96
571.833	5.08
572.174	4.99
572.514	4.91
572.855	4.77
573.195	5.17
573.536	4.93
573.876	4.92
574.217	5.08
574.557	5.05
574.898	5.13
575.238	4.88
575.578	4.96
575.918	5.01
576.258	5.19
576.598	5
576.938	4.89
577.278	4.9
577.618	5.03
577.958	4.95
578.298	5.11
578.638	4.99
578.977	5.14
579.317	5
579.657	4.97
579.996	5.2
580.336	5.03
580.675	5.13
581.014	5.28
581.354	5.01
581.693	5.31
582.032	5.09
582.372	5.27
582.711	5.47
583.05	5.03
583.389	5.03
583.728	5.28
584.067	5.13
584.406	4.95
584.745	5.14
585.083	5.09
585.422	5.15
585.761	5.11
586.1	5.24
586.438	4.92
586.777	4.91
587.115	4.93
587.454	5.24
587.792	5.25
588.13	5.21
588.469	5.17
588.807	5.24
589.145	5.27
589.483	5.17
589.821	5.07
590.159	5
590.497	5.32
590.835	5.17
591.173	4.96
591.511	5.17
591.849	4.98
592.187	5.09
592.524	5.33
592.862	5.16
593.2	4.99
593.537	5.17
593.875	5.39
594.212	5.14
594.55	5.17
594.887	5.13
595.224	5.24
595.561	4.94
595.899	5.11
596.236	5.34
596.573	5.35
596.91	5.12
597.247	5.13
597.584	4.93
597.921	5.32
598.258	5.1
598.594	5.14
598.931	4.91
599.268	5
599.604	4.99
599.941	5.04
600.277	4.87
600.614	5.2
600.95	5.24
601.287	5.19
601.623	5.3
601.959	5.24
602.296	5.08
602.632	5.06
602.968	5.41
603.304	5.45
603.64	5.12
603.976	5.1
604.312	5.36
604.648	4.99
604.984	5.12
605.319	5.28
605.655	5.35
605.991	5.24
606.326	5.19
606.662	5.09
606.998	5.09
607.333	5.14
607.668	5.21
608.004	4.89
608.339	5.27
608.674	5.03
609.01	5.28
609.345	5.3
609.68	5.2
610.015	5.23
610.35	5.45
610.685	5.2
611.02	5.25
611.355	5.4
611.689	5.04
612.024	5.3
612.359	5.17
612.694	5.15
613.028	5.09
613.363	4.94
613.697	5.13
614.032	5.4
614.366	5.07
614.7	5.36
615.035	5.08
615.369	5.21
615.703	5.11
616.037	5.37
616.371	5.03
616.705	5.26
617.039	5
617.373	5.13
617.707	5.34
618.041	5.27
618.375	5.12
618.709	5.56
619.042	5.41
619.376	5.09
619.71	4.83
620.043	5.2
620.377	5.59
620.71	5.06
621.043	5.33
621.377	5.53
621.71	5.5
622.043	4.83
622.376	5.53
622.709	5.16
623.043	5.28
623.376	5.36
623.709	5.39
624.041	5.4
624.374	5.06
624.707	4.84
625.04	4.97
625.373	5.19
625.705	5.82
626.038	5.21
626.37	5.27
626.703	5.63
627.035	5.48
627.368	5.66
627.7	5.38
628.032	5.47
628.365	5.02
628.697	5.44
629.029	5.34
629.361	5.3
629.693	5
630.025	5.5
630.357	4.86
630.689	5.04
631.021	5.27
631.353	5.27
631.684	5.23
632.016	5.21
632.348	5.33
632.679	5.6
633.011	5.18
633.342	5.06
633.674	5.28
634.005	5.48
634.336	5.33
634.668	5.18
634.999	5.36
635.33	5.3
635.661	5.47
635.992	5.12
636.323	5.28
636.654	5.4
636.985	5.4
637.316	5.27
637.647	5.45
637.977	5.16
638.308	5.51
638.639	5.24
638.969	5.67
639.3	5.24
639.63	5.38
639.961	5.79
640.291	5.33
640.622	5.24
640.952	5.31
641.282	5.09
641.612	5.13
641.943	5.25
642.273	5.44
642.603	5.39
642.933	4.87
643.263	5.93
643.592	5.59
643.922	5.38
644.252	5.19
644.582	4.98
644.911	5.67
645.241	5.84
645.571	5.22
645.9	5.48
646.23	5.25
646.559	5.05
646.888	5.67
647.218	5.34
647.547	5.3
647.876	5.72
648.205	5.41
648.534	5.8
648.863	5.15
649.192	5.51
649.521	5.67
649.85	5.75
650.179	5.72
650.508	5.13
650.837	5.39
651.165	5.76
651.494	5.74
651.822	5.61
652.151	5.52
652.479	5.5
652.808	5.32
653.136	5.27
653.465	5.46
653.793	5.49
654.121	5.78
654.449	5.46
654.777	5.19
655.105	5.45
655.433	5.52
655.761	5.27
656.089	5.52
656.417	5.23
656.745	5.7
657.073	5.31
657.4	5.8
657.728	6.07
658.056	5.65
658.383	5.43
658.711	5.89
659.038	5.95
659.365	6.13
659.693	5.4
660.02	5.28
660.347	5.51
660.674	5.62
661.001	5.94
661.329	5.32
661.656	5.79
661.982	5.56
662.309	5.5
662.636	5.56
662.963	6.06
663.29	5.7
663.616	5.16
663.943	5.53
664.27	5.74
664.596	5.31
664.923	5.84
665.249	5.53
665.576	5.54
665.902	5.41
666.228	5.6
666.554	5.54
666.881	5.89
667.207	5.02
667.533	5.44
667.859	5.3
668.185	5.43
668.511	6
668.837	5.02
669.162	5.37
669.488	5.38
669.814	6.3
670.139	5.86
670.465	6.04
670.791	6.17
671.116	6.09
671.442	5.79
671.767	5.49
672.092	5.7
672.418	5.79
672.743	5.91
673.068	5.53
673.393	5.75
673.718	5.04
674.043	5.74
674.368	5.3
674.693	6.25
675.018	5.79
675.343	5.81
675.667	6.24
675.992	5.44
676.317	5.17
676.641	5.47
676.966	6.13
677.29	5.46
677.615	6.29
677.939	5.61
678.264	5.25
678.588	5.78
678.912	5.85
679.236	5.31
679.56	5.16
679.885	5.78
680.209	5.08
680.532	6.27
680.856	5.77
681.18	5.78
681.504	5.5
681.828	5.4
682.152	5.87
682.475	5.45
682.799	6.05
683.122	5.55
683.446	5.58
683.769	5.68
684.093	5.7
684.416	6.19
684.739	5.72
685.062	5.95
685.386	4.96
685.709	5.76
686.032	5.78
686.355	5.52
686.678	5.16
687.001	5.01
687.324	5.88
687.646	6
687.969	5.82
688.292	6.16
688.614	6.55
688.937	5.84
689.26	6.27
689.582	5.59
689.904	6.06
690.227	6.51
690.549	5.83
690.871	6.48
691.194	6.17
691.516	5.52
691.838	6.44
692.16	5.98
692.482	6.22
692.804	5.68
693.126	5.65
693.448	5.89
