Data from 0174_forehead_Reflection__2__098.txt Node

Date: Mon Aug 28 19:29:19 CDT 2023
User: ToomeyLab
Spectrometer: FLMS14357
Trigger mode: 0
Integration Time (sec): 1.000000E-2
Scans to average: 100
Electric dark correction enabled: true
Nonlinearity correction enabled: false
Boxcar width: 0
XAxis mode: Wavelengths
Number of Pixels in Spectrum: 2048
>>>>>Begin Spectral Data<<<<<
189.047	-70.34
189.435	-70.34
189.823	-70.34
190.211	1569.77
190.599	-175.36
190.987	-153.56
191.375	-74.8
191.763	46.95
192.151	-62.58
192.538	152.22
192.926	217.06
193.314	-67.95
193.702	191.64
194.089	61.35
194.477	-4954.12
194.864	-85.33
195.252	98.09
195.639	-2792.31
196.027	54.1
196.414	-40.4
196.801	60.82
197.189	44.16
197.576	-22.21
197.963	31.87
198.351	38.13
198.738	75.16
199.125	22.67
199.512	62.32
199.899	12.29
200.286	170.4
200.673	20.34
201.06	-4.59
201.447	44.11
201.833	14.66
202.22	14.45
202.607	30.63
202.994	31.19
203.38	22.58
203.767	18.68
204.154	2.85
204.54	14.15
204.927	1.79
205.313	51.65
205.699	5.6
206.086	31.09
206.472	83.72
206.858	60.9
207.245	17.42
207.631	10.2
208.017	19.96
208.403	23.05
208.789	-2.82
209.175	-10.43
209.561	60.64
209.947	4.83
210.333	18.35
210.719	34.62
211.105	43.3
211.491	40.22
211.876	46.49
212.262	98
212.648	55.63
213.034	-6.33
213.419	10.08
213.805	14.22
214.19	9.9
214.576	70.49
214.961	-10.77
215.346	-3.35
215.732	36.39
216.117	4.2
216.502	35.44
216.888	29.23
217.273	9.41
217.658	26.01
218.043	6.49
218.428	10.71
218.813	10.47
219.198	36.87
219.583	17.97
219.968	21.6
220.353	13.54
220.738	40.17
221.122	17.28
221.507	14.18
221.892	12.42
222.276	34.59
222.661	13.6
223.046	30.15
223.43	14.12
223.815	11.41
224.199	22.33
224.583	4.98
224.968	11.47
225.352	12.47
225.736	9.33
226.121	14
226.505	8.22
226.889	11.6
227.273	11.63
227.657	9.28
228.041	9.06
228.425	10.53
228.809	8.47
229.193	8
229.577	9.85
229.961	6.04
230.344	6.95
230.728	6.86
231.112	6.28
231.495	6.5
231.879	5.94
232.263	5.86
232.646	6.75
233.03	8.52
233.413	8.71
233.797	7.07
234.18	5.94
234.563	6.86
234.946	10.22
235.33	5.55
235.713	4.13
236.096	6.49
236.479	6.04
236.862	7.72
237.245	9.05
237.628	8.49
238.011	11.37
238.394	8.5
238.777	8.96
239.16	5.8
239.543	8.69
239.925	9.31
240.308	6.82
240.691	6.89
241.073	7.23
241.456	6.25
241.838	7.38
242.221	7.96
242.603	7.15
242.986	7.64
243.368	6.05
243.75	6.65
244.133	6.56
244.515	6.24
244.897	6.36
245.279	6.98
245.661	6.31
246.043	7.14
246.425	6.8
246.807	7.33
247.189	5.97
247.571	6.99
247.953	6.51
248.335	6.73
248.717	6.77
249.098	6.38
249.48	6.31
249.862	6.36
250.243	6.26
250.625	6.76
251.006	6.79
251.388	6.57
251.769	7.57
252.151	6.93
252.532	6.42
252.913	7.67
253.295	5.8
253.676	6.54
254.057	6.76
254.438	6.23
254.819	5.86
255.2	7.02
255.581	7.23
255.962	7.37
256.343	7.56
256.724	5.62
257.105	6.36
257.486	8.27
257.867	6.56
258.247	7.18
258.628	8.44
259.009	6.19
259.389	5.87
259.77	7.26
260.15	6.26
260.531	6.57
260.911	6.64
261.292	6.45
261.672	6.32
262.052	6.01
262.432	6.23
262.813	6.17
263.193	6.19
263.573	6.68
263.953	6.52
264.333	5.98
264.713	6.53
265.093	6.35
265.473	7.12
265.853	6.39
266.233	5.89
266.612	7.03
266.992	6.15
267.372	6.08
267.752	7.58
268.131	6.78
268.511	6.36
268.89	6.55
269.27	5.84
269.649	6.39
270.029	7.04
270.408	7.12
270.787	7.08
271.167	6.78
271.546	6.46
271.925	6.73
272.304	6.58
272.683	6.17
273.062	6.27
273.441	6.2
273.82	5.98
274.199	6.13
274.578	6.4
274.957	6.82
275.336	6.62
275.715	6.47
276.093	5.78
276.472	6.02
276.851	6.34
277.229	6.67
277.608	6.27
277.986	6.25
278.365	6.31
278.743	6.27
279.122	6.67
279.5	6.06
279.878	5.84
280.257	5.87
280.635	6.92
281.013	6.13
281.391	6.07
281.769	6.13
282.147	6.65
282.525	6.56
282.903	6.39
283.281	5.96
283.659	6.39
284.037	6.78
284.415	6.51
284.792	6.6
285.17	5.95
285.548	6.44
285.925	6.61
286.303	6.5
286.68	6.94
287.058	6.63
287.435	6.31
287.813	6.31
288.19	6.54
288.567	6.59
288.945	6.74
289.322	6.41
289.699	6.83
290.076	7.28
290.453	7.01
290.83	6.19
291.207	6.62
291.584	6.63
291.961	7.12
292.338	6.59
292.715	6.81
293.092	6.99
293.469	6.7
293.845	7.05
294.222	7.17
294.599	7.11
294.975	8.01
295.352	7.3
295.728	7.34
296.105	7.06
296.481	7.49
296.858	7.38
297.234	7.34
297.61	7.69
297.986	7.46
298.363	7.84
298.739	7.57
299.115	7.53
299.491	7.74
299.867	7.59
300.243	7.99
300.619	8
300.995	7.97
301.371	8.12
301.746	8.19
302.122	8.05
302.498	8.51
302.874	8.68
303.249	8.37
303.625	8.49
304	8.28
304.376	8.42
304.751	8.3
305.127	9.13
305.502	9.05
305.878	8.9
306.253	8.64
306.628	9.06
307.003	9.24
307.378	9.1
307.754	9.83
308.129	9.24
308.504	9.6
308.879	9.65
309.254	9.8
309.629	9.72
310.003	9.67
310.378	9.62
310.753	10.05
311.128	9.87
311.502	9.95
311.877	10.02
312.252	10.13
312.626	10.57
313.001	10.47
313.375	10.11
313.75	10.27
314.124	10.2
314.498	10.33
314.873	11.04
315.247	10.79
315.621	10.21
315.995	11.06
316.369	11.2
316.743	10.64
317.117	10.99
317.491	10.59
317.865	10.99
318.239	10.63
318.613	11.14
318.987	11.16
319.361	11.55
319.734	11.66
320.108	11.67
320.482	11.95
320.855	12.19
321.229	11.45
321.602	12.23
321.976	11.64
322.349	12.4
322.723	11.98
323.096	12.7
323.469	11.65
323.843	11.95
324.216	12.76
324.589	12.94
324.962	12.62
325.335	13.19
325.708	12.9
326.081	12.86
326.454	13.25
326.827	13.05
327.2	12.8
327.573	13.19
327.945	13.54
328.318	13.43
328.691	12.93
329.063	13.33
329.436	13.27
329.809	14.19
330.181	13.76
330.553	14.05
330.926	13.89
331.298	14.04
331.671	13.85
332.043	14.33
332.415	14.77
332.787	14.1
333.159	14.21
333.532	14.47
333.904	14.67
334.276	15.21
334.648	14.29
335.02	15.19
335.391	15.15
335.763	14.51
336.135	15.19
336.507	14.92
336.879	14.76
337.25	15.59
337.622	15.29
337.993	15.79
338.365	15.51
338.736	15.76
339.108	14.46
339.479	15.45
339.851	15.92
340.222	15.76
340.593	15.79
340.964	16.2
341.336	15.66
341.707	16.05
342.078	15.7
342.449	16.35
342.82	15.94
343.191	16.19
343.562	16.24
343.933	16.23
344.303	16.27
344.674	16.29
345.045	16.76
345.416	16.98
345.786	16.98
346.157	17.23
346.527	16.83
346.898	16.95
347.268	17.03
347.639	16.99
348.009	17.23
348.38	17.61
348.75	17.39
349.12	17.36
349.49	17.52
349.861	17.13
350.231	17.15
350.601	18.08
350.971	17.97
351.341	18.07
351.711	18.25
352.081	18.36
352.45	18.62
352.82	18.35
353.19	18.8
353.56	18.28
353.929	18.54
354.299	18.48
354.669	18.55
355.038	18.84
355.408	19.55
355.777	18.79
356.147	18.73
356.516	18.99
356.885	19.08
357.254	18.91
357.624	18.62
357.993	19.46
358.362	19.42
358.731	19.59
359.1	20.01
359.469	19.67
359.838	19.22
360.207	19.96
360.576	19.64
360.945	20.23
361.314	19.85
361.682	20.06
362.051	20.38
362.42	20.36
362.788	20.45
363.157	20.52
363.525	20.28
363.894	20.6
364.262	20.57
364.631	19.98
364.999	20.62
365.367	20.91
365.735	21.02
366.104	20.89
366.472	21.51
366.84	21.25
367.208	21.45
367.576	21.27
367.944	21.64
368.312	21.42
368.68	21.3
369.048	21.71
369.416	21.54
369.783	21.73
370.151	22.17
370.519	22.13
370.886	21.96
371.254	22
371.621	22.55
371.989	22.16
372.356	22.63
372.724	22.65
373.091	23
373.458	22.58
373.826	23.08
374.193	22.83
374.56	22.58
374.927	22.9
375.294	23.14
375.661	23.58
376.028	23.33
376.395	23.32
376.762	23.84
377.129	23.57
377.496	23.38
377.863	23.74
378.229	23.85
378.596	23.95
378.963	24.08
379.329	24.14
379.696	24.15
380.062	24.15
380.429	23.91
380.795	24.37
381.161	24.54
381.528	24.8
381.894	24.86
382.26	25.09
382.626	24.98
382.993	25.38
383.359	25.27
383.725	25.27
384.091	25.2
384.457	25.42
384.823	25.53
385.188	25.68
385.554	25.29
385.92	25.65
386.286	25.98
386.651	25.81
387.017	26.1
387.383	25.82
387.748	26.12
388.114	25.89
388.479	26.13
388.845	26.38
389.21	26.23
389.575	26.39
389.94	26.36
390.306	26.7
390.671	26.39
391.036	26.56
391.401	27.02
391.766	27
392.131	27.29
392.496	27.1
392.861	27.01
393.226	27.36
393.591	27.11
393.956	27.39
394.32	27.3
394.685	27.3
395.05	27.49
395.414	27.94
395.779	27.9
396.143	27.79
396.508	27.84
396.872	28.42
397.236	27.87
397.601	27.99
397.965	28.69
398.329	28.23
398.694	28.37
399.058	28.5
399.422	28.69
399.786	28.69
400.15	28.77
400.514	29.05
400.878	28.87
401.242	28.89
401.605	29.15
401.969	29.08
402.333	29.28
402.697	29.43
403.06	29.74
403.424	29.98
403.787	29.72
404.151	29.85
404.514	29.78
404.878	29.89
405.241	30.24
405.604	30.13
405.968	29.93
406.331	30.41
406.694	30.36
407.057	30.35
407.42	30.08
407.783	30.46
408.146	30.51
408.509	30.94
408.872	30.74
409.235	30.83
409.598	30.76
409.961	30.92
410.323	31.12
410.686	31.42
411.049	31.46
411.411	31.63
411.774	31.77
412.136	31.49
412.499	31.79
412.861	31.76
413.223	32.06
413.586	31.78
413.948	32.23
414.31	32.19
414.672	32.17
415.035	32.17
415.397	32.34
415.759	32.34
416.121	32.74
416.483	32.36
416.845	32.74
417.206	32.68
417.568	32.73
417.93	32.54
418.292	32.81
418.653	32.79
419.015	32.73
419.377	32.96
419.738	33.14
420.1	32.95
420.461	33.03
420.822	33.02
421.184	33.15
421.545	33.07
421.906	33.19
422.267	33.23
422.629	33.18
422.99	33.24
423.351	33.14
423.712	33.15
424.073	33.13
424.434	33.43
424.795	33.55
425.155	33.92
425.516	33.7
425.877	33.76
426.238	33.67
426.598	33.66
426.959	33.92
427.32	33.75
427.68	33.99
428.041	34.1
428.401	34.53
428.761	34.66
429.122	34.68
429.482	34.97
429.842	35.12
430.202	35.23
430.563	35.55
430.923	35.32
431.283	35.29
431.643	35.35
432.003	35.63
432.363	35.75
432.722	35.62
433.082	35.77
433.442	36.1
433.802	35.8
434.161	36.07
434.521	35.99
434.881	35.9
435.24	35.87
435.6	36.12
435.959	35.98
436.319	36.13
436.678	36.31
437.037	36.19
437.396	36.71
437.756	36.88
438.115	36.71
438.474	36.99
438.833	37.02
439.192	37.14
439.551	36.89
439.91	37.36
440.269	37.28
440.628	37.39
440.987	37.34
441.345	37.28
441.704	37.34
442.063	37.17
442.421	37.27
442.78	37.35
443.138	37.33
443.497	37.45
443.855	37.28
444.214	37.66
444.572	37.73
444.93	38.02
445.288	38.08
445.647	38.39
446.005	38.33
446.363	38.43
446.721	38.38
447.079	38.49
447.437	38.43
447.795	38.13
448.153	37.99
448.51	37.92
448.868	37.96
449.226	38.22
449.584	38.34
449.941	38.49
450.299	38.69
450.656	38.71
451.014	39.02
451.371	39.06
451.729	39.36
452.086	39.42
452.443	39.67
452.801	39.6
453.158	39.85
453.515	39.76
453.872	39.78
454.229	40.01
454.586	39.99
454.943	39.84
455.3	39.85
455.657	39.9
456.014	39.87
456.371	40.14
456.727	40.39
457.084	40.18
457.441	40.49
457.797	40.56
458.154	40.49
458.51	40.99
458.867	40.85
459.223	40.78
459.58	41.01
459.936	40.97
460.292	40.99
460.648	41.05
461.005	40.94
461.361	41.1
461.717	40.79
462.073	40.56
462.429	40.29
462.785	40.44
463.141	40.59
463.496	40.61
463.852	41.01
464.208	41.35
464.564	41.68
464.919	41.66
465.275	42.09
465.631	41.68
465.986	42.53
466.342	42.41
466.697	42.12
467.052	42.26
467.408	42.07
467.763	42.29
468.118	42.19
468.473	42.43
468.829	42.5
469.184	42.42
469.539	42.31
469.894	42.52
470.249	42.56
470.603	42.45
470.958	42.66
471.313	42.69
471.668	42.74
472.023	43.15
472.377	42.9
472.732	43.09
473.086	43.4
473.441	43.26
473.795	43.44
474.15	43.65
474.504	43.8
474.859	43.36
475.213	43.42
475.567	43.72
475.921	43.61
476.275	43.52
476.63	43.84
476.984	43.82
477.338	44.2
477.692	44.07
478.045	44.47
478.399	44.16
478.753	44.05
479.107	44.3
479.461	44.3
479.814	44.3
480.168	44.08
480.521	44.19
480.875	44.21
481.228	44.21
481.582	44.07
481.935	44.28
482.289	44.45
482.642	44.74
482.995	44.78
483.348	44.49
483.701	44.82
484.055	44.54
484.408	44.54
484.761	44.57
485.114	44.89
485.466	44.46
485.819	44.46
486.172	43.99
486.525	43.58
486.878	43.22
487.23	42.91
487.583	43.17
487.936	43.59
488.288	44.25
488.641	44.64
488.993	44.78
489.345	44.71
489.698	44.58
490.05	44.33
490.402	44.18
490.754	44.09
491.107	44.05
491.459	44.33
491.811	44.71
492.163	45.36
492.515	45.77
492.866	45.79
493.218	45.7
493.57	45.48
493.922	45.03
494.274	44.83
494.625	44.6
494.977	44.67
495.328	45.04
495.68	45.32
496.031	45.94
496.383	46.1
496.734	46.66
497.086	46.83
497.437	46.87
497.788	46.94
498.139	47.01
498.49	47.08
498.842	46.96
499.193	46.64
499.544	46.57
499.894	46.28
500.245	46.74
500.596	46.67
500.947	46.88
501.298	46.91
501.648	46.95
501.999	47.25
502.35	47.36
502.7	47.27
503.051	47.7
503.401	47.26
503.752	47.61
504.102	47.63
504.452	47.89
504.803	48.02
505.153	47.53
505.503	47.83
505.853	48.02
506.203	48.24
506.553	47.98
506.903	47.94
507.253	48.03
507.603	47.8
507.953	48.1
508.303	48.17
508.652	48.58
509.002	48.4
509.352	48.31
509.701	48.34
510.051	48.32
510.4	48.46
510.75	48.14
511.099	48.32
511.449	48.2
511.798	48.3
512.147	48.52
512.496	48.48
512.846	48.59
513.195	48.56
513.544	48.87
513.893	48.84
514.242	48.92
514.591	48.7
514.939	48.79
515.288	48.91
515.637	49.16
515.986	48.99
516.334	49.17
516.683	49.17
517.032	49.31
517.38	49.72
517.729	49.65
518.077	49.55
518.426	49.41
518.774	49.68
519.122	49.75
519.47	49.57
519.819	49.67
520.167	49.48
520.515	49.34
520.863	49.15
521.211	49.22
521.559	49.02
521.907	48.95
522.255	48.96
522.602	49.36
522.95	49.54
523.298	49.93
523.645	50.09
523.993	50.07
524.341	50.12
524.688	50.53
525.036	50.42
525.383	50.39
525.73	50.61
526.078	50.67
526.425	50.53
526.772	50.67
527.119	50.74
527.466	50.44
527.814	50.13
528.161	50.08
528.508	49.87
528.854	49.93
529.201	50.19
529.548	50.37
529.895	50.62
530.242	50.64
530.588	50.3
530.935	49.89
531.282	49.44
531.628	49.11
531.975	48.9
532.321	48.95
532.667	49.26
533.014	49.85
533.36	50.1
533.706	50.26
534.052	50.79
534.399	50.84
534.745	50.99
535.091	51.04
535.437	50.66
535.783	50.39
536.129	50.11
536.474	50.03
536.82	50.16
537.166	50.51
537.512	50.76
537.857	51.43
538.203	51.58
538.549	51.54
538.894	51.05
539.239	51.06
539.585	50.88
539.93	50.95
540.276	51.01
540.621	51.28
540.966	51.76
541.311	51.99
541.656	52.14
542.001	52.3
542.346	52.67
542.691	52.67
543.036	52.22
543.381	51.68
543.726	51.23
544.071	50.93
544.415	50.72
544.76	50.98
545.105	51.09
545.449	51.39
545.794	51.49
546.138	51.58
546.483	51.73
546.827	52.05
547.171	52.41
547.516	52.42
547.86	52.6
548.204	52.64
548.548	52.58
548.892	52.53
549.236	52.28
549.58	52.33
549.924	52.48
550.268	52.59
550.612	52.5
550.956	53.02
551.3	52.87
551.643	53.41
551.987	53.26
552.33	53.41
552.674	53.55
553.017	53.61
553.361	53.66
553.704	53.74
554.048	53.84
554.391	53.62
554.734	53.71
555.077	53.22
555.42	53.43
555.764	53.5
556.107	53.73
556.45	53.6
556.793	53.93
557.135	53.98
557.478	53.86
557.821	54.06
558.164	53.97
558.507	54.32
558.849	54.43
559.192	54.38
559.534	54.34
559.877	54.55
560.219	54.49
560.562	54.48
560.904	54.33
561.246	54.71
561.589	54.76
561.931	54.52
562.273	54.37
562.615	54.8
562.957	54.6
563.299	54.72
563.641	54.61
563.983	54.63
564.325	54.74
564.667	54.83
565.008	54.67
565.35	54.71
565.692	55.09
566.033	55.18
566.375	55.2
566.716	55.37
567.058	55.46
567.399	55.12
567.741	55.02
568.082	55.09
568.423	54.91
568.764	54.62
569.105	54.89
569.447	54.66
569.788	54.6
570.129	54.93
570.47	55.33
570.811	55.52
571.151	55.5
571.492	54.99
571.833	55.12
572.174	55.77
572.514	55.55
572.855	55.5
573.195	55.52
573.536	55.48
573.876	55.43
574.217	55.42
574.557	55.19
574.898	55.35
575.238	55.18
575.578	55.26
575.918	55.21
576.258	55.62
576.598	55.64
576.938	55.61
577.278	55.95
577.618	55.92
577.958	55.67
578.298	55.74
578.638	55.84
578.977	55.7
579.317	55.98
579.657	55.83
579.996	56.09
580.336	55.98
580.675	56.33
581.014	56.8
581.354	56.42
581.693	56.52
582.032	56.48
582.372	56.81
582.711	56.57
583.05	56.5
583.389	57.09
583.728	56.59
584.067	56.81
584.406	56.9
584.745	56.57
585.083	57.07
585.422	57.22
585.761	57.07
586.1	56.74
586.438	57.04
586.777	57.2
587.115	56.94
587.454	57.12
587.792	57.78
588.13	57.07
588.469	57.1
588.807	56.94
589.145	57.25
589.483	57.16
589.821	57.17
590.159	57.31
590.497	57.41
590.835	57.16
591.173	57.31
591.511	57.14
591.849	57.46
592.187	57.38
592.524	57.23
592.862	57.13
593.2	57.06
593.537	57.06
593.875	57.79
594.212	57.56
594.55	57.46
594.887	57.85
595.224	58.14
595.561	57.74
595.899	57.72
596.236	58.12
596.573	57.9
596.91	57.79
597.247	57.88
597.584	57.75
597.921	57.77
598.258	58.09
598.594	57.97
598.931	57.96
599.268	57.46
599.604	57.29
599.941	57.23
600.277	57.03
600.614	57.56
600.95	57.48
601.287	57.68
601.623	58.04
601.959	58.35
602.296	58.13
602.632	58.39
602.968	58.67
603.304	58.28
603.64	58.17
603.976	58.02
604.312	58.66
604.648	58.62
604.984	58.81
605.319	58.5
605.655	58.05
605.991	58.27
606.326	58.16
606.662	57.91
606.998	57.77
607.333	57.57
607.668	57.75
608.004	57.81
608.339	57.85
608.674	57.89
609.01	58.38
609.345	58.72
609.68	58.51
610.015	58.86
610.35	58.79
610.685	58.94
611.02	59.14
611.355	59.13
611.689	58.37
612.024	58.5
612.359	58.59
612.694	58.38
613.028	58.62
613.363	58.28
613.697	58.47
614.032	59.06
614.366	58.65
614.7	59.07
615.035	59.02
615.369	59.24
615.703	59.09
616.037	59.21
616.371	59.11
616.705	59.37
617.039	59.63
617.373	59.32
617.707	59.26
618.041	59
618.375	59.27
618.709	59.05
619.042	59.72
619.376	59.87
619.71	59.45
620.043	59.42
620.377	60.05
620.71	59.29
621.043	59.97
621.377	59.61
621.71	59.53
622.043	58.82
622.376	59.98
622.709	59.51
623.043	59.65
623.376	59.94
623.709	59.85
624.041	60.24
624.374	60
624.707	59.71
625.04	60.48
625.373	59.87
625.705	60.23
626.038	60.4
626.37	60.25
626.703	60.15
627.035	60.16
627.368	60.44
627.7	60.55
628.032	60.72
628.365	60.44
628.697	60.05
629.029	59.89
629.361	59.78
629.693	60.08
630.025	60.03
630.357	59.92
630.689	60.12
631.021	59.89
631.353	60.34
631.684	60.14
632.016	60.42
632.348	60.42
632.679	60.2
633.011	59.99
633.342	60.87
633.674	60.65
634.005	60.48
634.336	60.27
634.668	61.08
634.999	60.74
635.33	60.4
635.661	60.86
635.992	60.67
636.323	61.02
636.654	60.61
636.985	60.86
637.316	60.31
637.647	60.17
637.977	60.35
638.308	60.96
638.639	60.81
638.969	60.44
639.3	60.89
639.63	60.85
639.961	60.89
640.291	60.95
640.622	61.2
640.952	61.36
641.282	61.34
641.612	61.16
641.943	61.15
642.273	61.81
642.603	60.48
642.933	60.74
643.263	61.39
643.592	61.22
643.922	61.87
644.252	61.2
644.582	61.8
644.911	61.77
645.241	61.55
645.571	61.18
645.9	61.78
646.23	61.22
646.559	61.5
646.888	62.25
647.218	61.85
647.547	61.28
647.876	61.59
648.205	61.16
648.534	62.14
648.863	61.66
649.192	61.43
649.521	61.5
649.85	61.59
650.179	61.74
650.508	61.93
650.837	61.46
651.165	61.77
651.494	61.19
651.822	62.04
652.151	61.24
652.479	61.9
652.808	61.73
653.136	61.58
653.465	61.77
653.793	62.56
654.121	62.73
654.449	62.18
654.777	61.4
655.105	61.9
655.433	61.74
655.761	61.73
656.089	62.48
656.417	61.89
656.745	61.63
657.073	62.35
657.4	61.41
657.728	62.34
658.056	61.88
658.383	62.12
658.711	62.86
659.038	62.41
659.365	62.62
659.693	61.95
660.02	61.88
660.347	62.28
660.674	62.68
661.001	62.34
661.329	62.45
661.656	62.28
661.982	61.79
662.309	61.92
662.636	62.05
662.963	61.84
663.29	62.67
663.616	62.38
663.943	62.16
664.27	62.16
664.596	61.87
664.923	62.56
665.249	62.71
665.576	62.58
665.902	62.19
666.228	62.16
666.554	62.18
666.881	62.76
667.207	61.4
667.533	62.75
667.859	62.77
668.185	63.04
668.511	63.42
