Data from 0174_chest_Reflection__2__093.txt Node

Date: Mon Aug 28 19:27:14 CDT 2023
User: ToomeyLab
Spectrometer: FLMS14357
Trigger mode: 0
Integration Time (sec): 1.000000E-2
Scans to average: 100
Electric dark correction enabled: true
Nonlinearity correction enabled: false
Boxcar width: 0
XAxis mode: Wavelengths
Number of Pixels in Spectrum: 2048
>>>>>Begin Spectral Data<<<<<
189.047	-171.81
189.435	-171.81
189.823	-171.81
190.211	-7686.05
190.599	-160.69
190.987	5.3
191.375	4.11
191.763	31.39
192.151	-25.44
192.538	118.79
192.926	102.81
193.314	-489.62
193.702	85.63
194.089	61.45
194.477	-1495.29
194.864	-518.86
195.252	8.74
195.639	-3438.46
196.027	104.57
196.414	357.8
196.801	137.24
197.189	110.89
197.576	278.18
197.963	-7.74
198.351	47.71
198.738	55.87
199.125	3.01
199.512	-5.54
199.899	27.59
200.286	-22.75
200.673	-1.33
201.06	-28.77
201.447	-32.66
201.833	6.77
202.22	-7.47
202.607	-16.3
202.994	3.18
203.38	-27.68
203.767	10.46
204.154	24.77
204.54	-14.38
204.927	-31.66
205.313	23.15
205.699	-44.33
206.086	4.11
206.472	11.36
206.858	-17.71
207.245	-6.17
207.631	7.23
208.017	-2.23
208.403	-14.24
208.789	-5.52
209.175	-3.14
209.561	-13.48
209.947	15.74
210.333	-22.66
210.719	28.32
211.105	9.86
211.491	-12.96
211.876	10.71
212.262	4.18
212.648	-0.77
213.034	-20.68
213.419	-13.09
213.805	-23.7
214.19	-24.95
214.576	5.7
214.961	28.2
215.346	-5.3
215.732	-0.04
216.117	-36.35
216.502	-1.95
216.888	-43.88
217.273	-8.99
217.658	46.38
218.043	-9.5
218.428	-23.08
218.813	-35.52
219.198	1.69
219.583	3.65
219.968	23.85
220.353	0.79
220.738	-4.04
221.122	0.04
221.507	-22.84
221.892	1.7
222.276	-7.53
222.661	5.22
223.046	11.01
223.43	-3.24
223.815	5.95
224.199	4.29
224.583	-2.85
224.968	-5.88
225.352	0.52
225.736	-0.69
226.121	10.71
226.505	4.32
226.889	-1.8
227.273	7.1
227.657	-2.68
228.041	5.34
228.425	0.85
228.809	0.74
229.193	6.04
229.577	3.5
229.961	1.56
230.344	3.68
230.728	3.63
231.112	4
231.495	3.89
231.879	2.94
232.263	3.17
232.646	4.54
233.03	4.44
233.413	6.6
233.797	3.11
234.18	2.45
234.563	3.57
234.946	7.85
235.33	4.63
235.713	1.43
236.096	5.37
236.479	3.45
236.862	2.79
237.245	3.76
237.628	3.83
238.011	5.5
238.394	4.01
238.777	5.97
239.16	3.52
239.543	1.32
239.925	4.14
240.308	3.74
240.691	3.46
241.073	1.04
241.456	4.12
241.838	3.4
242.221	4.89
242.603	4.42
242.986	4.39
243.368	3.22
243.75	3.82
244.133	3.43
244.515	3.39
244.897	4.03
245.279	4.01
245.661	3.61
246.043	4.24
246.425	2.78
246.807	5.17
247.189	3.11
247.571	4.74
247.953	3.67
248.335	3.91
248.717	3.71
249.098	3.7
249.48	3.82
249.862	3.82
250.243	3.39
250.625	4.02
251.006	3.58
251.388	3.58
251.769	3.56
252.151	3.23
252.532	3.51
252.913	4.05
253.295	2.51
253.676	3.77
254.057	3.56
254.438	3.48
254.819	3.45
255.2	3.82
255.581	2.87
255.962	4.89
256.343	4.24
256.724	3.43
257.105	2.28
257.486	3.67
257.867	3.61
258.247	3.45
258.628	4.11
259.009	3.47
259.389	2.84
259.77	3.76
260.15	2.53
260.531	3.11
260.911	3.27
261.292	3.17
261.672	3.43
262.052	3.19
262.432	3.36
262.813	3.44
263.193	3.39
263.573	3.03
263.953	3.2
264.333	3.46
264.713	3.08
265.093	3.93
265.473	2.97
265.853	2.84
266.233	3.31
266.612	3.41
266.992	3.12
267.372	2.52
267.752	4.39
268.131	3.76
268.511	3.11
268.89	3.63
269.27	2.9
269.649	3.22
270.029	3.27
270.408	3.3
270.787	3.68
271.167	3.08
271.546	3.15
271.925	3.29
272.304	3.68
272.683	3.42
273.062	3.13
273.441	3.34
273.82	3.34
274.199	2.8
274.578	3.28
274.957	3.25
275.336	3.37
275.715	3.34
276.093	2.8
276.472	2.75
276.851	2.78
277.229	3.6
277.608	3.42
277.986	2.85
278.365	3.31
278.743	2.93
279.122	3.44
279.5	2.63
279.878	2.51
280.257	2.85
280.635	2.9
281.013	3.75
281.391	3.02
281.769	2.92
282.147	3.12
282.525	3.28
282.903	3.6
283.281	3.17
283.659	3.61
284.037	3.45
284.415	3.1
284.792	3.03
285.17	2.73
285.548	2.87
285.925	3.62
286.303	2.71
286.68	3.27
287.058	3.24
287.435	2.93
287.813	2.53
288.19	3.59
288.567	3.12
288.945	3.4
289.322	3.1
289.699	3.22
290.076	3.06
290.453	3.14
290.83	2.69
291.207	3.25
291.584	3.04
291.961	3.63
292.338	2.84
292.715	2.78
293.092	3.34
293.469	3.35
293.845	2.62
294.222	3.55
294.599	3.51
294.975	3.53
295.352	2.66
295.728	3.03
296.105	3.07
296.481	3.45
296.858	3.54
297.234	3.43
297.61	3.15
297.986	3.32
298.363	3.66
298.739	3.14
299.115	2.89
299.491	3.27
299.867	3.19
300.243	3.52
300.619	3.59
300.995	3.58
301.371	3.66
301.746	3.52
302.122	3.31
302.498	3.23
302.874	3.6
303.249	3.44
303.625	3.13
304	3.63
304.376	3.31
304.751	3.41
305.127	3.26
305.502	3.6
305.878	2.71
306.253	3
306.628	3.31
307.003	3.18
307.378	3.69
307.754	3.49
308.129	2.84
308.504	3.71
308.879	3.69
309.254	3.47
309.629	3
310.003	3.21
310.378	2.77
310.753	3.57
311.128	3.38
311.502	3.37
311.877	2.99
312.252	3.54
312.626	3.38
313.001	3.27
313.375	3.75
313.75	3.09
314.124	3.26
314.498	3.34
314.873	3.57
315.247	3.49
315.621	2.77
315.995	3.74
316.369	3.27
316.743	3.21
317.117	3.24
317.491	2.66
317.865	2.87
318.239	2.92
318.613	3.69
318.987	3.47
319.361	3.39
319.734	3.26
320.108	3.55
320.482	3.48
320.855	2.58
321.229	3.11
321.602	3.44
321.976	2.96
322.349	3.72
322.723	2.76
323.096	3.74
323.469	3.57
323.843	3.51
324.216	3.39
324.589	3.31
324.962	3.68
325.335	3.37
325.708	2.37
326.081	3.37
326.454	3.3
326.827	3.42
327.2	3.27
327.573	3.08
327.945	3.31
328.318	3.42
328.691	2.92
329.063	2.99
329.436	3.28
329.809	4.01
330.181	2.66
330.553	3.19
330.926	3.4
331.298	3.55
331.671	3.21
332.043	3.3
332.415	3.69
332.787	2.78
333.159	3.45
333.532	4.18
333.904	3.45
334.276	3.3
334.648	3.45
335.02	3.72
335.391	3.07
335.763	3.3
336.135	3.35
336.507	3.17
336.879	3.04
337.25	3.44
337.622	3.26
337.993	3.79
338.365	3.29
338.736	3.62
339.108	3.43
339.479	3.03
339.851	3.86
340.222	3.48
340.593	3.06
340.964	3.83
341.336	3.14
341.707	3.18
342.078	2.87
342.449	3.33
342.82	3.51
343.191	3.34
343.562	3.03
343.933	2.97
344.303	3.1
344.674	3.25
345.045	3.42
345.416	3.65
345.786	3.3
346.157	3.68
346.527	3.37
346.898	3.06
347.268	3.08
347.639	3.18
348.009	2.95
348.38	3.51
348.75	3.64
349.12	3.59
349.49	3.22
349.861	2.83
350.231	2.91
350.601	3.36
350.971	3.74
351.341	3.57
351.711	3.7
352.081	3.56
352.45	3.39
352.82	3.28
353.19	4.17
353.56	3.42
353.929	3.42
354.299	3.06
354.669	3.52
355.038	3.47
355.408	3.62
355.777	3.3
356.147	3.51
356.516	3.48
356.885	3.73
357.254	3.23
357.624	3.43
357.993	3.77
358.362	3.34
358.731	3.53
359.1	3.65
359.469	3.7
359.838	3.19
360.207	3.46
360.576	3.29
360.945	3.53
361.314	3.39
361.682	3.32
362.051	3.76
362.42	3.2
362.788	3.46
363.157	3.4
363.525	3.26
363.894	3.63
364.262	3.42
364.631	3.3
364.999	3.32
365.367	3.48
365.735	3.52
366.104	3.28
366.472	3.32
366.84	3.24
367.208	3.53
367.576	3.44
367.944	3.74
368.312	3.54
368.68	3.32
369.048	3.52
369.416	3.44
369.783	3.35
370.151	3.46
370.519	3.45
370.886	3.38
371.254	3.18
371.621	3.09
371.989	3.26
372.356	3.33
372.724	3.88
373.091	3.81
373.458	3.3
373.826	3.53
374.193	3.41
374.56	3.59
374.927	3.07
375.294	3.84
375.661	3.5
376.028	3.25
376.395	3.14
376.762	3.47
377.129	3.3
377.496	3.4
377.863	3.57
378.229	3.59
378.596	3.57
378.963	3.78
379.329	3.72
379.696	3.42
380.062	3.3
380.429	3.32
380.795	3.62
381.161	3.59
381.528	3.7
381.894	3.62
382.26	3.64
382.626	3.6
382.993	3.73
383.359	3.5
383.725	3.67
384.091	3.55
384.457	3.55
384.823	3.31
385.188	3.75
385.554	3.6
385.92	3.61
386.286	3.64
386.651	3.45
387.017	3.78
387.383	3.64
387.748	3.5
388.114	3.35
388.479	3.27
388.845	3.52
389.21	3.47
389.575	3.63
389.94	3.53
390.306	3.44
390.671	3.45
391.036	3.61
391.401	3.7
391.766	3.54
392.131	3.69
392.496	3.5
392.861	3.34
393.226	3.66
393.591	3.36
393.956	3.6
394.32	3.48
394.685	3.57
395.05	3.7
395.414	3.52
395.779	3.61
396.143	3.8
396.508	3.45
396.872	3.72
397.236	3.57
397.601	3.51
397.965	3.68
398.329	3.75
398.694	3.66
399.058	3.62
399.422	3.69
399.786	3.55
400.15	3.77
400.514	3.8
400.878	3.61
401.242	3.49
401.605	3.88
401.969	3.45
402.333	3.49
402.697	3.53
403.06	3.72
403.424	3.8
403.787	3.58
404.151	3.6
404.514	3.66
404.878	3.5
405.241	3.6
405.604	3.7
405.968	3.65
406.331	3.63
406.694	3.58
407.057	3.68
407.42	3.61
407.783	3.48
408.146	3.47
408.509	3.83
408.872	3.6
409.235	3.66
409.598	3.66
409.961	3.41
410.323	3.88
410.686	3.78
411.049	3.85
411.411	3.63
411.774	3.64
412.136	3.54
412.499	3.62
412.861	3.52
413.223	3.7
413.586	3.62
413.948	3.66
414.31	3.72
414.672	3.47
415.035	3.85
415.397	3.59
415.759	3.48
416.121	3.86
416.483	3.52
416.845	3.78
417.206	4.01
417.568	3.77
417.93	3.62
418.292	3.78
418.653	3.66
419.015	3.64
419.377	3.53
419.738	3.91
420.1	3.66
420.461	3.76
420.822	3.62
421.184	3.64
421.545	3.75
421.906	3.7
422.267	3.7
422.629	3.65
422.99	3.54
423.351	3.68
423.712	3.65
424.073	3.68
424.434	3.68
424.795	3.67
425.155	3.58
425.516	3.59
425.877	3.55
426.238	3.59
426.598	3.55
426.959	3.64
427.32	3.68
427.68	3.66
428.041	3.6
428.401	3.59
428.761	3.61
429.122	3.63
429.482	3.68
429.842	3.91
430.202	3.64
430.563	3.66
430.923	3.92
431.283	3.64
431.643	3.47
432.003	3.73
432.363	3.7
432.722	3.75
433.082	3.53
433.442	3.79
433.802	3.68
434.161	3.79
434.521	3.74
434.881	3.7
435.24	3.68
435.6	3.65
435.959	3.62
436.319	3.81
436.678	3.84
437.037	3.71
437.396	3.85
437.756	3.74
438.115	3.75
438.474	3.88
438.833	3.93
439.192	3.78
439.551	3.76
439.91	3.88
440.269	3.66
440.628	3.75
440.987	3.67
441.345	3.65
441.704	3.8
442.063	3.73
442.421	3.86
442.78	3.82
443.138	3.61
443.497	3.74
443.855	3.76
444.214	3.84
444.572	3.81
444.93	3.89
445.288	3.86
445.647	3.78
446.005	3.81
446.363	3.86
446.721	3.95
447.079	3.75
447.437	3.68
447.795	3.64
448.153	3.8
448.51	3.74
448.868	3.72
449.226	3.66
449.584	3.7
449.941	3.76
450.299	3.85
450.656	3.82
451.014	3.78
451.371	3.85
451.729	3.68
452.086	3.7
452.443	3.91
452.801	3.86
453.158	4.01
453.515	3.9
453.872	3.77
454.229	3.93
454.586	3.91
454.943	3.93
455.3	3.77
455.657	3.95
456.014	3.89
456.371	3.9
456.727	3.89
457.084	3.79
457.441	3.81
457.797	3.85
458.154	3.9
458.51	3.99
458.867	3.71
459.223	3.89
459.58	3.78
459.936	3.93
460.292	3.92
460.648	3.8
461.005	3.78
461.361	3.82
461.717	3.79
462.073	3.83
462.429	3.7
462.785	3.8
463.141	3.82
463.496	3.88
463.852	3.97
464.208	3.74
464.564	3.87
464.919	3.97
465.275	4.07
465.631	3.84
465.986	4
466.342	3.91
466.697	3.79
467.052	3.93
467.408	3.94
467.763	3.86
468.118	3.78
468.473	3.91
468.829	3.88
469.184	3.79
469.539	4
469.894	3.86
470.249	3.95
470.603	3.81
470.958	3.81
471.313	3.97
471.668	3.86
472.023	4.03
472.377	3.9
472.732	4.02
473.086	3.89
473.441	3.82
473.795	3.92
474.15	4.02
474.504	4.03
474.859	3.87
475.213	4.03
475.567	3.93
475.921	4.04
476.275	3.98
476.63	3.97
476.984	3.98
477.338	4.12
477.692	4.05
478.045	4.11
478.399	3.98
478.753	3.9
479.107	3.85
479.461	3.87
479.814	4.11
480.168	4.09
480.521	3.93
480.875	4.05
481.228	3.93
481.582	3.96
481.935	3.93
482.289	4.07
482.642	4.07
482.995	4.16
483.348	4.01
483.701	3.95
484.055	3.86
484.408	3.92
484.761	3.93
485.114	3.86
485.466	3.83
485.819	3.71
486.172	3.69
486.525	3.72
486.878	3.75
487.23	3.81
487.583	3.9
487.936	3.96
488.288	3.93
488.641	3.98
488.993	3.94
489.345	3.88
489.698	3.87
490.05	3.85
490.402	3.8
490.754	3.88
491.107	3.91
491.459	3.91
491.811	3.92
492.163	4.12
492.515	4.15
492.866	4.13
493.218	3.98
493.57	3.97
493.922	3.81
494.274	3.88
494.625	3.86
494.977	4.07
495.328	3.99
495.68	4.1
496.031	4.1
496.383	4.08
496.734	4.11
497.086	4.14
497.437	4.23
497.788	4.15
498.139	4.06
498.49	4.01
498.842	4.01
499.193	4.06
499.544	4.12
499.894	4.13
500.245	4.1
500.596	4.1
500.947	4.12
501.298	4.15
501.648	4.11
501.999	4.26
502.35	4.16
502.7	4.22
503.051	4.25
503.401	4.25
503.752	4.07
504.102	4.22
504.452	4.16
504.803	4.28
505.153	4.15
505.503	4.09
505.853	4.2
506.203	4.24
506.553	4.21
506.903	4.26
507.253	4.26
507.603	4.17
507.953	4.18
508.303	4.31
508.652	4.24
509.002	4.32
509.352	4.16
509.701	4.24
510.051	4.29
510.4	4.16
510.75	4.3
511.099	4.2
511.449	4.18
511.798	4.13
512.147	4.27
512.496	4.29
512.846	4.23
513.195	4.29
513.544	4.35
513.893	4.25
514.242	4.25
514.591	4.35
514.939	4.21
515.288	4.26
515.637	4.43
515.986	4.29
516.334	4.43
516.683	4.31
517.032	4.41
517.38	4.41
517.729	4.35
518.077	4.34
518.426	4.28
518.774	4.34
519.122	4.43
519.47	4.35
519.819	4.45
520.167	4.37
520.515	4.39
520.863	4.31
521.211	4.23
521.559	4.32
521.907	4.42
522.255	4.27
522.602	4.41
522.95	4.53
523.298	4.52
523.645	4.55
523.993	4.42
524.341	4.46
524.688	4.53
525.036	4.55
525.383	4.63
525.73	4.57
526.078	4.65
526.425	4.66
526.772	4.51
527.119	4.54
527.466	4.47
527.814	4.38
528.161	4.39
528.508	4.43
528.854	4.44
529.201	4.6
529.548	4.46
529.895	4.53
530.242	4.44
530.588	4.36
530.935	4.28
531.282	4.32
531.628	4.31
531.975	4.38
532.321	4.41
532.667	4.49
533.014	4.56
533.36	4.59
533.706	4.57
534.052	4.52
534.399	4.6
534.745	4.61
535.091	4.6
535.437	4.52
535.783	4.54
536.129	4.52
536.474	4.6
536.82	4.61
537.166	4.64
537.512	4.73
537.857	4.78
538.203	4.73
538.549	4.7
538.894	4.69
539.239	4.66
539.585	4.6
539.93	4.76
540.276	4.83
540.621	4.83
540.966	4.84
541.311	4.94
541.656	5.01
542.001	4.85
542.346	4.86
542.691	4.89
543.036	4.85
543.381	4.67
543.726	4.68
544.071	4.74
544.415	4.79
544.76	4.78
545.105	4.84
545.449	4.81
545.794	4.86
546.138	4.99
546.483	5.01
546.827	4.93
547.171	4.95
547.516	4.94
547.86	4.99
548.204	5.11
548.548	5.1
548.892	4.94
549.236	4.97
549.58	4.95
549.924	5.04
550.268	5.14
550.612	5.11
550.956	5.14
551.3	5.08
551.643	5.38
551.987	5.09
552.33	5.38
552.674	5.25
553.017	5.23
553.361	5.41
553.704	5.06
554.048	5.45
554.391	5.14
554.734	5.34
555.077	5.15
555.42	5.33
555.764	5.37
556.107	5.32
556.45	5.23
556.793	5.32
557.135	5.31
557.478	5.47
557.821	5.39
558.164	5.64
558.507	5.48
558.849	5.63
559.192	5.47
559.534	5.37
559.877	5.56
560.219	5.67
560.562	5.64
560.904	5.71
561.246	5.4
561.589	5.51
561.931	5.69
562.273	5.6
562.615	5.63
562.957	5.78
563.299	5.8
563.641	5.59
563.983	5.78
564.325	5.9
564.667	5.75
565.008	5.66
565.35	5.89
565.692	5.9
566.033	5.78
566.375	5.75
566.716	5.78
567.058	5.75
567.399	5.84
567.741	5.8
568.082	5.73
568.423	5.8
568.764	5.67
569.105	5.9
569.447	5.94
569.788	5.94
570.129	5.89
570.47	6.1
570.811	5.93
571.151	5.8
571.492	5.92
571.833	5.94
572.174	6.14
572.514	5.97
572.855	6.09
573.195	6.26
573.536	6.22
573.876	5.97
574.217	6.02
574.557	6.2
574.898	6.2
575.238	6.16
575.578	6.14
575.918	6.04
576.258	6.43
576.598	6.28
576.938	6.27
577.278	6.18
577.618	6.22
577.958	6.46
578.298	6.42
578.638	6.29
578.977	6.36
579.317	6.22
579.657	6.44
579.996	6.33
580.336	6.35
580.675	6.57
581.014	6.67
581.354	6.56
581.693	6.54
582.032	6.64
582.372	6.7
582.711	6.92
583.05	6.61
583.389	6.53
583.728	6.68
584.067	6.64
584.406	6.92
584.745	6.76
585.083	6.7
585.422	6.66
585.761	6.78
586.1	6.67
586.438	6.72
586.777	6.79
587.115	6.97
587.454	7
587.792	7.18
588.13	7.16
588.469	6.92
588.807	7.09
589.145	6.96
589.483	6.96
589.821	7.11
590.159	7.25
590.497	6.78
590.835	7.32
591.173	7.05
591.511	6.68
591.849	7.06
592.187	7.17
592.524	6.98
592.862	7.11
593.2	7.07
593.537	6.98
593.875	7.28
594.212	7.39
594.55	7.39
594.887	7.42
595.224	7.1
595.561	7.17
595.899	7.22
596.236	7.29
596.573	7.49
596.91	7.47
597.247	7.52
597.584	7.58
597.921	7.51
598.258	7.38
598.594	7.43
598.931	7.49
599.268	7.5
599.604	7.53
599.941	7.61
600.277	7.48
600.614	7.68
600.95	7.77
601.287	7.62
601.623	7.8
601.959	7.72
602.296	7.53
602.632	7.89
602.968	8
603.304	7.84
603.64	7.78
603.976	7.79
604.312	7.78
604.648	8.04
604.984	7.75
605.319	8.05
605.655	8
605.991	7.9
606.326	7.94
606.662	8.1
606.998	7.87
607.333	7.87
607.668	7.8
608.004	8.02
608.339	8.1
608.674	7.94
609.01	8.36
609.345	8.41
609.68	8.25
610.015	8.41
610.35	8.53
610.685	8.37
611.02	8.37
611.355	8.62
611.689	8.1
612.024	8.17
612.359	8.29
612.694	8.45
613.028	8.25
613.363	8.54
613.697	8.31
614.032	8.33
614.366	8.39
614.7	8.47
615.035	8.44
615.369	8.32
615.703	8.59
616.037	8.66
616.371	8.4
616.705	8.74
617.039	8.87
617.373	8.75
617.707	8.46
618.041	8.52
618.375	8.68
618.709	8.88
619.042	8.58
619.376	8.68
619.71	8.81
620.043	8.89
620.377	9.06
620.71	9.17
621.043	9.22
621.377	8.88
621.71	8.93
622.043	8.59
622.376	9.37
622.709	8.96
623.043	9.41
623.376	9.3
623.709	9.02
624.041	9.09
624.374	9.04
624.707	8.82
625.04	9.47
625.373	9.58
625.705	9.23
626.038	9.21
626.37	9.74
626.703	9.87
627.035	9.48
627.368	9.52
627.7	9.87
628.032	9.66
628.365	9.37
628.697	9.82
629.029	9.57
629.361	9.67
629.693	9.36
630.025	9.54
630.357	9.49
630.689	9.74
631.021	9.54
631.353	9.58
631.684	10.18
632.016	9.4
632.348	9.75
632.679	9.86
633.011	9.93
633.342	9.75
633.674	9.73
634.005	9.98
634.336	9.94
634.668	10.05
634.999	10.23
635.33	9.83
635.661	10.07
635.992	9.94
636.323	10.34
636.654	9.9
636.985	10.04
637.316	9.83
637.647	10.02
637.977	10.33
638.308	10.07
638.639	9.85
638.969	10.47
639.3	10.12
639.63	9.91
639.961	10.49
640.291	10.25
640.622	10.22
640.952	10.17
641.282	10.34
641.612	10.42
641.943	10.26
642.273	10.57
642.603	10.54
642.933	10.38
643.263	11.05
643.592	10.68
643.922	10.51
644.252	10.18
644.582	10.44
644.911	10.52
645.241	10.59
645.571	10.5
645.9	10.58
646.23	10.77
646.559	10.63
646.888	11.02
647.218	10.45
647.547	10.67
647.876	11.23
648.205	11.06
648.534	11.37
648.863	10.8
649.192	11.16
649.521	11
649.85	10.96
650.179	10.79
650.508	11.42
650.837	10.67
651.165	10.9
651.494	11.03
651.822	10.82
652.151	11.21
652.479	11.36
652.808	11.28
653.136	11.06
653.465	11.17
653.793	11.49
654.121	11.5
654.449	11.28
654.777	10.95
655.105	11.39
655.433	11.22
655.761	10.95
656.089	11.49
656.417	11.31
656.745	11.56
657.073	10.67
657.4	11.72
657.728	11.98
658.056	11.8
658.383	11.44
658.711	11.81
659.038	11.99
659.365	11.99
659.693	11.26
660.02	11.29
660.347	11.78
660.674	11.67
661.001	11.83
661.329	11.67
661.656	11.81
661.982	11.84
662.309	11.96
662.636	11.88
662.963	11.98
663.29	12.12
663.616	11.71
663.943	11.96
664.27	12.01
664.596	11.99
664.923	12.29
665.249	12.22
665.576	12.23
665.902	11.93
666.228	12.19
666.554	12.16
666.881	11.85
667.207	11.46
667.533	12.06
667.859	11.43
668.185	12.12
668.511	12.17
668.837	11.77
669.162	12.66
669.488	12.07
669.814	12.58
670.139	12.37
670.465	12.53
670.791	12.79
671.116	12.49
671.442	12.1
671.767	11.75
672.092	12.87
672.418	12.32
672.743	12.74
673.068	12.62
673.393	12.19
673.718	12.17
674.043	12.4
674.368	12.92
674.693	12.96
675.018	12.94
675.343	12.64
675.667	13.31
675.992	12.73
676.317	12.25
676.641	13.12
676.966	12.97
677.29	12.5
677.615	13.22
677.939	12.84
678.264	12.77
678.588	13.24
678.912	13.5
679.236	12.73
679.56	12.74
679.885	13
680.209	12.79
680.532	13.14
680.856	12.98
681.18	12.73
681.504	12.71
681.828	13.14
682.152	13.13
682.475	13.47
682.799	13.15
683.122	13.38
683.446	13.16
683.769	13.61
684.093	13.62
684.416	13.65
684.739	12.97
685.062	13.81
685.386	13.1
685.709	13.67
686.032	13.47
686.355	13.56
686.678	13.38
687.001	12.25
687.324	13.15
687.646	13.4
687.969	13.4
688.292	13.85
688.614	14.33
