Data from 0174_chest_Reflection__4__095.txt Node

Date: Mon Aug 28 19:27:40 CDT 2023
User: ToomeyLab
Spectrometer: FLMS14357
Trigger mode: 0
Integration Time (sec): 1.000000E-2
Scans to average: 100
Electric dark correction enabled: true
Nonlinearity correction enabled: false
Boxcar width: 0
XAxis mode: Wavelengths
Number of Pixels in Spectrum: 2048
>>>>>Begin Spectral Data<<<<<
189.047	-14.86
189.435	-14.86
189.823	-14.86
190.211	-1204.65
190.599	193.24
190.987	443.73
191.375	-8
191.763	46.18
192.151	-95.2
192.538	12.22
192.926	-27.21
193.314	609.03
193.702	16.56
194.089	114.39
194.477	-4604.71
194.864	-218.63
195.252	128.92
195.639	497.44
196.027	105.44
196.414	168.04
196.801	118.65
197.189	-84.82
197.576	-333.5
197.963	3.27
198.351	-15.92
198.738	57.99
199.125	14.03
199.512	39.07
199.899	55.24
200.286	52.42
200.673	25.71
201.06	-23.16
201.447	-18.83
201.833	-47.54
202.22	32.64
202.607	-6.63
202.994	22.4
203.38	11.17
203.767	-22.46
204.154	23.01
204.54	-14.99
204.927	-18.93
205.313	16.35
205.699	-18.71
206.086	1.03
206.472	-7.7
206.858	-80.93
207.245	-3.3
207.631	14
208.017	31.04
208.403	4.22
208.789	-19.52
209.175	-34.24
209.561	8.52
209.947	-2.69
210.333	-14.22
210.719	4.53
211.105	27.16
211.491	-5.84
211.876	37.65
212.262	-47.99
212.648	26.42
213.034	-15.57
213.419	-6.23
213.805	6.06
214.19	-19.1
214.576	22.23
214.961	12.72
215.346	-16.97
215.732	12.32
216.117	-15.63
216.502	7.59
216.888	-110.33
217.273	-7.85
217.658	14.59
218.043	-7.39
218.428	23.43
218.813	0.47
219.198	-5.54
219.583	-5.97
219.968	26.3
220.353	-22.38
220.738	-0.43
221.122	-6.53
221.507	13.02
221.892	6.21
222.276	21.78
222.661	2.71
223.046	-8.46
223.43	3.09
223.815	3.46
224.199	13
224.583	-0.17
224.968	8.85
225.352	5.43
225.736	11.48
226.121	-2.59
226.505	4.03
226.889	3.89
227.273	10.6
227.657	11.97
228.041	4.83
228.425	3.64
228.809	6.68
229.193	1.99
229.577	5.81
229.961	1.88
230.344	3.44
230.728	2.94
231.112	3.99
231.495	3.94
231.879	3.17
232.263	4.39
232.646	2.66
233.03	4.65
233.413	5.29
233.797	3.78
234.18	3.83
234.563	2.17
234.946	8.31
235.33	4.31
235.713	3.23
236.096	4.06
236.479	3.75
236.862	4.72
237.245	3.31
237.628	3.72
238.011	5.94
238.394	5.71
238.777	5.2
239.16	3.28
239.543	2.41
239.925	5.04
240.308	2.34
240.691	3.3
241.073	1.95
241.456	4.08
241.838	3.25
242.221	5.14
242.603	4.45
242.986	4.63
243.368	3.54
243.75	3.07
244.133	4.34
244.515	3.46
244.897	4.45
245.279	4.52
245.661	3.6
246.043	3.79
246.425	4.08
246.807	4.78
247.189	3.69
247.571	4.43
247.953	4.78
248.335	4.32
248.717	3.69
249.098	3.84
249.48	4.1
249.862	3.79
250.243	4.03
250.625	4.24
251.006	3.87
251.388	3.74
251.769	4.51
252.151	3.71
252.532	3.49
252.913	4.21
253.295	2.51
253.676	4.39
254.057	3.97
254.438	3.49
254.819	3.8
255.2	4.56
255.581	3.72
255.962	3.28
256.343	5.17
256.724	3.74
257.105	3.21
257.486	4.15
257.867	4.09
258.247	5.26
258.628	4.72
259.009	3
259.389	2.66
259.77	4.08
260.15	4.07
260.531	3.15
260.911	3.76
261.292	3.92
261.672	3.66
262.052	3.59
262.432	3.8
262.813	4.06
263.193	4.16
263.573	3.27
263.953	4.23
264.333	3.57
264.713	4.26
265.093	4.48
265.473	4.54
265.853	3.63
266.233	3.27
266.612	4.62
266.992	3.75
267.372	3.74
267.752	4.1
268.131	3.89
268.511	3.39
268.89	4.08
269.27	2.96
269.649	2.97
270.029	3.91
270.408	4.18
270.787	3.87
271.167	3.61
271.546	3.38
271.925	4.13
272.304	3.58
272.683	4.17
273.062	3.43
273.441	3.37
273.82	3.57
274.199	2.88
274.578	3.39
274.957	3.23
275.336	3.65
275.715	3.75
276.093	3.36
276.472	2.96
276.851	3.66
277.229	3.83
277.608	3.68
277.986	3.79
278.365	3.84
278.743	3.53
279.122	3.07
279.5	2.66
279.878	3.23
280.257	3.52
280.635	2.97
281.013	3.65
281.391	3.3
281.769	3.31
282.147	3.34
282.525	3.9
282.903	3.99
283.281	3.43
283.659	3.53
284.037	3.58
284.415	3.48
284.792	3.64
285.17	3.5
285.548	3.1
285.925	3.67
286.303	3.75
286.68	4.09
287.058	4.14
287.435	3.4
287.813	3.36
288.19	3.73
288.567	3.67
288.945	3.6
289.322	3.62
289.699	3.84
290.076	3.97
290.453	3.69
290.83	3.33
291.207	3.27
291.584	3.51
291.961	4.09
292.338	3.74
292.715	3.51
293.092	3.8
293.469	3.63
293.845	3.8
294.222	3.83
294.599	3.71
294.975	3.9
295.352	3.7
295.728	3.9
296.105	4.4
296.481	3.75
296.858	4.24
297.234	3.92
297.61	4.28
297.986	3.86
298.363	4.2
298.739	4.02
299.115	3.78
299.491	4.37
299.867	4.3
300.243	4.63
300.619	4.26
300.995	4.36
301.371	3.93
301.746	4.59
302.122	3.99
302.498	3.86
302.874	4.82
303.249	4.25
303.625	4.05
304	4.2
304.376	3.99
304.751	3.91
305.127	4.17
305.502	3.86
305.878	4.25
306.253	4
306.628	4.16
307.003	4.29
307.378	4.29
307.754	4.89
308.129	4.18
308.504	4.79
308.879	4.45
309.254	4.5
309.629	4.08
310.003	4.2
310.378	3.65
310.753	4.07
311.128	4.43
311.502	4.65
311.877	4.38
312.252	4.84
312.626	4.56
313.001	4.29
313.375	4.49
313.75	4.42
314.124	4.34
314.498	4.58
314.873	4.41
315.247	4.42
315.621	4.48
315.995	4.88
316.369	4.17
316.743	4.16
317.117	4.3
317.491	3.68
317.865	4.26
318.239	3.85
318.613	4.52
318.987	4.07
319.361	4.27
319.734	4.43
320.108	4.52
320.482	4.81
320.855	4.27
321.229	4.14
321.602	3.94
321.976	4.04
322.349	4.36
322.723	4.16
323.096	4.86
323.469	4.42
323.843	4.25
324.216	4.24
324.589	4.41
324.962	4.7
325.335	4.66
325.708	4.41
326.081	4.08
326.454	4.95
326.827	4.81
327.2	3.96
327.573	4.57
327.945	4.76
328.318	4.65
328.691	3.94
329.063	3.86
329.436	4.43
329.809	5.19
330.181	4.37
330.553	4.58
330.926	4.67
331.298	4.42
331.671	4.23
332.043	4.33
332.415	5.24
332.787	4.27
333.159	4.66
333.532	5.1
333.904	4.42
334.276	4.44
334.648	4.7
335.02	4.86
335.391	4.34
335.763	4.43
336.135	4.72
336.507	4.26
336.879	4.31
337.25	4.96
337.622	4.6
337.993	5.16
338.365	4.3
338.736	4.54
339.108	4.28
339.479	4.24
339.851	4.81
340.222	4.56
340.593	4.86
340.964	4.57
341.336	4.41
341.707	4.71
342.078	4.34
342.449	4.71
342.82	4.61
343.191	4.5
343.562	4.29
343.933	4.32
344.303	4.18
344.674	5.17
345.045	5.02
345.416	4.78
345.786	5.01
346.157	4.41
346.527	4.34
346.898	4.69
347.268	4.49
347.639	4.38
348.009	4.2
348.38	4.72
348.75	4.59
349.12	4.77
349.49	4.03
349.861	4.07
350.231	4.01
350.601	4.71
350.971	4.88
351.341	4.56
351.711	4.38
352.081	4.66
352.45	4.58
352.82	4.58
353.19	4.96
353.56	4.96
353.929	4.92
354.299	3.84
354.669	4.84
355.038	4.52
355.408	4.47
355.777	4.65
356.147	4.5
356.516	4.66
356.885	4.57
357.254	4.65
357.624	4.62
357.993	4.95
358.362	4.26
358.731	4.99
359.1	4.73
359.469	4.69
359.838	4.52
360.207	4.6
360.576	4.64
360.945	4.72
361.314	4.52
361.682	4.36
362.051	5.05
362.42	4.56
362.788	4.55
363.157	4.44
363.525	4.37
363.894	4.54
364.262	4.49
364.631	4.19
364.999	4.48
365.367	4.8
365.735	4.42
366.104	4.45
366.472	4.43
366.84	4.2
367.208	4.72
367.576	4.51
367.944	4.59
368.312	4.98
368.68	4.56
369.048	4.49
369.416	4.43
369.783	4.25
370.151	4.89
370.519	4.8
370.886	4.55
371.254	4.47
371.621	4.7
371.989	4.93
372.356	4.62
372.724	4.77
373.091	4.61
373.458	4.7
373.826	4.56
374.193	4.72
374.56	4.35
374.927	4.41
375.294	4.57
375.661	4.67
376.028	4.43
376.395	4.29
376.762	5.03
377.129	4.6
377.496	4.69
377.863	4.77
378.229	4.31
378.596	4.92
378.963	4.8
379.329	4.71
379.696	4.52
380.062	4.73
380.429	4.53
380.795	4.83
381.161	4.61
381.528	4.84
381.894	4.71
382.26	4.92
382.626	4.79
382.993	4.91
383.359	4.97
383.725	4.91
384.091	4.64
384.457	5.02
384.823	4.72
385.188	4.57
385.554	4.63
385.92	4.68
386.286	5.18
386.651	4.66
387.017	4.76
387.383	4.76
387.748	4.8
388.114	4.64
388.479	4.79
388.845	4.73
389.21	4.48
389.575	4.89
389.94	4.66
390.306	4.7
390.671	4.84
391.036	4.55
391.401	4.94
391.766	5.1
392.131	4.67
392.496	4.38
392.861	4.72
393.226	4.86
393.591	4.37
393.956	4.81
394.32	4.33
394.685	4.71
395.05	4.66
395.414	4.9
395.779	4.72
396.143	4.73
396.508	4.42
396.872	4.92
397.236	4.78
397.601	4.4
397.965	4.81
398.329	4.7
398.694	4.82
399.058	4.73
399.422	4.92
399.786	4.99
400.15	4.97
400.514	4.86
400.878	4.86
401.242	4.75
401.605	4.79
401.969	4.54
402.333	4.62
402.697	4.77
403.06	4.94
403.424	5.1
403.787	4.71
404.151	4.63
404.514	4.75
404.878	4.88
405.241	5.04
405.604	4.96
405.968	4.86
406.331	4.94
406.694	4.88
407.057	4.9
407.42	4.77
407.783	4.75
408.146	4.72
408.509	4.93
408.872	4.77
409.235	4.81
409.598	4.81
409.961	4.62
410.323	5.12
410.686	5.26
411.049	5.1
411.411	4.87
411.774	4.92
412.136	4.97
412.499	4.92
412.861	4.73
413.223	4.74
413.586	4.62
413.948	4.93
414.31	5.09
414.672	4.83
415.035	4.95
415.397	5.12
415.759	5
416.121	5.02
416.483	4.99
416.845	4.9
417.206	5.18
417.568	4.95
417.93	4.95
418.292	4.97
418.653	4.71
419.015	4.81
419.377	4.66
419.738	5
420.1	4.69
420.461	4.86
420.822	4.8
421.184	4.89
421.545	4.8
421.906	4.84
422.267	4.88
422.629	4.85
422.99	4.75
423.351	4.85
423.712	4.7
424.073	4.84
424.434	4.89
424.795	4.79
425.155	4.91
425.516	4.93
425.877	4.88
426.238	4.72
426.598	4.81
426.959	4.81
427.32	4.77
427.68	4.96
428.041	4.83
428.401	5.01
428.761	4.89
429.122	4.96
429.482	4.98
429.842	4.99
430.202	5
430.563	5.23
430.923	5.19
431.283	4.98
431.643	4.88
432.003	4.97
432.363	5.24
432.722	5.06
433.082	4.94
433.442	4.97
433.802	5.1
434.161	5.09
434.521	4.94
434.881	4.97
435.24	4.99
435.6	4.97
435.959	5.04
436.319	5.04
436.678	4.98
437.037	4.96
437.396	5.14
437.756	5.01
438.115	5.31
438.474	5.26
438.833	5.03
439.192	5.24
439.551	4.94
439.91	5.2
440.269	5.09
440.628	5.17
440.987	5.12
441.345	5.1
441.704	5.14
442.063	5.03
442.421	5.15
442.78	5.26
443.138	5.08
443.497	5.06
443.855	5.08
444.214	5.22
444.572	5.22
444.93	5.25
445.288	5.06
445.647	5.02
446.005	5.32
446.363	5.27
446.721	5.03
447.079	5.14
447.437	5
447.795	5.05
448.153	5.2
448.51	5.06
448.868	5.05
449.226	5.1
449.584	5.02
449.941	5.12
450.299	5.22
450.656	5.17
451.014	5.19
451.371	5.12
451.729	5.14
452.086	5.12
452.443	5.3
452.801	5.3
453.158	5.37
453.515	5.16
453.872	5.11
454.229	5.17
454.586	5.35
454.943	5.24
455.3	5.29
455.657	5.33
456.014	5.33
456.371	5.3
456.727	5.33
457.084	5.18
457.441	5.3
457.797	5.33
458.154	5.39
458.51	5.69
458.867	5.29
459.223	5.39
459.58	5.17
459.936	5.34
460.292	5.3
460.648	5.3
461.005	5.27
461.361	5.32
461.717	5.16
462.073	5.19
462.429	5.11
462.785	5.2
463.141	5.4
463.496	5.44
463.852	5.36
464.208	5.33
464.564	5.5
464.919	5.51
465.275	5.48
465.631	5.39
465.986	5.5
466.342	5.42
466.697	5.24
467.052	5.48
467.408	5.39
467.763	5.24
468.118	5.31
468.473	5.51
468.829	5.36
469.184	5.15
469.539	5.46
469.894	5.34
470.249	5.41
470.603	5.35
470.958	5.53
471.313	5.45
471.668	5.4
472.023	5.51
472.377	5.33
472.732	5.56
473.086	5.57
473.441	5.5
473.795	5.61
474.15	5.47
474.504	5.48
474.859	5.56
475.213	5.68
475.567	5.51
475.921	5.59
476.275	5.47
476.63	5.65
476.984	5.64
477.338	5.63
477.692	5.53
478.045	5.79
478.399	5.57
478.753	5.44
479.107	5.43
479.461	5.57
479.814	5.78
480.168	5.45
480.521	5.62
480.875	5.48
481.228	5.52
481.582	5.64
481.935	5.43
482.289	5.56
482.642	5.61
482.995	5.55
483.348	5.55
483.701	5.55
484.055	5.45
484.408	5.48
484.761	5.49
485.114	5.45
485.466	5.32
485.819	5.18
486.172	5.08
486.525	5.17
486.878	5.3
487.23	5.36
487.583	5.46
487.936	5.56
488.288	5.56
488.641	5.52
488.993	5.5
489.345	5.43
489.698	5.39
490.05	5.33
490.402	5.32
490.754	5.43
491.107	5.49
491.459	5.56
491.811	5.63
492.163	5.69
492.515	5.75
492.866	5.63
493.218	5.53
493.57	5.45
493.922	5.31
494.274	5.43
494.625	5.51
494.977	5.67
495.328	5.75
495.68	5.8
496.031	5.86
496.383	5.77
496.734	5.75
497.086	6.02
497.437	6.01
497.788	5.84
498.139	5.9
498.49	5.8
498.842	5.83
499.193	5.71
499.544	5.78
499.894	5.86
500.245	5.73
500.596	5.78
500.947	5.94
501.298	5.83
501.648	5.86
501.999	5.88
502.35	5.95
502.7	5.9
503.051	6.11
503.401	6.02
503.752	5.91
504.102	5.95
504.452	5.88
504.803	5.98
505.153	5.97
505.503	5.93
505.853	5.96
506.203	5.98
506.553	6.01
506.903	6.13
507.253	6.08
507.603	5.91
507.953	6.06
508.303	6.16
508.652	6.07
509.002	6.2
509.352	6.02
509.701	5.96
510.051	6.02
510.4	6.07
510.75	6.08
511.099	5.98
511.449	6.06
511.798	6.07
512.147	6.09
512.496	6.22
512.846	5.99
513.195	6.13
513.544	6.16
513.893	6.05
514.242	6.16
514.591	6.09
514.939	6.06
515.288	6.23
515.637	6.32
515.986	6.28
516.334	6.28
516.683	6.25
517.032	6.22
517.38	6.41
517.729	6.39
518.077	6.23
518.426	6.3
518.774	6.37
519.122	6.36
519.47	6.27
519.819	6.26
520.167	6.18
520.515	6.21
520.863	6.1
521.211	6.18
521.559	6.21
521.907	6.33
522.255	6.3
522.602	6.41
522.95	6.41
523.298	6.44
523.645	6.5
523.993	6.49
524.341	6.49
524.688	6.53
525.036	6.52
525.383	6.64
525.73	6.49
526.078	6.55
526.425	6.54
526.772	6.57
527.119	6.55
527.466	6.38
527.814	6.39
528.161	6.35
528.508	6.38
528.854	6.46
529.201	6.52
529.548	6.42
529.895	6.51
530.242	6.38
530.588	6.25
530.935	6.13
531.282	6.26
531.628	6.35
531.975	6.41
532.321	6.52
532.667	6.56
533.014	6.58
533.36	6.65
533.706	6.6
534.052	6.62
534.399	6.68
534.745	6.76
535.091	6.56
535.437	6.5
535.783	6.54
536.129	6.55
536.474	6.64
536.82	6.76
537.166	6.77
537.512	6.79
537.857	7.02
538.203	6.84
538.549	6.79
538.894	6.73
539.239	6.74
539.585	6.87
539.93	6.93
540.276	6.97
540.621	7.07
540.966	7.06
541.311	7.16
541.656	7.11
542.001	7.1
542.346	7.09
542.691	7.07
543.036	6.93
543.381	6.75
543.726	6.73
544.071	6.87
544.415	6.92
544.76	6.99
545.105	6.99
545.449	7.06
545.794	7.13
546.138	7.21
546.483	7.17
546.827	7.24
547.171	7.32
547.516	7.28
547.86	7.3
548.204	7.37
548.548	7.27
548.892	7.24
549.236	7.24
549.58	7.23
549.924	7.36
550.268	7.46
550.612	7.4
550.956	7.62
551.3	7.54
551.643	7.68
551.987	7.52
552.33	7.67
552.674	7.49
553.017	7.74
553.361	7.79
553.704	7.66
554.048	7.85
554.391	7.62
554.734	7.72
555.077	7.56
555.42	7.66
555.764	7.74
556.107	7.8
556.45	7.98
556.793	7.69
557.135	8.02
557.478	7.93
557.821	7.91
558.164	8.14
558.507	8.24
558.849	8.07
559.192	7.92
559.534	7.94
559.877	8.12
560.219	8.05
560.562	7.98
560.904	8.26
561.246	8.18
561.589	8.16
561.931	8.21
562.273	8.18
562.615	8.14
562.957	8.29
563.299	8.43
563.641	8.28
563.983	8.36
564.325	8.24
564.667	8.19
565.008	8.19
565.35	8.61
565.692	8.71
566.033	8.42
566.375	8.29
566.716	8.51
567.058	8.46
567.399	8.48
567.741	8.44
568.082	8.35
568.423	8.34
568.764	8.33
569.105	8.58
569.447	8.66
569.788	8.51
570.129	8.47
570.47	8.69
570.811	8.63
571.151	8.4
571.492	8.75
571.833	8.62
572.174	8.79
572.514	8.79
572.855	8.74
573.195	8.88
573.536	8.94
573.876	8.74
574.217	8.91
574.557	8.96
574.898	8.94
575.238	8.99
575.578	9.05
575.918	8.9
576.258	9
576.598	9.15
576.938	8.96
577.278	9.11
577.618	9.12
577.958	9.17
578.298	9.21
578.638	9.24
578.977	9.23
579.317	9.27
579.657	9.37
579.996	9.47
580.336	9.41
580.675	9.43
581.014	9.64
581.354	9.6
581.693	9.7
582.032	9.53
582.372	9.56
582.711	9.69
583.05	9.54
583.389	9.82
583.728	9.77
584.067	9.84
584.406	9.64
584.745	9.79
585.083	9.83
585.422	9.62
585.761	10.02
586.1	10.04
586.438	9.82
586.777	9.91
587.115	9.83
587.454	9.93
587.792	10.13
588.13	10.07
588.469	9.97
588.807	9.98
589.145	10.33
589.483	10.04
589.821	10
590.159	10.2
590.497	10.16
590.835	10.22
591.173	10.27
591.511	10.06
591.849	10.18
592.187	10.28
592.524	10.2
592.862	10.43
593.2	10.22
593.537	10.38
593.875	10.65
594.212	10.55
594.55	10.67
594.887	10.5
595.224	10.74
595.561	10.78
595.899	10.47
596.236	10.66
596.573	10.76
596.91	10.42
597.247	10.76
597.584	10.63
597.921	10.77
598.258	10.82
598.594	10.74
598.931	10.53
599.268	10.85
599.604	10.61
599.941	10.86
600.277	10.73
600.614	11.1
600.95	11.15
601.287	10.83
601.623	11.18
601.959	11.32
602.296	11.17
602.632	11.41
602.968	11.17
603.304	11.22
603.64	11.03
603.976	11.48
604.312	11.32
604.648	11.12
604.984	11.22
605.319	11.39
605.655	11.35
605.991	11.39
606.326	11.51
606.662	11.48
606.998	11.31
607.333	11.35
607.668	11.43
608.004	11.41
608.339	11.9
608.674	11.34
609.01	11.67
609.345	11.7
609.68	11.62
610.015	12.12
610.35	12.03
610.685	11.97
611.02	11.73
611.355	12.16
611.689	11.63
612.024	11.81
612.359	11.93
612.694	12.03
613.028	11.94
613.363	11.76
613.697	12.03
614.032	12.16
614.366	11.94
614.7	12.4
615.035	12.28
615.369	12.03
615.703	12.33
616.037	12.22
616.371	12.18
616.705	12.06
617.039	12.2
617.373	12.35
617.707	12.37
618.041	12.58
618.375	12.39
618.709	12.61
619.042	12.73
619.376	12.58
619.71	12.6
620.043	13.02
620.377	13.05
620.71	12.4
621.043	12.88
621.377	12.76
621.71	12.72
622.043	12.28
622.376	12.83
622.709	12.65
623.043	13.03
623.376	13.2
623.709	13.65
624.041	12.88
624.374	12.84
624.707	12.81
625.04	12.92
625.373	13.18
625.705	13.29
626.038	13.07
626.37	13.55
626.703	13.44
627.035	13.37
627.368	13.72
627.7	13.41
628.032	13.2
628.365	13.34
628.697	13.2
629.029	13.56
629.361	13.38
629.693	13.3
630.025	13.42
630.357	13.46
630.689	13.53
631.021	13.72
631.353	13.37
631.684	13.76
632.016	13.73
632.348	13.34
632.679	13.77
633.011	13.56
633.342	13.45
633.674	13.89
634.005	13.7
634.336	13.97
634.668	13.72
634.999	14.02
635.33	14.03
635.661	14.33
635.992	14.29
636.323	14.23
636.654	14
636.985	14.03
637.316	13.91
637.647	14.09
637.977	13.96
638.308	14.23
638.639	14.06
638.969	14.5
639.3	14.5
639.63	14.07
639.961	14.3
640.291	14.22
640.622	14.58
640.952	14.21
641.282	14.18
641.612	14.71
641.943	14.58
642.273	15.04
642.603	14.41
642.933	14.44
643.263	14.51
643.592	14.61
643.922	14.8
644.252	14.88
644.582	14.94
644.911	15.26
645.241	15.36
645.571	14.77
645.9	14.87
646.23	14.63
646.559	14.52
646.888	15.41
647.218	14.41
647.547	14.87
647.876	15.58
648.205	15.23
648.534	15.88
648.863	15.38
649.192	15.26
649.521	15.28
649.85	15.4
650.179	15.39
650.508	15.92
650.837	14.94
651.165	15.21
651.494	15.32
651.822	15.07
652.151	15.66
652.479	15.85
652.808	15.67
653.136	15.33
653.465	15.93
653.793	15.62
654.121	15.9
654.449	15.78
654.777	15.54
655.105	15.55
655.433	15.78
655.761	15.13
656.089	15.8
656.417	15.65
656.745	16.25
657.073	15.43
657.4	16.16
657.728	16.03
658.056	15.87
658.383	16.62
658.711	16.19
659.038	16.12
659.365	16.32
659.693	16.39
660.02	16.14
660.347	16.39
660.674	16.12
661.001	16.45
661.329	16.08
661.656	16.28
661.982	16.17
662.309	16.43
662.636	16.24
662.963	16.36
663.29	16.52
663.616	16.32
663.943	16.74
664.27	16.49
664.596	16.28
664.923	16.9
665.249	16.66
665.576	16.69
665.902	16.39
666.228	16.25
666.554	16.76
666.881	17
667.207	16.27
667.533	16.77
667.859	15.99
668.185	16.91
668.511	16.92
668.837	16.95
669.162	16.6
669.488	16.52
669.814	16.77
670.139	17.33
670.465	17.32
670.791	17.2
671.116	16.9
671.442	17.15
671.767	17.04
672.092	17.44
672.418	17.54
672.743	17.4
673.068	16.59
673.393	17.24
673.718	17.25
674.043	17.01
674.368	17.57
674.693	17.49
675.018	17.79
675.343	17.32
675.667	17.63
675.992	17.26
676.317	17.62
676.641	18.09
676.966	17.78
677.29	16.92
677.615	17.82
677.939	17.49
678.264	17.45
678.588	17.98
678.912	18.73
679.236	17.51
679.56	17.16
679.885	17.45
680.209	17.48
680.532	18.29
680.856	17.73
681.18	17.97
681.504	17.69
681.828	18.04
682.152	18.42
682.475	17.8
682.799	18.21
683.122	18.12
683.446	18.58
683.769	18.59
684.093	18.06
684.416	18.61
684.739	18.64
685.062	18.51
685.386	17.99
685.709	18.46
