Data from 0174_chest_Reflection__3__094.txt Node

Date: Mon Aug 28 19:27:29 CDT 2023
User: ToomeyLab
Spectrometer: FLMS14357
Trigger mode: 0
Integration Time (sec): 1.000000E-2
Scans to average: 100
Electric dark correction enabled: true
Nonlinearity correction enabled: false
Boxcar width: 0
XAxis mode: Wavelengths
Number of Pixels in Spectrum: 2048
>>>>>Begin Spectral Data<<<<<
189.047	80.06
189.435	80.06
189.823	80.06
190.211	-6048.84
190.599	-16.25
190.987	-77.49
191.375	58.53
191.763	173.87
192.151	78.65
192.538	170.69
192.926	142.45
193.314	597.52
193.702	311.27
194.089	159.57
194.477	3191.76
194.864	-407.1
195.252	38.49
195.639	787.18
196.027	43.01
196.414	384.09
196.801	-89.04
197.189	34.27
197.576	-175.74
197.963	-18.83
198.351	2.1
198.738	8.55
199.125	-1.89
199.512	-24.2
199.899	10.29
200.286	-63.71
200.673	20.48
201.06	-1.67
201.447	-90.7
201.833	-54.56
202.22	-8.2
202.607	2.17
202.994	6.17
203.38	-5.52
203.767	-25.16
204.154	-5.27
204.54	-42.01
204.927	-19.97
205.313	21.39
205.699	-27.44
206.086	26.9
206.472	-28.12
206.858	-61.77
207.245	10.39
207.631	24.14
208.017	-30.35
208.403	23.19
208.789	7.93
209.175	-8.71
209.561	-2.46
209.947	-9.01
210.333	9.74
210.719	20.18
211.105	29.67
211.491	-12.39
211.876	22.29
212.262	8.5
212.648	25.72
213.034	-14.96
213.419	1.35
213.805	17.34
214.19	9.72
214.576	24.26
214.961	3.32
215.346	-25.27
215.732	37.47
216.117	-13.08
216.502	1.58
216.888	-17.94
217.273	11.02
217.658	-8.44
218.043	14.7
218.428	-3.32
218.813	-3.8
219.198	19.73
219.583	3.04
219.968	-2.29
220.353	17.3
220.738	10.87
221.122	7.78
221.507	15.47
221.892	4.42
222.276	0.74
222.661	7.36
223.046	10.5
223.43	4.97
223.815	13.75
224.199	20.82
224.583	6.58
224.968	8.76
225.352	10.54
225.736	9.12
226.121	-0.19
226.505	2.67
226.889	10.71
227.273	11.65
227.657	9.94
228.041	8.91
228.425	10.58
228.809	2.45
229.193	7.91
229.577	9.53
229.961	4.64
230.344	8.81
230.728	5.97
231.112	6.57
231.495	6.9
231.879	5.96
232.263	6.82
232.646	5.87
233.03	6.23
233.413	8.68
233.797	5.45
234.18	4.56
234.563	6.54
234.946	6.99
235.33	4.39
235.713	4.55
236.096	8.56
236.479	6.23
236.862	6.93
237.245	6.86
237.628	7.08
238.011	8.3
238.394	6.31
238.777	8.71
239.16	6.3
239.543	3.79
239.925	8.62
240.308	6.2
240.691	6.92
241.073	6.4
241.456	6.32
241.838	6.63
242.221	7.65
242.603	7.12
242.986	7.06
243.368	6.57
243.75	5.9
244.133	6.95
244.515	6.19
244.897	6.75
245.279	7.1
245.661	6.72
246.043	6.4
246.425	6.21
246.807	8.7
247.189	6.16
247.571	5.55
247.953	6.38
248.335	6.39
248.717	6.07
249.098	5.98
249.48	6.13
249.862	6.24
250.243	6.3
250.625	6.54
251.006	6.14
251.388	6.43
251.769	6.98
252.151	5.51
252.532	5.35
252.913	6.44
253.295	5.55
253.676	6.39
254.057	6.15
254.438	6.01
254.819	5.95
255.2	6
255.581	5.71
255.962	6.01
256.343	5.84
256.724	5.62
257.105	5.32
257.486	6.92
257.867	5.09
258.247	5.92
258.628	6.98
259.009	5.84
259.389	5.14
259.77	6.08
260.15	5.23
260.531	5.67
260.911	5.71
261.292	5.78
261.672	5.86
262.052	5.37
262.432	5.65
262.813	5.55
263.193	5.34
263.573	5.27
263.953	5.78
264.333	5.46
264.713	5.56
265.093	5.94
265.473	5.31
265.853	5.26
266.233	5.7
266.612	5.97
266.992	5.43
267.372	6.12
267.752	6.49
268.131	6.25
268.511	5.19
268.89	5.29
269.27	5.48
269.649	5.67
270.029	6.4
270.408	6
270.787	5.97
271.167	5.22
271.546	6.08
271.925	5.41
272.304	5.68
272.683	5.02
273.062	5.36
273.441	5.61
273.82	5.75
274.199	4.88
274.578	5.37
274.957	5.9
275.336	5.98
275.715	5.66
276.093	5.58
276.472	5.26
276.851	5.09
277.229	5.57
277.608	5.35
277.986	4.77
278.365	5.86
278.743	5.14
279.122	5.34
279.5	4.8
279.878	5.11
280.257	5.25
280.635	4.96
281.013	6.03
281.391	5.08
281.769	5.28
282.147	5.54
282.525	5.76
282.903	5.82
283.281	5.05
283.659	5.84
284.037	5.75
284.415	4.83
284.792	5.68
285.17	5.16
285.548	5.08
285.925	5.59
286.303	5.46
286.68	5.7
287.058	5.38
287.435	5.07
287.813	5.28
288.19	5.63
288.567	5.3
288.945	5.12
289.322	5.26
289.699	5.73
290.076	5.97
290.453	5.73
290.83	5.08
291.207	5.01
291.584	5.46
291.961	5.56
292.338	4.94
292.715	5.25
293.092	5.34
293.469	5.54
293.845	4.75
294.222	5.36
294.599	5.61
294.975	5.21
295.352	5.33
295.728	5.36
296.105	5.6
296.481	5.44
296.858	5.48
297.234	5.28
297.61	5.57
297.986	5.32
298.363	5.56
298.739	5.13
299.115	5.2
299.491	5.58
299.867	5.14
300.243	5.49
300.619	5.22
300.995	5.68
301.371	5.12
301.746	5.78
302.122	5.58
302.498	5.02
302.874	5.35
303.249	5.29
303.625	5.4
304	5.6
304.376	5.8
304.751	5.21
305.127	5.34
305.502	5.45
305.878	5.22
306.253	4.78
306.628	5.18
307.003	5.65
307.378	5.53
307.754	5.4
308.129	5.09
308.504	5.65
308.879	4.59
309.254	6.1
309.629	5.35
310.003	5.53
310.378	5.37
310.753	5.02
311.128	5.24
311.502	5.65
311.877	5.23
312.252	5.3
312.626	5.51
313.001	5.53
313.375	5.67
313.75	5.11
314.124	5.09
314.498	5.4
314.873	5.7
315.247	5.6
315.621	5.06
315.995	5.67
316.369	5.55
316.743	5.45
317.117	5.48
317.491	4.92
317.865	4.72
318.239	5.47
318.613	5.31
318.987	5.11
319.361	5.4
319.734	5.21
320.108	5.58
320.482	5.45
320.855	5.57
321.229	5.41
321.602	5.4
321.976	5.12
322.349	5.35
322.723	5.19
323.096	5.61
323.469	5.06
323.843	5.06
324.216	5.12
324.589	5.2
324.962	5.44
325.335	5.94
325.708	5.22
326.081	4.91
326.454	5.37
326.827	5.41
327.2	5.04
327.573	5.07
327.945	5.74
328.318	5.85
328.691	4.71
329.063	4.71
329.436	5
329.809	5.71
330.181	4.66
330.553	5.13
330.926	5.38
331.298	5.93
331.671	4.92
332.043	5.42
332.415	5.47
332.787	5.31
333.159	5.21
333.532	5.56
333.904	5.46
334.276	5.13
334.648	4.91
335.02	5.21
335.391	5.54
335.763	4.88
336.135	6.16
336.507	5.24
336.879	5.05
337.25	5.4
337.622	5.37
337.993	5.51
338.365	4.97
338.736	5.55
339.108	4.99
339.479	4.76
339.851	5.69
340.222	5.43
340.593	4.7
340.964	5.17
341.336	5.48
341.707	5.73
342.078	5.1
342.449	5.38
342.82	5.46
343.191	5.49
343.562	5.23
343.933	5.57
344.303	5.09
344.674	5.3
345.045	5.15
345.416	5.5
345.786	5.58
346.157	5.4
346.527	4.65
346.898	4.83
347.268	5.03
347.639	4.69
348.009	5.17
348.38	5.21
348.75	5.12
349.12	5.41
349.49	4.77
349.861	4.92
350.231	5.06
350.601	5.61
350.971	5.38
351.341	5.52
351.711	5.08
352.081	5.17
352.45	5.34
352.82	5.09
353.19	5.59
353.56	5.42
353.929	5.58
354.299	4.77
354.669	5.62
355.038	5.28
355.408	5.29
355.777	5.08
356.147	5.28
356.516	5.25
356.885	5.31
357.254	4.94
357.624	5.36
357.993	5.54
358.362	5.14
358.731	5.52
359.1	5.55
359.469	5.42
359.838	4.79
360.207	5.46
360.576	5.63
360.945	5.06
361.314	5.21
361.682	5.01
362.051	5.59
362.42	5.23
362.788	5.34
363.157	5.42
363.525	5.04
363.894	5.38
364.262	5.21
364.631	5.22
364.999	5.2
365.367	5.16
365.735	5.34
366.104	5.26
366.472	5.25
366.84	5.34
367.208	5.01
367.576	4.88
367.944	5.43
368.312	5.48
368.68	5.09
369.048	5.23
369.416	5.55
369.783	5.01
370.151	5.14
370.519	5.37
370.886	5.55
371.254	5.17
371.621	5.31
371.989	5.08
372.356	5.41
372.724	5.58
373.091	5.44
373.458	5.14
373.826	5.35
374.193	5.11
374.56	5.31
374.927	4.95
375.294	5.4
375.661	5.66
376.028	5.18
376.395	4.59
376.762	5.58
377.129	5.17
377.496	4.98
377.863	5.34
378.229	5.11
378.596	5.43
378.963	5.42
379.329	5.42
379.696	5.31
380.062	5.23
380.429	4.97
380.795	5.28
381.161	5.46
381.528	5.42
381.894	5.36
382.26	5.51
382.626	5.56
382.993	5.29
383.359	5.52
383.725	5.58
384.091	5.28
384.457	4.85
384.823	5.25
385.188	5.36
385.554	5.08
385.92	5.32
386.286	5.32
386.651	5.24
387.017	5.45
387.383	5.52
387.748	5.58
388.114	5.22
388.479	5.13
388.845	5.35
389.21	4.88
389.575	5.43
389.94	5.2
390.306	5.49
390.671	5.51
391.036	5.29
391.401	5.52
391.766	5.52
392.131	5.42
392.496	5.31
392.861	5.18
393.226	5.6
393.591	5.13
393.956	5.45
394.32	5.19
394.685	5.32
395.05	5.68
395.414	5.47
395.779	5.27
396.143	5.3
396.508	5.2
396.872	5.55
397.236	5.26
397.601	5.25
397.965	5.48
398.329	5.51
398.694	5.49
399.058	5.5
399.422	5.49
399.786	5.36
400.15	5.59
400.514	5.4
400.878	5.52
401.242	5.45
401.605	5.57
401.969	5.19
402.333	5.28
402.697	5.45
403.06	5.33
403.424	5.68
403.787	5.4
404.151	5.09
404.514	5.27
404.878	5.39
405.241	5.79
405.604	5.37
405.968	5.09
406.331	5.55
406.694	5.47
407.057	5.4
407.42	5.29
407.783	5.37
408.146	5.34
408.509	5.66
408.872	5.39
409.235	5.27
409.598	5.4
409.961	5.47
410.323	5.61
410.686	5.57
411.049	5.54
411.411	5.51
411.774	5.42
412.136	5.41
412.499	5.22
412.861	5.68
413.223	5.37
413.586	5.36
413.948	5.49
414.31	5.34
414.672	5.56
415.035	5.35
415.397	5.45
415.759	5.32
416.121	5.46
416.483	5.58
416.845	5.7
417.206	5.65
417.568	5.38
417.93	5.26
418.292	5.55
418.653	5.44
419.015	5.37
419.377	5.39
419.738	5.77
420.1	5.49
420.461	5.51
420.822	5.44
421.184	5.45
421.545	5.4
421.906	5.56
422.267	5.5
422.629	5.39
422.99	5.29
423.351	5.44
423.712	5.31
424.073	5.29
424.434	5.46
424.795	5.38
425.155	5.47
425.516	5.34
425.877	5.37
426.238	5.35
426.598	5.29
426.959	5.36
427.32	5.32
427.68	5.49
428.041	5.39
428.401	5.46
428.761	5.47
429.122	5.48
429.482	5.66
429.842	5.55
430.202	5.55
430.563	5.54
430.923	5.65
431.283	5.43
431.643	5.49
432.003	5.52
432.363	5.83
432.722	5.58
433.082	5.6
433.442	5.57
433.802	5.56
434.161	5.65
434.521	5.59
434.881	5.43
435.24	5.48
435.6	5.64
435.959	5.65
436.319	5.58
436.678	5.53
437.037	5.59
437.396	5.58
437.756	5.51
438.115	5.56
438.474	5.68
438.833	5.6
439.192	5.64
439.551	5.46
439.91	5.71
440.269	5.52
440.628	5.48
440.987	5.61
441.345	5.45
441.704	5.53
442.063	5.53
442.421	5.5
442.78	5.59
443.138	5.65
443.497	5.54
443.855	5.62
444.214	5.65
444.572	5.6
444.93	5.7
445.288	5.46
445.647	5.81
446.005	5.68
446.363	5.65
446.721	5.69
447.079	5.61
447.437	5.56
447.795	5.46
448.153	5.62
448.51	5.56
448.868	5.56
449.226	5.49
449.584	5.49
449.941	5.57
450.299	5.65
450.656	5.47
451.014	5.53
451.371	5.63
451.729	5.51
452.086	5.67
452.443	5.7
452.801	5.75
453.158	5.8
453.515	5.73
453.872	5.67
454.229	5.8
454.586	5.86
454.943	5.73
455.3	5.66
455.657	5.73
456.014	5.78
456.371	5.73
456.727	5.66
457.084	5.64
457.441	5.79
457.797	5.73
458.154	5.81
458.51	5.9
458.867	5.56
459.223	5.74
459.58	5.73
459.936	5.8
460.292	5.79
460.648	5.81
461.005	5.65
461.361	5.65
461.717	5.64
462.073	5.64
462.429	5.53
462.785	5.59
463.141	5.71
463.496	5.72
463.852	5.7
464.208	5.77
464.564	5.73
464.919	5.9
465.275	5.94
465.631	5.89
465.986	5.83
466.342	5.74
466.697	5.72
467.052	5.76
467.408	5.91
467.763	5.76
468.118	5.64
468.473	5.76
468.829	5.79
469.184	5.62
469.539	5.78
469.894	5.69
470.249	5.82
470.603	5.78
470.958	5.89
471.313	5.93
471.668	5.87
472.023	5.99
472.377	5.83
472.732	6.03
473.086	5.86
473.441	5.76
473.795	5.86
474.15	5.88
474.504	5.94
474.859	5.89
475.213	5.93
475.567	5.89
475.921	6.09
476.275	5.87
476.63	5.94
476.984	5.97
477.338	5.97
477.692	5.89
478.045	6.21
478.399	5.91
478.753	5.77
479.107	5.91
479.461	5.89
479.814	6.05
480.168	6.07
480.521	5.84
480.875	5.96
481.228	5.8
481.582	5.87
481.935	5.81
482.289	5.9
482.642	6.07
482.995	6.07
483.348	5.96
483.701	5.88
484.055	5.94
484.408	5.97
484.761	5.9
485.114	5.82
485.466	5.73
485.819	5.65
486.172	5.59
486.525	5.57
486.878	5.54
487.23	5.57
487.583	5.66
487.936	5.73
488.288	5.81
488.641	5.85
488.993	5.81
489.345	5.78
489.698	5.81
490.05	5.69
490.402	5.68
490.754	5.74
491.107	5.79
491.459	5.73
491.811	5.73
492.163	5.92
492.515	5.99
492.866	5.97
493.218	5.94
493.57	5.87
493.922	5.73
494.274	5.76
494.625	5.72
494.977	5.86
495.328	5.91
495.68	5.92
496.031	5.98
496.383	6.03
496.734	5.97
497.086	6.12
497.437	6.18
497.788	6.16
498.139	6.17
498.49	6.11
498.842	6.07
499.193	6.02
499.544	6.1
499.894	6
500.245	6.02
500.596	6.08
500.947	6.15
501.298	6.12
501.648	6.01
501.999	6.14
502.35	6.09
502.7	6.13
503.051	6.19
503.401	6.3
503.752	6.06
504.102	6.22
504.452	6.19
504.803	6.36
505.153	6.22
505.503	6.17
505.853	6.31
506.203	6.4
506.553	6.26
506.903	6.32
507.253	6.33
507.603	6.19
507.953	6.35
508.303	6.4
508.652	6.29
509.002	6.31
509.352	6.14
509.701	6.22
510.051	6.29
510.4	6.26
510.75	6.21
511.099	6.22
511.449	6.26
511.798	6.27
512.147	6.32
512.496	6.31
512.846	6.29
513.195	6.38
513.544	6.33
513.893	6.3
514.242	6.33
514.591	6.4
514.939	6.27
515.288	6.37
515.637	6.4
515.986	6.4
516.334	6.5
516.683	6.51
517.032	6.51
517.38	6.51
517.729	6.41
518.077	6.56
518.426	6.46
518.774	6.47
519.122	6.65
519.47	6.47
519.819	6.54
520.167	6.5
520.515	6.41
520.863	6.35
521.211	6.45
521.559	6.39
521.907	6.37
522.255	6.4
522.602	6.43
522.95	6.62
523.298	6.61
523.645	6.48
523.993	6.49
524.341	6.68
524.688	6.6
525.036	6.69
525.383	6.66
525.73	6.69
526.078	6.76
526.425	6.73
526.772	6.64
527.119	6.66
527.466	6.57
527.814	6.47
528.161	6.51
528.508	6.53
528.854	6.56
529.201	6.61
529.548	6.6
529.895	6.61
530.242	6.56
530.588	6.44
530.935	6.36
531.282	6.37
531.628	6.35
531.975	6.43
532.321	6.45
532.667	6.52
533.014	6.68
533.36	6.68
533.706	6.68
534.052	6.71
534.399	6.76
534.745	6.81
535.091	6.74
535.437	6.74
535.783	6.67
536.129	6.69
536.474	6.68
536.82	6.73
537.166	6.71
537.512	6.79
537.857	6.92
538.203	6.92
538.549	6.88
538.894	6.86
539.239	6.83
539.585	6.81
539.93	6.89
540.276	6.84
540.621	7.1
540.966	7.09
541.311	7.07
541.656	7.09
542.001	7.12
542.346	7.25
542.691	7.12
543.036	7.03
543.381	6.93
543.726	6.86
544.071	6.92
544.415	6.89
544.76	6.94
545.105	6.96
545.449	7.01
545.794	7.1
546.138	7.13
546.483	7.1
546.827	7.16
547.171	7.13
547.516	7.25
547.86	7.27
548.204	7.37
548.548	7.31
548.892	7.17
549.236	7.09
549.58	7.23
549.924	7.26
550.268	7.33
550.612	7.37
550.956	7.35
551.3	7.45
551.643	7.6
551.987	7.43
552.33	7.57
552.674	7.47
553.017	7.53
553.361	7.71
553.704	7.51
554.048	7.73
554.391	7.55
554.734	7.69
555.077	7.46
555.42	7.58
555.764	7.58
556.107	7.61
556.45	7.65
556.793	7.65
557.135	7.86
557.478	7.74
557.821	7.75
558.164	7.98
558.507	7.81
558.849	7.91
559.192	7.73
559.534	7.78
559.877	7.86
560.219	7.97
560.562	8.09
560.904	8.13
561.246	7.86
561.589	8.04
561.931	8.15
562.273	8.03
562.615	8.05
562.957	8.29
563.299	8.27
563.641	7.96
563.983	8.17
564.325	8.26
564.667	7.96
565.008	7.92
565.35	8.23
565.692	8.37
566.033	8.22
566.375	8.18
566.716	8.25
567.058	8.47
567.399	8.14
567.741	8.26
568.082	8.21
568.423	8.36
568.764	8.24
569.105	8.45
569.447	8.4
569.788	8.36
570.129	8.36
570.47	8.49
570.811	8.72
571.151	8.4
571.492	8.45
571.833	8.41
572.174	8.67
572.514	8.56
572.855	8.68
573.195	8.65
573.536	8.73
573.876	8.58
574.217	8.76
574.557	8.54
574.898	8.83
575.238	8.68
575.578	8.58
575.918	8.75
576.258	8.68
576.598	8.73
576.938	8.73
577.278	8.68
577.618	8.78
577.958	8.79
578.298	9.07
578.638	8.95
578.977	8.78
579.317	8.86
579.657	8.86
579.996	8.83
580.336	8.92
580.675	9.38
581.014	9.22
581.354	9.25
581.693	9.42
582.032	9.44
582.372	9.27
582.711	9.32
583.05	9.25
583.389	9.21
583.728	9.31
584.067	9.51
584.406	9.51
584.745	9.44
585.083	9.58
585.422	9.4
585.761	9.64
586.1	9.72
586.438	9.48
586.777	9.47
587.115	9.56
587.454	9.73
587.792	9.55
588.13	9.52
588.469	9.75
588.807	9.46
589.145	9.59
589.483	9.69
589.821	9.61
590.159	9.89
590.497	9.96
590.835	10.04
591.173	9.68
591.511	9.84
591.849	9.78
592.187	10.12
592.524	9.96
592.862	10.06
593.2	9.81
593.537	9.93
593.875	10.21
594.212	10.09
594.55	10.17
594.887	10.12
595.224	10.22
595.561	10.23
595.899	10.08
596.236	10.15
596.573	10.29
596.91	10.05
597.247	10.36
597.584	10.29
597.921	10.22
598.258	10.4
598.594	10.39
598.931	10.18
599.268	10.35
599.604	10.24
599.941	10.35
600.277	10.19
600.614	10.38
600.95	10.43
601.287	10.5
601.623	10.67
601.959	10.62
602.296	10.58
602.632	10.73
602.968	10.84
603.304	10.67
603.64	10.7
603.976	10.9
604.312	10.85
604.648	10.77
604.984	10.74
605.319	11.07
605.655	10.92
605.991	10.9
606.326	10.84
606.662	10.81
606.998	10.87
607.333	10.91
607.668	10.91
608.004	10.83
608.339	11.05
608.674	10.88
609.01	10.95
609.345	11.26
609.68	11.21
610.015	11.46
610.35	11.65
610.685	11.6
611.02	11.2
611.355	11.62
611.689	11.25
612.024	11.54
612.359	11.21
612.694	11.43
613.028	11.41
613.363	11.3
613.697	11.36
614.032	11.74
614.366	11.53
614.7	11.66
615.035	11.83
615.369	11.7
615.703	11.76
616.037	11.57
616.371	11.55
616.705	11.88
617.039	11.63
617.373	11.71
617.707	11.56
618.041	12.03
618.375	12.2
618.709	12.28
619.042	12.4
619.376	12.15
619.71	12.06
620.043	12.19
620.377	12.65
620.71	12.06
621.043	12.31
621.377	12.35
621.71	12.44
622.043	11.73
622.376	12.27
622.709	12.08
623.043	12.21
623.376	12.53
623.709	12.41
624.041	12.96
624.374	12.35
624.707	12.24
625.04	12.59
625.373	12.62
625.705	12.85
626.038	12.53
626.37	12.74
626.703	12.67
627.035	12.66
627.368	12.58
627.7	13.06
628.032	12.91
628.365	13
628.697	13.05
629.029	12.98
629.361	13.01
629.693	12.95
630.025	13.02
630.357	12.71
630.689	13.03
631.021	13.07
631.353	13.2
631.684	13.47
632.016	13.14
632.348	12.96
632.679	13.34
633.011	13.44
633.342	13.06
633.674	13.4
634.005	13.04
634.336	13.36
634.668	13.56
634.999	13.59
635.33	13.43
635.661	13.65
635.992	13.37
636.323	13.73
636.654	13.35
636.985	13.38
637.316	13.71
637.647	13.82
637.977	13.85
638.308	13.99
638.639	13.6
638.969	13.99
639.3	13.88
639.63	13.61
639.961	14.28
640.291	14.29
640.622	14.13
640.952	13.83
641.282	14.06
641.612	14.33
641.943	14.04
642.273	14.41
642.603	14.15
642.933	13.81
643.263	14.31
643.592	14.07
643.922	14.25
644.252	13.98
644.582	14.8
644.911	14.74
645.241	14.9
645.571	14.29
645.9	14.39
646.23	14.36
646.559	14.49
646.888	14.97
647.218	14.28
647.547	14.52
647.876	14.93
648.205	14.55
648.534	14.97
648.863	14.66
649.192	15.04
649.521	15.18
649.85	15.35
650.179	15.21
650.508	14.7
650.837	14.62
651.165	14.7
651.494	15.07
651.822	15.15
652.151	15.4
652.479	15.7
652.808	14.91
653.136	14.78
653.465	14.97
653.793	15.2
654.121	15.72
654.449	15.34
654.777	15.08
655.105	15.55
655.433	14.93
655.761	14.92
656.089	15.29
656.417	15.29
656.745	15.29
657.073	15.05
657.4	16.18
657.728	15.78
658.056	15.95
658.383	15.34
658.711	16.1
659.038	16.05
659.365	16.2
659.693	15.99
660.02	16.19
660.347	16.47
660.674	15.97
661.001	16.37
661.329	16.06
661.656	16.22
661.982	16.01
662.309	16.08
662.636	16.32
662.963	16.28
663.29	16.53
663.616	16.31
663.943	16.53
664.27	16.39
664.596	16.53
664.923	16.84
665.249	16.23
665.576	16.2
665.902	15.98
666.228	16.45
666.554	16.16
666.881	16.73
667.207	16.07
667.533	16.67
667.859	16.31
668.185	16.93
668.511	16.79
668.837	15.82
669.162	16.72
669.488	16.54
669.814	16.41
670.139	16.7
670.465	17.08
670.791	17.13
671.116	17.22
671.442	16.77
671.767	16.44
672.092	17.01
672.418	17.34
672.743	17.03
673.068	17.38
673.393	17.26
673.718	16.98
674.043	16.88
674.368	17.61
674.693	17.71
675.018	17.68
675.343	17.95
675.667	17.22
675.992	17.41
676.317	17.07
676.641	17.96
676.966	17.67
677.29	17.45
677.615	17.98
677.939	17.96
678.264	17.64
678.588	17.36
678.912	17.91
679.236	17.5
679.56	17.12
679.885	18.25
680.209	18.05
680.532	18.34
680.856	17.71
681.18	17.61
681.504	17.83
681.828	18.03
682.152	18.27
682.475	18.25
682.799	18.48
683.122	18.39
683.446	18.28
683.769	18.66
684.093	18.68
684.416	18.6
684.739	17.95
685.062	18.37
685.386	18.4
685.709	18.86
