Data from 0174_forehead_Reflection__4__100.txt Node

Date: Mon Aug 28 19:30:19 CDT 2023
User: ToomeyLab
Spectrometer: FLMS14357
Trigger mode: 0
Integration Time (sec): 1.000000E-2
Scans to average: 100
Electric dark correction enabled: true
Nonlinearity correction enabled: false
Boxcar width: 0
XAxis mode: Wavelengths
Number of Pixels in Spectrum: 2048
>>>>>Begin Spectral Data<<<<<
189.047	-72.25
189.435	-72.25
189.823	-72.25
190.211	372.09
190.599	68.03
190.987	151.1
191.375	-49.2
191.763	79.65
192.151	14.36
192.538	43.91
192.926	252.08
193.314	899.32
193.702	162.12
194.089	88.51
194.477	3632.94
194.864	-527.12
195.252	81.59
195.639	-629.06
196.027	88.36
196.414	315.46
196.801	162.96
197.189	135.71
197.576	-410.78
197.963	-61.69
198.351	-7.81
198.738	13.55
199.125	-8.83
199.512	-1.65
199.899	9.95
200.286	22.02
200.673	23.42
201.06	4.29
201.447	-65.86
201.833	11.37
202.22	-20.31
202.607	5.11
202.994	5.62
203.38	-41.95
203.767	25.8
204.154	-8.41
204.54	-10.41
204.927	-16.25
205.313	25.21
205.699	-64.13
206.086	51.08
206.472	-20.3
206.858	-46.31
207.245	-0.88
207.631	18.48
208.017	-17.79
208.403	1.64
208.789	14.37
209.175	-26.09
209.561	4.63
209.947	5.35
210.333	-6.41
210.719	11.61
211.105	16.75
211.491	4.15
211.876	35.21
212.262	32.07
212.648	34.42
213.034	3.62
213.419	-21.75
213.805	8.91
214.19	-47.39
214.576	14.64
214.961	10.3
215.346	5.63
215.732	23.1
216.117	-27.13
216.502	7.55
216.888	-34.32
217.273	-1.64
217.658	28.9
218.043	-1.83
218.428	14.89
218.813	-6.82
219.198	-28.16
219.583	-9.14
219.968	16.31
220.353	-7.1
220.738	15.29
221.122	11.09
221.507	-19.25
221.892	3.66
222.276	18.25
222.661	6.9
223.046	-2.73
223.43	4.24
223.815	16.73
224.199	1.09
224.583	3.66
224.968	7.82
225.352	0.5
225.736	2.94
226.121	6.91
226.505	3.04
226.889	3.15
227.273	1.88
227.657	5.98
228.041	3.65
228.425	3.33
228.809	1.16
229.193	-2.29
229.577	5.13
229.961	0.73
230.344	0.91
230.728	1.47
231.112	0.03
231.495	0.84
231.879	1.22
232.263	1.57
232.646	1.09
233.03	-0
233.413	2.26
233.797	0.61
234.18	0.73
234.563	-1.89
234.946	3.59
235.33	2.76
235.713	-0.9
236.096	1.97
236.479	0.14
236.862	2.78
237.245	1.17
237.628	1.36
238.011	2.42
238.394	2.11
238.777	2.83
239.16	-0.22
239.543	-1.44
239.925	1.59
240.308	-0.56
240.691	0.88
241.073	-0.43
241.456	1.57
241.838	0.91
242.221	1.69
242.603	2.47
242.986	1.21
243.368	0.77
243.75	0.66
244.133	0.95
244.515	0.45
244.897	1.96
245.279	1.54
245.661	0.98
246.043	0.74
246.425	0.8
246.807	3.19
247.189	0.07
247.571	1.61
247.953	1.1
248.335	0.89
248.717	1.16
249.098	1.27
249.48	1.3
249.862	1.24
250.243	0.73
250.625	1.11
251.006	1.37
251.388	1.01
251.769	1.4
252.151	0.75
252.532	-0.16
252.913	1.23
253.295	0.18
253.676	0.8
254.057	1.42
254.438	1.17
254.819	1.34
255.2	1.05
255.581	1.34
255.962	0.93
256.343	0.86
256.724	0.76
257.105	0.18
257.486	1.54
257.867	1.19
258.247	0.95
258.628	2.34
259.009	-0.05
259.389	0.13
259.77	2.02
260.15	0.72
260.531	1.1
260.911	1.15
261.292	1.29
261.672	1.31
262.052	1.11
262.432	1.05
262.813	1.24
263.193	0.98
263.573	0.92
263.953	1.01
264.333	1.1
264.713	1.26
265.093	1.61
265.473	0.95
265.853	0.57
266.233	0.65
266.612	0.89
266.992	1.36
267.372	0.92
267.752	1.64
268.131	1.54
268.511	0.4
268.89	1.29
269.27	0.87
269.649	0.78
270.029	1.41
270.408	1.2
270.787	1.71
271.167	1.43
271.546	0.76
271.925	1.15
272.304	1.19
272.683	1.56
273.062	0.56
273.441	1.13
273.82	1.16
274.199	0.67
274.578	1.11
274.957	1.12
275.336	1.38
275.715	1.64
276.093	0.97
276.472	0.88
276.851	1.38
277.229	1
277.608	0.95
277.986	1.26
278.365	1.09
278.743	0.69
279.122	0.57
279.5	0.53
279.878	0.11
280.257	1.3
280.635	1.6
281.013	1.75
281.391	0.98
281.769	1.23
282.147	1.25
282.525	1.77
282.903	0.72
283.281	1.31
283.659	1.64
284.037	0.94
284.415	0.93
284.792	1.04
285.17	0.54
285.548	0.98
285.925	1.46
286.303	1.13
286.68	1.14
287.058	1.19
287.435	1.22
287.813	0.87
288.19	1.52
288.567	1.35
288.945	1.16
289.322	1.35
289.699	1.45
290.076	1.58
290.453	1.08
290.83	0.68
291.207	1.29
291.584	1.29
291.961	1.6
292.338	1.15
292.715	1.06
293.092	1.52
293.469	1.15
293.845	0.77
294.222	0.96
294.599	1
294.975	1.45
295.352	1.6
295.728	1.31
296.105	1.49
296.481	1.55
296.858	2.22
297.234	1.83
297.61	1.47
297.986	1.33
298.363	1.67
298.739	1.41
299.115	1.31
299.491	1.68
299.867	1.55
300.243	1.73
300.619	1.75
300.995	1.89
301.371	1.34
301.746	1.74
302.122	1.53
302.498	1.07
302.874	2.13
303.249	1.92
303.625	1.47
304	1.7
304.376	1.87
304.751	1.48
305.127	1.82
305.502	1.8
305.878	1.63
306.253	1.93
306.628	2.14
307.003	2.21
307.378	2.14
307.754	2.5
308.129	1.75
308.504	2.49
308.879	2.37
309.254	1.96
309.629	1.99
310.003	1.72
310.378	2.02
310.753	2.15
311.128	2.07
311.502	2.09
311.877	2.01
312.252	1.92
312.626	2.11
313.001	2.04
313.375	2.08
313.75	2.19
314.124	2.19
314.498	2.38
314.873	2.26
315.247	2.75
315.621	1.5
315.995	2.65
316.369	2.25
316.743	1.97
317.117	2.22
317.491	2.09
317.865	1.63
318.239	1.81
318.613	2
318.987	2.61
319.361	2.28
319.734	2.31
320.108	2.1
320.482	2.9
320.855	2.03
321.229	1.75
321.602	3.1
321.976	2.11
322.349	2.89
322.723	2.39
323.096	2.78
323.469	2.34
323.843	2.2
324.216	2.67
324.589	3.04
324.962	2.73
325.335	2.46
325.708	2.36
326.081	2.44
326.454	2.69
326.827	2.5
327.2	1.98
327.573	2.67
327.945	3.13
328.318	2.81
328.691	1.73
329.063	1.89
329.436	2.41
329.809	3.1
330.181	2.46
330.553	2.38
330.926	2.79
331.298	2.56
331.671	2.15
332.043	2.42
332.415	3.26
332.787	2.24
333.159	2.56
333.532	3.14
333.904	3.23
334.276	2.69
334.648	3.09
335.02	3.29
335.391	2.69
335.763	2.4
336.135	3.46
336.507	2.3
336.879	2.4
337.25	3.31
337.622	3.06
337.993	3.15
338.365	2.64
338.736	3
339.108	2.48
339.479	2.66
339.851	3.25
340.222	3.02
340.593	2.89
340.964	2.96
341.336	2.72
341.707	2.41
342.078	2.48
342.449	2.97
342.82	3.13
343.191	2.89
343.562	3.13
343.933	2.65
344.303	2.83
344.674	3.28
345.045	3.13
345.416	3.27
345.786	3.45
346.157	2.96
346.527	2.74
346.898	2.95
347.268	2.96
347.639	2.76
348.009	2.99
348.38	2.87
348.75	2.93
349.12	3.54
349.49	3.12
349.861	2.76
350.231	2.74
350.601	3.49
350.971	3.47
351.341	3.3
351.711	3.11
352.081	3.3
352.45	3.38
352.82	3.16
353.19	3.6
353.56	3.41
353.929	3.23
354.299	2.99
354.669	3.2
355.038	3.1
355.408	3.25
355.777	3.16
356.147	3.3
356.516	3.55
356.885	3.64
357.254	3.28
357.624	3.21
357.993	3.57
358.362	3.1
358.731	3.4
359.1	3.4
359.469	3.75
359.838	3.08
360.207	3.65
360.576	3.47
360.945	3.51
361.314	3.11
361.682	3.3
362.051	3.64
362.42	3.41
362.788	3.38
363.157	3.66
363.525	3.19
363.894	3.34
364.262	3.48
364.631	3.26
364.999	3.63
365.367	3.53
365.735	3.37
366.104	3.38
366.472	3.33
366.84	3.45
367.208	3.53
367.576	3.32
367.944	3.65
368.312	3.72
368.68	3.52
369.048	3.85
369.416	3.39
369.783	3.71
370.151	3.96
370.519	3.71
370.886	3.68
371.254	3.54
371.621	3.6
371.989	3.54
372.356	3.89
372.724	4.2
373.091	3.82
373.458	3.28
373.826	3.9
374.193	3.68
374.56	4.04
374.927	3.85
375.294	3.91
375.661	4.02
376.028	3.62
376.395	3.77
376.762	4.24
377.129	3.84
377.496	3.93
377.863	4.42
378.229	3.51
378.596	4.31
378.963	4.09
379.329	4.16
379.696	3.92
380.062	3.67
380.429	3.97
380.795	4.42
381.161	3.95
381.528	4.3
381.894	4.26
382.26	3.9
382.626	4.18
382.993	4.2
383.359	4.17
383.725	4.46
384.091	4.32
384.457	4.26
384.823	3.92
385.188	4.15
385.554	3.97
385.92	3.97
386.286	4.27
386.651	4.17
387.017	4.08
387.383	4.46
387.748	4.24
388.114	4.15
388.479	4
388.845	4.24
389.21	4.24
389.575	4.4
389.94	4.41
390.306	4.29
390.671	4.33
391.036	4.38
391.401	4.53
391.766	4.3
392.131	4.39
392.496	4.17
392.861	4.49
393.226	4.31
393.591	4.15
393.956	4.48
394.32	4.24
394.685	4.39
395.05	4.6
395.414	4.6
395.779	4.45
396.143	4.23
396.508	4.39
396.872	4.49
397.236	4.46
397.601	4.42
397.965	4.54
398.329	4.71
398.694	4.64
399.058	4.58
399.422	4.71
399.786	4.37
400.15	4.61
400.514	4.49
400.878	4.4
401.242	4.67
401.605	4.79
401.969	4.61
402.333	4.56
402.697	4.62
403.06	4.77
403.424	4.89
403.787	4.64
404.151	4.48
404.514	4.82
404.878	4.66
405.241	4.95
405.604	4.76
405.968	4.45
406.331	5.07
406.694	4.66
407.057	4.83
407.42	4.71
407.783	4.61
408.146	4.73
408.509	4.83
408.872	4.82
409.235	4.96
409.598	4.8
409.961	4.8
410.323	5.11
410.686	5.05
411.049	5.26
411.411	5.04
411.774	5.06
412.136	4.84
412.499	4.89
412.861	4.73
413.223	4.99
413.586	4.84
413.948	4.87
414.31	5.08
414.672	4.96
415.035	5.18
415.397	5.11
415.759	5.21
416.121	5.33
416.483	4.81
416.845	5.11
417.206	5.32
417.568	5.08
417.93	4.91
418.292	5.27
418.653	5.2
419.015	5.15
419.377	4.84
419.738	5.19
420.1	5
420.461	4.96
420.822	5.01
421.184	5.15
421.545	5.15
421.906	5.03
422.267	5.14
422.629	5.04
422.99	5.06
423.351	5.05
423.712	4.95
424.073	5.16
424.434	5.15
424.795	5.08
425.155	5.18
425.516	5.23
425.877	5.09
426.238	5.04
426.598	5.03
426.959	5.17
427.32	5.23
427.68	5.27
428.041	5.23
428.401	5.41
428.761	5.27
429.122	5.28
429.482	5.34
429.842	5.47
430.202	5.4
430.563	5.47
430.923	5.61
431.283	5.53
431.643	5.46
432.003	5.48
432.363	5.61
432.722	5.5
433.082	5.56
433.442	5.5
433.802	5.41
434.161	5.56
434.521	5.51
434.881	5.36
435.24	5.61
435.6	5.57
435.959	5.7
436.319	5.59
436.678	5.62
437.037	5.59
437.396	5.69
437.756	5.63
438.115	5.82
438.474	5.71
438.833	5.78
439.192	5.75
439.551	5.55
439.91	5.86
440.269	5.7
440.628	5.67
440.987	5.8
441.345	5.72
441.704	5.7
442.063	5.6
442.421	5.65
442.78	5.87
443.138	5.59
443.497	5.67
443.855	5.8
444.214	5.86
444.572	6.03
444.93	5.95
445.288	5.76
445.647	5.94
446.005	5.96
446.363	5.79
446.721	5.87
447.079	5.79
447.437	5.65
447.795	5.65
448.153	5.83
448.51	5.68
448.868	5.79
449.226	5.7
449.584	5.81
449.941	5.94
450.299	5.98
450.656	6
451.014	5.88
451.371	6.05
451.729	5.9
452.086	6.06
452.443	6.26
452.801	6.22
453.158	6.13
453.515	6.08
453.872	6.05
454.229	6.09
454.586	6.08
454.943	5.99
455.3	6.05
455.657	6.15
456.014	6.26
456.371	6.27
456.727	6.23
457.084	6.3
457.441	6.32
457.797	6.24
458.154	6.38
458.51	6.55
458.867	6.27
459.223	6.36
459.58	6.35
459.936	6.47
460.292	6.22
460.648	6.24
461.005	6.15
461.361	6.27
461.717	6.07
462.073	6.11
462.429	6.03
462.785	6.2
463.141	6.37
463.496	6.48
463.852	6.5
464.208	6.45
464.564	6.54
464.919	6.62
465.275	6.72
465.631	6.45
465.986	6.5
466.342	6.75
466.697	6.44
467.052	6.56
467.408	6.6
467.763	6.58
468.118	6.36
468.473	6.73
468.829	6.66
469.184	6.32
469.539	6.66
469.894	6.65
470.249	6.7
470.603	6.92
470.958	6.63
471.313	6.66
471.668	6.62
472.023	7
472.377	6.77
472.732	6.66
473.086	6.72
473.441	6.72
473.795	7.01
474.15	6.86
474.504	6.77
474.859	6.93
475.213	6.76
475.567	6.77
475.921	7.1
476.275	6.87
476.63	6.94
476.984	6.91
477.338	7.09
477.692	6.93
478.045	7.07
478.399	6.99
478.753	6.78
479.107	6.86
479.461	6.85
479.814	7
480.168	6.93
480.521	6.98
480.875	6.94
481.228	6.97
481.582	7.09
481.935	7.02
482.289	7.06
482.642	7.05
482.995	7.1
483.348	6.95
483.701	7.01
484.055	6.93
484.408	6.86
484.761	6.79
485.114	6.78
485.466	6.57
485.819	6.37
486.172	6.22
486.525	6.35
486.878	6.54
487.23	6.81
487.583	7.03
487.936	7.11
488.288	7.07
488.641	7.02
488.993	6.77
489.345	6.67
489.698	6.65
490.05	6.66
490.402	6.7
490.754	6.84
491.107	6.99
491.459	7.06
491.811	7.2
492.163	7.35
492.515	7.33
492.866	7.28
493.218	6.98
493.57	6.87
493.922	6.61
494.274	6.81
494.625	6.95
494.977	7.3
495.328	7.51
495.68	7.53
496.031	7.57
496.383	7.57
496.734	7.5
497.086	7.67
497.437	7.72
497.788	7.44
498.139	7.41
498.49	7.4
498.842	7.45
499.193	7.27
499.544	7.31
499.894	7.44
500.245	7.42
500.596	7.54
500.947	7.62
501.298	7.68
501.648	7.54
501.999	7.75
502.35	7.6
502.7	7.72
503.051	7.67
503.401	7.81
503.752	7.68
504.102	7.77
504.452	7.79
504.803	7.81
505.153	7.76
505.503	7.7
505.853	7.68
506.203	7.62
506.553	7.67
506.903	7.9
507.253	7.82
507.603	7.81
507.953	7.9
508.303	7.91
508.652	7.93
509.002	7.88
509.352	7.71
509.701	7.79
510.051	7.8
510.4	7.8
510.75	7.78
511.099	7.78
511.449	7.83
511.798	7.76
512.147	7.84
512.496	7.87
512.846	7.85
513.195	7.95
513.544	7.98
513.893	7.93
514.242	8.06
514.591	7.96
514.939	7.83
515.288	8.11
515.637	8.18
515.986	8.08
516.334	8.23
516.683	8.12
517.032	8.24
517.38	8.3
517.729	8.24
518.077	8.22
518.426	8.12
518.774	8.21
519.122	8.18
519.47	8.1
519.819	8.05
520.167	8.06
520.515	7.94
520.863	7.78
521.211	7.94
521.559	8.07
521.907	8.14
522.255	8.15
522.602	8.3
522.95	8.46
523.298	8.36
523.645	8.4
523.993	8.33
524.341	8.55
524.688	8.47
525.036	8.49
525.383	8.59
525.73	8.58
526.078	8.65
526.425	8.43
526.772	8.49
527.119	8.35
527.466	8.11
527.814	8
528.161	7.94
528.508	8.21
528.854	8.31
529.201	8.29
529.548	8.34
529.895	8.2
530.242	7.99
530.588	7.69
530.935	7.58
531.282	7.7
531.628	7.93
531.975	8.27
532.321	8.48
532.667	8.49
533.014	8.61
533.36	8.65
533.706	8.57
534.052	8.56
534.399	8.51
534.745	8.43
535.091	8.27
535.437	8.08
535.783	8.09
536.129	8.25
536.474	8.45
536.82	8.64
537.166	8.85
537.512	8.91
537.857	8.99
538.203	8.65
538.549	8.56
538.894	8.36
539.239	8.4
539.585	8.62
539.93	8.7
540.276	8.87
540.621	9.03
540.966	8.96
541.311	9.09
541.656	9.06
542.001	9
542.346	8.85
542.691	8.67
543.036	8.56
543.381	8.25
543.726	8.14
544.071	8.36
544.415	8.56
544.76	8.72
545.105	8.84
545.449	8.86
545.794	8.94
546.138	9.02
546.483	8.95
546.827	9.1
547.171	9.08
547.516	8.97
547.86	9.13
548.204	9.07
548.548	9.01
548.892	8.84
549.236	8.85
549.58	8.92
549.924	9.14
550.268	9.34
550.612	9.37
550.956	9.46
551.3	9.54
551.643	9.64
551.987	9.39
552.33	9.55
552.674	9.58
553.017	9.6
553.361	9.51
553.704	9.37
554.048	9.64
554.391	9.42
554.734	9.45
555.077	9.38
555.42	9.22
555.764	9.57
556.107	9.49
556.45	9.69
556.793	9.67
557.135	9.65
557.478	9.69
557.821	9.71
558.164	9.83
558.507	9.61
558.849	9.83
559.192	9.83
559.534	9.52
559.877	9.92
560.219	9.86
560.562	9.79
560.904	10
561.246	9.69
561.589	9.8
561.931	9.95
562.273	9.82
562.615	9.76
562.957	9.84
563.299	9.98
563.641	9.67
563.983	9.68
564.325	9.9
564.667	9.73
565.008	9.99
565.35	10.14
565.692	10.08
566.033	9.8
566.375	9.97
566.716	10.06
567.058	9.86
567.399	9.88
567.741	9.99
568.082	9.75
568.423	9.58
568.764	9.75
569.105	9.91
569.447	10.06
569.788	10.27
570.129	10.11
570.47	9.98
570.811	10.14
571.151	10.05
571.492	10.07
571.833	10.15
572.174	10.15
572.514	10.11
572.855	10.03
573.195	10.35
573.536	10.11
573.876	9.96
574.217	9.92
574.557	10.06
574.898	10.19
575.238	10.02
575.578	10.19
575.918	10.25
576.258	10.14
576.598	10.18
576.938	10.1
577.278	10.17
577.618	10.13
577.958	10.1
578.298	10.31
578.638	10.27
578.977	10.33
579.317	10.4
579.657	10.43
579.996	10.52
580.336	10.59
580.675	10.63
581.014	10.74
581.354	10.55
581.693	10.52
582.032	10.68
582.372	10.63
582.711	10.63
583.05	10.53
583.389	10.8
583.728	10.75
584.067	10.69
584.406	10.52
584.745	10.76
585.083	10.72
585.422	10.7
585.761	10.63
586.1	11.01
586.438	10.69
586.777	10.71
587.115	10.55
587.454	10.91
587.792	10.93
588.13	11.06
588.469	11.03
588.807	10.79
589.145	10.96
589.483	10.87
589.821	10.92
590.159	10.99
590.497	10.73
590.835	10.93
591.173	10.68
591.511	10.68
591.849	10.74
592.187	10.91
592.524	10.81
592.862	10.86
593.2	10.97
593.537	10.85
593.875	11.27
594.212	11.17
594.55	11.18
594.887	11.14
595.224	11.01
595.561	10.98
595.899	10.85
596.236	11
596.573	11.11
596.91	10.98
597.247	11.41
597.584	10.96
597.921	11.28
598.258	11.01
598.594	10.97
598.931	10.84
599.268	10.92
599.604	10.75
599.941	10.97
600.277	11.07
600.614	11.52
600.95	11.42
601.287	11.38
601.623	11.52
601.959	11.52
602.296	11.38
602.632	11.45
602.968	11.35
603.304	11.34
603.64	11.26
603.976	11.36
604.312	11.47
604.648	11.24
604.984	11.37
605.319	11.15
605.655	11.14
605.991	11.31
606.326	11.07
606.662	11.08
606.998	10.98
607.333	11.09
607.668	11.07
608.004	11.29
608.339	11.37
608.674	11.48
609.01	11.62
609.345	11.62
609.68	11.44
610.015	11.78
610.35	11.59
610.685	11.28
611.02	11.34
611.355	11.44
611.689	11.15
612.024	11.19
612.359	11.27
612.694	11.48
613.028	11.35
613.363	11.6
613.697	11.67
614.032	12.03
614.366	11.72
614.7	11.94
615.035	11.75
615.369	11.89
615.703	11.56
616.037	11.67
616.371	11.44
616.705	12.03
617.039	11.75
617.373	11.87
617.707	11.62
618.041	11.58
618.375	11.85
618.709	11.9
619.042	12.05
619.376	11.94
619.71	11.87
620.043	11.99
620.377	12.28
620.71	11.81
621.043	12.2
621.377	11.99
621.71	12.23
622.043	11.75
622.376	12.11
622.709	11.93
623.043	12.28
623.376	12.42
623.709	12.26
624.041	12.23
624.374	11.92
624.707	11.78
625.04	11.76
625.373	11.73
625.705	12.51
626.038	11.84
626.37	12.22
626.703	12.31
627.035	12.37
627.368	12.28
627.7	12.36
628.032	12.03
628.365	12.12
628.697	12.01
629.029	12.08
629.361	12.23
629.693	12.13
630.025	11.87
630.357	12.17
630.689	12.68
631.021	12.43
631.353	12.08
631.684	12.54
632.016	12.03
632.348	12.2
632.679	12.63
633.011	12.39
633.342	12.52
633.674	12.47
634.005	12.37
634.336	12.12
634.668	12.67
634.999	12.84
635.33	12.7
635.661	12.52
635.992	12.05
636.323	12.55
636.654	12.13
636.985	12.4
637.316	12.65
637.647	12.14
637.977	12.55
638.308	12.79
638.639	12.59
638.969	12.71
639.3	12.61
639.63	12.48
639.961	12.5
640.291	12.47
640.622	12.86
640.952	12.43
641.282	12.74
641.612	12.41
641.943	12.25
642.273	13.02
642.603	12.57
642.933	12.26
643.263	12.91
643.592	12.46
643.922	12.69
644.252	12.66
644.582	12.76
644.911	12.66
645.241	13.11
645.571	12.45
645.9	12.35
646.23	13.35
646.559	12.84
646.888	13.1
647.218	12.64
647.547	12.54
647.876	13.1
648.205	12.47
648.534	13
648.863	12.61
649.192	13
649.521	12.86
649.85	12.74
650.179	12.77
650.508	12.93
650.837	12.74
651.165	12.86
651.494	12.98
651.822	13.02
652.151	12.92
652.479	13.21
652.808	13.05
653.136	12.44
653.465	13.05
653.793	13.26
654.121	13.25
654.449	13.23
654.777	12.8
655.105	13.18
655.433	13.1
655.761	12.55
656.089	13.05
656.417	12.18
656.745	13.28
657.073	12.85
657.4	13.13
657.728	13.4
658.056	13.06
658.383	13.2
658.711	13.33
659.038	12.82
659.365	13.19
659.693	12.6
660.02	12.73
660.347	13.46
660.674	12.84
661.001	13.44
661.329	12.75
661.656	12.74
661.982	12.97
662.309	12.84
662.636	12.92
662.963	13.16
663.29	13.61
663.616	12.8
663.943	13.56
664.27	13.3
664.596	13.19
664.923	13.41
665.249	13.38
665.576	13.48
665.902	13.37
666.228	13.15
666.554	13.2
666.881	13.42
667.207	13.46
667.533	13.58
667.859	13.05
668.185	13.23
668.511	13.67
668.837	12.74
669.162	13.64
669.488	13.12
669.814	13.46
670.139	13.54
670.465	13.33
670.791	13.81
671.116	13.15
671.442	13.71
671.767	13.24
672.092	13.16
672.418	13.31
672.743	13.63
673.068	14
673.393	13.39
673.718	13.08
674.043	13.05
674.368	13.43
674.693	13.88
675.018	13.95
675.343	13.31
675.667	14.13
675.992	13.91
676.317	13.37
676.641	13.75
676.966	13.51
677.29	13.46
677.615	13.88
677.939	14.42
678.264	13.35
678.588	14.46
678.912	14.31
679.236	12.99
679.56	13.34
679.885	13.73
680.209	13.6
680.532	14.46
680.856	13.64
681.18	13.86
681.504	13.48
681.828	13.54
682.152	14.07
682.475	13.74
682.799	13.76
683.122	13.85
683.446	13.3
683.769	13.96
684.093	14.19
684.416	14.21
684.739	14.05
