Data from 0022_crown_Reflection__3__39.txt Node

Date: Thu Oct 20 20:38:31 CDT 2022
User: ToomeyLab
Spectrometer: FLMS14357
Trigger mode: 0
Integration Time (sec): 1.000000E-2
Scans to average: 100
Electric dark correction enabled: true
Nonlinearity correction enabled: false
Boxcar width: 0
XAxis mode: Wavelengths
Number of Pixels in Spectrum: 2048
>>>>>Begin Spectral Data<<<<<
189.047	111.44
189.435	111.44
189.823	111.44
190.211	23.48
190.599	115.17
190.987	-175.14
191.375	139.27
191.763	86.61
192.151	116.68
192.538	-16.31
192.926	76.04
193.314	30.5
193.702	90.76
194.089	-10.98
194.477	-1621.69
194.864	-85.06
195.252	228.8
195.639	62.32
196.027	105.95
196.414	-237.74
196.801	-297.59
197.189	20.41
197.576	1860.15
197.963	-135.04
198.351	12.98
198.738	-16.82
199.125	30.42
199.512	5.25
199.899	-16.81
200.286	43.05
200.673	32.38
201.06	24.66
201.447	16.64
201.833	3.35
202.22	28.66
202.607	40.84
202.994	19.89
203.38	25.56
203.767	13.56
204.154	16.84
204.54	-2.65
204.927	45.71
205.313	25.68
205.699	56.45
206.086	23.06
206.472	16.74
206.858	19.01
207.245	11.74
207.631	-2.88
208.017	32.57
208.403	7.14
208.789	-2.63
209.175	58.32
209.561	11.96
209.947	-11.19
210.333	30.2
210.719	15.29
211.105	-6.74
211.491	20.6
211.876	15.29
212.262	-12.8
212.648	-16.06
213.034	-11.32
213.419	37.89
213.805	-20.57
214.19	28.35
214.576	32.84
214.961	9.73
215.346	-11.71
215.732	14.72
216.117	19.68
216.502	16.38
216.888	32.08
217.273	11.11
217.658	16.17
218.043	-19.57
218.428	26.42
218.813	11.5
219.198	17.4
219.583	12.73
219.968	4.06
220.353	8.29
220.738	13.51
221.122	-6.3
221.507	16.16
221.892	12.39
222.276	14.59
222.661	6.98
223.046	19.76
223.43	13.23
223.815	5.61
224.199	8.66
224.583	5.64
224.968	7.07
225.352	5.54
225.736	12.65
226.121	9.73
226.505	13.83
226.889	5.73
227.273	6.47
227.657	8.54
228.041	8.64
228.425	4.87
228.809	6.4
229.193	7.16
229.577	7.43
229.961	6.27
230.344	6.91
230.728	7.54
231.112	7.19
231.495	6.33
231.879	5.62
232.263	6.68
232.646	5.24
233.03	6.91
233.413	7.4
233.797	6.16
234.18	4.44
234.563	4.7
234.946	5.71
235.33	6.09
235.713	8.17
236.096	6.36
236.479	5.29
236.862	9.1
237.245	7.19
237.628	6.14
238.011	5.28
238.394	4.23
238.777	5.72
239.16	6.25
239.543	7.21
239.925	5.37
240.308	5.44
240.691	4.77
241.073	6.55
241.456	5.02
241.838	5.27
242.221	6.43
242.603	6.4
242.986	6.48
243.368	5.66
243.75	6.01
244.133	5.61
244.515	6.18
244.897	6.06
245.279	5.86
245.661	4.7
246.043	5.26
246.425	6.13
246.807	6.36
247.189	5.55
247.571	5.22
247.953	5.65
248.335	5.61
248.717	5.76
249.098	5.9
249.48	5.48
249.862	5.5
250.243	5.46
250.625	6.08
251.006	6.13
251.388	6.45
251.769	5.22
252.151	4.97
252.532	6.06
252.913	5.74
253.295	5.42
253.676	6.06
254.057	5.73
254.438	6.55
254.819	6.07
255.2	5.46
255.581	5.89
255.962	5.04
256.343	6.32
256.724	5.26
257.105	5.44
257.486	6
257.867	5.96
258.247	6.25
258.628	4.32
259.009	5.12
259.389	4.81
259.77	5.55
260.15	5.46
260.531	5.68
260.911	4.88
261.292	5.16
261.672	5.42
262.052	5.38
262.432	5.66
262.813	5.52
263.193	5.52
263.573	4.99
263.953	5.11
264.333	5.03
264.713	4.37
265.093	5.24
265.473	6.1
265.853	5.79
266.233	5.08
266.612	4.72
266.992	5.71
267.372	5.77
267.752	5.68
268.131	4.82
268.511	4.82
268.89	5.2
269.27	5.52
269.649	5.66
270.029	5.31
270.408	5
270.787	4.91
271.167	5.63
271.546	4.97
271.925	5.4
272.304	4.94
272.683	5.23
273.062	5.3
273.441	5.54
273.82	5.14
274.199	5.09
274.578	5.57
274.957	5.44
275.336	5.31
275.715	4.68
276.093	5.21
276.472	5.49
276.851	5.39
277.229	4.33
277.608	4.97
277.986	4.61
278.365	5.19
278.743	5.58
279.122	5.42
279.5	4.53
279.878	4.99
280.257	5.33
280.635	5.25
281.013	5.46
281.391	5.31
281.769	4.66
282.147	5.38
282.525	4.59
282.903	5.43
283.281	5.04
283.659	4.98
284.037	4.94
284.415	5.32
284.792	4.61
285.17	4.93
285.548	4.79
285.925	4.85
286.303	4.81
286.68	4.84
287.058	4.9
287.435	4.9
287.813	4.56
288.19	5.03
288.567	4.48
288.945	4.93
289.322	4.53
289.699	5.45
290.076	4.95
290.453	4.38
290.83	5.07
291.207	4.93
291.584	4.54
291.961	4.59
292.338	4.88
292.715	4.43
293.092	5.03
293.469	5.15
293.845	4.58
294.222	4.77
294.599	4.89
294.975	4.86
295.352	5.18
295.728	4.94
296.105	4.66
296.481	4.81
296.858	5.2
297.234	4.64
297.61	4.25
297.986	4.3
298.363	4.53
298.739	4.74
299.115	4.82
299.491	4.95
299.867	4.32
300.243	4.6
300.619	4.67
300.995	4.8
301.371	4.46
301.746	4.47
302.122	4.27
302.498	4.93
302.874	4.32
303.249	4.45
303.625	4.47
304	4.5
304.376	4.57
304.751	3.86
305.127	3.78
305.502	4.43
305.878	4.48
306.253	4.28
306.628	4.06
307.003	4.49
307.378	4.49
307.754	4.8
308.129	4.18
308.504	4.75
308.879	4.8
309.254	4.45
309.629	4.82
310.003	4.92
310.378	4.61
310.753	4.65
311.128	4.2
311.502	4.07
311.877	4.75
312.252	4.52
312.626	4.07
313.001	4.32
313.375	4.46
313.75	4.37
314.124	4.22
314.498	4.06
314.873	4.32
315.247	4.38
315.621	4.43
315.995	4.84
316.369	4.03
316.743	4.66
317.117	4.2
317.491	4.51
317.865	4.62
318.239	4.32
318.613	4.73
318.987	4.19
319.361	4.03
319.734	4.47
320.108	4.72
320.482	4.22
320.855	4.62
321.229	4.29
321.602	4.46
321.976	4.34
322.349	4.35
322.723	4.19
323.096	4.12
323.469	4.23
323.843	4.64
324.216	4.39
324.589	3.89
324.962	4.09
325.335	3.95
325.708	4.57
326.081	4.6
326.454	4.11
326.827	4.41
327.2	4.28
327.573	3.93
327.945	4.09
328.318	4.12
328.691	4.39
329.063	3.97
329.436	4
329.809	4.23
330.181	4.44
330.553	4.06
330.926	4.45
331.298	4.15
331.671	4.35
332.043	4.17
332.415	4.26
332.787	4.44
333.159	4.3
333.532	4.59
333.904	4.29
334.276	4.18
334.648	4.08
335.02	4.55
335.391	4.31
335.763	4.45
336.135	3.96
336.507	4.15
336.879	4.41
337.25	4.3
337.622	4.27
337.993	4.41
338.365	4.25
338.736	4.26
339.108	4.12
339.479	4.29
339.851	4.45
340.222	4.1
340.593	3.93
340.964	4.29
341.336	4.12
341.707	4.14
342.078	4.13
342.449	4.19
342.82	4.15
343.191	4.17
343.562	4.2
343.933	4.16
344.303	4.87
344.674	3.95
345.045	4.4
345.416	4.12
345.786	4.25
346.157	4.4
346.527	3.69
346.898	4.19
347.268	4.23
347.639	4.38
348.009	4.26
348.38	4.24
348.75	3.89
349.12	4.06
349.49	4.76
349.861	4.41
350.231	4.24
350.601	4.64
350.971	4.46
351.341	4.29
351.711	4.34
352.081	4.56
352.45	4.28
352.82	4.14
353.19	4.51
353.56	4.13
353.929	4.53
354.299	4.26
354.669	4.34
355.038	3.99
355.408	4.06
355.777	4.07
356.147	4.38
356.516	4.36
356.885	4.56
357.254	4.59
357.624	4.28
357.993	4.09
358.362	4.46
358.731	4.09
359.1	4.36
359.469	4.53
359.838	4.52
360.207	4.69
360.576	4.2
360.945	4.06
361.314	4.46
361.682	4.23
362.051	4.36
362.42	4.15
362.788	4.28
363.157	4.32
363.525	4.36
363.894	4.41
364.262	4.41
364.631	4.39
364.999	4.25
365.367	4.19
365.735	4.52
366.104	4.61
366.472	4.34
366.84	4.36
367.208	4.37
367.576	4.39
367.944	4.68
368.312	4.77
368.68	4.85
369.048	4.32
369.416	4.34
369.783	4.36
370.151	4.38
370.519	4.88
370.886	4.45
371.254	4.66
371.621	4.44
371.989	4.31
372.356	4.7
372.724	4.78
373.091	4.68
373.458	4.61
373.826	4.74
374.193	4.68
374.56	4.89
374.927	4.23
375.294	4.64
375.661	4.71
376.028	4.28
376.395	4.57
376.762	4.08
377.129	4.8
377.496	4.33
377.863	4.57
378.229	4.45
378.596	4.56
378.963	4.42
379.329	4.53
379.696	4.76
380.062	4.64
380.429	4.54
380.795	4.59
381.161	4.61
381.528	4.51
381.894	4.62
382.26	4.48
382.626	4.57
382.993	4.88
383.359	4.57
383.725	4.41
384.091	4.33
384.457	4.5
384.823	4.51
385.188	4.65
385.554	4.89
385.92	4.71
386.286	4.71
386.651	4.4
387.017	4.57
387.383	4.79
387.748	4.67
388.114	4.72
388.479	4.9
388.845	4.53
389.21	4.74
389.575	4.59
389.94	4.68
390.306	4.38
390.671	4.33
391.036	4.81
391.401	4.66
391.766	5.01
392.131	4.49
392.496	4.63
392.861	4.78
393.226	4.56
393.591	4.66
393.956	4.62
394.32	4.58
394.685	4.65
395.05	4.42
395.414	4.64
395.779	4.62
396.143	4.65
396.508	4.66
396.872	4.73
397.236	4.91
397.601	4.87
397.965	4.75
398.329	4.69
398.694	4.67
399.058	4.94
399.422	4.71
399.786	4.75
400.15	4.58
400.514	4.63
400.878	4.75
401.242	4.96
401.605	4.77
401.969	4.73
402.333	4.7
402.697	4.77
403.06	4.79
403.424	4.82
403.787	4.51
404.151	4.99
404.514	4.68
404.878	4.69
405.241	4.79
405.604	5.17
405.968	4.65
406.331	4.82
406.694	4.75
407.057	4.72
407.42	4.75
407.783	4.67
408.146	4.96
408.509	4.98
408.872	4.98
409.235	4.74
409.598	4.78
409.961	4.66
410.323	4.59
410.686	4.87
411.049	4.74
411.411	4.92
411.774	4.86
412.136	4.78
412.499	4.8
412.861	4.85
413.223	4.92
413.586	4.94
413.948	4.69
414.31	4.76
414.672	4.84
415.035	4.79
415.397	4.96
415.759	4.79
416.121	4.54
416.483	4.86
416.845	4.8
417.206	4.96
417.568	4.79
417.93	4.49
418.292	4.91
418.653	4.7
419.015	4.86
419.377	4.81
419.738	4.81
420.1	4.75
420.461	4.79
420.822	4.82
421.184	4.72
421.545	4.69
421.906	4.65
422.267	4.57
422.629	4.75
422.99	4.66
423.351	4.76
423.712	4.71
424.073	4.7
424.434	4.69
424.795	4.67
425.155	4.75
425.516	4.64
425.877	4.74
426.238	4.76
426.598	4.67
426.959	4.75
427.32	4.78
427.68	4.72
428.041	4.87
428.401	5.02
428.761	4.99
429.122	4.88
429.482	4.88
429.842	4.89
430.202	4.91
430.563	4.7
430.923	5.05
431.283	5.09
431.643	4.82
432.003	4.88
432.363	4.89
432.722	4.91
433.082	5.03
433.442	5.16
433.802	4.87
434.161	4.9
434.521	4.88
434.881	4.92
435.24	4.86
435.6	4.95
435.959	4.92
436.319	4.86
436.678	4.84
437.037	5.07
437.396	4.78
437.756	4.96
438.115	4.96
438.474	4.95
438.833	4.8
439.192	4.8
439.551	4.85
439.91	5
440.269	4.93
440.628	4.89
440.987	4.88
441.345	4.92
441.704	4.87
442.063	4.69
442.421	4.84
442.78	4.84
443.138	4.94
443.497	4.9
443.855	5.01
444.214	4.88
444.572	5.02
444.93	4.9
445.288	5.08
445.647	4.82
446.005	4.99
446.363	4.87
446.721	4.96
447.079	4.91
447.437	4.82
447.795	4.94
448.153	4.85
448.51	4.79
448.868	4.89
449.226	4.91
449.584	4.92
449.941	4.91
450.299	4.81
450.656	4.93
451.014	4.93
451.371	5.01
451.729	5.09
452.086	4.97
452.443	5.06
452.801	4.98
453.158	4.97
453.515	4.92
453.872	4.88
454.229	5.1
454.586	4.92
454.943	5.14
455.3	5.06
455.657	4.98
456.014	5
456.371	5.08
456.727	5.03
457.084	4.94
457.441	5.02
457.797	5.19
458.154	4.99
458.51	4.97
458.867	4.93
459.223	5.02
459.58	5.02
459.936	4.94
460.292	4.96
460.648	4.91
461.005	4.84
461.361	4.72
461.717	4.92
462.073	5.05
462.429	5.09
462.785	4.99
463.141	4.89
463.496	4.99
463.852	5.22
464.208	5.17
464.564	5.01
464.919	5.25
465.275	4.88
465.631	5.15
465.986	5.1
466.342	5.15
466.697	4.98
467.052	5.09
467.408	5
467.763	5.18
468.118	5.05
468.473	5.02
468.829	4.93
469.184	4.99
469.539	5.1
469.894	4.99
470.249	4.9
470.603	5.18
470.958	5.02
471.313	5.12
471.668	5.13
472.023	5.19
472.377	5
472.732	5.11
473.086	4.92
473.441	5
473.795	4.96
474.15	5.01
474.504	5.01
474.859	5.08
475.213	5.05
475.567	5.1
475.921	4.95
476.275	5.07
476.63	5.09
476.984	5.01
477.338	5.13
477.692	5.09
478.045	5.08
478.399	5.12
478.753	5.06
479.107	4.92
479.461	4.92
479.814	4.97
480.168	4.91
480.521	4.9
480.875	5
481.228	5.01
481.582	4.94
481.935	5.12
482.289	5.09
482.642	4.91
482.995	4.93
483.348	4.92
483.701	4.94
484.055	4.89
484.408	4.84
484.761	4.67
485.114	4.62
485.466	4.58
485.819	4.69
486.172	4.79
486.525	4.87
486.878	4.91
487.23	4.9
487.583	4.86
487.936	4.81
488.288	4.75
488.641	4.74
488.993	4.77
489.345	4.77
489.698	4.84
490.05	4.87
490.402	4.9
490.754	4.92
491.107	4.92
491.459	4.99
491.811	5.06
492.163	4.85
492.515	4.84
492.866	4.76
493.218	4.76
493.57	4.81
493.922	4.91
494.274	5.01
494.625	5.04
494.977	4.99
495.328	5.03
495.68	5.05
496.031	5.13
496.383	5.04
496.734	5.03
497.086	5.03
497.437	5.02
497.788	4.97
498.139	4.94
498.49	4.97
498.842	4.93
499.193	5.03
499.544	5.15
499.894	5
500.245	4.97
500.596	4.96
500.947	5.12
501.298	5.1
501.648	5.06
501.999	5.11
502.35	5.16
502.7	5.09
503.051	5.2
503.401	5.13
503.752	5.16
504.102	5.07
504.452	5.11
504.803	5.18
505.153	5.05
505.503	4.99
505.853	4.96
506.203	5.06
506.553	5.01
506.903	5.09
507.253	5.04
507.603	5.09
507.953	5.13
508.303	5.29
508.652	5.04
509.002	5.07
509.352	5.11
509.701	5
510.051	4.99
510.4	5.07
510.75	4.98
511.099	4.92
511.449	5.12
511.798	5.13
512.147	4.98
512.496	4.95
512.846	5.03
513.195	4.97
513.544	5.03
513.893	5.01
514.242	5.12
514.591	5.07
514.939	5.1
515.288	5.05
515.637	5.08
515.986	5.15
516.334	5.2
516.683	5.06
517.032	5.19
517.38	5.08
517.729	5.11
518.077	4.99
518.426	4.98
518.774	5.1
519.122	5.01
519.47	4.94
519.819	4.92
520.167	5.02
520.515	5.09
520.863	4.99
521.211	5.14
521.559	5.17
521.907	4.94
522.255	5.04
522.602	5.09
522.95	5.03
523.298	5.08
523.645	5.07
523.993	5.13
524.341	5.11
524.688	5
525.036	5.14
525.383	5.13
525.73	5.12
526.078	5.06
526.425	5
526.772	4.94
527.119	4.93
527.466	4.91
527.814	4.96
528.161	5.06
528.508	4.95
528.854	5
529.201	4.81
529.548	4.81
529.895	4.72
530.242	4.76
530.588	4.84
530.935	4.85
531.282	4.94
531.628	4.92
531.975	4.96
532.321	5.06
532.667	4.95
533.014	5.04
533.36	4.91
533.706	4.99
534.052	4.98
534.399	4.87
534.745	4.86
535.091	4.88
535.437	4.95
535.783	5.06
536.129	5.04
536.474	5.11
536.82	5.09
537.166	5.07
537.512	4.99
537.857	5.09
538.203	5
538.549	5
538.894	4.91
539.239	5.13
539.585	4.99
539.93	5.01
540.276	5.13
540.621	5.03
540.966	5.09
541.311	5.09
541.656	5.03
542.001	4.87
542.346	4.83
542.691	4.82
543.036	4.82
543.381	4.88
543.726	4.96
544.071	4.99
544.415	4.96
544.76	5
545.105	5.03
545.449	5.02
545.794	5.08
546.138	5.05
546.483	5.06
546.827	5.08
547.171	4.95
547.516	5.03
547.86	5.09
548.204	5.03
548.548	5.04
548.892	5.08
549.236	5.13
549.58	5
549.924	5.04
550.268	5.16
550.612	5.22
550.956	5.12
551.3	5.23
551.643	5.12
551.987	5.1
552.33	5.41
552.674	5.32
553.017	5.05
553.361	5.15
553.704	5.12
554.048	5.18
554.391	5.17
554.734	5.11
555.077	5.11
555.42	5.09
555.764	5.13
556.107	5.29
556.45	5.08
556.793	5.12
557.135	5.19
557.478	5.29
557.821	5.11
558.164	5.05
558.507	5.27
558.849	5.19
559.192	5.28
559.534	5.33
559.877	5.15
560.219	5.11
560.562	5.29
560.904	5.27
561.246	5.08
561.589	5.08
561.931	5.24
562.273	5.32
562.615	5.28
562.957	5.32
563.299	5.24
563.641	5.32
563.983	5.36
564.325	5.28
564.667	5.18
565.008	5.18
565.35	5.08
565.692	5.29
566.033	5.18
566.375	5.17
566.716	5.16
567.058	5.12
567.399	5.28
567.741	5.11
568.082	5.16
568.423	5.12
568.764	5.16
569.105	5.3
569.447	5.32
569.788	5.14
570.129	5.25
570.47	5.21
570.811	5
571.151	5.11
571.492	5.23
571.833	5.2
572.174	5.05
572.514	5.12
572.855	5.26
573.195	5.06
573.536	5.02
573.876	5.12
574.217	5.05
574.557	5.11
574.898	5.29
575.238	5.2
575.578	5.32
575.918	5.09
576.258	5.16
576.598	5.08
576.938	5.08
577.278	5.23
577.618	4.96
577.958	5.23
578.298	5.05
578.638	5.18
578.977	5.11
579.317	5.01
579.657	5.07
579.996	5.26
580.336	4.85
580.675	5.07
581.014	5.24
581.354	5.25
581.693	5.14
582.032	5.24
582.372	5.18
582.711	4.99
583.05	5.11
583.389	5.08
583.728	5.16
584.067	5.18
584.406	5.29
584.745	5.31
585.083	5.16
585.422	5.14
585.761	5.39
586.1	5.29
586.438	5.12
586.777	5.24
587.115	5.26
587.454	5.4
587.792	4.94
588.13	5.2
588.469	5.26
588.807	5.03
589.145	5.16
589.483	5.15
589.821	5.03
590.159	4.99
590.497	5.13
590.835	5.35
591.173	5.21
591.511	5.19
591.849	5.27
592.187	5.16
592.524	5.24
592.862	5.14
593.2	5.05
593.537	5.05
593.875	4.99
594.212	5.08
594.55	5.21
594.887	5.36
595.224	4.94
595.561	5.19
595.899	5.07
596.236	5.25
596.573	5.01
596.91	5.27
597.247	5.21
597.584	5.27
597.921	5.22
598.258	4.99
598.594	5.09
598.931	5.12
599.268	5.04
599.604	4.99
599.941	5.31
600.277	5.27
600.614	5.11
600.95	5.16
601.287	5.21
601.623	5.04
601.959	5.12
602.296	5.02
602.632	5.09
602.968	5.33
603.304	5.07
603.64	5.17
603.976	5.06
604.312	5.21
604.648	5.06
604.984	5.19
605.319	5.2
605.655	5.08
605.991	5.03
606.326	4.97
606.662	5.09
606.998	5.06
607.333	5.01
607.668	5.03
608.004	5.01
608.339	5.14
608.674	5.15
609.01	5.12
609.345	5.2
609.68	5.22
610.015	5
610.35	5.37
610.685	5.02
611.02	5.04
611.355	5.15
611.689	5.29
612.024	5.11
612.359	5.17
612.694	5.23
613.028	5.14
613.363	4.76
613.697	5.39
614.032	5.34
614.366	5.21
614.7	5.28
615.035	5.11
615.369	5.13
615.703	5.15
616.037	5.26
616.371	5.03
616.705	5.17
617.039	5.36
617.373	5.4
617.707	4.88
618.041	5.16
618.375	4.99
618.709	5.25
619.042	5.3
619.376	5
619.71	5.11
620.043	5.33
620.377	5.22
620.71	5.07
621.043	5.21
621.377	5.14
621.71	5.48
622.043	5.27
622.376	5.12
622.709	5.22
623.043	5.54
623.376	5.2
623.709	5.15
624.041	5.05
624.374	5.43
624.707	4.94
625.04	5
625.373	5.25
625.705	5.13
626.038	5.04
626.37	5.02
626.703	5.34
627.035	5.23
627.368	4.92
627.7	5.27
628.032	5.41
628.365	5.05
628.697	4.81
629.029	5.17
629.361	5.08
629.693	5.09
630.025	5.17
630.357	4.89
630.689	5.17
631.021	5.15
631.353	5.08
631.684	5.23
632.016	5.28
632.348	5.22
632.679	5.24
633.011	4.92
633.342	5.4
633.674	4.8
634.005	5.26
634.336	5.06
634.668	5.3
634.999	5.01
635.33	4.82
635.661	5.28
635.992	5.12
636.323	5.28
636.654	4.88
636.985	5.2
637.316	5.23
637.647	5.09
637.977	5.18
638.308	5.33
638.639	4.92
638.969	5.09
639.3	5.15
639.63	5.06
639.961	5.25
640.291	4.93
640.622	4.86
640.952	5.61
641.282	5.48
641.612	5.35
641.943	5.11
642.273	5.35
642.603	5.1
642.933	5.15
643.263	5.14
643.592	4.92
643.922	5.09
644.252	5.48
644.582	4.96
644.911	5.32
645.241	5.58
645.571	5.39
645.9	5.1
646.23	4.83
646.559	5.03
646.888	5.2
647.218	5.09
647.547	5.06
647.876	5.14
648.205	5.58
648.534	5.01
648.863	5.24
649.192	5.09
649.521	5.48
649.85	5.32
650.179	5.01
650.508	5.31
650.837	5.03
651.165	5.39
651.494	5.39
651.822	5.15
652.151	5.13
652.479	5.17
652.808	5.43
653.136	5.11
653.465	5.18
653.793	5.13
654.121	5.26
654.449	4.97
654.777	4.84
655.105	5.06
655.433	5.21
655.761	5.53
656.089	4.97
656.417	4.89
656.745	4.92
657.073	5.42
657.4	5.34
657.728	5.94
658.056	5.31
658.383	5.63
658.711	5.66
659.038	5.13
659.365	5.26
659.693	4.82
660.02	5.28
660.347	5.39
660.674	5.13
661.001	5.16
661.329	5.34
661.656	5.06
661.982	5.01
662.309	5.09
662.636	5.33
662.963	5.31
663.29	4.65
663.616	5.32
663.943	5.27
664.27	5.32
664.596	5.06
664.923	5.35
665.249	5.41
665.576	5.53
665.902	5.5
666.228	5.96
666.554	5.14
666.881	5.1
667.207	5.91
667.533	5.7
667.859	5.55
668.185	5.5
668.511	5.67
668.837	4.98
669.162	5.12
669.488	5.02
669.814	5.72
670.139	5.63
670.465	4.77
670.791	5.25
671.116	5.92
671.442	5.62
671.767	5.68
672.092	5.33
672.418	5.51
672.743	5.45
673.068	5.58
673.393	5.23
673.718	5.54
674.043	5.16
674.368	5.83
674.693	5.14
675.018	5.8
675.343	5.23
675.667	5.63
675.992	5.59
676.317	5.57
676.641	4.17
676.966	5.92
677.29	5.43
677.615	5.24
677.939	5.38
678.264	5.67
678.588	5.61
678.912	5.1
679.236	5.69
679.56	5.2
679.885	5.31
680.209	5.79
680.532	4.96
680.856	5.3
681.18	4.97
681.504	4.75
681.828	5.48
682.152	4.82
682.475	4.85
682.799	5.07
683.122	5.34
683.446	5.4
683.769	5.35
684.093	5.8
684.416	5.59
684.739	5.53
685.062	6.04
685.386	5.2
685.709	6.17
686.032	5.93
686.355	4.78
686.678	5.34
687.001	5.31
687.324	5.56
687.646	5.42
687.969	5.55
688.292	5.04
688.614	6.04
688.937	4.61
689.26	4.98
689.582	5.22
689.904	5.45
690.227	5.64
690.549	5.66
690.871	5.67
691.194	5.55
691.516	5.7
691.838	5.58
692.16	5.6
692.482	5.87
692.804	6
