Data from 0022_forehead_Reflection__4__45.txt Node

Date: Thu Oct 20 20:40:09 CDT 2022
User: ToomeyLab
Spectrometer: FLMS14357
Trigger mode: 0
Integration Time (sec): 1.000000E-2
Scans to average: 100
Electric dark correction enabled: true
Nonlinearity correction enabled: false
Boxcar width: 0
XAxis mode: Wavelengths
Number of Pixels in Spectrum: 2048
>>>>>Begin Spectral Data<<<<<
189.047	191.77
189.435	191.77
189.823	191.77
190.211	147.64
190.599	25.06
190.987	-482.2
191.375	-45.89
191.763	16.41
192.151	13.77
192.538	17.21
192.926	56.24
193.314	38.96
193.702	92.74
194.089	-3.54
194.477	2958.43
194.864	54.39
195.252	62.31
195.639	149.94
196.027	123.19
196.414	-1417.92
196.801	-747.94
197.189	74.7
197.576	1149.25
197.963	-47.45
198.351	31.58
198.738	21.16
199.125	12.07
199.512	34.48
199.899	55.11
200.286	57.8
200.673	28.69
201.06	44.06
201.447	53.05
201.833	57.69
202.22	46.23
202.607	52.76
202.994	34.62
203.38	-28.09
203.767	83.12
204.154	45.34
204.54	33.22
204.927	32.12
205.313	41.25
205.699	56.97
206.086	36.29
206.472	15.11
206.858	30.17
207.245	30.61
207.631	30.09
208.017	26.64
208.403	18.34
208.789	34.24
209.175	54.41
209.561	16.75
209.947	38.73
210.333	25.84
210.719	33.29
211.105	4.59
211.491	44.87
211.876	1.48
212.262	3.55
212.648	18.17
213.034	31.63
213.419	44.3
213.805	33.06
214.19	6.77
214.576	6.17
214.961	32.87
215.346	23.09
215.732	14.98
216.117	19.49
216.502	43.33
216.888	23.07
217.273	37.68
217.658	29.55
218.043	4.33
218.428	18.4
218.813	8.31
219.198	34.35
219.583	30.88
219.968	28.55
220.353	16.71
220.738	20.41
221.122	12.76
221.507	4.37
221.892	10.95
222.276	7.74
222.661	2.9
223.046	20.28
223.43	12.65
223.815	7.1
224.199	13.94
224.583	12.55
224.968	8.98
225.352	13.69
225.736	12.04
226.121	17.14
226.505	5.8
226.889	4.96
227.273	4.3
227.657	8.85
228.041	5.53
228.425	6.24
228.809	5.81
229.193	5.42
229.577	5.4
229.961	3.7
230.344	4.13
230.728	5.64
231.112	4.64
231.495	4.98
231.879	5.09
232.263	4.22
232.646	5.08
233.03	4.19
233.413	5.78
233.797	6.36
234.18	5.29
234.563	5.03
234.946	5.75
235.33	4.65
235.713	7.84
236.096	4.16
236.479	3.65
236.862	6.35
237.245	5.56
237.628	4.34
238.011	5.62
238.394	5.18
238.777	4.43
239.16	3.78
239.543	5
239.925	4.94
240.308	6.76
240.691	6.18
241.073	6
241.456	5.53
241.838	4.95
242.221	5.64
242.603	5
242.986	5.16
243.368	4.52
243.75	4.9
244.133	4.63
244.515	4.45
244.897	5.36
245.279	4.45
245.661	4.75
246.043	4.67
246.425	5.5
246.807	5.62
247.189	4.5
247.571	4.77
247.953	4.7
248.335	4.42
248.717	4.72
249.098	4.81
249.48	4.55
249.862	4.56
250.243	4.89
250.625	5.5
251.006	4.8
251.388	5.78
251.769	5.28
252.151	4.46
252.532	4.59
252.913	4.65
253.295	4.67
253.676	4.43
254.057	5.34
254.438	5.64
254.819	6.64
255.2	5.18
255.581	5.68
255.962	5.2
256.343	6.31
256.724	5.67
257.105	4.74
257.486	5.49
257.867	5.23
258.247	5.68
258.628	4.56
259.009	4.33
259.389	4.24
259.77	5.13
260.15	5.16
260.531	5.2
260.911	4.23
261.292	4.44
261.672	4.59
262.052	4.79
262.432	5.09
262.813	5.15
263.193	4.97
263.573	4.65
263.953	4.88
264.333	4.84
264.713	5.05
265.093	5.27
265.473	4.98
265.853	4.88
266.233	5.16
266.612	4.52
266.992	6.19
267.372	4.95
267.752	4.65
268.131	4.67
268.511	4.9
268.89	4.57
269.27	5.19
269.649	4.69
270.029	4.74
270.408	4.33
270.787	4.5
271.167	5.45
271.546	4.69
271.925	4.44
272.304	4.92
272.683	4.26
273.062	4.63
273.441	5.02
273.82	4.26
274.199	4.67
274.578	4.99
274.957	5.06
275.336	4.84
275.715	4.25
276.093	4.89
276.472	4.55
276.851	4.54
277.229	3.97
277.608	4.87
277.986	4.13
278.365	4.62
278.743	4.92
279.122	4.78
279.5	3.71
279.878	4.23
280.257	4.06
280.635	4.85
281.013	5.09
281.391	4.81
281.769	4.53
282.147	4.8
282.525	4.5
282.903	4.9
283.281	4.79
283.659	4.71
284.037	4.66
284.415	4.73
284.792	4.82
285.17	4.52
285.548	4.25
285.925	4.77
286.303	4.63
286.68	4.54
287.058	4.63
287.435	4.43
287.813	4.72
288.19	4.92
288.567	4.54
288.945	5.7
289.322	4.62
289.699	5.56
290.076	4.91
290.453	5.14
290.83	4.92
291.207	5.02
291.584	4.76
291.961	5.15
292.338	5.26
292.715	4.95
293.092	5.81
293.469	5.12
293.845	5.63
294.222	5.46
294.599	5.8
294.975	5.23
295.352	5.73
295.728	5.75
296.105	5.57
296.481	5.69
296.858	5.59
297.234	6.09
297.61	5.62
297.986	5.51
298.363	5.33
298.739	5.93
299.115	5.79
299.491	6.03
299.867	5.89
300.243	5.87
300.619	5.79
300.995	6.18
301.371	5.82
301.746	6.16
302.122	6.31
302.498	6.78
302.874	6.79
303.249	6.42
303.625	6.55
304	6.79
304.376	6.39
304.751	6.39
305.127	6.13
305.502	6.64
305.878	6.8
306.253	6.94
306.628	6.91
307.003	7.41
307.378	7.15
307.754	7
308.129	6.91
308.504	7.18
308.879	7.57
309.254	6.79
309.629	7.6
310.003	7.2
310.378	7.59
310.753	7.53
311.128	7.12
311.502	7.75
311.877	7.9
312.252	7.74
312.626	7.35
313.001	7.88
313.375	8.06
313.75	8.07
314.124	7.82
314.498	8.45
314.873	7.96
315.247	8.49
315.621	8.37
315.995	8.88
316.369	9
316.743	8.93
317.117	8.76
317.491	8.68
317.865	8.96
318.239	9
318.613	8.99
318.987	8.95
319.361	9.46
319.734	9.43
320.108	9.07
320.482	9.25
320.855	9.89
321.229	9.83
321.602	9.7
321.976	9.97
322.349	10.05
322.723	10
323.096	8.96
323.469	9.67
323.843	10.08
324.216	10.19
324.589	9.69
324.962	10.03
325.335	9.78
325.708	9.95
326.081	10.49
326.454	10.53
326.827	10.04
327.2	10.85
327.573	10.71
327.945	10.49
328.318	10.41
328.691	10.71
329.063	10.26
329.436	10.23
329.809	11.16
330.181	11.05
330.553	10.75
330.926	11.14
331.298	10.71
331.671	11.41
332.043	11.19
332.415	11.56
332.787	11.22
333.159	11.41
333.532	11.63
333.904	10.89
334.276	11.92
334.648	11.53
335.02	11.36
335.391	11.46
335.763	12.05
336.135	11.74
336.507	12.04
336.879	12
337.25	11.43
337.622	11.85
337.993	11.97
338.365	12.18
338.736	12.24
339.108	11.75
339.479	12.05
339.851	12.85
340.222	12.31
340.593	12.22
340.964	12.35
341.336	12.55
341.707	13.08
342.078	12.67
342.449	12.97
342.82	12.61
343.191	12.77
343.562	12.87
343.933	13.05
344.303	13.29
344.674	12.8
345.045	12.64
345.416	12.92
345.786	13.35
346.157	13.25
346.527	13.16
346.898	13.35
347.268	13.23
347.639	13.52
348.009	13.51
348.38	13.71
348.75	13.44
349.12	13.44
349.49	13.59
349.861	14.19
350.231	13.7
350.601	13.89
350.971	13.74
351.341	14.22
351.711	14.23
352.081	14.43
352.45	14.44
352.82	13.93
353.19	14.24
353.56	14.32
353.929	14.86
354.299	14.2
354.669	14.58
355.038	14.23
355.408	14.73
355.777	14.74
356.147	14.51
356.516	14.93
356.885	15.01
357.254	15.3
357.624	14.74
357.993	14.83
358.362	14.97
358.731	15.24
359.1	15.32
359.469	15.23
359.838	15.45
360.207	15.59
360.576	15.32
360.945	15.21
361.314	15.91
361.682	15.5
362.051	15.5
362.42	15.43
362.788	15.34
363.157	15.73
363.525	15.76
363.894	15.94
364.262	16
364.631	15.91
364.999	16.22
365.367	15.89
365.735	16.27
366.104	16.64
366.472	16.4
366.84	16.41
367.208	16.38
367.576	16.56
367.944	16.74
368.312	16.99
368.68	17.11
369.048	16.68
369.416	17.08
369.783	17.21
370.151	17.15
370.519	17.38
370.886	16.94
371.254	17.42
371.621	17.2
371.989	17.49
372.356	17.3
372.724	17.75
373.091	17.87
373.458	17.52
373.826	17.9
374.193	17.72
374.56	17.85
374.927	18.06
375.294	17.8
375.661	17.59
376.028	17.84
376.395	18.28
376.762	17.94
377.129	18.17
377.496	17.95
377.863	18.17
378.229	18.37
378.596	18.29
378.963	18.25
379.329	18.53
379.696	18.51
380.062	18.59
380.429	18.66
380.795	18.77
381.161	18.77
381.528	18.78
381.894	18.92
382.26	18.7
382.626	18.93
382.993	19.14
383.359	19.13
383.725	19.3
384.091	19.14
384.457	19.03
384.823	19.34
385.188	19.47
385.554	19.26
385.92	19.61
386.286	19.57
386.651	19.66
387.017	19.51
387.383	19.82
387.748	19.81
388.114	19.92
388.479	19.93
388.845	19.69
389.21	20.05
389.575	19.77
389.94	20.26
390.306	20.28
390.671	20.37
391.036	20.43
391.401	20.43
391.766	20.63
392.131	20.59
392.496	20.46
392.861	20.61
393.226	20.64
393.591	20.63
393.956	20.71
394.32	20.58
394.685	20.89
395.05	20.68
395.414	20.87
395.779	21.16
396.143	21.01
396.508	21.36
396.872	21.19
397.236	21.57
397.601	21.34
397.965	21.9
398.329	21.47
398.694	21.7
399.058	21.93
399.422	21.77
399.786	21.92
400.15	21.82
400.514	21.89
400.878	21.94
401.242	22.35
401.605	22.18
401.969	22.25
402.333	22.1
402.697	22.43
403.06	22.47
403.424	22.58
403.787	22.29
404.151	22.58
404.514	22.47
404.878	22.3
405.241	22.32
405.604	22.71
405.968	22.6
406.331	22.84
406.694	22.59
407.057	22.73
407.42	22.97
407.783	22.88
408.146	23.11
408.509	23
408.872	22.91
409.235	23.22
409.598	23.51
409.961	23.38
410.323	23.26
410.686	23.46
411.049	23.39
411.411	23.57
411.774	23.49
412.136	23.66
412.499	23.67
412.861	23.72
413.223	23.94
413.586	24.29
413.948	23.85
414.31	24.1
414.672	24.15
415.035	24.15
415.397	24.18
415.759	24.1
416.121	24.02
416.483	24.44
416.845	24.43
417.206	24.38
417.568	24.21
417.93	24.32
418.292	24.51
418.653	24.54
419.015	24.37
419.377	24.36
419.738	24.42
420.1	24.35
420.461	24.5
420.822	24.41
421.184	24.49
421.545	24.36
421.906	24.51
422.267	24.34
422.629	24.42
422.99	24.59
423.351	24.66
423.712	24.66
424.073	24.74
424.434	24.88
424.795	24.87
425.155	24.8
425.516	24.7
425.877	24.92
426.238	25.01
426.598	25.16
426.959	25.19
427.32	25.49
427.68	25.41
428.041	25.44
428.401	25.66
428.761	25.73
429.122	25.94
429.482	26.11
429.842	26.11
430.202	26.13
430.563	26.12
430.923	26.21
431.283	26.51
431.643	26.4
432.003	26.54
432.363	26.58
432.722	26.51
433.082	26.76
433.442	26.69
433.802	26.68
434.161	26.57
434.521	26.79
434.881	26.56
435.24	26.57
435.6	26.71
435.959	26.67
436.319	26.94
436.678	27.09
437.037	26.89
437.396	27.17
437.756	27.06
438.115	27.09
438.474	27.29
438.833	27.16
439.192	27.14
439.551	27.34
439.91	27.3
440.269	27.45
440.628	27.35
440.987	27.25
441.345	27.39
441.704	27.51
442.063	27.17
442.421	27.23
442.78	27.51
443.138	27.8
443.497	27.61
443.855	27.76
444.214	27.8
444.572	27.98
444.93	28.18
445.288	28.19
445.647	28.01
446.005	28.26
446.363	28.1
446.721	27.96
447.079	27.94
447.437	28.01
447.795	27.84
448.153	28.22
448.51	28.09
448.868	28.24
449.226	28.21
449.584	28.53
449.941	28.64
450.299	28.42
450.656	28.71
451.014	28.86
451.371	28.83
451.729	29.03
452.086	29.05
452.443	29.43
452.801	29.3
453.158	29.27
453.515	29.14
453.872	29.21
454.229	29.4
454.586	29.51
454.943	29.56
455.3	29.55
455.657	29.52
456.014	29.6
456.371	29.78
456.727	29.53
457.084	29.85
457.441	30.17
457.797	30.15
458.154	30.1
458.51	29.88
458.867	30.09
459.223	29.94
459.58	30.07
459.936	29.97
460.292	30.03
460.648	29.86
461.005	29.68
461.361	29.63
461.717	29.79
462.073	30.1
462.429	30.27
462.785	30.49
463.141	30.45
463.496	30.61
463.852	30.81
464.208	30.9
464.564	31.01
464.919	30.96
465.275	31.14
465.631	31.28
465.986	31.25
466.342	31.15
466.697	31.21
467.052	31.29
467.408	31.17
467.763	31.37
468.118	31.2
468.473	31.13
468.829	31.49
469.184	31.59
469.539	31.67
469.894	31.57
470.249	31.56
470.603	31.8
470.958	31.94
471.313	32.12
471.668	31.86
472.023	32.02
472.377	31.97
472.732	32.29
473.086	32.01
473.441	32.3
473.795	32.13
474.15	32.24
474.504	32.37
474.859	32.47
475.213	32.45
475.567	32.5
475.921	32.51
476.275	32.31
476.63	32.61
476.984	32.55
477.338	32.58
477.692	32.77
478.045	32.71
478.399	32.88
478.753	32.86
479.107	32.95
479.461	32.66
479.814	32.59
480.168	32.82
480.521	32.89
480.875	33.01
481.228	33.17
481.582	33
481.935	33.04
482.289	33.01
482.642	33.03
482.995	32.93
483.348	32.78
483.701	32.86
484.055	32.63
484.408	32.39
484.761	32.05
485.114	32.13
485.466	32.4
485.819	32.61
486.172	32.74
486.525	32.71
486.878	32.9
487.23	32.98
487.583	33.01
487.936	32.92
488.288	32.79
488.641	32.78
488.993	32.79
489.345	32.93
489.698	33.1
490.05	33.25
490.402	33.41
490.754	33.71
491.107	33.79
491.459	33.96
491.811	33.91
492.163	33.81
492.515	33.41
492.866	33.4
493.218	33.55
493.57	33.65
493.922	33.94
494.274	34.24
494.625	34.35
494.977	34.45
495.328	34.78
495.68	34.83
496.031	34.9
496.383	34.98
496.734	34.93
497.086	35.04
497.437	34.88
497.788	35.03
498.139	35.04
498.49	35.12
498.842	35.06
499.193	35.18
499.544	35.3
499.894	35.26
500.245	35.41
500.596	35.32
500.947	35.65
501.298	35.79
501.648	35.88
501.999	36
502.35	36.16
502.7	36.26
503.051	36.29
503.401	36.19
503.752	36.3
504.102	36.28
504.452	36.43
504.803	36.4
505.153	36.35
505.503	36.42
505.853	36.34
506.203	36.47
506.553	36.44
506.903	36.61
507.253	36.71
507.603	36.71
507.953	36.67
508.303	36.97
508.652	36.63
509.002	36.75
509.352	36.93
509.701	36.79
510.051	36.62
510.4	36.68
510.75	36.77
511.099	36.7
511.449	36.95
511.798	37.13
512.147	36.89
512.496	36.9
512.846	37.02
513.195	37.08
513.544	37.05
513.893	37.28
514.242	37.16
514.591	37.45
514.939	37.65
515.288	37.56
515.637	37.6
515.986	37.67
516.334	37.7
516.683	37.78
517.032	38.08
517.38	37.8
517.729	38.05
518.077	37.93
518.426	37.8
518.774	37.7
519.122	37.61
519.47	37.63
519.819	37.59
520.167	37.72
520.515	37.76
520.863	37.78
521.211	37.88
521.559	38.18
521.907	38.16
522.255	38.33
522.602	38.41
522.95	38.51
523.298	38.66
523.645	38.8
523.993	38.77
524.341	38.68
524.688	38.74
525.036	38.83
525.383	39
525.73	38.92
526.078	38.66
526.425	38.55
526.772	38.34
527.119	38.34
527.466	38.63
527.814	38.65
528.161	38.62
528.508	38.73
528.854	38.56
529.201	38.37
529.548	38.04
529.895	38.15
530.242	38.41
530.588	38.61
530.935	38.73
531.282	38.68
531.628	38.82
531.975	39.07
532.321	39.31
532.667	39.31
533.014	39.32
533.36	39.36
533.706	39.39
534.052	39.25
534.399	39.01
534.745	39.05
535.091	39.34
535.437	39.47
535.783	39.59
536.129	39.68
536.474	39.91
536.82	39.85
537.166	39.99
537.512	39.81
537.857	39.91
538.203	40.01
538.549	39.96
538.894	40.35
539.239	40.29
539.585	40.44
539.93	40.48
540.276	40.73
540.621	40.82
540.966	40.59
541.311	40.57
541.656	40.45
542.001	40.29
542.346	39.93
542.691	39.81
543.036	40.05
543.381	40.24
543.726	40.54
544.071	40.49
544.415	40.62
544.76	40.72
545.105	40.97
545.449	41.09
545.794	41.11
546.138	41.18
546.483	41.42
546.827	41.24
547.171	41.25
547.516	41.35
547.86	41.34
548.204	41.35
548.548	41.49
548.892	41.55
549.236	41.73
549.58	41.94
549.924	42.13
550.268	42.18
550.612	42.54
550.956	42.33
551.3	42.58
551.643	42.49
551.987	42.73
552.33	42.93
552.674	42.91
553.017	42.56
553.361	43
553.704	42.67
554.048	42.63
554.391	42.85
554.734	42.88
555.077	42.92
555.42	43
555.764	43.09
556.107	43.12
556.45	43.44
556.793	43.21
557.135	43.03
557.478	43.62
557.821	43.55
558.164	43.3
558.507	43.79
558.849	43.55
559.192	43.56
559.534	43.71
559.877	43.83
560.219	43.96
560.562	44.07
560.904	44.18
561.246	43.97
561.589	43.98
561.931	43.99
562.273	43.9
562.615	44.08
562.957	44.18
563.299	44.11
563.641	44.28
563.983	44.35
564.325	44.21
564.667	44.63
565.008	44.33
565.35	44.44
565.692	44.63
566.033	44.51
566.375	44.63
566.716	44.49
567.058	44.61
567.399	44.4
567.741	44.35
568.082	44.53
568.423	44.43
568.764	44.6
569.105	44.72
569.447	44.84
569.788	44.75
570.129	44.98
570.47	44.93
570.811	45.05
571.151	45.35
571.492	45.48
571.833	45.21
572.174	44.97
572.514	45.26
572.855	45.2
573.195	45.19
573.536	45.2
573.876	45.18
574.217	45.25
574.557	45.32
574.898	45.55
575.238	45.79
575.578	45.62
575.918	45.55
576.258	45.5
576.598	45.7
576.938	45.79
577.278	45.86
577.618	45.68
577.958	45.98
578.298	46.12
578.638	46.08
578.977	46.09
579.317	45.97
579.657	46.54
579.996	46.58
580.336	46.54
580.675	46.22
581.014	46.35
581.354	46.8
581.693	46.63
582.032	46.76
582.372	46.79
582.711	47.01
583.05	46.87
583.389	46.85
583.728	46.86
584.067	47.13
584.406	46.69
584.745	46.93
585.083	47.03
585.422	47.23
585.761	47.22
586.1	47.31
586.438	46.98
586.777	47.23
587.115	47.51
587.454	47.39
587.792	47.55
588.13	47.34
588.469	47.51
588.807	47.53
589.145	47.62
589.483	47.93
589.821	47.32
590.159	47.26
590.497	47.63
590.835	47.79
591.173	47.52
591.511	47.63
591.849	47.7
592.187	48.01
592.524	47.97
592.862	47.84
593.2	48.06
593.537	47.98
593.875	48.23
594.212	48.26
594.55	48.08
594.887	48.55
595.224	48.16
595.561	48.2
595.899	48.27
596.236	48.18
596.573	48.21
596.91	48.57
597.247	48.44
597.584	48.11
597.921	48.26
598.258	48.29
598.594	48.12
598.931	48.25
599.268	48.27
599.604	48.35
599.941	48.88
600.277	48.83
600.614	48.78
600.95	49.11
601.287	48.96
601.623	49.34
601.959	48.98
602.296	49.2
602.632	49.16
602.968	49.38
603.304	49.23
603.64	49.12
603.976	49.4
604.312	48.93
604.648	49.16
604.984	48.97
605.319	48.92
605.655	49.31
605.991	48.53
606.326	48.82
606.662	49.19
606.998	49.13
607.333	49.27
607.668	49.76
608.004	49.33
608.339	49.76
608.674	49.7
609.01	49.8
609.345	49.9
609.68	49.86
610.015	49.44
610.35	49.78
610.685	49.68
611.02	49.59
611.355	49.91
611.689	49.87
612.024	49.9
612.359	49.91
612.694	50.19
613.028	50.56
613.363	50.15
613.697	50.42
614.032	50.71
614.366	50.4
614.7	51.05
615.035	50.31
615.369	50.88
615.703	50.84
616.037	50.66
616.371	50.66
616.705	50.97
617.039	50.71
617.373	50.55
617.707	50.93
618.041	50.93
618.375	51.3
618.709	51.12
619.042	50.92
619.376	51.05
619.71	51.32
620.043	51.42
620.377	51.18
620.71	51.45
621.043	51.4
621.377	51.52
621.71	51.8
622.043	51.77
622.376	51.37
622.709	51.12
623.043	51.77
623.376	51.75
623.709	51.61
624.041	51.55
624.374	51.89
624.707	51.55
625.04	51.65
625.373	51.96
625.705	51.93
626.038	51.66
626.37	52.03
626.703	52.03
627.035	51.98
627.368	52.06
627.7	51.94
628.032	52.03
628.365	52.04
628.697	51.59
629.029	52.24
629.361	52.34
629.693	51.95
630.025	51.69
630.357	52.46
630.689	52.02
631.021	52.1
631.353	52.08
631.684	52.51
632.016	52.39
632.348	52.73
632.679	52.54
633.011	52.64
633.342	52.68
633.674	52.73
634.005	52.41
634.336	52.78
634.668	52.67
634.999	53.12
635.33	52.17
635.661	53.1
635.992	52.73
636.323	52.94
636.654	52.83
636.985	53.21
637.316	52.93
637.647	52.94
637.977	53.29
638.308	53.03
638.639	53.43
638.969	52.91
639.3	53.16
639.63	53.04
639.961	53.68
640.291	53.39
640.622	53.14
640.952	54.01
641.282	53.84
641.612	53.4
641.943	54.06
642.273	54.3
642.603	53.49
642.933	53.66
643.263	53.67
643.592	53.9
643.922	54.19
644.252	53.53
644.582	54.21
644.911	54.11
645.241	54.43
645.571	53.85
645.9	54.42
646.23	54.51
646.559	53.48
646.888	54.35
647.218	54.23
647.547	54.49
647.876	54.21
648.205	54.61
648.534	54.41
648.863	54.46
649.192	54.52
649.521	54.96
649.85	54.09
650.179	54.13
650.508	55.01
650.837	54.38
651.165	54.18
651.494	54.83
651.822	54.61
652.151	54.29
652.479	54.05
652.808	55.06
653.136	54.61
653.465	55
653.793	54.59
654.121	54.55
654.449	54.35
654.777	54.66
655.105	55.14
655.433	55.24
655.761	55.7
656.089	55.48
656.417	55.23
656.745	55.22
657.073	55.64
657.4	54.69
657.728	55.19
658.056	55.16
658.383	55.31
658.711	55.72
659.038	55.8
659.365	55.46
659.693	55.02
660.02	55.09
660.347	55.17
660.674	54.85
661.001	55.21
661.329	55.49
661.656	55.26
661.982	55.48
662.309	55.38
662.636	55.58
662.963	55.94
663.29	55.43
663.616	55.93
663.943	56.12
664.27	56.63
664.596	55.32
664.923	56.44
665.249	56.14
665.576	55.4
665.902	55.87
666.228	56.23
666.554	56.32
666.881	55.53
667.207	56.54
667.533	55.91
667.859	56.61
668.185	56.36
668.511	56.28
668.837	56.63
669.162	55.66
669.488	56.42
669.814	56.89
