Data from 0022_chest_Reflection__1__32.txt Node

Date: Thu Oct 20 20:36:22 CDT 2022
User: ToomeyLab
Spectrometer: FLMS14357
Trigger mode: 0
Integration Time (sec): 1.000000E-2
Scans to average: 100
Electric dark correction enabled: true
Nonlinearity correction enabled: false
Boxcar width: 0
XAxis mode: Wavelengths
Number of Pixels in Spectrum: 2048
>>>>>Begin Spectral Data<<<<<
189.047	117.03
189.435	117.03
189.823	117.03
190.211	103.59
190.599	73.52
190.987	179.57
191.375	-31.49
191.763	15.98
192.151	62.41
192.538	-39.27
192.926	60.15
193.314	-20.98
193.702	72.99
194.089	-14.72
194.477	1437.95
194.864	137.77
195.252	227.47
195.639	-87.43
196.027	35.44
196.414	-863.21
196.801	-334.88
197.189	43.13
197.576	816.92
197.963	100.66
198.351	34.27
198.738	8.07
199.125	4.04
199.512	13.68
199.899	17.91
200.286	21.5
200.673	24.64
201.06	12.69
201.447	26.89
201.833	12.87
202.22	14.71
202.607	72.19
202.994	27.64
203.38	6.64
203.767	9.98
204.154	-16.26
204.54	8.79
204.927	-6.63
205.313	28.16
205.699	-6.61
206.086	42.46
206.472	-15.87
206.858	35.28
207.245	26.39
207.631	4.3
208.017	27.43
208.403	28.72
208.789	31.57
209.175	33.34
209.561	21.39
209.947	18.71
210.333	5.1
210.719	29.09
211.105	6.23
211.491	-16.38
211.876	30.15
212.262	24.06
212.648	-22.19
213.034	5.27
213.419	10.91
213.805	-8.77
214.19	-10.78
214.576	-8.77
214.961	-3.52
215.346	-9.61
215.732	32.72
216.117	13.66
216.502	-3.9
216.888	15.54
217.273	-1.5
217.658	18.11
218.043	-33.69
218.428	28.14
218.813	-16.44
219.198	25.49
219.583	18.31
219.968	-10.23
220.353	-10.55
220.738	22.54
221.122	4.23
221.507	-6.92
221.892	0.29
222.276	0.05
222.661	-7.37
223.046	-0.51
223.43	13.25
223.815	-8
224.199	1.79
224.583	6.26
224.968	3.61
225.352	8.02
225.736	-6.41
226.121	7.7
226.505	3.23
226.889	3.21
227.273	4.31
227.657	5.28
228.041	1.05
228.425	4.28
228.809	3.73
229.193	4.49
229.577	2.28
229.961	1.29
230.344	2.35
230.728	2.52
231.112	1.99
231.495	2.27
231.879	1.37
232.263	2.53
232.646	2.11
233.03	0.72
233.413	2.8
233.797	1.76
234.18	1.36
234.563	1.1
234.946	2.3
235.33	1.82
235.713	3.02
236.096	1.25
236.479	0.17
236.862	3.61
237.245	4.25
237.628	1.16
238.011	3.55
238.394	2.34
238.777	3.28
239.16	3.5
239.543	1.13
239.925	2.63
240.308	4.07
240.691	2.16
241.073	2.32
241.456	3.1
241.838	1.36
242.221	2.09
242.603	2.19
242.986	2.32
243.368	2.5
243.75	2.23
244.133	2.12
244.515	1.82
244.897	1.76
245.279	2.24
245.661	1.71
246.043	1.71
246.425	2.5
246.807	3.19
247.189	2.21
247.571	1.98
247.953	2.09
248.335	1.85
248.717	2.07
249.098	1.78
249.48	1.91
249.862	2.13
250.243	2.08
250.625	2.16
251.006	2.35
251.388	1.96
251.769	2.43
252.151	2.47
252.532	1.85
252.913	2.42
253.295	1.31
253.676	2.01
254.057	2.08
254.438	2.2
254.819	3.13
255.2	1.82
255.581	1.54
255.962	1.7
256.343	2.32
256.724	2.81
257.105	2.56
257.486	2.28
257.867	1.75
258.247	2.38
258.628	2.16
259.009	1.9
259.389	1.59
259.77	2.25
260.15	2.42
260.531	2.34
260.911	1.65
261.292	1.6
261.672	1.92
262.052	2.14
262.432	1.86
262.813	2.09
263.193	1.82
263.573	1.64
263.953	1.8
264.333	1.87
264.713	2.34
265.093	1.64
265.473	2.6
265.853	1.85
266.233	2.35
266.612	1.47
266.992	2.11
267.372	2.2
267.752	2.16
268.131	1.4
268.511	1.46
268.89	2.02
269.27	2.39
269.649	1.89
270.029	2.19
270.408	1.66
270.787	1.32
271.167	2.4
271.546	1.42
271.925	1.81
272.304	2.32
272.683	1.7
273.062	2.01
273.441	2.07
273.82	1.67
274.199	1.89
274.578	2.14
274.957	1.99
275.336	1.74
275.715	1.7
276.093	1.79
276.472	1.75
276.851	2
277.229	0.93
277.608	1.62
277.986	1.34
278.365	1.69
278.743	1.96
279.122	2.5
279.5	1.27
279.878	2.11
280.257	1.54
280.635	2.07
281.013	2.78
281.391	2.38
281.769	1.45
282.147	2.24
282.525	1.79
282.903	1.94
283.281	1.86
283.659	1.55
284.037	1.5
284.415	2.15
284.792	1.55
285.17	1.62
285.548	1.62
285.925	2.06
286.303	1.76
286.68	1.99
287.058	1.75
287.435	1.52
287.813	1.48
288.19	1.91
288.567	1.27
288.945	2.31
289.322	1
289.699	2.58
290.076	2.37
290.453	2.13
290.83	1.65
291.207	1.97
291.584	1.26
291.961	1.86
292.338	1.55
292.715	1.76
293.092	2.02
293.469	2.27
293.845	1.71
294.222	2.04
294.599	2.06
294.975	1.73
295.352	1.93
295.728	2.33
296.105	1.87
296.481	1.87
296.858	1.75
297.234	1.73
297.61	1.53
297.986	1.85
298.363	1.66
298.739	2.03
299.115	1.77
299.491	2.07
299.867	1.78
300.243	1.64
300.619	1.77
300.995	1.36
301.371	1.67
301.746	2.01
302.122	1.32
302.498	2.28
302.874	1.65
303.249	2.24
303.625	1.77
304	1.78
304.376	1.74
304.751	1.96
305.127	1.18
305.502	1.58
305.878	1.66
306.253	2.06
306.628	1.69
307.003	1.72
307.378	1.56
307.754	2.01
308.129	1.91
308.504	2.01
308.879	1.86
309.254	1.82
309.629	1.83
310.003	1.73
310.378	2.13
310.753	1.82
311.128	1.61
311.502	1.83
311.877	1.86
312.252	1.5
312.626	1.7
313.001	1.34
313.375	1.77
313.75	1.58
314.124	2.06
314.498	1.93
314.873	1.95
315.247	2.13
315.621	1.57
315.995	1.82
316.369	1.27
316.743	1.96
317.117	1.8
317.491	1.45
317.865	2.01
318.239	1.54
318.613	1.87
318.987	1.72
319.361	1.82
319.734	2.04
320.108	1.99
320.482	2.19
320.855	1.85
321.229	1.85
321.602	2.27
321.976	1.66
322.349	1.46
322.723	1.74
323.096	1.6
323.469	1.69
323.843	2.13
324.216	2.05
324.589	1.81
324.962	2.18
325.335	1.63
325.708	2.26
326.081	2.23
326.454	2.03
326.827	1.81
327.2	2.08
327.573	1.69
327.945	1.74
328.318	1.66
328.691	2.04
329.063	2.1
329.436	1.28
329.809	2.07
330.181	2.26
330.553	1.37
330.926	1.99
331.298	1.39
331.671	1.91
332.043	1.72
332.415	1.95
332.787	1.82
333.159	1.7
333.532	1.98
333.904	1.52
334.276	1.84
334.648	1.76
335.02	1.42
335.391	2.02
335.763	1.76
336.135	1.97
336.507	1.87
336.879	1.75
337.25	1.78
337.622	1.99
337.993	1.54
338.365	1.62
338.736	1.81
339.108	2.05
339.479	1.85
339.851	2.35
340.222	1.47
340.593	1.98
340.964	2.05
341.336	2.1
341.707	1.58
342.078	1.91
342.449	2.08
342.82	1.61
343.191	1.72
343.562	1.81
343.933	1.77
344.303	1.74
344.674	1.61
345.045	1.8
345.416	1.76
345.786	1.97
346.157	1.52
346.527	1.31
346.898	1.43
347.268	1.63
347.639	2.04
348.009	1.81
348.38	1.81
348.75	1.93
349.12	1.25
349.49	1.96
349.861	2.05
350.231	1.9
350.601	2.01
350.971	1.63
351.341	1.85
351.711	1.81
352.081	2.16
352.45	1.75
352.82	1.76
353.19	1.84
353.56	1.65
353.929	2.13
354.299	1.58
354.669	1.81
355.038	1.68
355.408	1.74
355.777	1.87
356.147	1.68
356.516	1.99
356.885	2.19
357.254	2.19
357.624	1.4
357.993	1.78
358.362	2.09
358.731	2.08
359.1	2.03
359.469	2
359.838	1.96
360.207	2.24
360.576	1.89
360.945	1.64
361.314	2
361.682	1.69
362.051	1.69
362.42	1.78
362.788	1.8
363.157	1.81
363.525	1.84
363.894	1.89
364.262	1.64
364.631	1.88
364.999	1.76
365.367	1.6
365.735	1.68
366.104	2.04
366.472	1.46
366.84	1.77
367.208	2.02
367.576	1.78
367.944	2.13
368.312	2.19
368.68	2.27
369.048	1.59
369.416	1.93
369.783	2.07
370.151	2.13
370.519	1.89
370.886	2.04
371.254	2.2
371.621	2.06
371.989	1.59
372.356	2
372.724	2.24
373.091	2.07
373.458	1.8
373.826	1.94
374.193	1.91
374.56	2.1
374.927	2.14
375.294	1.89
375.661	1.86
376.028	1.97
376.395	2.01
376.762	1.6
377.129	2.17
377.496	2.06
377.863	1.99
378.229	2.04
378.596	1.8
378.963	1.95
379.329	1.71
379.696	2.2
380.062	2.14
380.429	1.91
380.795	2.03
381.161	1.85
381.528	1.82
381.894	1.83
382.26	1.84
382.626	1.77
382.993	2.32
383.359	2.09
383.725	1.98
384.091	1.53
384.457	2.01
384.823	2.07
385.188	1.99
385.554	1.93
385.92	1.85
386.286	2
386.651	1.86
387.017	2.04
387.383	2.18
387.748	1.81
388.114	1.85
388.479	1.87
388.845	2.03
389.21	1.85
389.575	1.81
389.94	2.19
390.306	1.98
390.671	1.85
391.036	2.09
391.401	2.07
391.766	2.06
392.131	1.99
392.496	1.85
392.861	2.11
393.226	1.92
393.591	1.76
393.956	1.85
394.32	1.96
394.685	1.99
395.05	1.8
395.414	2.03
395.779	1.93
396.143	2.05
396.508	1.9
396.872	1.89
397.236	2.11
397.601	2.03
397.965	1.96
398.329	1.86
398.694	2.13
399.058	2.11
399.422	1.9
399.786	2.13
400.15	1.9
400.514	1.82
400.878	1.77
401.242	2.12
401.605	1.86
401.969	2.08
402.333	1.85
402.697	2.06
403.06	2.02
403.424	1.88
403.787	1.99
404.151	1.99
404.514	1.9
404.878	1.96
405.241	2.01
405.604	2.24
405.968	1.7
406.331	2.02
406.694	1.98
407.057	1.82
407.42	1.96
407.783	1.9
408.146	2.02
408.509	2.07
408.872	2.17
409.235	1.87
409.598	2.02
409.961	1.9
410.323	1.97
410.686	2
411.049	1.97
411.411	1.95
411.774	2.02
412.136	2.02
412.499	2.07
412.861	1.97
413.223	2.11
413.586	2.13
413.948	2
414.31	2.01
414.672	1.98
415.035	2.03
415.397	1.97
415.759	1.93
416.121	1.99
416.483	2.04
416.845	2.05
417.206	2.08
417.568	2.19
417.93	1.78
418.292	2.02
418.653	1.96
419.015	1.94
419.377	1.95
419.738	2.04
420.1	1.87
420.461	1.99
420.822	1.98
421.184	1.95
421.545	1.95
421.906	1.92
422.267	1.87
422.629	2.04
422.99	1.91
423.351	1.94
423.712	1.91
424.073	1.92
424.434	1.81
424.795	1.99
425.155	1.92
425.516	1.92
425.877	1.9
426.238	2.01
426.598	1.91
426.959	1.99
427.32	1.96
427.68	1.93
428.041	2.04
428.401	2.04
428.761	2.09
429.122	2.03
429.482	2.07
429.842	2.17
430.202	2.08
430.563	2.05
430.923	2.1
431.283	2.1
431.643	2.02
432.003	1.98
432.363	2.05
432.722	2.16
433.082	1.98
433.442	2.18
433.802	2.2
434.161	2.13
434.521	2.06
434.881	1.94
435.24	1.92
435.6	2.11
435.959	2.11
436.319	2.1
436.678	2.12
437.037	2.13
437.396	2.15
437.756	2.05
438.115	2.06
438.474	2.17
438.833	2.18
439.192	1.97
439.551	2.04
439.91	2.28
440.269	2.22
440.628	2.13
440.987	2.17
441.345	2.11
441.704	2.08
442.063	1.97
442.421	2
442.78	2.02
443.138	2.09
443.497	2.04
443.855	2.15
444.214	2
444.572	2.04
444.93	2.05
445.288	2.2
445.647	2.02
446.005	2.06
446.363	2
446.721	2.02
447.079	2.06
447.437	2.03
447.795	1.98
448.153	2.02
448.51	2.06
448.868	2.1
449.226	2.05
449.584	2.07
449.941	2.06
450.299	1.95
450.656	2.14
451.014	2.04
451.371	2.04
451.729	2.02
452.086	2.04
452.443	2.1
452.801	2.19
453.158	2.08
453.515	2.05
453.872	2.09
454.229	2.13
454.586	2.1
454.943	2.22
455.3	2.2
455.657	1.88
456.014	2.17
456.371	2.21
456.727	2.2
457.084	2.16
457.441	2.05
457.797	2.31
458.154	2.18
458.51	2.13
458.867	2.06
459.223	2.06
459.58	2.14
459.936	2.07
460.292	2.11
460.648	2.18
461.005	2.12
461.361	1.91
461.717	2.03
462.073	2.03
462.429	2.09
462.785	2.06
463.141	2.21
463.496	2.02
463.852	2.27
464.208	2.27
464.564	2.22
464.919	2.49
465.275	2.02
465.631	2.14
465.986	2.18
466.342	2.11
466.697	2.04
467.052	2.24
467.408	2.12
467.763	2.08
468.118	2.18
468.473	2
468.829	2.17
469.184	2.04
469.539	2.15
469.894	2.16
470.249	1.96
470.603	2.2
470.958	2.15
471.313	2.21
471.668	2.09
472.023	2.29
472.377	2.16
472.732	2.1
473.086	2.11
473.441	2.21
473.795	2.25
474.15	2.1
474.504	2.13
474.859	2.18
475.213	2.2
475.567	2.21
475.921	2.29
476.275	2.22
476.63	2.24
476.984	2.13
477.338	2.14
477.692	2.19
478.045	2.27
478.399	2.24
478.753	2.2
479.107	2.18
479.461	2.08
479.814	2.05
480.168	2.2
480.521	2.03
480.875	2.22
481.228	2.21
481.582	2.16
481.935	2.18
482.289	2.24
482.642	2.16
482.995	2.22
483.348	2.08
483.701	2.12
484.055	2.06
484.408	2.02
484.761	2.04
485.114	1.97
485.466	1.94
485.819	1.99
486.172	2.02
486.525	2.08
486.878	2.07
487.23	2.09
487.583	2.11
487.936	2.05
488.288	2.09
488.641	2.03
488.993	2.03
489.345	2.02
489.698	2.06
490.05	2.11
490.402	2.06
490.754	2.13
491.107	2.08
491.459	2.16
491.811	2.19
492.163	2.09
492.515	2.1
492.866	2.07
493.218	2.01
493.57	2.08
493.922	2.1
494.274	2.17
494.625	2.25
494.977	2.17
495.328	2.28
495.68	2.11
496.031	2.28
496.383	2.18
496.734	2.24
497.086	2.08
497.437	2.26
497.788	2.22
498.139	2.19
498.49	2.13
498.842	2.15
499.193	2.12
499.544	2.22
499.894	2.2
500.245	2.18
500.596	2.09
500.947	2.35
501.298	2.31
501.648	2.32
501.999	2.21
502.35	2.35
502.7	2.38
503.051	2.26
503.401	2.29
503.752	2.25
504.102	2.2
504.452	2.34
504.803	2.33
505.153	2.18
505.503	2.25
505.853	2.13
506.203	2.09
506.553	2.21
506.903	2.29
507.253	2.22
507.603	2.32
507.953	2.23
508.303	2.41
508.652	2.29
509.002	2.31
509.352	2.31
509.701	2.28
510.051	2.2
510.4	2.25
510.75	2.28
511.099	2.26
511.449	2.26
511.798	2.35
512.147	2.17
512.496	2.19
512.846	2.19
513.195	2.18
513.544	2.25
513.893	2.31
514.242	2.3
514.591	2.25
514.939	2.28
515.288	2.33
515.637	2.25
515.986	2.42
516.334	2.3
516.683	2.38
517.032	2.31
517.38	2.28
517.729	2.41
518.077	2.28
518.426	2.31
518.774	2.38
519.122	2.23
519.47	2.28
519.819	2.26
520.167	2.28
520.515	2.34
520.863	2.31
521.211	2.29
521.559	2.41
521.907	2.28
522.255	2.35
522.602	2.32
522.95	2.36
523.298	2.32
523.645	2.28
523.993	2.37
524.341	2.28
524.688	2.3
525.036	2.39
525.383	2.42
525.73	2.36
526.078	2.34
526.425	2.41
526.772	2.35
527.119	2.3
527.466	2.33
527.814	2.34
528.161	2.4
528.508	2.27
528.854	2.39
529.201	2.26
529.548	2.27
529.895	2.25
530.242	2.24
530.588	2.25
530.935	2.28
531.282	2.35
531.628	2.29
531.975	2.34
532.321	2.4
532.667	2.29
533.014	2.41
533.36	2.32
533.706	2.39
534.052	2.35
534.399	2.39
534.745	2.31
535.091	2.35
535.437	2.4
535.783	2.45
536.129	2.38
536.474	2.38
536.82	2.4
537.166	2.43
537.512	2.43
537.857	2.46
538.203	2.47
538.549	2.4
538.894	2.43
539.239	2.52
539.585	2.38
539.93	2.44
540.276	2.46
540.621	2.45
540.966	2.48
541.311	2.52
541.656	2.59
542.001	2.47
542.346	2.46
542.691	2.38
543.036	2.38
543.381	2.43
543.726	2.48
544.071	2.48
544.415	2.42
544.76	2.47
545.105	2.56
545.449	2.46
545.794	2.64
546.138	2.67
546.483	2.6
546.827	2.63
547.171	2.49
547.516	2.53
547.86	2.58
548.204	2.59
548.548	2.61
548.892	2.61
549.236	2.63
549.58	2.56
549.924	2.69
550.268	2.72
550.612	2.67
550.956	2.65
551.3	2.56
551.643	2.71
551.987	2.72
552.33	2.95
552.674	2.79
553.017	2.84
553.361	2.83
553.704	2.81
554.048	2.71
554.391	2.79
554.734	2.81
555.077	2.8
555.42	2.81
555.764	2.79
556.107	2.69
556.45	2.93
556.793	2.94
557.135	2.72
557.478	2.85
557.821	2.73
558.164	2.69
558.507	2.98
558.849	2.78
559.192	2.88
559.534	3.02
559.877	2.77
560.219	2.77
560.562	3.04
560.904	3.06
561.246	2.85
561.589	2.95
561.931	2.92
562.273	2.96
562.615	2.91
562.957	3.15
563.299	2.93
563.641	2.96
563.983	3.16
564.325	2.97
564.667	2.98
565.008	2.84
565.35	2.98
565.692	2.97
566.033	3.01
566.375	3.02
566.716	3.04
567.058	2.89
567.399	3.07
567.741	3.14
568.082	2.97
568.423	3.15
568.764	3.07
569.105	3.11
569.447	3.24
569.788	3.04
570.129	3.06
570.47	3.06
570.811	3.02
571.151	3.21
571.492	3.23
571.833	3.21
572.174	2.91
572.514	3.09
572.855	3.22
573.195	3.2
573.536	2.97
573.876	3.01
574.217	3.03
574.557	3.06
574.898	3.26
575.238	3.29
575.578	3.12
575.918	3.18
576.258	3.17
576.598	3.3
576.938	3.11
577.278	3.27
577.618	3.15
577.958	3.36
578.298	3.46
578.638	3.27
578.977	3.33
579.317	3.09
579.657	3.33
579.996	3.45
580.336	3.08
580.675	3.1
581.014	3.65
581.354	3.5
581.693	3.29
582.032	3.55
582.372	3.45
582.711	3.27
583.05	3.48
583.389	3.35
583.728	3.46
584.067	3.6
584.406	3.41
584.745	3.71
585.083	3.62
585.422	3.63
585.761	3.82
586.1	3.41
586.438	3.6
586.777	3.5
587.115	3.74
587.454	3.92
587.792	3.44
588.13	3.53
588.469	3.57
588.807	3.57
589.145	3.65
589.483	3.57
589.821	3.5
590.159	3.44
590.497	3.67
590.835	3.76
591.173	3.53
591.511	3.97
591.849	3.82
592.187	3.62
592.524	3.71
592.862	3.71
593.2	3.53
593.537	4.02
593.875	3.61
594.212	3.91
594.55	3.65
594.887	4.02
595.224	3.87
595.561	3.96
595.899	3.79
596.236	4.06
596.573	3.85
596.91	3.84
597.247	3.86
597.584	3.78
597.921	3.95
598.258	4
598.594	3.84
598.931	3.89
599.268	3.97
599.604	3.75
599.941	4.24
600.277	3.94
600.614	3.85
600.95	4.02
601.287	3.9
601.623	3.91
601.959	3.79
602.296	4.1
602.632	3.99
602.968	4.23
603.304	3.97
603.64	4.17
603.976	4.29
604.312	4.27
604.648	4.03
604.984	4.14
605.319	4.1
605.655	4.08
605.991	3.81
606.326	3.98
606.662	4.11
606.998	4.28
607.333	4.11
607.668	4.25
608.004	4.27
608.339	4.2
608.674	4.3
609.01	4.17
609.345	4.22
609.68	4.41
610.015	4.29
610.35	4.36
610.685	4.25
611.02	4.53
611.355	4.32
611.689	4.51
612.024	4.34
612.359	4.3
612.694	4.5
613.028	4.32
613.363	4.14
613.697	4.63
614.032	4.7
614.366	4.54
614.7	4.52
615.035	4.53
615.369	4.61
615.703	4.55
616.037	4.48
616.371	4.64
616.705	4.94
617.039	4.7
617.373	4.81
617.707	4.44
618.041	4.67
618.375	4.44
618.709	5.01
619.042	4.67
619.376	4.48
619.71	4.69
620.043	4.98
620.377	4.81
620.71	4.79
621.043	4.67
621.377	4.79
621.71	4.68
622.043	4.77
622.376	4.81
622.709	4.92
623.043	5.29
623.376	4.73
623.709	4.84
624.041	4.78
624.374	5.03
624.707	4.75
625.04	4.85
625.373	5.07
625.705	4.99
626.038	5.28
626.37	4.74
626.703	5.2
627.035	5.07
627.368	4.94
627.7	5.08
628.032	5.21
628.365	4.98
628.697	4.78
629.029	5.07
629.361	5.1
629.693	4.77
630.025	5.26
630.357	4.99
630.689	5.19
631.021	5.19
631.353	5.08
631.684	5.03
632.016	5.16
632.348	5.44
632.679	5.38
633.011	5.23
633.342	5.6
633.674	4.91
634.005	5.48
634.336	5.26
634.668	5.29
634.999	5.33
635.33	5.17
635.661	5.59
635.992	5.34
636.323	5.59
636.654	5.16
636.985	5.54
637.316	5.47
637.647	5.12
637.977	5.6
638.308	5.3
638.639	5.33
638.969	5.33
639.3	5.29
639.63	5.89
639.961	5.81
640.291	5.56
640.622	5.31
640.952	5.88
641.282	5.92
641.612	5.85
641.943	5.47
642.273	6.16
642.603	5.71
642.933	5.47
643.263	5.59
643.592	5.18
643.922	5.93
644.252	5.96
644.582	5.28
644.911	5.59
645.241	6.05
645.571	5.48
645.9	5.79
646.23	5.66
646.559	5.54
646.888	5.64
647.218	6.21
647.547	6.05
647.876	5.91
648.205	6.26
648.534	5.71
648.863	5.73
649.192	5.89
649.521	6.29
649.85	6.34
650.179	5.85
650.508	5.86
650.837	6
651.165	5.69
651.494	6.33
651.822	5.98
652.151	5.22
652.479	6.35
652.808	6.23
653.136	6.28
653.465	6.03
653.793	5.65
654.121	6.37
654.449	5.96
654.777	5.85
655.105	5.84
655.433	6.09
655.761	6.03
656.089	6.14
656.417	6.14
656.745	6.13
657.073	6.43
657.4	6.21
657.728	6.89
658.056	6.49
658.383	6.4
658.711	7.14
659.038	6.58
659.365	6.08
659.693	5.72
660.02	6.23
660.347	6.54
660.674	6.33
661.001	6.38
661.329	6.28
661.656	6.32
661.982	6.12
662.309	6.16
662.636	6.07
662.963	6.68
663.29	5.94
663.616	6.28
663.943	6.46
664.27	6.75
664.596	6.2
664.923	6.58
665.249	6.63
665.576	7.02
665.902	6.96
666.228	7.1
666.554	6.52
666.881	6.74
667.207	7.03
667.533	6.62
667.859	6.67
668.185	7.42
668.511	6.45
668.837	7.4
669.162	6.53
669.488	6.7
669.814	6.9
670.139	6.9
670.465	6.72
670.791	6.5
671.116	7.36
671.442	7.12
671.767	7.23
672.092	6.89
672.418	6.64
672.743	7.05
673.068	6.79
673.393	7.03
673.718	6.92
674.043	7.34
674.368	6.97
674.693	6.5
675.018	7.11
675.343	6.82
675.667	7.1
675.992	6.98
676.317	7.21
676.641	6.41
676.966	7.91
677.29	7.14
677.615	6.89
677.939	7.43
678.264	6.86
678.588	7.36
678.912	6.67
679.236	7.84
679.56	7.4
679.885	7.52
680.209	7.51
680.532	6.71
680.856	7.21
681.18	6.63
681.504	7.12
681.828	7.79
682.152	6.57
682.475	7
682.799	6.76
683.122	7.34
683.446	7.71
683.769	7.03
684.093	7.37
684.416	7.74
684.739	7.95
685.062	7.92
685.386	7.12
685.709	7.93
686.032	8.27
686.355	7.8
686.678	7.41
687.001	8.04
687.324	7.49
687.646	8.22
687.969	7.65
688.292	7.84
688.614	7.8
688.937	6.74
689.26	7.22
689.582	7.68
689.904	7.54
690.227	7.69
690.549	7.67
690.871	7.53
691.194	8.06
691.516	8.16
691.838	7.9
692.16	7.82
692.482	8.13
692.804	8.03
693.126	8.39
