Data from 0022_chest_Reflection__3__34.txt Node

Date: Thu Oct 20 20:36:50 CDT 2022
User: ToomeyLab
Spectrometer: FLMS14357
Trigger mode: 0
Integration Time (sec): 1.000000E-2
Scans to average: 100
Electric dark correction enabled: true
Nonlinearity correction enabled: false
Boxcar width: 0
XAxis mode: Wavelengths
Number of Pixels in Spectrum: 2048
>>>>>Begin Spectral Data<<<<<
189.047	79.33
189.435	79.33
189.823	79.33
190.211	81
190.599	62.87
190.987	-165.54
191.375	115.96
191.763	120.84
192.151	140.44
192.538	82.32
192.926	80.86
193.314	-148.66
193.702	96.07
194.089	151.16
194.477	-779.52
194.864	497.28
195.252	8.25
195.639	68.65
196.027	-17.33
196.414	-560.38
196.801	-40.89
197.189	445.22
197.576	-842.86
197.963	-51.38
198.351	43.23
198.738	7.26
199.125	40.37
199.512	26.44
199.899	32.11
200.286	0.29
200.673	1.25
201.06	33.31
201.447	24.11
201.833	-11.37
202.22	16.34
202.607	60.87
202.994	0.71
203.38	19.02
203.767	55.53
204.154	-23.46
204.54	35.99
204.927	40.02
205.313	62.85
205.699	26.05
206.086	52.13
206.472	58.38
206.858	20.92
207.245	34.08
207.631	27.8
208.017	18.6
208.403	45.24
208.789	26.96
209.175	27.15
209.561	20.33
209.947	20.65
210.333	11.05
210.719	41.39
211.105	-12.65
211.491	20.93
211.876	33.6
212.262	-0.37
212.648	-2.26
213.034	4.39
213.419	17.48
213.805	10.43
214.19	0.41
214.576	17.39
214.961	9.13
215.346	18.71
215.732	21.33
216.117	45.47
216.502	14.13
216.888	17.74
217.273	23.35
217.658	32.32
218.043	12.15
218.428	4.03
218.813	-8.83
219.198	22.53
219.583	30.42
219.968	7.8
220.353	2.78
220.738	21.36
221.122	16.51
221.507	13.16
221.892	11.99
222.276	20.15
222.661	5.74
223.046	19.66
223.43	18.65
223.815	-6.15
224.199	4.14
224.583	7.96
224.968	6.85
225.352	9.14
225.736	4.05
226.121	9.14
226.505	11.65
226.889	7.95
227.273	3.65
227.657	8.55
228.041	5.79
228.425	5.45
228.809	4.1
229.193	7.26
229.577	6.3
229.961	4.14
230.344	5.08
230.728	6.02
231.112	5.31
231.495	4.87
231.879	5.79
232.263	4.66
232.646	5.19
233.03	4.37
233.413	5.14
233.797	6.15
234.18	5.48
234.563	5.43
234.946	4.87
235.33	5.4
235.713	6.83
236.096	5.15
236.479	4.09
236.862	6.49
237.245	6.29
237.628	5.27
238.011	5.36
238.394	6.41
238.777	5.54
239.16	6.49
239.543	5.77
239.925	5.55
240.308	5.77
240.691	6.61
241.073	4.21
241.456	5.17
241.838	4.94
242.221	5.58
242.603	5.65
242.986	5.16
243.368	5.09
243.75	4.95
244.133	4.7
244.515	4.98
244.897	5.19
245.279	4.4
245.661	4.98
246.043	5.13
246.425	4.54
246.807	5.55
247.189	4.82
247.571	4.85
247.953	5
248.335	4.67
248.717	4.68
249.098	4.66
249.48	4.8
249.862	4.77
250.243	4.67
250.625	5.36
251.006	6.05
251.388	5.03
251.769	5.05
252.151	5.03
252.532	4.31
252.913	5.39
253.295	4.44
253.676	4.67
254.057	5.19
254.438	5.11
254.819	5.27
255.2	4.3
255.581	6.12
255.962	4.5
256.343	6.17
256.724	5.71
257.105	5.58
257.486	5.18
257.867	5.12
258.247	6.12
258.628	4.81
259.009	4.7
259.389	4.16
259.77	4.57
260.15	4.9
260.531	4.98
260.911	4.37
261.292	4.23
261.672	4.45
262.052	4.58
262.432	4.75
262.813	4.61
263.193	4.13
263.573	4.44
263.953	4.58
264.333	4.73
264.713	4.46
265.093	5.22
265.473	5.37
265.853	4.19
266.233	4.77
266.612	3.89
266.992	5.56
267.372	4.9
267.752	5.02
268.131	4.13
268.511	4.4
268.89	4.49
269.27	4.96
269.649	4.73
270.029	5.28
270.408	4.35
270.787	4.59
271.167	5.13
271.546	4.6
271.925	4.69
272.304	4.93
272.683	4.2
273.062	4.43
273.441	4.61
273.82	4.22
274.199	4.6
274.578	4.49
274.957	4.68
275.336	4.34
275.715	3.93
276.093	4.83
276.472	4.72
276.851	4.75
277.229	4.07
277.608	4.24
277.986	4.28
278.365	4.3
278.743	4.69
279.122	4.82
279.5	4.25
279.878	4.6
280.257	4.35
280.635	4.42
281.013	4.37
281.391	4.77
281.769	4.38
282.147	4.57
282.525	4.1
282.903	4.54
283.281	4.33
283.659	4.07
284.037	4.24
284.415	4.58
284.792	4.36
285.17	4.69
285.548	4.14
285.925	4.69
286.303	4.4
286.68	4.43
287.058	4.76
287.435	4.59
287.813	4.21
288.19	4.66
288.567	4.16
288.945	4.6
289.322	4.23
289.699	5.08
290.076	4.7
290.453	4.43
290.83	4.9
291.207	4.47
291.584	4.46
291.961	4.52
292.338	4.3
292.715	4.25
293.092	5.16
293.469	4.86
293.845	4.28
294.222	4.71
294.599	4.65
294.975	4.63
295.352	4.84
295.728	4.91
296.105	4.54
296.481	4.63
296.858	4.44
297.234	4.41
297.61	4.12
297.986	4.51
298.363	4.74
298.739	4.78
299.115	4.82
299.491	4.91
299.867	4.23
300.243	4.66
300.619	4.71
300.995	4.36
301.371	4.11
301.746	4.73
302.122	4.39
302.498	4.79
302.874	4.56
303.249	4.93
303.625	4.65
304	4.61
304.376	4.83
304.751	4.75
305.127	4.11
305.502	4.75
305.878	4.68
306.253	5.03
306.628	4.59
307.003	5
307.378	4.65
307.754	4.78
308.129	4.42
308.504	4.76
308.879	4.97
309.254	4.71
309.629	4.75
310.003	4.91
310.378	4.81
310.753	5.12
311.128	4.51
311.502	4.47
311.877	4.4
312.252	4.89
312.626	4.45
313.001	4.6
313.375	4.91
313.75	4.45
314.124	4.63
314.498	4.96
314.873	4.97
315.247	4.99
315.621	4.45
315.995	4.59
316.369	4.79
316.743	4.8
317.117	4.85
317.491	4.37
317.865	5.39
318.239	4.8
318.613	5.15
318.987	4.77
319.361	4.82
319.734	5.05
320.108	4.98
320.482	4.47
320.855	4.84
321.229	4.47
321.602	4.85
321.976	4.31
322.349	5.14
322.723	4.81
323.096	4.55
323.469	4.7
323.843	5.01
324.216	4.89
324.589	5.13
324.962	5.27
325.335	4.51
325.708	4.62
326.081	5.23
326.454	4.97
326.827	4.83
327.2	5.36
327.573	5.11
327.945	5.09
328.318	4.81
328.691	4.84
329.063	4.39
329.436	4.52
329.809	5.12
330.181	5.17
330.553	4.77
330.926	4.35
331.298	4.41
331.671	4.53
332.043	4.78
332.415	4.92
332.787	5.14
333.159	4.83
333.532	4.82
333.904	5.02
334.276	4.74
334.648	4.78
335.02	4.97
335.391	4.65
335.763	4.9
336.135	4.5
336.507	5.05
336.879	4.92
337.25	4.57
337.622	4.98
337.993	5.02
338.365	4.53
338.736	4.73
339.108	4.62
339.479	4.59
339.851	5.29
340.222	4.84
340.593	4.87
340.964	5.02
341.336	4.84
341.707	5.16
342.078	4.96
342.449	4.74
342.82	4.54
343.191	4.98
343.562	5.03
343.933	4.75
344.303	5.28
344.674	4.54
345.045	4.56
345.416	4.76
345.786	5.07
346.157	4.88
346.527	4.52
346.898	4.73
347.268	4.81
347.639	4.9
348.009	5
348.38	5.21
348.75	4.59
349.12	5.01
349.49	4.89
349.861	4.81
350.231	4.91
350.601	4.96
350.971	4.65
351.341	4.79
351.711	4.75
352.081	5.03
352.45	5.06
352.82	4.65
353.19	5.07
353.56	4.92
353.929	5.08
354.299	4.68
354.669	4.86
355.038	4.91
355.408	4.62
355.777	4.7
356.147	5.01
356.516	4.87
356.885	5.13
357.254	4.98
357.624	4.62
357.993	4.74
358.362	4.87
358.731	4.95
359.1	5.21
359.469	5.02
359.838	4.88
360.207	5.34
360.576	5.16
360.945	4.55
361.314	5.17
361.682	4.95
362.051	4.94
362.42	4.94
362.788	4.96
363.157	4.81
363.525	4.92
363.894	4.96
364.262	4.82
364.631	4.89
364.999	5.07
365.367	4.77
365.735	4.98
366.104	5.02
366.472	5
366.84	4.9
367.208	4.83
367.576	4.84
367.944	5.21
368.312	5.02
368.68	5.23
369.048	4.73
369.416	5.07
369.783	5.18
370.151	5.29
370.519	5.4
370.886	5.11
371.254	5.17
371.621	4.85
371.989	4.88
372.356	5.11
372.724	5.19
373.091	5.06
373.458	5.07
373.826	5.24
374.193	5.06
374.56	5.2
374.927	5.02
375.294	5
375.661	5.22
376.028	5.01
376.395	5
376.762	4.79
377.129	5.34
377.496	5.12
377.863	5.24
378.229	4.82
378.596	4.89
378.963	5.08
379.329	4.76
379.696	5.16
380.062	5.27
380.429	5.27
380.795	5
381.161	5.24
381.528	5.14
381.894	5.12
382.26	4.85
382.626	5.07
382.993	5.28
383.359	5.11
383.725	5.26
384.091	4.98
384.457	4.57
384.823	5.17
385.188	5.38
385.554	5.1
385.92	5
386.286	5.18
386.651	5.07
387.017	4.94
387.383	5.06
387.748	5.26
388.114	5.09
388.479	5.49
388.845	5.32
389.21	5.07
389.575	5.06
389.94	5.36
390.306	5.06
390.671	5.21
391.036	5.09
391.401	5.24
391.766	5.18
392.131	5.03
392.496	5.01
392.861	5.4
393.226	5.19
393.591	5.05
393.956	4.96
394.32	5.05
394.685	5.1
395.05	4.91
395.414	5.32
395.779	5.11
396.143	5.12
396.508	4.86
396.872	5.06
397.236	4.98
397.601	5.12
397.965	5.27
398.329	4.93
398.694	5.2
399.058	5.24
399.422	5
399.786	5.08
400.15	5.26
400.514	5.19
400.878	5.33
401.242	5.49
401.605	5.12
401.969	5.16
402.333	5.28
402.697	5.4
403.06	5.11
403.424	5.29
403.787	5.09
404.151	5.43
404.514	5.06
404.878	5.15
405.241	5.18
405.604	5.54
405.968	5.05
406.331	5.49
406.694	5.32
407.057	5.12
407.42	5.13
407.783	5.11
408.146	5.21
408.509	5.32
408.872	5.15
409.235	5.08
409.598	5.43
409.961	5.15
410.323	5.34
410.686	5.27
411.049	5.11
411.411	5.23
411.774	5.35
412.136	5.37
412.499	5.27
412.861	5.39
413.223	5.35
413.586	5.4
413.948	5.36
414.31	5.51
414.672	5.28
415.035	5.43
415.397	5.39
415.759	5.45
416.121	5.27
416.483	5.34
416.845	5.51
417.206	5.51
417.568	5.43
417.93	5.13
418.292	5.37
418.653	5.16
419.015	5.17
419.377	5.17
419.738	5.23
420.1	5.17
420.461	5.3
420.822	5.31
421.184	5.24
421.545	5.09
421.906	5.15
422.267	5.11
422.629	5.25
422.99	5.24
423.351	5.16
423.712	5.16
424.073	5.2
424.434	5.17
424.795	5.18
425.155	5.23
425.516	5.16
425.877	5.14
426.238	5.2
426.598	5.17
426.959	5.2
427.32	5.33
427.68	5.3
428.041	5.34
428.401	5.42
428.761	5.53
429.122	5.36
429.482	5.36
429.842	5.32
430.202	5.47
430.563	5.35
430.923	5.42
431.283	5.53
431.643	5.54
432.003	5.62
432.363	5.47
432.722	5.52
433.082	5.48
433.442	5.5
433.802	5.48
434.161	5.61
434.521	5.43
434.881	5.52
435.24	5.33
435.6	5.4
435.959	5.57
436.319	5.47
436.678	5.48
437.037	5.56
437.396	5.43
437.756	5.54
438.115	5.45
438.474	5.35
438.833	5.43
439.192	5.41
439.551	5.33
439.91	5.45
440.269	5.43
440.628	5.37
440.987	5.39
441.345	5.46
441.704	5.42
442.063	5.35
442.421	5.5
442.78	5.43
443.138	5.5
443.497	5.46
443.855	5.55
444.214	5.43
444.572	5.43
444.93	5.53
445.288	5.57
445.647	5.48
446.005	5.51
446.363	5.53
446.721	5.49
447.079	5.4
447.437	5.47
447.795	5.43
448.153	5.35
448.51	5.39
448.868	5.43
449.226	5.45
449.584	5.51
449.941	5.49
450.299	5.47
450.656	5.58
451.014	5.56
451.371	5.53
451.729	5.69
452.086	5.63
452.443	5.66
452.801	5.68
453.158	5.56
453.515	5.63
453.872	5.6
454.229	5.72
454.586	5.73
454.943	5.73
455.3	5.7
455.657	5.59
456.014	5.66
456.371	5.67
456.727	5.67
457.084	5.72
457.441	5.56
457.797	5.72
458.154	5.64
458.51	5.74
458.867	5.62
459.223	5.61
459.58	5.67
459.936	5.61
460.292	5.6
460.648	5.68
461.005	5.63
461.361	5.53
461.717	5.58
462.073	5.57
462.429	5.65
462.785	5.59
463.141	5.72
463.496	5.74
463.852	5.99
464.208	5.78
464.564	5.77
464.919	5.93
465.275	5.83
465.631	5.69
465.986	5.66
466.342	5.75
466.697	5.7
467.052	5.76
467.408	5.84
467.763	5.75
468.118	5.87
468.473	5.83
468.829	5.85
469.184	5.82
469.539	5.63
469.894	5.8
470.249	5.76
470.603	5.87
470.958	5.79
471.313	5.9
471.668	5.71
472.023	5.71
472.377	5.89
472.732	5.87
473.086	5.82
473.441	5.76
473.795	5.94
474.15	5.82
474.504	5.84
474.859	5.87
475.213	5.91
475.567	5.83
475.921	5.82
476.275	5.82
476.63	5.81
476.984	6.04
477.338	6
477.692	5.95
478.045	5.84
478.399	5.98
478.753	5.94
479.107	5.84
479.461	5.79
479.814	5.78
480.168	5.77
480.521	5.75
480.875	5.83
481.228	5.85
481.582	5.86
481.935	5.93
482.289	5.85
482.642	5.91
482.995	5.82
483.348	5.76
483.701	5.79
484.055	5.77
484.408	5.66
484.761	5.6
485.114	5.47
485.466	5.43
485.819	5.49
486.172	5.57
486.525	5.63
486.878	5.65
487.23	5.72
487.583	5.7
487.936	5.69
488.288	5.67
488.641	5.66
488.993	5.61
489.345	5.64
489.698	5.67
490.05	5.69
490.402	5.78
490.754	5.76
491.107	5.77
491.459	5.86
491.811	5.86
492.163	5.78
492.515	5.81
492.866	5.73
493.218	5.7
493.57	5.74
493.922	5.84
494.274	5.95
494.625	5.85
494.977	5.88
495.328	6
495.68	5.95
496.031	6.04
496.383	6.04
496.734	5.95
497.086	6.03
497.437	6.06
497.788	6.01
498.139	5.97
498.49	5.88
498.842	5.88
499.193	5.94
499.544	6.05
499.894	5.99
500.245	5.92
500.596	6
500.947	6.2
501.298	6.17
501.648	6.16
501.999	6.12
502.35	6.26
502.7	6.28
503.051	6.32
503.401	6.16
503.752	6.23
504.102	6.15
504.452	6.3
504.803	6.36
505.153	6.28
505.503	6.31
505.853	6.11
506.203	6.11
506.553	6.15
506.903	6.24
507.253	6.15
507.603	6.13
507.953	6.24
508.303	6.37
508.652	6.36
509.002	6.26
509.352	6.27
509.701	6.19
510.051	6.18
510.4	6.13
510.75	6.13
511.099	6.15
511.449	6.21
511.798	6.32
512.147	6.18
512.496	6.23
512.846	6.23
513.195	6.25
513.544	6.22
513.893	6.22
514.242	6.26
514.591	6.29
514.939	6.26
515.288	6.41
515.637	6.33
515.986	6.43
516.334	6.38
516.683	6.35
517.032	6.53
517.38	6.43
517.729	6.4
518.077	6.37
518.426	6.33
518.774	6.46
519.122	6.36
519.47	6.24
519.819	6.24
520.167	6.32
520.515	6.33
520.863	6.21
521.211	6.32
521.559	6.45
521.907	6.39
522.255	6.42
522.602	6.44
522.95	6.22
523.298	6.51
523.645	6.45
523.993	6.66
524.341	6.61
524.688	6.45
525.036	6.66
525.383	6.59
525.73	6.52
526.078	6.52
526.425	6.49
526.772	6.49
527.119	6.44
527.466	6.49
527.814	6.41
528.161	6.54
528.508	6.47
528.854	6.51
529.201	6.35
529.548	6.32
529.895	6.29
530.242	6.24
530.588	6.3
530.935	6.35
531.282	6.43
531.628	6.4
531.975	6.51
532.321	6.55
532.667	6.49
533.014	6.66
533.36	6.47
533.706	6.6
534.052	6.47
534.399	6.56
534.745	6.49
535.091	6.5
535.437	6.54
535.783	6.63
536.129	6.59
536.474	6.69
536.82	6.76
537.166	6.75
537.512	6.74
537.857	6.74
538.203	6.75
538.549	6.67
538.894	6.67
539.239	6.88
539.585	6.79
539.93	6.71
540.276	6.89
540.621	6.99
540.966	7
541.311	6.95
541.656	6.93
542.001	6.83
542.346	6.72
542.691	6.62
543.036	6.7
543.381	6.71
543.726	6.71
544.071	6.82
544.415	6.79
544.76	6.89
545.105	6.99
545.449	6.89
545.794	7.07
546.138	7
546.483	7.05
546.827	7.08
547.171	6.98
547.516	7.08
547.86	6.99
548.204	6.99
548.548	7.04
548.892	7.17
549.236	7.14
549.58	7.14
549.924	7.31
550.268	7.25
550.612	7.41
550.956	7.16
551.3	7.27
551.643	7.32
551.987	7.27
552.33	7.6
552.674	7.49
553.017	7.38
553.361	7.51
553.704	7.48
554.048	7.45
554.391	7.53
554.734	7.51
555.077	7.52
555.42	7.6
555.764	7.53
556.107	7.54
556.45	7.59
556.793	7.71
557.135	7.59
557.478	7.59
557.821	7.58
558.164	7.42
558.507	7.78
558.849	7.74
559.192	7.75
559.534	7.78
559.877	7.8
560.219	7.77
560.562	7.75
560.904	8.07
561.246	7.75
561.589	7.67
561.931	7.8
562.273	7.82
562.615	7.92
562.957	7.93
563.299	7.85
563.641	7.92
563.983	7.92
564.325	8
564.667	7.9
565.008	7.81
565.35	7.81
565.692	8
566.033	7.91
566.375	7.85
566.716	7.81
567.058	7.98
567.399	8.06
567.741	8.05
568.082	7.98
568.423	7.96
568.764	7.95
569.105	8
569.447	8.31
569.788	8.22
570.129	8.17
570.47	8.14
570.811	8.19
571.151	8.27
571.492	8.21
571.833	8.27
572.174	8.28
572.514	8.24
572.855	8.19
573.195	8.28
573.536	8.18
573.876	8.22
574.217	8.33
574.557	8.27
574.898	8.38
575.238	8.52
575.578	8.43
575.918	8.56
576.258	8.39
576.598	8.46
576.938	8.5
577.278	8.51
577.618	8.48
577.958	8.64
578.298	8.59
578.638	8.76
578.977	8.51
579.317	8.57
579.657	8.72
579.996	8.75
580.336	8.64
580.675	8.6
581.014	8.94
581.354	8.99
581.693	8.71
582.032	9.16
582.372	8.8
582.711	8.92
583.05	8.96
583.389	8.79
583.728	8.94
584.067	8.88
584.406	8.99
584.745	9.09
585.083	8.97
585.422	9.08
585.761	9.05
586.1	9.07
586.438	8.93
586.777	9.21
587.115	9.28
587.454	9.42
587.792	9.05
588.13	9.34
588.469	9.18
588.807	9.15
589.145	9.2
589.483	8.94
589.821	9.28
590.159	9.05
590.497	9.26
590.835	9.33
591.173	9.3
591.511	9.4
591.849	9.59
592.187	9.17
592.524	9.39
592.862	9.27
593.2	9.43
593.537	9.61
593.875	9.34
594.212	9.59
594.55	9.63
594.887	9.77
595.224	9.6
595.561	9.68
595.899	9.52
596.236	9.67
596.573	9.65
596.91	9.7
597.247	9.67
597.584	9.71
597.921	9.66
598.258	9.63
598.594	9.62
598.931	9.77
599.268	9.72
599.604	9.73
599.941	9.88
600.277	9.77
600.614	9.74
600.95	10.06
601.287	9.92
601.623	10.16
601.959	9.98
602.296	10.08
602.632	10.06
602.968	10.14
603.304	10.22
603.64	10.18
603.976	10.16
604.312	10.07
604.648	10.36
604.984	9.97
605.319	10.16
605.655	10.01
605.991	9.91
606.326	10.04
606.662	10.15
606.998	10.31
607.333	10.01
607.668	10.45
608.004	10.37
608.339	10.24
608.674	10.53
609.01	10.49
609.345	10.41
609.68	10.68
610.015	10.63
610.35	10.7
610.685	10.4
611.02	10.62
611.355	10.46
611.689	10.63
612.024	10.48
612.359	10.42
612.694	10.8
613.028	10.92
613.363	10.49
613.697	10.96
614.032	11.01
614.366	10.63
614.7	10.8
615.035	10.88
615.369	10.91
615.703	10.91
616.037	11.11
616.371	11.39
616.705	11.34
617.039	11.12
617.373	11.16
617.707	10.77
618.041	11.09
618.375	11.02
618.709	11.29
619.042	11.41
619.376	11.11
619.71	11.25
620.043	11.3
620.377	11.27
620.71	11.28
621.043	11.36
621.377	11.21
621.71	11.32
622.043	11.4
622.376	11.37
622.709	11.2
623.043	11.82
623.376	11.32
623.709	11.33
624.041	11.24
624.374	11.76
624.707	11.53
625.04	11.69
625.373	11.97
625.705	11.76
626.038	11.99
626.37	11.9
626.703	11.9
627.035	11.66
627.368	11.77
627.7	11.95
628.032	11.63
628.365	11.43
628.697	11.58
629.029	11.79
629.361	11.86
629.693	11.7
630.025	11.82
630.357	11.71
630.689	12.07
631.021	11.78
631.353	11.93
631.684	12
632.016	11.96
632.348	12.05
632.679	12.42
633.011	12.01
633.342	12.22
633.674	12.05
634.005	12.33
634.336	12.31
634.668	12.18
634.999	12.17
635.33	11.87
635.661	12.16
635.992	12.47
636.323	12.34
636.654	12.35
636.985	12.34
637.316	12.38
637.647	12.44
637.977	12.34
638.308	12.32
638.639	12.4
638.969	12.73
639.3	12.62
639.63	13.09
639.961	12.74
640.291	12.68
640.622	12.41
640.952	12.85
641.282	12.78
641.612	12.93
641.943	12.73
642.273	13.17
642.603	12.79
642.933	12.45
643.263	12.73
643.592	12.62
643.922	13.02
644.252	12.95
644.582	12.77
644.911	12.78
645.241	13.08
645.571	13.26
645.9	13.24
646.23	12.87
646.559	13.12
646.888	13.05
647.218	12.67
647.547	13.15
647.876	13.48
648.205	13.94
648.534	13.03
648.863	13
649.192	13.53
649.521	13.63
649.85	13.51
650.179	13.75
650.508	13.69
650.837	13.43
651.165	13.44
651.494	13.43
651.822	13.51
652.151	12.97
652.479	13.56
652.808	14.05
653.136	13.68
653.465	13.5
653.793	13.44
654.121	13.67
654.449	13.68
654.777	13.29
655.105	13.86
655.433	13.76
655.761	13.47
656.089	14.07
656.417	13.9
656.745	13.72
657.073	13.88
657.4	13.74
657.728	14.37
658.056	14.23
658.383	14.15
658.711	14.48
659.038	14.17
659.365	13.89
659.693	14.15
660.02	13.69
660.347	14.06
660.674	13.92
661.001	13.97
661.329	14.09
661.656	13.99
661.982	13.68
662.309	14.05
662.636	14.42
662.963	14.2
663.29	13.75
663.616	14.36
663.943	14.22
664.27	14.28
664.596	14.24
664.923	14.11
665.249	14.85
665.576	14.53
665.902	14.72
666.228	15
666.554	14.71
666.881	14.96
667.207	14.58
667.533	14.93
667.859	15.15
668.185	14.77
668.511	14.81
668.837	15.49
669.162	15.11
669.488	14.88
669.814	15.04
670.139	15.58
670.465	14.58
670.791	14.83
671.116	15.33
671.442	15.06
671.767	15.42
672.092	15.3
672.418	14.61
672.743	15.38
673.068	15.01
673.393	15.28
673.718	15.64
674.043	15.21
674.368	15.71
674.693	15.21
675.018	14.99
675.343	14.95
675.667	15.67
675.992	15.17
676.317	15.72
676.641	15.03
676.966	16.11
677.29	16.15
677.615	15.29
677.939	15.76
678.264	15.65
678.588	15.75
678.912	15.67
679.236	16.36
679.56	15.31
679.885	15.18
680.209	15.85
680.532	15.59
680.856	15.58
681.18	15.31
681.504	15.65
681.828	15.92
682.152	15.66
682.475	15.15
682.799	15.93
683.122	15.96
683.446	16.47
683.769	16.08
684.093	16.44
684.416	16.48
684.739	15.71
685.062	17.12
685.386	16.02
685.709	16.28
686.032	16.56
686.355	17.27
686.678	15.81
687.001	16.43
