Data from 0022_forehead_Reflection__0__41.txt Node

Date: Thu Oct 20 20:39:24 CDT 2022
User: ToomeyLab
Spectrometer: FLMS14357
Trigger mode: 0
Integration Time (sec): 1.000000E-2
Scans to average: 100
Electric dark correction enabled: true
Nonlinearity correction enabled: false
Boxcar width: 0
XAxis mode: Wavelengths
Number of Pixels in Spectrum: 2048
>>>>>Begin Spectral Data<<<<<
189.047	47.74
189.435	47.74
189.823	47.74
190.211	14.45
190.599	55.9
190.987	20.43
191.375	22.04
191.763	-28.6
192.151	-4.24
192.538	-156.27
192.926	103.04
193.314	54.33
193.702	96.54
194.089	83.7
194.477	-418.67
194.864	327.22
195.252	245.7
195.639	32.53
196.027	16.82
196.414	-431.13
196.801	31.79
197.189	103.6
197.576	-550.75
197.963	-96.78
198.351	75.76
198.738	30.2
199.125	70.56
199.512	45.14
199.899	36.82
200.286	3.59
200.673	45.59
201.06	50.9
201.447	50.04
201.833	7.73
202.22	41.69
202.607	49.11
202.994	23.77
203.38	45.52
203.767	72.27
204.154	41.03
204.54	77.52
204.927	65.85
205.313	63.1
205.699	90.69
206.086	60.09
206.472	62.73
206.858	29.82
207.245	30.23
207.631	-0.05
208.017	46.21
208.403	36.44
208.789	41.95
209.175	39.82
209.561	24.49
209.947	43.18
210.333	24.06
210.719	39.28
211.105	-14.46
211.491	5.26
211.876	21.29
212.262	-3.44
212.648	13.95
213.034	53.1
213.419	42.92
213.805	54.81
214.19	18.71
214.576	39.21
214.961	23.17
215.346	15.48
215.732	38.46
216.117	30.32
216.502	74.06
216.888	34.59
217.273	56.09
217.658	16.56
218.043	10.84
218.428	18.93
218.813	33.57
219.198	33.25
219.583	21.19
219.968	26.96
220.353	9.32
220.738	1.46
221.122	13.83
221.507	6.05
221.892	11.54
222.276	26.82
222.661	10.18
223.046	16.53
223.43	15.28
223.815	2.88
224.199	15.22
224.583	8.49
224.968	10.83
225.352	12.43
225.736	13.04
226.121	11.97
226.505	9.96
226.889	9.41
227.273	10.19
227.657	9.76
228.041	8.73
228.425	8.72
228.809	6.14
229.193	6.9
229.577	5.45
229.961	3.68
230.344	4.36
230.728	4.77
231.112	4.66
231.495	5.25
231.879	4.49
232.263	4.65
232.646	4.87
233.03	4.34
233.413	6.19
233.797	2.65
234.18	3.89
234.563	5.31
234.946	4.98
235.33	5.3
235.713	6.59
236.096	4.58
236.479	4.37
236.862	6.06
237.245	6.8
237.628	4.67
238.011	4.02
238.394	4.95
238.777	3.17
239.16	5.14
239.543	5.25
239.925	4.56
240.308	6.16
240.691	4.82
241.073	5.72
241.456	3.54
241.838	3.97
242.221	4.95
242.603	4.56
242.986	4.43
243.368	4.2
243.75	4.34
244.133	4.26
244.515	4.48
244.897	4.18
245.279	3.66
245.661	3.75
246.043	4.27
246.425	4.32
246.807	4.6
247.189	4.16
247.571	3.74
247.953	4.22
248.335	4.09
248.717	4.06
249.098	4.07
249.48	4.1
249.862	4.44
250.243	4.21
250.625	4.89
251.006	5.29
251.388	4.46
251.769	4.49
252.151	5.08
252.532	4.32
252.913	5.15
253.295	3.94
253.676	4.2
254.057	4.44
254.438	4.24
254.819	5.15
255.2	3.83
255.581	4.11
255.962	4.37
256.343	5.76
256.724	5.12
257.105	4.26
257.486	4.43
257.867	4.78
258.247	4.8
258.628	4.48
259.009	4.47
259.389	3.86
259.77	4.95
260.15	3.99
260.531	4.76
260.911	3.88
261.292	3.96
261.672	3.99
262.052	4.24
262.432	4.13
262.813	4.64
263.193	4.61
263.573	4.66
263.953	4.45
264.333	4.36
264.713	4.98
265.093	4.4
265.473	5.17
265.853	5.16
266.233	4.55
266.612	3.91
266.992	5.03
267.372	4.72
267.752	4.72
268.131	3.99
268.511	4.14
268.89	4.47
269.27	4.92
269.649	4.27
270.029	4.76
270.408	3.84
270.787	4.1
271.167	4.98
271.546	4.16
271.925	4.37
272.304	4.09
272.683	4.17
273.062	4.34
273.441	4.27
273.82	3.98
274.199	4.49
274.578	4.46
274.957	4.6
275.336	4.29
275.715	3.35
276.093	4.35
276.472	4.52
276.851	4.72
277.229	3.81
277.608	4.28
277.986	3.8
278.365	4.09
278.743	4.6
279.122	4.93
279.5	4.04
279.878	3.95
280.257	4.45
280.635	4.43
281.013	5.29
281.391	4.64
281.769	4.13
282.147	4.45
282.525	4
282.903	4.18
283.281	4.14
283.659	3.91
284.037	4.29
284.415	4.36
284.792	4
285.17	4.49
285.548	4.36
285.925	3.79
286.303	4.35
286.68	4.4
287.058	4.24
287.435	4.02
287.813	3.95
288.19	4.41
288.567	3.84
288.945	5.06
289.322	4.28
289.699	4.73
290.076	4.34
290.453	4.67
290.83	4.47
291.207	5.07
291.584	3.82
291.961	4.64
292.338	4.39
292.715	4.51
293.092	4.91
293.469	4.99
293.845	4.64
294.222	4.62
294.599	5.56
294.975	5.22
295.352	4.95
295.728	5.16
296.105	4.8
296.481	4.83
296.858	5.39
297.234	5.12
297.61	4.82
297.986	5.11
298.363	5.05
298.739	5.23
299.115	5.4
299.491	5.49
299.867	5.47
300.243	5.54
300.619	5.7
300.995	5.42
301.371	5.74
301.746	5.72
302.122	4.9
302.498	6.31
302.874	5.63
303.249	6.02
303.625	6.04
304	6.16
304.376	5.99
304.751	5.5
305.127	5.51
305.502	6.01
305.878	5.96
306.253	6
306.628	6.27
307.003	6.06
307.378	6.31
307.754	6.51
308.129	6.96
308.504	6.15
308.879	6.82
309.254	6.62
309.629	6.52
310.003	6.44
310.378	6.89
310.753	7.15
311.128	6.48
311.502	6.8
311.877	7.04
312.252	6.85
312.626	6.8
313.001	6.79
313.375	7.13
313.75	7.25
314.124	6.95
314.498	7.38
314.873	7.45
315.247	7.5
315.621	7.76
315.995	7.65
316.369	7.75
316.743	7.91
317.117	7.98
317.491	7.78
317.865	8.06
318.239	7.97
318.613	8.27
318.987	8.42
319.361	7.96
319.734	8.87
320.108	8.78
320.482	8.3
320.855	8.65
321.229	8.48
321.602	8.92
321.976	8.12
322.349	8.87
322.723	8.92
323.096	8.47
323.469	8.77
323.843	9.01
324.216	9.06
324.589	9.16
324.962	9.5
325.335	8.57
325.708	9.27
326.081	9.34
326.454	9.58
326.827	9.12
327.2	9.53
327.573	9.39
327.945	9.62
328.318	9.13
328.691	9.45
329.063	9.73
329.436	9.12
329.809	9.9
330.181	10.33
330.553	9.82
330.926	9.95
331.298	9.45
331.671	9.95
332.043	9.81
332.415	10.27
332.787	10.11
333.159	10.33
333.532	10.41
333.904	9.99
334.276	10.6
334.648	10.43
335.02	10.32
335.391	10.67
335.763	10.79
336.135	10.55
336.507	10.57
336.879	10.7
337.25	10.69
337.622	10.89
337.993	10.79
338.365	10.98
338.736	11.19
339.108	10.87
339.479	11.04
339.851	11.23
340.222	11.21
340.593	10.88
340.964	11.41
341.336	11.18
341.707	11.44
342.078	11.16
342.449	11.42
342.82	11.63
343.191	11.75
343.562	11.64
343.933	11.75
344.303	11.97
344.674	11.53
345.045	12.12
345.416	12.18
345.786	12.5
346.157	12.26
346.527	11.92
346.898	11.77
347.268	12.27
347.639	12.27
348.009	12.28
348.38	12.44
348.75	12.31
349.12	12.49
349.49	12.26
349.861	12.4
350.231	12.47
350.601	12.73
350.971	12.47
351.341	12.46
351.711	12.54
352.081	13.3
352.45	13.35
352.82	12.92
353.19	12.99
353.56	13.38
353.929	13.76
354.299	13.02
354.669	13.27
355.038	13.01
355.408	12.92
355.777	13.45
356.147	13.77
356.516	13.77
356.885	13.68
357.254	13.87
357.624	13.75
357.993	13.61
358.362	13.75
358.731	14.01
359.1	14.15
359.469	14.03
359.838	13.94
360.207	14.34
360.576	14.08
360.945	14
361.314	14.28
361.682	14.26
362.051	14.21
362.42	14.19
362.788	14.38
363.157	14.4
363.525	14.5
363.894	14.59
364.262	14.54
364.631	14.99
364.999	14.93
365.367	14.75
365.735	14.68
366.104	15.08
366.472	15.16
366.84	15.06
367.208	15.46
367.576	15.51
367.944	15.4
368.312	15.56
368.68	15.59
369.048	15.26
369.416	15.7
369.783	15.5
370.151	15.79
370.519	16.1
370.886	15.95
371.254	15.49
371.621	15.94
371.989	15.81
372.356	16.1
372.724	16.37
373.091	16.23
373.458	16.15
373.826	16.26
374.193	16.43
374.56	16.54
374.927	16.58
375.294	16.57
375.661	16.94
376.028	16.55
376.395	16.66
376.762	16.93
377.129	16.83
377.496	16.9
377.863	17.06
378.229	16.95
378.596	17.07
378.963	17.28
379.329	17
379.696	17.24
380.062	17.22
380.429	17.55
380.795	17.56
381.161	17.52
381.528	17.25
381.894	17.7
382.26	17.31
382.626	17.71
382.993	17.84
383.359	17.57
383.725	17.94
384.091	17.87
384.457	18.08
384.823	18.11
385.188	18.3
385.554	18.34
385.92	17.97
386.286	18.34
386.651	18.38
387.017	18.29
387.383	18.64
387.748	18.64
388.114	18.67
388.479	18.72
388.845	18.82
389.21	18.73
389.575	18.6
389.94	18.96
390.306	18.82
390.671	18.94
391.036	19.04
391.401	18.92
391.766	19.17
392.131	19.14
392.496	19.02
392.861	19.47
393.226	19.44
393.591	19.18
393.956	19.41
394.32	19.51
394.685	19.52
395.05	19.39
395.414	19.6
395.779	19.38
396.143	19.72
396.508	19.66
396.872	20
397.236	19.93
397.601	20.13
397.965	20.44
398.329	19.9
398.694	20.1
399.058	20.35
399.422	20.34
399.786	20.65
400.15	20.54
400.514	20.52
400.878	20.69
401.242	20.85
401.605	20.9
401.969	20.65
402.333	20.72
402.697	20.88
403.06	20.73
403.424	21.17
403.787	20.89
404.151	21.28
404.514	21.05
404.878	21.31
405.241	21.05
405.604	21.45
405.968	21.14
406.331	21.36
406.694	21.5
407.057	21.37
407.42	21.63
407.783	21.76
408.146	21.67
408.509	21.59
408.872	21.71
409.235	21.63
409.598	21.96
409.961	22.11
410.323	22.07
410.686	22.01
411.049	22
411.411	22.13
411.774	22.09
412.136	22.32
412.499	22.51
412.861	22.43
413.223	22.17
413.586	22.67
413.948	22.62
414.31	22.62
414.672	22.92
415.035	22.8
415.397	23.08
415.759	22.8
416.121	22.8
416.483	22.95
416.845	23
417.206	23
417.568	22.89
417.93	22.84
418.292	23.17
418.653	22.92
419.015	23.05
419.377	23.07
419.738	23.09
420.1	23.06
420.461	23.11
420.822	23.17
421.184	23.12
421.545	23.17
421.906	23.14
422.267	23.06
422.629	23.2
422.99	23.09
423.351	23.18
423.712	23.38
424.073	23.33
424.434	23.65
424.795	23.53
425.155	23.52
425.516	23.65
425.877	23.61
426.238	23.82
426.598	23.79
426.959	23.92
427.32	24.15
427.68	24.34
428.041	24.25
428.401	24.58
428.761	24.54
429.122	24.64
429.482	24.76
429.842	24.74
430.202	24.95
430.563	24.75
430.923	24.75
431.283	24.78
431.643	24.91
432.003	25.18
432.363	25.2
432.722	25.19
433.082	25.27
433.442	25.19
433.802	25.12
434.161	25.22
434.521	25.32
434.881	25.15
435.24	25.04
435.6	25.48
435.959	25.42
436.319	25.61
436.678	25.62
437.037	25.73
437.396	25.56
437.756	25.8
438.115	25.94
438.474	25.86
438.833	25.81
439.192	25.91
439.551	25.85
439.91	25.9
440.269	25.93
440.628	25.96
440.987	25.99
441.345	26.01
441.704	25.89
442.063	25.94
442.421	25.88
442.78	26.2
443.138	26.36
443.497	26.49
443.855	26.5
444.214	26.54
444.572	26.56
444.93	26.46
445.288	26.66
445.647	26.76
446.005	26.77
446.363	26.57
446.721	26.89
447.079	26.76
447.437	26.65
447.795	26.53
448.153	26.69
448.51	26.72
448.868	26.84
449.226	26.96
449.584	26.92
449.941	27.08
450.299	27.21
450.656	27.35
451.014	27.63
451.371	27.45
451.729	27.45
452.086	27.64
452.443	27.94
452.801	27.9
453.158	27.8
453.515	27.77
453.872	27.64
454.229	27.92
454.586	28.32
454.943	27.92
455.3	28.36
455.657	28.39
456.014	28.11
456.371	28.26
456.727	28.39
457.084	28.41
457.441	28.45
457.797	28.54
458.154	28.69
458.51	28.44
458.867	28.55
459.223	28.67
459.58	28.57
459.936	28.53
460.292	28.57
460.648	28.55
461.005	28.25
461.361	28.24
461.717	28.43
462.073	28.67
462.429	28.79
462.785	29.09
463.141	28.85
463.496	29.21
463.852	29.44
464.208	29.47
464.564	29.41
464.919	29.61
465.275	29.44
465.631	29.3
465.986	29.56
466.342	29.82
466.697	29.82
467.052	29.81
467.408	29.8
467.763	29.84
468.118	29.66
468.473	29.79
468.829	29.93
469.184	30.01
469.539	29.78
469.894	30.16
470.249	30.11
470.603	30.09
470.958	30.38
471.313	30.27
471.668	30.51
472.023	30.23
472.377	30.57
472.732	30.48
473.086	30.69
473.441	30.58
473.795	30.6
474.15	30.79
474.504	30.55
474.859	30.76
475.213	30.86
475.567	30.93
475.921	30.87
476.275	31.04
476.63	31.11
476.984	31.13
477.338	31.07
477.692	31.19
478.045	31.11
478.399	31.2
478.753	31.25
479.107	31.29
479.461	31.26
479.814	31.06
480.168	31.28
480.521	31.17
480.875	31.41
481.228	31.59
481.582	31.5
481.935	31.55
482.289	31.59
482.642	31.46
482.995	31.3
483.348	31.26
483.701	31.25
484.055	31.11
484.408	30.89
484.761	30.6
485.114	30.64
485.466	30.81
485.819	30.93
486.172	31.06
486.525	31.09
486.878	31.23
487.23	31.44
487.583	31.43
487.936	31.46
488.288	31.37
488.641	31.29
488.993	31.2
489.345	31.4
489.698	31.43
490.05	31.51
490.402	31.79
490.754	31.98
491.107	32.03
491.459	32.22
491.811	32.29
492.163	32.17
492.515	31.89
492.866	31.72
493.218	31.9
493.57	32.04
493.922	32.21
494.274	32.5
494.625	32.74
494.977	32.6
495.328	32.84
495.68	33
496.031	33.22
496.383	33.17
496.734	33.22
497.086	33.4
497.437	33.48
497.788	33.21
498.139	33.29
498.49	33.34
498.842	33.28
499.193	33.58
499.544	33.46
499.894	33.49
500.245	33.59
500.596	33.54
500.947	33.79
501.298	33.82
501.648	34.11
501.999	34.2
502.35	34.01
502.7	34.08
503.051	34.3
503.401	34.35
503.752	34.3
504.102	34.39
504.452	34.49
504.803	34.53
505.153	34.38
505.503	34.47
505.853	34.33
506.203	34.6
506.553	34.63
506.903	34.83
507.253	34.84
507.603	34.78
507.953	34.77
508.303	35.08
508.652	34.83
509.002	34.88
509.352	34.77
509.701	34.82
510.051	34.72
510.4	34.86
510.75	34.64
511.099	34.73
511.449	34.94
511.798	35.24
512.147	35.01
512.496	35.06
512.846	35.23
513.195	35.2
513.544	35.09
513.893	35.18
514.242	35.47
514.591	35.38
514.939	35.46
515.288	35.51
515.637	35.63
515.986	35.76
516.334	35.97
516.683	35.95
517.032	36.07
517.38	35.99
517.729	35.88
518.077	35.8
518.426	35.93
518.774	35.96
519.122	35.79
519.47	35.61
519.819	35.63
520.167	35.57
520.515	35.9
520.863	35.78
521.211	35.97
521.559	36.03
521.907	36.02
522.255	36.31
522.602	36.52
522.95	36.46
523.298	36.56
523.645	36.7
523.993	36.78
524.341	36.7
524.688	36.6
525.036	37.02
525.383	36.75
525.73	36.73
526.078	36.65
526.425	36.57
526.772	36.44
527.119	36.44
527.466	36.68
527.814	36.73
528.161	36.65
528.508	36.59
528.854	36.62
529.201	36.34
529.548	36.2
529.895	36.19
530.242	36.36
530.588	36.52
530.935	36.47
531.282	36.58
531.628	36.64
531.975	36.88
532.321	36.99
532.667	37.09
533.014	37.29
533.36	37.04
533.706	37.3
534.052	37.14
534.399	36.92
534.745	36.88
535.091	37.1
535.437	37.31
535.783	37.47
536.129	37.52
536.474	37.53
536.82	37.67
537.166	37.69
537.512	37.71
537.857	37.69
538.203	37.89
538.549	37.84
538.894	37.94
539.239	38.14
539.585	38.07
539.93	38.06
540.276	38.63
540.621	38.48
540.966	38.49
541.311	38.58
541.656	38.39
542.001	38.09
542.346	37.86
542.691	37.65
543.036	37.9
543.381	38
543.726	38.12
544.071	38.08
544.415	38.36
544.76	38.48
545.105	38.64
545.449	38.72
545.794	38.93
546.138	38.92
546.483	39.21
546.827	39.04
547.171	38.9
547.516	39.19
547.86	39.17
548.204	39.09
548.548	39.09
548.892	39.24
549.236	39.27
549.58	39.53
549.924	39.74
550.268	39.95
550.612	39.92
550.956	40.12
551.3	40.08
551.643	40.22
551.987	40.37
552.33	40.33
552.674	40.19
553.017	40.29
553.361	40.27
553.704	40.23
554.048	40.45
554.391	40.38
554.734	40.5
555.077	40.22
555.42	40.72
555.764	40.46
556.107	40.71
556.45	40.79
556.793	40.7
557.135	40.81
557.478	41.13
557.821	40.99
558.164	41.04
558.507	41.15
558.849	41.2
559.192	41.08
559.534	41.12
559.877	41.23
560.219	41.33
560.562	41.5
560.904	41.62
561.246	41.35
561.589	41.19
561.931	41.62
562.273	41.45
562.615	41.57
562.957	41.61
563.299	41.42
563.641	41.78
563.983	41.89
564.325	41.71
564.667	41.72
565.008	41.81
565.35	41.68
565.692	42
566.033	41.85
566.375	41.84
566.716	41.92
567.058	41.97
567.399	41.95
567.741	41.82
568.082	41.91
568.423	41.93
568.764	41.7
569.105	42.24
569.447	42.29
569.788	42.29
570.129	42.25
570.47	42.31
570.811	42.42
571.151	42.36
571.492	42.63
571.833	42.37
572.174	42.15
572.514	42.27
572.855	42.5
573.195	42.41
573.536	42.58
573.876	42.52
574.217	42.49
574.557	42.72
574.898	42.68
575.238	42.76
575.578	42.94
575.918	42.69
576.258	42.75
576.598	42.86
576.938	42.85
577.278	43.1
577.618	42.93
577.958	43.19
578.298	43.33
578.638	43.36
578.977	43.02
579.317	43.32
579.657	43.49
579.996	43.47
580.336	43.7
580.675	43.62
581.014	43.63
581.354	43.78
581.693	43.61
582.032	43.81
582.372	43.65
582.711	43.77
583.05	43.92
583.389	43.94
583.728	43.95
584.067	43.88
584.406	43.84
584.745	44.07
585.083	44.28
585.422	44.3
585.761	44.42
586.1	44.27
586.438	44.18
586.777	44.21
587.115	44.53
587.454	44.54
587.792	44.5
588.13	44.28
588.469	44.56
588.807	44.72
589.145	44.34
589.483	44.56
589.821	44.39
590.159	44.27
590.497	44.8
590.835	44.67
591.173	44.73
591.511	44.65
591.849	44.79
592.187	44.64
592.524	45.22
592.862	44.93
593.2	44.66
593.537	45
593.875	45.1
594.212	45.26
594.55	45.14
594.887	45.37
595.224	45.26
595.561	44.95
595.899	45.22
596.236	45.26
596.573	44.91
596.91	44.95
597.247	45.25
597.584	45.26
597.921	45.35
598.258	45.05
598.594	45.17
598.931	45.21
599.268	45.16
599.604	45.3
599.941	45.76
600.277	45.66
600.614	45.89
600.95	45.68
601.287	46.21
601.623	45.82
601.959	46.18
602.296	46.11
602.632	45.88
602.968	46.15
603.304	46.09
603.64	46.12
603.976	45.93
604.312	46.06
604.648	46.16
604.984	45.91
605.319	45.76
605.655	45.83
605.991	45.65
606.326	45.9
606.662	46
606.998	45.87
607.333	46.05
607.668	46.2
608.004	46.27
608.339	46.35
608.674	46.38
609.01	46.67
609.345	46.7
609.68	46.69
610.015	46.59
610.35	46.82
610.685	46.5
611.02	46.63
611.355	46.41
611.689	46.54
612.024	46.72
612.359	46.72
612.694	46.88
613.028	47.13
613.363	46.82
613.697	47.31
614.032	47.52
614.366	47.25
614.7	47.44
615.035	47.29
615.369	47.77
615.703	47.38
616.037	47.43
616.371	47.62
616.705	47.67
617.039	48.1
617.373	47.66
617.707	47.58
618.041	47.73
618.375	47.74
618.709	47.63
619.042	47.9
619.376	47.76
619.71	47.89
620.043	48.08
620.377	47.73
620.71	47.62
621.043	47.65
621.377	47.69
621.71	48.02
622.043	48.27
622.376	48
622.709	47.89
623.043	48.39
623.376	48.1
623.709	48.03
624.041	48.03
624.374	48.58
624.707	48.28
625.04	48.38
625.373	48.72
625.705	48.85
626.038	48.4
626.37	48.46
626.703	49.04
627.035	48.28
627.368	48.73
627.7	48.29
628.032	48.33
628.365	48.34
628.697	48.4
629.029	48.46
629.361	48.74
629.693	48.45
630.025	48.44
630.357	49.24
630.689	48.77
631.021	48.45
631.353	48.81
631.684	48.76
632.016	49.13
632.348	49.37
632.679	48.68
633.011	49.01
633.342	49.34
633.674	49.08
634.005	48.89
634.336	49.23
634.668	49.46
634.999	49.38
635.33	48.83
635.661	49.46
635.992	49.26
636.323	49.67
636.654	49.29
636.985	49.17
637.316	49.54
637.647	49.55
637.977	49.52
638.308	49.51
638.639	49.44
638.969	49.69
639.3	49.88
639.63	49.79
639.961	49.61
640.291	49.88
640.622	50.12
640.952	49.54
641.282	50
641.612	50.19
641.943	50.41
642.273	49.75
642.603	50.01
642.933	50.02
643.263	50.03
643.592	49.64
643.922	50.55
644.252	50.34
644.582	49.73
644.911	49.78
645.241	50.41
645.571	50.09
645.9	50.02
646.23	50.08
646.559	49.74
646.888	50.6
647.218	50.5
647.547	50.5
647.876	51.11
648.205	50.57
648.534	50.64
648.863	50.42
649.192	50.33
649.521	50.92
649.85	50.8
650.179	50.72
650.508	50.59
650.837	50.38
651.165	50.3
651.494	50.98
651.822	50.88
652.151	50.49
652.479	50.46
652.808	51.26
653.136	50.81
653.465	51.1
653.793	51.18
654.121	50.93
654.449	50.89
654.777	51.35
655.105	50.47
655.433	50.8
655.761	51.17
656.089	51.33
656.417	51.1
656.745	50.78
657.073	51.66
657.4	50.9
657.728	51.32
658.056	51.42
658.383	51.71
658.711	52.05
659.038	51.58
659.365	52
659.693	51.52
660.02	51.14
660.347	51.71
660.674	51.06
661.001	51.55
661.329	51.83
661.656	51.65
661.982	51.5
662.309	52.01
662.636	51.72
662.963	52.17
663.29	51.09
663.616	52.39
663.943	51.35
664.27	52.33
664.596	51.74
664.923	52.25
665.249	52.08
665.576	52.07
665.902	51.72
666.228	52.31
666.554	51.79
666.881	51.98
667.207	52.2
667.533	52
667.859	52.08
668.185	52.13
668.511	52.74
668.837	51.75
669.162	51.99
669.488	52.59
669.814	52.58
670.139	52.09
670.465	52.63
670.791	52.33
