Data from 0022_forehead_Reflection__2__43.txt Node

Date: Thu Oct 20 20:39:48 CDT 2022
User: ToomeyLab
Spectrometer: FLMS14357
Trigger mode: 0
Integration Time (sec): 1.000000E-2
Scans to average: 100
Electric dark correction enabled: true
Nonlinearity correction enabled: false
Boxcar width: 0
XAxis mode: Wavelengths
Number of Pixels in Spectrum: 2048
>>>>>Begin Spectral Data<<<<<
189.047	-44.04
189.435	-44.04
189.823	-44.04
190.211	-31.19
190.599	82.76
190.987	-370.62
191.375	-104.11
191.763	45.36
192.151	-28.37
192.538	103
192.926	153.57
193.314	131.51
193.702	57.43
194.089	37.21
194.477	-1137.35
194.864	275.03
195.252	26.95
195.639	124.89
196.027	-34.28
196.414	860.38
196.801	846.74
197.189	70.46
197.576	222.56
197.963	-22.06
198.351	41.95
198.738	52.8
199.125	31.82
199.512	2.05
199.899	43.24
200.286	18.5
200.673	46.64
201.06	19.63
201.447	42.64
201.833	30.43
202.22	27.33
202.607	40.77
202.994	31.22
203.38	1.65
203.767	12.06
204.154	23.92
204.54	33.88
204.927	44.1
205.313	65.05
205.699	40.03
206.086	36.39
206.472	26.04
206.858	46.01
207.245	28.11
207.631	-15.6
208.017	9.76
208.403	21.55
208.789	11.13
209.175	16.08
209.561	27.44
209.947	20.13
210.333	27.51
210.719	15.57
211.105	-6.08
211.491	3.04
211.876	36.15
212.262	-5.37
212.648	20.19
213.034	15.57
213.419	24.32
213.805	15.77
214.19	23.17
214.576	16.22
214.961	19.35
215.346	16.83
215.732	29.04
216.117	20.54
216.502	29.3
216.888	33.45
217.273	37.69
217.658	20.01
218.043	10.88
218.428	15.86
218.813	-8.06
219.198	37.72
219.583	9.25
219.968	6.4
220.353	1.73
220.738	19.3
221.122	15.52
221.507	0.05
221.892	12.64
222.276	12.95
222.661	6.19
223.046	25.39
223.43	2.42
223.815	12.42
224.199	10.77
224.583	12.46
224.968	11.95
225.352	7.68
225.736	11.03
226.121	7.96
226.505	9.79
226.889	7.75
227.273	3.93
227.657	5.34
228.041	6.91
228.425	2.9
228.809	2.37
229.193	4.04
229.577	2.77
229.961	2.61
230.344	2.56
230.728	3.3
231.112	2.14
231.495	3.01
231.879	3.56
232.263	2.8
232.646	3.25
233.03	1.07
233.413	1.82
233.797	2.84
234.18	3.58
234.563	3.61
234.946	2.39
235.33	3.45
235.713	5.02
236.096	1.53
236.479	1.57
236.862	4.59
237.245	3.94
237.628	3.18
238.011	2.95
238.394	3.32
238.777	3.05
239.16	2.57
239.543	4.47
239.925	4.07
240.308	2.99
240.691	2.76
241.073	1.98
241.456	3.15
241.838	3.6
242.221	3.87
242.603	3.2
242.986	2.01
243.368	2.2
243.75	2.26
244.133	2.55
244.515	2.6
244.897	2.13
245.279	2.64
245.661	3
246.043	2.03
246.425	2.14
246.807	3.36
247.189	2.55
247.571	2.21
247.953	2.37
248.335	2.17
248.717	2.07
249.098	2.3
249.48	2.16
249.862	1.94
250.243	2.48
250.625	2.86
251.006	2.85
251.388	2.8
251.769	2.01
252.151	2.15
252.532	1.97
252.913	2.51
253.295	2.52
253.676	2.51
254.057	2.19
254.438	3.71
254.819	3.45
255.2	2.71
255.581	3.38
255.962	2.42
256.343	4.06
256.724	3.42
257.105	3.39
257.486	2.84
257.867	2.25
258.247	2.91
258.628	2.26
259.009	3.05
259.389	2.29
259.77	3.12
260.15	2.46
260.531	2.97
260.911	2.05
261.292	2.31
261.672	2.19
262.052	2.28
262.432	2.56
262.813	2.77
263.193	2.01
263.573	2.07
263.953	2.33
264.333	3.02
264.713	2.33
265.093	3.49
265.473	3.45
265.853	2.83
266.233	2.81
266.612	2.47
266.992	3.08
267.372	3.01
267.752	2.36
268.131	2.18
268.511	2.54
268.89	2.54
269.27	2.8
269.649	2.9
270.029	3.28
270.408	2.43
270.787	1.98
271.167	3.1
271.546	2.45
271.925	2.66
272.304	2.76
272.683	2.46
273.062	2.47
273.441	2.55
273.82	2.45
274.199	2.67
274.578	2.87
274.957	3.1
275.336	2.72
275.715	2.29
276.093	2.68
276.472	2.63
276.851	2.97
277.229	1.94
277.608	1.95
277.986	2.03
278.365	2.18
278.743	2.75
279.122	3.1
279.5	1.95
279.878	2.5
280.257	2.18
280.635	2.24
281.013	2.84
281.391	2.65
281.769	2.91
282.147	2.67
282.525	2.2
282.903	2.43
283.281	2.44
283.659	2.31
284.037	2.88
284.415	2.67
284.792	2.16
285.17	2.81
285.548	1.98
285.925	2.72
286.303	2.53
286.68	2.63
287.058	2.56
287.435	2.56
287.813	2.6
288.19	2.95
288.567	1.96
288.945	3.06
289.322	2.07
289.699	3.06
290.076	2.99
290.453	3.16
290.83	2.65
291.207	2.85
291.584	2.4
291.961	2.82
292.338	2.85
292.715	2.3
293.092	3.36
293.469	3.35
293.845	3
294.222	3.13
294.599	3.47
294.975	3.26
295.352	3.33
295.728	3.54
296.105	2.65
296.481	3.27
296.858	3.56
297.234	2.99
297.61	3.18
297.986	3.29
298.363	3.28
298.739	3.55
299.115	3.48
299.491	3.59
299.867	3.66
300.243	3.63
300.619	3.92
300.995	3.82
301.371	3.4
301.746	3.62
302.122	3.24
302.498	4.13
302.874	3.98
303.249	3.8
303.625	3.65
304	4.05
304.376	3.8
304.751	3.53
305.127	3.82
305.502	3.96
305.878	4.2
306.253	4.36
306.628	3.85
307.003	4.25
307.378	4.42
307.754	4.77
308.129	4.27
308.504	4.6
308.879	5.26
309.254	4.64
309.629	4.7
310.003	4.21
310.378	4.67
310.753	4.57
311.128	4.48
311.502	4.71
311.877	4.79
312.252	4.97
312.626	4.77
313.001	4.89
313.375	5.19
313.75	5.39
314.124	5.15
314.498	4.79
314.873	5.44
315.247	5.76
315.621	5.81
315.995	5.81
316.369	5.48
316.743	6.01
317.117	5.89
317.491	5.42
317.865	6.19
318.239	5.84
318.613	6.45
318.987	6.14
319.361	6.22
319.734	6.17
320.108	6.41
320.482	6.06
320.855	6.26
321.229	5.99
321.602	6.82
321.976	6.64
322.349	6.54
322.723	7.13
323.096	6.39
323.469	6.78
323.843	6.88
324.216	6.9
324.589	7.34
324.962	7.08
325.335	6.51
325.708	7.18
326.081	7.16
326.454	7.02
326.827	7.3
327.2	7.14
327.573	7.47
327.945	7.26
328.318	7.31
328.691	7.13
329.063	6.74
329.436	6.86
329.809	7.73
330.181	7.64
330.553	7.05
330.926	7.42
331.298	7.27
331.671	8.17
332.043	7.91
332.415	8.12
332.787	7.98
333.159	7.74
333.532	7.92
333.904	7.44
334.276	8.2
334.648	8.16
335.02	8.19
335.391	8.2
335.763	8.23
336.135	8.22
336.507	8.49
336.879	8.3
337.25	8.23
337.622	8.35
337.993	8.6
338.365	8.53
338.736	8.98
339.108	8.42
339.479	8.78
339.851	9.42
340.222	8.91
340.593	8.56
340.964	9.21
341.336	8.69
341.707	9.18
342.078	9.24
342.449	9.58
342.82	9.12
343.191	9.19
343.562	9.55
343.933	9.58
344.303	9.65
344.674	9.38
345.045	9.41
345.416	9.38
345.786	9.77
346.157	9.62
346.527	9.62
346.898	9.68
347.268	9.88
347.639	10.19
348.009	9.76
348.38	10.2
348.75	9.66
349.12	10.08
349.49	10.14
349.861	10.44
350.231	10.13
350.601	10.52
350.971	10.55
351.341	10.52
351.711	9.91
352.081	10.77
352.45	10.52
352.82	10.11
353.19	11
353.56	10.88
353.929	10.73
354.299	10.65
354.669	11.05
355.038	10.55
355.408	10.62
355.777	10.79
356.147	10.99
356.516	11.27
356.885	11.32
357.254	11.34
357.624	11.09
357.993	10.91
358.362	11.39
358.731	11.44
359.1	11.42
359.469	11.37
359.838	11.7
360.207	11.7
360.576	11.41
360.945	11.57
361.314	11.72
361.682	11.86
362.051	11.72
362.42	11.7
362.788	11.73
363.157	11.83
363.525	11.73
363.894	11.99
364.262	12.16
364.631	12.39
364.999	12.03
365.367	12.09
365.735	12.33
366.104	12.33
366.472	12.45
366.84	12.44
367.208	12.58
367.576	12.59
367.944	12.79
368.312	12.97
368.68	13.09
369.048	12.68
369.416	13.24
369.783	12.77
370.151	12.96
370.519	13.58
370.886	13.39
371.254	13.31
371.621	13.05
371.989	13.29
372.356	13.48
372.724	13.8
373.091	13.56
373.458	13.69
373.826	13.7
374.193	13.64
374.56	13.71
374.927	13.97
375.294	13.75
375.661	14.02
376.028	13.95
376.395	13.87
376.762	13.84
377.129	13.97
377.496	14.08
377.863	14.45
378.229	14.01
378.596	13.96
378.963	14.45
379.329	14.42
379.696	14.42
380.062	14.51
380.429	14.62
380.795	14.66
381.161	14.65
381.528	14.78
381.894	14.75
382.26	14.75
382.626	14.81
382.993	15.1
383.359	15.13
383.725	15.14
384.091	15.37
384.457	14.99
384.823	15.06
385.188	15.44
385.554	15.24
385.92	15.31
386.286	15.43
386.651	15.7
387.017	15.53
387.383	15.47
387.748	15.71
388.114	15.71
388.479	16.05
388.845	15.87
389.21	15.79
389.575	15.76
389.94	16.2
390.306	15.9
390.671	16.09
391.036	16.43
391.401	16.04
391.766	16.29
392.131	16.43
392.496	16.01
392.861	16.42
393.226	16.43
393.591	16.1
393.956	16.36
394.32	16.46
394.685	16.41
395.05	16.38
395.414	16.67
395.779	16.74
396.143	16.72
396.508	16.88
396.872	16.89
397.236	17.09
397.601	16.93
397.965	17.19
398.329	17.14
398.694	17.28
399.058	17.45
399.422	17.37
399.786	17.34
400.15	17.17
400.514	17.43
400.878	17.7
401.242	17.71
401.605	17.9
401.969	17.97
402.333	17.81
402.697	17.95
403.06	17.7
403.424	18.03
403.787	18.02
404.151	18.04
404.514	17.96
404.878	18.01
405.241	18.11
405.604	18.29
405.968	18.25
406.331	18.49
406.694	18.16
407.057	18.49
407.42	18.48
407.783	18.41
408.146	18.64
408.509	18.82
408.872	18.92
409.235	18.88
409.598	18.91
409.961	18.94
410.323	18.97
410.686	19.06
411.049	18.99
411.411	19.04
411.774	19.22
412.136	19.12
412.499	19.24
412.861	19.41
413.223	19.5
413.586	19.71
413.948	19.45
414.31	19.6
414.672	19.57
415.035	19.71
415.397	19.69
415.759	19.82
416.121	19.9
416.483	20.08
416.845	19.94
417.206	19.73
417.568	19.59
417.93	19.58
418.292	19.96
418.653	19.94
419.015	19.81
419.377	19.86
419.738	20.11
420.1	19.9
420.461	20.14
420.822	20.09
421.184	20.03
421.545	20.16
421.906	19.96
422.267	19.95
422.629	20.07
422.99	20.01
423.351	20.02
423.712	20.18
424.073	20.31
424.434	20.3
424.795	20.3
425.155	20.44
425.516	20.3
425.877	20.39
426.238	20.64
426.598	20.41
426.959	20.71
427.32	20.83
427.68	20.94
428.041	21.05
428.401	21.09
428.761	21.31
429.122	21.25
429.482	21.62
429.842	21.53
430.202	21.55
430.563	21.71
430.923	21.77
431.283	21.83
431.643	21.73
432.003	22.07
432.363	21.75
432.722	21.93
433.082	22.13
433.442	21.9
433.802	22.03
434.161	22.09
434.521	21.96
434.881	21.95
435.24	22
435.6	22.17
435.959	22.14
436.319	22.29
436.678	22.19
437.037	22.54
437.396	22.44
437.756	22.42
438.115	22.48
438.474	22.69
438.833	22.59
439.192	22.65
439.551	22.71
439.91	22.65
440.269	22.91
440.628	22.87
440.987	22.8
441.345	22.75
441.704	22.66
442.063	22.72
442.421	22.69
442.78	22.81
443.138	22.98
443.497	22.97
443.855	23.29
444.214	22.96
444.572	23.13
444.93	23.3
445.288	23.4
445.647	23.34
446.005	23.48
446.363	23.43
446.721	23.44
447.079	23.35
447.437	23.37
447.795	23.23
448.153	23.45
448.51	23.43
448.868	23.35
449.226	23.53
449.584	23.66
449.941	23.69
450.299	23.79
450.656	23.97
451.014	24.17
451.371	24.05
451.729	24.42
452.086	24.25
452.443	24.46
452.801	24.58
453.158	24.38
453.515	24.47
453.872	24.42
454.229	24.55
454.586	24.71
454.943	24.68
455.3	24.84
455.657	24.76
456.014	24.89
456.371	24.9
456.727	24.87
457.084	24.96
457.441	25.17
457.797	25.04
458.154	25.1
458.51	25.2
458.867	25.21
459.223	25.24
459.58	25.13
459.936	25.32
460.292	25.11
460.648	25.14
461.005	24.94
461.361	24.91
461.717	25.03
462.073	25.26
462.429	25.33
462.785	25.47
463.141	25.55
463.496	25.56
463.852	25.87
464.208	25.73
464.564	26.12
464.919	25.82
465.275	25.91
465.631	25.96
465.986	26.15
466.342	26.26
466.697	26.24
467.052	26.3
467.408	26.34
467.763	26.34
468.118	26.51
468.473	26.33
468.829	26.5
469.184	26.5
469.539	26.32
469.894	26.65
470.249	26.59
470.603	26.67
470.958	26.68
471.313	27.04
471.668	26.93
472.023	26.89
472.377	27
472.732	27.21
473.086	26.94
473.441	27.33
473.795	27.15
474.15	27.27
474.504	27.31
474.859	27.23
475.213	27.15
475.567	27.49
475.921	27.4
476.275	27.34
476.63	27.5
476.984	27.61
477.338	27.57
477.692	27.8
478.045	27.69
478.399	27.7
478.753	27.7
479.107	27.73
479.461	27.6
479.814	27.75
480.168	27.73
480.521	27.84
480.875	27.79
481.228	27.96
481.582	28.05
481.935	27.92
482.289	27.9
482.642	27.85
482.995	27.84
483.348	27.65
483.701	27.7
484.055	27.66
484.408	27.42
484.761	26.97
485.114	27.03
485.466	27.17
485.819	27.31
486.172	27.16
486.525	27.35
486.878	27.49
487.23	27.58
487.583	27.61
487.936	27.7
488.288	27.64
488.641	27.6
488.993	27.57
489.345	27.63
489.698	27.67
490.05	27.78
490.402	28.03
490.754	28.16
491.107	28.29
491.459	28.52
491.811	28.55
492.163	28.33
492.515	28.11
492.866	28.15
493.218	28.21
493.57	28.29
493.922	28.38
494.274	28.71
494.625	28.94
494.977	29.12
495.328	29.19
495.68	29.36
496.031	29.7
496.383	29.58
496.734	29.62
497.086	29.57
497.437	29.66
497.788	29.61
498.139	29.61
498.49	29.56
498.842	29.64
499.193	29.81
499.544	29.85
499.894	29.75
500.245	29.76
500.596	30.08
500.947	30.12
501.298	30.28
501.648	30.36
501.999	30.43
502.35	30.46
502.7	30.68
503.051	30.54
503.401	30.59
503.752	30.61
504.102	30.79
504.452	30.73
504.803	30.72
505.153	30.79
505.503	30.81
505.853	30.64
506.203	30.7
506.553	30.86
506.903	31.1
507.253	30.93
507.603	31.08
507.953	30.93
508.303	31.16
508.652	30.94
509.002	31.13
509.352	31.11
509.701	30.99
510.051	30.9
510.4	31.04
510.75	30.9
511.099	31.09
511.449	31.12
511.798	31.26
512.147	31.12
512.496	31.28
512.846	31.29
513.195	31.24
513.544	31.37
513.893	31.42
514.242	31.43
514.591	31.53
514.939	31.72
515.288	31.86
515.637	31.7
515.986	32.05
516.334	32.05
516.683	31.95
517.032	32.22
517.38	31.96
517.729	32.07
518.077	32.08
518.426	32.09
518.774	32.01
519.122	31.95
519.47	31.84
519.819	31.64
520.167	31.76
520.515	31.77
520.863	31.86
521.211	31.99
521.559	32.19
521.907	32.15
522.255	32.36
522.602	32.36
522.95	32.58
523.298	32.65
523.645	32.71
523.993	32.7
524.341	32.64
524.688	32.76
525.036	32.89
525.383	32.9
525.73	32.83
526.078	32.73
526.425	32.47
526.772	32.58
527.119	32.43
527.466	32.39
527.814	32.55
528.161	32.48
528.508	32.45
528.854	32.58
529.201	32.31
529.548	32.13
529.895	32.1
530.242	32.38
530.588	32.28
530.935	32.42
531.282	32.38
531.628	32.66
531.975	32.66
532.321	32.88
532.667	32.8
533.014	33.12
533.36	33.09
533.706	33.14
534.052	33.08
534.399	32.8
534.745	32.8
535.091	33.01
535.437	33.06
535.783	33.28
536.129	33.3
536.474	33.39
536.82	33.58
537.166	33.72
537.512	33.65
537.857	33.52
538.203	33.7
538.549	33.67
538.894	33.86
539.239	34.04
539.585	33.94
539.93	34.09
540.276	34.25
540.621	34.44
540.966	34.27
541.311	34.18
541.656	34.2
542.001	33.95
542.346	33.61
542.691	33.63
543.036	33.67
543.381	33.71
543.726	33.96
544.071	33.95
544.415	34.09
544.76	34.32
545.105	34.43
545.449	34.48
545.794	34.7
546.138	34.63
546.483	34.9
546.827	34.89
547.171	34.82
547.516	34.92
547.86	34.95
548.204	34.82
548.548	34.97
548.892	35.08
549.236	35.04
549.58	35.39
549.924	35.49
550.268	35.35
550.612	35.94
550.956	35.68
551.3	35.96
551.643	35.81
551.987	35.89
552.33	36.14
552.674	36.14
553.017	35.86
553.361	36.31
553.704	36.27
554.048	36.29
554.391	36.04
554.734	36.19
555.077	36.19
555.42	36.38
555.764	36.44
556.107	36.54
556.45	36.63
556.793	36.52
557.135	36.51
557.478	36.68
557.821	36.83
558.164	36.74
558.507	36.71
558.849	36.67
559.192	36.82
559.534	36.91
559.877	37.11
560.219	37.03
560.562	36.95
560.904	37.24
561.246	36.91
561.589	37.12
561.931	37.14
562.273	37.18
562.615	37.13
562.957	37.11
563.299	37.19
563.641	37.29
563.983	37.61
564.325	37.19
564.667	37.33
565.008	37.24
565.35	37.25
565.692	37.64
566.033	37.52
566.375	37.57
566.716	37.44
567.058	37.5
567.399	37.66
567.741	37.29
568.082	37.58
568.423	37.36
568.764	37.59
569.105	37.71
569.447	38.05
569.788	37.68
570.129	37.75
570.47	37.73
570.811	37.84
571.151	37.9
571.492	38.1
571.833	38.04
572.174	37.97
572.514	37.91
572.855	37.66
573.195	37.87
573.536	37.86
573.876	38.05
574.217	37.94
574.557	38.1
574.898	38.19
575.238	38.34
575.578	38.24
575.918	38.3
576.258	38.22
576.598	38.21
576.938	38.18
577.278	38.52
577.618	38.44
577.958	38.56
578.298	38.7
578.638	38.65
578.977	38.54
579.317	38.56
579.657	38.69
579.996	38.72
580.336	39.02
580.675	38.8
581.014	38.97
581.354	39.45
581.693	39.34
582.032	39.06
582.372	39.31
582.711	39.21
583.05	39.27
583.389	39.31
583.728	39.61
584.067	39.59
584.406	39.36
584.745	39.54
585.083	39.84
585.422	39.73
585.761	40.06
586.1	39.5
586.438	39.39
586.777	39.85
587.115	39.87
587.454	40.05
587.792	39.64
588.13	39.7
588.469	39.88
588.807	40.04
589.145	39.92
589.483	39.82
589.821	39.75
590.159	39.74
590.497	40.08
590.835	39.74
591.173	39.98
591.511	39.94
591.849	39.94
592.187	39.98
592.524	40.04
592.862	40.07
593.2	40.06
593.537	40.24
593.875	40.22
594.212	40.58
594.55	40.15
594.887	40.39
595.224	40.31
595.561	40.55
595.899	40.11
596.236	40.5
596.573	40.19
596.91	40.27
597.247	40.5
597.584	40.5
597.921	40.58
598.258	40.01
598.594	40.25
598.931	40.47
599.268	40.43
599.604	40.42
599.941	40.79
600.277	40.89
600.614	40.74
600.95	40.97
601.287	41
601.623	40.83
601.959	41.18
602.296	41.14
602.632	41.18
602.968	41.07
603.304	41.03
603.64	40.86
603.976	41.3
604.312	41.21
604.648	41
604.984	41.05
605.319	41.14
605.655	40.63
605.991	40.58
606.326	40.76
606.662	40.89
606.998	40.85
607.333	40.97
607.668	41.37
608.004	41.15
608.339	41.19
608.674	41.33
609.01	41.51
609.345	41.67
609.68	41.53
610.015	41.53
610.35	41.65
610.685	41.08
611.02	41.47
611.355	41.77
611.689	41.71
612.024	41.48
612.359	41.83
612.694	41.79
613.028	41.92
613.363	41.83
613.697	42.44
614.032	42.14
614.366	42.03
614.7	42.57
615.035	42.27
615.369	42.23
615.703	42.22
616.037	42.2
616.371	41.89
616.705	42.75
617.039	42.62
617.373	42.34
617.707	42.47
618.041	42.48
618.375	42.5
618.709	42.8
619.042	42.44
619.376	42.77
619.71	42.44
620.043	42.64
620.377	42.99
620.71	42.76
621.043	43.15
621.377	42.65
621.71	43.05
622.043	43.29
622.376	43.13
622.709	42.98
623.043	42.91
623.376	43.1
623.709	43.44
624.041	43
624.374	43.23
624.707	42.96
625.04	42.95
625.373	43.19
625.705	43.42
626.038	43.12
626.37	43.54
626.703	43.44
627.035	43.37
627.368	43.33
627.7	43.27
628.032	43.26
628.365	43.07
628.697	42.96
629.029	43.34
629.361	43.38
629.693	43.06
630.025	43.23
630.357	43.33
630.689	43.48
631.021	43.47
631.353	43.71
631.684	43.3
632.016	43.47
632.348	43.47
632.679	43.88
633.011	43.36
633.342	43.64
633.674	43.59
634.005	43.86
634.336	43.94
634.668	43.69
634.999	43.84
635.33	43.93
635.661	44.12
635.992	43.61
636.323	43.9
636.654	43.65
636.985	43.91
637.316	43.91
637.647	44.09
637.977	44.07
638.308	43.78
638.639	43.88
638.969	43.94
639.3	44.21
639.63	44.52
639.961	44.62
640.291	43.93
640.622	44.14
640.952	44.5
641.282	44.51
641.612	44.4
641.943	44.83
642.273	44.77
642.603	44.37
642.933	44.7
643.263	44.42
643.592	44.8
643.922	44.97
644.252	44.97
644.582	44.86
644.911	44.51
645.241	44.48
645.571	44.49
645.9	44.74
646.23	44.4
646.559	44.38
646.888	45.53
647.218	44.72
647.547	44.8
647.876	44.9
648.205	45.45
648.534	45.19
648.863	44.91
649.192	44.91
649.521	45.17
649.85	45.47
650.179	44.84
650.508	45.22
650.837	45.48
651.165	44.47
651.494	44.87
651.822	44.84
652.151	45.13
652.479	45.18
652.808	44.98
653.136	44.87
653.465	45.13
653.793	45.03
654.121	45.38
654.449	45.65
654.777	45.56
655.105	45.5
655.433	45.46
655.761	45.69
656.089	45.62
656.417	45.32
656.745	45.41
657.073	45.67
657.4	45.18
657.728	45.72
658.056	45.07
658.383	45.64
658.711	46.28
659.038	45.61
659.365	45.84
659.693	45.75
660.02	45.18
660.347	45.37
660.674	45.43
661.001	45.41
661.329	45.47
661.656	45.11
661.982	45.08
662.309	45.72
662.636	46.24
662.963	46.32
663.29	45.37
663.616	45.86
663.943	45.9
664.27	46.33
664.596	45.51
664.923	46.31
665.249	45.63
665.576	46.04
665.902	45.92
666.228	46.23
666.554	46.28
666.881	46.27
667.207	46
667.533	45.8
667.859	45.92
668.185	46.43
668.511	46.22
668.837	46.44
669.162	45.83
669.488	46.3
669.814	46.86
670.139	46.55
670.465	46.31
670.791	46.01
671.116	46.35
