Data from 0022_forehead_Reflection__3__44.txt Node

Date: Thu Oct 20 20:39:58 CDT 2022
User: ToomeyLab
Spectrometer: FLMS14357
Trigger mode: 0
Integration Time (sec): 1.000000E-2
Scans to average: 100
Electric dark correction enabled: true
Nonlinearity correction enabled: false
Boxcar width: 0
XAxis mode: Wavelengths
Number of Pixels in Spectrum: 2048
>>>>>Begin Spectral Data<<<<<
189.047	105.63
189.435	105.63
189.823	105.63
190.211	35.79
190.599	111.25
190.987	-138.79
191.375	36.48
191.763	-98.16
192.151	64.32
192.538	-275.28
192.926	10.1
193.314	19.53
193.702	54.11
194.089	61.41
194.477	-974.7
194.864	294.36
195.252	-45.41
195.639	188.29
196.027	86.2
196.414	-1945.28
196.801	98.63
197.189	-184
197.576	-336.09
197.963	-12.36
198.351	49.9
198.738	22.19
199.125	28.46
199.512	49.44
199.899	71.77
200.286	24.57
200.673	44.77
201.06	2.06
201.447	31.13
201.833	6.63
202.22	73.01
202.607	53.63
202.994	28.91
203.38	9.23
203.767	25.64
204.154	20.82
204.54	53.23
204.927	30.17
205.313	42.62
205.699	38.17
206.086	42.99
206.472	19.62
206.858	32.63
207.245	28.53
207.631	19.98
208.017	41.15
208.403	49.33
208.789	49.1
209.175	36.41
209.561	39.65
209.947	53.19
210.333	27.85
210.719	9.37
211.105	20.47
211.491	12.85
211.876	19.94
212.262	5.59
212.648	28
213.034	38.53
213.419	24.39
213.805	-8.42
214.19	7.55
214.576	11.5
214.961	1.09
215.346	11.02
215.732	40.22
216.117	40.72
216.502	0.32
216.888	39.7
217.273	72.51
217.658	25.13
218.043	14.53
218.428	24.31
218.813	-11.88
219.198	28.09
219.583	30.93
219.968	8.25
220.353	-4.17
220.738	2.47
221.122	21.4
221.507	20.83
221.892	11.7
222.276	10.62
222.661	8.93
223.046	12.88
223.43	13.39
223.815	2.08
224.199	11.58
224.583	7.77
224.968	2.7
225.352	6.74
225.736	1.28
226.121	13.62
226.505	9.58
226.889	5.57
227.273	5.18
227.657	5.17
228.041	5.49
228.425	3.3
228.809	4.39
229.193	3.58
229.577	3.33
229.961	1.72
230.344	2.41
230.728	3.45
231.112	2.77
231.495	3.51
231.879	3.46
232.263	3.63
232.646	2.09
233.03	2.05
233.413	3.26
233.797	4.44
234.18	3.11
234.563	2.3
234.946	2.7
235.33	3.23
235.713	4.86
236.096	2.59
236.479	1.54
236.862	5.51
237.245	5.01
237.628	1.17
238.011	2.49
238.394	1.84
238.777	2.27
239.16	2.58
239.543	3.83
239.925	4.03
240.308	3.83
240.691	2.55
241.073	2.53
241.456	2.63
241.838	2.89
242.221	2.54
242.603	2.95
242.986	2.59
243.368	2.14
243.75	2.59
244.133	2.39
244.515	2.59
244.897	2.03
245.279	2.38
245.661	2.46
246.043	2.68
246.425	3.11
246.807	2.9
247.189	2.42
247.571	2
247.953	2.3
248.335	2.26
248.717	2.5
249.098	2.34
249.48	2.58
249.862	2.49
250.243	2.83
250.625	2.94
251.006	3.4
251.388	3.7
251.769	2.65
252.151	2.56
252.532	2.52
252.913	3
253.295	2.39
253.676	2.47
254.057	2.9
254.438	2.93
254.819	4.44
255.2	2.5
255.581	3.94
255.962	4.07
256.343	4.38
256.724	3.26
257.105	3.23
257.486	3.08
257.867	2.41
258.247	3.04
258.628	2.17
259.009	2.49
259.389	2.85
259.77	2.96
260.15	2.52
260.531	2.79
260.911	2.41
261.292	2.17
261.672	2.29
262.052	2.48
262.432	2.45
262.813	2.8
263.193	2.62
263.573	2.08
263.953	2.33
264.333	2.6
264.713	2.88
265.093	2.43
265.473	3.77
265.853	2.52
266.233	2.83
266.612	2.3
266.992	3.78
267.372	2.89
267.752	2.59
268.131	2.24
268.511	2.98
268.89	2.38
269.27	3.07
269.649	2.74
270.029	2.87
270.408	2.86
270.787	2.37
271.167	2.93
271.546	2.71
271.925	2.47
272.304	2.68
272.683	2.79
273.062	2.86
273.441	2.73
273.82	2.44
274.199	2.71
274.578	2.76
274.957	3.01
275.336	2.53
275.715	2.78
276.093	2.57
276.472	3.31
276.851	2.68
277.229	2.32
277.608	2.21
277.986	2.07
278.365	2.07
278.743	2.91
279.122	3.15
279.5	1.95
279.878	2.24
280.257	2.47
280.635	2.7
281.013	3.23
281.391	3.12
281.769	2.57
282.147	3.03
282.525	2.56
282.903	2.35
283.281	2.38
283.659	2.32
284.037	2.32
284.415	2.44
284.792	2.41
285.17	2.71
285.548	2.74
285.925	2.84
286.303	2.81
286.68	2.87
287.058	2.66
287.435	2.47
287.813	2.37
288.19	2.86
288.567	2.65
288.945	3.11
289.322	2.28
289.699	3.1
290.076	2.76
290.453	2.86
290.83	3.16
291.207	3.28
291.584	2.22
291.961	2.75
292.338	2.65
292.715	2.88
293.092	3.2
293.469	3.09
293.845	2.62
294.222	3.22
294.599	3.2
294.975	3.11
295.352	3.5
295.728	3.66
296.105	3.26
296.481	3.4
296.858	3.55
297.234	3.37
297.61	3.34
297.986	3.21
298.363	3.42
298.739	3.46
299.115	3.65
299.491	3.76
299.867	3.55
300.243	3.57
300.619	3.39
300.995	3.47
301.371	3.71
301.746	3.71
302.122	3.12
302.498	4.3
302.874	3.69
303.249	3.68
303.625	3.75
304	3.8
304.376	3.89
304.751	3.8
305.127	3.1
305.502	3.61
305.878	4.01
306.253	4.32
306.628	4.04
307.003	3.89
307.378	4.69
307.754	4.72
308.129	4.28
308.504	4.61
308.879	4.55
309.254	4.51
309.629	4.74
310.003	4.86
310.378	4.88
310.753	4.58
311.128	4.6
311.502	4.41
311.877	4.67
312.252	4.42
312.626	4.59
313.001	4.52
313.375	4.98
313.75	4.76
314.124	4.77
314.498	4.73
314.873	5.07
315.247	5.1
315.621	5.17
315.995	5.49
316.369	5.03
316.743	5.82
317.117	5.19
317.491	5.5
317.865	6.04
318.239	5.69
318.613	6.01
318.987	5.72
319.361	5.46
319.734	6
320.108	5.98
320.482	5.88
320.855	5.7
321.229	5.96
321.602	6.74
321.976	6.23
322.349	6.69
322.723	6.85
323.096	6.26
323.469	6.31
323.843	7.09
324.216	6.31
324.589	6.44
324.962	7.12
325.335	6.33
325.708	6.11
326.081	6.82
326.454	6.99
326.827	7.03
327.2	6.83
327.573	6.63
327.945	7
328.318	7.16
328.691	6.78
329.063	7.39
329.436	7.11
329.809	7.22
330.181	7.28
330.553	6.88
330.926	7.45
331.298	7.23
331.671	7.54
332.043	7.75
332.415	7.18
332.787	7.47
333.159	8.15
333.532	8.26
333.904	7.19
334.276	7.62
334.648	7.62
335.02	7.94
335.391	7.72
335.763	7.72
336.135	7.42
336.507	7.68
336.879	8.09
337.25	8.21
337.622	7.93
337.993	8.03
338.365	7.89
338.736	8.51
339.108	7.81
339.479	8.18
339.851	8.64
340.222	8.27
340.593	7.89
340.964	8.32
341.336	8.07
341.707	8.49
342.078	8.26
342.449	8.57
342.82	8.39
343.191	8.34
343.562	9
343.933	9.01
344.303	9.34
344.674	8.46
345.045	8.84
345.416	8.81
345.786	9.31
346.157	8.99
346.527	8.52
346.898	8.87
347.268	8.92
347.639	9.52
348.009	9.09
348.38	9.52
348.75	9.24
349.12	9.21
349.49	9.75
349.861	9.53
350.231	9.43
350.601	9.38
350.971	9.73
351.341	9.58
351.711	9.54
352.081	9.86
352.45	10.02
352.82	9.79
353.19	10.02
353.56	9.91
353.929	10.39
354.299	9.94
354.669	10.54
355.038	9.9
355.408	10.01
355.777	10.27
356.147	10.13
356.516	10.31
356.885	10.11
357.254	10.49
357.624	10.1
357.993	10.25
358.362	10.37
358.731	10.56
359.1	10.7
359.469	10.79
359.838	10.63
360.207	10.88
360.576	10.84
360.945	10.6
361.314	11.18
361.682	10.73
362.051	11.01
362.42	10.73
362.788	10.84
363.157	11.01
363.525	10.98
363.894	11.26
364.262	11.5
364.631	11.49
364.999	11.16
365.367	11.01
365.735	11.32
366.104	11.61
366.472	11.51
366.84	11.61
367.208	11.94
367.576	11.86
367.944	11.97
368.312	12.17
368.68	12.22
369.048	11.74
369.416	12.21
369.783	11.96
370.151	12.12
370.519	12.52
370.886	12.28
371.254	12.45
371.621	11.95
371.989	12.33
372.356	12.49
372.724	12.52
373.091	12.76
373.458	12.57
373.826	12.72
374.193	12.82
374.56	12.93
374.927	13.08
375.294	12.87
375.661	12.84
376.028	12.91
376.395	12.93
376.762	12.99
377.129	12.93
377.496	13.11
377.863	13.43
378.229	13.2
378.596	13.11
378.963	13.31
379.329	13.08
379.696	13.52
380.062	13.53
380.429	13.8
380.795	13.56
381.161	13.76
381.528	13.76
381.894	13.64
382.26	13.59
382.626	13.8
382.993	13.87
383.359	13.92
383.725	13.92
384.091	14.13
384.457	13.64
384.823	14.2
385.188	14.36
385.554	14.18
385.92	14.35
386.286	14.38
386.651	14.34
387.017	14.32
387.383	14.43
387.748	14.61
388.114	14.5
388.479	14.65
388.845	14.63
389.21	14.71
389.575	14.48
389.94	15.02
390.306	14.82
390.671	15.28
391.036	14.88
391.401	15.15
391.766	15.27
392.131	15.2
392.496	14.95
392.861	15.21
393.226	14.96
393.591	15
393.956	15.37
394.32	15.3
394.685	15.46
395.05	15.27
395.414	15.53
395.779	15.62
396.143	15.61
396.508	15.68
396.872	15.77
397.236	16.05
397.601	15.97
397.965	16.3
398.329	15.78
398.694	16.04
399.058	16.13
399.422	15.98
399.786	16.21
400.15	16.26
400.514	16.27
400.878	16.32
401.242	16.77
401.605	16.72
401.969	16.78
402.333	16.37
402.697	16.56
403.06	16.85
403.424	16.64
403.787	16.58
404.151	16.75
404.514	16.59
404.878	16.77
405.241	16.45
405.604	16.97
405.968	16.98
406.331	17.03
406.694	16.92
407.057	16.94
407.42	17.23
407.783	17.16
408.146	17.4
408.509	17.31
408.872	17.64
409.235	17.48
409.598	17.34
409.961	17.66
410.323	17.71
410.686	17.67
411.049	17.5
411.411	17.68
411.774	17.65
412.136	17.65
412.499	18.02
412.861	17.85
413.223	18.29
413.586	18.13
413.948	18
414.31	18.28
414.672	18.14
415.035	18.08
415.397	18.38
415.759	18.29
416.121	18.34
416.483	18.16
416.845	18.33
417.206	18.42
417.568	18.2
417.93	18.32
418.292	18.53
418.653	18.33
419.015	18.41
419.377	18.56
419.738	18.47
420.1	18.45
420.461	18.54
420.822	18.5
421.184	18.5
421.545	18.44
421.906	18.54
422.267	18.49
422.629	18.58
422.99	18.66
423.351	18.75
423.712	18.68
424.073	18.77
424.434	18.86
424.795	18.82
425.155	19.01
425.516	18.78
425.877	18.85
426.238	19.11
426.598	19.04
426.959	19.3
427.32	19.37
427.68	19.62
428.041	19.58
428.401	19.87
428.761	19.86
429.122	19.87
429.482	19.86
429.842	19.91
430.202	20.18
430.563	20.06
430.923	20.2
431.283	20.33
431.643	20.28
432.003	20.41
432.363	20.23
432.722	20.45
433.082	20.48
433.442	20.58
433.802	20.42
434.161	20.38
434.521	20.41
434.881	20.47
435.24	20.39
435.6	20.58
435.959	20.55
436.319	20.83
436.678	20.81
437.037	20.93
437.396	21.05
437.756	21
438.115	20.97
438.474	21.16
438.833	20.93
439.192	21.04
439.551	20.94
439.91	21.21
440.269	21.19
440.628	21.18
440.987	20.99
441.345	21.16
441.704	21.05
442.063	21.04
442.421	20.97
442.78	21.27
443.138	21.45
443.497	21.45
443.855	21.59
444.214	21.46
444.572	21.78
444.93	21.41
445.288	21.84
445.647	21.64
446.005	21.75
446.363	21.72
446.721	21.66
447.079	21.59
447.437	21.62
447.795	21.52
448.153	21.7
448.51	21.77
448.868	21.8
449.226	21.86
449.584	22.06
449.941	22.2
450.299	22.27
450.656	22.37
451.014	22.43
451.371	22.58
451.729	22.66
452.086	22.85
452.443	23.01
452.801	22.91
453.158	22.75
453.515	22.78
453.872	22.65
454.229	22.88
454.586	23.07
454.943	23.05
455.3	23.23
455.657	23.16
456.014	23.25
456.371	23.15
456.727	23.33
457.084	23.34
457.441	23.49
457.797	23.53
458.154	23.44
458.51	23.36
458.867	23.4
459.223	23.57
459.58	23.5
459.936	23.37
460.292	23.24
460.648	23.35
461.005	22.98
461.361	23.07
461.717	23.29
462.073	23.64
462.429	23.66
462.785	23.87
463.141	23.88
463.496	23.96
463.852	24.24
464.208	24.22
464.564	23.96
464.919	24.29
465.275	24.32
465.631	24.32
465.986	24.47
466.342	24.57
466.697	24.38
467.052	24.49
467.408	24.66
467.763	24.61
468.118	24.47
468.473	24.55
468.829	24.7
469.184	24.78
469.539	24.69
469.894	25.11
470.249	24.91
470.603	25
470.958	25.07
471.313	25.13
471.668	25.09
472.023	25.14
472.377	25.45
472.732	25.31
473.086	25.3
473.441	25.36
473.795	25.26
474.15	25.54
474.504	25.28
474.859	25.7
475.213	25.56
475.567	25.69
475.921	25.61
476.275	25.69
476.63	25.74
476.984	25.97
477.338	25.66
477.692	25.94
478.045	25.86
478.399	25.79
478.753	25.85
479.107	26
479.461	25.87
479.814	25.88
480.168	25.99
480.521	25.97
480.875	26.13
481.228	26.12
481.582	26.07
481.935	26.13
482.289	25.97
482.642	26.08
482.995	25.82
483.348	25.86
483.701	25.7
484.055	25.7
484.408	25.34
484.761	24.94
485.114	24.87
485.466	25.04
485.819	25.43
486.172	25.71
486.525	25.94
486.878	26.03
487.23	26
487.583	26.03
487.936	25.87
488.288	25.74
488.641	25.67
488.993	25.77
489.345	25.86
489.698	26.03
490.05	26.15
490.402	26.4
490.754	26.59
491.107	26.64
491.459	26.91
491.811	26.77
492.163	26.63
492.515	26.31
492.866	26.19
493.218	26.3
493.57	26.59
493.922	26.88
494.274	27.1
494.625	27.3
494.977	27.47
495.328	27.62
495.68	27.78
496.031	27.85
496.383	27.89
496.734	27.72
497.086	27.85
497.437	27.93
497.788	27.77
498.139	27.63
498.49	27.72
498.842	27.91
499.193	28.02
499.544	28.05
499.894	28.1
500.245	28.05
500.596	28.21
500.947	28.49
501.298	28.29
501.648	28.52
501.999	28.53
502.35	28.74
502.7	28.72
503.051	28.87
503.401	28.87
503.752	28.8
504.102	28.87
504.452	29.07
504.803	29.05
505.153	29
505.503	28.77
505.853	29.02
506.203	29.06
506.553	29.17
506.903	29.31
507.253	29.19
507.603	29.27
507.953	29.26
508.303	29.49
508.652	29.36
509.002	29.26
509.352	29.3
509.701	29.26
510.051	29.23
510.4	29.25
510.75	29.23
511.099	29.3
511.449	29.51
511.798	29.56
512.147	29.55
512.496	29.43
512.846	29.55
513.195	29.57
513.544	29.48
513.893	29.57
514.242	29.71
514.591	29.98
514.939	30.01
515.288	30.18
515.637	30.1
515.986	30.1
516.334	30.24
516.683	30.25
517.032	30.48
517.38	30.42
517.729	30.43
518.077	30.32
518.426	30.27
518.774	30.22
519.122	29.95
519.47	29.92
519.819	29.9
520.167	29.98
520.515	30.02
520.863	30.18
521.211	30.36
521.559	30.62
521.907	30.63
522.255	30.66
522.602	30.87
522.95	30.92
523.298	31.02
523.645	30.9
523.993	31.17
524.341	31.15
524.688	31.2
525.036	31.29
525.383	31.3
525.73	31.02
526.078	30.94
526.425	30.84
526.772	30.62
527.119	30.48
527.466	30.74
527.814	30.9
528.161	30.94
528.508	30.84
528.854	30.79
529.201	30.54
529.548	30.17
529.895	30.13
530.242	30.25
530.588	30.61
530.935	30.88
531.282	31.09
531.628	31.24
531.975	31.36
532.321	31.35
532.667	31.38
533.014	31.56
533.36	31.38
533.706	31.54
534.052	31.16
534.399	31.03
534.745	31
535.091	31.29
535.437	31.47
535.783	31.86
536.129	31.84
536.474	32.08
536.82	32.15
537.166	32.09
537.512	31.87
537.857	31.77
538.203	31.97
538.549	31.93
538.894	32.13
539.239	32.44
539.585	32.56
539.93	32.57
540.276	32.87
540.621	32.89
540.966	32.66
541.311	32.65
541.656	32.44
542.001	32.06
542.346	31.88
542.691	31.64
543.036	31.88
543.381	32.09
543.726	32.41
544.071	32.42
544.415	32.56
544.76	32.83
545.105	32.84
545.449	32.95
545.794	33.08
546.138	33.19
546.483	33.5
546.827	33.31
547.171	33.2
547.516	33.18
547.86	33.32
548.204	33.18
548.548	33.44
548.892	33.34
549.236	33.74
549.58	33.74
549.924	34.15
550.268	34.36
550.612	34.24
550.956	34.19
551.3	34.33
551.643	34.27
551.987	34.47
552.33	34.71
552.674	34.65
553.017	34.33
553.361	34.71
553.704	34.48
554.048	34.31
554.391	34.49
554.734	34.53
555.077	34.69
555.42	34.84
555.764	35.05
556.107	34.87
556.45	34.85
556.793	35.03
557.135	34.97
557.478	35.2
557.821	35
558.164	35.15
558.507	35.26
558.849	35.08
559.192	35.18
559.534	35.55
559.877	35.33
560.219	35.53
560.562	35.71
560.904	35.67
561.246	35.69
561.589	35.73
561.931	35.83
562.273	35.53
562.615	35.54
562.957	35.8
563.299	35.65
563.641	35.79
563.983	35.84
564.325	35.94
564.667	35.79
565.008	35.86
565.35	36.14
565.692	36.12
566.033	36.15
566.375	36.34
566.716	35.9
567.058	35.84
567.399	36.08
567.741	35.99
568.082	35.79
568.423	36.09
568.764	36.25
569.105	36.23
569.447	36.4
569.788	36.44
570.129	36.5
570.47	36.32
570.811	36.35
571.151	36.55
571.492	36.62
571.833	36.56
572.174	36.37
572.514	36.33
572.855	36.35
573.195	36.36
573.536	36.44
573.876	36.43
574.217	36.67
574.557	36.61
574.898	36.83
575.238	36.93
575.578	36.94
575.918	36.76
576.258	36.8
576.598	36.61
576.938	36.75
577.278	36.92
577.618	36.94
577.958	37.29
578.298	37.35
578.638	37.45
578.977	37.46
579.317	37.49
579.657	37.53
579.996	37.69
580.336	37.61
580.675	37.51
581.014	37.68
581.354	37.97
581.693	37.99
582.032	38.08
582.372	37.79
582.711	38.09
583.05	37.97
583.389	38.06
583.728	38.34
584.067	38.3
584.406	37.76
584.745	38.4
585.083	38.07
585.422	38.21
585.761	38.15
586.1	38.45
586.438	38.28
586.777	38.45
587.115	38.62
587.454	38.65
587.792	38.4
588.13	38.23
588.469	38.41
588.807	38.97
589.145	38.58
589.483	38.33
589.821	38.32
590.159	38.42
590.497	38.6
590.835	38.7
591.173	38.55
591.511	38.9
591.849	38.83
592.187	38.87
592.524	38.92
592.862	38.97
593.2	38.81
593.537	39.16
593.875	39
594.212	39
594.55	39.1
594.887	39.16
595.224	39.36
595.561	39.06
595.899	39.19
596.236	39.22
596.573	39.15
596.91	39.15
597.247	39.35
597.584	39.14
597.921	39.17
598.258	38.83
598.594	38.87
598.931	39.22
599.268	39.25
599.604	39.18
599.941	39.93
600.277	39.61
600.614	39.54
600.95	39.96
601.287	39.86
601.623	39.75
601.959	39.98
602.296	40.07
602.632	39.64
602.968	40.19
603.304	39.93
603.64	39.82
603.976	39.95
604.312	39.86
604.648	39.59
604.984	39.52
605.319	39.62
605.655	39.55
605.991	39.51
606.326	39.55
606.662	40.04
606.998	39.71
607.333	39.82
607.668	40.37
608.004	40.1
608.339	40.16
608.674	40.25
609.01	40.66
609.345	40.13
609.68	40.32
610.015	40.47
610.35	40.29
610.685	40.24
611.02	40.23
611.355	40.38
611.689	40.48
612.024	40.65
612.359	40.61
612.694	40.88
613.028	41.07
613.363	40.62
613.697	41.1
614.032	41.07
614.366	40.78
614.7	41.13
615.035	41.32
615.369	41.11
615.703	41.28
616.037	41.25
616.371	41.29
616.705	41.39
617.039	41.31
617.373	41.27
617.707	41.42
618.041	41.41
618.375	41.43
618.709	41.29
619.042	41.68
619.376	41.69
619.71	41.49
620.043	41.65
620.377	41.59
620.71	41.74
621.043	41.72
621.377	41.71
621.71	42.03
622.043	42.02
622.376	41.81
622.709	41.46
623.043	41.96
623.376	42.28
623.709	42.1
624.041	41.79
624.374	42.26
624.707	41.9
625.04	42.32
625.373	42.47
625.705	42.58
626.038	41.75
626.37	42.31
626.703	42.25
627.035	41.91
627.368	42.24
627.7	41.89
628.032	42.24
628.365	42.1
628.697	41.95
629.029	42.16
629.361	42.21
629.693	42.17
630.025	42.08
630.357	42.47
630.689	42.15
631.021	42.04
631.353	42.58
631.684	42.5
632.016	42.78
632.348	42.84
632.679	42.92
633.011	42.4
633.342	42.88
633.674	42.49
634.005	42.98
634.336	42.94
634.668	42.74
634.999	43.07
635.33	42.44
635.661	42.7
635.992	42.77
636.323	42.86
636.654	42.91
636.985	42.88
637.316	42.98
637.647	42.7
637.977	43.04
638.308	42.87
638.639	43.34
638.969	43.02
639.3	43.04
639.63	43.31
639.961	43.23
640.291	42.67
640.622	43.44
640.952	43.31
641.282	43.49
641.612	43.44
641.943	43.85
642.273	43.97
642.603	43.58
642.933	43.6
643.263	43.51
643.592	43.42
643.922	43.75
644.252	43.45
644.582	43.46
644.911	43.57
645.241	43.75
645.571	43.97
645.9	43.67
646.23	43.99
646.559	43.65
646.888	44.2
647.218	43.92
647.547	44.26
647.876	44.04
648.205	43.74
648.534	43.88
648.863	43.89
649.192	44.16
649.521	44.04
649.85	44.09
650.179	44.06
650.508	44.61
650.837	44.03
651.165	43.69
651.494	44.04
651.822	44.47
652.151	44.1
652.479	43.99
652.808	44.8
653.136	44.48
653.465	44.23
653.793	44.53
654.121	44.56
654.449	44.46
654.777	44.46
655.105	44.5
655.433	44.29
655.761	44.57
656.089	45.11
656.417	44.76
656.745	44.02
657.073	45.04
657.4	45.03
657.728	45.04
658.056	44.86
658.383	45.03
658.711	44.77
659.038	44.93
659.365	44.84
659.693	44.6
660.02	44.63
660.347	44.62
660.674	44.6
661.001	44.55
661.329	44.63
661.656	44.95
661.982	44.79
662.309	45.01
662.636	45.07
662.963	45.54
663.29	44.77
663.616	45.09
663.943	44.55
664.27	45.18
664.596	44.68
664.923	45.1
665.249	45.07
665.576	45
665.902	45.01
666.228	45.58
666.554	45.15
666.881	45.3
667.207	45.26
667.533	45.34
667.859	45.31
668.185	46.08
668.511	44.98
668.837	46.06
669.162	44.6
669.488	45.4
669.814	45.51
670.139	45.38
670.465	45.58
670.791	45.38
671.116	45.55
671.442	45.4
671.767	46.31
672.092	45.93
