Data from 0022_crown_Reflection__4__40.txt Node

Date: Thu Oct 20 20:38:42 CDT 2022
User: ToomeyLab
Spectrometer: FLMS14357
Trigger mode: 0
Integration Time (sec): 1.000000E-2
Scans to average: 100
Electric dark correction enabled: true
Nonlinearity correction enabled: false
Boxcar width: 0
XAxis mode: Wavelengths
Number of Pixels in Spectrum: 2048
>>>>>Begin Spectral Data<<<<<
189.047	118.5
189.435	118.5
189.823	118.5
190.211	56.8
190.599	80.22
190.987	-183.52
191.375	138.92
191.763	55.1
192.151	1.69
192.538	88.45
192.926	89.77
193.314	95.82
193.702	77.65
194.089	115.91
194.477	-1203.01
194.864	191.27
195.252	177.29
195.639	108.09
196.027	26.94
196.414	-591.51
196.801	544.85
197.189	176.32
197.576	798.87
197.963	-127.32
198.351	5.46
198.738	38.79
199.125	42.24
199.512	8.98
199.899	12.15
200.286	11.91
200.673	39.61
201.06	46.48
201.447	1.7
201.833	35.86
202.22	35.52
202.607	35.42
202.994	15.13
203.38	21.34
203.767	64.51
204.154	-2.03
204.54	37.96
204.927	35.01
205.313	36.51
205.699	40.05
206.086	21.05
206.472	11.94
206.858	34.46
207.245	27.52
207.631	7.27
208.017	25.64
208.403	36.87
208.789	31.14
209.175	29.9
209.561	25.92
209.947	47.12
210.333	35.94
210.719	24.79
211.105	-0.47
211.491	-9.51
211.876	-13.22
212.262	-8.98
212.648	-22.57
213.034	-4.56
213.419	14.97
213.805	-14.03
214.19	24.37
214.576	9.23
214.961	24.16
215.346	32
215.732	19.53
216.117	23.27
216.502	22.21
216.888	29.1
217.273	11.24
217.658	21.14
218.043	-34.84
218.428	10.66
218.813	-17.22
219.198	5.79
219.583	17.12
219.968	9.37
220.353	11.97
220.738	8.64
221.122	10.91
221.507	3.98
221.892	12.13
222.276	8.98
222.661	6.54
223.046	10.74
223.43	17.66
223.815	6.67
224.199	7.96
224.583	13.71
224.968	12.21
225.352	8.49
225.736	11.36
226.121	13.63
226.505	8.1
226.889	10.06
227.273	9.55
227.657	8.35
228.041	7.56
228.425	4.4
228.809	8.46
229.193	8.17
229.577	6.4
229.961	5.22
230.344	7.05
230.728	7.15
231.112	6.05
231.495	6.4
231.879	5.66
232.263	6.78
232.646	5.56
233.03	6.01
233.413	7.17
233.797	6.36
234.18	7.3
234.563	3.42
234.946	6.52
235.33	5.26
235.713	7.24
236.096	5.12
236.479	4.87
236.862	6.73
237.245	6.63
237.628	5.85
238.011	4.18
238.394	5.81
238.777	6.14
239.16	6.06
239.543	5.94
239.925	6.46
240.308	6.83
240.691	5.41
241.073	5.19
241.456	6.81
241.838	5.67
242.221	6.57
242.603	6
242.986	5.78
243.368	5.75
243.75	5.46
244.133	5.89
244.515	5.47
244.897	5.51
245.279	5.13
245.661	6.07
246.043	5.69
246.425	5.74
246.807	6.12
247.189	5.55
247.571	5.18
247.953	5.53
248.335	5.24
248.717	5.21
249.098	5.41
249.48	5.42
249.862	5.68
250.243	5.28
250.625	5.54
251.006	6.16
251.388	5.94
251.769	5.61
252.151	5.69
252.532	5.41
252.913	5.42
253.295	5.09
253.676	5.46
254.057	5.17
254.438	5.77
254.819	6.26
255.2	5
255.581	6.18
255.962	4.9
256.343	6.71
256.724	5.13
257.105	5.36
257.486	5.18
257.867	4.82
258.247	5.68
258.628	5.02
259.009	4.44
259.389	5.19
259.77	4.97
260.15	5.34
260.531	4.81
260.911	4.7
261.292	4.85
261.672	4.82
262.052	4.85
262.432	5.02
262.813	5.83
263.193	4.72
263.573	4.62
263.953	4.82
264.333	4.86
264.713	4.98
265.093	4.67
265.473	5.6
265.853	4.66
266.233	4.98
266.612	5.37
266.992	5.49
267.372	5.18
267.752	5.19
268.131	4.64
268.511	4.82
268.89	4.75
269.27	5.17
269.649	5.03
270.029	5.35
270.408	4.33
270.787	4.78
271.167	4.98
271.546	4.56
271.925	5.03
272.304	4.42
272.683	4.55
273.062	4.36
273.441	4.51
273.82	4.58
274.199	5.12
274.578	5.36
274.957	5.07
275.336	4.78
275.715	4.33
276.093	4.98
276.472	5.09
276.851	4.51
277.229	4.45
277.608	4.84
277.986	4.27
278.365	4.09
278.743	5.04
279.122	5.43
279.5	3.83
279.878	4.6
280.257	4.03
280.635	4.62
281.013	4.64
281.391	4.63
281.769	4.86
282.147	4.96
282.525	4.45
282.903	4.9
283.281	4.66
283.659	4.67
284.037	4.74
284.415	4.58
284.792	4.29
285.17	4.53
285.548	4.49
285.925	4.24
286.303	4.5
286.68	4.61
287.058	4.26
287.435	4.28
287.813	4.17
288.19	4.38
288.567	3.91
288.945	4.42
289.322	3.9
289.699	5.09
290.076	4.22
290.453	4.58
290.83	4.47
291.207	4.81
291.584	4.09
291.961	4.35
292.338	4.07
292.715	4.28
293.092	4.59
293.469	4.37
293.845	4.16
294.222	4.31
294.599	4.38
294.975	4.27
295.352	4.61
295.728	4.79
296.105	4.06
296.481	4.16
296.858	4.23
297.234	4.22
297.61	4.05
297.986	3.84
298.363	4.31
298.739	4.44
299.115	4.32
299.491	4.59
299.867	4.35
300.243	3.97
300.619	4.31
300.995	4.03
301.371	4.07
301.746	4.13
302.122	3.89
302.498	4.03
302.874	4.3
303.249	3.96
303.625	3.99
304	4.22
304.376	3.9
304.751	4.39
305.127	3.64
305.502	4.05
305.878	4.27
306.253	4.38
306.628	4.21
307.003	3.74
307.378	3.98
307.754	4.33
308.129	4.1
308.504	3.65
308.879	4.18
309.254	4.08
309.629	4.43
310.003	3.99
310.378	4.24
310.753	4.13
311.128	3.73
311.502	3.53
311.877	3.9
312.252	4.19
312.626	3.93
313.001	4.08
313.375	4.12
313.75	4.07
314.124	3.96
314.498	4
314.873	4.1
315.247	4.28
315.621	4.03
315.995	3.96
316.369	4.13
316.743	3.92
317.117	3.72
317.491	3.84
317.865	4.49
318.239	4.23
318.613	4.57
318.987	4.52
319.361	4.16
319.734	4.35
320.108	4.63
320.482	3.6
320.855	3.91
321.229	3.8
321.602	3.89
321.976	4.61
322.349	3.87
322.723	4.22
323.096	3.9
323.469	4.28
323.843	4.54
324.216	4.66
324.589	4.29
324.962	3.98
325.335	3.95
325.708	4.1
326.081	4.25
326.454	4.37
326.827	4.23
327.2	4.15
327.573	4.15
327.945	3.99
328.318	3.72
328.691	3.54
329.063	3.78
329.436	3.51
329.809	4.12
330.181	4.3
330.553	3.72
330.926	3.42
331.298	3.51
331.671	4.02
332.043	3.68
332.415	4.74
332.787	4.08
333.159	4.12
333.532	4.39
333.904	3.7
334.276	3.96
334.648	4.02
335.02	3.41
335.391	4.18
335.763	3.79
336.135	3.86
336.507	4.23
336.879	3.7
337.25	3.58
337.622	4.36
337.993	4.11
338.365	4.07
338.736	4.54
339.108	4.39
339.479	4.01
339.851	4.46
340.222	3.93
340.593	3.89
340.964	4
341.336	4.2
341.707	4.02
342.078	3.82
342.449	4.08
342.82	3.92
343.191	4.23
343.562	4.24
343.933	3.93
344.303	4.31
344.674	3.85
345.045	3.67
345.416	4.12
345.786	4.25
346.157	4.16
346.527	3.63
346.898	3.94
347.268	3.95
347.639	4.24
348.009	3.95
348.38	4.08
348.75	4.03
349.12	3.74
349.49	3.88
349.861	4.24
350.231	3.72
350.601	4.19
350.971	3.78
351.341	4.1
351.711	4.31
352.081	4.62
352.45	4
352.82	3.98
353.19	3.95
353.56	4.08
353.929	4.17
354.299	4.07
354.669	4.47
355.038	3.73
355.408	3.95
355.777	4.24
356.147	3.97
356.516	4.39
356.885	4.35
357.254	4.42
357.624	3.84
357.993	3.78
358.362	4.14
358.731	4.3
359.1	4.28
359.469	4.19
359.838	4.12
360.207	4.5
360.576	4.05
360.945	3.93
361.314	4.33
361.682	3.94
362.051	4.29
362.42	3.95
362.788	3.99
363.157	4.15
363.525	4.13
363.894	4.27
364.262	3.97
364.631	4.55
364.999	4.25
365.367	3.99
365.735	4.35
366.104	4.25
366.472	3.77
366.84	4.09
367.208	4.14
367.576	4.22
367.944	4.6
368.312	4.45
368.68	4.51
369.048	4.21
369.416	4.65
369.783	4.55
370.151	4.33
370.519	4.84
370.886	4.55
371.254	4.52
371.621	4.16
371.989	4.14
372.356	4.47
372.724	4.7
373.091	4.61
373.458	4.17
373.826	4.42
374.193	4.41
374.56	4.68
374.927	4.45
375.294	4.69
375.661	4.55
376.028	4.53
376.395	4.58
376.762	4.33
377.129	4.46
377.496	4.23
377.863	4.41
378.229	4.55
378.596	4.27
378.963	4.41
379.329	4.22
379.696	4.5
380.062	4.54
380.429	4.46
380.795	4.56
381.161	4.57
381.528	4.22
381.894	4.54
382.26	4.48
382.626	4.47
382.993	4.68
383.359	4.65
383.725	4.68
384.091	4.35
384.457	4.47
384.823	4.47
385.188	4.57
385.554	4.67
385.92	4.39
386.286	4.69
386.651	4.55
387.017	4.25
387.383	4.58
387.748	4.71
388.114	4.92
388.479	4.79
388.845	4.67
389.21	4.61
389.575	4.42
389.94	4.97
390.306	4.46
390.671	4.58
391.036	4.6
391.401	4.5
391.766	4.83
392.131	4.62
392.496	4.5
392.861	4.69
393.226	4.63
393.591	4.44
393.956	4.5
394.32	4.4
394.685	4.6
395.05	4.3
395.414	4.49
395.779	4.61
396.143	4.55
396.508	4.64
396.872	4.32
397.236	4.74
397.601	4.62
397.965	4.94
398.329	4.58
398.694	4.66
399.058	4.75
399.422	4.64
399.786	4.59
400.15	4.5
400.514	4.54
400.878	4.72
401.242	5.11
401.605	4.69
401.969	4.99
402.333	4.68
402.697	4.62
403.06	4.68
403.424	4.76
403.787	4.72
404.151	4.71
404.514	4.5
404.878	4.69
405.241	4.51
405.604	4.99
405.968	4.67
406.331	4.86
406.694	4.79
407.057	4.37
407.42	4.73
407.783	4.54
408.146	4.68
408.509	4.72
408.872	4.65
409.235	4.7
409.598	4.87
409.961	4.59
410.323	4.87
410.686	4.81
411.049	4.53
411.411	4.59
411.774	4.74
412.136	4.65
412.499	4.88
412.861	4.83
413.223	4.84
413.586	4.78
413.948	4.75
414.31	4.78
414.672	4.84
415.035	4.74
415.397	4.75
415.759	4.78
416.121	4.68
416.483	4.92
416.845	4.91
417.206	4.59
417.568	4.76
417.93	4.53
418.292	4.79
418.653	4.54
419.015	4.68
419.377	4.63
419.738	4.64
420.1	4.71
420.461	4.72
420.822	4.79
421.184	4.64
421.545	4.57
421.906	4.61
422.267	4.65
422.629	4.72
422.99	4.57
423.351	4.68
423.712	4.56
424.073	4.66
424.434	4.68
424.795	4.64
425.155	4.69
425.516	4.53
425.877	4.65
426.238	4.68
426.598	4.57
426.959	4.64
427.32	4.81
427.68	4.68
428.041	4.69
428.401	4.9
428.761	4.95
429.122	4.9
429.482	4.84
429.842	4.73
430.202	4.9
430.563	4.71
430.923	4.84
431.283	4.99
431.643	4.76
432.003	4.92
432.363	4.82
432.722	4.95
433.082	4.92
433.442	5.09
433.802	4.79
434.161	4.9
434.521	4.88
434.881	4.85
435.24	4.88
435.6	4.9
435.959	4.84
436.319	4.91
436.678	4.84
437.037	4.94
437.396	4.84
437.756	4.79
438.115	4.85
438.474	4.89
438.833	4.77
439.192	4.92
439.551	4.91
439.91	4.98
440.269	4.97
440.628	4.82
440.987	4.91
441.345	4.83
441.704	4.78
442.063	4.77
442.421	4.79
442.78	4.84
443.138	4.89
443.497	4.75
443.855	5.04
444.214	4.84
444.572	4.85
444.93	4.7
445.288	4.85
445.647	4.7
446.005	4.85
446.363	4.82
446.721	4.8
447.079	4.83
447.437	4.83
447.795	4.76
448.153	4.83
448.51	4.75
448.868	4.77
449.226	4.78
449.584	4.82
449.941	4.79
450.299	4.82
450.656	4.91
451.014	4.78
451.371	4.92
451.729	5
452.086	4.85
452.443	5.04
452.801	5.01
453.158	4.79
453.515	4.84
453.872	4.81
454.229	4.96
454.586	4.92
454.943	4.98
455.3	4.97
455.657	5.01
456.014	5.05
456.371	5.03
456.727	5.11
457.084	5.02
457.441	4.87
457.797	4.95
458.154	4.99
458.51	4.84
458.867	4.84
459.223	4.97
459.58	4.99
459.936	4.95
460.292	4.72
460.648	4.83
461.005	4.75
461.361	4.73
461.717	4.85
462.073	4.91
462.429	4.9
462.785	4.83
463.141	4.94
463.496	4.79
463.852	5.13
464.208	5.05
464.564	5.03
464.919	5.02
465.275	4.84
465.631	4.92
465.986	4.92
466.342	4.94
466.697	4.88
467.052	5.04
467.408	4.9
467.763	5.07
468.118	5.11
468.473	4.73
468.829	5
469.184	4.93
469.539	4.95
469.894	5.05
470.249	4.93
470.603	5.03
470.958	5.04
471.313	5.04
471.668	4.89
472.023	5.02
472.377	4.95
472.732	4.95
473.086	4.96
473.441	4.92
473.795	5.03
474.15	4.9
474.504	4.93
474.859	5.01
475.213	5.11
475.567	5.08
475.921	4.96
476.275	4.93
476.63	4.84
476.984	4.95
477.338	4.89
477.692	5.08
478.045	5.04
478.399	5
478.753	4.94
479.107	4.94
479.461	4.9
479.814	4.88
480.168	4.99
480.521	4.82
480.875	4.97
481.228	4.84
481.582	4.98
481.935	4.91
482.289	4.99
482.642	4.91
482.995	4.86
483.348	4.83
483.701	4.88
484.055	4.88
484.408	4.72
484.761	4.66
485.114	4.53
485.466	4.53
485.819	4.61
486.172	4.65
486.525	4.75
486.878	4.77
487.23	4.7
487.583	4.77
487.936	4.7
488.288	4.69
488.641	4.65
488.993	4.63
489.345	4.7
489.698	4.68
490.05	4.74
490.402	4.77
490.754	4.76
491.107	4.82
491.459	4.79
491.811	4.87
492.163	4.82
492.515	4.76
492.866	4.68
493.218	4.67
493.57	4.75
493.922	4.82
494.274	4.9
494.625	4.94
494.977	4.86
495.328	4.91
495.68	4.88
496.031	4.99
496.383	5.02
496.734	4.9
497.086	4.92
497.437	5
497.788	4.98
498.139	4.88
498.49	4.89
498.842	4.89
499.193	4.85
499.544	4.94
499.894	4.85
500.245	4.92
500.596	4.91
500.947	5.03
501.298	5.01
501.648	5.03
501.999	4.93
502.35	5
502.7	5.11
503.051	5.13
503.401	5.01
503.752	5
504.102	5.05
504.452	5.07
504.803	5.11
505.153	5.02
505.503	5
505.853	4.9
506.203	5.03
506.553	4.91
506.903	5.01
507.253	4.91
507.603	4.9
507.953	4.96
508.303	5.12
508.652	5.05
509.002	4.94
509.352	5.03
509.701	4.92
510.051	4.92
510.4	4.84
510.75	4.91
511.099	4.87
511.449	4.92
511.798	4.98
512.147	4.85
512.496	4.9
512.846	4.92
513.195	4.96
513.544	4.91
513.893	4.86
514.242	4.95
514.591	5.01
514.939	4.98
515.288	5.07
515.637	4.99
515.986	5.04
516.334	4.96
516.683	5
517.032	5.04
517.38	5.05
517.729	5.04
518.077	4.98
518.426	4.91
518.774	5.04
519.122	4.83
519.47	4.93
519.819	4.87
520.167	4.88
520.515	4.94
520.863	4.94
521.211	4.9
521.559	5
521.907	4.83
522.255	4.89
522.602	4.94
522.95	4.98
523.298	5.06
523.645	4.91
523.993	5.06
524.341	5.01
524.688	4.91
525.036	4.99
525.383	4.99
525.73	4.92
526.078	4.93
526.425	4.97
526.772	4.84
527.119	4.88
527.466	4.89
527.814	4.85
528.161	4.93
528.508	4.82
528.854	4.9
529.201	4.73
529.548	4.75
529.895	4.66
530.242	4.64
530.588	4.67
530.935	4.78
531.282	4.78
531.628	4.74
531.975	4.88
532.321	4.87
532.667	4.87
533.014	4.97
533.36	4.83
533.706	4.87
534.052	4.78
534.399	4.75
534.745	4.72
535.091	4.79
535.437	4.78
535.783	4.89
536.129	4.85
536.474	4.89
536.82	4.94
537.166	4.91
537.512	4.9
537.857	4.89
538.203	4.89
538.549	4.85
538.894	4.92
539.239	4.92
539.585	4.91
539.93	4.94
540.276	4.93
540.621	4.93
540.966	4.96
541.311	4.92
541.656	4.98
542.001	4.75
542.346	4.72
542.691	4.66
543.036	4.75
543.381	4.7
543.726	4.79
544.071	4.79
544.415	4.86
544.76	4.87
545.105	4.92
545.449	4.77
545.794	4.91
546.138	4.98
546.483	4.98
546.827	4.84
547.171	4.83
547.516	4.96
547.86	4.92
548.204	4.91
548.548	4.88
548.892	4.96
549.236	4.9
549.58	4.92
549.924	4.98
550.268	5.13
550.612	5.16
550.956	4.93
551.3	4.96
551.643	4.91
551.987	5.05
552.33	5.21
552.674	5.12
553.017	4.96
553.361	5.15
553.704	4.94
554.048	5.03
554.391	5.11
554.734	5.04
555.077	5.03
555.42	5.11
555.764	5.17
556.107	5.05
556.45	5.16
556.793	5.04
557.135	4.86
557.478	5.32
557.821	5
558.164	4.88
558.507	5.12
558.849	5.12
559.192	5.24
559.534	5.17
559.877	5.11
560.219	5.2
560.562	5.1
560.904	5.11
561.246	4.81
561.589	4.91
561.931	5.03
562.273	5.08
562.615	4.93
562.957	5.06
563.299	5.08
563.641	5.06
563.983	5.02
564.325	5.15
564.667	5.01
565.008	4.93
565.35	5
565.692	5.16
566.033	5.16
566.375	4.96
566.716	4.94
567.058	4.93
567.399	5.07
567.741	4.89
568.082	4.8
568.423	5
568.764	5.03
569.105	5.02
569.447	5.11
569.788	5.16
570.129	5.15
570.47	5
570.811	4.97
571.151	4.91
571.492	5.15
571.833	5.13
572.174	4.96
572.514	4.84
572.855	4.99
573.195	4.91
573.536	4.91
573.876	4.93
574.217	4.85
574.557	4.86
574.898	5.08
575.238	5.08
575.578	5.12
575.918	5.02
576.258	4.91
576.598	4.82
576.938	4.95
577.278	4.91
577.618	4.82
577.958	5.11
578.298	4.97
578.638	4.79
578.977	4.98
579.317	4.87
579.657	5.08
579.996	4.93
580.336	4.87
580.675	4.86
581.014	5.11
581.354	5.37
581.693	5.03
582.032	4.93
582.372	4.9
582.711	5
583.05	5.13
583.389	5.06
583.728	5.08
584.067	4.87
584.406	5.02
584.745	5.18
585.083	4.96
585.422	5.03
585.761	5.18
586.1	4.86
586.438	4.98
586.777	5.1
587.115	5.2
587.454	4.96
587.792	4.7
588.13	4.84
588.469	4.86
588.807	4.95
589.145	4.88
589.483	5.19
589.821	4.71
590.159	4.77
590.497	4.9
590.835	5.12
591.173	4.92
591.511	4.97
591.849	4.98
592.187	5
592.524	4.92
592.862	5.16
593.2	4.95
593.537	5.29
593.875	4.79
594.212	5.06
594.55	4.8
594.887	5.27
595.224	4.9
595.561	5.12
595.899	4.92
596.236	5.08
596.573	4.83
596.91	4.94
597.247	4.89
597.584	4.88
597.921	4.84
598.258	4.99
598.594	4.8
598.931	4.83
599.268	4.91
599.604	4.79
599.941	5.15
600.277	4.91
600.614	4.94
600.95	5.18
601.287	5.2
601.623	4.93
601.959	5.12
602.296	4.98
602.632	4.87
602.968	5.25
603.304	4.96
603.64	4.9
603.976	5.03
604.312	5.06
604.648	4.91
604.984	4.68
605.319	5
605.655	4.86
605.991	4.69
606.326	5.06
606.662	4.82
606.998	5.01
607.333	4.83
607.668	4.87
608.004	4.92
608.339	4.96
608.674	5.17
609.01	4.86
609.345	4.86
609.68	5.02
610.015	4.94
610.35	5.05
610.685	4.82
611.02	4.97
611.355	4.91
611.689	4.82
612.024	4.83
612.359	4.76
612.694	5.01
613.028	5.01
613.363	4.81
613.697	5.18
614.032	5.11
614.366	4.78
614.7	4.99
615.035	5.16
615.369	5.08
615.703	4.84
616.037	5.04
616.371	5.27
616.705	5.03
617.039	4.94
617.373	5.21
617.707	4.85
618.041	5.07
618.375	4.88
618.709	5.05
619.042	5.24
619.376	4.97
619.71	5.02
620.043	5.08
620.377	5.02
620.71	5.02
621.043	4.86
621.377	5.03
621.71	5.31
622.043	5
622.376	5.21
622.709	4.86
623.043	5.51
623.376	5.02
623.709	5.12
624.041	4.98
624.374	5.03
624.707	4.87
625.04	5.13
625.373	5.34
625.705	5.18
626.038	5.03
626.37	5.26
626.703	5.19
627.035	5.12
627.368	4.91
627.7	5.06
628.032	5.17
628.365	4.99
628.697	4.8
629.029	4.84
629.361	5.16
629.693	4.6
630.025	5.07
630.357	4.81
630.689	5.01
631.021	4.94
631.353	4.91
631.684	4.79
632.016	5.06
632.348	4.94
632.679	5.12
633.011	4.86
633.342	5
633.674	5.01
634.005	5.28
634.336	5.09
634.668	4.97
634.999	4.79
635.33	4.68
635.661	5.16
635.992	4.59
636.323	5.49
636.654	4.73
636.985	5.05
637.316	5.02
637.647	4.95
637.977	4.79
638.308	4.83
638.639	4.57
638.969	4.99
639.3	5.18
639.63	5.28
639.961	5.37
640.291	4.9
640.622	5.03
640.952	5.51
641.282	5.27
641.612	5.13
641.943	5.34
642.273	5.47
642.603	4.76
642.933	4.72
643.263	4.96
643.592	4.65
643.922	5.11
644.252	5.11
644.582	4.87
644.911	5.11
645.241	5.41
645.571	5.32
645.9	5.37
646.23	4.92
646.559	5.1
646.888	5.16
647.218	5.02
647.547	5.15
647.876	4.62
648.205	5.18
648.534	5.27
648.863	4.98
649.192	5.06
649.521	5.3
649.85	5.16
650.179	5.03
650.508	5.12
650.837	4.9
651.165	4.66
651.494	5.2
651.822	4.64
652.151	4.89
652.479	5.14
652.808	5.22
653.136	4.88
653.465	5.08
653.793	4.8
654.121	5.1
654.449	5.22
654.777	4.6
655.105	5.04
655.433	4.49
655.761	5.15
656.089	5.02
656.417	4.9
656.745	4.48
657.073	4.83
657.4	5.06
657.728	5.37
658.056	5.17
658.383	5.36
658.711	5.4
659.038	5.19
659.365	4.79
659.693	5.21
660.02	4.79
660.347	5.43
660.674	4.82
661.001	5.17
661.329	5.06
661.656	4.72
661.982	4.82
662.309	4.93
662.636	4.93
662.963	5.42
663.29	4.55
663.616	5.97
663.943	4.7
664.27	5.04
664.596	4.69
664.923	4.88
665.249	5.1
665.576	5.27
665.902	5.78
666.228	5.43
666.554	4.84
666.881	5.25
667.207	5.08
667.533	5.63
667.859	4.93
668.185	5.45
668.511	5.32
668.837	5.33
669.162	5.17
669.488	5.33
669.814	5.35
670.139	5.22
670.465	5.3
670.791	5.05
671.116	5.39
671.442	5.49
671.767	5.4
672.092	5.51
672.418	4.53
672.743	5.62
673.068	5.03
673.393	4.63
673.718	5.03
674.043	5.25
674.368	5.58
674.693	4.89
675.018	5.09
675.343	5.18
675.667	4.76
675.992	5.31
676.317	4.91
676.641	4.27
676.966	5.98
677.29	5.12
677.615	5.06
677.939	4.87
678.264	5.43
678.588	4.86
678.912	5.01
679.236	6.04
679.56	4.77
679.885	5.32
680.209	5.47
680.532	4.65
680.856	5.01
681.18	4.81
681.504	4.74
681.828	5.38
682.152	4.82
682.475	4.88
682.799	5.05
683.122	5.18
683.446	5.31
683.769	5.05
684.093	5.69
684.416	5.58
684.739	5.27
685.062	5.74
685.386	5.15
685.709	5.69
686.032	5.55
686.355	5.83
686.678	5.42
687.001	5.5
687.324	5.22
687.646	6.13
687.969	5.13
688.292	4.82
688.614	5.43
688.937	4.99
689.26	5.21
689.582	4.6
689.904	5.08
690.227	5.56
690.549	5.6
690.871	4.93
691.194	5.34
691.516	5.61
691.838	5.19
692.16	5.86
692.482	5.27
692.804	5.64
693.126	5.62
