Data from 0022_chest_Reflection__2__33.txt Node

Date: Thu Oct 20 20:36:40 CDT 2022
User: ToomeyLab
Spectrometer: FLMS14357
Trigger mode: 0
Integration Time (sec): 1.000000E-2
Scans to average: 100
Electric dark correction enabled: true
Nonlinearity correction enabled: false
Boxcar width: 0
XAxis mode: Wavelengths
Number of Pixels in Spectrum: 2048
>>>>>Begin Spectral Data<<<<<
189.047	85.96
189.435	85.96
189.823	85.96
190.211	33.41
190.599	112.42
190.987	37.19
191.375	-39.23
191.763	91.11
192.151	29.83
192.538	101.16
192.926	59.52
193.314	-26.91
193.702	63.78
194.089	75.73
194.477	768.07
194.864	210.08
195.252	288.33
195.639	158.51
196.027	24.36
196.414	-1580.19
196.801	-259.28
197.189	-32.06
197.576	1228.95
197.963	-72.98
198.351	38
198.738	-0.84
199.125	29.23
199.512	11.25
199.899	31.81
200.286	-29.22
200.673	9.86
201.06	33.93
201.447	14.25
201.833	-22.12
202.22	26.07
202.607	11.48
202.994	29.29
203.38	8.87
203.767	16.92
204.154	19.91
204.54	32.8
204.927	43.04
205.313	32.12
205.699	23.42
206.086	50.33
206.472	-0.37
206.858	14.08
207.245	53.5
207.631	7.76
208.017	12.53
208.403	25.03
208.789	16.32
209.175	25.2
209.561	20.21
209.947	35.83
210.333	21
210.719	21.14
211.105	-31.08
211.491	-15.25
211.876	26.05
212.262	12
212.648	-3.95
213.034	22.84
213.419	44.82
213.805	6.09
214.19	-2.39
214.576	16.51
214.961	-13.16
215.346	9.42
215.732	8.81
216.117	8.89
216.502	26.42
216.888	18.76
217.273	8.26
217.658	15.71
218.043	-20.16
218.428	1.25
218.813	-1.5
219.198	16.79
219.583	22.86
219.968	-0.66
220.353	5.52
220.738	-2.81
221.122	15.01
221.507	-4.38
221.892	11.73
222.276	-1.41
222.661	1.46
223.046	7.39
223.43	10.03
223.815	-6.3
224.199	9.37
224.583	8.83
224.968	3
225.352	13.95
225.736	4.26
226.121	7.04
226.505	5
226.889	2.91
227.273	1.28
227.657	2.88
228.041	5.08
228.425	5.68
228.809	2.25
229.193	4.14
229.577	2.87
229.961	2.72
230.344	3.38
230.728	2.95
231.112	2.51
231.495	4.04
231.879	3.47
232.263	3.81
232.646	2.78
233.03	2.5
233.413	4.59
233.797	3.13
234.18	2.34
234.563	1.17
234.946	0.98
235.33	3.62
235.713	4.03
236.096	2.25
236.479	2.12
236.862	3.6
237.245	3.5
237.628	2.78
238.011	2.24
238.394	3.5
238.777	4.23
239.16	2.24
239.543	3.09
239.925	0.9
240.308	4.49
240.691	4.07
241.073	3.22
241.456	3.21
241.838	2.49
242.221	3.09
242.603	3.6
242.986	3.01
243.368	2.46
243.75	2.86
244.133	2.44
244.515	2.48
244.897	2.29
245.279	2.86
245.661	2.47
246.043	2.55
246.425	1.7
246.807	2.89
247.189	2.5
247.571	2.21
247.953	2.77
248.335	2.61
248.717	2.79
249.098	2.65
249.48	2.45
249.862	2.66
250.243	2.25
250.625	3.07
251.006	3.49
251.388	3.34
251.769	2.44
252.151	3.15
252.532	2.38
252.913	2.54
253.295	2.89
253.676	2.58
254.057	2.87
254.438	2.94
254.819	2.86
255.2	3.21
255.581	3.17
255.962	3.55
256.343	4.26
256.724	2.54
257.105	3.18
257.486	2.3
257.867	2.84
258.247	2.99
258.628	2.36
259.009	2.2
259.389	2.63
259.77	2.57
260.15	2.56
260.531	2.74
260.911	2.28
261.292	2.4
261.672	2.4
262.052	2.46
262.432	2.59
262.813	2.77
263.193	2.72
263.573	2.06
263.953	2.86
264.333	2.67
264.713	2.72
265.093	2.82
265.473	3.06
265.853	2.29
266.233	2.01
266.612	2.25
266.992	3.32
267.372	2.78
267.752	2.84
268.131	2.14
268.511	2.39
268.89	2.54
269.27	2.84
269.649	2.35
270.029	2.82
270.408	2.39
270.787	2.46
271.167	2.98
271.546	2.24
271.925	2.52
272.304	2.61
272.683	2.34
273.062	2.52
273.441	2.29
273.82	2.4
274.199	2.5
274.578	2.65
274.957	2.65
275.336	2.77
275.715	1.87
276.093	2.93
276.472	2.4
276.851	2.8
277.229	1.98
277.608	2.78
277.986	2.11
278.365	2.83
278.743	2.79
279.122	3.21
279.5	1.76
279.878	2.4
280.257	2.6
280.635	2.71
281.013	3.27
281.391	2.78
281.769	2.83
282.147	2.95
282.525	2.67
282.903	2.77
283.281	2.54
283.659	2.2
284.037	2.56
284.415	2.83
284.792	2.3
285.17	2.5
285.548	2.48
285.925	2.71
286.303	2.85
286.68	2.76
287.058	2.58
287.435	2.19
287.813	2.2
288.19	2.62
288.567	2.18
288.945	3.03
289.322	1.76
289.699	3.03
290.076	2.61
290.453	2.71
290.83	2.69
291.207	2.47
291.584	1.78
291.961	2.56
292.338	2.43
292.715	2.41
293.092	3.28
293.469	2.75
293.845	2.61
294.222	2.43
294.599	2.92
294.975	2.44
295.352	2.56
295.728	2.81
296.105	2.58
296.481	2.69
296.858	2.12
297.234	2.47
297.61	2.67
297.986	2.38
298.363	2.5
298.739	2.41
299.115	2.48
299.491	2.92
299.867	2.19
300.243	2.47
300.619	2.78
300.995	2.52
301.371	2.39
301.746	2.64
302.122	2.1
302.498	2.95
302.874	2.64
303.249	2.58
303.625	2.13
304	2.41
304.376	2.29
304.751	2.62
305.127	1.81
305.502	2.58
305.878	2.43
306.253	2.71
306.628	2.26
307.003	2.4
307.378	2.68
307.754	2.53
308.129	2.36
308.504	2.01
308.879	2.51
309.254	2.36
309.629	2.36
310.003	2.78
310.378	2.4
310.753	2.52
311.128	2.29
311.502	2.48
311.877	2.36
312.252	2.16
312.626	2.35
313.001	2.38
313.375	2.5
313.75	2.48
314.124	2.57
314.498	2.64
314.873	2.74
315.247	2.7
315.621	2.7
315.995	2.64
316.369	2.24
316.743	2.96
317.117	2.06
317.491	2.47
317.865	3.28
318.239	2.42
318.613	3.01
318.987	2.74
319.361	2.5
319.734	2.71
320.108	3.07
320.482	2.14
320.855	2.65
321.229	2.49
321.602	2.78
321.976	2.41
322.349	2.59
322.723	3.02
323.096	2.31
323.469	2.44
323.843	2.84
324.216	2.71
324.589	2.41
324.962	2.84
325.335	2.68
325.708	2.56
326.081	2.86
326.454	2.25
326.827	2.5
327.2	2.64
327.573	2.9
327.945	2.76
328.318	2.35
328.691	2.37
329.063	2.1
329.436	2.25
329.809	2.69
330.181	2.55
330.553	2.36
330.926	2.36
331.298	1.79
331.671	2.48
332.043	2.42
332.415	2.73
332.787	2.89
333.159	2.49
333.532	2.74
333.904	1.97
334.276	2.88
334.648	2.13
335.02	2.56
335.391	2.62
335.763	2.5
336.135	2.39
336.507	2.46
336.879	2.14
337.25	2.2
337.622	2.41
337.993	2.84
338.365	2.64
338.736	2.54
339.108	2.3
339.479	2.28
339.851	3.03
340.222	2.57
340.593	2.25
340.964	2.53
341.336	2.44
341.707	2.42
342.078	2.37
342.449	2.62
342.82	2.66
343.191	2.48
343.562	2.75
343.933	2.68
344.303	2.87
344.674	2.01
345.045	2.8
345.416	2.17
345.786	2.84
346.157	2.5
346.527	2.58
346.898	2.38
347.268	2.67
347.639	2.7
348.009	2.5
348.38	2.55
348.75	2.45
349.12	2.27
349.49	2.35
349.861	2.74
350.231	2.35
350.601	2.8
350.971	2.48
351.341	2.4
351.711	2.63
352.081	3.14
352.45	2.42
352.82	2.43
353.19	2.45
353.56	2.53
353.929	2.65
354.299	2.16
354.669	2.96
355.038	1.85
355.408	2.24
355.777	2.58
356.147	2.79
356.516	2.66
356.885	3.03
357.254	3.02
357.624	2.55
357.993	2.39
358.362	2.43
358.731	3.07
359.1	2.54
359.469	2.64
359.838	2.73
360.207	3.01
360.576	2.41
360.945	2.22
361.314	2.51
361.682	2.42
362.051	2.66
362.42	2.49
362.788	2.46
363.157	2.58
363.525	2.49
363.894	2.59
364.262	2.16
364.631	2.7
364.999	2.48
365.367	2.18
365.735	2.72
366.104	2.68
366.472	2.55
366.84	2.55
367.208	2.63
367.576	2.49
367.944	3.05
368.312	2.73
368.68	3.16
369.048	2.41
369.416	2.66
369.783	2.52
370.151	2.82
370.519	2.95
370.886	2.55
371.254	2.68
371.621	2.56
371.989	2.18
372.356	2.73
372.724	2.97
373.091	2.73
373.458	2.57
373.826	2.69
374.193	2.59
374.56	2.98
374.927	2.91
375.294	2.73
375.661	2.67
376.028	2.6
376.395	2.68
376.762	2.48
377.129	2.78
377.496	2.73
377.863	2.65
378.229	2.48
378.596	2.63
378.963	2.7
379.329	2.47
379.696	2.7
380.062	2.66
380.429	2.58
380.795	2.77
381.161	2.64
381.528	2.72
381.894	2.6
382.26	2.65
382.626	2.48
382.993	2.83
383.359	2.92
383.725	2.7
384.091	2.68
384.457	2.45
384.823	2.54
385.188	2.77
385.554	2.89
385.92	2.7
386.286	2.95
386.651	2.59
387.017	2.56
387.383	2.77
387.748	2.76
388.114	2.73
388.479	3
388.845	3.01
389.21	2.41
389.575	2.59
389.94	2.9
390.306	2.61
390.671	2.51
391.036	2.83
391.401	2.89
391.766	2.93
392.131	2.56
392.496	2.65
392.861	2.91
393.226	2.8
393.591	2.69
393.956	2.55
394.32	2.57
394.685	2.66
395.05	2.68
395.414	2.72
395.779	2.62
396.143	2.81
396.508	2.7
396.872	2.44
397.236	2.75
397.601	2.87
397.965	2.59
398.329	2.49
398.694	2.82
399.058	2.91
399.422	2.58
399.786	2.78
400.15	2.57
400.514	2.67
400.878	2.79
401.242	2.95
401.605	2.65
401.969	2.68
402.333	2.6
402.697	2.98
403.06	2.43
403.424	2.77
403.787	2.56
404.151	2.61
404.514	2.6
404.878	2.64
405.241	2.5
405.604	3.01
405.968	2.89
406.331	2.82
406.694	2.68
407.057	2.65
407.42	2.76
407.783	2.54
408.146	2.7
408.509	2.76
408.872	2.78
409.235	2.73
409.598	2.79
409.961	2.78
410.323	2.7
410.686	2.76
411.049	2.64
411.411	2.82
411.774	2.83
412.136	2.76
412.499	2.82
412.861	2.78
413.223	2.79
413.586	2.92
413.948	2.87
414.31	2.6
414.672	2.99
415.035	2.84
415.397	2.86
415.759	2.71
416.121	2.63
416.483	2.7
416.845	2.77
417.206	2.79
417.568	2.84
417.93	2.57
418.292	2.87
418.653	2.71
419.015	2.84
419.377	2.72
419.738	2.69
420.1	2.56
420.461	2.71
420.822	2.68
421.184	2.73
421.545	2.68
421.906	2.62
422.267	2.63
422.629	2.77
422.99	2.68
423.351	2.71
423.712	2.67
424.073	2.65
424.434	2.68
424.795	2.67
425.155	2.65
425.516	2.55
425.877	2.63
426.238	2.71
426.598	2.64
426.959	2.7
427.32	2.74
427.68	2.66
428.041	2.71
428.401	2.91
428.761	2.84
429.122	2.87
429.482	2.79
429.842	2.8
430.202	2.73
430.563	2.73
430.923	2.85
431.283	2.95
431.643	2.87
432.003	2.89
432.363	2.73
432.722	2.9
433.082	2.92
433.442	2.78
433.802	2.95
434.161	2.85
434.521	2.85
434.881	2.83
435.24	2.79
435.6	2.89
435.959	2.87
436.319	2.92
436.678	2.72
437.037	2.93
437.396	2.66
437.756	2.84
438.115	2.9
438.474	2.89
438.833	2.81
439.192	2.75
439.551	2.72
439.91	2.86
440.269	2.81
440.628	2.87
440.987	2.91
441.345	2.76
441.704	2.75
442.063	2.75
442.421	2.76
442.78	2.78
443.138	2.79
443.497	2.78
443.855	2.76
444.214	2.73
444.572	2.91
444.93	2.83
445.288	2.9
445.647	2.71
446.005	2.79
446.363	2.84
446.721	2.87
447.079	2.77
447.437	2.86
447.795	2.77
448.153	2.72
448.51	2.74
448.868	2.85
449.226	2.76
449.584	2.91
449.941	2.85
450.299	2.81
450.656	2.76
451.014	2.71
451.371	2.94
451.729	2.79
452.086	2.79
452.443	2.95
452.801	3.04
453.158	2.88
453.515	2.93
453.872	2.8
454.229	2.98
454.586	2.84
454.943	2.9
455.3	2.89
455.657	2.85
456.014	2.97
456.371	2.88
456.727	2.99
457.084	2.85
457.441	2.89
457.797	3.05
458.154	2.92
458.51	2.95
458.867	2.87
459.223	3
459.58	2.84
459.936	2.85
460.292	2.92
460.648	2.91
461.005	2.72
461.361	2.73
461.717	2.87
462.073	2.8
462.429	2.95
462.785	2.85
463.141	2.95
463.496	2.97
463.852	3.07
464.208	3.01
464.564	2.88
464.919	3.18
465.275	2.85
465.631	2.94
465.986	2.85
466.342	2.84
466.697	2.9
467.052	2.92
467.408	2.9
467.763	2.89
468.118	2.97
468.473	2.8
468.829	2.95
469.184	2.93
469.539	2.87
469.894	2.93
470.249	2.95
470.603	3.01
470.958	3.03
471.313	3.07
471.668	2.92
472.023	2.96
472.377	3.01
472.732	2.95
473.086	2.95
473.441	2.9
473.795	3.03
474.15	2.92
474.504	2.95
474.859	3.04
475.213	2.99
475.567	3
475.921	3.01
476.275	3.01
476.63	3.02
476.984	2.95
477.338	2.99
477.692	3.02
478.045	2.95
478.399	3.07
478.753	2.9
479.107	2.95
479.461	2.97
479.814	2.9
480.168	2.93
480.521	2.96
480.875	3.04
481.228	2.99
481.582	3.01
481.935	2.96
482.289	2.96
482.642	2.98
482.995	2.87
483.348	2.91
483.701	2.91
484.055	2.89
484.408	2.87
484.761	2.76
485.114	2.7
485.466	2.68
485.819	2.73
486.172	2.79
486.525	2.89
486.878	2.86
487.23	2.87
487.583	2.88
487.936	2.83
488.288	2.83
488.641	2.84
488.993	2.8
489.345	2.83
489.698	2.86
490.05	2.89
490.402	2.91
490.754	2.9
491.107	2.88
491.459	2.99
491.811	3.05
492.163	2.87
492.515	2.82
492.866	2.74
493.218	2.81
493.57	2.85
493.922	2.95
494.274	3.03
494.625	3.01
494.977	2.94
495.328	3.04
495.68	2.93
496.031	3.11
496.383	2.98
496.734	3
497.086	3
497.437	3.02
497.788	3.09
498.139	2.97
498.49	2.98
498.842	2.93
499.193	2.96
499.544	3.03
499.894	3.04
500.245	2.97
500.596	3
500.947	3.08
501.298	3.02
501.648	3.08
501.999	3.09
502.35	3.13
502.7	3.18
503.051	3.13
503.401	3.22
503.752	3.08
504.102	3.04
504.452	3.13
504.803	3.22
505.153	3.11
505.503	3.1
505.853	3.02
506.203	3
506.553	3.1
506.903	3.21
507.253	3.08
507.603	3.13
507.953	3.14
508.303	3.19
508.652	3.07
509.002	3.13
509.352	3.18
509.701	3.16
510.051	3.09
510.4	3.09
510.75	3.09
511.099	3.07
511.449	3.15
511.798	3.14
512.147	3.11
512.496	3.11
512.846	3.19
513.195	3.05
513.544	3.09
513.893	3.08
514.242	3.15
514.591	3.11
514.939	3.2
515.288	3.28
515.637	3.17
515.986	3.18
516.334	3.15
516.683	3.18
517.032	3.21
517.38	3.24
517.729	3.29
518.077	3.07
518.426	3.13
518.774	3.23
519.122	3.16
519.47	3.14
519.819	3.1
520.167	3.1
520.515	3.14
520.863	3.07
521.211	3.26
521.559	3.33
521.907	3.15
522.255	3.17
522.602	3.21
522.95	3.17
523.298	3.19
523.645	3.16
523.993	3.28
524.341	3.23
524.688	3.21
525.036	3.3
525.383	3.31
525.73	3.26
526.078	3.21
526.425	3.21
526.772	3.18
527.119	3.18
527.466	3.22
527.814	3.21
528.161	3.26
528.508	3.19
528.854	3.28
529.201	3.15
529.548	3.05
529.895	3.07
530.242	3.05
530.588	3.09
530.935	3.14
531.282	3.2
531.628	3.15
531.975	3.27
532.321	3.29
532.667	3.27
533.014	3.29
533.36	3.15
533.706	3.32
534.052	3.22
534.399	3.19
534.745	3.18
535.091	3.22
535.437	3.3
535.783	3.34
536.129	3.35
536.474	3.3
536.82	3.29
537.166	3.39
537.512	3.37
537.857	3.32
538.203	3.39
538.549	3.36
538.894	3.34
539.239	3.37
539.585	3.29
539.93	3.35
540.276	3.5
540.621	3.46
540.966	3.46
541.311	3.48
541.656	3.48
542.001	3.33
542.346	3.31
542.691	3.25
543.036	3.34
543.381	3.32
543.726	3.34
544.071	3.33
544.415	3.36
544.76	3.41
545.105	3.42
545.449	3.4
545.794	3.51
546.138	3.5
546.483	3.52
546.827	3.45
547.171	3.44
547.516	3.47
547.86	3.54
548.204	3.5
548.548	3.54
548.892	3.6
549.236	3.57
549.58	3.56
549.924	3.6
550.268	3.73
550.612	3.82
550.956	3.71
551.3	3.74
551.643	3.68
551.987	3.62
552.33	3.87
552.674	3.77
553.017	3.65
553.361	3.78
553.704	3.77
554.048	3.72
554.391	3.76
554.734	3.83
555.077	3.74
555.42	3.78
555.764	3.88
556.107	3.8
556.45	3.96
556.793	3.86
557.135	3.79
557.478	4.05
557.821	3.79
558.164	3.75
558.507	3.96
558.849	3.96
559.192	4.12
559.534	3.97
559.877	3.74
560.219	3.88
560.562	3.9
560.904	3.97
561.246	3.78
561.589	3.91
561.931	4.03
562.273	4
562.615	3.87
562.957	3.99
563.299	4.17
563.641	4.08
563.983	4.13
564.325	4.09
564.667	4.03
565.008	4.18
565.35	4.01
565.692	4.08
566.033	4.22
566.375	3.96
566.716	3.93
567.058	3.96
567.399	4.26
567.741	3.92
568.082	4.13
568.423	4.1
568.764	4.28
569.105	4.08
569.447	4.37
569.788	4.26
570.129	4.21
570.47	4.19
570.811	4.11
571.151	4.23
571.492	4.32
571.833	4.35
572.174	4.24
572.514	4.13
572.855	4.29
573.195	4.3
573.536	4.17
573.876	4.17
574.217	4.13
574.557	4.27
574.898	4.3
575.238	4.36
575.578	4.36
575.918	4.49
576.258	4.2
576.598	4.27
576.938	4.34
577.278	4.37
577.618	4.37
577.958	4.61
578.298	4.53
578.638	4.33
578.977	4.46
579.317	4.33
579.657	4.42
579.996	4.58
580.336	4.49
580.675	4.59
581.014	4.67
581.354	4.7
581.693	4.57
582.032	4.75
582.372	4.47
582.711	4.5
583.05	4.51
583.389	4.64
583.728	4.72
584.067	4.81
584.406	4.66
584.745	4.7
585.083	4.8
585.422	4.86
585.761	4.82
586.1	4.76
586.438	4.86
586.777	4.8
587.115	5
587.454	4.92
587.792	4.66
588.13	4.69
588.469	4.78
588.807	4.84
589.145	4.72
589.483	4.72
589.821	4.84
590.159	4.79
590.497	5
590.835	5.15
591.173	4.92
591.511	5.13
591.849	5.05
592.187	4.92
592.524	5.04
592.862	5.06
593.2	4.89
593.537	5.24
593.875	5.24
594.212	5.06
594.55	5.04
594.887	5.06
595.224	5.06
595.561	5.17
595.899	5.18
596.236	5.25
596.573	5.06
596.91	5.28
597.247	5.2
597.584	5.04
597.921	5.2
598.258	5.12
598.594	5.12
598.931	5.16
599.268	5.26
599.604	5.08
599.941	5.44
600.277	5.39
600.614	5.28
600.95	5.42
601.287	5.27
601.623	5.46
601.959	5.39
602.296	5.39
602.632	5.15
602.968	5.39
603.304	5.33
603.64	5.3
603.976	5.65
604.312	5.36
604.648	5.39
604.984	5.23
605.319	5.38
605.655	5.38
605.991	5.29
606.326	5.51
606.662	5.36
606.998	5.61
607.333	5.55
607.668	5.66
608.004	5.65
608.339	5.52
608.674	5.65
609.01	5.59
609.345	5.67
609.68	5.77
610.015	5.75
610.35	5.8
610.685	5.67
611.02	5.82
611.355	5.87
611.689	5.85
612.024	5.78
612.359	5.77
612.694	5.81
613.028	5.92
613.363	5.63
613.697	6
614.032	6.1
614.366	6.03
614.7	6.11
615.035	6
615.369	6.2
615.703	5.9
616.037	5.95
616.371	6.02
616.705	6.25
617.039	6.1
617.373	6.24
617.707	5.74
618.041	6.07
618.375	6.13
618.709	6.52
619.042	6.27
619.376	6.09
619.71	6.27
620.043	6.12
620.377	6.4
620.71	6.02
621.043	6.24
621.377	6.25
621.71	6.33
622.043	6.23
622.376	6.42
622.709	6.33
623.043	7.19
623.376	6.4
623.709	6.49
624.041	6.3
624.374	6.68
624.707	6.3
625.04	6.46
625.373	6.83
625.705	6.46
626.038	6.59
626.37	6.6
626.703	6.63
627.035	6.6
627.368	6.82
627.7	6.73
628.032	6.76
628.365	6.69
628.697	6.69
629.029	6.46
629.361	6.82
629.693	6.64
630.025	6.65
630.357	6.64
630.689	6.96
631.021	6.68
631.353	6.58
631.684	6.68
632.016	6.93
632.348	6.81
632.679	7.05
633.011	6.93
633.342	7.08
633.674	6.73
634.005	6.96
634.336	7.07
634.668	6.92
634.999	6.97
635.33	6.5
635.661	7.31
635.992	7.05
636.323	7.01
636.654	6.95
636.985	7.07
637.316	6.92
637.647	6.77
637.977	7.07
638.308	7.21
638.639	7.16
638.969	7.16
639.3	7.19
639.63	7.43
639.961	7.26
640.291	7.13
640.622	7.41
640.952	7.63
641.282	7.74
641.612	7.13
641.943	7.35
642.273	7.78
642.603	7.2
642.933	7.35
643.263	7.07
643.592	6.8
643.922	7.53
644.252	7.56
644.582	7.54
644.911	7.13
645.241	7.9
645.571	7.69
645.9	7.84
646.23	7.44
646.559	7.62
646.888	7.78
647.218	7.48
647.547	7.81
647.876	7.43
648.205	8.4
648.534	7.91
648.863	7.92
649.192	7.73
649.521	8.28
649.85	7.8
650.179	8.08
650.508	8.14
650.837	8.05
651.165	8.09
651.494	8.17
651.822	8.11
652.151	7.95
652.479	7.95
652.808	8.11
653.136	8.36
653.465	7.88
653.793	8.02
654.121	8.02
654.449	7.94
654.777	7.73
655.105	7.65
655.433	8
655.761	8.24
656.089	8.28
656.417	8.43
656.745	7.89
657.073	8.35
657.4	8.09
657.728	8.76
658.056	8.24
658.383	8.49
658.711	8.73
659.038	8.47
659.365	7.71
659.693	8.03
660.02	8.21
660.347	8.28
660.674	8.48
661.001	8.33
661.329	8.37
661.656	8.67
661.982	8.34
662.309	8.27
662.636	8.23
662.963	8.82
663.29	8.53
663.616	8.56
663.943	8.62
664.27	8.62
664.596	8.35
664.923	8.9
665.249	8.34
665.576	8.87
665.902	8.67
666.228	9.15
666.554	8.93
666.881	8.55
667.207	9.31
667.533	9.23
667.859	8.9
668.185	9.04
668.511	8.85
668.837	8.84
669.162	8.96
669.488	9.22
669.814	8.77
670.139	9.09
670.465	9.08
670.791	8.75
671.116	9.49
671.442	8.79
671.767	9.47
672.092	8.81
672.418	8.62
672.743	9.69
673.068	9.31
673.393	9.21
673.718	9.79
674.043	9.52
674.368	9.58
674.693	9.03
675.018	9.11
675.343	8.94
675.667	9.62
675.992	9.78
676.317	9.8
676.641	8.64
676.966	9.9
677.29	10.11
677.615	9.73
677.939	10
678.264	9.4
678.588	9.74
678.912	9.13
679.236	9.66
679.56	9.3
679.885	9.76
680.209	9.48
680.532	9.14
680.856	9.23
681.18	9.26
681.504	9.12
681.828	9.89
682.152	9.2
682.475	9.64
682.799	9.27
683.122	9.83
683.446	9.95
683.769	9.81
684.093	10.07
684.416	10.09
684.739	10.36
685.062	10.33
685.386	10.4
685.709	11.09
686.032	10.2
686.355	10.12
686.678	9.84
687.001	9.87
687.324	9.87
687.646	10.71
687.969	9.85
688.292	10.44
688.614	10.58
688.937	10.19
689.26	9.92
689.582	10.21
689.904	10.3
690.227	10.44
690.549	10.28
690.871	10.54
691.194	10.34
691.516	10.18
691.838	10.66
692.16	10.71
692.482	10.27
692.804	10.85
693.126	10.56
