Data from 0022_crown_Reflection__1__37.txt Node

Date: Thu Oct 20 20:38:07 CDT 2022
User: ToomeyLab
Spectrometer: FLMS14357
Trigger mode: 0
Integration Time (sec): 1.000000E-2
Scans to average: 100
Electric dark correction enabled: true
Nonlinearity correction enabled: false
Boxcar width: 0
XAxis mode: Wavelengths
Number of Pixels in Spectrum: 2048
>>>>>Begin Spectral Data<<<<<
189.047	150.34
189.435	150.34
189.823	150.34
190.211	-16.51
190.599	73.36
190.987	-126.18
191.375	-246.48
191.763	-67.9
192.151	7.87
192.538	-101.12
192.926	88.52
193.314	18.4
193.702	73.01
194.089	13.36
194.477	1698.8
194.864	335.01
195.252	-8.59
195.639	24.18
196.027	-47.4
196.414	56.6
196.801	-70.79
197.189	-46.19
197.576	503.76
197.963	63.94
198.351	5.59
198.738	18.32
199.125	29.97
199.512	-29.02
199.899	1.75
200.286	-16.85
200.673	10.17
201.06	27.93
201.447	48.72
201.833	6
202.22	11.59
202.607	31.53
202.994	3.13
203.38	-40.1
203.767	30.17
204.154	-19.78
204.54	2.78
204.927	30.62
205.313	22.98
205.699	10.59
206.086	18.27
206.472	-2.4
206.858	4.78
207.245	16.02
207.631	-16.12
208.017	23.95
208.403	13.8
208.789	0.89
209.175	17.06
209.561	16.45
209.947	45.02
210.333	27.97
210.719	9.14
211.105	-0.96
211.491	27.32
211.876	22.94
212.262	-15.86
212.648	-7.29
213.034	-2.31
213.419	18.57
213.805	2.51
214.19	0.12
214.576	-0.5
214.961	-4.15
215.346	0.58
215.732	20.84
216.117	1.34
216.502	24.01
216.888	35.37
217.273	10.8
217.658	7.78
218.043	26.99
218.428	8.9
218.813	-3.88
219.198	24.29
219.583	25.59
219.968	-9.81
220.353	-1.02
220.738	-1.72
221.122	6.79
221.507	-4.41
221.892	-0.27
222.276	14.66
222.661	-5.34
223.046	9.37
223.43	6.19
223.815	-5.68
224.199	6.74
224.583	10.09
224.968	9.63
225.352	9.61
225.736	9.98
226.121	7.39
226.505	9.53
226.889	1.67
227.273	2.6
227.657	5.8
228.041	9.36
228.425	10.2
228.809	6.36
229.193	6.82
229.577	6.05
229.961	5.91
230.344	6.22
230.728	6.8
231.112	6.3
231.495	6.81
231.879	6.75
232.263	6.01
232.646	6.34
233.03	4.35
233.413	5.77
233.797	3.49
234.18	5.89
234.563	5.75
234.946	4.16
235.33	6.03
235.713	7.37
236.096	3.37
236.479	4.3
236.862	7.51
237.245	5.42
237.628	4.68
238.011	6.17
238.394	6.52
238.777	6.11
239.16	5.96
239.543	6.69
239.925	6.4
240.308	6.98
240.691	5.48
241.073	6.04
241.456	5.38
241.838	4.23
242.221	6.38
242.603	5.95
242.986	6.14
243.368	5.46
243.75	5.27
244.133	5.78
244.515	5.88
244.897	5.44
245.279	5.4
245.661	5.74
246.043	5.33
246.425	5.67
246.807	5.96
247.189	5.4
247.571	5.21
247.953	5.32
248.335	5.33
248.717	5.63
249.098	5.49
249.48	5.34
249.862	5.4
250.243	5.09
250.625	5.19
251.006	6.2
251.388	6.18
251.769	5.52
252.151	5
252.532	4.89
252.913	5.33
253.295	4.89
253.676	5.11
254.057	5.51
254.438	5.62
254.819	5.97
255.2	4.5
255.581	6.4
255.962	4.74
256.343	6.36
256.724	4.57
257.105	5.09
257.486	4.95
257.867	5.26
258.247	4.79
258.628	4.31
259.009	5
259.389	5.01
259.77	4.96
260.15	5.2
260.531	4.88
260.911	4.61
261.292	4.85
261.672	4.86
262.052	5.27
262.432	5.27
262.813	5.04
263.193	5.06
263.573	4.62
263.953	4.3
264.333	4.73
264.713	4.73
265.093	5.16
265.473	5.46
265.853	4.7
266.233	4.68
266.612	5.13
266.992	5.74
267.372	5.31
267.752	4.99
268.131	4.57
268.511	4.43
268.89	4.85
269.27	5.13
269.649	4.94
270.029	5.01
270.408	4.42
270.787	4.76
271.167	5.23
271.546	5.18
271.925	4.67
272.304	4.9
272.683	4.53
273.062	4.54
273.441	4.92
273.82	4.12
274.199	4.49
274.578	4.89
274.957	4.93
275.336	4.62
275.715	4.42
276.093	4.74
276.472	4.9
276.851	4.66
277.229	4.08
277.608	4.15
277.986	4.1
278.365	3.81
278.743	5.08
279.122	5.13
279.5	4.26
279.878	4.42
280.257	4.55
280.635	4.52
281.013	4.63
281.391	4.76
281.769	4.54
282.147	4.5
282.525	4.33
282.903	4.27
283.281	3.96
283.659	4.39
284.037	4.6
284.415	4.64
284.792	4.06
285.17	4.63
285.548	4.2
285.925	4.45
286.303	4.49
286.68	4.58
287.058	4.43
287.435	4.23
287.813	4.2
288.19	4.71
288.567	4.15
288.945	4.49
289.322	3.58
289.699	4.78
290.076	4.51
290.453	4.14
290.83	4.15
291.207	4.34
291.584	3.54
291.961	4.14
292.338	4.07
292.715	4.12
293.092	4.64
293.469	4.41
293.845	4.3
294.222	3.96
294.599	4.45
294.975	3.69
295.352	4.22
295.728	4.65
296.105	4.24
296.481	4.33
296.858	4.38
297.234	4.18
297.61	3.77
297.986	3.66
298.363	3.93
298.739	4
299.115	4.01
299.491	3.96
299.867	3.98
300.243	3.97
300.619	4.17
300.995	4.01
301.371	3.59
301.746	3.67
302.122	3.7
302.498	4.19
302.874	3.75
303.249	3.81
303.625	3.9
304	4.03
304.376	3.83
304.751	3.65
305.127	3.56
305.502	3.72
305.878	3.85
306.253	3.69
306.628	3.84
307.003	3.75
307.378	3.94
307.754	3.87
308.129	3.77
308.504	3.87
308.879	3.75
309.254	3.69
309.629	4.16
310.003	4.04
310.378	3.97
310.753	3.77
311.128	3.44
311.502	3.63
311.877	3.66
312.252	3.89
312.626	3.85
313.001	3.77
313.375	4.05
313.75	4.03
314.124	3.54
314.498	3.75
314.873	3.9
315.247	4.22
315.621	3.44
315.995	3.5
316.369	3.7
316.743	4.04
317.117	3.71
317.491	3.6
317.865	3.88
318.239	3.84
318.613	4.03
318.987	3.8
319.361	3.61
319.734	4.07
320.108	3.94
320.482	3.39
320.855	3.6
321.229	3.96
321.602	4
321.976	3.41
322.349	3.71
322.723	3.74
323.096	2.84
323.469	3.44
323.843	3.91
324.216	3.81
324.589	3.8
324.962	4.12
325.335	3.7
325.708	3.71
326.081	3.95
326.454	3.63
326.827	3.62
327.2	3.92
327.573	3.97
327.945	3.64
328.318	3.6
328.691	3.9
329.063	3.4
329.436	3.2
329.809	3.79
330.181	3.86
330.553	3.82
330.926	3.85
331.298	3.1
331.671	3.85
332.043	3.4
332.415	4
332.787	3.81
333.159	3.47
333.532	3.92
333.904	3.43
334.276	3.84
334.648	3.65
335.02	3.9
335.391	3.61
335.763	3.74
336.135	3.41
336.507	3.46
336.879	3.34
337.25	3.52
337.622	3.71
337.993	3.7
338.365	3.45
338.736	3.75
339.108	3.42
339.479	3.57
339.851	3.72
340.222	3.71
340.593	3.75
340.964	3.85
341.336	3.78
341.707	3.54
342.078	3.57
342.449	3.49
342.82	3.64
343.191	3.44
343.562	3.6
343.933	3.87
344.303	4.32
344.674	3.55
345.045	3.77
345.416	3.58
345.786	4.25
346.157	3.89
346.527	3.58
346.898	3.82
347.268	3.86
347.639	3.91
348.009	3.37
348.38	3.93
348.75	3.67
349.12	3.49
349.49	3.8
349.861	3.8
350.231	3.49
350.601	4.07
350.971	3.84
351.341	3.65
351.711	3.87
352.081	4.32
352.45	3.66
352.82	3.33
353.19	4.08
353.56	3.41
353.929	3.83
354.299	3.63
354.669	3.63
355.038	4.04
355.408	3.33
355.777	3.79
356.147	3.86
356.516	3.97
356.885	4.11
357.254	4.25
357.624	3.78
357.993	3.67
358.362	4.01
358.731	4.19
359.1	4.06
359.469	3.74
359.838	3.72
360.207	4.26
360.576	4.06
360.945	3.7
361.314	4.13
361.682	3.92
362.051	3.93
362.42	3.56
362.788	3.79
363.157	3.83
363.525	3.98
363.894	4.05
364.262	3.82
364.631	4
364.999	3.84
365.367	3.67
365.735	3.88
366.104	3.92
366.472	3.97
366.84	3.8
367.208	4.02
367.576	4.04
367.944	4.18
368.312	4.3
368.68	4.28
369.048	3.73
369.416	4.36
369.783	4.19
370.151	3.77
370.519	4.36
370.886	4.06
371.254	4.2
371.621	4.31
371.989	3.81
372.356	4.01
372.724	4.38
373.091	4.28
373.458	4.07
373.826	4.12
374.193	3.98
374.56	4.42
374.927	3.98
375.294	4.1
375.661	3.94
376.028	4.07
376.395	3.68
376.762	3.81
377.129	4.06
377.496	4.05
377.863	4.16
378.229	4.07
378.596	4.11
378.963	4.16
379.329	4.03
379.696	4.27
380.062	3.98
380.429	4.35
380.795	4.09
381.161	4.16
381.528	3.72
381.894	3.9
382.26	4.06
382.626	4.45
382.993	4.28
383.359	4.18
383.725	4.42
384.091	3.76
384.457	4.01
384.823	4.06
385.188	4.23
385.554	4.2
385.92	4.21
386.286	4.14
386.651	4.24
387.017	4.03
387.383	4.3
387.748	4.26
388.114	4.19
388.479	4.38
388.845	4.26
389.21	4.52
389.575	3.93
389.94	4.32
390.306	4.12
390.671	4.06
391.036	4.42
391.401	4.18
391.766	4.57
392.131	4.1
392.496	4.14
392.861	4.26
393.226	4.32
393.591	4.12
393.956	4.36
394.32	4.06
394.685	4.2
395.05	4.07
395.414	4.37
395.779	4.13
396.143	4.28
396.508	4.22
396.872	4.16
397.236	4.37
397.601	4.4
397.965	4.39
398.329	4.06
398.694	4.34
399.058	4.48
399.422	4.27
399.786	4.2
400.15	4.15
400.514	4.11
400.878	4.53
401.242	4.63
401.605	4.39
401.969	4.53
402.333	4.3
402.697	4.4
403.06	4.25
403.424	4.54
403.787	4.22
404.151	4.37
404.514	4.1
404.878	4.37
405.241	4.16
405.604	4.61
405.968	4.19
406.331	4.45
406.694	4.37
407.057	4.34
407.42	4.38
407.783	4.33
408.146	4.31
408.509	4.48
408.872	4.47
409.235	4.37
409.598	4.17
409.961	4.18
410.323	4.39
410.686	4.28
411.049	4.13
411.411	4.46
411.774	4.56
412.136	4.26
412.499	4.52
412.861	4.32
413.223	4.56
413.586	4.51
413.948	4.52
414.31	4.4
414.672	4.53
415.035	4.58
415.397	4.48
415.759	4.38
416.121	4.07
416.483	4.45
416.845	4.38
417.206	4.6
417.568	4.32
417.93	4.12
418.292	4.41
418.653	4.26
419.015	4.46
419.377	4.34
419.738	4.4
420.1	4.4
420.461	4.31
420.822	4.42
421.184	4.39
421.545	4.28
421.906	4.32
422.267	4.26
422.629	4.35
422.99	4.32
423.351	4.31
423.712	4.35
424.073	4.26
424.434	4.42
424.795	4.22
425.155	4.36
425.516	4.27
425.877	4.31
426.238	4.36
426.598	4.16
426.959	4.42
427.32	4.55
427.68	4.47
428.041	4.43
428.401	4.45
428.761	4.53
429.122	4.49
429.482	4.55
429.842	4.46
430.202	4.45
430.563	4.49
430.923	4.58
431.283	4.64
431.643	4.4
432.003	4.46
432.363	4.56
432.722	4.56
433.082	4.64
433.442	4.61
433.802	4.47
434.161	4.46
434.521	4.44
434.881	4.5
435.24	4.43
435.6	4.52
435.959	4.54
436.319	4.65
436.678	4.5
437.037	4.65
437.396	4.42
437.756	4.43
438.115	4.51
438.474	4.54
438.833	4.39
439.192	4.5
439.551	4.42
439.91	4.5
440.269	4.41
440.628	4.49
440.987	4.48
441.345	4.51
441.704	4.46
442.063	4.32
442.421	4.45
442.78	4.45
443.138	4.5
443.497	4.5
443.855	4.57
444.214	4.47
444.572	4.59
444.93	4.45
445.288	4.55
445.647	4.42
446.005	4.42
446.363	4.54
446.721	4.47
447.079	4.36
447.437	4.43
447.795	4.25
448.153	4.47
448.51	4.44
448.868	4.46
449.226	4.41
449.584	4.51
449.941	4.5
450.299	4.42
450.656	4.58
451.014	4.5
451.371	4.62
451.729	4.61
452.086	4.52
452.443	4.53
452.801	4.66
453.158	4.46
453.515	4.57
453.872	4.43
454.229	4.54
454.586	4.71
454.943	4.61
455.3	4.55
455.657	4.45
456.014	4.59
456.371	4.48
456.727	4.55
457.084	4.53
457.441	4.61
457.797	4.72
458.154	4.59
458.51	4.48
458.867	4.33
459.223	4.35
459.58	4.51
459.936	4.55
460.292	4.48
460.648	4.43
461.005	4.31
461.361	4.28
461.717	4.55
462.073	4.5
462.429	4.62
462.785	4.5
463.141	4.57
463.496	4.46
463.852	4.66
464.208	4.58
464.564	4.46
464.919	4.69
465.275	4.44
465.631	4.5
465.986	4.7
466.342	4.48
466.697	4.36
467.052	4.68
467.408	4.69
467.763	4.59
468.118	4.71
468.473	4.35
468.829	4.57
469.184	4.5
469.539	4.39
469.894	4.58
470.249	4.42
470.603	4.48
470.958	4.6
471.313	4.68
471.668	4.55
472.023	4.67
472.377	4.73
472.732	4.48
473.086	4.48
473.441	4.51
473.795	4.48
474.15	4.58
474.504	4.5
474.859	4.55
475.213	4.7
475.567	4.62
475.921	4.58
476.275	4.36
476.63	4.42
476.984	4.69
477.338	4.57
477.692	4.54
478.045	4.54
478.399	4.69
478.753	4.51
479.107	4.5
479.461	4.53
479.814	4.44
480.168	4.56
480.521	4.43
480.875	4.46
481.228	4.48
481.582	4.43
481.935	4.53
482.289	4.51
482.642	4.44
482.995	4.31
483.348	4.43
483.701	4.43
484.055	4.35
484.408	4.23
484.761	4.16
485.114	4.04
485.466	4.07
485.819	4.21
486.172	4.31
486.525	4.48
486.878	4.41
487.23	4.43
487.583	4.36
487.936	4.29
488.288	4.26
488.641	4.17
488.993	4.2
489.345	4.22
489.698	4.26
490.05	4.31
490.402	4.36
490.754	4.43
491.107	4.45
491.459	4.41
491.811	4.45
492.163	4.3
492.515	4.2
492.866	4.2
493.218	4.16
493.57	4.3
493.922	4.46
494.274	4.54
494.625	4.53
494.977	4.39
495.328	4.58
495.68	4.45
496.031	4.47
496.383	4.48
496.734	4.52
497.086	4.39
497.437	4.43
497.788	4.38
498.139	4.38
498.49	4.37
498.842	4.38
499.193	4.37
499.544	4.47
499.894	4.42
500.245	4.3
500.596	4.35
500.947	4.54
501.298	4.54
501.648	4.64
501.999	4.47
502.35	4.52
502.7	4.46
503.051	4.61
503.401	4.52
503.752	4.46
504.102	4.39
504.452	4.56
504.803	4.55
505.153	4.33
505.503	4.52
505.853	4.43
506.203	4.37
506.553	4.47
506.903	4.39
507.253	4.43
507.603	4.5
507.953	4.44
508.303	4.66
508.652	4.46
509.002	4.42
509.352	4.47
509.701	4.38
510.051	4.41
510.4	4.38
510.75	4.4
511.099	4.34
511.449	4.34
511.798	4.52
512.147	4.35
512.496	4.4
512.846	4.52
513.195	4.36
513.544	4.43
513.893	4.34
514.242	4.44
514.591	4.45
514.939	4.4
515.288	4.49
515.637	4.54
515.986	4.5
516.334	4.44
516.683	4.38
517.032	4.44
517.38	4.35
517.729	4.57
518.077	4.4
518.426	4.41
518.774	4.37
519.122	4.44
519.47	4.28
519.819	4.26
520.167	4.35
520.515	4.34
520.863	4.35
521.211	4.39
521.559	4.61
521.907	4.36
522.255	4.36
522.602	4.39
522.95	4.33
523.298	4.39
523.645	4.44
523.993	4.47
524.341	4.48
524.688	4.36
525.036	4.46
525.383	4.41
525.73	4.35
526.078	4.39
526.425	4.19
526.772	4.24
527.119	4.22
527.466	4.3
527.814	4.28
528.161	4.39
528.508	4.27
528.854	4.34
529.201	4.17
529.548	4.08
529.895	4.03
530.242	4.05
530.588	4.15
530.935	4.27
531.282	4.33
531.628	4.31
531.975	4.34
532.321	4.37
532.667	4.19
533.014	4.41
533.36	4.24
533.706	4.26
534.052	4.21
534.399	4.16
534.745	4.09
535.091	4.18
535.437	4.28
535.783	4.36
536.129	4.36
536.474	4.35
536.82	4.36
537.166	4.35
537.512	4.25
537.857	4.24
538.203	4.2
538.549	4.25
538.894	4.28
539.239	4.42
539.585	4.26
539.93	4.31
540.276	4.39
540.621	4.4
540.966	4.33
541.311	4.36
541.656	4.31
542.001	4.15
542.346	4.04
542.691	4.02
543.036	4.08
543.381	4.16
543.726	4.27
544.071	4.3
544.415	4.27
544.76	4.23
545.105	4.34
545.449	4.29
545.794	4.37
546.138	4.31
546.483	4.37
546.827	4.31
547.171	4.18
547.516	4.25
547.86	4.32
548.204	4.22
548.548	4.2
548.892	4.31
549.236	4.3
549.58	4.36
549.924	4.36
550.268	4.31
550.612	4.22
550.956	4.27
551.3	4.29
551.643	4.35
551.987	4.29
552.33	4.54
552.674	4.3
553.017	4.27
553.361	4.43
553.704	4.37
554.048	4.22
554.391	4.36
554.734	4.31
555.077	4.42
555.42	4.31
555.764	4.27
556.107	4.32
556.45	4.34
556.793	4.48
557.135	4.28
557.478	4.43
557.821	4.4
558.164	4.23
558.507	4.26
558.849	4.37
559.192	4.51
559.534	4.58
559.877	4.35
560.219	4.4
560.562	4.44
560.904	4.42
561.246	4.21
561.589	4.31
561.931	4.38
562.273	4.25
562.615	4.31
562.957	4.45
563.299	4.39
563.641	4.5
563.983	4.27
564.325	4.28
564.667	4.3
565.008	4.24
565.35	4.23
565.692	4.35
566.033	4.39
566.375	4.18
566.716	4.08
567.058	4.12
567.399	4.47
567.741	4.23
568.082	4.25
568.423	4.27
568.764	4.21
569.105	4.43
569.447	4.39
569.788	4.25
570.129	4.3
570.47	4.52
570.811	4.16
571.151	4.27
571.492	4.36
571.833	4.44
572.174	4.18
572.514	4.17
572.855	4.26
573.195	4.18
573.536	4.09
573.876	4.17
574.217	4.08
574.557	4.28
574.898	4.25
575.238	4.41
575.578	4.47
575.918	4.15
576.258	4.09
576.598	4.08
576.938	4.2
577.278	4.26
577.618	4.18
577.958	4.44
578.298	4.16
578.638	4.28
578.977	4.17
579.317	4.02
579.657	4.24
579.996	4.46
580.336	4.17
580.675	4.11
581.014	4.47
581.354	4.36
581.693	4.36
582.032	4.27
582.372	4.2
582.711	4.23
583.05	4.22
583.389	4.16
583.728	4.16
584.067	4.21
584.406	3.99
584.745	4.41
585.083	4.09
585.422	4.39
585.761	4.16
586.1	4.1
586.438	4.18
586.777	4.2
587.115	4.33
587.454	4.59
587.792	4.06
588.13	4.14
588.469	4.34
588.807	3.98
589.145	4.15
589.483	4.04
589.821	4.09
590.159	4.01
590.497	4.2
590.835	4.33
591.173	4.21
591.511	4.25
591.849	4.33
592.187	4.03
592.524	4.34
592.862	4.26
593.2	4.11
593.537	4.29
593.875	3.95
594.212	4.17
594.55	4.07
594.887	4.33
595.224	3.99
595.561	4.26
595.899	3.87
596.236	4.12
596.573	4.12
596.91	4.09
597.247	4.24
597.584	4.28
597.921	4.11
598.258	4.09
598.594	4.05
598.931	4.02
599.268	4.11
599.604	4.19
599.941	4.42
600.277	4.18
600.614	3.99
600.95	4.26
601.287	4.04
601.623	4.21
601.959	4.06
602.296	3.94
602.632	4
602.968	3.96
603.304	3.95
603.64	3.93
603.976	4.22
604.312	4.15
604.648	4.25
604.984	4.04
605.319	4.12
605.655	3.96
605.991	3.89
606.326	4.09
606.662	3.95
606.998	4.17
607.333	3.9
607.668	4.14
608.004	4.06
608.339	4.14
608.674	4.02
609.01	3.97
609.345	4.08
609.68	4.28
610.015	4.12
610.35	4.12
610.685	3.98
611.02	4.15
611.355	4.09
611.689	4.1
612.024	4.15
612.359	4.04
612.694	4.11
613.028	4.11
613.363	3.89
613.697	4
614.032	4.11
614.366	4.17
614.7	4.19
615.035	4.04
615.369	3.87
615.703	4.25
616.037	4.16
616.371	4.18
616.705	4.28
617.039	4.35
617.373	4.41
617.707	3.75
618.041	3.99
618.375	4.04
618.709	4.42
619.042	4.11
619.376	3.8
619.71	3.97
620.043	3.95
620.377	3.81
620.71	3.89
621.043	4.01
621.377	4.07
621.71	4.37
622.043	3.88
622.376	4.15
622.709	4.26
623.043	4.4
623.376	4.06
623.709	3.98
624.041	3.93
624.374	4.13
624.707	3.73
625.04	3.93
625.373	4.42
625.705	4.24
626.038	4.17
626.37	4.09
626.703	4.2
627.035	3.95
627.368	4.05
627.7	4.02
628.032	3.96
628.365	3.97
628.697	3.9
629.029	3.8
629.361	4.14
629.693	4.06
630.025	4.01
630.357	3.92
630.689	4.31
631.021	4.05
631.353	3.78
631.684	4.04
632.016	4.12
632.348	4.21
632.679	4.12
633.011	3.69
633.342	4.19
633.674	3.9
634.005	4.36
634.336	4.02
634.668	4.16
634.999	3.94
635.33	3.89
635.661	4.02
635.992	3.73
636.323	4.4
636.654	3.81
636.985	4.05
637.316	4.12
637.647	3.74
637.977	3.94
638.308	4.04
638.639	3.84
638.969	3.66
639.3	3.86
639.63	4.09
639.961	4.28
640.291	3.68
640.622	3.58
640.952	4.36
641.282	4.18
641.612	4.09
641.943	4.25
642.273	4.47
642.603	3.68
642.933	4.11
643.263	3.91
643.592	3.78
643.922	4.16
644.252	4.02
644.582	3.93
644.911	4.14
645.241	4.34
645.571	4.26
645.9	4.06
646.23	4.19
646.559	4.24
646.888	3.89
647.218	3.98
647.547	4.08
647.876	3.87
648.205	4.25
648.534	4.14
648.863	3.9
649.192	3.75
649.521	4.43
649.85	4.26
650.179	3.78
650.508	3.87
650.837	3.83
651.165	3.88
651.494	3.99
651.822	3.77
652.151	3.6
652.479	3.79
652.808	4.55
653.136	4.37
653.465	4.07
653.793	3.9
654.121	3.82
654.449	4.25
654.777	3.94
655.105	3.94
655.433	4.12
655.761	4.22
656.089	3.86
656.417	3.77
656.745	3.36
657.073	4.1
657.4	3.91
657.728	4.58
658.056	3.91
658.383	4.24
658.711	4.47
659.038	4.05
659.365	3.58
659.693	3.96
660.02	3.61
660.347	3.94
660.674	3.74
661.001	3.83
661.329	4.11
661.656	3.9
661.982	3.46
662.309	3.81
662.636	3.86
662.963	3.71
663.29	3.48
663.616	4.31
663.943	4.03
664.27	3.66
664.596	3.78
664.923	4.11
665.249	4.24
665.576	4.47
665.902	4.34
666.228	4.58
666.554	3.65
666.881	3.99
667.207	4.25
667.533	4.03
667.859	3.84
668.185	4.13
668.511	3.57
668.837	4
669.162	3.77
669.488	4.08
669.814	4.24
670.139	3.9
670.465	4.27
670.791	3.38
671.116	4.2
671.442	3.81
671.767	4.27
672.092	4.35
672.418	3.46
672.743	4.35
673.068	4.44
673.393	3.8
673.718	4.22
674.043	4.31
674.368	4.7
674.693	3.72
675.018	3.97
675.343	3.39
675.667	4.18
675.992	4.4
676.317	3.6
676.641	3.73
676.966	4.14
677.29	3.73
677.615	3.55
677.939	4.04
678.264	3.97
678.588	4.16
678.912	4.03
679.236	4.21
679.56	3.47
679.885	4.07
680.209	4.38
680.532	3.53
680.856	3.88
681.18	3.56
681.504	2.99
681.828	3.98
682.152	3.36
682.475	3.84
682.799	3.84
683.122	3.93
683.446	4.4
683.769	4.03
684.093	4.24
684.416	4.35
684.739	4.03
685.062	4.92
685.386	4.2
685.709	4.68
686.032	4.22
686.355	3.96
686.678	3.65
687.001	4.29
687.324	4.25
687.646	4.63
687.969	3.76
688.292	3.66
688.614	4.22
688.937	3.89
689.26	3.64
689.582	4.01
689.904	4.06
690.227	4.29
690.549	3.45
690.871	3.79
691.194	3.33
691.516	4.21
691.838	3.65
692.16	4.34
692.482	3.84
692.804	3.81
693.126	4.1
693.448	5.08
