Data from 0022_chest_Reflection__0__31.txt Node

Date: Thu Oct 20 20:36:12 CDT 2022
User: ToomeyLab
Spectrometer: FLMS14357
Trigger mode: 0
Integration Time (sec): 1.000000E-2
Scans to average: 100
Electric dark correction enabled: true
Nonlinearity correction enabled: false
Boxcar width: 0
XAxis mode: Wavelengths
Number of Pixels in Spectrum: 2048
>>>>>Begin Spectral Data<<<<<
189.047	212.91
189.435	212.91
189.823	212.91
190.211	-18.54
190.599	92.06
190.987	274.39
191.375	119.05
191.763	-46.42
192.151	36.73
192.538	43.18
192.926	-6.72
193.314	100.12
193.702	58.82
194.089	18.95
194.477	3384.34
194.864	219.75
195.252	393.84
195.639	-41.39
196.027	18.16
196.414	-4001.89
196.801	99.31
197.189	-18.8
197.576	-12.78
197.963	-57.1
198.351	55.87
198.738	25.66
199.125	34.09
199.512	9.7
199.899	15.94
200.286	20.82
200.673	40.22
201.06	59.23
201.447	25.6
201.833	26.61
202.22	7.09
202.607	34.15
202.994	6.62
203.38	-27.73
203.767	47.68
204.154	6.18
204.54	-24.19
204.927	36.54
205.313	38.83
205.699	32.68
206.086	14.44
206.472	32.45
206.858	11
207.245	1.83
207.631	-3.17
208.017	39.73
208.403	22.62
208.789	32.44
209.175	35.81
209.561	28.91
209.947	13.54
210.333	26.21
210.719	11.62
211.105	-22.33
211.491	0.6
211.876	3.77
212.262	-10.88
212.648	-16.14
213.034	7.7
213.419	24.42
213.805	11.96
214.19	28
214.576	16.76
214.961	0.09
215.346	-10.65
215.732	5.6
216.117	29.6
216.502	-8.64
216.888	34.25
217.273	18.01
217.658	7.58
218.043	-4.8
218.428	21.94
218.813	1.57
219.198	33.89
219.583	3.02
219.968	9.25
220.353	2.52
220.738	8.08
221.122	-5.2
221.507	4.98
221.892	-2.19
222.276	11.22
222.661	-2.35
223.046	1.23
223.43	7.28
223.815	-6.56
224.199	13.33
224.583	-9.66
224.968	9.07
225.352	1.62
225.736	-3.33
226.121	4.92
226.505	2.62
226.889	-0.97
227.273	3.79
227.657	5.12
228.041	1.39
228.425	2.93
228.809	2.33
229.193	2.19
229.577	2.63
229.961	1.59
230.344	1.74
230.728	2.88
231.112	2.63
231.495	1.68
231.879	1.75
232.263	3.19
232.646	2.83
233.03	0.76
233.413	2.63
233.797	1.11
234.18	0.64
234.563	1.23
234.946	2.89
235.33	3.94
235.713	3.71
236.096	1.57
236.479	0.07
236.862	3.04
237.245	3.36
237.628	1.4
238.011	1.83
238.394	2.17
238.777	2.26
239.16	2.1
239.543	2.4
239.925	1.54
240.308	3.36
240.691	2.33
241.073	2.04
241.456	0.7
241.838	1.73
242.221	2.49
242.603	2.76
242.986	1.78
243.368	1.98
243.75	2.11
244.133	1.62
244.515	1.88
244.897	1.77
245.279	1.85
245.661	2.06
246.043	1.7
246.425	2.17
246.807	2.54
247.189	2.15
247.571	1.61
247.953	2.01
248.335	1.86
248.717	1.78
249.098	1.73
249.48	1.27
249.862	2.26
250.243	1.97
250.625	2.17
251.006	2.35
251.388	1.96
251.769	1.32
252.151	2.23
252.532	1.28
252.913	1.94
253.295	2.02
253.676	1.82
254.057	1.95
254.438	2.04
254.819	3.08
255.2	1.58
255.581	2.03
255.962	2.47
256.343	2.98
256.724	2.23
257.105	1.58
257.486	1.71
257.867	2.01
258.247	2.03
258.628	2.04
259.009	1.74
259.389	1.9
259.77	2.02
260.15	1.82
260.531	1.92
260.911	1.62
261.292	1.74
261.672	1.61
262.052	1.61
262.432	2.18
262.813	1.76
263.193	1.98
263.573	1.63
263.953	1.51
264.333	1.91
264.713	1.06
265.093	2.21
265.473	1.87
265.853	2.06
266.233	1.87
266.612	1.32
266.992	2.18
267.372	1.97
267.752	1.96
268.131	1.57
268.511	1.51
268.89	2.25
269.27	1.7
269.649	2.13
270.029	2.52
270.408	1.32
270.787	1.44
271.167	2.31
271.546	1.43
271.925	1.86
272.304	2.18
272.683	1.92
273.062	1.71
273.441	1.85
273.82	1.3
274.199	1.65
274.578	2
274.957	2.31
275.336	1.86
275.715	1.79
276.093	1.74
276.472	1.69
276.851	1.9
277.229	0.95
277.608	1.55
277.986	1.42
278.365	1.73
278.743	2.08
279.122	2.4
279.5	1.53
279.878	1.53
280.257	1.53
280.635	2.17
281.013	2.55
281.391	1.69
281.769	1.74
282.147	1.99
282.525	1.19
282.903	1.84
283.281	1.89
283.659	1.54
284.037	2.01
284.415	2.17
284.792	1.35
285.17	1.12
285.548	1.69
285.925	2
286.303	1.65
286.68	1.57
287.058	1.7
287.435	1.77
287.813	1.57
288.19	1.7
288.567	1.4
288.945	2.07
289.322	1.18
289.699	1.85
290.076	1.68
290.453	1.64
290.83	2.06
291.207	1.78
291.584	1.46
291.961	1.79
292.338	1.55
292.715	1.33
293.092	2.05
293.469	1.93
293.845	1.99
294.222	1.73
294.599	2.27
294.975	2.02
295.352	2.03
295.728	2.19
296.105	1.35
296.481	1.99
296.858	1.75
297.234	1.74
297.61	1.11
297.986	1.61
298.363	1.77
298.739	1.94
299.115	1.68
299.491	1.79
299.867	1.63
300.243	1.56
300.619	1.63
300.995	1.78
301.371	1.78
301.746	1.93
302.122	1.3
302.498	2.21
302.874	1.92
303.249	1.65
303.625	1.48
304	1.78
304.376	1.61
304.751	1.54
305.127	0.97
305.502	1.61
305.878	1.73
306.253	1.57
306.628	1.76
307.003	1.2
307.378	2.01
307.754	1.99
308.129	1.3
308.504	1.47
308.879	1.99
309.254	1.84
309.629	1.99
310.003	2.08
310.378	1.69
310.753	1.86
311.128	1.45
311.502	1.81
311.877	1.9
312.252	1.61
312.626	1.72
313.001	1.7
313.375	1.84
313.75	1.95
314.124	1.8
314.498	1.65
314.873	1.7
315.247	1.89
315.621	1.82
315.995	2.41
316.369	1.51
316.743	2.61
317.117	1.78
317.491	1.71
317.865	2.24
318.239	2.07
318.613	2.27
318.987	2.04
319.361	1.94
319.734	1.68
320.108	2
320.482	1.91
320.855	1.67
321.229	1.88
321.602	1.86
321.976	1.54
322.349	2.12
322.723	2.53
323.096	1.41
323.469	2.16
323.843	2.04
324.216	1.68
324.589	1.84
324.962	2.06
325.335	1.59
325.708	1.58
326.081	1.84
326.454	1.68
326.827	1.62
327.2	2.21
327.573	2.38
327.945	1.77
328.318	1.66
328.691	1.55
329.063	1.55
329.436	1.61
329.809	2.04
330.181	1.95
330.553	1.52
330.926	1.88
331.298	1.57
331.671	2.65
332.043	1.39
332.415	2.55
332.787	2.4
333.159	1.81
333.532	1.9
333.904	1.73
334.276	1.92
334.648	1.66
335.02	1.69
335.391	1.92
335.763	1.44
336.135	1.9
336.507	1.61
336.879	1.74
337.25	1.6
337.622	1.59
337.993	1.71
338.365	1.42
338.736	1.87
339.108	1.37
339.479	1.69
339.851	2.35
340.222	1.51
340.593	1.95
340.964	1.91
341.336	1.51
341.707	1.73
342.078	1.96
342.449	1.75
342.82	1.94
343.191	2.1
343.562	1.87
343.933	1.69
344.303	1.92
344.674	1.22
345.045	2
345.416	1.59
345.786	1.67
346.157	1.69
346.527	1.48
346.898	1.5
347.268	1.51
347.639	2.18
348.009	1.56
348.38	2.18
348.75	1.87
349.12	1.8
349.49	1.85
349.861	2.06
350.231	1.4
350.601	2.17
350.971	1.78
351.341	1.72
351.711	1.87
352.081	2.21
352.45	1.88
352.82	1.54
353.19	1.66
353.56	1.58
353.929	2.05
354.299	1.65
354.669	1.88
355.038	1.68
355.408	1.5
355.777	1.51
356.147	2.05
356.516	2.19
356.885	1.87
357.254	2.33
357.624	1.56
357.993	1.73
358.362	1.95
358.731	1.84
359.1	1.93
359.469	1.79
359.838	1.85
360.207	2.15
360.576	2.04
360.945	1.35
361.314	1.95
361.682	1.71
362.051	1.66
362.42	1.52
362.788	1.77
363.157	1.87
363.525	1.92
363.894	1.74
364.262	1.7
364.631	1.85
364.999	1.63
365.367	1.85
365.735	1.72
366.104	1.76
366.472	1.76
366.84	1.68
367.208	1.91
367.576	2.11
367.944	2.01
368.312	2.1
368.68	2.11
369.048	1.82
369.416	2.08
369.783	1.9
370.151	2.16
370.519	2.04
370.886	1.75
371.254	2.04
371.621	1.95
371.989	1.8
372.356	1.8
372.724	1.85
373.091	2.13
373.458	2.1
373.826	2.29
374.193	2.06
374.56	1.9
374.927	2.03
375.294	1.94
375.661	2.11
376.028	1.85
376.395	1.85
376.762	2
377.129	2.2
377.496	1.94
377.863	1.94
378.229	1.94
378.596	1.81
378.963	2.02
379.329	1.76
379.696	1.82
380.062	1.9
380.429	2.04
380.795	1.87
381.161	1.81
381.528	1.76
381.894	1.93
382.26	1.71
382.626	2.08
382.993	2.05
383.359	1.9
383.725	2.06
384.091	1.74
384.457	1.89
384.823	2.15
385.188	1.88
385.554	2.19
385.92	1.84
386.286	2.12
386.651	1.86
387.017	1.65
387.383	2.14
387.748	1.86
388.114	2.08
388.479	2.28
388.845	2.08
389.21	1.76
389.575	1.77
389.94	2.19
390.306	2.08
390.671	1.83
391.036	2
391.401	2.03
391.766	2.26
392.131	1.9
392.496	1.71
392.861	2.09
393.226	2.06
393.591	1.83
393.956	1.94
394.32	1.98
394.685	1.98
395.05	1.79
395.414	1.94
395.779	1.97
396.143	2.03
396.508	1.84
396.872	1.97
397.236	2.08
397.601	2.08
397.965	2.06
398.329	1.91
398.694	2.01
399.058	2.07
399.422	1.88
399.786	1.94
400.15	1.72
400.514	1.59
400.878	1.93
401.242	2.17
401.605	1.94
401.969	2.03
402.333	1.9
402.697	2.06
403.06	1.98
403.424	1.95
403.787	1.7
404.151	1.92
404.514	1.86
404.878	1.99
405.241	1.83
405.604	2.31
405.968	1.79
406.331	2.07
406.694	1.91
407.057	1.95
407.42	1.86
407.783	2.06
408.146	1.93
408.509	2.11
408.872	2.13
409.235	1.86
409.598	1.93
409.961	1.66
410.323	2.04
410.686	2.02
411.049	1.94
411.411	1.94
411.774	2.13
412.136	1.99
412.499	2.11
412.861	1.79
413.223	2.1
413.586	2.14
413.948	2.11
414.31	1.96
414.672	2.06
415.035	1.88
415.397	1.9
415.759	2.14
416.121	1.78
416.483	2.07
416.845	2.15
417.206	1.94
417.568	1.9
417.93	1.67
418.292	1.89
418.653	1.88
419.015	1.87
419.377	1.95
419.738	1.96
420.1	1.85
420.461	2
420.822	2.02
421.184	1.99
421.545	1.89
421.906	1.94
422.267	1.8
422.629	1.96
422.99	1.94
423.351	1.98
423.712	1.79
424.073	1.83
424.434	1.89
424.795	1.86
425.155	1.91
425.516	1.8
425.877	1.93
426.238	1.97
426.598	1.86
426.959	1.93
427.32	1.96
427.68	1.86
428.041	1.93
428.401	2.2
428.761	2.03
429.122	2.03
429.482	1.98
429.842	2.03
430.202	1.96
430.563	1.96
430.923	2.01
431.283	2.04
431.643	2.07
432.003	2.16
432.363	2.02
432.722	2.07
433.082	2.17
433.442	2.13
433.802	2.2
434.161	2.04
434.521	2.03
434.881	2.1
435.24	1.89
435.6	1.98
435.959	2.04
436.319	2.15
436.678	2.05
437.037	2.09
437.396	1.99
437.756	2.03
438.115	2.1
438.474	2
438.833	2.07
439.192	2.03
439.551	2
439.91	2.05
440.269	2.03
440.628	2.06
440.987	2.08
441.345	2.08
441.704	2.12
442.063	1.94
442.421	2.02
442.78	2.05
443.138	2.09
443.497	1.9
443.855	2.19
444.214	2.04
444.572	2.08
444.93	1.98
445.288	2.11
445.647	2.05
446.005	2.08
446.363	2.06
446.721	2.02
447.079	1.99
447.437	2.08
447.795	1.98
448.153	1.93
448.51	1.97
448.868	1.9
449.226	2.06
449.584	2.03
449.941	2.03
450.299	2.03
450.656	2.07
451.014	1.99
451.371	2.12
451.729	2.12
452.086	2.04
452.443	2.17
452.801	2.19
453.158	2.1
453.515	2
453.872	1.77
454.229	2.1
454.586	2.04
454.943	2.17
455.3	2.02
455.657	1.98
456.014	2.11
456.371	2.09
456.727	2.18
457.084	2.15
457.441	1.91
457.797	2.19
458.154	2.13
458.51	2.02
458.867	2.04
459.223	2.07
459.58	2.01
459.936	2.16
460.292	1.97
460.648	2.13
461.005	2.01
461.361	1.9
461.717	2.05
462.073	2.01
462.429	2.13
462.785	2.01
463.141	1.98
463.496	2.08
463.852	2.19
464.208	2.1
464.564	2.2
464.919	2.3
465.275	1.93
465.631	2.13
465.986	2.13
466.342	2.12
466.697	1.9
467.052	2.13
467.408	2
467.763	2.3
468.118	2.2
468.473	2.05
468.829	2.22
469.184	2.06
469.539	2.02
469.894	2.08
470.249	2.01
470.603	2.18
470.958	2.18
471.313	2.09
471.668	1.89
472.023	1.97
472.377	2.04
472.732	2.18
473.086	2.12
473.441	2.1
473.795	2.28
474.15	2.12
474.504	2.24
474.859	2
475.213	2.15
475.567	2.19
475.921	2.15
476.275	2.12
476.63	2.1
476.984	2.19
477.338	2
477.692	2.21
478.045	2.22
478.399	2.17
478.753	2.09
479.107	2.18
479.461	2.08
479.814	2.13
480.168	2.23
480.521	2.01
480.875	2.03
481.228	2.05
481.582	2.12
481.935	2.12
482.289	2.22
482.642	2.04
482.995	2.02
483.348	2.08
483.701	2.03
484.055	2.07
484.408	2.03
484.761	1.97
485.114	1.9
485.466	1.91
485.819	1.98
486.172	1.99
486.525	2.07
486.878	2.09
487.23	2.09
487.583	2.13
487.936	2.03
488.288	1.99
488.641	1.99
488.993	2.02
489.345	2
489.698	2.02
490.05	2.1
490.402	2.11
490.754	2.07
491.107	2.1
491.459	2.06
491.811	2.17
492.163	2.1
492.515	2.08
492.866	2.04
493.218	1.99
493.57	2.05
493.922	2.12
494.274	2.22
494.625	2.18
494.977	2.18
495.328	2.21
495.68	2.14
496.031	2.25
496.383	2.26
496.734	2.24
497.086	2.25
497.437	2.24
497.788	2.23
498.139	2.16
498.49	2.13
498.842	2.08
499.193	2.19
499.544	2.26
499.894	2.2
500.245	2.17
500.596	2.08
500.947	2.34
501.298	2.21
501.648	2.14
501.999	2.26
502.35	2.25
502.7	2.24
503.051	2.38
503.401	2.29
503.752	2.17
504.102	2.28
504.452	2.31
504.803	2.35
505.153	2.22
505.503	2.13
505.853	2.19
506.203	2.25
506.553	2.22
506.903	2.35
507.253	2.12
507.603	2.25
507.953	2.3
508.303	2.39
508.652	2.37
509.002	2.3
509.352	2.27
509.701	2.16
510.051	2.23
510.4	2.26
510.75	2.23
511.099	2.22
511.449	2.22
511.798	2.35
512.147	2.23
512.496	2.22
512.846	2.28
513.195	2.29
513.544	2.3
513.893	2.27
514.242	2.2
514.591	2.35
514.939	2.41
515.288	2.44
515.637	2.38
515.986	2.33
516.334	2.24
516.683	2.25
517.032	2.3
517.38	2.22
517.729	2.46
518.077	2.37
518.426	2.29
518.774	2.43
519.122	2.27
519.47	2.39
519.819	2.25
520.167	2.27
520.515	2.32
520.863	2.31
521.211	2.37
521.559	2.43
521.907	2.32
522.255	2.35
522.602	2.32
522.95	2.38
523.298	2.47
523.645	2.33
523.993	2.47
524.341	2.41
524.688	2.29
525.036	2.44
525.383	2.41
525.73	2.37
526.078	2.42
526.425	2.45
526.772	2.36
527.119	2.33
527.466	2.32
527.814	2.32
528.161	2.45
528.508	2.4
528.854	2.48
529.201	2.29
529.548	2.3
529.895	2.24
530.242	2.25
530.588	2.26
530.935	2.35
531.282	2.42
531.628	2.32
531.975	2.44
532.321	2.46
532.667	2.36
533.014	2.41
533.36	2.35
533.706	2.42
534.052	2.36
534.399	2.41
534.745	2.33
535.091	2.4
535.437	2.45
535.783	2.46
536.129	2.53
536.474	2.44
536.82	2.47
537.166	2.52
537.512	2.41
537.857	2.49
538.203	2.51
538.549	2.47
538.894	2.54
539.239	2.6
539.585	2.5
539.93	2.65
540.276	2.6
540.621	2.68
540.966	2.52
541.311	2.59
541.656	2.68
542.001	2.51
542.346	2.49
542.691	2.43
543.036	2.43
543.381	2.47
543.726	2.52
544.071	2.53
544.415	2.51
544.76	2.57
545.105	2.64
545.449	2.48
545.794	2.65
546.138	2.62
546.483	2.62
546.827	2.6
547.171	2.52
547.516	2.71
547.86	2.78
548.204	2.65
548.548	2.74
548.892	2.65
549.236	2.74
549.58	2.76
549.924	2.73
550.268	2.75
550.612	2.76
550.956	2.75
551.3	2.75
551.643	2.77
551.987	2.8
552.33	3.04
552.674	3.1
553.017	2.83
553.361	2.92
553.704	2.84
554.048	2.86
554.391	2.99
554.734	2.7
555.077	2.83
555.42	2.9
555.764	3.01
556.107	2.9
556.45	2.96
556.793	2.94
557.135	3.04
557.478	3.15
557.821	2.87
558.164	2.89
558.507	3.09
558.849	2.95
559.192	3.14
559.534	3.15
559.877	3.1
560.219	2.99
560.562	3.05
560.904	3.15
561.246	2.84
561.589	2.99
561.931	3.08
562.273	3.05
562.615	2.92
562.957	3.22
563.299	3.34
563.641	3.17
563.983	3.23
564.325	3.04
564.667	3.19
565.008	3.14
565.35	3.05
565.692	3.18
566.033	3.24
566.375	3.03
566.716	3.11
567.058	3.06
567.399	3.33
567.741	3.16
568.082	3.19
568.423	3.34
568.764	3.31
569.105	3.26
569.447	3.44
569.788	3.11
570.129	3.4
570.47	3.32
570.811	3.28
571.151	3.3
571.492	3.41
571.833	3.39
572.174	3.2
572.514	3.3
572.855	3.43
573.195	3.35
573.536	3.22
573.876	3.35
574.217	3.28
574.557	3.33
574.898	3.42
575.238	3.56
575.578	3.51
575.918	3.53
576.258	3.41
576.598	3.29
576.938	3.4
577.278	3.45
577.618	3.35
577.958	3.7
578.298	3.47
578.638	3.51
578.977	3.53
579.317	3.14
579.657	3.52
579.996	3.85
580.336	3.46
580.675	3.49
581.014	3.58
581.354	3.65
581.693	3.7
582.032	3.63
582.372	3.59
582.711	3.59
583.05	3.67
583.389	3.65
583.728	3.74
584.067	3.72
584.406	3.71
584.745	3.88
585.083	3.87
585.422	3.73
585.761	3.8
586.1	3.85
586.438	3.97
586.777	3.94
587.115	3.85
587.454	3.9
587.792	3.68
588.13	3.8
588.469	3.97
588.807	3.95
589.145	3.83
589.483	3.95
589.821	3.69
590.159	3.83
590.497	3.97
590.835	4.06
591.173	4.09
591.511	4.08
591.849	4.18
592.187	4.05
592.524	4.07
592.862	4.12
593.2	4.11
593.537	4.12
593.875	3.9
594.212	4.12
594.55	4.2
594.887	4.15
595.224	4.19
595.561	4.15
595.899	4.17
596.236	4.29
596.573	3.98
596.91	4.45
597.247	4.21
597.584	4.23
597.921	4.15
598.258	4.26
598.594	4.31
598.931	4.34
599.268	4.31
599.604	4.18
599.941	4.47
600.277	4.31
600.614	4.21
600.95	4.54
601.287	4.29
601.623	4.39
601.959	4.46
602.296	4.43
602.632	4.52
602.968	4.62
603.304	4.43
603.64	4.49
603.976	4.65
604.312	4.58
604.648	4.57
604.984	4.43
605.319	4.51
605.655	4.41
605.991	4.36
606.326	4.58
606.662	4.54
606.998	4.58
607.333	4.49
607.668	4.79
608.004	4.75
608.339	4.55
608.674	4.41
609.01	4.47
609.345	4.63
609.68	4.92
610.015	4.76
610.35	4.96
610.685	4.8
611.02	5
611.355	4.82
611.689	4.96
612.024	4.81
612.359	4.79
612.694	4.92
613.028	5.02
613.363	4.8
613.697	5.18
614.032	4.95
614.366	5.12
614.7	5.1
615.035	4.92
615.369	4.91
615.703	4.84
616.037	5.23
616.371	5.13
616.705	5.57
617.039	5.05
617.373	5.16
617.707	5
618.041	5.36
618.375	4.98
618.709	5.41
619.042	5.15
619.376	5.19
619.71	5.13
620.043	5.41
620.377	5.51
620.71	5.28
621.043	5.46
621.377	5.33
621.71	5.48
622.043	5.31
622.376	5.27
622.709	5.51
623.043	5.53
623.376	5.33
623.709	5.55
624.041	5.46
624.374	5.82
624.707	5.51
625.04	5.16
625.373	5.9
625.705	5.6
626.038	5.74
626.37	5.49
626.703	5.82
627.035	5.56
627.368	5.44
627.7	5.65
628.032	5.51
628.365	5.57
628.697	5.38
629.029	5.43
629.361	5.82
629.693	5.47
630.025	5.59
630.357	5.8
630.689	5.84
631.021	5.78
631.353	5.62
631.684	5.86
632.016	5.97
632.348	6.11
632.679	6.29
633.011	5.88
633.342	5.97
633.674	5.78
634.005	6.04
634.336	6.05
634.668	6.1
634.999	6.01
635.33	5.74
635.661	5.92
635.992	5.89
636.323	6.22
636.654	6.11
636.985	5.93
637.316	5.97
637.647	5.86
637.977	6.14
638.308	6.1
638.639	6.19
638.969	5.81
639.3	6.07
639.63	6.57
639.961	6.63
640.291	6.04
640.622	6.16
640.952	6.58
641.282	6.48
641.612	6.37
641.943	6.35
642.273	6.89
642.603	6.19
642.933	6.33
643.263	6.08
643.592	6.29
643.922	6.3
644.252	6.37
644.582	6.08
644.911	5.98
645.241	6.63
645.571	6.34
645.9	6.56
646.23	6.53
646.559	6.73
646.888	6.67
647.218	6.6
647.547	6.75
647.876	6.88
648.205	7.03
648.534	6.79
648.863	6.37
649.192	6.61
649.521	7.32
649.85	6.94
650.179	7.04
650.508	6.89
650.837	6.47
651.165	6.8
651.494	7.1
651.822	7.08
652.151	6.81
652.479	6.91
652.808	7.02
653.136	7.13
653.465	6.69
653.793	6.83
654.121	7.07
654.449	6.92
654.777	6.69
655.105	7
655.433	7.17
655.761	7.26
656.089	7.26
656.417	7.05
656.745	6.92
657.073	7.54
657.4	7.02
657.728	7.47
658.056	7.3
658.383	7.1
658.711	7.58
659.038	7.21
659.365	7.35
659.693	6.94
660.02	7.13
660.347	7.4
660.674	7.46
661.001	7.31
661.329	7.14
661.656	7.38
661.982	7.18
662.309	7.06
662.636	7.14
662.963	7.26
663.29	7.14
663.616	7.67
663.943	7.4
664.27	7.53
664.596	7.12
664.923	7.44
665.249	7.96
665.576	7.76
665.902	7.72
666.228	8.22
666.554	7.7
666.881	7.67
667.207	7.87
667.533	8.22
667.859	7.37
668.185	7.33
668.511	7.79
668.837	8.23
669.162	7.64
669.488	7.74
669.814	8.16
670.139	7.77
670.465	7.89
670.791	7.36
671.116	8.1
671.442	7.99
671.767	7.86
672.092	7.68
672.418	7.38
672.743	7.92
673.068	8.25
673.393	8.04
673.718	7.85
674.043	7.95
674.368	8.56
674.693	7.79
675.018	8.05
675.343	7.7
675.667	8.96
675.992	8.26
676.317	7.99
676.641	7.63
676.966	9.25
677.29	8.38
677.615	7.78
677.939	8.87
678.264	8.09
678.588	7.77
678.912	8.26
679.236	8.76
679.56	7.86
679.885	7.91
680.209	8.84
680.532	7.47
680.856	8.26
681.18	8.07
681.504	7.76
681.828	8.72
682.152	8.13
682.475	8.52
682.799	8.42
683.122	8.51
683.446	8.81
683.769	8.72
684.093	8.25
684.416	9.52
684.739	8.64
685.062	9.3
685.386	8.63
685.709	8.93
686.032	9.08
686.355	9.27
686.678	9.29
687.001	9.56
687.324	9.25
687.646	8.97
687.969	8.63
688.292	8.64
688.614	8.76
688.937	8.48
689.26	9.04
689.582	9.02
689.904	9.16
690.227	9.05
690.549	8.9
690.871	9.41
691.194	8.73
691.516	9.01
691.838	8.82
692.16	9.21
692.482	9.51
692.804	9.1
693.126	9.54
693.448	10.06
693.769	9.44
