Data from 0022_crown_Reflection__0__36.txt Node

Date: Thu Oct 20 20:37:58 CDT 2022
User: ToomeyLab
Spectrometer: FLMS14357
Trigger mode: 0
Integration Time (sec): 1.000000E-2
Scans to average: 100
Electric dark correction enabled: true
Nonlinearity correction enabled: false
Boxcar width: 0
XAxis mode: Wavelengths
Number of Pixels in Spectrum: 2048
>>>>>Begin Spectral Data<<<<<
189.047	173.79
189.435	173.79
189.823	173.79
190.211	31.92
190.599	92.93
190.987	-66.01
191.375	-66.19
191.763	89.69
192.151	143.52
192.538	85.02
192.926	76.23
193.314	129.53
193.702	65.04
194.089	48.22
194.477	-942.77
194.864	77.59
195.252	195.88
195.639	170.03
196.027	-8.25
196.414	-2734.91
196.801	495.36
197.189	251.93
197.576	937.22
197.963	-11.29
198.351	30.48
198.738	29.7
199.125	19.36
199.512	-25.51
199.899	5.17
200.286	18.66
200.673	41.96
201.06	39.94
201.447	8.05
201.833	-8.99
202.22	41.09
202.607	26.25
202.994	22.63
203.38	-26.23
203.767	4.51
204.154	3.11
204.54	-17.38
204.927	8.72
205.313	33.55
205.699	24.46
206.086	41.9
206.472	18
206.858	29.78
207.245	25.7
207.631	-23.27
208.017	20.72
208.403	34.35
208.789	29.4
209.175	51.82
209.561	11.91
209.947	19.3
210.333	39.97
210.719	13.7
211.105	-0.6
211.491	23.09
211.876	29.65
212.262	-25.24
212.648	0.53
213.034	-2.03
213.419	25.23
213.805	34.14
214.19	-11.47
214.576	6.93
214.961	-8.56
215.346	-9.61
215.732	3.49
216.117	22.15
216.502	10.3
216.888	18.73
217.273	37.53
217.658	17.98
218.043	19.76
218.428	13.34
218.813	-22.07
219.198	27.91
219.583	15.61
219.968	29.44
220.353	13.18
220.738	11.55
221.122	0.7
221.507	4.93
221.892	6.98
222.276	17.11
222.661	5.27
223.046	10.48
223.43	5.38
223.815	-11.54
224.199	7.8
224.583	11.67
224.968	10.2
225.352	6.36
225.736	5.83
226.121	9.25
226.505	9.59
226.889	6.8
227.273	2.78
227.657	5.21
228.041	7.98
228.425	7.25
228.809	6.55
229.193	5.96
229.577	4.2
229.961	4.41
230.344	5.36
230.728	6.21
231.112	4.97
231.495	5.25
231.879	5.76
232.263	5.99
232.646	4.75
233.03	3.12
233.413	4.54
233.797	5.9
234.18	2.82
234.563	3.74
234.946	4.86
235.33	4.43
235.713	6.85
236.096	5.9
236.479	3.67
236.862	5.83
237.245	5.33
237.628	5.24
238.011	4.9
238.394	5.94
238.777	5.31
239.16	4.86
239.543	4.15
239.925	5.03
240.308	5.68
240.691	4.57
241.073	5
241.456	5.28
241.838	4.2
242.221	5.17
242.603	4.91
242.986	4.74
243.368	4.73
243.75	4.67
244.133	4.41
244.515	4.48
244.897	4.54
245.279	4.79
245.661	4.29
246.043	4.72
246.425	4.46
246.807	4.35
247.189	4.55
247.571	3.74
247.953	4.23
248.335	4.1
248.717	4.3
249.098	4.15
249.48	4.17
249.862	4.03
250.243	4.1
250.625	4.49
251.006	5.01
251.388	4.7
251.769	4.41
252.151	4.8
252.532	4.67
252.913	4.27
253.295	4.29
253.676	4.06
254.057	4.36
254.438	5.09
254.819	4.77
255.2	4.23
255.581	3.98
255.962	4.78
256.343	5.19
256.724	4.94
257.105	4.77
257.486	3.91
257.867	4.84
258.247	4.24
258.628	3.77
259.009	3.96
259.389	3.4
259.77	4.07
260.15	3.65
260.531	4.25
260.911	3.64
261.292	3.66
261.672	3.83
262.052	4.07
262.432	4.03
262.813	4.34
263.193	3.3
263.573	3.5
263.953	4.16
264.333	4.11
264.713	3.48
265.093	4.42
265.473	5.18
265.853	3.59
266.233	4.24
266.612	3.72
266.992	4.92
267.372	3.95
267.752	3.28
268.131	3.27
268.511	3.58
268.89	3.95
269.27	4.29
269.649	3.66
270.029	4.07
270.408	3.41
270.787	3.37
271.167	4.24
271.546	3.78
271.925	3.5
272.304	4.01
272.683	3.8
273.062	3.95
273.441	4.09
273.82	3.42
274.199	3.86
274.578	4.21
274.957	4.44
275.336	4.32
275.715	3.76
276.093	3.98
276.472	4.08
276.851	3.97
277.229	2.89
277.608	3.4
277.986	3.15
278.365	2.95
278.743	3.65
279.122	4.25
279.5	3.37
279.878	3.61
280.257	3.49
280.635	3.57
281.013	4.22
281.391	3.28
281.769	3.46
282.147	3.75
282.525	3.85
282.903	3.48
283.281	3.66
283.659	3.29
284.037	3.75
284.415	3.78
284.792	3.39
285.17	3.35
285.548	3.16
285.925	3.68
286.303	3.77
286.68	3.51
287.058	3.3
287.435	3.19
287.813	3.24
288.19	3.54
288.567	3.45
288.945	3.46
289.322	3.09
289.699	4.2
290.076	3.7
290.453	3.39
290.83	3.18
291.207	3.93
291.584	3.1
291.961	3.41
292.338	3.15
292.715	3.32
293.092	3.86
293.469	4.04
293.845	3.22
294.222	2.9
294.599	3.87
294.975	3.62
295.352	3.61
295.728	3.92
296.105	3.24
296.481	3.41
296.858	3.54
297.234	2.93
297.61	3.21
297.986	3.02
298.363	3.22
298.739	3.4
299.115	3.32
299.491	3.52
299.867	3.01
300.243	3.46
300.619	3.15
300.995	3.1
301.371	3.39
301.746	3.43
302.122	3.03
302.498	3.45
302.874	3.11
303.249	3.3
303.625	3.15
304	3.57
304.376	3.42
304.751	3.09
305.127	2.58
305.502	2.91
305.878	3.02
306.253	3.37
306.628	3.07
307.003	3.14
307.378	3.42
307.754	3.18
308.129	3.14
308.504	2.96
308.879	3.91
309.254	3.06
309.629	3.35
310.003	3.26
310.378	3.36
310.753	3.48
311.128	2.79
311.502	3.18
311.877	3.11
312.252	3.41
312.626	3.04
313.001	3.08
313.375	3.39
313.75	3.12
314.124	3.03
314.498	2.88
314.873	3.15
315.247	3.26
315.621	3.16
315.995	3.15
316.369	2.73
316.743	3.24
317.117	2.58
317.491	2.75
317.865	3.92
318.239	3.45
318.613	3.43
318.987	3.76
319.361	3.24
319.734	3.17
320.108	3.25
320.482	3.04
320.855	2.9
321.229	3.21
321.602	3.28
321.976	3.23
322.349	2.77
322.723	3.79
323.096	2.93
323.469	2.96
323.843	3.58
324.216	2.78
324.589	3.16
324.962	3.54
325.335	2.7
325.708	3.27
326.081	3.22
326.454	3.06
326.827	3.36
327.2	3.13
327.573	3.09
327.945	3.32
328.318	2.95
328.691	2.75
329.063	2.97
329.436	2.57
329.809	3.22
330.181	3.37
330.553	2.78
330.926	3.13
331.298	2.46
331.671	3.41
332.043	3.63
332.415	3.64
332.787	3.07
333.159	3.13
333.532	3.1
333.904	2.9
334.276	2.95
334.648	2.63
335.02	2.91
335.391	3.18
335.763	3.19
336.135	2.85
336.507	3.09
336.879	2.76
337.25	3.16
337.622	2.85
337.993	3.39
338.365	3.53
338.736	2.92
339.108	2.84
339.479	3.04
339.851	3.42
340.222	2.89
340.593	3.06
340.964	2.85
341.336	3.04
341.707	3.41
342.078	2.94
342.449	3.15
342.82	2.6
343.191	3.32
343.562	3.3
343.933	2.94
344.303	2.91
344.674	2.72
345.045	3.22
345.416	2.8
345.786	3.06
346.157	3.1
346.527	2.81
346.898	2.98
347.268	3.09
347.639	3.43
348.009	3.1
348.38	3.44
348.75	3.26
349.12	2.93
349.49	2.72
349.861	3.56
350.231	2.98
350.601	3.18
350.971	3.22
351.341	3.15
351.711	3.25
352.081	3.63
352.45	3.52
352.82	2.87
353.19	3.16
353.56	2.96
353.929	3.29
354.299	2.92
354.669	3.43
355.038	2.98
355.408	3.16
355.777	3.21
356.147	3.05
356.516	3.59
356.885	3.28
357.254	3.53
357.624	2.95
357.993	2.92
358.362	3.05
358.731	3.2
359.1	3.13
359.469	3.33
359.838	3.48
360.207	3.55
360.576	3.19
360.945	3.1
361.314	3.09
361.682	2.94
362.051	3.13
362.42	3.09
362.788	2.97
363.157	3.07
363.525	3.34
363.894	3.32
364.262	3.16
364.631	3.43
364.999	3.07
365.367	3.19
365.735	3.54
366.104	3.48
366.472	3.06
366.84	3.03
367.208	3.32
367.576	3.43
367.944	3.4
368.312	3.26
368.68	3.69
369.048	3.06
369.416	3.41
369.783	3.62
370.151	3.7
370.519	3.71
370.886	3.46
371.254	3.42
371.621	3.32
371.989	2.82
372.356	3.57
372.724	3.68
373.091	3.57
373.458	3.46
373.826	3.2
374.193	3.63
374.56	3.52
374.927	3.28
375.294	3.35
375.661	3.29
376.028	3.31
376.395	3.2
376.762	3.32
377.129	3.5
377.496	3.23
377.863	3.55
378.229	3.19
378.596	3.25
378.963	3.18
379.329	3.2
379.696	3.43
380.062	3.74
380.429	3.53
380.795	3.1
381.161	3.34
381.528	3.16
381.894	3.32
382.26	3.2
382.626	3.34
382.993	3.45
383.359	3.54
383.725	3.06
384.091	3.06
384.457	3.22
384.823	3.34
385.188	3.37
385.554	3.42
385.92	3.42
386.286	3.47
386.651	3.52
387.017	3.28
387.383	3.45
387.748	3.2
388.114	3.4
388.479	3.5
388.845	3.51
389.21	3.45
389.575	3.45
389.94	3.71
390.306	3.22
390.671	3.19
391.036	3.45
391.401	3.17
391.766	3.54
392.131	3.47
392.496	3.36
392.861	3.46
393.226	3.37
393.591	3.31
393.956	3.06
394.32	3.34
394.685	3.31
395.05	3.05
395.414	3.49
395.779	3.56
396.143	3.4
396.508	3.28
396.872	3.4
397.236	3.6
397.601	3.46
397.965	3.37
398.329	3.19
398.694	3.37
399.058	3.6
399.422	3.24
399.786	3.47
400.15	3.35
400.514	3.36
400.878	3.41
401.242	3.58
401.605	3.41
401.969	3.45
402.333	3.58
402.697	3.46
403.06	3.36
403.424	3.43
403.787	3.35
404.151	3.69
404.514	3.32
404.878	3.48
405.241	3.33
405.604	3.76
405.968	3.24
406.331	3.49
406.694	3.47
407.057	3.49
407.42	3.49
407.783	3.38
408.146	3.63
408.509	3.44
408.872	3.55
409.235	3.35
409.598	3.42
409.961	3.39
410.323	3.23
410.686	3.38
411.049	3.35
411.411	3.54
411.774	3.46
412.136	3.57
412.499	3.42
412.861	3.5
413.223	3.52
413.586	3.46
413.948	3.6
414.31	3.5
414.672	3.6
415.035	3.61
415.397	3.32
415.759	3.61
416.121	3.42
416.483	3.59
416.845	3.51
417.206	3.49
417.568	3.43
417.93	3.16
418.292	3.54
418.653	3.32
419.015	3.55
419.377	3.37
419.738	3.47
420.1	3.34
420.461	3.42
420.822	3.42
421.184	3.35
421.545	3.31
421.906	3.22
422.267	3.32
422.629	3.37
422.99	3.33
423.351	3.42
423.712	3.29
424.073	3.3
424.434	3.35
424.795	3.28
425.155	3.32
425.516	3.3
425.877	3.27
426.238	3.5
426.598	3.39
426.959	3.32
427.32	3.43
427.68	3.34
428.041	3.5
428.401	3.61
428.761	3.58
429.122	3.5
429.482	3.62
429.842	3.43
430.202	3.49
430.563	3.44
430.923	3.5
431.283	3.54
431.643	3.49
432.003	3.51
432.363	3.55
432.722	3.54
433.082	3.52
433.442	3.47
433.802	3.47
434.161	3.58
434.521	3.44
434.881	3.37
435.24	3.41
435.6	3.49
435.959	3.43
436.319	3.47
436.678	3.49
437.037	3.51
437.396	3.49
437.756	3.41
438.115	3.42
438.474	3.55
438.833	3.47
439.192	3.49
439.551	3.37
439.91	3.62
440.269	3.4
440.628	3.5
440.987	3.57
441.345	3.37
441.704	3.42
442.063	3.34
442.421	3.42
442.78	3.42
443.138	3.58
443.497	3.43
443.855	3.54
444.214	3.55
444.572	3.45
444.93	3.49
445.288	3.58
445.647	3.44
446.005	3.5
446.363	3.47
446.721	3.44
447.079	3.38
447.437	3.41
447.795	3.36
448.153	3.35
448.51	3.4
448.868	3.49
449.226	3.44
449.584	3.46
449.941	3.47
450.299	3.44
450.656	3.52
451.014	3.41
451.371	3.51
451.729	3.65
452.086	3.44
452.443	3.53
452.801	3.47
453.158	3.4
453.515	3.41
453.872	3.34
454.229	3.53
454.586	3.46
454.943	3.63
455.3	3.67
455.657	3.59
456.014	3.68
456.371	3.54
456.727	3.71
457.084	3.46
457.441	3.57
457.797	3.59
458.154	3.55
458.51	3.55
458.867	3.54
459.223	3.38
459.58	3.39
459.936	3.48
460.292	3.4
460.648	3.46
461.005	3.31
461.361	3.34
461.717	3.44
462.073	3.43
462.429	3.67
462.785	3.41
463.141	3.61
463.496	3.5
463.852	3.68
464.208	3.65
464.564	3.66
464.919	3.66
465.275	3.59
465.631	3.5
465.986	3.65
466.342	3.53
466.697	3.41
467.052	3.6
467.408	3.53
467.763	3.59
468.118	3.54
468.473	3.49
468.829	3.54
469.184	3.4
469.539	3.45
469.894	3.47
470.249	3.46
470.603	3.62
470.958	3.54
471.313	3.55
471.668	3.42
472.023	3.47
472.377	3.54
472.732	3.6
473.086	3.47
473.441	3.52
473.795	3.6
474.15	3.48
474.504	3.52
474.859	3.42
475.213	3.53
475.567	3.5
475.921	3.42
476.275	3.63
476.63	3.53
476.984	3.55
477.338	3.66
477.692	3.63
478.045	3.66
478.399	3.6
478.753	3.52
479.107	3.49
479.461	3.39
479.814	3.39
480.168	3.42
480.521	3.44
480.875	3.51
481.228	3.43
481.582	3.37
481.935	3.51
482.289	3.44
482.642	3.44
482.995	3.34
483.348	3.41
483.701	3.41
484.055	3.31
484.408	3.26
484.761	3.17
485.114	3.03
485.466	3.09
485.819	3.2
486.172	3.29
486.525	3.44
486.878	3.41
487.23	3.39
487.583	3.34
487.936	3.3
488.288	3.25
488.641	3.21
488.993	3.23
489.345	3.22
489.698	3.26
490.05	3.34
490.402	3.38
490.754	3.41
491.107	3.44
491.459	3.43
491.811	3.42
492.163	3.4
492.515	3.25
492.866	3.16
493.218	3.16
493.57	3.27
493.922	3.4
494.274	3.5
494.625	3.43
494.977	3.4
495.328	3.58
495.68	3.37
496.031	3.51
496.383	3.42
496.734	3.38
497.086	3.46
497.437	3.36
497.788	3.47
498.139	3.31
498.49	3.36
498.842	3.31
499.193	3.36
499.544	3.52
499.894	3.39
500.245	3.43
500.596	3.42
500.947	3.56
501.298	3.44
501.648	3.42
501.999	3.51
502.35	3.51
502.7	3.51
503.051	3.49
503.401	3.49
503.752	3.44
504.102	3.28
504.452	3.43
504.803	3.57
505.153	3.44
505.503	3.37
505.853	3.39
506.203	3.44
506.553	3.31
506.903	3.43
507.253	3.41
507.603	3.44
507.953	3.49
508.303	3.52
508.652	3.42
509.002	3.41
509.352	3.36
509.701	3.38
510.051	3.41
510.4	3.42
510.75	3.38
511.099	3.33
511.449	3.42
511.798	3.52
512.147	3.42
512.496	3.32
512.846	3.4
513.195	3.41
513.544	3.4
513.893	3.32
514.242	3.42
514.591	3.52
514.939	3.44
515.288	3.55
515.637	3.42
515.986	3.42
516.334	3.51
516.683	3.42
517.032	3.39
517.38	3.44
517.729	3.61
518.077	3.43
518.426	3.41
518.774	3.4
519.122	3.27
519.47	3.23
519.819	3.3
520.167	3.32
520.515	3.33
520.863	3.33
521.211	3.43
521.559	3.49
521.907	3.41
522.255	3.32
522.602	3.44
522.95	3.4
523.298	3.39
523.645	3.3
523.993	3.44
524.341	3.51
524.688	3.38
525.036	3.37
525.383	3.39
525.73	3.34
526.078	3.36
526.425	3.33
526.772	3.23
527.119	3.33
527.466	3.28
527.814	3.34
528.161	3.46
528.508	3.29
528.854	3.35
529.201	3.21
529.548	3.13
529.895	3.04
530.242	3.09
530.588	3.17
530.935	3.28
531.282	3.38
531.628	3.36
531.975	3.36
532.321	3.38
532.667	3.32
533.014	3.3
533.36	3.29
533.706	3.33
534.052	3.2
534.399	3.19
534.745	3.21
535.091	3.22
535.437	3.3
535.783	3.39
536.129	3.38
536.474	3.39
536.82	3.31
537.166	3.38
537.512	3.36
537.857	3.33
538.203	3.36
538.549	3.35
538.894	3.39
539.239	3.4
539.585	3.36
539.93	3.38
540.276	3.43
540.621	3.31
540.966	3.36
541.311	3.35
541.656	3.31
542.001	3.22
542.346	3.21
542.691	3.1
543.036	3.12
543.381	3.23
543.726	3.26
544.071	3.33
544.415	3.29
544.76	3.35
545.105	3.37
545.449	3.33
545.794	3.37
546.138	3.46
546.483	3.39
546.827	3.32
547.171	3.27
547.516	3.36
547.86	3.36
548.204	3.33
548.548	3.32
548.892	3.39
549.236	3.39
549.58	3.39
549.924	3.5
550.268	3.42
550.612	3.47
550.956	3.36
551.3	3.41
551.643	3.37
551.987	3.43
552.33	3.6
552.674	3.58
553.017	3.48
553.361	3.58
553.704	3.35
554.048	3.19
554.391	3.4
554.734	3.43
555.077	3.43
555.42	3.33
555.764	3.52
556.107	3.55
556.45	3.5
556.793	3.49
557.135	3.35
557.478	3.5
557.821	3.43
558.164	3.31
558.507	3.43
558.849	3.38
559.192	3.54
559.534	3.6
559.877	3.52
560.219	3.46
560.562	3.4
560.904	3.63
561.246	3.21
561.589	3.41
561.931	3.32
562.273	3.4
562.615	3.5
562.957	3.4
563.299	3.46
563.641	3.46
563.983	3.36
564.325	3.38
564.667	3.49
565.008	3.37
565.35	3.28
565.692	3.44
566.033	3.37
566.375	3.25
566.716	3.29
567.058	3.25
567.399	3.44
567.741	3.27
568.082	3.34
568.423	3.36
568.764	3.42
569.105	3.38
569.447	3.51
569.788	3.43
570.129	3.57
570.47	3.5
570.811	3.29
571.151	3.41
571.492	3.45
571.833	3.59
572.174	3.51
572.514	3.27
572.855	3.42
573.195	3.37
573.536	3.32
573.876	3.3
574.217	3.32
574.557	3.34
574.898	3.32
575.238	3.49
575.578	3.42
575.918	3.36
576.258	3.28
576.598	3.3
576.938	3.26
577.278	3.41
577.618	3.21
577.958	3.57
578.298	3.44
578.638	3.27
578.977	3.48
579.317	3.15
579.657	3.45
579.996	3.4
580.336	3.34
580.675	3.16
581.014	3.46
581.354	3.56
581.693	3.49
582.032	3.4
582.372	3.31
582.711	3.24
583.05	3.37
583.389	3.32
583.728	3.45
584.067	3.55
584.406	3.34
584.745	3.49
585.083	3.43
585.422	3.46
585.761	3.56
586.1	3.39
586.438	3.41
586.777	3.46
587.115	3.42
587.454	3.68
587.792	3.29
588.13	3.31
588.469	3.36
588.807	3.52
589.145	3.47
589.483	3.34
589.821	3.22
590.159	3.16
590.497	3.33
590.835	3.38
591.173	3.31
591.511	3.43
591.849	3.34
592.187	3.31
592.524	3.25
592.862	3.35
593.2	3.21
593.537	3.4
593.875	3.37
594.212	3.35
594.55	3.35
594.887	3.47
595.224	3.22
595.561	3.55
595.899	3.37
596.236	3.47
596.573	3.22
596.91	3.38
597.247	3.34
597.584	3.38
597.921	3.29
598.258	3.36
598.594	3.11
598.931	3.16
599.268	3.17
599.604	3.28
599.941	3.46
600.277	3.44
600.614	3.32
600.95	3.55
601.287	3.47
601.623	3.44
601.959	3.49
602.296	3.32
602.632	3.35
602.968	3.46
603.304	3.1
603.64	3.23
603.976	3.38
604.312	3.38
604.648	3.16
604.984	3.25
605.319	3.39
605.655	3.32
605.991	3.03
606.326	3.39
606.662	3.23
606.998	3.4
607.333	3.21
607.668	3.33
608.004	3.2
608.339	3.38
608.674	3.4
609.01	3.11
609.345	3.33
609.68	3.4
610.015	3.47
610.35	3.45
610.685	3.21
611.02	3.23
611.355	3.31
611.689	3.2
612.024	3.31
612.359	3.27
612.694	3.34
613.028	3.45
613.363	2.98
613.697	3.48
614.032	3.34
614.366	3.36
614.7	3.34
615.035	3.23
615.369	3.24
615.703	3.42
616.037	3.3
616.371	3.31
616.705	3.35
617.039	3.59
617.373	3.64
617.707	3.22
618.041	3.4
618.375	3.35
618.709	3.6
619.042	3.23
619.376	2.88
619.71	3.2
620.043	3.47
620.377	3.31
620.71	3.14
621.043	3.39
621.377	3.39
621.71	3.34
622.043	3.43
622.376	3.47
622.709	3.35
623.043	3.79
623.376	3.09
623.709	3.68
624.041	3.22
624.374	3.6
624.707	3.12
625.04	3.12
625.373	3.5
625.705	3.39
626.038	3.31
626.37	3.46
626.703	3.46
627.035	3.49
627.368	3.3
627.7	3.43
628.032	3.51
628.365	3.34
628.697	2.98
629.029	3.35
629.361	3.49
629.693	3
630.025	3.23
630.357	3.27
630.689	3.5
631.021	3.33
631.353	3.31
631.684	3.45
632.016	3.45
632.348	3.21
632.679	3.63
633.011	2.93
633.342	3.36
633.674	3.23
634.005	3.73
634.336	3.42
634.668	3.25
634.999	3.17
635.33	3
635.661	3.38
635.992	3.46
636.323	3.79
636.654	3.14
636.985	3.31
637.316	3.13
637.647	3.11
637.977	3.54
638.308	3.16
638.639	2.94
638.969	3
639.3	3.26
639.63	3.55
639.961	3.55
640.291	2.97
640.622	2.87
640.952	3.46
641.282	3.32
641.612	3.77
641.943	4.08
642.273	3.72
642.603	3.2
642.933	3.55
643.263	3.2
643.592	3.14
643.922	3.48
644.252	3.53
644.582	3.22
644.911	3.11
645.241	3.51
645.571	3.47
645.9	3.56
646.23	3.35
646.559	3.33
646.888	3.34
647.218	3.57
647.547	3.7
647.876	3.58
648.205	3.67
648.534	3.46
648.863	3.04
649.192	3.55
649.521	3.8
649.85	4.04
650.179	3.46
650.508	3.66
650.837	3.5
651.165	3.29
651.494	3.48
651.822	3.29
652.151	3.14
652.479	3.65
652.808	3.55
653.136	3.37
653.465	3.2
653.793	3.07
654.121	3.27
654.449	3.36
654.777	3.03
655.105	3.38
655.433	3.78
655.761	3.5
656.089	3.34
656.417	3.17
656.745	3.12
657.073	3.55
657.4	3.39
657.728	3.82
658.056	3.42
658.383	3.61
658.711	3.76
659.038	3.42
659.365	2.88
659.693	3.24
660.02	3.02
660.347	3.55
660.674	3.21
661.001	3.45
661.329	3.18
661.656	3.15
661.982	3
662.309	3.18
662.636	3.37
662.963	3.46
663.29	3.14
663.616	3.57
663.943	3.21
664.27	3.49
664.596	3.22
664.923	3.34
665.249	3.61
665.576	3.38
665.902	3.42
666.228	4.15
666.554	3.2
666.881	3.73
667.207	3.26
667.533	3.75
667.859	3.76
668.185	3.45
668.511	3.48
668.837	3.3
669.162	3.36
669.488	3.12
669.814	3.82
670.139	3.73
670.465	3.08
670.791	2.58
671.116	3.7
671.442	3.71
671.767	3.63
672.092	3.55
672.418	3.18
672.743	3.49
673.068	3.43
673.393	3.46
673.718	3.77
674.043	3.5
674.368	3.88
674.693	3.24
675.018	4.14
675.343	3.15
675.667	3.5
675.992	3.79
676.317	3.46
676.641	2.78
676.966	4.15
677.29	3.46
677.615	3.27
677.939	3.58
678.264	4.01
678.588	3.8
678.912	2.74
679.236	3.76
679.56	3.25
679.885	3.72
680.209	3.31
680.532	3.1
680.856	3.41
681.18	2.99
681.504	3.3
681.828	3.69
682.152	3.18
682.475	3.49
682.799	2.99
683.122	3.38
683.446	3.86
683.769	3.85
684.093	3.75
684.416	4.1
684.739	3.66
685.062	3.84
685.386	3.87
685.709	3.92
686.032	3.96
686.355	3.59
686.678	3.26
687.001	3.77
687.324	3.91
687.646	4.24
687.969	4.34
688.292	3.35
688.614	4.05
688.937	2.98
689.26	3.62
689.582	3.81
689.904	3.91
690.227	3.59
690.549	3.22
690.871	3.15
691.194	2.97
691.516	3.93
691.838	3.51
692.16	3.5
692.482	3.7
692.804	3.83
693.126	3.85
