Data from 0022_chest_Reflection__4__35.txt Node

Date: Thu Oct 20 20:37:01 CDT 2022
User: ToomeyLab
Spectrometer: FLMS14357
Trigger mode: 0
Integration Time (sec): 1.000000E-2
Scans to average: 100
Electric dark correction enabled: true
Nonlinearity correction enabled: false
Boxcar width: 0
XAxis mode: Wavelengths
Number of Pixels in Spectrum: 2048
>>>>>Begin Spectral Data<<<<<
189.047	99.69
189.435	99.69
189.823	99.69
190.211	104.44
190.599	98.35
190.987	-256.5
191.375	124.4
191.763	154.64
192.151	70.58
192.538	-89.1
192.926	37.97
193.314	-36.91
193.702	81.83
194.089	129.54
194.477	-609.64
194.864	70.43
195.252	261.32
195.639	22.9
196.027	33.45
196.414	-479.25
196.801	-201.37
197.189	53.92
197.576	-954.89
197.963	-179.98
198.351	9.82
198.738	37.93
199.125	12.74
199.512	20.36
199.899	29.49
200.286	-5.3
200.673	41.78
201.06	38.91
201.447	40.44
201.833	27.47
202.22	4.18
202.607	26.89
202.994	29.79
203.38	-5.49
203.767	20.57
204.154	47.07
204.54	27.05
204.927	14.71
205.313	18.91
205.699	8.56
206.086	26.97
206.472	56.24
206.858	21.3
207.245	18.83
207.631	-2.77
208.017	15.59
208.403	27.54
208.789	16.49
209.175	11.94
209.561	38.02
209.947	-3.57
210.333	21.09
210.719	30.09
211.105	-11.33
211.491	32.87
211.876	20.82
212.262	5.43
212.648	17.13
213.034	22.65
213.419	20.15
213.805	15.55
214.19	14.31
214.576	12.43
214.961	13.04
215.346	10.17
215.732	37.72
216.117	37.72
216.502	20.79
216.888	36.99
217.273	30.27
217.658	18.74
218.043	-13.6
218.428	23.46
218.813	-12.84
219.198	20.76
219.583	25.46
219.968	15.4
220.353	10.03
220.738	4.58
221.122	8.04
221.507	3.25
221.892	28.03
222.276	15.57
222.661	12.04
223.046	10.06
223.43	12.18
223.815	-7.08
224.199	8.31
224.583	5.8
224.968	8.72
225.352	6.22
225.736	3.18
226.121	14.16
226.505	8.31
226.889	7.73
227.273	7.88
227.657	9.28
228.041	7.23
228.425	9.07
228.809	6.44
229.193	5.67
229.577	6.04
229.961	5.37
230.344	5.89
230.728	6.87
231.112	6.17
231.495	6.58
231.879	4.84
232.263	5.51
232.646	6.27
233.03	4.09
233.413	5.75
233.797	6.53
234.18	6.87
234.563	3.96
234.946	5.79
235.33	6.13
235.713	8.28
236.096	4.05
236.479	4.45
236.862	8.09
237.245	7.6
237.628	4.2
238.011	5.5
238.394	4.47
238.777	6.29
239.16	5.93
239.543	3.99
239.925	6.41
240.308	6.98
240.691	5.48
241.073	5.1
241.456	4.26
241.838	5.99
242.221	6.31
242.603	5.58
242.986	5.13
243.368	5.53
243.75	5.29
244.133	5.23
244.515	5.52
244.897	4.89
245.279	5.03
245.661	5.2
246.043	5.03
246.425	4.96
246.807	5.65
247.189	5.63
247.571	4.75
247.953	4.78
248.335	5.18
248.717	4.93
249.098	4.61
249.48	4.94
249.862	4.87
250.243	4.77
250.625	5.5
251.006	5.84
251.388	5.93
251.769	4.27
252.151	4.52
252.532	4.75
252.913	5.28
253.295	4.64
253.676	4.76
254.057	5.26
254.438	5.17
254.819	5.83
255.2	5.23
255.581	4.52
255.962	4.43
256.343	6.95
256.724	4.62
257.105	4.5
257.486	5.27
257.867	5.03
258.247	4.85
258.628	4.04
259.009	4.93
259.389	4.2
259.77	5.06
260.15	4.56
260.531	4.9
260.911	4.49
261.292	4.36
261.672	4.48
262.052	4.36
262.432	4.83
262.813	4.47
263.193	4.23
263.573	3.85
263.953	4.57
264.333	4.71
264.713	4.29
265.093	4.87
265.473	4.63
265.853	4.74
266.233	5
266.612	4.27
266.992	5.79
267.372	5.14
267.752	5.11
268.131	4.42
268.511	4.48
268.89	4.12
269.27	4.58
269.649	5.15
270.029	5.14
270.408	4.29
270.787	4.12
271.167	5.32
271.546	4.91
271.925	4.89
272.304	4.57
272.683	4.41
273.062	4.62
273.441	4.58
273.82	3.73
274.199	4.57
274.578	4.77
274.957	4.99
275.336	4.69
275.715	3.99
276.093	4.67
276.472	4.73
276.851	4.74
277.229	4.18
277.608	4.54
277.986	4.01
278.365	4.82
278.743	4.43
279.122	4.91
279.5	4.16
279.878	4.15
280.257	4.48
280.635	4.68
281.013	4.75
281.391	4.49
281.769	4.41
282.147	4.9
282.525	4.46
282.903	4.81
283.281	4.25
283.659	4.16
284.037	3.98
284.415	4.48
284.792	4.14
285.17	4.24
285.548	3.95
285.925	4.28
286.303	4.39
286.68	4.13
287.058	4.19
287.435	4.05
287.813	3.87
288.19	4.1
288.567	3.86
288.945	4.71
289.322	3.55
289.699	4.56
290.076	4.38
290.453	4.28
290.83	4.34
291.207	4.46
291.584	3.96
291.961	4.07
292.338	3.82
292.715	3.95
293.092	4.56
293.469	4.14
293.845	4.06
294.222	3.98
294.599	3.95
294.975	4.16
295.352	4.72
295.728	4.64
296.105	4.58
296.481	4.08
296.858	4.39
297.234	4.22
297.61	3.83
297.986	3.74
298.363	3.89
298.739	4.37
299.115	4.2
299.491	4.47
299.867	4.06
300.243	3.68
300.619	4.38
300.995	3.88
301.371	3.84
301.746	3.97
302.122	3.58
302.498	4.65
302.874	4.2
303.249	4.13
303.625	4.03
304	4.08
304.376	4.5
304.751	3.96
305.127	3.5
305.502	3.87
305.878	4.04
306.253	3.95
306.628	4.05
307.003	3.73
307.378	3.85
307.754	4.48
308.129	4.26
308.504	3.88
308.879	3.99
309.254	4.16
309.629	4.56
310.003	4.27
310.378	4.12
310.753	4.19
311.128	3.67
311.502	4.06
311.877	4.29
312.252	3.93
312.626	4.04
313.001	4.16
313.375	4.24
313.75	4.1
314.124	4.16
314.498	3.83
314.873	4.14
315.247	4.47
315.621	4.35
315.995	4.59
316.369	3.68
316.743	4.06
317.117	4
317.491	3.67
317.865	4.76
318.239	4.48
318.613	4.18
318.987	3.99
319.361	4.16
319.734	4.42
320.108	4.31
320.482	3.72
320.855	4.09
321.229	4.7
321.602	4.66
321.976	4.3
322.349	3.97
322.723	4.67
323.096	3.77
323.469	4.16
323.843	4.38
324.216	4.31
324.589	3.96
324.962	4.51
325.335	3.72
325.708	4.02
326.081	4.23
326.454	3.78
326.827	3.91
327.2	4.4
327.573	4.4
327.945	3.89
328.318	4.27
328.691	4.04
329.063	3.71
329.436	3.73
329.809	4.23
330.181	4.4
330.553	3.82
330.926	3.98
331.298	3.61
331.671	4.38
332.043	4.08
332.415	4.36
332.787	4.18
333.159	4.09
333.532	4.22
333.904	3.96
334.276	4.35
334.648	3.69
335.02	4.07
335.391	3.97
335.763	3.84
336.135	4.22
336.507	4.23
336.879	3.9
337.25	3.86
337.622	3.7
337.993	4.39
338.365	4.02
338.736	4.17
339.108	3.91
339.479	4
339.851	4.56
340.222	4.24
340.593	4.48
340.964	4.21
341.336	4.29
341.707	3.97
342.078	3.58
342.449	4.09
342.82	3.92
343.191	3.91
343.562	4.02
343.933	3.9
344.303	4.25
344.674	3.52
345.045	4.24
345.416	4.11
345.786	4.14
346.157	3.93
346.527	4.19
346.898	3.69
347.268	3.92
347.639	4.11
348.009	4
348.38	4.44
348.75	4.03
349.12	4.09
349.49	4.27
349.861	4.19
350.231	3.67
350.601	4.31
350.971	3.94
351.341	4.22
351.711	4.22
352.081	4.44
352.45	4.25
352.82	4.1
353.19	3.98
353.56	4.11
353.929	4.22
354.299	3.87
354.669	4.58
355.038	4
355.408	4.11
355.777	3.86
356.147	4.01
356.516	4.33
356.885	4.35
357.254	4.39
357.624	3.87
357.993	4.25
358.362	4.17
358.731	4.31
359.1	4.16
359.469	4.22
359.838	4.31
360.207	4.16
360.576	4.18
360.945	3.79
361.314	4.5
361.682	4.19
362.051	4.26
362.42	3.85
362.788	4.13
363.157	4.07
363.525	4.36
363.894	4.27
364.262	3.83
364.631	4.1
364.999	3.92
365.367	3.95
365.735	4.25
366.104	4.14
366.472	4.02
366.84	4.13
367.208	4.15
367.576	4.31
367.944	4.68
368.312	4.56
368.68	4.52
369.048	4.16
369.416	4.55
369.783	4.29
370.151	4.38
370.519	4.68
370.886	4.45
371.254	4.41
371.621	4.37
371.989	4.09
372.356	4.61
372.724	4.57
373.091	4.34
373.458	4.5
373.826	4.18
374.193	4.42
374.56	4.32
374.927	4.32
375.294	4.39
375.661	4.21
376.028	4.26
376.395	4.16
376.762	4.17
377.129	4.74
377.496	4.15
377.863	4.36
378.229	4.57
378.596	4.33
378.963	4.39
379.329	4.1
379.696	4.53
380.062	4.5
380.429	4.27
380.795	4.3
381.161	4.31
381.528	4.19
381.894	4.24
382.26	4.34
382.626	4.55
382.993	4.32
383.359	4.42
383.725	4.12
384.091	4.09
384.457	4.22
384.823	4.26
385.188	4.41
385.554	4.54
385.92	4.42
386.286	4.46
386.651	4.58
387.017	4.1
387.383	4.35
387.748	4.5
388.114	4.41
388.479	4.45
388.845	4.51
389.21	4.35
389.575	4.11
389.94	4.64
390.306	4.28
390.671	4.19
391.036	4.2
391.401	4.47
391.766	4.65
392.131	4.32
392.496	4.25
392.861	4.43
393.226	4.25
393.591	4.38
393.956	4.38
394.32	4.24
394.685	4.54
395.05	4.08
395.414	4.53
395.779	4.36
396.143	4.32
396.508	4.15
396.872	4.14
397.236	4.19
397.601	4.3
397.965	4.3
398.329	4.11
398.694	4.5
399.058	4.73
399.422	4.42
399.786	4.06
400.15	4.23
400.514	4.23
400.878	4.4
401.242	4.32
401.605	4.41
401.969	4.38
402.333	4.25
402.697	4.5
403.06	4.4
403.424	4.63
403.787	4.2
404.151	4.44
404.514	4.32
404.878	4.23
405.241	4.48
405.604	4.73
405.968	4.41
406.331	4.36
406.694	4.33
407.057	4.13
407.42	4.43
407.783	4.27
408.146	4.35
408.509	4.36
408.872	4.64
409.235	4.27
409.598	4.43
409.961	4.31
410.323	4.5
410.686	4.24
411.049	4.21
411.411	4.51
411.774	4.49
412.136	4.5
412.499	4.35
412.861	4.48
413.223	4.59
413.586	4.58
413.948	4.32
414.31	4.42
414.672	4.26
415.035	4.58
415.397	4.51
415.759	4.44
416.121	4.24
416.483	4.39
416.845	4.64
417.206	4.43
417.568	4.5
417.93	4.11
418.292	4.4
418.653	4.44
419.015	4.51
419.377	4.45
419.738	4.45
420.1	4.37
420.461	4.33
420.822	4.37
421.184	4.19
421.545	4.27
421.906	4.33
422.267	4.31
422.629	4.38
422.99	4.19
423.351	4.27
423.712	4.23
424.073	4.25
424.434	4.35
424.795	4.26
425.155	4.34
425.516	4.24
425.877	4.24
426.238	4.37
426.598	4.17
426.959	4.29
427.32	4.24
427.68	4.39
428.041	4.48
428.401	4.38
428.761	4.56
429.122	4.58
429.482	4.53
429.842	4.52
430.202	4.42
430.563	4.35
430.923	4.4
431.283	4.46
431.643	4.45
432.003	4.63
432.363	4.48
432.722	4.43
433.082	4.49
433.442	4.52
433.802	4.57
434.161	4.6
434.521	4.4
434.881	4.41
435.24	4.42
435.6	4.45
435.959	4.49
436.319	4.4
436.678	4.56
437.037	4.52
437.396	4.48
437.756	4.47
438.115	4.47
438.474	4.43
438.833	4.5
439.192	4.48
439.551	4.42
439.91	4.58
440.269	4.5
440.628	4.57
440.987	4.55
441.345	4.47
441.704	4.52
442.063	4.39
442.421	4.43
442.78	4.34
443.138	4.46
443.497	4.38
443.855	4.46
444.214	4.39
444.572	4.49
444.93	4.52
445.288	4.56
445.647	4.48
446.005	4.53
446.363	4.54
446.721	4.55
447.079	4.42
447.437	4.45
447.795	4.37
448.153	4.39
448.51	4.37
448.868	4.38
449.226	4.33
449.584	4.45
449.941	4.43
450.299	4.4
450.656	4.53
451.014	4.38
451.371	4.65
451.729	4.51
452.086	4.58
452.443	4.52
452.801	4.55
453.158	4.62
453.515	4.58
453.872	4.49
454.229	4.55
454.586	4.58
454.943	4.7
455.3	4.51
455.657	4.48
456.014	4.79
456.371	4.6
456.727	4.52
457.084	4.63
457.441	4.44
457.797	4.7
458.154	4.61
458.51	4.55
458.867	4.52
459.223	4.55
459.58	4.58
459.936	4.62
460.292	4.64
460.648	4.57
461.005	4.58
461.361	4.4
461.717	4.44
462.073	4.4
462.429	4.49
462.785	4.39
463.141	4.55
463.496	4.48
463.852	4.86
464.208	4.69
464.564	4.51
464.919	4.84
465.275	4.54
465.631	4.6
465.986	4.7
466.342	4.65
466.697	4.58
467.052	4.81
467.408	4.75
467.763	4.67
468.118	4.66
468.473	4.47
468.829	4.71
469.184	4.58
469.539	4.6
469.894	4.7
470.249	4.51
470.603	4.74
470.958	4.57
471.313	4.69
471.668	4.67
472.023	4.58
472.377	4.86
472.732	4.7
473.086	4.67
473.441	4.67
473.795	4.78
474.15	4.63
474.504	4.78
474.859	4.67
475.213	4.74
475.567	4.58
475.921	4.68
476.275	4.79
476.63	4.7
476.984	4.74
477.338	4.67
477.692	4.79
478.045	4.86
478.399	4.78
478.753	4.73
479.107	4.61
479.461	4.66
479.814	4.5
480.168	4.67
480.521	4.53
480.875	4.66
481.228	4.69
481.582	4.73
481.935	4.74
482.289	4.6
482.642	4.72
482.995	4.58
483.348	4.57
483.701	4.58
484.055	4.62
484.408	4.5
484.761	4.59
485.114	4.47
485.466	4.4
485.819	4.39
486.172	4.36
486.525	4.41
486.878	4.35
487.23	4.45
487.583	4.45
487.936	4.51
488.288	4.51
488.641	4.53
488.993	4.48
489.345	4.49
489.698	4.5
490.05	4.49
490.402	4.43
490.754	4.47
491.107	4.6
491.459	4.67
491.811	4.7
492.163	4.62
492.515	4.65
492.866	4.63
493.218	4.52
493.57	4.53
493.922	4.53
494.274	4.61
494.625	4.61
494.977	4.53
495.328	4.67
495.68	4.68
496.031	4.84
496.383	4.71
496.734	4.7
497.086	4.79
497.437	4.7
497.788	4.67
498.139	4.76
498.49	4.67
498.842	4.68
499.193	4.69
499.544	4.79
499.894	4.73
500.245	4.65
500.596	4.71
500.947	4.86
501.298	4.75
501.648	4.87
501.999	4.88
502.35	4.92
502.7	4.9
503.051	4.89
503.401	5.05
503.752	4.83
504.102	4.87
504.452	4.81
504.803	4.93
505.153	4.76
505.503	4.83
505.853	4.76
506.203	4.8
506.553	4.75
506.903	4.88
507.253	4.8
507.603	4.86
507.953	4.88
508.303	5.07
508.652	4.87
509.002	4.85
509.352	4.89
509.701	4.84
510.051	4.87
510.4	4.9
510.75	4.89
511.099	4.82
511.449	4.8
511.798	4.98
512.147	4.9
512.496	4.92
512.846	4.86
513.195	4.88
513.544	4.9
513.893	4.87
514.242	4.89
514.591	4.88
514.939	4.88
515.288	4.94
515.637	4.95
515.986	4.92
516.334	5.01
516.683	4.96
517.032	5.1
517.38	4.92
517.729	4.97
518.077	4.97
518.426	4.9
518.774	5.08
519.122	4.94
519.47	4.89
519.819	4.88
520.167	4.91
520.515	4.9
520.863	4.8
521.211	4.89
521.559	5.05
521.907	4.97
522.255	5
522.602	4.96
522.95	4.91
523.298	4.97
523.645	4.96
523.993	5.08
524.341	4.97
524.688	4.96
525.036	5.04
525.383	5.08
525.73	5.12
526.078	5.13
526.425	5.09
526.772	5.01
527.119	4.98
527.466	5
527.814	4.97
528.161	5.05
528.508	4.94
528.854	5.02
529.201	4.9
529.548	4.92
529.895	4.95
530.242	4.87
530.588	4.83
530.935	4.87
531.282	4.88
531.628	4.86
531.975	4.94
532.321	4.97
532.667	4.96
533.014	5.03
533.36	5.02
533.706	5.07
534.052	5.01
534.399	5.12
534.745	5.07
535.091	5.03
535.437	5.02
535.783	5.08
536.129	5
536.474	5.05
536.82	5.07
537.166	5.16
537.512	5.17
537.857	5.17
538.203	5.22
538.549	5.14
538.894	5.11
539.239	5.16
539.585	5.03
539.93	5.22
540.276	5.18
540.621	5.32
540.966	5.22
541.311	5.36
541.656	5.39
542.001	5.25
542.346	5.27
542.691	5.19
543.036	5.11
543.381	5.13
543.726	5.18
544.071	5.11
544.415	5.18
544.76	5.2
545.105	5.23
545.449	5.26
545.794	5.33
546.138	5.29
546.483	5.38
546.827	5.28
547.171	5.3
547.516	5.32
547.86	5.45
548.204	5.42
548.548	5.45
548.892	5.52
549.236	5.43
549.58	5.37
549.924	5.42
550.268	5.45
550.612	5.64
550.956	5.64
551.3	5.5
551.643	5.51
551.987	5.5
552.33	5.85
552.674	5.67
553.017	5.61
553.361	5.81
553.704	5.63
554.048	5.69
554.391	5.73
554.734	5.63
555.077	5.61
555.42	5.59
555.764	5.7
556.107	5.77
556.45	5.73
556.793	5.71
557.135	5.76
557.478	5.83
557.821	5.64
558.164	5.75
558.507	5.83
558.849	5.77
559.192	5.88
559.534	5.99
559.877	5.91
560.219	5.8
560.562	5.95
560.904	5.96
561.246	5.78
561.589	5.85
561.931	5.8
562.273	5.93
562.615	5.85
562.957	6.05
563.299	6.07
563.641	6.01
563.983	5.9
564.325	5.8
564.667	6.04
565.008	5.89
565.35	5.91
565.692	5.95
566.033	6.18
566.375	5.96
566.716	5.85
567.058	5.82
567.399	6.13
567.741	6.08
568.082	5.99
568.423	6.03
568.764	5.97
569.105	6.01
569.447	6.18
569.788	6.08
570.129	6.04
570.47	6.31
570.811	6.1
571.151	6.14
571.492	6.12
571.833	6.23
572.174	6.1
572.514	6.07
572.855	6.29
573.195	6.2
573.536	6.11
573.876	6.08
574.217	5.97
574.557	6.22
574.898	6.3
575.238	6.28
575.578	6.3
575.918	6.28
576.258	6.28
576.598	6.14
576.938	6.28
577.278	6.32
577.618	6.21
577.958	6.42
578.298	6.52
578.638	6.38
578.977	6.42
579.317	6.25
579.657	6.43
579.996	6.43
580.336	6.34
580.675	6.21
581.014	6.69
581.354	6.63
581.693	6.65
582.032	6.72
582.372	6.5
582.711	6.42
583.05	6.49
583.389	6.82
583.728	6.58
584.067	6.68
584.406	6.45
584.745	6.62
585.083	6.77
585.422	6.65
585.761	6.76
586.1	6.56
586.438	6.82
586.777	6.93
587.115	6.77
587.454	7.01
587.792	6.72
588.13	6.61
588.469	6.76
588.807	6.78
589.145	6.5
589.483	6.8
589.821	6.64
590.159	6.75
590.497	7.03
590.835	6.81
591.173	6.97
591.511	6.88
591.849	6.95
592.187	6.87
592.524	6.87
592.862	7.02
593.2	7.05
593.537	6.93
593.875	7.15
594.212	7.05
594.55	6.94
594.887	7.3
595.224	7.06
595.561	7.13
595.899	7.18
596.236	7.36
596.573	6.91
596.91	7.19
597.247	7.17
597.584	7.23
597.921	7.08
598.258	7.19
598.594	7.27
598.931	7.28
599.268	7.06
599.604	7.2
599.941	7.41
600.277	7.01
600.614	6.98
600.95	7.36
601.287	7.42
601.623	7.14
601.959	7.27
602.296	7.17
602.632	7.46
602.968	7.41
603.304	7.36
603.64	7.31
603.976	7.57
604.312	7.46
604.648	7.44
604.984	7.33
605.319	7.61
605.655	7.27
605.991	7.24
606.326	7.39
606.662	7.37
606.998	7.47
607.333	7.36
607.668	7.37
608.004	7.66
608.339	7.4
608.674	7.7
609.01	7.72
609.345	7.64
609.68	7.98
610.015	7.6
610.35	7.93
610.685	7.71
611.02	7.79
611.355	7.84
611.689	7.98
612.024	7.99
612.359	7.56
612.694	7.98
613.028	7.91
613.363	7.75
613.697	7.96
614.032	8.12
614.366	8.05
614.7	8.23
615.035	7.91
615.369	8.25
615.703	7.93
616.037	8.11
616.371	8.24
616.705	8.23
617.039	8.32
617.373	8.4
617.707	7.94
618.041	8.09
618.375	8.03
618.709	8.09
619.042	8.33
619.376	8.35
619.71	7.79
620.043	8.26
620.377	8.39
620.71	8.46
621.043	8.27
621.377	8.64
621.71	8.51
622.043	8.33
622.376	8.45
622.709	8.57
623.043	8.93
623.376	8.74
623.709	8.38
624.041	8.37
624.374	8.37
624.707	8.48
625.04	8.98
625.373	8.74
625.705	8.79
626.038	8.77
626.37	8.99
626.703	8.76
627.035	8.66
627.368	8.6
627.7	8.95
628.032	8.98
628.365	8.91
628.697	8.58
629.029	8.75
629.361	9.1
629.693	8.62
630.025	8.65
630.357	8.79
630.689	9.06
631.021	8.73
631.353	8.89
631.684	8.97
632.016	9.4
632.348	9.14
632.679	9.19
633.011	8.8
633.342	9.24
633.674	8.89
634.005	9.25
634.336	9.14
634.668	9.09
634.999	9.17
635.33	9.08
635.661	9.01
635.992	9.19
636.323	9.59
636.654	9.15
636.985	9.19
637.316	9.46
637.647	9.18
637.977	9.4
638.308	9.18
638.639	8.88
638.969	9.11
639.3	9.07
639.63	9.46
639.961	9.69
640.291	9.16
640.622	9.53
640.952	9.7
641.282	9.87
641.612	9.82
641.943	9.83
642.273	9.96
642.603	9.62
642.933	9.33
643.263	9.24
643.592	9.39
643.922	9.54
644.252	9.66
644.582	9.32
644.911	9.46
645.241	9.91
645.571	10.1
645.9	9.99
646.23	9.82
646.559	10.06
646.888	9.92
647.218	9.84
647.547	9.36
647.876	10.17
648.205	10.26
648.534	10.14
648.863	9.96
649.192	10.02
649.521	10.58
649.85	10.41
650.179	10.52
650.508	10.17
650.837	9.91
651.165	9.85
651.494	10.37
651.822	10.34
652.151	9.94
652.479	10.45
652.808	10.7
653.136	10.28
653.465	10.11
653.793	10.38
654.121	10.16
654.449	10.51
654.777	9.95
655.105	10.18
655.433	10.51
655.761	10.68
656.089	10.43
656.417	10.31
656.745	10.09
657.073	10.3
657.4	10.04
657.728	10.82
658.056	10.45
658.383	11.09
658.711	10.68
659.038	10.48
659.365	10.73
659.693	10.61
660.02	10.7
660.347	10.84
660.674	10.37
661.001	10.74
661.329	10.39
661.656	10.79
661.982	10.61
662.309	10.73
662.636	10.87
662.963	10.96
663.29	10.32
663.616	11.11
663.943	10.67
664.27	10.63
664.596	10.73
664.923	11.34
665.249	10.89
665.576	10.7
665.902	11.22
666.228	11.54
666.554	10.72
666.881	11.14
667.207	11.73
667.533	11.6
667.859	11.27
668.185	11.43
668.511	11.24
668.837	11.01
669.162	11.62
669.488	11.48
669.814	11.7
670.139	11.04
670.465	11.58
670.791	11.2
671.116	11.59
671.442	11.73
671.767	11.59
672.092	11.5
672.418	11.77
672.743	11.57
673.068	11.45
673.393	11.16
673.718	12.16
674.043	11.57
674.368	11.85
674.693	11.76
675.018	11.9
675.343	12.13
675.667	12.08
675.992	11.82
676.317	12.02
676.641	11.55
676.966	12.18
677.29	12.24
677.615	11.85
677.939	12.07
678.264	12.07
678.588	12.33
678.912	11.41
679.236	12.43
679.56	11.44
679.885	12.28
680.209	12.31
680.532	11.69
680.856	11.69
681.18	11.56
681.504	11.89
681.828	12.42
682.152	12.12
682.475	12.15
682.799	11.96
683.122	12.21
683.446	12.51
683.769	12.31
684.093	12.55
684.416	13.05
684.739	12.73
685.062	12.94
685.386	12.6
685.709	13.04
686.032	12.79
686.355	12.37
686.678	12.21
687.001	13.17
687.324	12.89
687.646	12.96
687.969	13.18
688.292	12.32
688.614	13.06
688.937	12.08
689.26	12.7
689.582	12.7
689.904	13.05
