Data from 0068_chest_Reflection__3__272.txt Node

Date: Fri Dec 16 16:15:37 CST 2022
User: ToomeyLab
Spectrometer: FLMS14357
Trigger mode: 0
Integration Time (sec): 1.000000E-2
Scans to average: 100
Electric dark correction enabled: true
Nonlinearity correction enabled: false
Boxcar width: 0
XAxis mode: Wavelengths
Number of Pixels in Spectrum: 2048
>>>>>Begin Spectral Data<<<<<
189.047	108.69
189.435	108.69
189.823	108.69
190.211	8.72
190.599	5.74
190.987	220.42
191.375	-273.54
191.763	2938.14
192.151	288.02
192.538	-4.59
192.926	-325.71
193.314	87.71
193.702	93.5
194.089	-1747.83
194.477	-52.07
194.864	-67.78
195.252	-239.85
195.639	120.86
196.027	621.18
196.414	142.22
196.801	-43.13
197.189	98.73
197.576	-64.11
197.963	380.42
198.351	-39.99
198.738	-33.16
199.125	29.11
199.512	-22.38
199.899	-202.68
200.286	-59.12
200.673	-12.38
201.06	2.83
201.447	11.74
201.833	37.19
202.22	6.92
202.607	-63.49
202.994	-17.8
203.38	-69.04
203.767	-44.99
204.154	-230.39
204.54	-0.22
204.927	-11.93
205.313	31.32
205.699	45.86
206.086	-21.36
206.472	3.41
206.858	20.27
207.245	-7.52
207.631	2.15
208.017	20.39
208.403	5.79
208.789	-41.82
209.175	22.47
209.561	-70.43
209.947	-80.52
210.333	-52.21
210.719	-12.31
211.105	-53.62
211.491	10.8
211.876	-36.18
212.262	-31.96
212.648	-26.22
213.034	-23.21
213.419	-0.54
213.805	-22.68
214.19	-64.52
214.576	-4.16
214.961	3.02
215.346	-80.78
215.732	-27.73
216.117	-28.41
216.502	-51.69
216.888	-122.62
217.273	-23.16
217.658	-33.61
218.043	-12.05
218.428	-0.71
218.813	-55.06
219.198	-120.68
219.583	0.02
219.968	-21.95
220.353	-2.03
220.738	-11.7
221.122	-15.27
221.507	-9.76
221.892	-11.74
222.276	1.23
222.661	-17.01
223.046	-1.3
223.43	-17.62
223.815	2.13
224.199	-3.83
224.583	-2.49
224.968	3.68
225.352	-16.65
225.736	2.25
226.121	-9.14
226.505	3.75
226.889	1.77
227.273	-4.25
227.657	-1.71
228.041	-0.89
228.425	0.38
228.809	-2.38
229.193	-0.73
229.577	0.57
229.961	2.33
230.344	1.95
230.728	2.27
231.112	0.8
231.495	-0.01
231.879	2.3
232.263	0.4
232.646	0.41
233.03	-2.2
233.413	-0.09
233.797	2.96
234.18	0.16
234.563	1.29
234.946	-0.23
235.33	1.95
235.713	1.41
236.096	0.68
236.479	0.94
236.862	1.69
237.245	2.37
237.628	4.19
238.011	0.42
238.394	3.45
238.777	0.96
239.16	-0.78
239.543	-0.65
239.925	3.69
240.308	1.55
240.691	0.68
241.073	1.38
241.456	0.09
241.838	0.22
242.221	0.73
242.603	2.08
242.986	2.54
243.368	2.23
243.75	1.54
244.133	1.9
244.515	1.98
244.897	2.17
245.279	1.56
245.661	1.94
246.043	2.27
246.425	0.7
246.807	1.47
247.189	1.72
247.571	1.85
247.953	2.03
248.335	2.45
248.717	1.9
249.098	2.29
249.48	1.32
249.862	2.06
250.243	1.23
250.625	1.48
251.006	2.26
251.388	2.47
251.769	2.14
252.151	1.2
252.532	1.93
252.913	1.74
253.295	1.93
253.676	1.89
254.057	1.7
254.438	1.34
254.819	1.88
255.2	1.21
255.581	1.75
255.962	0.42
256.343	2.08
256.724	1.11
257.105	1.05
257.486	1.8
257.867	0.29
258.247	1.32
258.628	1.59
259.009	1.16
259.389	1.99
259.77	2.36
260.15	2.32
260.531	1.6
260.911	2.06
261.292	1.76
261.672	1.87
262.052	1.6
262.432	1.7
262.813	1.34
263.193	0.6
263.573	1.56
263.953	1.34
264.333	1.23
264.713	1.58
265.093	1.95
265.473	1.7
265.853	1.7
266.233	1.57
266.612	1.63
266.992	1.94
267.372	1.79
267.752	1.17
268.131	1.86
268.511	1.72
268.89	1.93
269.27	2.34
269.649	2.6
270.029	1.65
270.408	1.43
270.787	1.59
271.167	1.77
271.546	0.89
271.925	0.95
272.304	2.12
272.683	1.59
273.062	2.3
273.441	1.75
273.82	2.47
274.199	1.92
274.578	1.43
274.957	1.94
275.336	1.53
275.715	1.74
276.093	1.81
276.472	2.45
276.851	1.64
277.229	1.88
277.608	1.33
277.986	1.78
278.365	1.35
278.743	0.97
279.122	1.18
279.5	0.99
279.878	1.27
280.257	2.06
280.635	1.37
281.013	2.17
281.391	2.06
281.769	1.16
282.147	1.96
282.525	1.57
282.903	2.12
283.281	1.35
283.659	2.04
284.037	1.18
284.415	1.6
284.792	1.33
285.17	1.2
285.548	1.46
285.925	1.35
286.303	1.41
286.68	2.13
287.058	1.73
287.435	1.69
287.813	1.95
288.19	2.21
288.567	1.63
288.945	1.44
289.322	1.01
289.699	1.58
290.076	2.09
290.453	1.49
290.83	2.01
291.207	1.73
291.584	1.47
291.961	2.02
292.338	1.95
292.715	1.92
293.092	1.67
293.469	2.11
293.845	1.38
294.222	1.65
294.599	2.27
294.975	1.39
295.352	1.28
295.728	1.36
296.105	1.62
296.481	2.2
296.858	1.59
297.234	1.44
297.61	2.37
297.986	1.89
298.363	1.43
298.739	1.85
299.115	1.45
299.491	1.68
299.867	1.9
300.243	1.39
300.619	1.33
300.995	1.66
301.371	1.82
301.746	1.48
302.122	2.03
302.498	1.43
302.874	1.63
303.249	1.91
303.625	1.97
304	1.72
304.376	1.84
304.751	1.71
305.127	1.88
305.502	1.65
305.878	1.64
306.253	1.42
306.628	1.86
307.003	1.86
307.378	0.92
307.754	1.3
308.129	0.84
308.504	1.6
308.879	1.74
309.254	1.92
309.629	1.76
310.003	1.91
310.378	1.61
310.753	2
311.128	1.68
311.502	1.56
311.877	1.61
312.252	1.51
312.626	1.83
313.001	1.61
313.375	1.3
313.75	1.84
314.124	2.67
314.498	1.51
314.873	1.95
315.247	1.15
315.621	1.66
315.995	2.05
316.369	1.35
316.743	1.81
317.117	1.97
317.491	1.71
317.865	1.45
318.239	2.17
318.613	1.88
318.987	1.74
319.361	1.88
319.734	1.27
320.108	1.96
320.482	1.12
320.855	1.49
321.229	2.23
321.602	1.76
321.976	1.7
322.349	0.25
322.723	0.9
323.096	1.21
323.469	1.78
323.843	2.16
324.216	1.35
324.589	2.16
324.962	1.63
325.335	1.98
325.708	1.51
326.081	2.12
326.454	1.52
326.827	1.97
327.2	1.62
327.573	1.88
327.945	1.8
328.318	2.02
328.691	1.91
329.063	1.43
329.436	1.5
329.809	1.2
330.181	1.23
330.553	1.81
330.926	1.68
331.298	1.4
331.671	1.25
332.043	1.34
332.415	1.65
332.787	1.99
333.159	1.77
333.532	1.86
333.904	1.3
334.276	1.56
334.648	1.43
335.02	1.35
335.391	1.28
335.763	1.57
336.135	1.96
336.507	1.97
336.879	1.77
337.25	2.01
337.622	1.88
337.993	1.63
338.365	2.13
338.736	1.48
339.108	1.79
339.479	1.33
339.851	1.93
340.222	1.99
340.593	1.46
340.964	1.75
341.336	0.94
341.707	2.35
342.078	1.22
342.449	2.04
342.82	1.5
343.191	1.13
343.562	1.82
343.933	1.61
344.303	2.01
344.674	1.73
345.045	2.38
345.416	1.81
345.786	1.45
346.157	1.47
346.527	1.57
346.898	1.52
347.268	1.56
347.639	1.93
348.009	2.03
348.38	1.99
348.75	1.87
349.12	1.65
349.49	1.78
349.861	2.13
350.231	1.83
350.601	1.61
350.971	1.57
351.341	2.15
351.711	2.14
352.081	1.6
352.45	1.93
352.82	1.88
353.19	1.66
353.56	1.84
353.929	1.9
354.299	1.75
354.669	1.52
355.038	1.94
355.408	1.96
355.777	1.87
356.147	2.11
356.516	2.14
356.885	1.64
357.254	2.06
357.624	1.91
357.993	1.61
358.362	1.86
358.731	1.77
359.1	2.37
359.469	1.8
359.838	1.74
360.207	1.66
360.576	1.86
360.945	2.14
361.314	2.24
361.682	1.71
362.051	1.8
362.42	2.07
362.788	1.96
363.157	1.65
363.525	1.83
363.894	1.67
364.262	1.99
364.631	2.54
364.999	1.72
365.367	1.88
365.735	1.56
366.104	1.72
366.472	1.81
366.84	1.84
367.208	1.49
367.576	2.16
367.944	2.07
368.312	1.53
368.68	2.04
369.048	2.12
369.416	1.85
369.783	1.9
370.151	2.04
370.519	1.78
370.886	1.82
371.254	2.01
371.621	1.77
371.989	2.14
372.356	1.94
372.724	2.21
373.091	1.82
373.458	1.86
373.826	1.87
374.193	2.55
374.56	1.62
374.927	1.86
375.294	2.19
375.661	2.18
376.028	1.98
376.395	1.62
376.762	2.13
377.129	1.92
377.496	1.85
377.863	1.87
378.229	1.88
378.596	1.73
378.963	1.91
379.329	1.86
379.696	2.24
380.062	2.37
380.429	2.04
380.795	1.73
381.161	1.94
381.528	1.51
381.894	2.13
382.26	1.84
382.626	1.81
382.993	1.72
383.359	1.93
383.725	2.01
384.091	1.79
384.457	1.97
384.823	1.86
385.188	1.91
385.554	1.91
385.92	2.13
386.286	2.06
386.651	1.96
387.017	2.04
387.383	2.07
387.748	1.76
388.114	1.92
388.479	2.09
388.845	2.06
389.21	2.07
389.575	2.28
389.94	1.79
390.306	2.06
390.671	1.92
391.036	2.3
391.401	2.32
391.766	2.2
392.131	2.02
392.496	2.41
392.861	1.85
393.226	2.22
393.591	2.29
393.956	2.23
394.32	1.9
394.685	2.11
395.05	1.98
395.414	2.1
395.779	1.98
396.143	2.14
396.508	2.19
396.872	2.11
397.236	1.84
397.601	2.05
397.965	1.87
398.329	2.34
398.694	1.77
399.058	2.2
399.422	2.2
399.786	2.14
400.15	2.13
400.514	2.06
400.878	2.28
401.242	2.11
401.605	2.01
401.969	2.16
402.333	1.98
402.697	2.28
403.06	2.19
403.424	2.06
403.787	2.45
404.151	1.93
404.514	2.42
404.878	2.36
405.241	2.1
405.604	2.28
405.968	2.19
406.331	2.29
406.694	2.19
407.057	2.58
407.42	2.2
407.783	2.05
408.146	2.11
408.509	2.23
408.872	2.01
409.235	2.19
409.598	2.21
409.961	2.07
410.323	2.07
410.686	2.02
411.049	2.03
411.411	2.14
411.774	2.08
412.136	2.22
412.499	2.19
412.861	1.94
413.223	2.2
413.586	2.11
413.948	2.34
414.31	2.35
414.672	2.13
415.035	2.41
415.397	2.28
415.759	2.19
416.121	2.39
416.483	2.42
416.845	2.43
417.206	2.22
417.568	2.27
417.93	2.02
418.292	2.35
418.653	2.2
419.015	2.28
419.377	2.25
419.738	2.23
420.1	2.32
420.461	2.32
420.822	2.37
421.184	2.21
421.545	2.16
421.906	2.21
422.267	2.15
422.629	2.24
422.99	2.23
423.351	2.26
423.712	2.25
424.073	2.3
424.434	2.26
424.795	2.16
425.155	2.19
425.516	2.18
425.877	2.27
426.238	2.16
426.598	2.2
426.959	2.15
427.32	2.21
427.68	2.29
428.041	2.31
428.401	2.23
428.761	2.14
429.122	2.26
429.482	2.3
429.842	2.43
430.202	2.3
430.563	2.15
430.923	2.18
431.283	2.4
431.643	2.33
432.003	2.29
432.363	2.36
432.722	2.35
433.082	2.24
433.442	2.26
433.802	2.35
434.161	2.31
434.521	2.27
434.881	2.45
435.24	2.29
435.6	2.27
435.959	2.28
436.319	2.3
436.678	2.36
437.037	2.39
437.396	2.42
437.756	2.33
438.115	2.39
438.474	2.43
438.833	2.32
439.192	2.45
439.551	2.41
439.91	2.41
440.269	2.39
440.628	2.38
440.987	2.2
441.345	2.39
441.704	2.45
442.063	2.24
442.421	2.36
442.78	2.3
443.138	2.34
443.497	2.32
443.855	2.42
444.214	2.5
444.572	2.39
444.93	2.43
445.288	2.44
445.647	2.37
446.005	2.27
446.363	2.36
446.721	2.26
447.079	2.34
447.437	2.31
447.795	2.4
448.153	2.29
448.51	2.33
448.868	2.37
449.226	2.35
449.584	2.45
449.941	2.51
450.299	2.32
450.656	2.49
451.014	2.32
451.371	2.55
451.729	2.43
452.086	2.43
452.443	2.29
452.801	2.55
453.158	2.41
453.515	2.33
453.872	2.43
454.229	2.31
454.586	2.48
454.943	2.36
455.3	2.57
455.657	2.35
456.014	2.48
456.371	2.46
456.727	2.31
457.084	2.39
457.441	2.46
457.797	2.37
458.154	2.39
458.51	2.48
458.867	2.41
459.223	2.48
459.58	2.36
459.936	2.32
460.292	2.55
460.648	2.34
461.005	2.46
461.361	2.38
461.717	2.48
462.073	2.5
462.429	2.48
462.785	2.47
463.141	2.44
463.496	2.51
463.852	2.61
464.208	2.48
464.564	2.44
464.919	2.36
465.275	2.48
465.631	2.44
465.986	2.42
466.342	2.45
466.697	2.56
467.052	2.64
467.408	2.55
467.763	2.33
468.118	2.52
468.473	2.74
468.829	2.57
469.184	2.52
469.539	2.45
469.894	2.56
470.249	2.54
470.603	2.5
470.958	2.58
471.313	2.31
471.668	2.62
472.023	2.72
472.377	2.43
472.732	2.49
473.086	2.36
473.441	2.42
473.795	2.67
474.15	2.46
474.504	2.53
474.859	2.47
475.213	2.7
475.567	2.46
475.921	2.68
476.275	2.56
476.63	2.54
476.984	2.48
477.338	2.63
477.692	2.57
478.045	2.39
478.399	2.6
478.753	2.44
479.107	2.57
479.461	2.54
479.814	2.51
480.168	2.54
480.521	2.59
480.875	2.68
481.228	2.58
481.582	2.5
481.935	2.44
482.289	2.43
482.642	2.62
482.995	2.61
483.348	2.63
483.701	2.54
484.055	2.59
484.408	2.49
484.761	2.41
485.114	2.4
485.466	2.41
485.819	2.44
486.172	2.5
486.525	2.53
486.878	2.59
487.23	2.6
487.583	2.55
487.936	2.6
488.288	2.54
488.641	2.5
488.993	2.4
489.345	2.47
489.698	2.55
490.05	2.52
490.402	2.64
490.754	2.63
491.107	2.58
491.459	2.65
491.811	2.72
492.163	2.63
492.515	2.58
492.866	2.46
493.218	2.5
493.57	2.63
493.922	2.58
494.274	2.7
494.625	2.66
494.977	2.63
495.328	2.71
495.68	2.85
496.031	2.66
496.383	2.6
496.734	2.84
497.086	2.58
497.437	2.71
497.788	2.63
498.139	2.72
498.49	2.63
498.842	2.7
499.193	2.73
499.544	2.8
499.894	2.73
500.245	2.77
500.596	2.69
500.947	2.75
501.298	2.74
501.648	2.78
501.999	2.81
502.35	2.88
502.7	2.82
503.051	2.82
503.401	2.63
503.752	2.59
504.102	2.7
504.452	2.82
504.803	2.62
505.153	2.84
505.503	2.83
505.853	2.71
506.203	2.79
506.553	2.77
506.903	2.71
507.253	2.78
507.603	2.79
507.953	2.94
508.303	2.76
508.652	2.8
509.002	2.87
509.352	2.78
509.701	2.67
510.051	2.86
510.4	2.78
510.75	2.83
511.099	2.73
511.449	2.85
511.798	2.97
512.147	2.73
512.496	2.85
512.846	2.79
513.195	2.75
513.544	2.77
513.893	2.72
514.242	2.91
514.591	2.87
514.939	2.75
515.288	2.88
515.637	2.95
515.986	2.95
516.334	2.99
516.683	2.91
517.032	2.88
517.38	2.98
517.729	2.86
518.077	2.99
518.426	2.88
518.774	2.94
519.122	2.87
519.47	2.86
519.819	2.89
520.167	2.93
520.515	2.88
520.863	2.92
521.211	2.9
521.559	2.91
521.907	2.96
522.255	3.05
522.602	3.02
522.95	3.05
523.298	3.02
523.645	2.87
523.993	3.12
524.341	2.99
524.688	3.01
525.036	3.05
525.383	2.99
525.73	3
526.078	2.99
526.425	3
526.772	2.91
527.119	2.93
527.466	3.07
527.814	2.93
528.161	3.06
528.508	3.06
528.854	2.96
529.201	2.95
529.548	2.95
529.895	2.86
530.242	2.88
530.588	2.95
530.935	2.94
531.282	3.02
531.628	3.06
531.975	3.11
532.321	3.1
532.667	2.99
533.014	3.08
533.36	3.07
533.706	3.1
534.052	3.04
534.399	3.02
534.745	2.96
535.091	3.02
535.437	3.1
535.783	3.14
536.129	3.18
536.474	3.23
536.82	3.2
537.166	3.18
537.512	3.13
537.857	3.14
538.203	3.13
538.549	3.22
538.894	3.11
539.239	3.3
539.585	3.29
539.93	3.25
540.276	3.22
540.621	3.3
540.966	3.33
541.311	3.22
541.656	3.21
542.001	3.33
542.346	3.21
542.691	3.18
543.036	3.15
543.381	3.26
543.726	3.32
544.071	3.38
544.415	3.3
544.76	3.19
545.105	3.4
545.449	3.34
545.794	3.41
546.138	3.41
546.483	3.33
546.827	3.36
547.171	3.39
547.516	3.52
547.86	3.34
548.204	3.42
548.548	3.48
548.892	3.53
549.236	3.5
549.58	3.49
549.924	3.49
550.268	3.6
550.612	3.57
550.956	3.41
551.3	3.6
551.643	3.71
551.987	3.62
552.33	3.51
552.674	3.69
553.017	3.46
553.361	3.64
553.704	3.39
554.048	3.71
554.391	3.66
554.734	3.59
555.077	3.6
555.42	3.62
555.764	3.65
556.107	3.71
556.45	3.58
556.793	3.82
557.135	3.83
557.478	4.01
557.821	3.62
558.164	3.84
558.507	3.65
558.849	3.57
559.192	3.78
559.534	3.71
559.877	3.91
560.219	3.93
560.562	3.84
560.904	3.82
561.246	3.94
561.589	3.93
561.931	4.07
562.273	3.8
562.615	3.99
562.957	3.88
563.299	3.94
563.641	3.94
563.983	4.01
564.325	3.9
564.667	3.94
565.008	3.91
565.35	4.09
565.692	4.14
566.033	4.12
566.375	3.71
566.716	4.03
567.058	4.19
567.399	4.09
567.741	4.18
568.082	4.05
568.423	3.94
568.764	4.2
569.105	4.06
569.447	4.09
569.788	4.27
570.129	4.1
570.47	4.21
570.811	4.37
571.151	4.34
571.492	4.3
571.833	4.37
572.174	4.28
572.514	4.19
572.855	4.43
573.195	4.19
573.536	4.44
573.876	4.3
574.217	4.35
574.557	4.57
574.898	4.34
575.238	4.26
575.578	4.49
575.918	4.32
576.258	4.39
576.598	4.3
576.938	4.53
577.278	4.37
577.618	4.55
577.958	4.31
578.298	4.73
578.638	4.59
578.977	4.67
579.317	4.61
579.657	4.71
579.996	4.6
580.336	4.48
580.675	4.59
581.014	4.63
581.354	4.76
581.693	4.75
582.032	4.43
582.372	4.67
582.711	4.74
583.05	4.73
583.389	4.84
583.728	4.7
584.067	4.82
584.406	4.94
584.745	4.91
585.083	5.22
585.422	4.66
585.761	5.03
586.1	4.97
586.438	4.97
586.777	4.89
587.115	4.96
587.454	4.95
587.792	4.81
588.13	5.33
588.469	4.91
588.807	5.22
589.145	5.19
589.483	5.03
589.821	5.03
590.159	5.03
590.497	4.78
590.835	5
591.173	5.24
591.511	5.31
591.849	5.18
592.187	5.16
592.524	5.22
592.862	5.37
593.2	5.26
593.537	5.11
593.875	5.12
594.212	5.49
594.55	5.24
594.887	5.52
595.224	5.23
595.561	5.49
595.899	5.24
596.236	5.42
596.573	5.41
596.91	5.52
597.247	5.45
597.584	5.61
597.921	5.55
598.258	5.51
598.594	5.26
598.931	5.35
599.268	5.42
599.604	5.56
599.941	5.56
600.277	5.59
600.614	5.66
600.95	5.93
601.287	5.54
601.623	5.88
601.959	5.73
602.296	5.84
602.632	6.14
602.968	5.86
603.304	5.61
603.64	5.68
603.976	5.77
604.312	6.1
604.648	5.79
604.984	5.84
605.319	5.86
605.655	5.88
605.991	5.84
606.326	5.84
606.662	5.82
606.998	5.99
607.333	6.04
607.668	6.16
608.004	6.08
608.339	5.91
608.674	6.08
609.01	6.33
609.345	6.11
609.68	5.85
610.015	6.12
610.35	6.15
610.685	6.19
611.02	6.15
611.355	6.37
611.689	6.28
612.024	6.37
612.359	6.45
612.694	6.39
613.028	6.59
613.363	6.22
613.697	6.36
614.032	6.36
614.366	6.35
614.7	6.6
615.035	6.32
615.369	6.8
615.703	6.93
616.037	6.58
616.371	6.19
616.705	6.72
617.039	6.6
617.373	6.8
617.707	6.58
618.041	6.58
618.375	6.45
618.709	6.76
619.042	6.66
619.376	6.54
619.71	6.77
620.043	6.64
620.377	6.75
620.71	6.92
621.043	6.46
621.377	6.67
621.71	6.98
622.043	7.03
622.376	6.66
622.709	7.32
623.043	6.91
623.376	7.42
623.709	7.25
624.041	7.01
624.374	6.72
624.707	6.66
625.04	7.45
625.373	7.03
625.705	7.36
626.038	6.96
626.37	7.23
626.703	7.14
627.035	6.99
627.368	7.26
627.7	7.34
628.032	7.52
628.365	7.32
628.697	7.31
629.029	7.56
629.361	7.2
629.693	7.61
630.025	7.27
630.357	7.44
630.689	7.78
631.021	7.51
631.353	7.57
631.684	7.64
632.016	7.35
632.348	7.55
632.679	7.62
633.011	7.57
633.342	7.6
633.674	7.47
634.005	7.74
634.336	7.66
634.668	7.5
634.999	7.59
635.33	7.77
635.661	8.02
635.992	7.8
636.323	7.87
636.654	7.88
636.985	8.01
637.316	8.22
637.647	8.18
637.977	8.38
638.308	7.73
638.639	7.87
638.969	8.09
639.3	8.22
639.63	7.7
639.961	8.07
640.291	8.45
640.622	8.33
640.952	8.21
641.282	7.66
641.612	7.9
641.943	8.59
642.273	8.39
642.603	8.58
642.933	8.32
643.263	8.55
643.592	8.17
643.922	8.9
644.252	8.71
644.582	8.19
644.911	8.42
645.241	8.48
645.571	8.38
645.9	8.4
646.23	8.01
646.559	8.68
646.888	8.05
647.218	8.59
647.547	8.91
647.876	9.03
648.205	8.66
648.534	8.63
648.863	9.02
649.192	8.53
649.521	8.36
649.85	9.03
650.179	8.62
650.508	8.91
650.837	8.8
651.165	9.11
651.494	8.83
651.822	8.95
652.151	9.25
652.479	8.93
652.808	8.56
653.136	8.76
653.465	9.26
653.793	8.9
654.121	9.28
654.449	8.55
654.777	9.03
655.105	9.08
655.433	9.01
655.761	8.94
656.089	9.27
656.417	9.29
656.745	9.71
657.073	9.77
657.4	9.5
657.728	9
658.056	9.61
658.383	9.88
658.711	9.34
659.038	9.96
659.365	9.82
659.693	9.35
660.02	9.3
660.347	9.85
660.674	9.3
661.001	9.24
661.329	9.48
661.656	9.5
661.982	9.41
662.309	9.8
662.636	10.03
662.963	9.99
663.29	9.66
663.616	10.02
663.943	10.19
664.27	10.02
664.596	9.85
664.923	10.15
665.249	9.81
665.576	9.48
665.902	9.64
666.228	9.98
666.554	10
666.881	9.56
667.207	9.63
667.533	10.32
667.859	9.98
668.185	10.27
668.511	9.67
668.837	10.18
669.162	10
669.488	9.81
669.814	10.33
670.139	10.72
670.465	10.46
670.791	10.49
671.116	10.14
671.442	10.32
671.767	10.49
672.092	10.81
672.418	10.6
672.743	10.89
673.068	10.33
673.393	11.13
673.718	10.2
674.043	10.95
674.368	10.78
674.693	10.74
675.018	10.86
675.343	10.96
675.667	10.23
675.992	10.13
676.317	10.07
676.641	10.86
676.966	10.62
677.29	10.22
677.615	10.19
677.939	10.62
678.264	11.09
678.588	10.62
678.912	11.31
679.236	10.76
679.56	10.28
679.885	11.05
680.209	10.67
680.532	10.79
680.856	11.52
681.18	11.17
681.504	10.58
681.828	10.89
682.152	10.75
682.475	11.08
682.799	11
683.122	11.46
683.446	11.02
683.769	10.97
684.093	11.23
684.416	11.11
684.739	12.02
685.062	11.87
685.386	11.24
685.709	11.21
686.032	11.57
686.355	11.17
686.678	11
687.001	10.16
687.324	10.52
687.646	11.49
687.969	11.31
688.292	11.09
688.614	11.99
688.937	11.36
689.26	11.86
689.582	11.21
