Data from 0068_crown_Reflection__2__276.txt Node

Date: Fri Dec 16 16:17:45 CST 2022
User: ToomeyLab
Spectrometer: FLMS14357
Trigger mode: 0
Integration Time (sec): 1.000000E-2
Scans to average: 100
Electric dark correction enabled: true
Nonlinearity correction enabled: false
Boxcar width: 0
XAxis mode: Wavelengths
Number of Pixels in Spectrum: 2048
>>>>>Begin Spectral Data<<<<<
189.047	180.86
189.435	180.86
189.823	180.86
190.211	-35.71
190.599	-47.26
190.987	-386.66
191.375	-51.35
191.763	1148.97
192.151	80.81
192.538	2.58
192.926	-310
193.314	116.09
193.702	-35.49
194.089	7363.04
194.477	-19.76
194.864	-358.73
195.252	-33.98
195.639	166.06
196.027	-136.29
196.414	-23.04
196.801	110.28
197.189	150.12
197.576	116.03
197.963	162.27
198.351	-4.32
198.738	-86.57
199.125	42.44
199.512	13.16
199.899	-96.1
200.286	-57.59
200.673	18.41
201.06	47.3
201.447	42.25
201.833	-31.82
202.22	5.81
202.607	-82.07
202.994	17.88
203.38	-51.89
203.767	-58.99
204.154	-157.75
204.54	20.96
204.927	-7.74
205.313	36.84
205.699	2.71
206.086	-33.55
206.472	-50.15
206.858	-1.13
207.245	-5.92
207.631	-14.5
208.017	1.42
208.403	6.15
208.789	-14.65
209.175	40.71
209.561	13.2
209.947	6.66
210.333	58.48
210.719	-5.59
211.105	-43.68
211.491	-35.46
211.876	-13.79
212.262	-56.6
212.648	-42.23
213.034	2.93
213.419	16.53
213.805	17.38
214.19	-42.95
214.576	-9.35
214.961	-14.64
215.346	-3.29
215.732	-8.83
216.117	-36.71
216.502	0.05
216.888	8.5
217.273	42.93
217.658	-55.58
218.043	4.42
218.428	29.11
218.813	50.44
219.198	-88.02
219.583	0.77
219.968	-46.03
220.353	-7.06
220.738	-13.82
221.122	-17.58
221.507	6.31
221.892	-5.61
222.276	5.44
222.661	-10.12
223.046	3.18
223.43	5.55
223.815	-1
224.199	12.08
224.583	-2.99
224.968	6.63
225.352	-8.03
225.736	1.92
226.121	-9.22
226.505	6.65
226.889	4.15
227.273	6.82
227.657	4.21
228.041	3.49
228.425	6.5
228.809	6.26
229.193	3.87
229.577	6.78
229.961	7.66
230.344	7.58
230.728	7.28
231.112	7.01
231.495	5.47
231.879	6.89
232.263	5.92
232.646	7.03
233.03	4.99
233.413	5.19
233.797	8.85
234.18	5.76
234.563	8.6
234.946	2.88
235.33	7.47
235.713	6.08
236.096	4.61
236.479	6.89
236.862	6.28
237.245	7.06
237.628	6.32
238.011	7.73
238.394	8.23
238.777	5.51
239.16	2.78
239.543	6.49
239.925	8.41
240.308	6.42
240.691	5.51
241.073	5.64
241.456	5.86
241.838	5.58
242.221	6.25
242.603	6.35
242.986	7.05
243.368	6.22
243.75	6.32
244.133	7.05
244.515	6.62
244.897	6.57
245.279	6.26
245.661	6.96
246.043	6.5
246.425	5.98
246.807	5.05
247.189	6.56
247.571	6.44
247.953	6.61
248.335	6.63
248.717	6.58
249.098	7.11
249.48	5.87
249.862	6.34
250.243	6.41
250.625	6.41
251.006	5.79
251.388	6.44
251.769	6.05
252.151	6.11
252.532	6.25
252.913	7.35
253.295	5.59
253.676	6.47
254.057	5.59
254.438	5.37
254.819	7.06
255.2	5.93
255.581	5.27
255.962	5.05
256.343	7.09
256.724	5.7
257.105	6.26
257.486	6.06
257.867	4.31
258.247	5.77
258.628	6.07
259.009	6.07
259.389	6.48
259.77	5.42
260.15	6.17
260.531	5.78
260.911	5.9
261.292	5.71
261.672	5.72
262.052	5.89
262.432	5.51
262.813	5.66
263.193	5.61
263.573	6.03
263.953	5.88
264.333	5.85
264.713	5.34
265.093	5.51
265.473	5.92
265.853	5.82
266.233	5.12
266.612	5.58
266.992	5.35
267.372	6.16
267.752	5.32
268.131	5.59
268.511	5.76
268.89	5.44
269.27	5.81
269.649	5.46
270.029	5.55
270.408	4.96
270.787	5.12
271.167	5.19
271.546	4.74
271.925	5.04
272.304	5.06
272.683	4.93
273.062	5.54
273.441	5.7
273.82	5.58
274.199	5.69
274.578	5.29
274.957	5.6
275.336	5.32
275.715	5.62
276.093	6.01
276.472	5.23
276.851	5.62
277.229	5.49
277.608	4.99
277.986	5.22
278.365	4.82
278.743	5.38
279.122	4.6
279.5	4.53
279.878	4.43
280.257	5.4
280.635	4.71
281.013	5.62
281.391	5.24
281.769	4.61
282.147	4.96
282.525	4.7
282.903	5.09
283.281	5.39
283.659	5.1
284.037	5.18
284.415	5.08
284.792	5.41
285.17	4.69
285.548	5.02
285.925	5.64
286.303	4.71
286.68	5.24
287.058	4.8
287.435	4.9
287.813	4.84
288.19	5.42
288.567	4.49
288.945	4.99
289.322	4.43
289.699	4.79
290.076	4.85
290.453	4.57
290.83	4.69
291.207	4.8
291.584	4.52
291.961	4.68
292.338	4.93
292.715	5.12
293.092	4.61
293.469	4.88
293.845	5.12
294.222	4.7
294.599	5.1
294.975	4.6
295.352	4.3
295.728	4.94
296.105	4.74
296.481	5.35
296.858	4.56
297.234	4.45
297.61	4.37
297.986	4.66
298.363	3.92
298.739	4.75
299.115	3.96
299.491	4.59
299.867	4.75
300.243	4.74
300.619	4.09
300.995	5.06
301.371	4.69
301.746	4.52
302.122	4.48
302.498	4.77
302.874	4.51
303.249	4.51
303.625	4.29
304	4.07
304.376	4.12
304.751	4.35
305.127	4.23
305.502	4.75
305.878	3.76
306.253	4.12
306.628	4.73
307.003	4.37
307.378	3.95
307.754	4.32
308.129	3.38
308.504	3.96
308.879	4.22
309.254	4.33
309.629	4.28
310.003	4.82
310.378	4.45
310.753	4.32
311.128	4.12
311.502	3.97
311.877	4.42
312.252	4.38
312.626	4.01
313.001	3.92
313.375	4.14
313.75	3.94
314.124	4.59
314.498	3.66
314.873	4.22
315.247	3.76
315.621	4.59
315.995	3.82
316.369	3.96
316.743	4.75
317.117	4.91
317.491	3.93
317.865	3.95
318.239	3.87
318.613	4.16
318.987	4.15
319.361	4.14
319.734	4.18
320.108	4.05
320.482	3.51
320.855	4.2
321.229	4.12
321.602	3.62
321.976	4.02
322.349	3.17
322.723	3.63
323.096	3.52
323.469	3.73
323.843	4.22
324.216	3.76
324.589	4.15
324.962	4.11
325.335	3.72
325.708	4.06
326.081	4.55
326.454	3.86
326.827	4.35
327.2	4.5
327.573	4.26
327.945	4.5
328.318	4.2
328.691	4.3
329.063	3.68
329.436	4.36
329.809	3.73
330.181	4.2
330.553	4.34
330.926	4.67
331.298	3.5
331.671	3.65
332.043	3.86
332.415	4.38
332.787	4.23
333.159	3.58
333.532	4.24
333.904	3.97
334.276	3.97
334.648	3.99
335.02	3.59
335.391	3.92
335.763	3.54
336.135	4.38
336.507	4.39
336.879	3.9
337.25	4.08
337.622	4.01
337.993	4.44
338.365	4.12
338.736	4.16
339.108	3.86
339.479	3.83
339.851	4.26
340.222	3.76
340.593	3.75
340.964	4.04
341.336	3.71
341.707	4.3
342.078	3.75
342.449	4.56
342.82	4.53
343.191	4.02
343.562	3.84
343.933	4.34
344.303	4.33
344.674	4.35
345.045	4.55
345.416	3.57
345.786	3.57
346.157	4.07
346.527	3.95
346.898	4.23
347.268	4.12
347.639	4.22
348.009	4.53
348.38	4.12
348.75	4.35
349.12	3.94
349.49	3.92
349.861	4.66
350.231	3.98
350.601	4.24
350.971	4.25
351.341	4.12
351.711	4.02
352.081	4.32
352.45	4.07
352.82	4.51
353.19	3.87
353.56	4.06
353.929	4.07
354.299	4.19
354.669	4.3
355.038	4.03
355.408	4.84
355.777	3.95
356.147	4.13
356.516	4.38
356.885	4.23
357.254	4.46
357.624	4.34
357.993	4.29
358.362	4.27
358.731	4.2
359.1	4.48
359.469	4.32
359.838	4.3
360.207	4.21
360.576	4.55
360.945	4.08
361.314	4.65
361.682	4.05
362.051	4.01
362.42	4.3
362.788	3.95
363.157	4.31
363.525	4.3
363.894	4.12
364.262	4.16
364.631	5.18
364.999	3.99
365.367	4.57
365.735	3.97
366.104	3.9
366.472	4.56
366.84	4.61
367.208	3.96
367.576	4.56
367.944	4.67
368.312	3.93
368.68	4.7
369.048	4.5
369.416	4.65
369.783	4.66
370.151	4.53
370.519	4.44
370.886	4.25
371.254	4.44
371.621	4.43
371.989	4.69
372.356	4.48
372.724	4.54
373.091	4.41
373.458	4.57
373.826	4.49
374.193	4.94
374.56	4.19
374.927	4.3
375.294	4.61
375.661	4.65
376.028	4.92
376.395	4.33
376.762	4.49
377.129	4.82
377.496	4.46
377.863	4.63
378.229	4.64
378.596	4.7
378.963	4.51
379.329	4.7
379.696	4.54
380.062	4.65
380.429	4.71
380.795	4.49
381.161	4.49
381.528	4.39
381.894	4.92
382.26	4.75
382.626	4.39
382.993	4.37
383.359	4.47
383.725	4.76
384.091	4.81
384.457	4.54
384.823	4.6
385.188	4.71
385.554	4.76
385.92	4.95
386.286	4.66
386.651	4.42
387.017	4.74
387.383	4.75
387.748	4.34
388.114	4.93
388.479	4.71
388.845	4.65
389.21	4.71
389.575	4.8
389.94	4.69
390.306	4.92
390.671	4.77
391.036	5.04
391.401	5.04
391.766	4.84
392.131	4.63
392.496	4.73
392.861	4.64
393.226	4.8
393.591	4.68
393.956	4.92
394.32	4.77
394.685	5.1
395.05	4.53
395.414	4.79
395.779	4.78
396.143	4.97
396.508	4.96
396.872	5.04
397.236	4.35
397.601	4.8
397.965	4.38
398.329	4.97
398.694	4.81
399.058	5.04
399.422	4.96
399.786	5.01
400.15	4.73
400.514	4.91
400.878	4.96
401.242	4.99
401.605	4.61
401.969	4.86
402.333	4.89
402.697	5.23
403.06	5.03
403.424	4.79
403.787	5.19
404.151	4.76
404.514	5.1
404.878	4.78
405.241	5.01
405.604	5.01
405.968	5.04
406.331	5.11
406.694	5.04
407.057	5.35
407.42	5.17
407.783	4.94
408.146	4.95
408.509	4.87
408.872	4.81
409.235	4.98
409.598	5.14
409.961	5.02
410.323	5.03
410.686	4.91
411.049	4.94
411.411	5.04
411.774	4.9
412.136	5.14
412.499	4.96
412.861	4.8
413.223	5.27
413.586	5.04
413.948	4.82
414.31	5.16
414.672	4.94
415.035	5.2
415.397	5.11
415.759	5
416.121	5.17
416.483	5.34
416.845	4.82
417.206	5.13
417.568	5.02
417.93	4.9
418.292	5.05
418.653	5.11
419.015	5.15
419.377	5.03
419.738	4.99
420.1	5.01
420.461	4.94
420.822	4.92
421.184	5.14
421.545	5.03
421.906	5.02
422.267	4.94
422.629	4.96
422.99	5.04
423.351	5.06
423.712	5
424.073	5.07
424.434	4.96
424.795	4.99
425.155	5.03
425.516	5
425.877	5.1
426.238	4.87
426.598	5.06
426.959	4.97
427.32	5.09
427.68	5.2
428.041	5.19
428.401	5.14
428.761	5.11
429.122	5.15
429.482	5.05
429.842	5.26
430.202	5.06
430.563	5.28
430.923	5.14
431.283	5.44
431.643	5.12
432.003	5.13
432.363	5.23
432.722	5.27
433.082	5.17
433.442	5.16
433.802	5.2
434.161	5.12
434.521	5.17
434.881	5.31
435.24	5.09
435.6	5.11
435.959	5.13
436.319	5.1
436.678	5.32
437.037	5.17
437.396	5.19
437.756	5.2
438.115	5.21
438.474	5.17
438.833	5.2
439.192	5.27
439.551	5.23
439.91	5.36
440.269	5.3
440.628	5.22
440.987	5.18
441.345	5.15
441.704	5.18
442.063	5.12
442.421	5.11
442.78	5.2
443.138	5.17
443.497	5.24
443.855	5.17
444.214	5.27
444.572	5.14
444.93	5.35
445.288	5.35
445.647	5.3
446.005	5.16
446.363	5.21
446.721	5.03
447.079	5.23
447.437	5.18
447.795	5.13
448.153	5.18
448.51	5.14
448.868	5.34
449.226	5.3
449.584	5.23
449.941	5.34
450.299	5.3
450.656	5.34
451.014	5.37
451.371	5.22
451.729	5.23
452.086	5.15
452.443	5.24
452.801	5.47
453.158	5.29
453.515	5.21
453.872	5.32
454.229	5.24
454.586	5.24
454.943	5.22
455.3	5.41
455.657	5.36
456.014	5.33
456.371	5.36
456.727	5.24
457.084	5.05
457.441	5.25
457.797	5.36
458.154	5.29
458.51	5.19
458.867	5.29
459.223	5.4
459.58	5.3
459.936	5.28
460.292	5.18
460.648	5.08
461.005	5.18
461.361	5.19
461.717	5.24
462.073	5.29
462.429	5.29
462.785	5.18
463.141	5.34
463.496	5.3
463.852	5.5
464.208	5.16
464.564	5.32
464.919	5.3
465.275	5.34
465.631	5.29
465.986	5.22
466.342	5.36
466.697	5.37
467.052	5.32
467.408	5.31
467.763	5.34
468.118	5.41
468.473	5.63
468.829	5.27
469.184	5.41
469.539	5.27
469.894	5.28
470.249	5.49
470.603	5.36
470.958	5.55
471.313	5.45
471.668	5.48
472.023	5.45
472.377	5.22
472.732	5.36
473.086	5.29
473.441	5.51
473.795	5.58
474.15	5.38
474.504	5.4
474.859	5.44
475.213	5.33
475.567	5.35
475.921	5.37
476.275	5.31
476.63	5.19
476.984	5.35
477.338	5.59
477.692	5.39
478.045	5.16
478.399	5.49
478.753	5.26
479.107	5.32
479.461	5.31
479.814	5.23
480.168	5.35
480.521	5.45
480.875	5.54
481.228	5.41
481.582	5.29
481.935	5.33
482.289	5.21
482.642	5.35
482.995	5.38
483.348	5.29
483.701	5.34
484.055	5.13
484.408	5.18
484.761	5
485.114	4.94
485.466	4.96
485.819	5.05
486.172	5.15
486.525	5.21
486.878	5.28
487.23	5.33
487.583	5.25
487.936	5.24
488.288	5.09
488.641	5.08
488.993	5.06
489.345	5.09
489.698	5.12
490.05	5.24
490.402	5.27
490.754	5.41
491.107	5.36
491.459	5.34
491.811	5.4
492.163	5.43
492.515	5.2
492.866	5.02
493.218	5.11
493.57	5.26
493.922	5.2
494.274	5.34
494.625	5.33
494.977	5.45
495.328	5.53
495.68	5.57
496.031	5.39
496.383	5.46
496.734	5.53
497.086	5.4
497.437	5.36
497.788	5.4
498.139	5.41
498.49	5.43
498.842	5.43
499.193	5.37
499.544	5.48
499.894	5.36
500.245	5.43
500.596	5.49
500.947	5.4
501.298	5.36
501.648	5.49
501.999	5.52
502.35	5.59
502.7	5.49
503.051	5.5
503.401	5.59
503.752	5.32
504.102	5.35
504.452	5.33
504.803	5.17
505.153	5.46
505.503	5.35
505.853	5.47
506.203	5.37
506.553	5.52
506.903	5.4
507.253	5.37
507.603	5.35
507.953	5.55
508.303	5.38
508.652	5.39
509.002	5.48
509.352	5.4
509.701	5.4
510.051	5.42
510.4	5.39
510.75	5.39
511.099	5.36
511.449	5.35
511.798	5.48
512.147	5.42
512.496	5.43
512.846	5.32
513.195	5.4
513.544	5.35
513.893	5.23
514.242	5.55
514.591	5.41
514.939	5.29
515.288	5.36
515.637	5.46
515.986	5.33
516.334	5.48
516.683	5.4
517.032	5.41
517.38	5.47
517.729	5.44
518.077	5.34
518.426	5.31
518.774	5.44
519.122	5.24
519.47	5.29
519.819	5.28
520.167	5.26
520.515	5.25
520.863	5.3
521.211	5.32
521.559	5.31
521.907	5.43
522.255	5.37
522.602	5.43
522.95	5.43
523.298	5.36
523.645	5.31
523.993	5.36
524.341	5.35
524.688	5.34
525.036	5.35
525.383	5.42
525.73	5.38
526.078	5.38
526.425	5.22
526.772	5.12
527.119	5.14
527.466	5.09
527.814	5.17
528.161	5.18
528.508	5.25
528.854	5.16
529.201	5.09
529.548	5.04
529.895	4.95
530.242	4.95
530.588	5.11
530.935	5.08
531.282	5.17
531.628	5.19
531.975	5.26
532.321	5.22
532.667	5.21
533.014	5.2
533.36	5.22
533.706	5.25
534.052	5.11
534.399	5.03
534.745	4.97
535.091	5.01
535.437	5.17
535.783	5.24
536.129	5.19
536.474	5.24
536.82	5.24
537.166	5.21
537.512	5.16
537.857	5.17
538.203	5.11
538.549	5.27
538.894	5.16
539.239	5.3
539.585	5.25
539.93	5.36
540.276	5.1
540.621	5.22
540.966	5.24
541.311	5.2
541.656	5.14
542.001	5.14
542.346	5.04
542.691	4.93
543.036	4.95
543.381	5.07
543.726	5.16
544.071	5.12
544.415	5.16
544.76	5.06
545.105	5.16
545.449	5.13
545.794	5.17
546.138	5.27
546.483	5.23
546.827	5.3
547.171	5.14
547.516	5.26
547.86	5.16
548.204	5.09
548.548	5.11
548.892	5.16
549.236	5.21
549.58	5.13
549.924	5.22
550.268	5.41
550.612	5.19
550.956	5.22
551.3	5.26
551.643	5.3
551.987	5.2
552.33	5.33
552.674	5.34
553.017	5.11
553.361	5.1
553.704	5.11
554.048	5.18
554.391	5.24
554.734	5.21
555.077	5.15
555.42	5.31
555.764	5.2
556.107	5.25
556.45	5.2
556.793	5.41
557.135	5.44
557.478	5.26
557.821	5.18
558.164	5.26
558.507	5.07
558.849	4.99
559.192	5.19
559.534	5.11
559.877	5.26
560.219	5.19
560.562	5.23
560.904	5.06
561.246	5.34
561.589	5.39
561.931	5.23
562.273	5.17
562.615	5.23
562.957	5.09
563.299	5.25
563.641	5.26
563.983	5.24
564.325	4.92
564.667	5.17
565.008	4.97
565.35	5.36
565.692	5.28
566.033	4.97
566.375	5.06
566.716	5.04
567.058	5.08
567.399	5.12
567.741	5.14
568.082	5.11
568.423	5.11
568.764	5.1
569.105	5
569.447	4.91
569.788	5.07
570.129	5.07
570.47	5.12
570.811	5.19
571.151	5.11
571.492	5.1
571.833	5.18
572.174	5
572.514	4.88
572.855	5.06
573.195	5.03
573.536	4.93
573.876	5.05
574.217	5.08
574.557	5.11
574.898	5.05
575.238	4.9
575.578	5.07
575.918	5.01
576.258	5.01
576.598	5.02
576.938	5.12
577.278	4.95
577.618	4.9
577.958	4.98
578.298	5.1
578.638	4.92
578.977	4.98
579.317	4.97
579.657	5
579.996	4.83
580.336	4.89
580.675	5.09
581.014	4.84
581.354	5.3
581.693	4.79
582.032	4.77
582.372	5.07
582.711	5.07
583.05	5.3
583.389	5.09
583.728	4.92
584.067	4.93
584.406	5.2
584.745	4.88
585.083	5.51
585.422	5.09
585.761	5.07
586.1	4.98
586.438	5.05
586.777	5.2
587.115	5.06
587.454	4.89
587.792	4.84
588.13	5.23
588.469	5.03
588.807	5.04
589.145	4.93
589.483	4.71
589.821	5.23
590.159	4.88
590.497	4.69
590.835	5.04
591.173	5.07
591.511	5.18
591.849	4.79
592.187	5.01
592.524	4.75
592.862	4.89
593.2	5.02
593.537	4.92
593.875	4.8
594.212	4.84
594.55	4.99
594.887	4.95
595.224	4.92
595.561	4.94
595.899	5.03
596.236	4.97
596.573	5.05
596.91	4.92
597.247	4.92
597.584	4.98
597.921	5
598.258	4.89
598.594	4.63
598.931	4.73
599.268	4.82
599.604	5
599.941	4.93
600.277	4.96
600.614	5
600.95	5.09
601.287	4.88
601.623	4.97
601.959	4.68
602.296	4.96
602.632	5.12
602.968	4.82
603.304	4.84
603.64	5.02
603.976	4.8
604.312	5.09
604.648	5.04
604.984	4.66
605.319	4.97
605.655	4.82
605.991	4.82
606.326	4.61
606.662	4.56
606.998	4.73
607.333	4.9
607.668	5.15
608.004	4.98
608.339	4.81
608.674	4.95
609.01	4.7
609.345	4.85
609.68	4.78
610.015	4.85
610.35	4.74
610.685	4.74
611.02	4.84
611.355	4.96
611.689	4.63
612.024	5.01
612.359	4.98
612.694	5.01
613.028	5.02
613.363	4.86
613.697	4.99
614.032	5.02
614.366	4.83
614.7	5.26
615.035	4.58
615.369	4.79
615.703	5.21
616.037	4.78
616.371	4.61
616.705	4.84
617.039	5.16
617.373	4.59
617.707	4.64
618.041	5.06
618.375	4.94
618.709	4.62
619.042	4.85
619.376	4.48
619.71	4.68
620.043	4.63
620.377	5.09
620.71	4.85
621.043	4.48
621.377	4.7
621.71	4.8
622.043	4.91
622.376	4.82
622.709	4.95
623.043	4.78
623.376	4.83
623.709	4.8
624.041	4.61
624.374	4.67
624.707	4.78
625.04	5.16
625.373	4.86
625.705	4.92
626.038	4.82
626.37	5.04
626.703	4.57
627.035	4.66
627.368	4.9
627.7	4.69
628.032	4.77
628.365	4.47
628.697	4.75
629.029	5.03
629.361	4.62
629.693	4.91
630.025	4.44
630.357	4.44
630.689	4.81
631.021	4.66
631.353	5.05
631.684	4.54
632.016	4.49
632.348	4.69
632.679	4.64
633.011	4.66
633.342	4.83
633.674	4.63
634.005	4.64
634.336	4.65
634.668	4.65
634.999	4.77
635.33	4.51
635.661	4.65
635.992	5.01
636.323	4.68
636.654	4.75
636.985	4.81
637.316	4.46
637.647	5.03
637.977	4.59
638.308	4.49
638.639	4.69
638.969	4.26
639.3	4.77
639.63	4.44
639.961	4.62
640.291	5.04
640.622	4.86
640.952	4.71
641.282	4.56
641.612	4.49
641.943	5.08
642.273	4.69
642.603	5.01
642.933	4.97
643.263	5.07
643.592	4.86
643.922	5.23
644.252	4.79
644.582	4.63
644.911	5.09
645.241	4.82
645.571	4.67
645.9	5.15
646.23	4.74
646.559	4.65
646.888	4.79
647.218	4.91
647.547	4.78
647.876	4.97
648.205	4.32
648.534	4.36
648.863	4.77
649.192	4.35
649.521	4.24
649.85	4.77
650.179	4.39
650.508	4.47
650.837	4.66
651.165	4.88
651.494	4.8
651.822	4.87
652.151	5.08
652.479	4.86
652.808	4.79
653.136	4.69
653.465	4.67
653.793	5.12
654.121	4.68
654.449	4.77
654.777	4.66
655.105	4.83
655.433	4.66
655.761	4.08
656.089	4.81
656.417	4.38
656.745	5.01
657.073	5.14
657.4	4.67
657.728	4.66
658.056	4.48
658.383	4.88
658.711	4.01
659.038	4.59
659.365	4.53
659.693	4.7
660.02	4.46
660.347	4.74
660.674	4.66
661.001	4.42
661.329	4.54
661.656	4.66
661.982	4.82
662.309	4.63
662.636	4.46
662.963	4.84
663.29	4.84
663.616	4.5
663.943	5
664.27	4.83
664.596	4.46
664.923	5.05
665.249	4.98
665.576	4.64
665.902	4.77
666.228	4.19
666.554	4.17
666.881	4.74
667.207	4.41
667.533	4.98
667.859	4.37
668.185	5.08
668.511	4.53
668.837	4.53
669.162	4.76
669.488	4.7
669.814	4.76
670.139	5.44
670.465	5.18
670.791	4.8
671.116	4.74
671.442	4.62
671.767	4.57
672.092	5.33
672.418	4.72
672.743	4.28
673.068	4.46
673.393	4.91
673.718	4.31
674.043	4.37
674.368	5.32
674.693	4.47
675.018	4.54
675.343	4.74
675.667	4.4
675.992	4.41
676.317	4.53
676.641	5.05
676.966	4.8
677.29	4.6
677.615	4.11
677.939	4.3
678.264	4.58
678.588	5.39
678.912	4.92
679.236	4.15
679.56	4.55
679.885	4.92
680.209	4.28
680.532	4.16
680.856	4.94
681.18	4.38
681.504	4.64
681.828	4.41
682.152	4.52
682.475	4.6
682.799	4.91
683.122	4.84
683.446	4.74
683.769	4.9
684.093	4.75
684.416	4.16
684.739	4.3
685.062	5.1
685.386	4.91
685.709	4.04
686.032	4.74
686.355	4.58
686.678	4.55
687.001	3.68
687.324	4.11
687.646	4.7
687.969	4.98
688.292	5.23
688.614	5.2
688.937	4.14
689.26	4.08
689.582	4.86
689.904	4.9
690.227	4.47
690.549	4.8
690.871	4.55
691.194	5.04
691.516	4.75
691.838	4.63
692.16	4.75
692.482	5.07
