Data from 0068_crown_Reflection__1__275.txt Node

Date: Fri Dec 16 16:17:34 CST 2022
User: ToomeyLab
Spectrometer: FLMS14357
Trigger mode: 0
Integration Time (sec): 1.000000E-2
Scans to average: 100
Electric dark correction enabled: true
Nonlinearity correction enabled: false
Boxcar width: 0
XAxis mode: Wavelengths
Number of Pixels in Spectrum: 2048
>>>>>Begin Spectral Data<<<<<
189.047	10.26
189.435	10.26
189.823	10.26
190.211	3.98
190.599	-79.89
190.987	-280.86
191.375	189.01
191.763	2806.7
192.151	-79.58
192.538	19.07
192.926	1015.71
193.314	109.34
193.702	-81.68
194.089	1171.74
194.477	-23.74
194.864	-355.41
195.252	-288.21
195.639	157.15
196.027	-554.98
196.414	-23.04
196.801	183.92
197.189	86.71
197.576	-21.77
197.963	-95.48
198.351	1.79
198.738	-52.64
199.125	-7.09
199.512	-76
199.899	-92.39
200.286	-205.45
200.673	9.82
201.06	33.19
201.447	20.21
201.833	61.37
202.22	34.12
202.607	-94.62
202.994	-21.54
203.38	-68.35
203.767	-119.3
204.154	-76.16
204.54	-0.09
204.927	5.15
205.313	55.78
205.699	-0.59
206.086	14.76
206.472	-65.8
206.858	-42.77
207.245	17.26
207.631	-0.51
208.017	7.51
208.403	-25.34
208.789	-17.94
209.175	19.97
209.561	-9.37
209.947	-3.65
210.333	-66.53
210.719	-17.67
211.105	-87.05
211.491	-23.49
211.876	-25.94
212.262	-28.89
212.648	-48.65
213.034	-19.76
213.419	4.36
213.805	5.69
214.19	-47.66
214.576	-30.73
214.961	-19.28
215.346	-22.04
215.732	-13.79
216.117	-55.58
216.502	-35.99
216.888	-119.8
217.273	-16
217.658	-57.09
218.043	-19.63
218.428	-46.33
218.813	-19.04
219.198	-98.4
219.583	-9.64
219.968	-12.49
220.353	8.19
220.738	-15.57
221.122	-4.27
221.507	-26.95
221.892	-7.31
222.276	-5.4
222.661	-10.06
223.046	-25.28
223.43	-4.07
223.815	-6.31
224.199	-10.22
224.583	-5.09
224.968	0.41
225.352	-12.05
225.736	8
226.121	-16.47
226.505	1.49
226.889	2.69
227.273	-1.62
227.657	4.27
228.041	4.29
228.425	5.58
228.809	-0.71
229.193	-1.98
229.577	1.13
229.961	4.41
230.344	4.08
230.728	3.88
231.112	4.42
231.495	4.14
231.879	3.68
232.263	1.15
232.646	4.05
233.03	0.62
233.413	1.45
233.797	4.24
234.18	0.93
234.563	2.58
234.946	0.7
235.33	5.28
235.713	2.55
236.096	1.94
236.479	4.04
236.862	2.94
237.245	2.08
237.628	4.15
238.011	2.47
238.394	2.74
238.777	4.4
239.16	-1.06
239.543	1
239.925	3.45
240.308	1.69
240.691	2.59
241.073	4.77
241.456	1.9
241.838	3.11
242.221	3.97
242.603	4.44
242.986	4.53
243.368	3.31
243.75	3.35
244.133	3.85
244.515	3.93
244.897	3.61
245.279	3.83
245.661	3.38
246.043	3.76
246.425	2.44
246.807	3.78
247.189	3.09
247.571	3.96
247.953	3.6
248.335	3.87
248.717	4.02
249.098	4.07
249.48	3.73
249.862	3.98
250.243	3.51
250.625	3.37
251.006	2.86
251.388	4.12
251.769	3.24
252.151	3.25
252.532	3.46
252.913	3.97
253.295	3.3
253.676	3.69
254.057	3.23
254.438	2.99
254.819	3.87
255.2	3.41
255.581	2.93
255.962	4.56
256.343	2.88
256.724	2.25
257.105	2.6
257.486	2.92
257.867	2.11
258.247	2.87
258.628	3.84
259.009	3.88
259.389	3.29
259.77	3.05
260.15	3.34
260.531	3.46
260.911	3.28
261.292	3.49
261.672	3.37
262.052	3.37
262.432	3.52
262.813	3.11
263.193	2.47
263.573	3.26
263.953	3.15
264.333	3.57
264.713	2.88
265.093	2.47
265.473	4.3
265.853	2.63
266.233	2.21
266.612	3.34
266.992	2.89
267.372	3.4
267.752	2.43
268.131	3.19
268.511	3.25
268.89	3.27
269.27	3.11
269.649	3.31
270.029	3.49
270.408	3.28
270.787	3.28
271.167	3.77
271.546	2.22
271.925	3.05
272.304	3.26
272.683	2.96
273.062	3.29
273.441	3.58
273.82	3.25
274.199	3.43
274.578	3.01
274.957	3
275.336	3.21
275.715	3.56
276.093	3.47
276.472	3.32
276.851	3.61
277.229	3.41
277.608	2.44
277.986	2.99
278.365	2.83
278.743	3.06
279.122	2.6
279.5	2.49
279.878	3.43
280.257	3.55
280.635	2.96
281.013	3.17
281.391	2.84
281.769	2.21
282.147	2.82
282.525	2.72
282.903	2.89
283.281	2.88
283.659	2.96
284.037	2.55
284.415	3.36
284.792	3.1
285.17	2.36
285.548	2.66
285.925	3.15
286.303	2.95
286.68	3.25
287.058	3.3
287.435	3.1
287.813	2.99
288.19	3.21
288.567	2.85
288.945	3.05
289.322	2.92
289.699	2.99
290.076	3.11
290.453	2.82
290.83	3.74
291.207	3.16
291.584	2.95
291.961	3.12
292.338	3.07
292.715	2.89
293.092	2.52
293.469	3.44
293.845	3.27
294.222	2.35
294.599	3.05
294.975	2.84
295.352	2.69
295.728	3.36
296.105	2.94
296.481	3.52
296.858	3.01
297.234	2.71
297.61	2.91
297.986	3.04
298.363	2.4
298.739	3.03
299.115	2.59
299.491	2.78
299.867	2.87
300.243	2.51
300.619	2.71
300.995	2.9
301.371	2.7
301.746	2.52
302.122	2.85
302.498	2.74
302.874	2.9
303.249	2.93
303.625	2.48
304	2.29
304.376	2.85
304.751	2.92
305.127	2.32
305.502	3
305.878	2.76
306.253	2.49
306.628	3.21
307.003	2.55
307.378	2.52
307.754	3.03
308.129	2.45
308.504	2.41
308.879	2.65
309.254	2.84
309.629	2.32
310.003	3.1
310.378	2.82
310.753	2.57
311.128	2.68
311.502	2.39
311.877	2.43
312.252	2.87
312.626	2.86
313.001	2.84
313.375	2.7
313.75	2.8
314.124	3.08
314.498	2.18
314.873	2.57
315.247	2.25
315.621	3.06
315.995	2.37
316.369	2.72
316.743	2.85
317.117	2.41
317.491	2.97
317.865	2.05
318.239	2.78
318.613	2.72
318.987	2.52
319.361	2.34
319.734	2.84
320.108	2.3
320.482	2.38
320.855	2.18
321.229	2.45
321.602	2.65
321.976	2.62
322.349	1.86
322.723	2.11
323.096	2.14
323.469	2.22
323.843	2.66
324.216	2.01
324.589	3.31
324.962	2.58
325.335	2.82
325.708	2.5
326.081	2.96
326.454	2.91
326.827	2.7
327.2	2.6
327.573	3.02
327.945	2.75
328.318	2.65
328.691	3.09
329.063	2.83
329.436	2.68
329.809	2.03
330.181	2.88
330.553	2.43
330.926	2.47
331.298	2.61
331.671	2.9
332.043	2.81
332.415	3.2
332.787	3.08
333.159	2.56
333.532	2.57
333.904	2.87
334.276	2.8
334.648	2.74
335.02	2.07
335.391	2.68
335.763	2.15
336.135	2.58
336.507	2.69
336.879	2.43
337.25	2.83
337.622	2.35
337.993	2.44
338.365	2.75
338.736	2.7
339.108	2.3
339.479	2.65
339.851	3.09
340.222	2.76
340.593	2.67
340.964	2.53
341.336	2.1
341.707	2.16
342.078	2.15
342.449	2.94
342.82	2.51
343.191	2.35
343.562	2.54
343.933	2.53
344.303	2.48
344.674	2.69
345.045	2.82
345.416	2.55
345.786	2.15
346.157	2.42
346.527	2.51
346.898	2.6
347.268	2.64
347.639	2.47
348.009	2.76
348.38	2.91
348.75	2.69
349.12	2.74
349.49	2.53
349.861	3.1
350.231	3.28
350.601	2.86
350.971	2.57
351.341	3.11
351.711	2.81
352.081	2.9
352.45	2.67
352.82	2.7
353.19	2.36
353.56	2.89
353.929	2.85
354.299	2.97
354.669	2.57
355.038	2.85
355.408	3.12
355.777	2.22
356.147	2.65
356.516	3.16
356.885	2.79
357.254	2.75
357.624	2.78
357.993	2.48
358.362	2.82
358.731	2.53
359.1	2.93
359.469	2.5
359.838	2.79
360.207	2.49
360.576	2.93
360.945	2.44
361.314	3.18
361.682	2.57
362.051	2.63
362.42	3.03
362.788	2.74
363.157	2.76
363.525	2.77
363.894	2.64
364.262	2.88
364.631	3.3
364.999	2.56
365.367	3.13
365.735	2.35
366.104	2.36
366.472	2.91
366.84	2.79
367.208	2.36
367.576	2.85
367.944	3.11
368.312	2.56
368.68	3.23
369.048	2.97
369.416	2.52
369.783	2.84
370.151	2.99
370.519	2.55
370.886	2.89
371.254	2.88
371.621	3.02
371.989	3.09
372.356	2.73
372.724	2.75
373.091	2.8
373.458	2.71
373.826	2.71
374.193	3.13
374.56	2.46
374.927	2.72
375.294	3.12
375.661	3.25
376.028	2.97
376.395	2.9
376.762	3.11
377.129	3.1
377.496	2.99
377.863	3.09
378.229	2.9
378.596	2.78
378.963	2.64
379.329	2.96
379.696	3.06
380.062	3.4
380.429	2.94
380.795	2.84
381.161	2.77
381.528	2.65
381.894	2.86
382.26	2.73
382.626	2.71
382.993	3.01
383.359	2.92
383.725	3.26
384.091	2.86
384.457	2.84
384.823	2.7
385.188	3.03
385.554	3.27
385.92	3.11
386.286	3.25
386.651	2.99
387.017	3.09
387.383	3.26
387.748	2.78
388.114	2.8
388.479	3.3
388.845	3.14
389.21	3.19
389.575	2.96
389.94	3.28
390.306	2.82
390.671	3.02
391.036	3.15
391.401	3.28
391.766	3.06
392.131	3.04
392.496	2.92
392.861	2.84
393.226	3.16
393.591	3.08
393.956	2.99
394.32	2.93
394.685	3.24
395.05	3.02
395.414	3.06
395.779	3.04
396.143	3.18
396.508	3.09
396.872	3.25
397.236	2.79
397.601	3
397.965	2.91
398.329	3.15
398.694	2.93
399.058	3.07
399.422	3.16
399.786	2.92
400.15	3.12
400.514	3
400.878	2.99
401.242	3.22
401.605	3.02
401.969	3.01
402.333	2.71
402.697	3.5
403.06	3.15
403.424	3.15
403.787	3.14
404.151	3.02
404.514	3.02
404.878	3.2
405.241	3.36
405.604	3.29
405.968	3.19
406.331	3.22
406.694	3.08
407.057	3.44
407.42	3.05
407.783	3.04
408.146	3.08
408.509	3
408.872	2.98
409.235	3.17
409.598	3.07
409.961	3.27
410.323	3.11
410.686	3.1
411.049	2.85
411.411	3.02
411.774	3.12
412.136	3.06
412.499	3.16
412.861	3.15
413.223	3.32
413.586	3.03
413.948	3.34
414.31	3.16
414.672	3.21
415.035	3.44
415.397	3.22
415.759	3
416.121	3.4
416.483	3.17
416.845	3.13
417.206	3.45
417.568	3.2
417.93	3.07
418.292	3.34
418.653	3.14
419.015	3.06
419.377	3.16
419.738	3.11
420.1	3.17
420.461	3.03
420.822	3.22
421.184	3.16
421.545	3.09
421.906	3.14
422.267	3.05
422.629	3.12
422.99	3.19
423.351	3.26
423.712	3.13
424.073	3.25
424.434	3.03
424.795	3.21
425.155	3.18
425.516	3.11
425.877	3.17
426.238	3.26
426.598	3.26
426.959	3.2
427.32	3.32
427.68	3.26
428.041	3.27
428.401	3.16
428.761	3.29
429.122	3.13
429.482	3.24
429.842	3.18
430.202	3.08
430.563	3.33
430.923	3.07
431.283	3.28
431.643	3.14
432.003	3.28
432.363	3.25
432.722	3.05
433.082	3.23
433.442	3.16
433.802	3.24
434.161	3.17
434.521	3.14
434.881	3.26
435.24	3.22
435.6	3.29
435.959	3.22
436.319	3.1
436.678	3.17
437.037	3.27
437.396	3.14
437.756	3.28
438.115	3.43
438.474	3.34
438.833	3.29
439.192	3.36
439.551	3.25
439.91	3.26
440.269	3.36
440.628	3.27
440.987	3.1
441.345	3.19
441.704	3.29
442.063	3.27
442.421	3.23
442.78	3.15
443.138	3.23
443.497	3.07
443.855	3.3
444.214	3.34
444.572	3.23
444.93	3.34
445.288	3.33
445.647	3.28
446.005	3.04
446.363	3.13
446.721	3.08
447.079	3.28
447.437	3.27
447.795	3.15
448.153	3.14
448.51	3.2
448.868	3.28
449.226	3.29
449.584	3.15
449.941	3.38
450.299	3.25
450.656	3.27
451.014	3.28
451.371	3.22
451.729	3.24
452.086	3.2
452.443	3.33
452.801	3.36
453.158	3.28
453.515	3.2
453.872	3.41
454.229	3.24
454.586	3.19
454.943	3.29
455.3	3.35
455.657	3.15
456.014	3.24
456.371	3.27
456.727	3.06
457.084	3.01
457.441	3.13
457.797	3.39
458.154	3.33
458.51	3.32
458.867	3.16
459.223	3.34
459.58	3.15
459.936	3.22
460.292	3.21
460.648	3.09
461.005	3.2
461.361	3.08
461.717	3.35
462.073	3.28
462.429	3.39
462.785	3.27
463.141	3.48
463.496	3.24
463.852	3.48
464.208	3.28
464.564	3.22
464.919	3.27
465.275	3.29
465.631	3.23
465.986	3.07
466.342	3.39
466.697	3.31
467.052	3.22
467.408	3.24
467.763	3.16
468.118	3.41
468.473	3.42
468.829	3.39
469.184	3.43
469.539	3.2
469.894	3.31
470.249	3.4
470.603	3.38
470.958	3.39
471.313	3.22
471.668	3.34
472.023	3.4
472.377	3.3
472.732	3.23
473.086	3.04
473.441	3.37
473.795	3.33
474.15	3.2
474.504	3.38
474.859	3.41
475.213	3.33
475.567	3.25
475.921	3.49
476.275	3.38
476.63	3.33
476.984	3.18
477.338	3.58
477.692	3.24
478.045	3.26
478.399	3.34
478.753	3.22
479.107	3.28
479.461	3.42
479.814	3.31
480.168	3.33
480.521	3.3
480.875	3.53
481.228	3.42
481.582	3.19
481.935	3.33
482.289	3.11
482.642	3.22
482.995	3.24
483.348	3.36
483.701	3.2
484.055	3.13
484.408	3.09
484.761	2.98
485.114	2.93
485.466	3.03
485.819	3.12
486.172	3.2
486.525	3.27
486.878	3.24
487.23	3.27
487.583	3.22
487.936	3.21
488.288	3.14
488.641	3.04
488.993	3.09
489.345	3.09
489.698	3.2
490.05	3.21
490.402	3.29
490.754	3.39
491.107	3.27
491.459	3.41
491.811	3.29
492.163	3.24
492.515	3.18
492.866	3.09
493.218	3.08
493.57	3.24
493.922	3.36
494.274	3.29
494.625	3.32
494.977	3.32
495.328	3.41
495.68	3.46
496.031	3.39
496.383	3.36
496.734	3.48
497.086	3.16
497.437	3.38
497.788	3.3
498.139	3.25
498.49	3.36
498.842	3.29
499.193	3.36
499.544	3.33
499.894	3.33
500.245	3.28
500.596	3.39
500.947	3.32
501.298	3.34
501.648	3.26
501.999	3.51
502.35	3.45
502.7	3.35
503.051	3.46
503.401	3.38
503.752	3.16
504.102	3.34
504.452	3.27
504.803	3.29
505.153	3.32
505.503	3.32
505.853	3.21
506.203	3.3
506.553	3.35
506.903	3.3
507.253	3.45
507.603	3.28
507.953	3.46
508.303	3.43
508.652	3.37
509.002	3.21
509.352	3.42
509.701	3.25
510.051	3.31
510.4	3.37
510.75	3.32
511.099	3.18
511.449	3.37
511.798	3.41
512.147	3.27
512.496	3.38
512.846	3.27
513.195	3.35
513.544	3.31
513.893	3.21
514.242	3.3
514.591	3.34
514.939	3.34
515.288	3.33
515.637	3.4
515.986	3.34
516.334	3.34
516.683	3.38
517.032	3.25
517.38	3.4
517.729	3.46
518.077	3.39
518.426	3.26
518.774	3.32
519.122	3.31
519.47	3.17
519.819	3.27
520.167	3.28
520.515	3.24
520.863	3.3
521.211	3.32
521.559	3.33
521.907	3.29
522.255	3.36
522.602	3.45
522.95	3.43
523.298	3.36
523.645	3.27
523.993	3.51
524.341	3.26
524.688	3.27
525.036	3.55
525.383	3.34
525.73	3.49
526.078	3.4
526.425	3.21
526.772	3.13
527.119	3.17
527.466	3.26
527.814	3.19
528.161	3.34
528.508	3.33
528.854	3.22
529.201	3.17
529.548	3.08
529.895	3.06
530.242	3.05
530.588	3.17
530.935	3.27
531.282	3.33
531.628	3.32
531.975	3.42
532.321	3.36
532.667	3.37
533.014	3.39
533.36	3.28
533.706	3.25
534.052	3.22
534.399	3.15
534.745	3.1
535.091	3.18
535.437	3.32
535.783	3.35
536.129	3.4
536.474	3.43
536.82	3.41
537.166	3.44
537.512	3.34
537.857	3.21
538.203	3.24
538.549	3.32
538.894	3.31
539.239	3.45
539.585	3.51
539.93	3.39
540.276	3.34
540.621	3.29
540.966	3.41
541.311	3.27
541.656	3.3
542.001	3.32
542.346	3.14
542.691	3.05
543.036	3.12
543.381	3.27
543.726	3.29
544.071	3.3
544.415	3.37
544.76	3.2
545.105	3.3
545.449	3.23
545.794	3.26
546.138	3.43
546.483	3.24
546.827	3.23
547.171	3.32
547.516	3.43
547.86	3.33
548.204	3.24
548.548	3.32
548.892	3.23
549.236	3.32
549.58	3.35
549.924	3.48
550.268	3.4
550.612	3.48
550.956	3.28
551.3	3.41
551.643	3.39
551.987	3.31
552.33	3.31
552.674	3.33
553.017	3.47
553.361	3.33
553.704	3.12
554.048	3.3
554.391	3.2
554.734	3.31
555.077	3.36
555.42	3.27
555.764	3.32
556.107	3.39
556.45	3.4
556.793	3.51
557.135	3.65
557.478	3.43
557.821	3.24
558.164	3.35
558.507	3.23
558.849	3.4
559.192	3.2
559.534	3.13
559.877	3.38
560.219	3.57
560.562	3.59
560.904	3.26
561.246	3.5
561.589	3.47
561.931	3.51
562.273	3.37
562.615	3.34
562.957	3.34
563.299	3.42
563.641	3.43
563.983	3.3
564.325	3.12
564.667	3.35
565.008	3.41
565.35	3.43
565.692	3.48
566.033	3.4
566.375	3.13
566.716	3.36
567.058	3.39
567.399	3.48
567.741	3.32
568.082	3.36
568.423	3.2
568.764	3.41
569.105	3.4
569.447	3.28
569.788	3.44
570.129	3.37
570.47	3.5
570.811	3.38
571.151	3.19
571.492	3.58
571.833	3.42
572.174	3.4
572.514	3.22
572.855	3.51
573.195	3.37
573.536	3.35
573.876	3.32
574.217	3.29
574.557	3.32
574.898	3.32
575.238	3.23
575.578	3.44
575.918	3.35
576.258	3.33
576.598	3.29
576.938	3.36
577.278	3.43
577.618	3.32
577.958	3.3
578.298	3.46
578.638	3.35
578.977	3.36
579.317	3.53
579.657	3.32
579.996	3.37
580.336	3.27
580.675	3.4
581.014	3.28
581.354	3.39
581.693	3.38
582.032	3.37
582.372	3.25
582.711	3.47
583.05	3.53
583.389	3.26
583.728	3.44
584.067	3.51
584.406	3.65
584.745	2.97
585.083	3.44
585.422	3.26
585.761	3.49
586.1	3.62
586.438	3.45
586.777	3.42
587.115	3.36
587.454	3.39
587.792	3.32
588.13	3.68
588.469	3.57
588.807	3.55
589.145	3.64
589.483	3.39
589.821	3.43
590.159	3.26
590.497	3.08
590.835	3.25
591.173	3.4
591.511	3.38
591.849	3.4
592.187	3.61
592.524	3.39
592.862	3.53
593.2	3.45
593.537	3.27
593.875	3.34
594.212	3.28
594.55	3.41
594.887	3.29
595.224	3.25
595.561	3.31
595.899	3.25
596.236	3.49
596.573	3.21
596.91	3.26
597.247	3.34
597.584	3.44
597.921	3.24
598.258	3.35
598.594	3.06
598.931	3.31
599.268	3.44
599.604	3.42
599.941	3.4
600.277	3.52
600.614	3.47
600.95	3.39
601.287	3.39
601.623	3.62
601.959	3.27
602.296	3.21
602.632	3.56
602.968	3.11
603.304	3.46
603.64	3.26
603.976	3.35
604.312	3.5
604.648	3.42
604.984	3.34
605.319	3.34
605.655	3.46
605.991	3.37
606.326	3.25
606.662	3.2
606.998	3.29
607.333	3.32
607.668	3.32
608.004	3.59
608.339	3.38
608.674	3.15
609.01	3.56
609.345	3.46
609.68	3.11
610.015	3.34
610.35	3.14
610.685	3.29
611.02	3.42
611.355	3.37
611.689	3.17
612.024	3.61
612.359	3.38
612.694	3.62
613.028	3.95
613.363	3.25
613.697	3.47
614.032	3.66
614.366	3.26
614.7	3.66
615.035	3.28
615.369	3.3
615.703	3.85
616.037	3.41
616.371	3.14
616.705	3.14
617.039	3.48
617.373	3.34
617.707	3.29
618.041	3.42
618.375	3.27
618.709	3.43
619.042	3.52
619.376	3.08
619.71	3.28
620.043	3.34
620.377	3.26
620.71	3.59
621.043	3.06
621.377	3.54
621.71	3.55
622.043	3.25
622.376	3.72
622.709	3.58
623.043	3.11
623.376	3.46
623.709	3.53
624.041	3.46
624.374	3.14
624.707	3.15
625.04	3.31
625.373	3.35
625.705	3.35
626.038	3.27
626.37	3.41
626.703	3.5
627.035	3.43
627.368	3.42
627.7	3.18
628.032	3.46
628.365	3.08
628.697	3.22
629.029	3.48
629.361	3.01
629.693	3.54
630.025	3.54
630.357	3.31
630.689	3.54
631.021	3.48
631.353	3.47
631.684	3.46
632.016	3.14
632.348	3.55
632.679	3.33
633.011	3.46
633.342	3.49
633.674	3.21
634.005	3.42
634.336	3.41
634.668	3.37
634.999	3.19
635.33	3.25
635.661	3.47
635.992	3.37
636.323	3.49
636.654	3.62
636.985	3.5
637.316	3.37
637.647	3.49
637.977	3.06
638.308	3.27
638.639	3.1
638.969	2.97
639.3	3.28
639.63	3.21
639.961	3.19
640.291	3.51
640.622	3.57
640.952	3.2
641.282	2.92
641.612	3.3
641.943	3.55
642.273	3.5
642.603	3.6
642.933	3.65
643.263	3.52
643.592	3.58
643.922	4.01
644.252	3.45
644.582	3.4
644.911	2.99
645.241	3.38
645.571	3.28
645.9	3.91
646.23	3.29
646.559	3.73
646.888	2.99
647.218	3.61
647.547	3.37
647.876	3.34
648.205	3.09
648.534	3.24
648.863	3.81
649.192	3.22
649.521	3.31
649.85	3.65
650.179	3.11
650.508	3.53
650.837	3.61
651.165	3.45
651.494	3.25
651.822	3.19
652.151	3.4
652.479	3.55
652.808	3.03
653.136	3.29
653.465	3.57
653.793	3.33
654.121	3.58
654.449	3.31
654.777	3.36
655.105	3.69
655.433	3.6
655.761	3.33
656.089	3.29
656.417	3.34
656.745	3.82
657.073	3.73
657.4	3.18
657.728	3.04
658.056	3.17
658.383	3.3
658.711	3.22
659.038	3.93
659.365	3.25
659.693	3.53
660.02	2.94
660.347	3.52
660.674	3.49
661.001	3.16
661.329	3.37
661.656	3.26
661.982	3.61
662.309	3.48
662.636	3.08
662.963	3.59
663.29	3.73
663.616	3.17
663.943	3.67
664.27	3.81
664.596	3.19
664.923	3.91
665.249	3.09
665.576	3.73
665.902	3.31
666.228	3.26
666.554	3.22
666.881	3.54
667.207	2.89
667.533	3.67
667.859	2.88
668.185	3.8
668.511	3
668.837	2.5
669.162	3.19
669.488	3.34
669.814	3.39
670.139	3.95
670.465	3.93
670.791	3.73
671.116	3.65
671.442	3.37
671.767	3.64
672.092	3.34
672.418	3.59
672.743	3.14
673.068	3.1
673.393	3.61
673.718	2.94
674.043	3.43
674.368	3.36
674.693	3.03
675.018	3.18
675.343	3.54
675.667	3.76
675.992	2.7
676.317	3.64
676.641	3.15
676.966	4.08
677.29	3.07
677.615	3.76
677.939	3.62
678.264	3.6
678.588	3.49
678.912	3.9
679.236	3.78
679.56	3.04
679.885	3.64
680.209	3.04
680.532	2.99
680.856	3.87
681.18	3.45
681.504	3.52
681.828	2.84
682.152	3.07
682.475	3.54
682.799	3.65
683.122	3.27
683.446	2.89
683.769	3.64
684.093	3.39
684.416	3.35
684.739	3.76
685.062	3.81
685.386	3.65
685.709	2.93
686.032	3.39
686.355	3.25
686.678	3.46
687.001	2.88
687.324	3.4
687.646	3.8
687.969	3.49
688.292	3.87
688.614	3.5
688.937	2.89
689.26	3.38
689.582	3.84
689.904	3.03
690.227	3.62
690.549	3.62
690.871	3.39
691.194	3.48
691.516	2.94
