Data from 0068_forehead_Reflection__0__279.txt Node

Date: Fri Dec 16 16:19:13 CST 2022
User: ToomeyLab
Spectrometer: FLMS14357
Trigger mode: 0
Integration Time (sec): 1.000000E-2
Scans to average: 100
Electric dark correction enabled: true
Nonlinearity correction enabled: false
Boxcar width: 0
XAxis mode: Wavelengths
Number of Pixels in Spectrum: 2048
>>>>>Begin Spectral Data<<<<<
189.047	94.76
189.435	94.76
189.823	94.76
190.211	-308.95
190.599	-1.43
190.987	-315.89
191.375	-126.23
191.763	1296.39
192.151	415.04
192.538	36.93
192.926	-51.9
193.314	83.74
193.702	-113.03
194.089	2567.39
194.477	-50.33
194.864	-42.93
195.252	-139.03
195.639	233.6
196.027	122.59
196.414	113.78
196.801	159.58
197.189	141.54
197.576	398.8
197.963	184.2
198.351	19.24
198.738	-2.31
199.125	42.31
199.512	31.74
199.899	-18.09
200.286	-98.75
200.673	19.83
201.06	37.83
201.447	56.9
201.833	-66.14
202.22	20.03
202.607	-79.96
202.994	61.49
203.38	9.54
203.767	0.03
204.154	-88.04
204.54	36.51
204.927	5.83
205.313	50.69
205.699	29.77
206.086	46.84
206.472	-13.74
206.858	9.81
207.245	38.3
207.631	21.49
208.017	6.35
208.403	-15.13
208.789	1.42
209.175	39.39
209.561	11.1
209.947	25.05
210.333	-8.68
210.719	11.16
211.105	-61.53
211.491	4.28
211.876	17.31
212.262	-31.05
212.648	-62.55
213.034	-6.16
213.419	43.02
213.805	11.85
214.19	10.6
214.576	5.22
214.961	8.9
215.346	-9
215.732	-1.94
216.117	3.12
216.502	-25.76
216.888	-39.76
217.273	11.87
217.658	-45.02
218.043	-7.86
218.428	25.79
218.813	-4.14
219.198	-69.51
219.583	24.67
219.968	24.22
220.353	33.5
220.738	-0.76
221.122	-7.75
221.507	2.7
221.892	1.55
222.276	-7.13
222.661	-6.81
223.046	-16.57
223.43	11.65
223.815	13.34
224.199	3.97
224.583	-2
224.968	10.49
225.352	-7.63
225.736	4.11
226.121	-20.8
226.505	0.44
226.889	6.5
227.273	5.38
227.657	-0.86
228.041	5.89
228.425	2.82
228.809	6.46
229.193	3.48
229.577	1.84
229.961	3.81
230.344	3.42
230.728	3.63
231.112	2.95
231.495	3.4
231.879	4.73
232.263	2.72
232.646	2.94
233.03	1.85
233.413	4.12
233.797	5.3
234.18	0.87
234.563	1.79
234.946	2.63
235.33	3.59
235.713	3.3
236.096	1.41
236.479	3.36
236.862	3.64
237.245	5.47
237.628	5.89
238.011	3.19
238.394	2.9
238.777	2.71
239.16	1.97
239.543	2.68
239.925	3.79
240.308	3.12
240.691	2.55
241.073	3.99
241.456	2.81
241.838	2.42
242.221	2.95
242.603	3.3
242.986	4.91
243.368	2.73
243.75	3.22
244.133	3
244.515	2.75
244.897	3.32
245.279	2.9
245.661	2.71
246.043	3.54
246.425	3.48
246.807	3.9
247.189	3.26
247.571	3.61
247.953	3.41
248.335	3.51
248.717	3.28
249.098	3.47
249.48	2.89
249.862	3.23
250.243	3.2
250.625	3.32
251.006	3.03
251.388	4.59
251.769	2.42
252.151	3.39
252.532	3.29
252.913	3.93
253.295	3.21
253.676	3.42
254.057	3
254.438	3.3
254.819	4.09
255.2	4.72
255.581	2.8
255.962	3.1
256.343	4.26
256.724	2.63
257.105	2.24
257.486	4.1
257.867	2.17
258.247	2.77
258.628	5.2
259.009	3.6
259.389	3.41
259.77	3.9
260.15	4.57
260.531	3.64
260.911	3.19
261.292	3.33
261.672	3.37
262.052	3.22
262.432	3.08
262.813	3.14
263.193	3.31
263.573	3.16
263.953	2.98
264.333	3.54
264.713	2.79
265.093	3.45
265.473	3.64
265.853	3.36
266.233	3.57
266.612	3.6
266.992	2.89
267.372	3.27
267.752	2.72
268.131	3.29
268.511	3.46
268.89	3.51
269.27	3.33
269.649	2.97
270.029	2.97
270.408	3.18
270.787	3.27
271.167	3.8
271.546	2.24
271.925	3.81
272.304	3.91
272.683	3.02
273.062	3.56
273.441	3.84
273.82	3.3
274.199	3.24
274.578	2.8
274.957	3.05
275.336	2.57
275.715	3.58
276.093	4.14
276.472	3.67
276.851	3.5
277.229	3.61
277.608	2.73
277.986	3.3
278.365	2.82
278.743	3.5
279.122	2.63
279.5	2.35
279.878	2.82
280.257	3.62
280.635	2.73
281.013	3.85
281.391	3.38
281.769	2.86
282.147	3.49
282.525	3.08
282.903	3.64
283.281	3.02
283.659	3.47
284.037	2.73
284.415	3.87
284.792	3.12
285.17	3.16
285.548	3.12
285.925	3.32
286.303	3.44
286.68	3.76
287.058	3.31
287.435	3.17
287.813	3.54
288.19	3.58
288.567	3.13
288.945	3.34
289.322	3.43
289.699	2.99
290.076	3.56
290.453	3.15
290.83	3.76
291.207	3.45
291.584	3.56
291.961	4.04
292.338	3.89
292.715	3.74
293.092	3.9
293.469	4.31
293.845	4.06
294.222	3.45
294.599	4.53
294.975	3.71
295.352	3.42
295.728	4.25
296.105	3.88
296.481	4.63
296.858	4.51
297.234	4.16
297.61	4.18
297.986	3.92
298.363	3.79
298.739	4.47
299.115	3.98
299.491	4.41
299.867	4.54
300.243	4.1
300.619	4.43
300.995	4.96
301.371	4.72
301.746	4.27
302.122	4.93
302.498	4.55
302.874	4.85
303.249	4.49
303.625	4.3
304	4.73
304.376	4.89
304.751	4.81
305.127	5.23
305.502	4.98
305.878	5.16
306.253	5.05
306.628	5.95
307.003	5.65
307.378	5.49
307.754	5.65
308.129	5.39
308.504	5.2
308.879	5.5
309.254	6.06
309.629	5.91
310.003	6.03
310.378	5.41
310.753	5.58
311.128	5.81
311.502	5.56
311.877	5.77
312.252	5.9
312.626	5.76
313.001	5.78
313.375	6.33
313.75	5.97
314.124	6.92
314.498	6.29
314.873	6.44
315.247	6.28
315.621	6.68
315.995	6.44
316.369	6.61
316.743	6.19
317.117	6.58
317.491	6.43
317.865	6.08
318.239	7.05
318.613	6.58
318.987	7.29
319.361	6.84
319.734	6.67
320.108	7.35
320.482	7.38
320.855	7
321.229	7.72
321.602	6.9
321.976	7.21
322.349	6.85
322.723	7.05
323.096	7.1
323.469	7.12
323.843	8.24
324.216	7.3
324.589	8.07
324.962	8.1
325.335	7.83
325.708	8.46
326.081	8.07
326.454	7.8
326.827	8.43
327.2	8.24
327.573	8.06
327.945	8.18
328.318	8.09
328.691	8.91
329.063	8.22
329.436	8.07
329.809	8.22
330.181	8.33
330.553	8.31
330.926	9.1
331.298	8.24
331.671	8.76
332.043	9.09
332.415	9.09
332.787	9.25
333.159	8.92
333.532	9.3
333.904	9.71
334.276	9
334.648	8.95
335.02	8.51
335.391	9.07
335.763	9.08
336.135	8.87
336.507	9.68
336.879	9.1
337.25	9.21
337.622	9.35
337.993	9.67
338.365	9.48
338.736	9.82
339.108	9.64
339.479	9.36
339.851	9.39
340.222	9.39
340.593	9.66
340.964	10.04
341.336	9.61
341.707	9.53
342.078	9.73
342.449	10
342.82	9.8
343.191	9.31
343.562	10.22
343.933	9.77
344.303	10.04
344.674	9.83
345.045	10.42
345.416	10.33
345.786	9.91
346.157	10.51
346.527	9.68
346.898	10
347.268	10.34
347.639	10.41
348.009	10.68
348.38	10.22
348.75	10.83
349.12	10.64
349.49	10.66
349.861	11.27
350.231	10.59
350.601	10.73
350.971	10.43
351.341	11.2
351.711	10.75
352.081	10.69
352.45	10.84
352.82	11.28
353.19	11.07
353.56	11.26
353.929	11.13
354.299	11.25
354.669	11.21
355.038	10.99
355.408	11.79
355.777	11.24
356.147	11.71
356.516	11.5
356.885	10.99
357.254	11.55
357.624	11.53
357.993	11.56
358.362	11.59
358.731	11.62
359.1	12
359.469	11.79
359.838	11.9
360.207	11.67
360.576	12.12
360.945	11.86
361.314	12.28
361.682	11.85
362.051	12.15
362.42	12.26
362.788	12.23
363.157	12.04
363.525	12.3
363.894	12.08
364.262	12.12
364.631	12.76
364.999	12.44
365.367	12.96
365.735	12.2
366.104	12.04
366.472	13.06
366.84	12.75
367.208	12.42
367.576	12.62
367.944	12.95
368.312	12.6
368.68	12.71
369.048	12.81
369.416	12.94
369.783	13.25
370.151	13.18
370.519	13.1
370.886	13.41
371.254	13.31
371.621	13.22
371.989	13.5
372.356	13.38
372.724	13.63
373.091	13.73
373.458	13.67
373.826	13.42
374.193	14.19
374.56	13.76
374.927	13.62
375.294	14.06
375.661	13.71
376.028	13.92
376.395	13.84
376.762	14.05
377.129	14.54
377.496	14.12
377.863	13.96
378.229	13.96
378.596	14.03
378.963	13.97
379.329	14.32
379.696	14.14
380.062	14.38
380.429	14.7
380.795	14.62
381.161	14.29
381.528	14.25
381.894	14.72
382.26	14.56
382.626	14.57
382.993	14.33
383.359	14.62
383.725	15.12
384.091	14.92
384.457	15.09
384.823	15.08
385.188	15.13
385.554	15.16
385.92	15.32
386.286	15.29
386.651	15.2
387.017	15.56
387.383	15.47
387.748	15.37
388.114	15.48
388.479	15.56
388.845	15.68
389.21	15.69
389.575	15.7
389.94	15.89
390.306	15.51
390.671	15.78
391.036	16
391.401	15.78
391.766	15.9
392.131	15.96
392.496	15.76
392.861	15.98
393.226	16.08
393.591	16.08
393.956	16.25
394.32	16.11
394.685	16.43
395.05	16.17
395.414	16.47
395.779	16.35
396.143	16.53
396.508	16.63
396.872	16.84
397.236	16.46
397.601	16.65
397.965	16.28
398.329	16.48
398.694	16.57
399.058	16.8
399.422	16.79
399.786	16.91
400.15	16.93
400.514	17.01
400.878	16.92
401.242	17.19
401.605	17.21
401.969	17.02
402.333	17.27
402.697	17.35
403.06	17.53
403.424	17.33
403.787	17.24
404.151	17.38
404.514	17.34
404.878	17.49
405.241	17.49
405.604	17.36
405.968	17.53
406.331	17.66
406.694	17.77
407.057	18.02
407.42	17.76
407.783	17.73
408.146	17.95
408.509	17.64
408.872	17.97
409.235	18.01
409.598	18.19
409.961	17.78
410.323	18.24
410.686	18.16
411.049	18.14
411.411	18.09
411.774	18.29
412.136	18.33
412.499	18.19
412.861	18.46
413.223	18.55
413.586	18.45
413.948	18.32
414.31	18.7
414.672	18.54
415.035	18.57
415.397	18.94
415.759	18.73
416.121	18.92
416.483	19.02
416.845	18.84
417.206	19.04
417.568	18.62
417.93	18.7
418.292	18.98
418.653	19.03
419.015	18.99
419.377	18.85
419.738	18.77
420.1	19.02
420.461	18.96
420.822	18.97
421.184	19.01
421.545	19.16
421.906	19.11
422.267	18.95
422.629	18.98
422.99	18.96
423.351	19.19
423.712	19.25
424.073	19.2
424.434	19.24
424.795	19.3
425.155	19.22
425.516	19.22
425.877	19.35
426.238	19.36
426.598	19.42
426.959	19.6
427.32	19.62
427.68	19.85
428.041	19.88
428.401	19.87
428.761	20.05
429.122	20.11
429.482	20.11
429.842	20.17
430.202	20.34
430.563	20.24
430.923	20.11
431.283	20.15
431.643	20.33
432.003	20.49
432.363	20.66
432.722	20.42
433.082	20.47
433.442	20.59
433.802	20.55
434.161	20.61
434.521	20.58
434.881	20.8
435.24	20.43
435.6	20.7
435.959	20.86
436.319	20.76
436.678	20.81
437.037	20.93
437.396	20.98
437.756	20.9
438.115	21.09
438.474	21.16
438.833	21.12
439.192	21.19
439.551	21.33
439.91	21.48
440.269	21.44
440.628	21.14
440.987	21.13
441.345	21.33
441.704	21.23
442.063	21.34
442.421	21.27
442.78	21.29
443.138	21.52
443.497	21.47
443.855	21.69
444.214	21.65
444.572	21.83
444.93	22.06
445.288	22
445.647	21.82
446.005	21.77
446.363	21.88
446.721	21.73
447.079	21.84
447.437	21.81
447.795	21.57
448.153	21.64
448.51	21.73
448.868	21.98
449.226	22.06
449.584	22.05
449.941	22.35
450.299	22.37
450.656	22.47
451.014	22.52
451.371	22.43
451.729	22.65
452.086	22.38
452.443	22.52
452.801	22.76
453.158	22.68
453.515	22.65
453.872	22.8
454.229	22.73
454.586	22.79
454.943	22.81
455.3	22.89
455.657	23.11
456.014	23.12
456.371	23.05
456.727	23.2
457.084	23.02
457.441	23.16
457.797	23.21
458.154	23.33
458.51	23.19
458.867	23.28
459.223	23.42
459.58	23.53
459.936	23.32
460.292	23.34
460.648	23.16
461.005	23.21
461.361	23.05
461.717	23.32
462.073	23.28
462.429	23.47
462.785	23.66
463.141	23.65
463.496	23.57
463.852	24.02
464.208	24.08
464.564	23.99
464.919	24.04
465.275	24.08
465.631	24.15
465.986	24.09
466.342	24.34
466.697	24.2
467.052	24.29
467.408	24.42
467.763	24.25
468.118	24.24
468.473	24.44
468.829	24.48
469.184	24.59
469.539	24.4
469.894	24.64
470.249	24.78
470.603	24.78
470.958	24.79
471.313	24.82
471.668	24.94
472.023	24.93
472.377	24.91
472.732	24.99
473.086	24.84
473.441	25.08
473.795	25.08
474.15	25.07
474.504	24.89
474.859	25.28
475.213	25.25
475.567	24.99
475.921	25.34
476.275	25.36
476.63	25.46
476.984	25.49
477.338	25.73
477.692	25.57
478.045	25.52
478.399	25.4
478.753	25.25
479.107	25.48
479.461	25.52
479.814	25.79
480.168	25.47
480.521	25.56
480.875	25.79
481.228	25.85
481.582	25.37
481.935	25.75
482.289	25.61
482.642	25.74
482.995	25.74
483.348	25.64
483.701	25.49
484.055	25.4
484.408	25.18
484.761	24.94
485.114	24.78
485.466	24.77
485.819	24.9
486.172	25.05
486.525	25.28
486.878	25.36
487.23	25.66
487.583	25.65
487.936	25.67
488.288	25.46
488.641	25.48
488.993	25.28
489.345	25.3
489.698	25.4
490.05	25.63
490.402	25.9
490.754	26.06
491.107	26.16
491.459	26.28
491.811	26.31
492.163	26.35
492.515	26.04
492.866	25.72
493.218	25.81
493.57	25.93
493.922	26.08
494.274	26.44
494.625	26.56
494.977	26.86
495.328	27
495.68	27.12
496.031	27
496.383	27.32
496.734	27.39
497.086	27.16
497.437	27.21
497.788	27.05
498.139	27.17
498.49	27.18
498.842	27.33
499.193	27.38
499.544	27.48
499.894	27.6
500.245	27.43
500.596	27.51
500.947	27.5
501.298	27.62
501.648	27.79
501.999	28.03
502.35	28.02
502.7	28.13
503.051	28.12
503.401	28
503.752	27.94
504.102	27.94
504.452	28.14
504.803	28.15
505.153	28.02
505.503	28.21
505.853	28.17
506.203	28.13
506.553	28.35
506.903	28.12
507.253	28.48
507.603	28.41
507.953	28.38
508.303	28.26
508.652	28.41
509.002	28.41
509.352	28.43
509.701	28.4
510.051	28.62
510.4	28.45
510.75	28.58
511.099	28.67
511.449	28.57
511.798	28.71
512.147	28.62
512.496	28.9
512.846	28.7
513.195	28.73
513.544	28.71
513.893	28.69
514.242	28.77
514.591	29.02
514.939	28.91
515.288	29.1
515.637	29.22
515.986	29.19
516.334	29.46
516.683	29.25
517.032	29.06
517.38	29.33
517.729	29.51
518.077	29.45
518.426	29.39
518.774	29.12
519.122	29.25
519.47	29.11
519.819	29.05
520.167	29.1
520.515	29.02
520.863	29.16
521.211	29.47
521.559	29.45
521.907	29.57
522.255	29.69
522.602	29.71
522.95	29.88
523.298	29.9
523.645	29.82
523.993	30.02
524.341	30.17
524.688	30.05
525.036	30.18
525.383	30.13
525.73	30.03
526.078	30.27
526.425	29.9
526.772	29.66
527.119	29.71
527.466	29.53
527.814	29.61
528.161	29.95
528.508	29.76
528.854	29.94
529.201	29.6
529.548	29.43
529.895	29.21
530.242	29.44
530.588	29.41
530.935	29.56
531.282	29.73
531.628	29.89
531.975	30.14
532.321	30.27
532.667	30.41
533.014	30.37
533.36	30.52
533.706	30.43
534.052	30.3
534.399	30.09
534.745	29.95
535.091	29.98
535.437	30.16
535.783	30.48
536.129	30.62
536.474	30.67
536.82	30.87
537.166	30.88
537.512	30.95
537.857	30.7
538.203	30.72
538.549	31.03
538.894	30.98
539.239	31.08
539.585	31.32
539.93	31.39
540.276	31.67
540.621	31.58
540.966	31.53
541.311	31.6
541.656	31.59
542.001	31.23
542.346	30.79
542.691	30.68
543.036	30.73
543.381	30.92
543.726	31.06
544.071	31.2
544.415	31.28
544.76	31.25
545.105	31.32
545.449	31.74
545.794	31.73
546.138	31.87
546.483	31.73
546.827	32.06
547.171	31.99
547.516	31.98
547.86	31.87
548.204	31.91
548.548	31.88
548.892	32.13
549.236	32.18
549.58	32.41
549.924	32.47
550.268	32.58
550.612	32.64
550.956	32.67
551.3	32.74
551.643	32.82
551.987	32.97
552.33	32.9
552.674	32.93
553.017	33.08
553.361	32.82
553.704	32.77
554.048	32.83
554.391	32.84
554.734	33.14
555.077	33.08
555.42	33.22
555.764	33.25
556.107	33.13
556.45	33.33
556.793	33.42
557.135	33.51
557.478	33.62
557.821	33.54
558.164	33.52
558.507	33.33
558.849	33.47
559.192	33.54
559.534	33.58
559.877	34.04
560.219	33.85
560.562	33.8
560.904	33.77
561.246	33.98
561.589	34.01
561.931	34
562.273	33.7
562.615	33.92
562.957	33.92
563.299	33.98
563.641	33.93
563.983	33.96
564.325	33.8
564.667	34.06
565.008	34.08
565.35	34.58
565.692	34.17
566.033	34.35
566.375	33.95
566.716	34.23
567.058	34.02
567.399	34.22
567.741	34.04
568.082	34.04
568.423	34.16
568.764	34.16
569.105	34.31
569.447	34.52
569.788	34.68
570.129	34.56
570.47	34.6
570.811	34.49
571.151	34.43
571.492	34.72
571.833	34.77
572.174	34.62
572.514	34.45
572.855	34.66
573.195	34.68
573.536	34.73
573.876	34.78
574.217	34.47
574.557	34.87
574.898	34.56
575.238	34.74
575.578	34.87
575.918	34.92
576.258	34.83
576.598	34.99
576.938	35.09
577.278	34.82
577.618	35.23
577.958	34.92
578.298	35.24
578.638	35.45
578.977	35.46
579.317	35.28
579.657	35.5
579.996	35.51
580.336	35.51
580.675	35.56
581.014	35.66
581.354	35.97
581.693	36.03
582.032	35.69
582.372	35.84
582.711	35.71
583.05	36.48
583.389	36.18
583.728	36.39
584.067	35.94
584.406	36.05
584.745	35.92
585.083	36.05
585.422	36.08
585.761	36.27
586.1	36.15
586.438	36.37
586.777	36.47
587.115	36.4
587.454	36.48
587.792	36.33
588.13	36.55
588.469	36.47
588.807	36.44
589.145	36.41
589.483	36.5
589.821	36.39
590.159	36.63
590.497	36.45
590.835	36.5
591.173	36.53
591.511	36.52
591.849	36.75
592.187	36.86
592.524	36.69
592.862	36.53
593.2	36.98
593.537	36.79
593.875	37.08
594.212	36.91
594.55	36.95
594.887	37.11
595.224	36.83
595.561	37
595.899	37.29
596.236	36.99
596.573	37.27
596.91	36.82
597.247	36.84
597.584	37.09
597.921	36.97
598.258	36.78
598.594	36.62
598.931	36.75
599.268	36.94
599.604	36.95
599.941	37.09
600.277	37.13
600.614	37.48
600.95	37.84
601.287	37.54
601.623	37.88
601.959	37.22
602.296	37.74
602.632	38.01
602.968	37.51
603.304	37.94
603.64	37.6
603.976	37.79
604.312	37.63
604.648	37.59
604.984	37.61
605.319	37.3
605.655	37.46
605.991	37.44
606.326	37.47
606.662	37.34
606.998	37.32
607.333	37.69
607.668	37.84
608.004	37.76
608.339	38.18
608.674	37.66
609.01	37.99
609.345	38.16
609.68	38.18
610.015	38.15
610.35	38.03
610.685	38.19
611.02	37.93
611.355	37.97
611.689	37.9
612.024	38.06
612.359	38.33
612.694	38.23
613.028	38.33
613.363	38.3
613.697	38.71
614.032	38.4
614.366	38.88
614.7	38.52
615.035	38.11
615.369	38.72
615.703	39.13
616.037	38.85
616.371	38.72
616.705	38.7
617.039	39.01
617.373	38.86
617.707	38.6
618.041	39.08
618.375	39.12
618.709	38.72
619.042	38.88
619.376	39
619.71	38.93
620.043	38.94
620.377	39.49
620.71	39.05
621.043	39
621.377	38.83
621.71	39.49
622.043	39.37
622.376	39.53
622.709	39.79
623.043	39.25
623.376	39.18
623.709	39.19
624.041	39.27
624.374	39.43
624.707	39.56
625.04	39.63
625.373	39.56
625.705	39.47
626.038	39.41
626.37	39.79
626.703	39.44
627.035	39.65
627.368	39.43
627.7	39.59
628.032	39.8
628.365	39.35
628.697	39.21
629.029	39.78
629.361	39.31
629.693	39.98
630.025	39.81
630.357	39.64
630.689	39.9
631.021	40.14
631.353	40.13
631.684	39.89
632.016	39.94
632.348	40.4
632.679	39.75
633.011	40.2
633.342	40.41
633.674	40.07
634.005	39.66
634.336	39.99
634.668	40.28
634.999	40.01
635.33	40.12
635.661	40.2
635.992	40.1
636.323	40.23
636.654	39.88
636.985	40.4
637.316	40.62
637.647	40.49
637.977	40.19
638.308	40.22
638.639	40.39
638.969	39.9
639.3	40.88
639.63	40.54
639.961	40.2
640.291	40.36
640.622	40.75
640.952	40.94
641.282	40.79
641.612	40.94
641.943	40.89
642.273	41.06
642.603	40.82
642.933	40.85
643.263	40.76
643.592	40.89
643.922	40.91
644.252	40.98
644.582	41.06
644.911	40.85
645.241	41.06
645.571	40.98
645.9	41.12
646.23	40.64
646.559	41.06
646.888	41.03
647.218	41.09
647.547	41.37
647.876	41.61
648.205	41.21
648.534	40.7
648.863	41.02
649.192	41.43
649.521	40.94
649.85	41.54
650.179	41.54
650.508	41.68
650.837	41.51
651.165	41.94
651.494	41.42
651.822	41.31
652.151	41.84
652.479	41.42
652.808	41.33
653.136	41.39
653.465	41.78
653.793	41.37
654.121	41.69
654.449	41.26
654.777	41.67
655.105	41.19
655.433	41.76
655.761	41.75
656.089	41.92
656.417	41.46
656.745	41.75
657.073	42.27
657.4	41.18
657.728	41.52
658.056	41.85
658.383	42.18
658.711	41.65
659.038	41.59
659.365	41.77
659.693	41.56
660.02	41.48
660.347	42.13
660.674	41.55
661.001	41.47
661.329	41.54
661.656	41.87
661.982	42.06
662.309	41.8
662.636	41.81
662.963	41.99
663.29	41.83
663.616	42.16
663.943	42.67
664.27	42.34
664.596	41.58
664.923	42.69
665.249	42.31
665.576	42.83
665.902	42.22
666.228	42.58
666.554	42.03
666.881	42.5
667.207	42.44
667.533	42.17
667.859	41.94
668.185	42.48
668.511	42.05
668.837	42.75
669.162	42.74
669.488	42.48
669.814	42.66
670.139	42.73
670.465	42.58
670.791	42.61
671.116	42.67
