Data from 0068_crown_Reflection__4__278.txt Node

Date: Fri Dec 16 16:18:12 CST 2022
User: ToomeyLab
Spectrometer: FLMS14357
Trigger mode: 0
Integration Time (sec): 1.000000E-2
Scans to average: 100
Electric dark correction enabled: true
Nonlinearity correction enabled: false
Boxcar width: 0
XAxis mode: Wavelengths
Number of Pixels in Spectrum: 2048
>>>>>Begin Spectral Data<<<<<
189.047	43.28
189.435	43.28
189.823	43.28
190.211	189.1
190.599	69.44
190.987	-13.34
191.375	393.95
191.763	1865.46
192.151	248.78
192.538	-38.63
192.926	610.95
193.314	93.97
193.702	40.94
194.089	1245.65
194.477	-41.93
194.864	108.42
195.252	-117.84
195.639	118.48
196.027	-595.17
196.414	186.22
196.801	180.77
197.189	126.76
197.576	161.48
197.963	57.31
198.351	-10.89
198.738	-18.19
199.125	42.66
199.512	4.48
199.899	-209.73
200.286	-16.15
200.673	9.45
201.06	31.71
201.447	29.05
201.833	-15.61
202.22	13.79
202.607	-150.92
202.994	23.41
203.38	-29.84
203.767	-5.01
204.154	-185.95
204.54	-20.52
204.927	17.56
205.313	31.31
205.699	44.96
206.086	-22.71
206.472	-24.8
206.858	-40.43
207.245	5.32
207.631	-55.12
208.017	11.41
208.403	23.29
208.789	-13.98
209.175	41.6
209.561	23.31
209.947	16.61
210.333	-13.03
210.719	12.51
211.105	-46.83
211.491	-31.75
211.876	-41.1
212.262	-72.85
212.648	-2.26
213.034	-31.33
213.419	55.08
213.805	-19.73
214.19	-16.83
214.576	-24.86
214.961	10.66
215.346	-24.55
215.732	-30.5
216.117	5.8
216.502	-28.62
216.888	-43.74
217.273	2.67
217.658	-76.47
218.043	0.82
218.428	2.35
218.813	-24.43
219.198	-52.51
219.583	20.2
219.968	0.44
220.353	15.87
220.738	-1.53
221.122	-10.48
221.507	-8.63
221.892	-12.63
222.276	6.58
222.661	-20.97
223.046	5.68
223.43	-2.47
223.815	-3.5
224.199	1.8
224.583	0.33
224.968	8.33
225.352	9.97
225.736	9.24
226.121	-18.72
226.505	5.23
226.889	7.62
227.273	3.86
227.657	2.04
228.041	5.51
228.425	6.72
228.809	6.21
229.193	1.75
229.577	3.77
229.961	4.5
230.344	5.29
230.728	5.34
231.112	4.95
231.495	4.8
231.879	6.56
232.263	2.93
232.646	2.32
233.03	2.57
233.413	1.96
233.797	3.09
234.18	2.25
234.563	3.37
234.946	1.13
235.33	4.29
235.713	4.9
236.096	6.03
236.479	4.78
236.862	5.21
237.245	5
237.628	4.45
238.011	4.44
238.394	6.05
238.777	5.85
239.16	1.45
239.543	1.81
239.925	4.5
240.308	3.12
240.691	4.8
241.073	3.92
241.456	3.43
241.838	4.18
242.221	5.63
242.603	4.95
242.986	5.78
243.368	4.63
243.75	4.76
244.133	4.97
244.515	5.2
244.897	4.78
245.279	4.76
245.661	4.05
246.043	4.93
246.425	4.98
246.807	3.98
247.189	3.69
247.571	4.36
247.953	4.46
248.335	4.85
248.717	4.85
249.098	5.12
249.48	4.21
249.862	5.19
250.243	4.42
250.625	4.99
251.006	4.92
251.388	5.09
251.769	3.78
252.151	3.99
252.532	4.9
252.913	4.31
253.295	4.84
253.676	4.64
254.057	4.79
254.438	4.21
254.819	4.9
255.2	3.9
255.581	4.1
255.962	3.45
256.343	3.91
256.724	2.97
257.105	4.13
257.486	4.28
257.867	2.55
258.247	3.92
258.628	4.39
259.009	4.05
259.389	4.6
259.77	3.63
260.15	4.39
260.531	4.37
260.911	4.16
261.292	4.37
261.672	4.33
262.052	4.34
262.432	4.38
262.813	4.98
263.193	3.69
263.573	4.41
263.953	3.83
264.333	4.75
264.713	3.77
265.093	3.31
265.473	4.34
265.853	4.85
266.233	4.03
266.612	3.55
266.992	3.94
267.372	4.01
267.752	3.12
268.131	4.02
268.511	4.4
268.89	4.49
269.27	4.3
269.649	4.47
270.029	4.47
270.408	3.49
270.787	3.77
271.167	4.45
271.546	3.15
271.925	3.8
272.304	3.82
272.683	4.24
273.062	4.6
273.441	4.44
273.82	3.97
274.199	4.05
274.578	4.13
274.957	4.23
275.336	3.98
275.715	3.95
276.093	4.57
276.472	4.31
276.851	4.2
277.229	4.64
277.608	3.88
277.986	4.42
278.365	3.84
278.743	3.94
279.122	3.28
279.5	3.6
279.878	3.14
280.257	4.07
280.635	3.41
281.013	4.38
281.391	3.76
281.769	3.83
282.147	3.83
282.525	3.71
282.903	3.91
283.281	3.57
283.659	4.25
284.037	3.48
284.415	3.41
284.792	3.63
285.17	3.57
285.548	3.57
285.925	3.23
286.303	3.74
286.68	4.05
287.058	3.81
287.435	3.49
287.813	3.96
288.19	3.79
288.567	3.45
288.945	3.46
289.322	3.83
289.699	3.37
290.076	3.44
290.453	3.55
290.83	3.46
291.207	3.16
291.584	3.2
291.961	3.91
292.338	3.66
292.715	4.02
293.092	3.96
293.469	3.56
293.845	3.57
294.222	3.88
294.599	3.77
294.975	3.78
295.352	2.97
295.728	3.43
296.105	3.76
296.481	4.03
296.858	3.36
297.234	3.2
297.61	3.92
297.986	3.57
298.363	2.99
298.739	3.83
299.115	3.21
299.491	3.42
299.867	3.48
300.243	3.68
300.619	3.08
300.995	3.47
301.371	3.96
301.746	3.11
302.122	3.61
302.498	3.41
302.874	3.53
303.249	3.81
303.625	3.67
304	2.9
304.376	3.58
304.751	3.12
305.127	3.53
305.502	3.74
305.878	3.27
306.253	2.94
306.628	3.8
307.003	3.82
307.378	3.48
307.754	3.5
308.129	2.93
308.504	3
308.879	3.35
309.254	3.46
309.629	3.39
310.003	3.61
310.378	3.25
310.753	3.52
311.128	3.08
311.502	3.17
311.877	3.24
312.252	3.19
312.626	2.89
313.001	3.52
313.375	3.32
313.75	3.53
314.124	3.81
314.498	2.86
314.873	3.29
315.247	2.67
315.621	4.26
315.995	3.59
316.369	3.17
316.743	3.6
317.117	3.21
317.491	3.25
317.865	2.55
318.239	3.75
318.613	3.2
318.987	2.96
319.361	2.95
319.734	3.35
320.108	3.11
320.482	3.61
320.855	3.65
321.229	3.82
321.602	3.45
321.976	2.59
322.349	2.55
322.723	2.76
323.096	2.98
323.469	2.72
323.843	3.13
324.216	2.7
324.589	2.96
324.962	3.06
325.335	2.82
325.708	2.83
326.081	3.67
326.454	2.76
326.827	3.64
327.2	3.58
327.573	3.42
327.945	3.2
328.318	3.34
328.691	3.34
329.063	2.89
329.436	3.16
329.809	2.49
330.181	3.11
330.553	3.17
330.926	3.1
331.298	2.97
331.671	3.06
332.043	3.05
332.415	3.21
332.787	3.45
333.159	2.71
333.532	3.09
333.904	2.57
334.276	3.23
334.648	3.43
335.02	2.91
335.391	3.38
335.763	2.53
336.135	3.11
336.507	3.43
336.879	3.51
337.25	3.13
337.622	3.37
337.993	3.19
338.365	3.37
338.736	3.3
339.108	3.1
339.479	2.74
339.851	3.64
340.222	3.27
340.593	3.06
340.964	3.34
341.336	2.73
341.707	2.9
342.078	2.59
342.449	3.48
342.82	3.14
343.191	2.95
343.562	3.12
343.933	3.3
344.303	3.32
344.674	3.14
345.045	3.66
345.416	3.22
345.786	2.98
346.157	3.39
346.527	3.05
346.898	3.19
347.268	3.06
347.639	3.23
348.009	3.1
348.38	3.24
348.75	3.02
349.12	3.47
349.49	2.73
349.861	3.46
350.231	3.25
350.601	3.21
350.971	2.91
351.341	3.41
351.711	3.26
352.081	3.36
352.45	3.74
352.82	3.49
353.19	3.29
353.56	3.21
353.929	3.5
354.299	3.14
354.669	3.2
355.038	3.33
355.408	3.83
355.777	3.08
356.147	3.48
356.516	3.8
356.885	3.01
357.254	3.56
357.624	3.43
357.993	3.28
358.362	3.5
358.731	3.26
359.1	3.22
359.469	3.57
359.838	2.9
360.207	3.25
360.576	3.27
360.945	3.22
361.314	3.28
361.682	2.96
362.051	3.23
362.42	3.57
362.788	3.28
363.157	3.3
363.525	3.25
363.894	3.34
364.262	3.25
364.631	3.9
364.999	3.07
365.367	3.63
365.735	3.05
366.104	3.24
366.472	3.72
366.84	3.33
367.208	3.24
367.576	3.62
367.944	3.45
368.312	3.26
368.68	3.52
369.048	3.32
369.416	3.3
369.783	3.34
370.151	3.64
370.519	3.14
370.886	3.21
371.254	3.69
371.621	3.37
371.989	3.42
372.356	3.65
372.724	3.18
373.091	3.41
373.458	3.43
373.826	3.33
374.193	3.79
374.56	3.41
374.927	3.39
375.294	3.74
375.661	3.42
376.028	3.86
376.395	3.3
376.762	3.55
377.129	3.86
377.496	3.73
377.863	3.56
378.229	3.51
378.596	3.48
378.963	3.34
379.329	3.42
379.696	3.5
380.062	3.82
380.429	3.57
380.795	3.3
381.161	3.4
381.528	2.9
381.894	3.61
382.26	3.52
382.626	3.39
382.993	3.2
383.359	3.53
383.725	3.79
384.091	3.43
384.457	3.5
384.823	3.48
385.188	3.55
385.554	3.72
385.92	3.76
386.286	3.61
386.651	3.65
387.017	3.67
387.383	3.83
387.748	3.72
388.114	3.84
388.479	3.82
388.845	3.66
389.21	3.72
389.575	3.83
389.94	3.7
390.306	3.47
390.671	3.44
391.036	3.88
391.401	4.01
391.766	3.46
392.131	3.77
392.496	3.54
392.861	3.29
393.226	3.69
393.591	3.79
393.956	3.82
394.32	3.76
394.685	3.65
395.05	3.36
395.414	3.75
395.779	3.54
396.143	3.79
396.508	3.68
396.872	3.81
397.236	3.54
397.601	3.78
397.965	3.39
398.329	4.05
398.694	3.65
399.058	3.59
399.422	3.62
399.786	3.73
400.15	3.67
400.514	3.69
400.878	3.75
401.242	3.87
401.605	3.74
401.969	3.65
402.333	3.64
402.697	3.86
403.06	3.87
403.424	3.52
403.787	4.05
404.151	3.49
404.514	3.97
404.878	3.93
405.241	3.9
405.604	3.89
405.968	3.96
406.331	3.8
406.694	3.68
407.057	4.11
407.42	3.73
407.783	3.88
408.146	3.67
408.509	3.59
408.872	3.74
409.235	3.8
409.598	4.06
409.961	3.81
410.323	3.65
410.686	3.74
411.049	3.77
411.411	3.86
411.774	3.85
412.136	3.79
412.499	3.85
412.861	3.51
413.223	4
413.586	3.89
413.948	4.08
414.31	3.7
414.672	3.9
415.035	3.95
415.397	3.78
415.759	3.82
416.121	3.85
416.483	4.07
416.845	3.85
417.206	3.85
417.568	3.95
417.93	3.97
418.292	3.89
418.653	3.84
419.015	3.79
419.377	3.86
419.738	3.92
420.1	3.86
420.461	3.86
420.822	3.78
421.184	3.74
421.545	3.77
421.906	3.81
422.267	3.69
422.629	3.8
422.99	3.87
423.351	3.91
423.712	3.82
424.073	3.98
424.434	3.75
424.795	3.81
425.155	3.77
425.516	3.78
425.877	3.82
426.238	3.74
426.598	3.91
426.959	3.88
427.32	3.93
427.68	3.97
428.041	3.86
428.401	3.74
428.761	3.76
429.122	3.94
429.482	3.89
429.842	3.88
430.202	3.93
430.563	3.93
430.923	3.87
431.283	3.88
431.643	3.98
432.003	4.06
432.363	3.97
432.722	3.78
433.082	3.91
433.442	3.9
433.802	4.01
434.161	3.89
434.521	3.81
434.881	3.96
435.24	3.78
435.6	3.82
435.959	3.89
436.319	3.88
436.678	4.04
437.037	3.87
437.396	3.89
437.756	3.95
438.115	3.99
438.474	4.01
438.833	4.07
439.192	4.25
439.551	3.97
439.91	3.89
440.269	3.97
440.628	3.88
440.987	3.81
441.345	3.85
441.704	3.92
442.063	3.91
442.421	3.96
442.78	3.94
443.138	3.96
443.497	4.02
443.855	3.99
444.214	3.97
444.572	3.92
444.93	4.04
445.288	3.98
445.647	3.97
446.005	3.92
446.363	3.91
446.721	3.85
447.079	3.89
447.437	3.95
447.795	3.84
448.153	3.79
448.51	3.84
448.868	4.07
449.226	4.01
449.584	3.89
449.941	4.07
450.299	3.97
450.656	4.05
451.014	4.04
451.371	4.03
451.729	4.1
452.086	3.9
452.443	3.89
452.801	4.03
453.158	4.04
453.515	3.91
453.872	4.19
454.229	3.91
454.586	3.95
454.943	3.86
455.3	4.14
455.657	3.95
456.014	4.01
456.371	4.13
456.727	3.92
457.084	3.79
457.441	3.98
457.797	4.03
458.154	4.01
458.51	4.08
458.867	3.91
459.223	4
459.58	4.03
459.936	3.9
460.292	4
460.648	3.81
461.005	3.82
461.361	3.84
461.717	4.03
462.073	4.05
462.429	4.08
462.785	4.05
463.141	4.1
463.496	3.86
463.852	4.16
464.208	4.09
464.564	3.99
464.919	3.94
465.275	4.23
465.631	4.11
465.986	3.93
466.342	4.16
466.697	4.09
467.052	3.96
467.408	3.97
467.763	3.84
468.118	4.07
468.473	4.16
468.829	3.86
469.184	4.2
469.539	4
469.894	4.02
470.249	3.97
470.603	4.09
470.958	4.14
471.313	4
471.668	4.04
472.023	4.21
472.377	4.02
472.732	3.95
473.086	4.04
473.441	4.13
473.795	4.26
474.15	4.12
474.504	4.09
474.859	3.96
475.213	4.01
475.567	4.07
475.921	4.14
476.275	4.12
476.63	4.11
476.984	3.98
477.338	4.13
477.692	4.05
478.045	4.05
478.399	4.06
478.753	3.87
479.107	4.09
479.461	4.08
479.814	4.07
480.168	4.02
480.521	4.13
480.875	4.18
481.228	4.09
481.582	3.94
481.935	3.99
482.289	3.99
482.642	4.1
482.995	4.03
483.348	3.96
483.701	3.94
484.055	3.95
484.408	3.81
484.761	3.7
485.114	3.57
485.466	3.65
485.819	3.79
486.172	3.95
486.525	4.01
486.878	4
487.23	4
487.583	3.98
487.936	3.97
488.288	3.82
488.641	3.79
488.993	3.74
489.345	3.84
489.698	3.92
490.05	3.91
490.402	4.01
490.754	4.11
491.107	4.09
491.459	4.15
491.811	4.09
492.163	4
492.515	3.78
492.866	3.69
493.218	3.81
493.57	3.93
493.922	4.03
494.274	4.19
494.625	4.06
494.977	4.11
495.328	4.21
495.68	4.15
496.031	4.12
496.383	3.95
496.734	4.06
497.086	3.99
497.437	4.2
497.788	4
498.139	4.01
498.49	4.04
498.842	3.92
499.193	4.11
499.544	4.16
499.894	4.02
500.245	4.03
500.596	4.05
500.947	4.08
501.298	4.01
501.648	4.2
501.999	4.31
502.35	4.12
502.7	4.19
503.051	4.3
503.401	4.16
503.752	4.08
504.102	4.09
504.452	3.99
504.803	3.95
505.153	4.08
505.503	4.06
505.853	4.01
506.203	3.95
506.553	4.27
506.903	4.05
507.253	4.05
507.603	3.97
507.953	4.17
508.303	4.18
508.652	4.03
509.002	4.05
509.352	4.07
509.701	3.98
510.051	4.15
510.4	4.08
510.75	4.07
511.099	4.01
511.449	4.02
511.798	4.12
512.147	4.07
512.496	4.23
512.846	4.03
513.195	4.01
513.544	3.96
513.893	3.89
514.242	4.06
514.591	4.1
514.939	4.06
515.288	4.04
515.637	4.23
515.986	4.1
516.334	4.17
516.683	3.99
517.032	4.08
517.38	4.1
517.729	4.05
518.077	4.23
518.426	3.98
518.774	4.03
519.122	3.93
519.47	3.93
519.819	3.98
520.167	3.99
520.515	3.95
520.863	3.97
521.211	4
521.559	4.08
521.907	4.04
522.255	4.07
522.602	4.1
522.95	4.19
523.298	4.09
523.645	4.06
523.993	4.16
524.341	3.98
524.688	4.15
525.036	4.18
525.383	4.14
525.73	4.05
526.078	4.05
526.425	3.97
526.772	3.85
527.119	3.9
527.466	3.89
527.814	4.03
528.161	4.09
528.508	4.02
528.854	3.87
529.201	3.86
529.548	3.74
529.895	3.72
530.242	3.74
530.588	3.86
530.935	3.98
531.282	4.04
531.628	4.03
531.975	4.08
532.321	4.09
532.667	4
533.014	4.08
533.36	4.03
533.706	4.01
534.052	3.88
534.399	3.84
534.745	3.8
535.091	3.84
535.437	4
535.783	4.09
536.129	4.13
536.474	4.08
536.82	3.96
537.166	4
537.512	3.96
537.857	3.97
538.203	3.95
538.549	4.02
538.894	4.07
539.239	4.21
539.585	4.14
539.93	4.15
540.276	4.02
540.621	4.06
540.966	4.18
541.311	4.05
541.656	3.9
542.001	3.98
542.346	3.83
542.691	3.7
543.036	3.74
543.381	3.93
543.726	4.03
544.071	4.11
544.415	4.03
544.76	3.97
545.105	3.97
545.449	4.02
545.794	4.1
546.138	4.05
546.483	4.1
546.827	3.97
547.171	4.03
547.516	4.09
547.86	3.94
548.204	3.87
548.548	4.13
548.892	4.03
549.236	4.02
549.58	4.03
549.924	4.11
550.268	4.26
550.612	4.15
550.956	3.96
551.3	4.22
551.643	4.2
551.987	3.92
552.33	4.12
552.674	4.16
553.017	4.18
553.361	4.05
553.704	4.01
554.048	4.02
554.391	3.95
554.734	4.05
555.077	4.18
555.42	4.25
555.764	4.17
556.107	4.1
556.45	3.96
556.793	4.25
557.135	4.15
557.478	4.14
557.821	3.91
558.164	4.28
558.507	3.85
558.849	3.98
559.192	4.29
559.534	4.04
559.877	4.19
560.219	4.17
560.562	4.2
560.904	4.02
561.246	4.18
561.589	4.23
561.931	4.18
562.273	3.91
562.615	4.05
562.957	4.27
563.299	4.17
563.641	4.32
563.983	3.94
564.325	3.86
564.667	4.12
565.008	4.22
565.35	4.12
565.692	4.08
566.033	4.12
566.375	3.82
566.716	4.09
567.058	4.02
567.399	4.02
567.741	4.03
568.082	3.94
568.423	4.07
568.764	4.19
569.105	4.03
569.447	4.11
569.788	4.14
570.129	4.01
570.47	4.08
570.811	4.13
571.151	4.08
571.492	4.21
571.833	3.9
572.174	3.9
572.514	3.88
572.855	4.12
573.195	3.93
573.536	4.01
573.876	3.96
574.217	4.04
574.557	4.17
574.898	3.96
575.238	4.02
575.578	4.16
575.918	3.93
576.258	4.05
576.598	4
576.938	4.16
577.278	3.96
577.618	3.94
577.958	3.93
578.298	4.07
578.638	4.02
578.977	4.02
579.317	4.1
579.657	4.13
579.996	4
580.336	3.84
580.675	4.14
581.014	4.16
581.354	4.12
581.693	3.85
582.032	3.98
582.372	4.1
582.711	4.11
583.05	4.23
583.389	4.05
583.728	4.11
584.067	4.19
584.406	4.17
584.745	3.95
585.083	4.29
585.422	4.21
585.761	4.17
586.1	4.11
586.438	4.03
586.777	4.23
587.115	4.23
587.454	3.9
587.792	3.94
588.13	4.37
588.469	3.97
588.807	4.37
589.145	4.19
589.483	4.08
589.821	4.01
590.159	3.92
590.497	3.84
590.835	3.92
591.173	4.06
591.511	4.26
591.849	4.02
592.187	4.02
592.524	3.98
592.862	4.03
593.2	4.14
593.537	4.03
593.875	3.9
594.212	4.14
594.55	3.98
594.887	4.07
595.224	3.74
595.561	3.86
595.899	3.98
596.236	3.94
596.573	4
596.91	4.22
597.247	3.93
597.584	4.14
597.921	3.93
598.258	3.93
598.594	3.74
598.931	3.95
599.268	4.02
599.604	4.26
599.941	4.06
600.277	4
600.614	4.03
600.95	4.01
601.287	4.17
601.623	4.17
601.959	3.72
602.296	4.15
602.632	4.26
602.968	3.82
603.304	3.97
603.64	3.91
603.976	4
604.312	4.04
604.648	4.13
604.984	3.91
605.319	3.98
605.655	4.09
605.991	3.9
606.326	3.76
606.662	3.83
606.998	3.97
607.333	3.99
607.668	3.84
608.004	3.92
608.339	4.17
608.674	4.04
609.01	4.07
609.345	4.14
609.68	3.67
610.015	4.19
610.35	3.89
610.685	4.01
611.02	3.97
611.355	4.01
611.689	3.76
612.024	4.09
612.359	3.96
612.694	4.1
613.028	4.34
613.363	3.88
613.697	3.95
614.032	4.14
614.366	4.03
614.7	4.42
615.035	3.69
615.369	4.16
615.703	4.22
616.037	4.23
616.371	3.94
616.705	4.07
617.039	3.99
617.373	4.08
617.707	4.09
618.041	4.13
618.375	3.74
618.709	3.86
619.042	3.81
619.376	3.79
619.71	4.08
620.043	3.96
620.377	3.81
620.71	4.21
621.043	3.78
621.377	3.93
621.71	4.14
622.043	4.29
622.376	3.96
622.709	4.02
623.043	3.87
623.376	4.05
623.709	4.21
624.041	3.87
624.374	3.7
624.707	3.68
625.04	3.87
625.373	4.08
625.705	4.11
626.038	4.05
626.37	4.07
626.703	4.03
627.035	4.19
627.368	4.21
627.7	4.03
628.032	4.14
628.365	3.83
628.697	3.74
629.029	4.19
629.361	4.05
629.693	4.06
630.025	3.97
630.357	3.73
630.689	4.4
631.021	4.22
631.353	4.41
631.684	4
632.016	4.07
632.348	4.27
632.679	3.84
633.011	4.05
633.342	3.68
633.674	3.77
634.005	3.86
634.336	4.12
634.668	4.01
634.999	4.09
635.33	3.99
635.661	4.19
635.992	4.01
636.323	4.12
636.654	4.17
636.985	3.98
637.316	3.76
637.647	4.05
637.977	3.97
638.308	3.99
638.639	3.71
638.969	3.8
639.3	4.26
639.63	3.99
639.961	4.32
640.291	4.87
640.622	4.25
640.952	4.26
641.282	3.54
641.612	3.74
641.943	4.19
642.273	3.9
642.603	3.89
642.933	4.19
643.263	4.55
643.592	3.96
643.922	4.39
644.252	4.14
644.582	4.25
644.911	3.65
645.241	3.77
645.571	3.89
645.9	4.63
646.23	3.94
646.559	4.08
646.888	3.81
647.218	3.8
647.547	4
647.876	4.09
648.205	3.94
648.534	3.73
648.863	4.33
649.192	4.13
649.521	3.98
649.85	4.74
650.179	4.05
650.508	4.15
650.837	4.02
651.165	4.52
651.494	3.9
651.822	3.97
652.151	4.71
652.479	4.49
652.808	3.74
653.136	4.14
653.465	4.03
653.793	4.38
654.121	4.13
654.449	3.93
654.777	4.26
655.105	4.33
655.433	4.67
655.761	3.8
656.089	4.1
656.417	4.08
656.745	3.91
657.073	4.24
657.4	4.41
657.728	4.3
658.056	3.93
658.383	3.97
658.711	3.79
659.038	4.63
659.365	4.33
659.693	4.03
660.02	3.74
660.347	3.78
660.674	3.59
661.001	3.67
661.329	4.02
661.656	3.94
661.982	4.18
662.309	4.27
662.636	4.12
662.963	4.39
663.29	3.7
663.616	4.59
663.943	4.52
664.27	4.29
664.596	4.07
664.923	4.35
665.249	4.06
665.576	4
665.902	4.28
666.228	4.08
666.554	4.37
666.881	4.58
667.207	4.07
667.533	4.32
667.859	4.05
668.185	4.37
668.511	4.1
668.837	3.28
669.162	3.85
669.488	4.13
669.814	4.46
670.139	4.52
670.465	4.13
670.791	3.88
671.116	4.26
671.442	4.1
671.767	3.89
672.092	4.8
672.418	4.36
672.743	4
673.068	4.09
673.393	4.07
673.718	3.49
674.043	4.15
674.368	4.56
674.693	4.18
675.018	4.28
675.343	4.23
675.667	4.23
675.992	3.73
676.317	4.34
676.641	4.22
676.966	3.78
677.29	4.11
677.615	4.4
677.939	4.12
678.264	3.69
678.588	3.97
678.912	4.5
679.236	3.96
679.56	3.93
679.885	4.24
680.209	3.6
680.532	4.41
680.856	4.92
681.18	4.32
681.504	3.85
681.828	3.77
682.152	3.48
682.475	4.54
682.799	4.56
683.122	4.04
683.446	4.1
683.769	4.34
684.093	4.39
684.416	3.6
684.739	4.29
685.062	4.43
685.386	3.93
685.709	3.69
686.032	4.45
686.355	4
686.678	3.64
687.001	3.73
687.324	3.47
687.646	3.94
687.969	4.19
688.292	4.51
688.614	4.62
688.937	3.63
689.26	3.7
689.582	3.5
689.904	4.2
690.227	4.14
690.549	4.27
690.871	4.08
691.194	3.48
691.516	3.86
691.838	4.23
692.16	3.89
692.482	3.92
692.804	3.58
