Data from 0068_chest_Reflection__4__273.txt Node

Date: Fri Dec 16 16:15:46 CST 2022
User: ToomeyLab
Spectrometer: FLMS14357
Trigger mode: 0
Integration Time (sec): 1.000000E-2
Scans to average: 100
Electric dark correction enabled: true
Nonlinearity correction enabled: false
Boxcar width: 0
XAxis mode: Wavelengths
Number of Pixels in Spectrum: 2048
>>>>>Begin Spectral Data<<<<<
189.047	84.36
189.435	84.36
189.823	84.36
190.211	580.45
190.599	71.13
190.987	-273.78
191.375	-507.62
191.763	309.28
192.151	149.63
192.538	15.56
192.926	1360
193.314	110.32
193.702	-22.13
194.089	-52.17
194.477	29.85
194.864	-444.91
195.252	-168.98
195.639	139.61
196.027	-190.65
196.414	317.8
196.801	210.34
197.189	154.98
197.576	-912.92
197.963	186.86
198.351	27.43
198.738	-47.55
199.125	16.76
199.512	-33.69
199.899	-126.59
200.286	-44.32
200.673	38.12
201.06	26.43
201.447	51.72
201.833	-67.09
202.22	45.99
202.607	-71.17
202.994	-17.76
203.38	-28.09
203.767	-0.08
204.154	-119.33
204.54	49.74
204.927	37.1
205.313	38.87
205.699	6.94
206.086	-55.76
206.472	-9.24
206.858	-23.86
207.245	4.97
207.631	20.78
208.017	18.12
208.403	19.44
208.789	-24.65
209.175	47.74
209.561	43.19
209.947	-19.52
210.333	-0.82
210.719	11.74
211.105	-80.77
211.491	4.45
211.876	-6.5
212.262	-54.74
212.648	-63.12
213.034	31.29
213.419	-1.08
213.805	-12.97
214.19	-9.36
214.576	-2.09
214.961	-30.21
215.346	-37.01
215.732	-14.57
216.117	-14.15
216.502	-63.71
216.888	-28.45
217.273	23.85
217.658	-9.96
218.043	-2.74
218.428	-11.47
218.813	-0.07
219.198	-15.22
219.583	-3.21
219.968	-21.18
220.353	7.52
220.738	-15.07
221.122	-8.47
221.507	0.67
221.892	-1.25
222.276	-4.75
222.661	-5.13
223.046	16.68
223.43	-9.31
223.815	2.47
224.199	-11.15
224.583	-8.54
224.968	-2.13
225.352	-7.44
225.736	3.32
226.121	-8.88
226.505	1.58
226.889	11.13
227.273	7.96
227.657	-2.7
228.041	1.44
228.425	5.8
228.809	1.09
229.193	-0.92
229.577	1.94
229.961	2.84
230.344	3.4
230.728	2.37
231.112	3.12
231.495	2.35
231.879	1.73
232.263	0.06
232.646	2.88
233.03	-0.2
233.413	1.19
233.797	4.95
234.18	-0.72
234.563	0.56
234.946	4.18
235.33	2.77
235.713	2.83
236.096	2.3
236.479	3.47
236.862	1.2
237.245	1.66
237.628	2.59
238.011	2.91
238.394	3.14
238.777	3.26
239.16	0.84
239.543	0.14
239.925	2.79
240.308	3.05
240.691	2.5
241.073	1.72
241.456	2.23
241.838	2.72
242.221	3.23
242.603	3.09
242.986	3.99
243.368	2.74
243.75	2.62
244.133	2.41
244.515	3.43
244.897	2.59
245.279	3.22
245.661	3.57
246.043	3.36
246.425	2.58
246.807	3.27
247.189	2.39
247.571	2.94
247.953	2.85
248.335	3.15
248.717	3
249.098	3.27
249.48	2.65
249.862	2.77
250.243	3.24
250.625	3.29
251.006	2.56
251.388	3.14
251.769	3.48
252.151	3.75
252.532	2.4
252.913	3.59
253.295	3.32
253.676	3.14
254.057	2.36
254.438	2.08
254.819	1.25
255.2	1.99
255.581	1.94
255.962	2.82
256.343	3.62
256.724	2.61
257.105	2.32
257.486	2.97
257.867	0.35
258.247	1.7
258.628	3.07
259.009	3.06
259.389	2.71
259.77	2.91
260.15	3.99
260.531	3.04
260.911	2.93
261.292	2.67
261.672	2.93
262.052	2.92
262.432	2.61
262.813	2.84
263.193	2.81
263.573	2.74
263.953	2.22
264.333	2.43
264.713	1.95
265.093	2.45
265.473	3.1
265.853	3.01
266.233	1.53
266.612	2.49
266.992	2.5
267.372	2.69
267.752	2.04
268.131	2.8
268.511	2.88
268.89	3.12
269.27	2.72
269.649	2.84
270.029	3.06
270.408	3.05
270.787	2.5
271.167	2.82
271.546	1.55
271.925	3.26
272.304	3.35
272.683	2.29
273.062	3.04
273.441	2.61
273.82	2.77
274.199	2.92
274.578	2.63
274.957	3.12
275.336	2.62
275.715	3.1
276.093	3.31
276.472	2.59
276.851	2.55
277.229	2.86
277.608	2.38
277.986	2.81
278.365	2.33
278.743	3.2
279.122	2.75
279.5	2.01
279.878	2
280.257	3.41
280.635	2.37
281.013	3.53
281.391	2.81
281.769	2.69
282.147	3.11
282.525	2.48
282.903	2.82
283.281	2.67
283.659	2.82
284.037	2.7
284.415	2.71
284.792	3.07
285.17	2.23
285.548	2.57
285.925	2.42
286.303	2.73
286.68	2.65
287.058	2.72
287.435	2.49
287.813	2.59
288.19	3.2
288.567	2.45
288.945	2.68
289.322	2.53
289.699	2.9
290.076	2.71
290.453	2.36
290.83	2.89
291.207	2.88
291.584	2.76
291.961	3.02
292.338	2.56
292.715	2.91
293.092	3.03
293.469	3.37
293.845	3.18
294.222	3.03
294.599	3.36
294.975	2.89
295.352	2.58
295.728	2.85
296.105	2.72
296.481	3.42
296.858	2.93
297.234	2.81
297.61	2.88
297.986	2.93
298.363	2.97
298.739	3.43
299.115	2.99
299.491	2.86
299.867	3.18
300.243	3.13
300.619	2.73
300.995	3.34
301.371	2.98
301.746	2.82
302.122	3.96
302.498	3.41
302.874	3.32
303.249	3.67
303.625	3.33
304	2.95
304.376	3.41
304.751	3.08
305.127	3.23
305.502	3.34
305.878	2.97
306.253	2.82
306.628	3.72
307.003	3.03
307.378	2.59
307.754	2.98
308.129	2.79
308.504	3.03
308.879	3.53
309.254	3.81
309.629	3.46
310.003	3.36
310.378	3.52
310.753	3.07
311.128	2.91
311.502	3.15
311.877	3.25
312.252	2.89
312.626	3.19
313.001	2.84
313.375	3.38
313.75	3.26
314.124	4.01
314.498	3.23
314.873	3.56
315.247	2.91
315.621	3.31
315.995	3.33
316.369	3.57
316.743	3.65
317.117	2.97
317.491	3.63
317.865	3.36
318.239	3.76
318.613	3.03
318.987	3.44
319.361	3.36
319.734	3.3
320.108	3.78
320.482	3.46
320.855	2.98
321.229	3.97
321.602	3.88
321.976	3.71
322.349	2.69
322.723	2.58
323.096	3.37
323.469	3.25
323.843	3.48
324.216	2.28
324.589	4.24
324.962	3.82
325.335	3.02
325.708	3.75
326.081	3.69
326.454	3.58
326.827	3.54
327.2	3.93
327.573	3.45
327.945	3.45
328.318	3.74
328.691	3.54
329.063	3.45
329.436	3.35
329.809	3.26
330.181	2.95
330.553	3.88
330.926	3.36
331.298	3.46
331.671	3.51
332.043	3.72
332.415	3.69
332.787	4.01
333.159	3.64
333.532	3.7
333.904	3.85
334.276	3.46
334.648	3.57
335.02	3.35
335.391	3.66
335.763	3.69
336.135	3.6
336.507	4
336.879	3.08
337.25	3.94
337.622	3.18
337.993	3.22
338.365	3.83
338.736	3.78
339.108	3.29
339.479	3.25
339.851	3.82
340.222	3.84
340.593	3.38
340.964	3.4
341.336	3.32
341.707	2.97
342.078	2.91
342.449	3.67
342.82	3.61
343.191	3.55
343.562	3.01
343.933	3.3
344.303	3.92
344.674	4.04
345.045	3.78
345.416	3.33
345.786	3.09
346.157	3.53
346.527	3.14
346.898	3.65
347.268	3.33
347.639	3.53
348.009	3.96
348.38	3.38
348.75	3.59
349.12	3.35
349.49	3.32
349.861	3.95
350.231	3.86
350.601	3.76
350.971	3.74
351.341	3.67
351.711	3.45
352.081	3.64
352.45	3.55
352.82	3.76
353.19	3.58
353.56	3.88
353.929	3.51
354.299	3.14
354.669	3.61
355.038	3.55
355.408	4.11
355.777	3.57
356.147	3.67
356.516	4.18
356.885	3.48
357.254	3.76
357.624	3.72
357.993	3.49
358.362	3.58
358.731	3.6
359.1	3.72
359.469	3.68
359.838	3.57
360.207	3.53
360.576	3.86
360.945	3.62
361.314	3.55
361.682	3.58
362.051	3.43
362.42	3.98
362.788	3.87
363.157	3.53
363.525	3.52
363.894	3.62
364.262	3.61
364.631	4.41
364.999	3.68
365.367	3.64
365.735	3.39
366.104	3.56
366.472	4.04
366.84	3.57
367.208	3.41
367.576	3.63
367.944	4.02
368.312	3.26
368.68	3.88
369.048	4.02
369.416	3.73
369.783	3.52
370.151	3.72
370.519	3.45
370.886	3.79
371.254	3.57
371.621	3.54
371.989	4.03
372.356	3.59
372.724	3.72
373.091	3.79
373.458	3.9
373.826	3.47
374.193	4.12
374.56	3.61
374.927	3.7
375.294	4.13
375.661	3.71
376.028	3.92
376.395	3.59
376.762	3.86
377.129	4.04
377.496	3.71
377.863	3.95
378.229	3.81
378.596	3.72
378.963	3.76
379.329	3.55
379.696	3.68
380.062	4.06
380.429	3.73
380.795	3.56
381.161	3.78
381.528	3.57
381.894	3.72
382.26	3.78
382.626	3.84
382.993	3.61
383.359	3.92
383.725	3.94
384.091	3.67
384.457	4.01
384.823	3.85
385.188	3.86
385.554	3.74
385.92	3.77
386.286	4.02
386.651	3.75
387.017	3.96
387.383	4.01
387.748	3.93
388.114	3.91
388.479	4.16
388.845	3.8
389.21	3.83
389.575	3.9
389.94	3.6
390.306	4
390.671	3.68
391.036	4.14
391.401	4.14
391.766	4.12
392.131	3.86
392.496	3.91
392.861	3.69
393.226	3.94
393.591	3.86
393.956	4.17
394.32	4.02
394.685	3.91
395.05	3.65
395.414	4.22
395.779	3.81
396.143	4.05
396.508	3.78
396.872	4.02
397.236	3.73
397.601	4.25
397.965	3.89
398.329	3.96
398.694	4.01
399.058	3.96
399.422	4.13
399.786	4.08
400.15	3.85
400.514	4.11
400.878	3.94
401.242	4.25
401.605	4.08
401.969	3.94
402.333	4.1
402.697	4.12
403.06	3.93
403.424	3.85
403.787	4.06
404.151	3.66
404.514	4.06
404.878	3.91
405.241	4.15
405.604	4.12
405.968	3.95
406.331	4.04
406.694	3.99
407.057	4.24
407.42	3.96
407.783	3.81
408.146	4.02
408.509	3.84
408.872	3.77
409.235	4.17
409.598	4.26
409.961	4.29
410.323	3.86
410.686	3.93
411.049	3.85
411.411	4.22
411.774	3.92
412.136	3.98
412.499	4.26
412.861	3.98
413.223	4.26
413.586	4.12
413.948	4.19
414.31	4.23
414.672	4.15
415.035	4.16
415.397	4.25
415.759	4.19
416.121	4.44
416.483	4.3
416.845	4.14
417.206	4.29
417.568	4.08
417.93	4
418.292	4.46
418.653	4.28
419.015	4.25
419.377	4.23
419.738	4.1
420.1	4.14
420.461	4.02
420.822	4.14
421.184	4.11
421.545	4.05
421.906	4.09
422.267	3.96
422.629	4.13
422.99	4.11
423.351	4.18
423.712	4.21
424.073	4.24
424.434	4.05
424.795	4.19
425.155	4.17
425.516	4.07
425.877	4.11
426.238	3.97
426.598	4.12
426.959	4.09
427.32	4.2
427.68	4.22
428.041	4.2
428.401	4.08
428.761	4.27
429.122	4.26
429.482	4.1
429.842	4.29
430.202	4.34
430.563	4.17
430.923	4.21
431.283	4.25
431.643	4.24
432.003	4.24
432.363	4.28
432.722	4.31
433.082	4.27
433.442	4.18
433.802	4.3
434.161	4.17
434.521	4.35
434.881	4.36
435.24	4.13
435.6	4.26
435.959	4.16
436.319	4.25
436.678	4.26
437.037	4.37
437.396	4.25
437.756	4.25
438.115	4.35
438.474	4.37
438.833	4.35
439.192	4.49
439.551	4.36
439.91	4.37
440.269	4.57
440.628	4.34
440.987	4.27
441.345	4.26
441.704	4.5
442.063	4.32
442.421	4.32
442.78	4.32
443.138	4.36
443.497	4.22
443.855	4.39
444.214	4.32
444.572	4.29
444.93	4.45
445.288	4.42
445.647	4.48
446.005	4.34
446.363	4.35
446.721	4.13
447.079	4.33
447.437	4.36
447.795	4.44
448.153	4.32
448.51	4.31
448.868	4.51
449.226	4.44
449.584	4.4
449.941	4.49
450.299	4.44
450.656	4.4
451.014	4.47
451.371	4.47
451.729	4.52
452.086	4.37
452.443	4.39
452.801	4.47
453.158	4.51
453.515	4.46
453.872	4.55
454.229	4.37
454.586	4.48
454.943	4.54
455.3	4.57
455.657	4.52
456.014	4.5
456.371	4.69
456.727	4.4
457.084	4.43
457.441	4.32
457.797	4.5
458.154	4.64
458.51	4.42
458.867	4.55
459.223	4.58
459.58	4.53
459.936	4.45
460.292	4.58
460.648	4.45
461.005	4.43
461.361	4.43
461.717	4.56
462.073	4.52
462.429	4.66
462.785	4.55
463.141	4.55
463.496	4.45
463.852	4.72
464.208	4.56
464.564	4.57
464.919	4.61
465.275	4.62
465.631	4.62
465.986	4.43
466.342	4.71
466.697	4.71
467.052	4.73
467.408	4.43
467.763	4.53
468.118	4.69
468.473	4.75
468.829	4.68
469.184	4.7
469.539	4.5
469.894	4.71
470.249	4.67
470.603	4.74
470.958	4.9
471.313	4.74
471.668	4.85
472.023	4.82
472.377	4.71
472.732	4.81
473.086	4.52
473.441	4.79
473.795	4.92
474.15	4.92
474.504	4.69
474.859	4.74
475.213	4.79
475.567	4.74
475.921	4.84
476.275	4.96
476.63	4.81
476.984	4.72
477.338	4.96
477.692	4.81
478.045	4.71
478.399	4.82
478.753	4.58
479.107	4.79
479.461	4.93
479.814	4.78
480.168	4.86
480.521	4.78
480.875	4.97
481.228	4.9
481.582	4.7
481.935	4.79
482.289	4.79
482.642	4.77
482.995	4.8
483.348	4.76
483.701	4.75
484.055	4.71
484.408	4.7
484.761	4.59
485.114	4.55
485.466	4.56
485.819	4.58
486.172	4.63
486.525	4.7
486.878	4.74
487.23	4.8
487.583	4.8
487.936	4.83
488.288	4.78
488.641	4.74
488.993	4.68
489.345	4.71
489.698	4.74
490.05	4.74
490.402	4.86
490.754	4.92
491.107	4.94
491.459	4.89
491.811	4.94
492.163	5.01
492.515	4.87
492.866	4.64
493.218	4.73
493.57	4.8
493.922	4.83
494.274	4.92
494.625	4.84
494.977	4.95
495.328	5.04
495.68	5.18
496.031	5.07
496.383	4.99
496.734	5.16
497.086	5.01
497.437	5.21
497.788	5.1
498.139	5.02
498.49	5.03
498.842	5.15
499.193	5.04
499.544	5.19
499.894	5.25
500.245	5.14
500.596	5.23
500.947	5.07
501.298	5.08
501.648	5.15
501.999	5.38
502.35	5.3
502.7	5.3
503.051	5.31
503.401	5.25
503.752	5.07
504.102	5.21
504.452	5.2
504.803	5.22
505.153	5.3
505.503	5.31
505.853	5.21
506.203	5.26
506.553	5.28
506.903	5.25
507.253	5.32
507.603	5.33
507.953	5.46
508.303	5.31
508.652	5.19
509.002	5.34
509.352	5.41
509.701	5.45
510.051	5.43
510.4	5.32
510.75	5.32
511.099	5.39
511.449	5.36
511.798	5.48
512.147	5.41
512.496	5.47
512.846	5.43
513.195	5.46
513.544	5.49
513.893	5.38
514.242	5.57
514.591	5.52
514.939	5.49
515.288	5.56
515.637	5.65
515.986	5.44
516.334	5.6
516.683	5.63
517.032	5.52
517.38	5.52
517.729	5.61
518.077	5.56
518.426	5.6
518.774	5.58
519.122	5.56
519.47	5.55
519.819	5.6
520.167	5.57
520.515	5.61
520.863	5.58
521.211	5.65
521.559	5.65
521.907	5.68
522.255	5.76
522.602	5.76
522.95	5.69
523.298	5.77
523.645	5.59
523.993	5.81
524.341	5.72
524.688	5.77
525.036	5.87
525.383	5.77
525.73	5.85
526.078	5.81
526.425	5.84
526.772	5.74
527.119	5.69
527.466	5.71
527.814	5.8
528.161	5.77
528.508	5.84
528.854	5.76
529.201	5.75
529.548	5.68
529.895	5.63
530.242	5.6
530.588	5.71
530.935	5.77
531.282	5.83
531.628	5.87
531.975	5.92
532.321	5.94
532.667	6
533.014	6.05
533.36	5.98
533.706	5.97
534.052	5.93
534.399	5.93
534.745	5.84
535.091	5.94
535.437	5.99
535.783	6.11
536.129	6.1
536.474	6.12
536.82	6.14
537.166	6.2
537.512	6.15
537.857	6.1
538.203	6.12
538.549	6.21
538.894	6.16
539.239	6.39
539.585	6.3
539.93	6.32
540.276	6.4
540.621	6.35
540.966	6.41
541.311	6.37
541.656	6.35
542.001	6.35
542.346	6.21
542.691	6.23
543.036	6.25
543.381	6.27
543.726	6.32
544.071	6.39
544.415	6.43
544.76	6.37
545.105	6.48
545.449	6.48
545.794	6.58
546.138	6.68
546.483	6.66
546.827	6.6
547.171	6.61
547.516	6.72
547.86	6.7
548.204	6.64
548.548	6.84
548.892	6.75
549.236	6.81
549.58	6.84
549.924	6.89
550.268	6.85
550.612	6.86
550.956	6.82
551.3	6.91
551.643	6.99
551.987	7.05
552.33	6.93
552.674	7.1
553.017	7.1
553.361	7.05
553.704	6.92
554.048	7.19
554.391	7.12
554.734	7.12
555.077	7.15
555.42	7.22
555.764	7.18
556.107	7.32
556.45	7.22
556.793	7.44
557.135	7.36
557.478	7.52
557.821	7.33
558.164	7.42
558.507	7.37
558.849	7.29
559.192	7.49
559.534	7.39
559.877	7.54
560.219	7.67
560.562	7.62
560.904	7.65
561.246	7.7
561.589	7.67
561.931	7.76
562.273	7.4
562.615	7.87
562.957	7.68
563.299	7.69
563.641	7.74
563.983	7.66
564.325	7.61
564.667	7.7
565.008	7.75
565.35	8.09
565.692	7.94
566.033	8.01
566.375	7.77
566.716	7.95
567.058	7.96
567.399	7.96
567.741	8.02
568.082	7.96
568.423	7.94
568.764	8.21
569.105	8.27
569.447	8.01
569.788	8.08
570.129	8.18
570.47	8.18
570.811	8.11
571.151	8.36
571.492	8.28
571.833	8.26
572.174	8.38
572.514	8.19
572.855	8.33
573.195	8.18
573.536	8.36
573.876	8.29
574.217	8.46
574.557	8.42
574.898	8.36
575.238	8.5
575.578	8.71
575.918	8.47
576.258	8.6
576.598	8.61
576.938	8.83
577.278	8.66
577.618	8.58
577.958	8.71
578.298	8.88
578.638	8.83
578.977	8.91
579.317	9.07
579.657	8.88
579.996	9.02
580.336	8.95
580.675	9.06
581.014	9.06
581.354	9.19
581.693	9.08
582.032	8.87
582.372	9.21
582.711	9.2
583.05	9.37
583.389	9.41
583.728	9.4
584.067	9.45
584.406	9.48
584.745	9.32
585.083	9.64
585.422	9.51
585.761	9.65
586.1	9.66
586.438	9.53
586.777	9.71
587.115	9.6
587.454	9.8
587.792	9.54
588.13	9.99
588.469	9.89
588.807	9.85
589.145	9.75
589.483	9.66
589.821	9.77
590.159	9.5
590.497	9.53
590.835	9.75
591.173	9.96
591.511	9.86
591.849	10.04
592.187	10.16
592.524	10.01
592.862	10.13
593.2	10.09
593.537	10.1
593.875	10.12
594.212	10.18
594.55	10.2
594.887	10.33
595.224	10.35
595.561	10.2
595.899	10.45
596.236	10.39
596.573	10.28
596.91	10.31
597.247	10.57
597.584	10.62
597.921	10.54
598.258	10.69
598.594	10.45
598.931	10.41
599.268	10.48
599.604	10.9
599.941	10.69
600.277	10.56
600.614	10.75
600.95	11.04
601.287	10.69
601.623	10.81
601.959	10.61
602.296	11.02
602.632	11.29
602.968	10.94
603.304	11.04
603.64	11.15
603.976	11.09
604.312	11.29
604.648	11.27
604.984	11.15
605.319	11.18
605.655	11.17
605.991	11.05
606.326	11.04
606.662	11.15
606.998	11.19
607.333	11.5
607.668	11.56
608.004	11.54
608.339	11.43
608.674	11.64
609.01	11.52
609.345	11.45
609.68	11.53
610.015	11.75
610.35	11.75
610.685	11.77
611.02	11.85
611.355	11.8
611.689	11.74
612.024	11.79
612.359	11.77
612.694	12.17
613.028	12.4
613.363	11.83
613.697	11.81
614.032	12.09
614.366	11.99
614.7	12.51
615.035	11.91
615.369	12.37
615.703	12.39
616.037	12.43
616.371	12.72
616.705	12.36
617.039	13.01
617.373	12.51
617.707	12.34
618.041	12.69
618.375	12.5
618.709	12.52
619.042	12.68
619.376	12.52
619.71	12.8
620.043	13.02
620.377	12.81
620.71	13.13
621.043	12.54
621.377	12.89
621.71	13.1
622.043	13.15
622.376	13.08
622.709	13.12
623.043	12.94
623.376	13.21
623.709	13.15
624.041	13.05
624.374	13.11
624.707	13.21
625.04	13.45
625.373	13.2
625.705	13.55
626.038	13.14
626.37	13.29
626.703	13.48
627.035	13.63
627.368	13.42
627.7	13.27
628.032	13.42
628.365	13.37
628.697	13.39
629.029	13.85
629.361	13.58
629.693	13.96
630.025	13.42
630.357	13.58
630.689	13.77
631.021	14.18
631.353	14.11
631.684	13.99
632.016	13.72
632.348	14.08
632.679	13.91
633.011	14.22
633.342	14.09
633.674	14.06
634.005	14.14
634.336	14.02
634.668	14.15
634.999	14.11
635.33	14.14
635.661	14.77
635.992	14.3
636.323	14.38
636.654	14.13
636.985	14.6
637.316	14.76
637.647	14.58
637.977	14.61
638.308	14.5
638.639	14.9
638.969	14.44
639.3	15.13
639.63	14.75
639.961	14.75
640.291	14.99
640.622	14.66
640.952	15.14
641.282	14.63
641.612	15.02
641.943	15.19
642.273	15.3
642.603	15.12
642.933	15.15
643.263	15.3
643.592	15.11
643.922	15.95
644.252	15.57
644.582	15.65
644.911	14.95
645.241	15.1
645.571	15.1
645.9	15.69
646.23	15.25
646.559	15.79
646.888	15.3
647.218	15.72
647.547	16.04
647.876	15.66
648.205	15.63
648.534	15.32
648.863	16.07
649.192	15.63
649.521	15.73
649.85	16.24
650.179	15.41
650.508	15.71
650.837	15.85
651.165	16.12
651.494	15.97
651.822	15.98
652.151	16.63
652.479	16.51
652.808	15.93
653.136	15.65
653.465	16.51
653.793	16.99
654.121	16.57
654.449	15.98
654.777	16.25
655.105	16.39
655.433	16.46
655.761	15.92
656.089	16.83
656.417	16.43
656.745	17.33
657.073	17.06
657.4	16.43
657.728	16.93
658.056	16.55
658.383	17.01
658.711	16.55
659.038	17.04
659.365	17.08
659.693	16.59
660.02	16.69
660.347	17.29
660.674	16.59
661.001	16.69
661.329	17.08
661.656	17.31
661.982	17.14
662.309	17.27
662.636	17.38
662.963	17.48
663.29	17.71
663.616	17.58
663.943	17.64
664.27	17.41
664.596	16.91
664.923	18.02
665.249	17.39
665.576	17.27
665.902	17.46
666.228	17.41
666.554	17.48
666.881	18.3
667.207	17.31
667.533	18.01
667.859	17.28
668.185	17.96
668.511	17.46
668.837	17.74
669.162	17.99
669.488	17.71
669.814	18.53
670.139	18.57
670.465	18.5
670.791	18.5
671.116	17.72
671.442	18.51
671.767	18.24
672.092	18.49
672.418	18.83
672.743	17.87
673.068	18.43
673.393	18.45
673.718	18.21
674.043	18.48
674.368	18.91
674.693	18.44
675.018	18.91
675.343	18.59
675.667	18.86
675.992	18.47
676.317	18.81
676.641	19.58
676.966	18.45
677.29	18.97
677.615	19.05
677.939	19.4
678.264	19.34
678.588	19.1
678.912	19.09
679.236	19.03
679.56	19.04
679.885	19.31
680.209	18.61
680.532	19.07
680.856	19.45
681.18	19.17
681.504	19.5
681.828	18.53
682.152	19.23
682.475	19.33
682.799	19.43
683.122	19.58
683.446	19.49
683.769	19.24
684.093	19.89
684.416	19.28
684.739	19.58
