Data from 0068_chest_Reflection__2__271.txt Node

Date: Fri Dec 16 16:14:55 CST 2022
User: ToomeyLab
Spectrometer: FLMS14357
Trigger mode: 0
Integration Time (sec): 1.000000E-2
Scans to average: 100
Electric dark correction enabled: true
Nonlinearity correction enabled: false
Boxcar width: 0
XAxis mode: Wavelengths
Number of Pixels in Spectrum: 2048
>>>>>Begin Spectral Data<<<<<
189.047	149.34
189.435	149.34
189.823	149.34
190.211	202.63
190.599	-20.17
190.987	82.71
191.375	-1379.15
191.763	1248.97
192.151	468.34
192.538	79.43
192.926	270
193.314	83.1
193.702	31.15
194.089	10419.57
194.477	-58.18
194.864	68.92
195.252	110.4
195.639	88.24
196.027	3.58
196.414	159.16
196.801	-44.96
197.189	86.36
197.576	388.28
197.963	42.19
198.351	31.94
198.738	-16.16
199.125	41.05
199.512	4.39
199.899	9.68
200.286	44.67
200.673	59.83
201.06	11.51
201.447	41.67
201.833	96.25
202.22	54.3
202.607	-87.21
202.994	54.03
203.38	-28.61
203.767	16.13
204.154	-116.9
204.54	19.11
204.927	3.77
205.313	126.05
205.699	14.85
206.086	1.75
206.472	-22.47
206.858	1.25
207.245	-3.91
207.631	-13.51
208.017	0.97
208.403	5.69
208.789	5.61
209.175	52.74
209.561	-5.43
209.947	-27.98
210.333	-24.05
210.719	-45.3
211.105	8.53
211.491	-7.12
211.876	2.86
212.262	-41.43
212.648	-29.24
213.034	-28.96
213.419	10.86
213.805	-25.21
214.19	27.91
214.576	-10.7
214.961	-1.61
215.346	17.14
215.732	23.66
216.117	-16.7
216.502	4.29
216.888	-47.42
217.273	11.28
217.658	-14.64
218.043	5.53
218.428	-0.31
218.813	-6.12
219.198	-67.43
219.583	9.43
219.968	18.52
220.353	-2.42
220.738	-13.33
221.122	-16.57
221.507	-10.56
221.892	15.59
222.276	20.37
222.661	-17.64
223.046	3.19
223.43	-0.95
223.815	17.42
224.199	12.6
224.583	16.33
224.968	12.17
225.352	-2.08
225.736	11.31
226.121	-0.24
226.505	1.32
226.889	4.71
227.273	-1.8
227.657	6.4
228.041	6.14
228.425	8.8
228.809	3.29
229.193	0.36
229.577	2.3
229.961	3.09
230.344	2.64
230.728	3.21
231.112	3.56
231.495	2.67
231.879	2.44
232.263	0.55
232.646	0.78
233.03	0.58
233.413	1.36
233.797	5.17
234.18	-1.44
234.563	1.87
234.946	2.06
235.33	2.33
235.713	3.28
236.096	1.17
236.479	5.13
236.862	3.54
237.245	3.08
237.628	4.09
238.011	1.09
238.394	3.19
238.777	1.94
239.16	1.09
239.543	1.61
239.925	1.15
240.308	1.46
240.691	1.82
241.073	2.24
241.456	3.11
241.838	2.86
242.221	2.6
242.603	2.65
242.986	3.72
243.368	2.2
243.75	2.25
244.133	2.59
244.515	2.55
244.897	1.98
245.279	2.64
245.661	2.65
246.043	2.86
246.425	1.69
246.807	2.95
247.189	2.12
247.571	2.94
247.953	2.62
248.335	2.78
248.717	2.7
249.098	2.76
249.48	2.25
249.862	2.57
250.243	2.32
250.625	2.27
251.006	2.53
251.388	4.32
251.769	2.35
252.151	3.63
252.532	2.25
252.913	2.66
253.295	2.36
253.676	2.62
254.057	2.1
254.438	1.66
254.819	1.83
255.2	3.11
255.581	1.52
255.962	1.96
256.343	1.39
256.724	1.33
257.105	2.86
257.486	1.83
257.867	1.34
258.247	2.17
258.628	3.4
259.009	2.59
259.389	2.59
259.77	2.07
260.15	2.95
260.531	2.5
260.911	2.23
261.292	2.36
261.672	2.25
262.052	2.42
262.432	2.27
262.813	2.57
263.193	2.33
263.573	2.7
263.953	2.61
264.333	2.58
264.713	2.58
265.093	2.11
265.473	2.87
265.853	1.53
266.233	2.18
266.612	2.2
266.992	2.3
267.372	2.16
267.752	1.86
268.131	2.73
268.511	2.46
268.89	2.75
269.27	2.32
269.649	2.54
270.029	2.39
270.408	2.21
270.787	1.45
271.167	2.81
271.546	1.55
271.925	2.44
272.304	2.66
272.683	2.12
273.062	2.43
273.441	2.55
273.82	2.35
274.199	2.12
274.578	1.74
274.957	2.61
275.336	2.52
275.715	3.08
276.093	2.3
276.472	2.54
276.851	2.24
277.229	2.87
277.608	2.02
277.986	2.25
278.365	1.43
278.743	3.04
279.122	2.08
279.5	2.23
279.878	1.71
280.257	2.44
280.635	2.28
281.013	2.48
281.391	2.43
281.769	2.49
282.147	2.1
282.525	1.88
282.903	2.27
283.281	2.12
283.659	2.49
284.037	2.28
284.415	2.54
284.792	2.57
285.17	2.42
285.548	2.45
285.925	1.93
286.303	2.02
286.68	2.5
287.058	2.01
287.435	1.76
287.813	2.46
288.19	2.39
288.567	2.07
288.945	1.77
289.322	1.88
289.699	2.32
290.076	2.62
290.453	2.4
290.83	2.05
291.207	2.1
291.584	2.03
291.961	2.72
292.338	2.25
292.715	1.92
293.092	2.19
293.469	2.45
293.845	2.93
294.222	2.42
294.599	2.2
294.975	2.5
295.352	1.74
295.728	2.22
296.105	1.8
296.481	2.47
296.858	2.36
297.234	1.69
297.61	2.29
297.986	2.34
298.363	2.02
298.739	2.13
299.115	1.88
299.491	2.06
299.867	1.87
300.243	2.09
300.619	2.13
300.995	2.07
301.371	2.36
301.746	1.82
302.122	2.01
302.498	1.78
302.874	2.16
303.249	1.8
303.625	2.16
304	1.84
304.376	1.98
304.751	2
305.127	2.16
305.502	2.54
305.878	2.05
306.253	1.9
306.628	2.64
307.003	2.43
307.378	1.76
307.754	2.08
308.129	2.36
308.504	1.65
308.879	1.77
309.254	2.53
309.629	1.82
310.003	2.39
310.378	2.38
310.753	2.22
311.128	2.26
311.502	1.93
311.877	2
312.252	2.03
312.626	2.08
313.001	2.26
313.375	1.72
313.75	1.87
314.124	2.47
314.498	1.95
314.873	1.92
315.247	1.61
315.621	2.47
315.995	2.06
316.369	2
316.743	2.21
317.117	2.19
317.491	2.21
317.865	1.87
318.239	2.31
318.613	1.82
318.987	2.45
319.361	2.27
319.734	2.09
320.108	2.22
320.482	2.04
320.855	2.23
321.229	2.73
321.602	1.4
321.976	2.15
322.349	1.2
322.723	0.91
323.096	1.5
323.469	1.73
323.843	1.85
324.216	1.43
324.589	2.28
324.962	2.11
325.335	2
325.708	2.39
326.081	2.57
326.454	2.1
326.827	2.53
327.2	2.41
327.573	2.24
327.945	2.13
328.318	2.58
328.691	2.02
329.063	1.72
329.436	2.37
329.809	1.34
330.181	1.69
330.553	2.65
330.926	2.08
331.298	1.8
331.671	1.79
332.043	2.59
332.415	2.78
332.787	2.54
333.159	2.37
333.532	2.06
333.904	2.29
334.276	1.88
334.648	2.25
335.02	1.81
335.391	2.43
335.763	1.96
336.135	2.46
336.507	2.1
336.879	2.28
337.25	1.7
337.622	2.44
337.993	2.2
338.365	1.79
338.736	2.06
339.108	2.33
339.479	1.71
339.851	2.36
340.222	2.62
340.593	1.78
340.964	2.1
341.336	2.06
341.707	2.49
342.078	1.81
342.449	2.01
342.82	2.01
343.191	1.9
343.562	2.08
343.933	2.36
344.303	1.82
344.674	1.81
345.045	2.39
345.416	2.16
345.786	1.73
346.157	2.25
346.527	1.91
346.898	1.85
347.268	2.36
347.639	1.93
348.009	2
348.38	2.3
348.75	2.36
349.12	2.18
349.49	1.75
349.861	2.7
350.231	2.42
350.601	2.01
350.971	2.26
351.341	2.32
351.711	1.87
352.081	2.05
352.45	2.12
352.82	1.81
353.19	1.98
353.56	1.96
353.929	1.92
354.299	1.78
354.669	2.16
355.038	2.02
355.408	2.4
355.777	2.4
356.147	2.23
356.516	2.64
356.885	2.04
357.254	2.5
357.624	2.31
357.993	1.97
358.362	2.22
358.731	2.2
359.1	2.4
359.469	2.16
359.838	1.83
360.207	2.13
360.576	1.99
360.945	2.14
361.314	2.3
361.682	1.88
362.051	2.26
362.42	2.7
362.788	2.32
363.157	2.13
363.525	2.17
363.894	2.04
364.262	1.99
364.631	2.87
364.999	1.94
365.367	2.4
365.735	1.96
366.104	1.82
366.472	2.22
366.84	2.35
367.208	1.8
367.576	2.12
367.944	2.44
368.312	1.74
368.68	2.08
369.048	2.39
369.416	2.2
369.783	2.17
370.151	2.12
370.519	1.85
370.886	2.4
371.254	2.45
371.621	2.33
371.989	2.63
372.356	2.04
372.724	2.38
373.091	2.1
373.458	2.19
373.826	2.25
374.193	2.65
374.56	2.06
374.927	2.33
375.294	2.48
375.661	2.14
376.028	2.22
376.395	2.06
376.762	2.92
377.129	2.4
377.496	2.4
377.863	2.18
378.229	2.09
378.596	2.16
378.963	2.31
379.329	2.27
379.696	2.1
380.062	2.48
380.429	2.22
380.795	2.14
381.161	2.44
381.528	1.82
381.894	2.28
382.26	2.14
382.626	1.99
382.993	1.86
383.359	2.23
383.725	2.58
384.091	2.07
384.457	2.26
384.823	2.43
385.188	2.22
385.554	2.34
385.92	2.43
386.286	2.39
386.651	2.37
387.017	2.33
387.383	2.34
387.748	2.31
388.114	2.43
388.479	2.3
388.845	2.29
389.21	2.27
389.575	2.24
389.94	2.18
390.306	2.1
390.671	2.41
391.036	2.43
391.401	2.41
391.766	2.26
392.131	2.21
392.496	2.31
392.861	2.15
393.226	2.47
393.591	2.33
393.956	2.39
394.32	2.11
394.685	2.26
395.05	2.21
395.414	2.38
395.779	2.35
396.143	2.4
396.508	2.39
396.872	2.28
397.236	1.93
397.601	2.45
397.965	1.92
398.329	2.56
398.694	2.05
399.058	2.53
399.422	2.52
399.786	2.35
400.15	2.37
400.514	2.3
400.878	2.2
401.242	2.42
401.605	2.3
401.969	2.3
402.333	2.34
402.697	2.43
403.06	2.48
403.424	2.38
403.787	2.58
404.151	2.41
404.514	2.62
404.878	2.47
405.241	2.43
405.604	2.43
405.968	2.31
406.331	2.37
406.694	2.21
407.057	2.51
407.42	2.27
407.783	2.33
408.146	2.33
408.509	2.21
408.872	2.09
409.235	2.34
409.598	2.45
409.961	2.55
410.323	2.58
410.686	2.48
411.049	2.22
411.411	2.33
411.774	2.29
412.136	2.5
412.499	2.21
412.861	2.21
413.223	2.56
413.586	2.25
413.948	2.44
414.31	2.5
414.672	2.48
415.035	2.53
415.397	2.57
415.759	2.39
416.121	2.63
416.483	2.55
416.845	2.52
417.206	2.47
417.568	2.46
417.93	2.42
418.292	2.33
418.653	2.45
419.015	2.42
419.377	2.38
419.738	2.33
420.1	2.38
420.461	2.38
420.822	2.39
421.184	2.45
421.545	2.44
421.906	2.4
422.267	2.29
422.629	2.4
422.99	2.4
423.351	2.34
423.712	2.45
424.073	2.46
424.434	2.24
424.795	2.38
425.155	2.36
425.516	2.37
425.877	2.38
426.238	2.34
426.598	2.43
426.959	2.34
427.32	2.54
427.68	2.4
428.041	2.4
428.401	2.4
428.761	2.31
429.122	2.4
429.482	2.26
429.842	2.4
430.202	2.53
430.563	2.38
430.923	2.53
431.283	2.52
431.643	2.41
432.003	2.53
432.363	2.44
432.722	2.41
433.082	2.47
433.442	2.3
433.802	2.59
434.161	2.33
434.521	2.48
434.881	2.61
435.24	2.52
435.6	2.46
435.959	2.51
436.319	2.37
436.678	2.41
437.037	2.61
437.396	2.58
437.756	2.43
438.115	2.39
438.474	2.46
438.833	2.67
439.192	2.56
439.551	2.54
439.91	2.64
440.269	2.67
440.628	2.48
440.987	2.43
441.345	2.4
441.704	2.51
442.063	2.43
442.421	2.47
442.78	2.37
443.138	2.45
443.497	2.38
443.855	2.51
444.214	2.58
444.572	2.52
444.93	2.37
445.288	2.5
445.647	2.5
446.005	2.31
446.363	2.55
446.721	2.29
447.079	2.46
447.437	2.4
447.795	2.51
448.153	2.38
448.51	2.44
448.868	2.46
449.226	2.48
449.584	2.47
449.941	2.56
450.299	2.57
450.656	2.59
451.014	2.54
451.371	2.54
451.729	2.49
452.086	2.48
452.443	2.4
452.801	2.62
453.158	2.56
453.515	2.4
453.872	2.75
454.229	2.5
454.586	2.42
454.943	2.45
455.3	2.59
455.657	2.53
456.014	2.57
456.371	2.62
456.727	2.48
457.084	2.53
457.441	2.45
457.797	2.64
458.154	2.63
458.51	2.57
458.867	2.46
459.223	2.67
459.58	2.58
459.936	2.52
460.292	2.5
460.648	2.46
461.005	2.47
461.361	2.53
461.717	2.46
462.073	2.53
462.429	2.59
462.785	2.62
463.141	2.68
463.496	2.39
463.852	2.71
464.208	2.61
464.564	2.45
464.919	2.48
465.275	2.66
465.631	2.59
465.986	2.49
466.342	2.64
466.697	2.68
467.052	2.6
467.408	2.59
467.763	2.47
468.118	2.68
468.473	2.66
468.829	2.56
469.184	2.71
469.539	2.54
469.894	2.56
470.249	2.69
470.603	2.77
470.958	2.65
471.313	2.53
471.668	2.76
472.023	2.64
472.377	2.51
472.732	2.64
473.086	2.54
473.441	2.8
473.795	2.71
474.15	2.55
474.504	2.79
474.859	2.66
475.213	2.6
475.567	2.55
475.921	2.72
476.275	2.72
476.63	2.57
476.984	2.5
477.338	2.77
477.692	2.63
478.045	2.51
478.399	2.77
478.753	2.57
479.107	2.62
479.461	2.72
479.814	2.67
480.168	2.71
480.521	2.64
480.875	2.84
481.228	2.7
481.582	2.58
481.935	2.61
482.289	2.67
482.642	2.67
482.995	2.61
483.348	2.64
483.701	2.52
484.055	2.54
484.408	2.49
484.761	2.45
485.114	2.43
485.466	2.43
485.819	2.43
486.172	2.51
486.525	2.56
486.878	2.56
487.23	2.58
487.583	2.61
487.936	2.62
488.288	2.59
488.641	2.52
488.993	2.44
489.345	2.51
489.698	2.55
490.05	2.58
490.402	2.61
490.754	2.67
491.107	2.73
491.459	2.73
491.811	2.72
492.163	2.73
492.515	2.6
492.866	2.54
493.218	2.51
493.57	2.6
493.922	2.63
494.274	2.67
494.625	2.6
494.977	2.64
495.328	2.68
495.68	2.81
496.031	2.73
496.383	2.7
496.734	2.74
497.086	2.59
497.437	2.79
497.788	2.66
498.139	2.79
498.49	2.71
498.842	2.68
499.193	2.7
499.544	2.82
499.894	2.72
500.245	2.71
500.596	2.82
500.947	2.8
501.298	2.85
501.648	2.81
501.999	2.89
502.35	2.82
502.7	2.84
503.051	2.8
503.401	2.74
503.752	2.64
504.102	2.68
504.452	2.78
504.803	2.68
505.153	2.75
505.503	2.81
505.853	2.67
506.203	2.78
506.553	2.84
506.903	2.78
507.253	2.7
507.603	2.86
507.953	2.93
508.303	2.87
508.652	2.79
509.002	2.9
509.352	2.85
509.701	2.81
510.051	2.89
510.4	2.79
510.75	2.84
511.099	2.77
511.449	2.8
511.798	2.95
512.147	2.78
512.496	2.89
512.846	2.83
513.195	2.93
513.544	2.83
513.893	2.85
514.242	2.89
514.591	2.97
514.939	2.89
515.288	2.9
515.637	3.07
515.986	2.87
516.334	3.1
516.683	3
517.032	2.88
517.38	2.94
517.729	2.85
518.077	2.89
518.426	2.88
518.774	2.89
519.122	2.84
519.47	2.9
519.819	2.92
520.167	2.89
520.515	2.86
520.863	2.91
521.211	2.87
521.559	2.92
521.907	3.01
522.255	3
522.602	3
522.95	3.06
523.298	2.88
523.645	2.94
523.993	3.1
524.341	3
524.688	2.95
525.036	3.04
525.383	3.06
525.73	2.96
526.078	3.02
526.425	3.04
526.772	2.85
527.119	2.91
527.466	2.95
527.814	2.84
528.161	2.98
528.508	2.96
528.854	2.93
529.201	2.92
529.548	2.86
529.895	2.81
530.242	2.83
530.588	2.85
530.935	2.92
531.282	3
531.628	2.95
531.975	3.04
532.321	2.98
532.667	3.06
533.014	3.07
533.36	3.05
533.706	3.07
534.052	3
534.399	3.02
534.745	2.94
535.091	2.99
535.437	3.08
535.783	3.08
536.129	3.09
536.474	3.14
536.82	3.09
537.166	3.15
537.512	3.12
537.857	3.12
538.203	3.12
538.549	3.14
538.894	3.14
539.239	3.3
539.585	3.23
539.93	3.24
540.276	3.21
540.621	3.19
540.966	3.22
541.311	3.3
541.656	3.14
542.001	3.19
542.346	3.1
542.691	3.05
543.036	3.08
543.381	3.19
543.726	3.17
544.071	3.28
544.415	3.24
544.76	3.19
545.105	3.23
545.449	3.22
545.794	3.28
546.138	3.29
546.483	3.31
546.827	3.36
547.171	3.28
547.516	3.39
547.86	3.27
548.204	3.27
548.548	3.43
548.892	3.34
549.236	3.45
549.58	3.34
549.924	3.46
550.268	3.41
550.612	3.51
550.956	3.35
551.3	3.5
551.643	3.57
551.987	3.48
552.33	3.33
552.674	3.63
553.017	3.61
553.361	3.63
553.704	3.39
554.048	3.51
554.391	3.49
554.734	3.54
555.077	3.58
555.42	3.5
555.764	3.7
556.107	3.45
556.45	3.41
556.793	3.71
557.135	3.76
557.478	3.83
557.821	3.6
558.164	3.74
558.507	3.58
558.849	3.76
559.192	3.64
559.534	3.52
559.877	3.73
560.219	3.81
560.562	3.7
560.904	3.71
561.246	3.75
561.589	3.82
561.931	4.02
562.273	3.7
562.615	3.66
562.957	3.92
563.299	3.86
563.641	3.82
563.983	3.86
564.325	3.73
564.667	3.78
565.008	3.84
565.35	4.05
565.692	4.03
566.033	3.94
566.375	3.69
566.716	3.96
567.058	3.97
567.399	3.95
567.741	3.91
568.082	3.86
568.423	4
568.764	4.01
569.105	4.03
569.447	3.97
569.788	4
570.129	3.93
570.47	3.93
570.811	3.97
571.151	3.93
571.492	4.22
571.833	4.05
572.174	4.02
572.514	4.07
572.855	4.02
573.195	4.08
573.536	4.02
573.876	3.97
574.217	4.18
574.557	4.15
574.898	4.02
575.238	4.02
575.578	4.3
575.918	4.25
576.258	4.29
576.598	4.15
576.938	4.27
577.278	4.22
577.618	4.27
577.958	4.34
578.298	4.37
578.638	4.27
578.977	4.48
579.317	4.32
579.657	4.56
579.996	4.4
580.336	4.37
580.675	4.48
581.014	4.26
581.354	4.58
581.693	4.36
582.032	4.03
582.372	4.52
582.711	4.39
583.05	4.7
583.389	4.75
583.728	4.68
584.067	4.56
584.406	4.56
584.745	4.5
585.083	4.81
585.422	4.51
585.761	4.76
586.1	4.67
586.438	4.9
586.777	4.79
587.115	4.78
587.454	4.73
587.792	4.63
588.13	5.08
588.469	5.04
588.807	4.9
589.145	4.68
589.483	4.74
589.821	5
590.159	5
590.497	4.55
590.835	4.87
591.173	4.97
591.511	4.97
591.849	5.05
592.187	4.92
592.524	4.88
592.862	5.04
593.2	4.92
593.537	4.99
593.875	5.22
594.212	5.04
594.55	5.22
594.887	5.2
595.224	5.04
595.561	4.83
595.899	5.14
596.236	5.11
596.573	5.05
596.91	5.29
597.247	5.02
597.584	5.24
597.921	5.29
598.258	5.19
598.594	5.04
598.931	5.16
599.268	5.18
599.604	5.38
599.941	5.2
600.277	5.19
600.614	5.19
600.95	5.34
601.287	5.17
601.623	5.53
601.959	5.3
602.296	5.22
602.632	5.7
602.968	5.35
603.304	5.42
603.64	5.43
603.976	5.49
604.312	5.83
604.648	5.43
604.984	5.4
605.319	5.49
605.655	5.54
605.991	5.69
606.326	5.5
606.662	5.39
606.998	5.63
607.333	5.59
607.668	5.62
608.004	5.56
608.339	5.73
608.674	5.82
609.01	5.87
609.345	5.93
609.68	5.77
610.015	5.85
610.35	5.88
610.685	5.85
611.02	6.08
611.355	5.87
611.689	5.55
612.024	6.14
612.359	6.08
612.694	6.19
613.028	6.36
613.363	5.75
613.697	6.08
614.032	5.99
614.366	5.98
614.7	6.31
615.035	6.1
615.369	6
615.703	6.3
616.037	6.17
616.371	6.07
616.705	5.9
617.039	6.55
617.373	6.21
617.707	6.52
618.041	6.49
618.375	6.22
618.709	6.36
619.042	6.51
619.376	6.34
619.71	6.41
620.043	6.12
620.377	6.53
620.71	6.21
621.043	6.19
621.377	6.38
621.71	6.64
622.043	6.8
622.376	6.6
622.709	7
623.043	6.54
623.376	6.68
623.709	6.94
624.041	6.57
624.374	6.36
624.707	6.52
625.04	6.77
625.373	6.62
625.705	6.64
626.038	7.11
626.37	6.76
626.703	6.78
627.035	6.91
627.368	7.01
627.7	6.94
628.032	7.06
628.365	6.72
628.697	6.72
629.029	7.2
629.361	6.65
629.693	7.2
630.025	7.02
630.357	7.01
630.689	7.31
631.021	7.32
631.353	7.4
631.684	7.33
632.016	7.21
632.348	7.14
632.679	7.34
633.011	7.01
633.342	7.28
633.674	7.05
634.005	7.21
634.336	7.4
634.668	6.97
634.999	7.36
635.33	7.31
635.661	7.54
635.992	6.97
636.323	7.63
636.654	7.42
636.985	7.58
637.316	7.29
637.647	7.56
637.977	7.74
638.308	7.33
638.639	7.38
638.969	7.59
639.3	7.99
639.63	7.54
639.961	7.55
640.291	8.19
640.622	8.19
640.952	7.61
641.282	7.47
641.612	7.55
641.943	7.84
642.273	7.86
642.603	7.58
642.933	7.78
643.263	8.13
643.592	7.87
643.922	8.29
644.252	7.9
644.582	7.91
644.911	7.58
645.241	7.83
645.571	7.86
645.9	8.52
646.23	7.99
646.559	8.08
646.888	8.16
647.218	7.77
647.547	8.21
647.876	8.45
648.205	8.01
648.534	8.07
648.863	8.35
649.192	8.02
649.521	7.95
649.85	8.43
650.179	8.04
650.508	8.54
650.837	8.24
651.165	8.21
651.494	8.6
651.822	8.51
652.151	9.05
652.479	8.98
652.808	8.27
653.136	8.38
653.465	8.92
653.793	8.47
654.121	8.6
654.449	8.8
654.777	8.61
655.105	9.43
655.433	9.06
655.761	8.77
656.089	8.68
656.417	8.53
656.745	9.38
657.073	9.05
657.4	8.91
657.728	9.03
658.056	8.89
658.383	8.92
658.711	8.79
659.038	9.12
659.365	9.26
659.693	8.48
660.02	8.83
660.347	9.07
660.674	8.66
661.001	8.77
661.329	9.1
661.656	9.24
661.982	9.11
662.309	9.34
662.636	9.35
662.963	9.2
663.29	9.17
663.616	9.24
663.943	9.59
664.27	9.2
664.596	9.32
664.923	9.79
665.249	9.17
665.576	9.46
665.902	9.65
666.228	9.33
666.554	9.25
666.881	9.75
667.207	9.63
667.533	9.91
667.859	9.72
668.185	9.7
668.511	9.18
668.837	9
669.162	9.73
669.488	9.83
669.814	10.01
670.139	9.95
670.465	10.08
670.791	9.95
671.116	9.45
671.442	9.39
671.767	10.2
672.092	10.41
672.418	10.52
672.743	10.37
673.068	9.79
673.393	10.08
673.718	9.65
674.043	10.4
674.368	9.87
674.693	9.96
675.018	10.55
675.343	10.6
675.667	10.14
675.992	9.96
676.317	10.61
676.641	10.29
676.966	10.63
677.29	10.41
677.615	10.75
677.939	10.62
678.264	10.12
678.588	10.54
678.912	10.15
679.236	10.62
679.56	10.1
679.885	10.13
680.209	10.29
680.532	10.55
680.856	10.41
681.18	10.51
681.504	10.34
681.828	9.96
682.152	10.28
682.475	10.94
682.799	10.78
683.122	10.57
683.446	10.69
683.769	10.58
684.093	11.31
684.416	10.62
684.739	11.61
685.062	10.72
685.386	10.74
685.709	10.52
686.032	10.95
686.355	10.56
686.678	10.79
687.001	10.04
687.324	10.54
687.646	10.63
687.969	10.97
688.292	12.02
688.614	12.07
688.937	11.16
689.26	11.09
689.582	10.6
689.904	11.35
690.227	10.9
690.549	11.46
690.871	11.44
691.194	11.39
691.516	12.09
691.838	11.52
692.16	11.28
