Data from 0068_forehead_Reflection__4__283.txt Node

Date: Fri Dec 16 16:20:10 CST 2022
User: ToomeyLab
Spectrometer: FLMS14357
Trigger mode: 0
Integration Time (sec): 1.000000E-2
Scans to average: 100
Electric dark correction enabled: true
Nonlinearity correction enabled: false
Boxcar width: 0
XAxis mode: Wavelengths
Number of Pixels in Spectrum: 2048
>>>>>Begin Spectral Data<<<<<
189.047	161.34
189.435	161.34
189.823	161.34
190.211	493.68
190.599	40.98
190.987	262.88
191.375	-87.44
191.763	3368.04
192.151	-196.82
192.538	61.89
192.926	1404.76
193.314	64.25
193.702	-179.23
194.089	10491.3
194.477	1.93
194.864	-248.86
195.252	46.78
195.639	74.9
196.027	-258.26
196.414	120.14
196.801	173.9
197.189	66.37
197.576	-86.6
197.963	-106.44
198.351	22.9
198.738	46.99
199.125	50.27
199.512	43.99
199.899	132.73
200.286	-54.55
200.673	52.78
201.06	70.34
201.447	32.41
201.833	149.54
202.22	53.01
202.607	134.72
202.994	34.68
203.38	-52.9
203.767	19.74
204.154	-148.34
204.54	35.04
204.927	76.57
205.313	104.46
205.699	54.47
206.086	19.79
206.472	39.72
206.858	66.15
207.245	57.52
207.631	78.6
208.017	16.96
208.403	33.41
208.789	11.48
209.175	40.71
209.561	35.56
209.947	30.42
210.333	5.33
210.719	29.31
211.105	16.06
211.491	0.58
211.876	43.99
212.262	-12.34
212.648	11.05
213.034	38.56
213.419	61.58
213.805	26.52
214.19	39.05
214.576	17.46
214.961	-2.75
215.346	-12.17
215.732	-7.44
216.117	0.19
216.502	22.38
216.888	-66.64
217.273	35.07
217.658	-18.35
218.043	4.53
218.428	29
218.813	25.85
219.198	-39.21
219.583	3.1
219.968	11.5
220.353	13.71
220.738	-8.78
221.122	11.85
221.507	29.59
221.892	20.74
222.276	33.06
222.661	-0.61
223.046	32.6
223.43	12.99
223.815	12.29
224.199	15.88
224.583	12.54
224.968	22.2
225.352	15.79
225.736	14.93
226.121	4.89
226.505	4.85
226.889	18.15
227.273	11.47
227.657	4.21
228.041	9.19
228.425	10.05
228.809	7.48
229.193	5.39
229.577	5.49
229.961	5.32
230.344	5.61
230.728	5.95
231.112	5.31
231.495	4.31
231.879	7.63
232.263	5.55
232.646	6.17
233.03	4.44
233.413	6.39
233.797	7.69
234.18	5.36
234.563	5.84
234.946	3.05
235.33	4.92
235.713	6.14
236.096	4.83
236.479	7.03
236.862	5.93
237.245	6.61
237.628	6.32
238.011	4.32
238.394	8.73
238.777	7.32
239.16	1.64
239.543	5.02
239.925	5.26
240.308	6.28
240.691	5.8
241.073	6
241.456	4.28
241.838	4.85
242.221	6.15
242.603	6.04
242.986	5.98
243.368	5.44
243.75	5.52
244.133	5.6
244.515	5.52
244.897	4.97
245.279	6.04
245.661	6.44
246.043	6.67
246.425	5.55
246.807	5.55
247.189	5.41
247.571	6.02
247.953	5.73
248.335	5.94
248.717	5.83
249.098	5.36
249.48	5.62
249.862	5.75
250.243	5.92
250.625	5.67
251.006	5.5
251.388	6.34
251.769	5.14
252.151	6.65
252.532	6.14
252.913	6.73
253.295	5.92
253.676	6.32
254.057	5.56
254.438	5.82
254.819	5.27
255.2	6.02
255.581	6.51
255.962	6.88
256.343	6.92
256.724	6.65
257.105	5.75
257.486	5.75
257.867	5.14
258.247	6.63
258.628	6.57
259.009	5.61
259.389	5.57
259.77	5.18
260.15	6.44
260.531	6.26
260.911	5.79
261.292	5.7
261.672	5.59
262.052	5.85
262.432	5.58
262.813	5.96
263.193	5.6
263.573	5.89
263.953	5.67
264.333	6.04
264.713	5.81
265.093	5.96
265.473	6.22
265.853	6.14
266.233	6.36
266.612	6.17
266.992	5.98
267.372	5.82
267.752	5.7
268.131	5.72
268.511	6.14
268.89	5.89
269.27	5.83
269.649	6.68
270.029	5.85
270.408	5.88
270.787	5.43
271.167	6.27
271.546	5.69
271.925	6.14
272.304	6.08
272.683	5.55
273.062	5.74
273.441	5.95
273.82	5.71
274.199	5.73
274.578	5.05
274.957	5.75
275.336	5.57
275.715	6.05
276.093	6.77
276.472	6
276.851	5.62
277.229	6.45
277.608	5.76
277.986	5.81
278.365	5.49
278.743	6.17
279.122	5.55
279.5	5.71
279.878	4.86
280.257	5.84
280.635	5.27
281.013	5.76
281.391	5.6
281.769	5.69
282.147	6.07
282.525	5.32
282.903	6.05
283.281	5.82
283.659	5.83
284.037	5.75
284.415	5.86
284.792	5.99
285.17	5.74
285.548	5.29
285.925	5.05
286.303	5.55
286.68	5.76
287.058	5.59
287.435	5.35
287.813	5.79
288.19	6.01
288.567	5.87
288.945	6.4
289.322	5.69
289.699	6.27
290.076	6.3
290.453	6.08
290.83	6.57
291.207	6.07
291.584	6.22
291.961	6.12
292.338	6.37
292.715	6.47
293.092	6.36
293.469	6.94
293.845	7.01
294.222	6.94
294.599	6.99
294.975	6.97
295.352	6.56
295.728	6.99
296.105	6.65
296.481	7.57
296.858	7.35
297.234	6.91
297.61	7.48
297.986	6.95
298.363	6.77
298.739	7.26
299.115	6.51
299.491	7.12
299.867	7.44
300.243	7.49
300.619	7.31
300.995	7.45
301.371	8.08
301.746	7.71
302.122	7.71
302.498	8.36
302.874	7.92
303.249	7.87
303.625	8.04
304	8.01
304.376	8.13
304.751	7.68
305.127	8.44
305.502	8.55
305.878	7.76
306.253	8.4
306.628	8.63
307.003	8.41
307.378	8.24
307.754	8.58
308.129	8.25
308.504	8.67
308.879	9.01
309.254	9.24
309.629	8.78
310.003	9.21
310.378	9.06
310.753	9.21
311.128	8.85
311.502	8.65
311.877	8.94
312.252	8.99
312.626	8.92
313.001	9.23
313.375	9.21
313.75	9.36
314.124	9.96
314.498	9.58
314.873	9.87
315.247	9.27
315.621	10.7
315.995	10.45
316.369	10.36
316.743	10.01
317.117	10.91
317.491	9.78
317.865	9.73
318.239	10.24
318.613	10.66
318.987	10.38
319.361	10.81
319.734	10.61
320.108	10.81
320.482	10.23
320.855	10.47
321.229	11.38
321.602	10.65
321.976	11.09
322.349	10.74
322.723	10.91
323.096	11.03
323.469	10.82
323.843	10.89
324.216	10.76
324.589	11.58
324.962	11.63
325.335	11.12
325.708	11.44
326.081	11.94
326.454	11.57
326.827	11.53
327.2	11.94
327.573	11.67
327.945	11.46
328.318	11.85
328.691	12.12
329.063	12.07
329.436	11.3
329.809	11.48
330.181	11.72
330.553	12.3
330.926	12.7
331.298	11.88
331.671	12.04
332.043	12.47
332.415	12.78
332.787	12.81
333.159	12.27
333.532	13.04
333.904	12.83
334.276	12.64
334.648	12.92
335.02	12.75
335.391	12.86
335.763	12.83
336.135	12.59
336.507	12.76
336.879	13.12
337.25	13.44
337.622	12.84
337.993	13.11
338.365	13.27
338.736	13.15
339.108	13.15
339.479	13.28
339.851	13.91
340.222	13.38
340.593	13.18
340.964	13.44
341.336	13.2
341.707	13.56
342.078	13.67
342.449	14.33
342.82	13.8
343.191	13.62
343.562	13.67
343.933	13.9
344.303	14.28
344.674	14.06
345.045	14.45
345.416	14.23
345.786	14.2
346.157	14.14
346.527	14.17
346.898	14.3
347.268	14.5
347.639	13.9
348.009	14.63
348.38	14.34
348.75	14.67
349.12	14.93
349.49	14.54
349.861	14.95
350.231	14.99
350.601	14.75
350.971	14.74
351.341	14.97
351.711	14.81
352.081	14.93
352.45	15.36
352.82	15.27
353.19	15.06
353.56	15.36
353.929	15.6
354.299	15.28
354.669	15.73
355.038	15.63
355.408	15.72
355.777	15.4
356.147	15.91
356.516	16
356.885	15.99
357.254	15.96
357.624	15.88
357.993	15.89
358.362	15.87
358.731	15.58
359.1	16.06
359.469	15.98
359.838	15.96
360.207	15.75
360.576	16.38
360.945	16.26
361.314	16.23
361.682	16.09
362.051	16.41
362.42	16.55
362.788	16.45
363.157	16.38
363.525	16.25
363.894	16.32
364.262	16.38
364.631	17.02
364.999	16.41
365.367	17.05
365.735	16.56
366.104	16.67
366.472	17.08
366.84	17.26
367.208	16.67
367.576	16.91
367.944	17.18
368.312	16.94
368.68	17.76
369.048	17.38
369.416	17.8
369.783	17.8
370.151	17.7
370.519	17.41
370.886	17.93
371.254	17.64
371.621	17.88
371.989	17.69
372.356	17.78
372.724	17.82
373.091	17.49
373.458	17.73
373.826	18.14
374.193	18.38
374.56	17.95
374.927	18.28
375.294	18.57
375.661	18.51
376.028	18.15
376.395	18.28
376.762	18.75
377.129	18.4
377.496	18.39
377.863	18.67
378.229	18.38
378.596	18.84
378.963	18.53
379.329	18.57
379.696	18.8
380.062	19.3
380.429	18.82
380.795	18.93
381.161	18.92
381.528	18.34
381.894	19.15
382.26	19.24
382.626	19.09
382.993	19.1
383.359	19.22
383.725	19.3
384.091	19.28
384.457	19.58
384.823	19.38
385.188	19.71
385.554	19.83
385.92	19.73
386.286	19.73
386.651	19.66
387.017	19.97
387.383	20.03
387.748	19.91
388.114	20.02
388.479	20.08
388.845	20.17
389.21	20.25
389.575	20.23
389.94	20.17
390.306	20.44
390.671	20.44
391.036	20.48
391.401	20.63
391.766	20.56
392.131	20.54
392.496	20.48
392.861	20.51
393.226	20.63
393.591	20.77
393.956	21.02
394.32	20.74
394.685	21.04
395.05	20.9
395.414	20.91
395.779	20.98
396.143	20.99
396.508	21.14
396.872	21.26
397.236	21.06
397.601	21.31
397.965	21.13
398.329	21.12
398.694	21.27
399.058	21.43
399.422	21.41
399.786	21.55
400.15	21.48
400.514	21.69
400.878	21.66
401.242	21.98
401.605	21.98
401.969	22.16
402.333	22.12
402.697	22.34
403.06	22.22
403.424	21.98
403.787	22.14
404.151	22.18
404.514	22.34
404.878	22.07
405.241	22.22
405.604	22.29
405.968	22.44
406.331	22.25
406.694	22.36
407.057	22.86
407.42	22.41
407.783	22.54
408.146	22.57
408.509	22.51
408.872	22.75
409.235	22.74
409.598	23.02
409.961	22.94
410.323	22.57
410.686	22.57
411.049	22.8
411.411	23.08
411.774	22.94
412.136	23.07
412.499	23.15
412.861	23.21
413.223	23.23
413.586	23.21
413.948	23.5
414.31	23.64
414.672	23.32
415.035	23.54
415.397	23.66
415.759	23.41
416.121	23.72
416.483	23.61
416.845	23.71
417.206	23.65
417.568	23.56
417.93	23.44
418.292	23.81
418.653	23.63
419.015	23.58
419.377	23.89
419.738	23.73
420.1	23.77
420.461	23.76
420.822	23.82
421.184	23.7
421.545	24
421.906	23.86
422.267	23.7
422.629	23.82
422.99	23.92
423.351	23.75
423.712	24.07
424.073	24.21
424.434	24.12
424.795	24.15
425.155	24.11
425.516	24.11
425.877	24.24
426.238	24.29
426.598	24.46
426.959	24.43
427.32	24.53
427.68	24.83
428.041	24.86
428.401	24.85
428.761	24.98
429.122	25.02
429.482	25.09
429.842	25.29
430.202	25.47
430.563	25.35
430.923	25.03
431.283	25.39
431.643	25.42
432.003	25.57
432.363	25.73
432.722	25.53
433.082	25.44
433.442	25.63
433.802	25.61
434.161	25.38
434.521	25.6
434.881	25.62
435.24	25.58
435.6	25.77
435.959	25.74
436.319	25.95
436.678	26.02
437.037	26.04
437.396	26.13
437.756	26.09
438.115	26.18
438.474	26.16
438.833	26.19
439.192	26.28
439.551	26.33
439.91	26.43
440.269	26.54
440.628	26.31
440.987	26.23
441.345	26.35
441.704	26.34
442.063	26.38
442.421	26.47
442.78	26.5
443.138	26.48
443.497	26.79
443.855	26.85
444.214	26.75
444.572	26.78
444.93	27
445.288	27.08
445.647	26.92
446.005	26.85
446.363	26.93
446.721	26.88
447.079	27.01
447.437	26.85
447.795	26.87
448.153	26.84
448.51	26.91
448.868	27.05
449.226	27.25
449.584	27.17
449.941	27.58
450.299	27.49
450.656	27.89
451.014	27.48
451.371	27.87
451.729	27.97
452.086	27.87
452.443	27.8
452.801	28.05
453.158	27.99
453.515	28.09
453.872	28.26
454.229	28.07
454.586	28.08
454.943	28.12
455.3	28.26
455.657	28.01
456.014	28.39
456.371	28.3
456.727	28.51
457.084	28.57
457.441	28.36
457.797	28.65
458.154	28.43
458.51	28.64
458.867	28.63
459.223	28.75
459.58	28.77
459.936	28.56
460.292	28.89
460.648	28.47
461.005	28.35
461.361	28.48
461.717	28.62
462.073	28.84
462.429	28.88
462.785	29
463.141	29.03
463.496	29.28
463.852	29.33
464.208	29.46
464.564	29.43
464.919	29.53
465.275	29.59
465.631	29.69
465.986	29.63
466.342	29.55
466.697	29.66
467.052	29.68
467.408	29.74
467.763	29.69
468.118	29.67
468.473	29.97
468.829	29.83
469.184	29.82
469.539	30.03
469.894	29.92
470.249	30.17
470.603	30.17
470.958	30.32
471.313	30.19
471.668	30.65
472.023	30.34
472.377	30.27
472.732	30.43
473.086	30.32
473.441	30.54
473.795	30.45
474.15	30.5
474.504	30.52
474.859	30.6
475.213	30.66
475.567	30.81
475.921	30.79
476.275	30.88
476.63	31.12
476.984	30.88
477.338	30.91
477.692	31.22
478.045	30.79
478.399	31.23
478.753	30.98
479.107	31.08
479.461	31.24
479.814	31.11
480.168	31.3
480.521	31.15
480.875	31.41
481.228	31.41
481.582	31.33
481.935	31.24
482.289	31.37
482.642	31.29
482.995	31.39
483.348	31.23
483.701	31.13
484.055	31.06
484.408	30.82
484.761	30.62
485.114	30.45
485.466	30.52
485.819	30.72
486.172	30.75
486.525	30.94
486.878	31.18
487.23	31.38
487.583	31.38
487.936	31.42
488.288	31.2
488.641	31.12
488.993	30.98
489.345	31.05
489.698	31.19
490.05	31.42
490.402	31.68
490.754	31.8
491.107	31.98
491.459	32.13
491.811	32.12
492.163	32.11
492.515	31.75
492.866	31.58
493.218	31.58
493.57	31.81
493.922	32.04
494.274	32.28
494.625	32.48
494.977	32.52
495.328	32.92
495.68	33
496.031	33.15
496.383	33.13
496.734	33.23
497.086	32.97
497.437	33.28
497.788	33
498.139	33.08
498.49	33.07
498.842	33.27
499.193	33.31
499.544	33.4
499.894	33.49
500.245	33.33
500.596	33.5
500.947	33.59
501.298	33.62
501.648	33.69
501.999	33.84
502.35	34.07
502.7	34.02
503.051	34.01
503.401	33.98
503.752	34.13
504.102	34.08
504.452	34.09
504.803	34.23
505.153	34.4
505.503	34.15
505.853	34.24
506.203	34.19
506.553	34.35
506.903	34.3
507.253	34.55
507.603	34.34
507.953	34.74
508.303	34.54
508.652	34.54
509.002	34.58
509.352	34.65
509.701	34.7
510.051	34.75
510.4	34.72
510.75	34.65
511.099	34.81
511.449	34.96
511.798	34.91
512.147	34.9
512.496	35.09
512.846	34.9
513.195	34.96
513.544	34.99
513.893	35.01
514.242	35.09
514.591	35.39
514.939	35.25
515.288	35.28
515.637	35.57
515.986	35.5
516.334	35.52
516.683	35.67
517.032	35.53
517.38	35.69
517.729	35.7
518.077	35.78
518.426	35.76
518.774	35.7
519.122	35.43
519.47	35.37
519.819	35.44
520.167	35.52
520.515	35.39
520.863	35.54
521.211	35.74
521.559	35.69
521.907	35.97
522.255	36.35
522.602	36.2
522.95	36.32
523.298	36.35
523.645	36.18
523.993	36.49
524.341	36.56
524.688	36.5
525.036	36.51
525.383	36.72
525.73	36.4
526.078	36.61
526.425	36.43
526.772	36.21
527.119	36.18
527.466	36.1
527.814	36.15
528.161	36.45
528.508	36.46
528.854	36.48
529.201	36.18
529.548	36.03
529.895	35.95
530.242	36.03
530.588	36.2
530.935	36.18
531.282	36.32
531.628	36.44
531.975	36.64
532.321	36.88
532.667	36.97
533.014	36.96
533.36	37.06
533.706	37.18
534.052	36.99
534.399	36.9
534.745	36.69
535.091	36.92
535.437	37
535.783	37.19
536.129	37.33
536.474	37.39
536.82	37.53
537.166	37.56
537.512	37.83
537.857	37.44
538.203	37.61
538.549	37.6
538.894	37.66
539.239	37.85
539.585	38.14
539.93	38.18
540.276	38.24
540.621	38.37
540.966	38.34
541.311	38.29
541.656	38.3
542.001	38.14
542.346	37.81
542.691	37.58
543.036	37.74
543.381	37.78
543.726	37.9
544.071	38.11
544.415	38.2
544.76	38.16
545.105	38.29
545.449	38.33
545.794	38.59
546.138	38.72
546.483	38.84
546.827	38.9
547.171	39.23
547.516	39
547.86	38.86
548.204	39.01
548.548	38.92
548.892	38.91
549.236	39.15
549.58	39.39
549.924	39.33
550.268	39.56
550.612	39.61
550.956	39.55
551.3	39.7
551.643	39.87
551.987	39.92
552.33	39.77
552.674	40.03
553.017	40.17
553.361	39.77
553.704	39.85
554.048	39.96
554.391	39.9
554.734	40.16
555.077	40.09
555.42	40.21
555.764	40.44
556.107	40.4
556.45	40.39
556.793	40.43
557.135	40.63
557.478	40.57
557.821	40.68
558.164	40.5
558.507	40.66
558.849	40.38
559.192	40.73
559.534	40.69
559.877	40.97
560.219	40.76
560.562	40.83
560.904	40.98
561.246	41.16
561.589	41.13
561.931	41.17
562.273	40.85
562.615	41.46
562.957	41.1
563.299	41.28
563.641	41.32
563.983	41.31
564.325	41.03
564.667	41.53
565.008	41.37
565.35	41.75
565.692	41.85
566.033	41.28
566.375	41.44
566.716	41.48
567.058	41.77
567.399	41.83
567.741	41.48
568.082	41.54
568.423	41.75
568.764	41.73
569.105	41.9
569.447	41.75
569.788	42.11
570.129	41.94
570.47	41.83
570.811	42.18
571.151	42.22
571.492	42.28
571.833	42.24
572.174	42.22
572.514	42.04
572.855	42.12
573.195	42.23
573.536	42.28
573.876	42.31
574.217	42.26
574.557	42.31
574.898	42.54
575.238	42.62
575.578	42.57
575.918	42.51
576.258	42.67
576.598	42.55
576.938	42.89
577.278	42.85
577.618	42.7
577.958	42.81
578.298	42.85
578.638	43.01
578.977	42.98
579.317	43.02
579.657	43.31
579.996	43.06
580.336	43.37
580.675	43.26
581.014	43.6
581.354	43.56
581.693	43.56
582.032	43.36
582.372	43.72
582.711	43.31
583.05	43.59
583.389	43.78
583.728	43.96
584.067	43.8
584.406	43.99
584.745	43.69
585.083	44.12
585.422	43.82
585.761	43.88
586.1	43.87
586.438	43.85
586.777	44.24
587.115	44.27
587.454	44.58
587.792	44.01
588.13	44.35
588.469	44.41
588.807	44.26
589.145	44.34
589.483	43.82
589.821	44.27
590.159	44.38
590.497	44.33
590.835	44.29
591.173	44.41
591.511	44.54
591.849	44.61
592.187	44.83
592.524	44.73
592.862	44.71
593.2	44.84
593.537	45
593.875	45.33
594.212	45.14
594.55	44.99
594.887	45
595.224	45.02
595.561	44.98
595.899	44.91
596.236	44.83
596.573	45.4
596.91	45.01
597.247	44.84
597.584	45.45
597.921	45.11
598.258	45
598.594	45.01
598.931	44.99
599.268	45.13
599.604	45.14
599.941	45.21
600.277	45.43
600.614	45.47
600.95	45.36
601.287	45.65
601.623	45.68
601.959	45.69
602.296	45.55
602.632	45.84
602.968	45.71
603.304	46.03
603.64	45.97
603.976	45.82
604.312	45.91
604.648	45.79
604.984	45.79
605.319	45.96
605.655	45.74
605.991	45.67
606.326	45.7
606.662	45.81
606.998	45.76
607.333	45.79
607.668	46.3
608.004	46.33
608.339	46.36
608.674	46.55
609.01	46.61
609.345	46.4
609.68	46.71
610.015	46.4
610.35	46.51
610.685	46.46
611.02	46.19
611.355	46.66
611.689	46.41
612.024	46.58
612.359	46.68
612.694	46.7
613.028	47.04
613.363	46.75
613.697	47.05
614.032	46.98
614.366	46.85
614.7	46.99
615.035	46.86
615.369	47.01
615.703	47.25
616.037	47.4
616.371	47.09
616.705	47.42
617.039	47.32
617.373	47.43
617.707	47.56
618.041	47.48
618.375	47.32
618.709	47.54
619.042	47.66
619.376	47.64
619.71	47.4
620.043	47.57
620.377	47.46
620.71	47.92
621.043	47.62
621.377	47.66
621.71	48.06
622.043	47.68
622.376	47.96
622.709	48.11
623.043	48.08
623.376	48.02
623.709	48.44
624.041	48.33
624.374	48.16
624.707	47.94
625.04	48.46
625.373	48.16
625.705	48.18
626.038	48.19
626.37	48.39
626.703	48.44
627.035	48.67
627.368	47.9
627.7	48.78
628.032	48.66
628.365	48.03
628.697	48.49
629.029	48.64
629.361	48.46
629.693	48.84
630.025	48.52
630.357	48.61
630.689	48.75
631.021	49.02
631.353	48.89
631.684	48.89
632.016	48.73
632.348	48.7
632.679	48.82
633.011	49.17
633.342	49.29
633.674	48.81
634.005	48.74
634.336	48.83
634.668	48.82
634.999	49.33
635.33	48.78
635.661	49.08
635.992	49.12
636.323	49.04
636.654	49.34
636.985	49.35
637.316	49.34
637.647	49.26
637.977	49.43
638.308	48.95
638.639	49.35
638.969	49.41
639.3	49.52
639.63	49.28
639.961	49.27
640.291	50.17
640.622	49.42
640.952	50.02
641.282	49.71
641.612	49.91
641.943	49.7
642.273	50.24
642.603	49.81
642.933	50.01
643.263	49.99
643.592	49.88
643.922	50.15
644.252	50.08
644.582	49.96
644.911	49.89
645.241	49.74
645.571	49.84
645.9	50.24
646.23	50.27
646.559	50.2
646.888	50.55
647.218	50.14
647.547	50.24
647.876	50.34
648.205	49.82
648.534	49.79
648.863	50.44
649.192	50.49
649.521	50.19
649.85	50.23
650.179	50.54
650.508	50.8
650.837	50.7
651.165	50.44
651.494	50.3
651.822	50.29
652.151	50.74
652.479	50.6
652.808	50.67
653.136	50.17
653.465	51.17
653.793	50.9
654.121	50.72
654.449	50.26
654.777	51.23
655.105	51.11
655.433	51.26
655.761	50.65
656.089	51.23
656.417	51.61
656.745	50.74
657.073	51.15
657.4	50.51
657.728	51.15
658.056	51.12
658.383	51.56
658.711	51.05
659.038	51.49
659.365	51.02
659.693	50.81
660.02	51.24
660.347	51.72
660.674	50.82
661.001	51
661.329	51.66
661.656	51.24
661.982	51.37
662.309	51.16
662.636	51.85
662.963	51.48
663.29	51.67
663.616	51.3
663.943	51.71
664.27	51.45
664.596	51.37
664.923	52.08
665.249	51.42
665.576	51.32
665.902	51.61
666.228	51.55
666.554	51.62
666.881	51.94
667.207	52.1
667.533	52.48
667.859	51.81
668.185	51.97
668.511	51.47
