Data from 0068_forehead_Reflection__1__280.txt Node

Date: Fri Dec 16 16:19:24 CST 2022
User: ToomeyLab
Spectrometer: FLMS14357
Trigger mode: 0
Integration Time (sec): 1.000000E-2
Scans to average: 100
Electric dark correction enabled: true
Nonlinearity correction enabled: false
Boxcar width: 0
XAxis mode: Wavelengths
Number of Pixels in Spectrum: 2048
>>>>>Begin Spectral Data<<<<<
189.047	25.39
189.435	25.39
189.823	25.39
190.211	246.09
190.599	-32.35
190.987	-422.39
191.375	-292.6
191.763	664.43
192.151	-147.56
192.538	59.71
192.926	-803.33
193.314	44.07
193.702	50.32
194.089	6623.91
194.477	-48.84
194.864	223.8
195.252	291.11
195.639	170.43
196.027	539.72
196.414	-14.29
196.801	45.96
197.189	108.18
197.576	51.91
197.963	342.44
198.351	11.29
198.738	-40.14
199.125	41.77
199.512	9.88
199.899	-41.48
200.286	-60.89
200.673	53.88
201.06	21.38
201.447	39.42
201.833	91.82
202.22	30.48
202.607	-28.75
202.994	45.05
203.38	9.77
203.767	-51.08
204.154	-65.45
204.54	29.7
204.927	7.85
205.313	130.7
205.699	4.97
206.086	5.11
206.472	-7.35
206.858	19.48
207.245	21.26
207.631	-0.47
208.017	30.44
208.403	12.52
208.789	27.6
209.175	74.6
209.561	-28.66
209.947	68.27
210.333	-37.64
210.719	22.09
211.105	-3.76
211.491	2.07
211.876	-23.97
212.262	5.9
212.648	-64.79
213.034	46.15
213.419	44.43
213.805	-16.05
214.19	0.94
214.576	1.08
214.961	-7.17
215.346	-36.44
215.732	3.75
216.117	36.13
216.502	5.36
216.888	-3.15
217.273	32.13
217.658	6.94
218.043	-17.01
218.428	-19.93
218.813	-1
219.198	-2.11
219.583	12.24
219.968	-22.12
220.353	30.33
220.738	3.64
221.122	-4.58
221.507	-10.86
221.892	-22.35
222.276	24.46
222.661	-4.36
223.046	-12.91
223.43	-11.72
223.815	1.83
224.199	8.68
224.583	14.88
224.968	5.9
225.352	-3.19
225.736	15.56
226.121	-0.19
226.505	3.47
226.889	10.98
227.273	6.34
227.657	-0.03
228.041	4.78
228.425	8.54
228.809	5.89
229.193	1.98
229.577	2.66
229.961	4.38
230.344	4.21
230.728	4.48
231.112	3.07
231.495	2.47
231.879	3.17
232.263	3.82
232.646	3.58
233.03	1.08
233.413	2.13
233.797	8.66
234.18	-0.03
234.563	0.92
234.946	3.63
235.33	5.57
235.713	2.81
236.096	4.63
236.479	5.56
236.862	5.29
237.245	4.23
237.628	4.13
238.011	4.22
238.394	6.59
238.777	2.22
239.16	2.97
239.543	2.23
239.925	4.19
240.308	4.31
240.691	3.75
241.073	4.2
241.456	3.75
241.838	5.32
242.221	4.02
242.603	3.66
242.986	5.14
243.368	4.62
243.75	3.98
244.133	4.1
244.515	4
244.897	4.37
245.279	4
245.661	5.24
246.043	3.8
246.425	4.51
246.807	4.04
247.189	4.25
247.571	4.91
247.953	4.59
248.335	4.67
248.717	4.52
249.098	4.77
249.48	4.47
249.862	5
250.243	4.56
250.625	4.5
251.006	4.67
251.388	5.4
251.769	4.55
252.151	4.17
252.532	4.97
252.913	4.79
253.295	4.54
253.676	4.56
254.057	4.18
254.438	4.42
254.819	4.81
255.2	4.36
255.581	4.26
255.962	4.37
256.343	5.47
256.724	3.75
257.105	4.79
257.486	3.94
257.867	3.47
258.247	5.15
258.628	5.07
259.009	4.61
259.389	5.63
259.77	4.71
260.15	5.46
260.531	4.6
260.911	4.62
261.292	4.67
261.672	4.39
262.052	4.28
262.432	4.82
262.813	4.71
263.193	4.08
263.573	4.28
263.953	4.44
264.333	4.59
264.713	3.9
265.093	3.88
265.473	5.25
265.853	3.72
266.233	4.05
266.612	3.84
266.992	4.43
267.372	4.49
267.752	3.14
268.131	4.62
268.511	4.71
268.89	4.4
269.27	4.01
269.649	4.49
270.029	4.81
270.408	4.12
270.787	4.6
271.167	4.45
271.546	3.99
271.925	4.63
272.304	4.8
272.683	4.4
273.062	4.71
273.441	4.44
273.82	4.87
274.199	4.36
274.578	4.08
274.957	4.16
275.336	3.99
275.715	4.83
276.093	4.77
276.472	4.66
276.851	4.62
277.229	4.69
277.608	3.81
277.986	3.85
278.365	3.53
278.743	4.23
279.122	3.4
279.5	3.94
279.878	4.38
280.257	4.26
280.635	4.19
281.013	4.62
281.391	4.35
281.769	4.39
282.147	4.57
282.525	4.62
282.903	4.45
283.281	4.31
283.659	4.75
284.037	3.93
284.415	4.21
284.792	4.41
285.17	4.46
285.548	4.14
285.925	4.5
286.303	4.49
286.68	4.34
287.058	4.6
287.435	4.2
287.813	4.8
288.19	5.1
288.567	4.26
288.945	4.82
289.322	4.28
289.699	4.84
290.076	5.09
290.453	4.61
290.83	4.91
291.207	4.83
291.584	5.06
291.961	5.03
292.338	5.04
292.715	5.27
293.092	4.57
293.469	5.47
293.845	5.84
294.222	5.52
294.599	6.25
294.975	5.67
295.352	5.55
295.728	6.06
296.105	5.81
296.481	6.21
296.858	6.28
297.234	6.02
297.61	6.14
297.986	6.04
298.363	5.56
298.739	6.06
299.115	5.85
299.491	5.72
299.867	6.18
300.243	6.2
300.619	5.71
300.995	6.2
301.371	6.28
301.746	6.53
302.122	6.38
302.498	6.47
302.874	7.05
303.249	6.86
303.625	6.72
304	6.19
304.376	6.64
304.751	7.04
305.127	6.76
305.502	7.11
305.878	6.83
306.253	6.99
306.628	7.41
307.003	7.11
307.378	6.93
307.754	6.49
308.129	6.65
308.504	6.72
308.879	7.07
309.254	7.84
309.629	7.22
310.003	7.85
310.378	7.3
310.753	7.73
311.128	7.59
311.502	7.3
311.877	7.21
312.252	7.34
312.626	7.51
313.001	7.47
313.375	7.36
313.75	7.28
314.124	8.04
314.498	7.69
314.873	8.07
315.247	7.99
315.621	8.12
315.995	8.07
316.369	8.03
316.743	8.09
317.117	7.93
317.491	8.24
317.865	7.71
318.239	8.88
318.613	7.7
318.987	8.59
319.361	7.91
319.734	8.68
320.108	8.48
320.482	8.97
320.855	8.41
321.229	8.99
321.602	8.86
321.976	8.92
322.349	8.81
322.723	7.86
323.096	8.19
323.469	8.55
323.843	9.21
324.216	8.25
324.589	9.6
324.962	8.97
325.335	8.89
325.708	9.27
326.081	9.43
326.454	9.31
326.827	9.1
327.2	9.12
327.573	9
327.945	9.11
328.318	9.11
328.691	9.15
329.063	9.29
329.436	9.23
329.809	9.13
330.181	9.84
330.553	9.65
330.926	9.84
331.298	9.17
331.671	9.37
332.043	9.87
332.415	9.86
332.787	9.74
333.159	9.62
333.532	9.77
333.904	10.11
334.276	10
334.648	9.76
335.02	9.65
335.391	9.88
335.763	9.36
336.135	10.04
336.507	10.27
336.879	9.74
337.25	10.3
337.622	9.77
337.993	10.32
338.365	10.54
338.736	9.99
339.108	10.03
339.479	9.72
339.851	10.4
340.222	10.39
340.593	9.99
340.964	9.76
341.336	9.73
341.707	10.26
342.078	9.92
342.449	10.16
342.82	10.19
343.191	10.13
343.562	10.01
343.933	10.79
344.303	10.69
344.674	10.62
345.045	10.92
345.416	10.44
345.786	10.36
346.157	10.78
346.527	10.45
346.898	10.66
347.268	10.45
347.639	10.95
348.009	11.11
348.38	10.75
348.75	10.87
349.12	10.86
349.49	11.01
349.861	11.43
350.231	11.31
350.601	11.03
350.971	10.84
351.341	11.17
351.711	11.33
352.081	11.21
352.45	11.53
352.82	11.7
353.19	11.16
353.56	11.71
353.929	11.25
354.299	11.43
354.669	11.69
355.038	11.08
355.408	11.85
355.777	11.19
356.147	11.84
356.516	11.92
356.885	11.51
357.254	11.56
357.624	11.86
357.993	11.41
358.362	11.69
358.731	11.79
359.1	12.02
359.469	11.75
359.838	11.64
360.207	11.59
360.576	11.86
360.945	11.71
361.314	12.14
361.682	11.82
362.051	12.1
362.42	12.34
362.788	12.11
363.157	12
363.525	11.85
363.894	11.87
364.262	11.92
364.631	12.54
364.999	11.99
365.367	12.34
365.735	12.29
366.104	12.03
366.472	12.46
366.84	12.69
367.208	12.04
367.576	12.52
367.944	12.85
368.312	12.23
368.68	12.54
369.048	12.82
369.416	12.73
369.783	12.66
370.151	12.73
370.519	12.67
370.886	12.45
371.254	12.45
371.621	13.24
371.989	12.93
372.356	13.16
372.724	13.08
373.091	12.82
373.458	12.81
373.826	12.42
374.193	13.03
374.56	12.86
374.927	13.38
375.294	13.28
375.661	13.29
376.028	13.17
376.395	12.84
376.762	13.24
377.129	13.47
377.496	13.15
377.863	13.56
378.229	13.29
378.596	13.33
378.963	13.37
379.329	13.52
379.696	13.47
380.062	13.85
380.429	13.57
380.795	13.49
381.161	13.57
381.528	13.34
381.894	13.99
382.26	13.64
382.626	13.34
382.993	13.62
383.359	13.28
383.725	13.66
384.091	13.7
384.457	13.92
384.823	13.9
385.188	14.08
385.554	13.8
385.92	14.03
386.286	14.37
386.651	13.9
387.017	14.25
387.383	14.27
387.748	14.24
388.114	14.27
388.479	14.27
388.845	14.41
389.21	14.35
389.575	14.48
389.94	14.35
390.306	14.34
390.671	14.39
391.036	14.41
391.401	14.82
391.766	14.6
392.131	14.53
392.496	14.53
392.861	14.61
393.226	14.62
393.591	14.74
393.956	14.69
394.32	14.63
394.685	14.97
395.05	14.62
395.414	14.86
395.779	14.74
396.143	14.86
396.508	14.88
396.872	15.02
397.236	14.83
397.601	14.94
397.965	14.68
398.329	15.19
398.694	15.01
399.058	14.96
399.422	15.16
399.786	15.19
400.15	15.13
400.514	15.32
400.878	14.99
401.242	15.5
401.605	15.28
401.969	15.52
402.333	15.35
402.697	15.58
403.06	15.75
403.424	15.24
403.787	15.63
404.151	15.64
404.514	15.37
404.878	15.56
405.241	15.54
405.604	15.66
405.968	15.57
406.331	15.73
406.694	15.64
407.057	15.98
407.42	15.44
407.783	15.98
408.146	15.87
408.509	15.76
408.872	15.77
409.235	16.05
409.598	16.31
409.961	15.72
410.323	15.87
410.686	16.04
411.049	15.7
411.411	16.19
411.774	16.2
412.136	16.35
412.499	16.21
412.861	15.91
413.223	16.23
413.586	16.19
413.948	16.23
414.31	16.53
414.672	16.09
415.035	16.59
415.397	16.83
415.759	16.69
416.121	16.81
416.483	16.68
416.845	16.37
417.206	16.49
417.568	16.38
417.93	16.45
418.292	16.62
418.653	16.54
419.015	16.68
419.377	16.44
419.738	16.53
420.1	16.57
420.461	16.45
420.822	16.68
421.184	16.63
421.545	16.61
421.906	16.63
422.267	16.54
422.629	16.59
422.99	16.5
423.351	16.66
423.712	16.63
424.073	16.79
424.434	16.87
424.795	16.7
425.155	16.75
425.516	16.85
425.877	16.78
426.238	16.69
426.598	16.94
426.959	16.73
427.32	17
427.68	17.19
428.041	17.26
428.401	17.1
428.761	17.2
429.122	17.13
429.482	17.3
429.842	17.49
430.202	17.41
430.563	17.37
430.923	17.34
431.283	17.39
431.643	17.54
432.003	17.69
432.363	17.74
432.722	17.68
433.082	17.6
433.442	17.76
433.802	17.64
434.161	17.69
434.521	17.78
434.881	17.85
435.24	17.63
435.6	17.69
435.959	17.79
436.319	17.93
436.678	17.83
437.037	18.16
437.396	18.15
437.756	17.92
438.115	18.15
438.474	18.13
438.833	17.94
439.192	18.26
439.551	18.09
439.91	18.29
440.269	18.34
440.628	18.29
440.987	18.11
441.345	18.06
441.704	18.35
442.063	18.18
442.421	18.23
442.78	18.07
443.138	18.09
443.497	18.27
443.855	18.51
444.214	18.53
444.572	18.29
444.93	18.64
445.288	18.54
445.647	18.86
446.005	18.53
446.363	18.53
446.721	18.5
447.079	18.51
447.437	18.44
447.795	18.48
448.153	18.52
448.51	18.57
448.868	18.59
449.226	18.57
449.584	18.61
449.941	18.89
450.299	18.91
450.656	18.99
451.014	18.98
451.371	19.1
451.729	19.08
452.086	18.92
452.443	19
452.801	19.09
453.158	19.13
453.515	19
453.872	19.37
454.229	19.3
454.586	19.22
454.943	19.17
455.3	19.54
455.657	19.2
456.014	19.31
456.371	19.47
456.727	19.2
457.084	19.45
457.441	19.36
457.797	19.61
458.154	19.54
458.51	19.54
458.867	19.67
459.223	19.79
459.58	19.73
459.936	19.6
460.292	19.68
460.648	19.63
461.005	19.38
461.361	19.46
461.717	19.49
462.073	19.62
462.429	19.68
462.785	19.9
463.141	19.9
463.496	19.96
463.852	20.06
464.208	20.1
464.564	20.12
464.919	20.02
465.275	20.03
465.631	20.16
465.986	20.23
466.342	20.21
466.697	20.29
467.052	20.34
467.408	20.43
467.763	20.49
468.118	20.38
468.473	20.48
468.829	20.31
469.184	20.46
469.539	20.23
469.894	20.41
470.249	20.48
470.603	20.66
470.958	20.61
471.313	20.49
471.668	20.73
472.023	20.82
472.377	20.72
472.732	20.44
473.086	20.65
473.441	20.85
473.795	20.86
474.15	20.67
474.504	20.9
474.859	20.85
475.213	20.84
475.567	20.78
475.921	21.04
476.275	21.03
476.63	21.01
476.984	21.08
477.338	21.26
477.692	21.04
478.045	20.78
478.399	21.03
478.753	21.14
479.107	21.11
479.461	21.15
479.814	21.25
480.168	21.41
480.521	21.23
480.875	21.25
481.228	21.47
481.582	21.25
481.935	21.33
482.289	21.23
482.642	21.3
482.995	21.35
483.348	21.32
483.701	21.18
484.055	21.16
484.408	21.01
484.761	20.79
485.114	20.74
485.466	20.68
485.819	20.56
486.172	20.71
486.525	20.78
486.878	20.93
487.23	21.18
487.583	21.27
487.936	21.38
488.288	21.18
488.641	21.21
488.993	21.04
489.345	20.99
489.698	21.08
490.05	21.22
490.402	21.28
490.754	21.48
491.107	21.65
491.459	21.68
491.811	21.8
492.163	21.78
492.515	21.63
492.866	21.51
493.218	21.4
493.57	21.49
493.922	21.53
494.274	21.83
494.625	21.84
494.977	22.01
495.328	22.24
495.68	22.34
496.031	22.23
496.383	22.35
496.734	22.45
497.086	22.26
497.437	22.56
497.788	22.53
498.139	22.46
498.49	22.42
498.842	22.38
499.193	22.47
499.544	22.76
499.894	22.68
500.245	22.67
500.596	22.7
500.947	22.78
501.298	22.95
501.648	22.87
501.999	23.13
502.35	23.06
502.7	23.12
503.051	23.05
503.401	23.16
503.752	22.86
504.102	23.05
504.452	23.14
504.803	23.12
505.153	23.12
505.503	23.12
505.853	23.2
506.203	23.18
506.553	23.14
506.903	23.03
507.253	23.44
507.603	23.27
507.953	23.45
508.303	23.38
508.652	23.49
509.002	23.48
509.352	23.35
509.701	23.32
510.051	23.34
510.4	23.51
510.75	23.52
511.099	23.51
511.449	23.33
511.798	23.57
512.147	23.37
512.496	23.71
512.846	23.49
513.195	23.56
513.544	23.59
513.893	23.61
514.242	23.71
514.591	23.92
514.939	23.93
515.288	23.86
515.637	23.93
515.986	24.04
516.334	23.99
516.683	24.13
517.032	24.06
517.38	24.05
517.729	24.18
518.077	24.09
518.426	24.13
518.774	24.17
519.122	23.99
519.47	23.96
519.819	23.9
520.167	24.01
520.515	23.85
520.863	24.02
521.211	24.04
521.559	24.1
521.907	24.22
522.255	24.26
522.602	24.59
522.95	24.53
523.298	24.66
523.645	24.41
523.993	24.54
524.341	24.64
524.688	24.62
525.036	24.75
525.383	24.71
525.73	24.76
526.078	24.86
526.425	24.53
526.772	24.43
527.119	24.39
527.466	24.36
527.814	24.41
528.161	24.54
528.508	24.6
528.854	24.6
529.201	24.51
529.548	24.32
529.895	24.2
530.242	24.19
530.588	24.19
530.935	24.25
531.282	24.39
531.628	24.43
531.975	24.66
532.321	24.71
532.667	24.91
533.014	24.99
533.36	25.03
533.706	25.12
534.052	25.01
534.399	24.91
534.745	24.69
535.091	24.63
535.437	24.8
535.783	24.94
536.129	24.95
536.474	25.2
536.82	25.29
537.166	25.53
537.512	25.42
537.857	25.28
538.203	25.37
538.549	25.43
538.894	25.39
539.239	25.56
539.585	25.67
539.93	25.75
540.276	25.87
540.621	25.9
540.966	26
541.311	25.94
541.656	25.93
542.001	25.83
542.346	25.59
542.691	25.34
543.036	25.47
543.381	25.44
543.726	25.56
544.071	25.67
544.415	25.69
544.76	25.8
545.105	25.8
545.449	25.95
545.794	26.13
546.138	26.23
546.483	26.05
546.827	26.33
547.171	26.43
547.516	26.51
547.86	26.2
548.204	26.31
548.548	26.38
548.892	26.55
549.236	26.5
549.58	26.59
549.924	26.58
550.268	26.66
550.612	26.8
550.956	26.8
551.3	26.86
551.643	26.95
551.987	26.93
552.33	26.75
552.674	27.26
553.017	26.92
553.361	26.9
553.704	26.98
554.048	27.18
554.391	26.85
554.734	27.03
555.077	27.22
555.42	27.21
555.764	27.29
556.107	27.43
556.45	27.44
556.793	27.54
557.135	27.4
557.478	27.54
557.821	27.52
558.164	27.55
558.507	27.68
558.849	27.14
559.192	27.49
559.534	27.55
559.877	27.91
560.219	27.74
560.562	27.74
560.904	27.73
561.246	27.95
561.589	27.88
561.931	27.82
562.273	27.78
562.615	27.99
562.957	27.96
563.299	27.94
563.641	27.67
563.983	27.67
564.325	27.72
564.667	27.86
565.008	28.11
565.35	28.1
565.692	28.12
566.033	28.18
566.375	28.1
566.716	28.12
567.058	28.22
567.399	28.18
567.741	28.12
568.082	27.91
568.423	28.16
568.764	28.37
569.105	28.37
569.447	28.1
569.788	28.22
570.129	28.37
570.47	28.3
570.811	28.4
571.151	28.4
571.492	28.5
571.833	28.68
572.174	28.56
572.514	28.71
572.855	28.77
573.195	28.55
573.536	28.56
573.876	28.49
574.217	28.7
574.557	28.56
574.898	28.52
575.238	28.58
575.578	28.74
575.918	28.67
576.258	28.84
576.598	28.88
576.938	29.09
577.278	29.15
577.618	28.71
577.958	28.84
578.298	29.14
578.638	29.05
578.977	29.05
579.317	29.16
579.657	29.2
579.996	28.93
580.336	29.06
580.675	29.36
581.014	29.05
581.354	29.59
581.693	29.38
582.032	29.25
582.372	29.52
582.711	29.51
583.05	29.43
583.389	29.64
583.728	29.49
584.067	29.71
584.406	29.86
584.745	29.6
585.083	29.72
585.422	29.65
585.761	29.7
586.1	29.76
586.438	29.92
586.777	29.61
587.115	30.11
587.454	29.78
587.792	29.9
588.13	30.37
588.469	29.97
588.807	30.16
589.145	29.96
589.483	29.66
589.821	30.19
590.159	29.92
590.497	29.8
590.835	29.98
591.173	29.93
591.511	29.92
591.849	30.2
592.187	30.28
592.524	30.08
592.862	29.99
593.2	30.2
593.537	30.1
593.875	30.33
594.212	30.48
594.55	30.28
594.887	30.52
595.224	30.6
595.561	30.37
595.899	30.33
596.236	30.61
596.573	30.59
596.91	30.19
597.247	30.43
597.584	30.88
597.921	30.59
598.258	30.62
598.594	30.36
598.931	30.42
599.268	30.7
599.604	30.65
599.941	30.67
600.277	30.5
600.614	30.7
600.95	30.74
601.287	30.77
601.623	31.13
601.959	30.89
602.296	30.81
602.632	31.22
602.968	30.85
603.304	30.94
603.64	30.84
603.976	31.04
604.312	31.27
604.648	31.05
604.984	31.03
605.319	30.89
605.655	31.17
605.991	30.98
606.326	31.04
606.662	30.81
606.998	31.19
607.333	30.97
607.668	31.12
608.004	31.26
608.339	31.34
608.674	31.39
609.01	31.71
609.345	31.57
609.68	31.06
610.015	31.23
610.35	31.43
610.685	31.67
611.02	31.34
611.355	31.48
611.689	31.26
612.024	31.37
612.359	31.76
612.694	31.62
613.028	31.89
613.363	31.41
613.697	31.88
614.032	31.96
614.366	31.81
614.7	31.88
615.035	31.52
615.369	31.48
615.703	31.99
616.037	31.98
616.371	31.89
616.705	31.61
617.039	32.24
617.373	32.18
617.707	32
618.041	31.97
618.375	31.8
618.709	32.04
619.042	31.96
619.376	32.01
619.71	32.16
620.043	31.79
620.377	32.19
620.71	32.23
621.043	31.93
621.377	31.96
621.71	32.35
622.043	32.3
622.376	31.77
622.709	32.69
623.043	32.27
623.376	32.34
623.709	32.6
624.041	32.27
624.374	32.3
624.707	32.09
625.04	32.73
625.373	32.42
625.705	32.83
626.038	32.42
626.37	32.87
626.703	32.58
627.035	32.86
627.368	32.45
627.7	32.59
628.032	33.07
628.365	32.58
628.697	32.55
629.029	32.84
629.361	32.68
629.693	32.93
630.025	32.6
630.357	32.88
630.689	32.91
631.021	32.93
631.353	33.13
631.684	32.77
632.016	32.72
632.348	32.93
632.679	33
633.011	33.22
633.342	33.2
633.674	32.91
634.005	33.39
634.336	32.88
634.668	33.12
634.999	32.95
635.33	33.13
635.661	33.06
635.992	33.17
636.323	33.36
636.654	33.11
636.985	33.53
637.316	33.26
637.647	33.44
637.977	33.15
638.308	33.06
638.639	33.29
638.969	33.64
639.3	33.26
639.63	32.93
639.961	33.43
640.291	33.96
640.622	33.16
640.952	33.81
641.282	33.35
641.612	33.26
641.943	33.51
642.273	34.01
642.603	33.6
642.933	33.63
643.263	33.64
643.592	33.44
643.922	34.02
644.252	33.7
644.582	33.94
644.911	33.76
645.241	33.59
645.571	33.76
645.9	34.01
646.23	34.1
646.559	34.06
646.888	33.74
647.218	34.03
647.547	34.61
647.876	33.91
648.205	34
648.534	33.85
648.863	33.73
649.192	33.81
649.521	33.84
649.85	33.9
650.179	34.1
650.508	34.31
650.837	34.33
651.165	34.26
651.494	33.83
651.822	33.89
652.151	34.18
652.479	34.31
652.808	34.28
653.136	34.31
653.465	34.38
653.793	34.38
654.121	34.15
654.449	34.28
654.777	34.34
655.105	34.54
655.433	34.49
655.761	34.25
656.089	34.32
656.417	34.28
656.745	34.91
657.073	34.76
657.4	34.45
657.728	34.39
658.056	34.17
658.383	35.11
658.711	34.61
659.038	34.92
659.365	34.37
659.693	34.56
660.02	34.61
660.347	35
660.674	34.1
661.001	34.65
661.329	34.8
661.656	34.64
661.982	34.75
662.309	35.02
662.636	34.47
662.963	35.45
663.29	34.84
663.616	34.53
663.943	35.37
664.27	35.37
664.596	34.71
664.923	34.99
665.249	34.71
665.576	35.09
665.902	34.84
666.228	35.38
666.554	35.01
666.881	35.28
667.207	34.92
667.533	35.18
667.859	35.1
668.185	35.27
668.511	34.42
668.837	34.47
669.162	35.16
669.488	35.16
669.814	36.05
670.139	35.19
