Data from 0068_crown_Reflection__0__274.txt Node

Date: Fri Dec 16 16:17:17 CST 2022
User: ToomeyLab
Spectrometer: FLMS14357
Trigger mode: 0
Integration Time (sec): 1.000000E-2
Scans to average: 100
Electric dark correction enabled: true
Nonlinearity correction enabled: false
Boxcar width: 0
XAxis mode: Wavelengths
Number of Pixels in Spectrum: 2048
>>>>>Begin Spectral Data<<<<<
189.047	47.16
189.435	47.16
189.823	47.16
190.211	175.04
190.599	33.91
190.987	-572.62
191.375	-561.43
191.763	1092.78
192.151	-296.33
192.538	66.11
192.926	1352.38
193.314	95.2
193.702	19.57
194.089	-1860.87
194.477	21.01
194.864	-316.84
195.252	-172.01
195.639	163.25
196.027	175.7
196.414	46.8
196.801	-30.77
197.189	101.12
197.576	-311.96
197.963	192.81
198.351	36.6
198.738	-22.65
199.125	-0.99
199.512	-15.48
199.899	-210.02
200.286	-83.55
200.673	0.06
201.06	10.85
201.447	20.62
201.833	48
202.22	37.83
202.607	-20.55
202.994	33.05
203.38	9.93
203.767	-57.55
204.154	-205.41
204.54	-5.29
204.927	37.57
205.313	61.33
205.699	-17.73
206.086	-2.93
206.472	-21.52
206.858	24.03
207.245	12.78
207.631	-34
208.017	29.17
208.403	25.55
208.789	-2.16
209.175	35.92
209.561	-36.74
209.947	-85.75
210.333	-12.79
210.719	-14.83
211.105	-64.78
211.491	12.17
211.876	-25.47
212.262	-36.36
212.648	-53.65
213.034	-16.3
213.419	26.33
213.805	-26.81
214.19	-21.35
214.576	-10.01
214.961	-13.17
215.346	-29.23
215.732	9.73
216.117	-13.45
216.502	-4.9
216.888	-50.22
217.273	19.56
217.658	-9.41
218.043	-3.04
218.428	-17.85
218.813	7.46
219.198	-97.34
219.583	-6.65
219.968	-19.48
220.353	6.36
220.738	3.25
221.122	-14.59
221.507	-11.79
221.892	5.6
222.276	-1.12
222.661	-5.64
223.046	2.3
223.43	1.07
223.815	13.73
224.199	3.99
224.583	3.21
224.968	18.83
225.352	-3.6
225.736	4.75
226.121	-0.74
226.505	8.13
226.889	10.21
227.273	4.48
227.657	5.66
228.041	5.67
228.425	4.41
228.809	5.26
229.193	4.24
229.577	5.5
229.961	7.58
230.344	6.76
230.728	6.3
231.112	5.98
231.495	5.28
231.879	4.91
232.263	1.62
232.646	3.8
233.03	3.79
233.413	6.34
233.797	6.09
234.18	3.44
234.563	5.67
234.946	4.68
235.33	5.56
235.713	5.93
236.096	6.82
236.479	5.28
236.862	7.03
237.245	4.87
237.628	6.71
238.011	5.09
238.394	6.24
238.777	6.72
239.16	1.62
239.543	3.51
239.925	6.2
240.308	6.72
240.691	6.37
241.073	5.9
241.456	5.83
241.838	5.53
242.221	5.7
242.603	5.35
242.986	6.36
243.368	6.44
243.75	5.85
244.133	5.88
244.515	5.93
244.897	5.78
245.279	5.26
245.661	5.2
246.043	5.7
246.425	5.03
246.807	6.46
247.189	6.08
247.571	6.29
247.953	5.96
248.335	5.83
248.717	5.83
249.098	6.12
249.48	5.38
249.862	5.94
250.243	5.7
250.625	5.66
251.006	5.29
251.388	5.88
251.769	5.85
252.151	5.51
252.532	5.6
252.913	5.62
253.295	5.66
253.676	6.07
254.057	5.07
254.438	4.54
254.819	6.13
255.2	5.06
255.581	4.19
255.962	5.02
256.343	5.23
256.724	5.13
257.105	4.13
257.486	4.58
257.867	4.08
258.247	5.14
258.628	5.84
259.009	4.69
259.389	5.09
259.77	5.31
260.15	6.08
260.531	5.61
260.911	5.48
261.292	5.3
261.672	5.37
262.052	5.18
262.432	5.3
262.813	5.04
263.193	4.55
263.573	5.15
263.953	5.39
264.333	5.51
264.713	5.57
265.093	4.98
265.473	6.43
265.853	4.83
266.233	4.64
266.612	5.66
266.992	4.48
267.372	5.06
267.752	4.68
268.131	5.36
268.511	5.45
268.89	5.23
269.27	5.55
269.649	4.85
270.029	5.19
270.408	5.46
270.787	4.77
271.167	5.48
271.546	4.28
271.925	5.36
272.304	5.12
272.683	4.78
273.062	5.07
273.441	4.79
273.82	5.06
274.199	5.07
274.578	4.78
274.957	5.09
275.336	4.75
275.715	5.62
276.093	5.21
276.472	5.4
276.851	5.66
277.229	5.16
277.608	4.18
277.986	3.92
278.365	4.39
278.743	5.03
279.122	4.25
279.5	4.34
279.878	4.09
280.257	5.06
280.635	4.07
281.013	5.02
281.391	4.57
281.769	4.23
282.147	4.62
282.525	4.85
282.903	5.33
283.281	4.94
283.659	4.86
284.037	4.82
284.415	4.94
284.792	4.66
285.17	4.75
285.548	4.49
285.925	4.37
286.303	4.72
286.68	4.8
287.058	4.46
287.435	4.22
287.813	4.85
288.19	4.94
288.567	4.22
288.945	4.95
289.322	4.68
289.699	4.63
290.076	4.98
290.453	4.74
290.83	4.62
291.207	4.38
291.584	4.44
291.961	4.52
292.338	4.19
292.715	4.43
293.092	4.47
293.469	4.69
293.845	4.49
294.222	4.02
294.599	5.12
294.975	4.47
295.352	4.02
295.728	4.29
296.105	4.45
296.481	4.72
296.858	4.75
297.234	4.31
297.61	4.59
297.986	4.24
298.363	4.01
298.739	4.29
299.115	4.29
299.491	4.12
299.867	4.16
300.243	4.17
300.619	4.51
300.995	4.7
301.371	4.32
301.746	4.07
302.122	4.89
302.498	4.18
302.874	4.38
303.249	4.32
303.625	4.23
304	3.64
304.376	4.05
304.751	4.56
305.127	4.39
305.502	4.49
305.878	3.92
306.253	4.06
306.628	4.32
307.003	4.45
307.378	3.78
307.754	3.83
308.129	3.31
308.504	4.24
308.879	3.56
309.254	4.81
309.629	3.68
310.003	4.38
310.378	4.37
310.753	4.23
311.128	3.97
311.502	3.89
311.877	4.31
312.252	4.07
312.626	3.84
313.001	3.75
313.375	4.12
313.75	4.05
314.124	4.25
314.498	3.79
314.873	3.63
315.247	3.39
315.621	4.52
315.995	4.01
316.369	3.78
316.743	4.38
317.117	3.93
317.491	3.75
317.865	3.32
318.239	4.06
318.613	3.68
318.987	4.26
319.361	3.51
319.734	3.92
320.108	3.77
320.482	3.78
320.855	3.65
321.229	4
321.602	3.75
321.976	4.14
322.349	3.11
322.723	3.71
323.096	3.86
323.469	3.46
323.843	3.81
324.216	3.67
324.589	3.95
324.962	3.79
325.335	3.59
325.708	3.85
326.081	4.06
326.454	4.04
326.827	4
327.2	4.15
327.573	4.11
327.945	3.55
328.318	4.33
328.691	3.78
329.063	3.44
329.436	3.31
329.809	3.28
330.181	3.64
330.553	4.42
330.926	4
331.298	3.69
331.671	3.89
332.043	3.59
332.415	3.78
332.787	3.92
333.159	3.91
333.532	3.67
333.904	3.95
334.276	3.87
334.648	3.88
335.02	3.54
335.391	4.03
335.763	3.83
336.135	3.77
336.507	3.69
336.879	3.8
337.25	3.81
337.622	3.66
337.993	3.93
338.365	4.06
338.736	3.89
339.108	3.45
339.479	3.51
339.851	4.22
340.222	4.11
340.593	3.53
340.964	3.85
341.336	3.41
341.707	3.69
342.078	3.96
342.449	3.88
342.82	3.64
343.191	3.67
343.562	3.71
343.933	3.71
344.303	3.77
344.674	4.24
345.045	4.19
345.416	4.15
345.786	3.57
346.157	3.97
346.527	3.4
346.898	3.41
347.268	4.31
347.639	3.73
348.009	4.19
348.38	3.68
348.75	3.69
349.12	3.91
349.49	3.64
349.861	4.58
350.231	4.24
350.601	4.19
350.971	3.66
351.341	3.86
351.711	3.93
352.081	3.92
352.45	4.07
352.82	3.9
353.19	3.56
353.56	3.6
353.929	4.22
354.299	3.73
354.669	4.23
355.038	3.75
355.408	3.94
355.777	3.93
356.147	4.1
356.516	4.54
356.885	3.84
357.254	4.39
357.624	3.99
357.993	4.03
358.362	4.07
358.731	4.2
359.1	4.12
359.469	4.12
359.838	4.03
360.207	4.08
360.576	4.03
360.945	4.11
361.314	4.09
361.682	3.68
362.051	3.97
362.42	4.19
362.788	4.17
363.157	4.02
363.525	3.96
363.894	3.79
364.262	4.08
364.631	4.61
364.999	3.82
365.367	4.4
365.735	3.83
366.104	3.83
366.472	4.43
366.84	4.04
367.208	3.91
367.576	4.09
367.944	4.28
368.312	3.78
368.68	4.37
369.048	4.18
369.416	4.07
369.783	4.25
370.151	4.24
370.519	3.76
370.886	4.13
371.254	4.26
371.621	3.83
371.989	3.96
372.356	4.13
372.724	4.06
373.091	4.37
373.458	4.31
373.826	4.11
374.193	4.5
374.56	4.03
374.927	3.98
375.294	4.26
375.661	4.45
376.028	4.2
376.395	4.2
376.762	4.25
377.129	4.33
377.496	4.37
377.863	4.37
378.229	4.1
378.596	4.25
378.963	4.05
379.329	4
379.696	3.99
380.062	4.46
380.429	4.37
380.795	3.89
381.161	4.03
381.528	3.91
381.894	4.43
382.26	4.32
382.626	3.99
382.993	4.19
383.359	4.16
383.725	4.43
384.091	4.24
384.457	4.14
384.823	4.17
385.188	4.57
385.554	4.33
385.92	4.27
386.286	4.52
386.651	4.38
387.017	4.32
387.383	4.54
387.748	4.28
388.114	4.54
388.479	4.32
388.845	4.28
389.21	4.39
389.575	4.28
389.94	4.4
390.306	4.54
390.671	4.19
391.036	4.36
391.401	4.52
391.766	4.3
392.131	4.43
392.496	4.45
392.861	4.23
393.226	4.31
393.591	4.2
393.956	4.46
394.32	4.42
394.685	4.65
395.05	4.02
395.414	4.38
395.779	4.37
396.143	4.51
396.508	4.52
396.872	4.43
397.236	4.15
397.601	4.3
397.965	4.24
398.329	4.37
398.694	4.17
399.058	4.54
399.422	4.54
399.786	4.72
400.15	4.34
400.514	4.46
400.878	4.48
401.242	4.52
401.605	4.48
401.969	4.42
402.333	4.31
402.697	4.67
403.06	4.49
403.424	4.58
403.787	4.68
404.151	4.57
404.514	4.47
404.878	4.47
405.241	4.51
405.604	4.61
405.968	4.61
406.331	4.51
406.694	4.47
407.057	4.81
407.42	4.58
407.783	4.38
408.146	4.55
408.509	4.42
408.872	4.51
409.235	4.54
409.598	4.76
409.961	4.69
410.323	4.67
410.686	4.55
411.049	4.49
411.411	4.51
411.774	4.37
412.136	4.62
412.499	4.47
412.861	4.42
413.223	4.47
413.586	4.52
413.948	4.73
414.31	4.75
414.672	4.66
415.035	4.61
415.397	4.83
415.759	4.59
416.121	4.88
416.483	4.93
416.845	4.58
417.206	4.88
417.568	4.64
417.93	4.61
418.292	4.6
418.653	4.63
419.015	4.69
419.377	4.7
419.738	4.6
420.1	4.71
420.461	4.5
420.822	4.61
421.184	4.52
421.545	4.58
421.906	4.67
422.267	4.5
422.629	4.6
422.99	4.62
423.351	4.71
423.712	4.61
424.073	4.75
424.434	4.53
424.795	4.63
425.155	4.67
425.516	4.59
425.877	4.64
426.238	4.65
426.598	4.66
426.959	4.53
427.32	4.65
427.68	4.67
428.041	4.73
428.401	4.64
428.761	4.71
429.122	4.61
429.482	4.57
429.842	4.72
430.202	4.74
430.563	4.69
430.923	4.55
431.283	4.76
431.643	4.61
432.003	4.83
432.363	4.78
432.722	4.61
433.082	4.84
433.442	4.72
433.802	4.8
434.161	4.62
434.521	4.77
434.881	4.87
435.24	4.65
435.6	4.73
435.959	4.66
436.319	4.88
436.678	4.75
437.037	4.76
437.396	4.74
437.756	4.73
438.115	4.73
438.474	4.84
438.833	4.79
439.192	5.03
439.551	4.85
439.91	4.82
440.269	4.96
440.628	4.75
440.987	4.72
441.345	4.8
441.704	4.87
442.063	4.86
442.421	4.83
442.78	4.68
443.138	4.74
443.497	4.75
443.855	4.75
444.214	4.86
444.572	4.67
444.93	4.79
445.288	4.74
445.647	4.84
446.005	4.67
446.363	4.74
446.721	4.63
447.079	4.85
447.437	4.8
447.795	4.74
448.153	4.79
448.51	4.82
448.868	4.82
449.226	4.86
449.584	4.87
449.941	4.98
450.299	4.78
450.656	4.82
451.014	4.74
451.371	4.86
451.729	4.84
452.086	4.79
452.443	4.9
452.801	4.72
453.158	4.75
453.515	4.79
453.872	5.01
454.229	4.63
454.586	4.94
454.943	4.87
455.3	5.08
455.657	4.87
456.014	5.07
456.371	4.89
456.727	4.72
457.084	4.8
457.441	4.9
457.797	4.94
458.154	4.83
458.51	4.81
458.867	4.64
459.223	4.95
459.58	4.77
459.936	5
460.292	4.96
460.648	4.82
461.005	4.86
461.361	4.85
461.717	4.94
462.073	4.91
462.429	4.89
462.785	4.83
463.141	4.94
463.496	4.85
463.852	4.96
464.208	4.92
464.564	4.9
464.919	4.91
465.275	4.92
465.631	4.82
465.986	4.88
466.342	4.98
466.697	4.87
467.052	4.99
467.408	4.82
467.763	4.97
468.118	4.85
468.473	4.96
468.829	4.91
469.184	4.98
469.539	4.85
469.894	4.84
470.249	4.98
470.603	4.97
470.958	5.1
471.313	5.03
471.668	5.12
472.023	5.12
472.377	4.89
472.732	4.83
473.086	4.87
473.441	5.14
473.795	5.15
474.15	4.95
474.504	4.9
474.859	5.11
475.213	5.03
475.567	4.64
475.921	5.18
476.275	4.88
476.63	4.8
476.984	5
477.338	5.27
477.692	5.01
478.045	5.04
478.399	5.09
478.753	4.88
479.107	4.99
479.461	4.99
479.814	5.04
480.168	5.04
480.521	4.92
480.875	5.22
481.228	5.03
481.582	4.93
481.935	4.93
482.289	4.98
482.642	5.01
482.995	4.99
483.348	4.93
483.701	5.05
484.055	4.94
484.408	4.89
484.761	4.78
485.114	4.76
485.466	4.71
485.819	4.71
486.172	4.75
486.525	4.77
486.878	4.8
487.23	4.84
487.583	4.83
487.936	4.87
488.288	4.87
488.641	4.87
488.993	4.73
489.345	4.74
489.698	4.81
490.05	4.79
490.402	4.88
490.754	4.91
491.107	4.98
491.459	4.98
491.811	5.08
492.163	4.95
492.515	4.93
492.866	4.76
493.218	4.83
493.57	4.87
493.922	4.83
494.274	4.99
494.625	4.9
494.977	4.93
495.328	5.11
495.68	5.11
496.031	5.05
496.383	5.1
496.734	5.2
497.086	4.98
497.437	5.19
497.788	4.97
498.139	5.05
498.49	5.04
498.842	5.07
499.193	5.03
499.544	5.17
499.894	5.06
500.245	5.08
500.596	5.08
500.947	5.03
501.298	5.06
501.648	5.03
501.999	5.26
502.35	5.13
502.7	5.21
503.051	5.28
503.401	5.19
503.752	4.95
504.102	5.03
504.452	5.09
504.803	4.88
505.153	5.15
505.503	5.1
505.853	4.91
506.203	5.12
506.553	5.16
506.903	5.04
507.253	5.14
507.603	5.07
507.953	5.27
508.303	5.13
508.652	5.11
509.002	5.21
509.352	4.98
509.701	5.13
510.051	5.17
510.4	5.04
510.75	5.17
511.099	5.05
511.449	5.07
511.798	5.28
512.147	5.01
512.496	5.16
512.846	5.03
513.195	5.14
513.544	5.02
513.893	4.97
514.242	5.09
514.591	5.13
514.939	5.09
515.288	5.15
515.637	5.26
515.986	5.14
516.334	5.18
516.683	5.08
517.032	5.03
517.38	5.14
517.729	5.08
518.077	5.21
518.426	5.04
518.774	5.07
519.122	5.1
519.47	5.05
519.819	5.1
520.167	5.11
520.515	5.02
520.863	5.04
521.211	4.97
521.559	5.09
521.907	5.06
522.255	5.05
522.602	5.07
522.95	5.24
523.298	5.09
523.645	4.99
523.993	5.27
524.341	5.11
524.688	5.13
525.036	5.12
525.383	5.26
525.73	5.17
526.078	5.24
526.425	5.11
526.772	4.97
527.119	5.06
527.466	5.04
527.814	4.97
528.161	5.1
528.508	5.02
528.854	5
529.201	5.02
529.548	4.93
529.895	4.85
530.242	4.88
530.588	4.85
530.935	4.84
531.282	4.96
531.628	4.94
531.975	5.02
532.321	4.94
532.667	5.09
533.014	5.08
533.36	5.03
533.706	5.12
534.052	5.05
534.399	4.95
534.745	4.92
535.091	4.92
535.437	4.95
535.783	5.03
536.129	5.02
536.474	5.08
536.82	5.03
537.166	5.13
537.512	5.07
537.857	5.05
538.203	5.03
538.549	5.08
538.894	5.02
539.239	5.13
539.585	5.1
539.93	5.12
540.276	5.18
540.621	5.06
540.966	5.03
541.311	5.06
541.656	4.96
542.001	5.2
542.346	5.06
542.691	4.99
543.036	4.92
543.381	4.93
543.726	4.94
544.071	5
544.415	4.95
544.76	4.92
545.105	5.03
545.449	4.96
545.794	4.99
546.138	5.07
546.483	5.06
546.827	5.07
547.171	5.05
547.516	5.15
547.86	5.02
548.204	5.03
548.548	5.07
548.892	5.15
549.236	5.04
549.58	4.97
549.924	5.08
550.268	5.16
550.612	5.21
550.956	4.98
551.3	5.18
551.643	5.19
551.987	5.1
552.33	4.99
552.674	5.21
553.017	5.23
553.361	5.02
553.704	5.02
554.048	5.09
554.391	4.92
554.734	5.09
555.077	5.07
555.42	5.11
555.764	5.08
556.107	5.13
556.45	5
556.793	5.27
557.135	5.15
557.478	5.16
557.821	5.08
558.164	5.18
558.507	5.11
558.849	5.05
559.192	5
559.534	4.83
559.877	5.12
560.219	5.38
560.562	5.13
560.904	5.11
561.246	5.35
561.589	5.33
561.931	5.29
562.273	5.03
562.615	5.07
562.957	5.21
563.299	5.23
563.641	5.24
563.983	5.1
564.325	5
564.667	5.14
565.008	5.17
565.35	5.15
565.692	5.06
566.033	5.02
566.375	5.1
566.716	5.09
567.058	5.13
567.399	5.12
567.741	5.14
568.082	5.01
568.423	5.04
568.764	5.14
569.105	5.11
569.447	5.01
569.788	4.97
570.129	5
570.47	5.08
570.811	5.07
571.151	5.1
571.492	5.17
571.833	4.91
572.174	5.13
572.514	4.96
572.855	5.08
573.195	5.05
573.536	5.01
573.876	4.98
574.217	5.12
574.557	5.12
574.898	4.88
575.238	5.02
575.578	5.21
575.918	5.02
576.258	4.98
576.598	4.86
576.938	5.12
577.278	4.99
577.618	5.09
577.958	5.01
578.298	5.11
578.638	5.01
578.977	4.96
579.317	5.23
579.657	5.07
579.996	4.8
580.336	4.94
580.675	4.87
581.014	5.08
581.354	5.01
581.693	4.97
582.032	4.84
582.372	4.87
582.711	5.15
583.05	5.14
583.389	5
583.728	5.17
584.067	5.13
584.406	5.38
584.745	5.09
585.083	5.57
585.422	4.98
585.761	5.2
586.1	5.19
586.438	5.06
586.777	5.13
587.115	5.17
587.454	5.23
587.792	5.03
588.13	5.35
588.469	5
588.807	5.09
589.145	5.32
589.483	4.88
589.821	5.15
590.159	4.85
590.497	4.93
590.835	4.96
591.173	5.13
591.511	5.11
591.849	5.05
592.187	4.99
592.524	4.97
592.862	5
593.2	4.96
593.537	5.08
593.875	5.18
594.212	5.12
594.55	4.97
594.887	5.21
595.224	4.89
595.561	5
595.899	5.03
596.236	5.05
596.573	4.88
596.91	4.94
597.247	4.95
597.584	4.93
597.921	4.9
598.258	5.06
598.594	4.8
598.931	4.9
599.268	4.79
599.604	5.13
599.941	4.76
600.277	5.01
600.614	5.17
600.95	5.05
601.287	4.97
601.623	5.28
601.959	5.2
602.296	5.04
602.632	5.35
602.968	4.86
603.304	4.89
603.64	4.94
603.976	5.06
604.312	5.11
604.648	5.14
604.984	4.98
605.319	4.86
605.655	4.9
605.991	4.89
606.326	4.93
606.662	4.8
606.998	5.01
607.333	4.87
607.668	5.03
608.004	5.08
608.339	4.99
608.674	4.97
609.01	5.09
609.345	5.06
609.68	4.75
610.015	4.81
610.35	4.96
610.685	5.03
611.02	4.84
611.355	4.96
611.689	4.74
612.024	5.05
612.359	5.05
612.694	5.05
613.028	5.26
613.363	4.89
613.697	5.21
614.032	4.94
614.366	4.8
614.7	5.58
615.035	4.97
615.369	5.07
615.703	5.32
616.037	5.07
616.371	4.6
616.705	4.98
617.039	5.15
617.373	5.05
617.707	4.92
618.041	5.27
618.375	4.78
618.709	4.93
619.042	5.05
619.376	4.86
619.71	5.14
620.043	4.75
620.377	5.05
620.71	5.09
621.043	4.88
621.377	4.82
621.71	5.29
622.043	4.95
622.376	4.83
622.709	5.18
623.043	4.58
623.376	5.43
623.709	5.24
624.041	5.05
624.374	4.71
624.707	4.75
625.04	5.48
625.373	5.02
625.705	4.92
626.038	5.08
626.37	4.97
626.703	4.86
627.035	5
627.368	5.28
627.7	5
628.032	5.09
628.365	4.63
628.697	4.86
629.029	5.19
629.361	4.91
629.693	5.34
630.025	4.69
630.357	4.55
630.689	5.24
631.021	5.11
631.353	5.34
631.684	5.14
632.016	4.63
632.348	5.17
632.679	4.71
633.011	5.14
633.342	5.07
633.674	4.74
634.005	4.94
634.336	4.95
634.668	5.16
634.999	4.7
635.33	4.71
635.661	4.9
635.992	4.85
636.323	4.96
636.654	5.32
636.985	4.96
637.316	5.06
637.647	5.26
637.977	4.97
638.308	4.74
638.639	4.94
638.969	4.74
639.3	5.07
639.63	4.8
639.961	4.77
640.291	5.42
640.622	5.19
640.952	4.93
641.282	4.29
641.612	4.64
641.943	4.83
642.273	5.04
642.603	5.19
642.933	4.89
643.263	5.22
643.592	5.2
643.922	5.32
644.252	5.3
644.582	4.99
644.911	4.69
645.241	5.11
645.571	5.1
645.9	5.23
646.23	4.88
646.559	5.18
646.888	4.64
647.218	4.97
647.547	5.32
647.876	4.97
648.205	5.06
648.534	4.94
648.863	5.18
649.192	4.87
649.521	4.84
649.85	5.17
650.179	4.71
650.508	5.04
650.837	5.38
651.165	5.29
651.494	4.74
651.822	5.09
652.151	5.42
652.479	5.72
652.808	4.62
653.136	4.86
653.465	5.05
653.793	5.07
654.121	4.76
654.449	5.02
654.777	4.94
655.105	5.18
655.433	5.17
655.761	5.35
656.089	5.14
656.417	5.11
656.745	5.41
657.073	5.51
657.4	5.15
657.728	4.89
658.056	5.06
658.383	5.37
658.711	4.72
659.038	5.66
659.365	4.92
659.693	5.23
660.02	4.85
660.347	4.91
660.674	4.83
661.001	4.66
661.329	5.27
661.656	4.88
661.982	5.44
662.309	4.92
662.636	4.81
662.963	5.27
663.29	5.39
663.616	5.34
663.943	5.16
664.27	5.21
664.596	4.91
664.923	5.28
665.249	4.85
665.576	5.05
665.902	4.77
666.228	4.13
666.554	4.77
666.881	5.09
667.207	4.81
667.533	5.39
667.859	4.58
668.185	5.35
668.511	4.26
668.837	4.53
669.162	5.11
669.488	5.06
669.814	5.29
670.139	5.43
670.465	5.1
670.791	4.97
671.116	4.85
671.442	5.25
671.767	5.07
672.092	5.13
672.418	4.6
672.743	4.83
673.068	4.57
673.393	5.11
673.718	5.25
674.043	4.47
674.368	5.27
674.693	4.95
675.018	4.92
675.343	5.5
675.667	5.31
675.992	4.6
676.317	4.88
676.641	4.55
676.966	5.41
677.29	4.96
677.615	4.71
677.939	4.92
678.264	5.09
678.588	4.95
678.912	5.2
679.236	5.37
679.56	4.74
679.885	5.32
680.209	4.53
680.532	5.46
680.856	5.58
681.18	5.01
681.504	4.8
681.828	4.62
682.152	5.14
682.475	5.38
682.799	5.53
683.122	4.94
683.446	4.86
683.769	5.32
684.093	5.09
684.416	4.87
684.739	5.42
685.062	4.66
685.386	5.11
685.709	5.11
686.032	4.86
686.355	5.26
686.678	4.77
687.001	3.98
687.324	5.18
687.646	4.68
687.969	5.04
688.292	5.48
688.614	5.94
688.937	5.71
689.26	4.68
689.582	4.38
689.904	4.55
690.227	4.81
690.549	5.35
690.871	5.19
691.194	5.51
691.516	5.1
691.838	4.56
