Data from 0068_crown_Reflection__3__277.txt Node

Date: Fri Dec 16 16:18:02 CST 2022
User: ToomeyLab
Spectrometer: FLMS14357
Trigger mode: 0
Integration Time (sec): 1.000000E-2
Scans to average: 100
Electric dark correction enabled: true
Nonlinearity correction enabled: false
Boxcar width: 0
XAxis mode: Wavelengths
Number of Pixels in Spectrum: 2048
>>>>>Begin Spectral Data<<<<<
189.047	120.69
189.435	120.69
189.823	120.69
190.211	398.42
190.599	-77.92
190.987	-163.69
191.375	-456.28
191.763	42.78
192.151	-240.22
192.538	18.84
192.926	1037.62
193.314	61.19
193.702	-129.71
194.089	2984.78
194.477	-29.99
194.864	-235.86
195.252	11.29
195.639	86.62
196.027	399.22
196.414	110.53
196.801	-116.83
197.189	104.91
197.576	651.44
197.963	193.12
198.351	46.31
198.738	-22.52
199.125	32.49
199.512	-2.27
199.899	-64.77
200.286	-74.99
200.673	34.38
201.06	70.45
201.447	3.36
201.833	11.89
202.22	23.07
202.607	-105.06
202.994	28.51
203.38	-43.25
203.767	-38.07
204.154	-103.54
204.54	18.58
204.927	11.87
205.313	-21.54
205.699	-87.16
206.086	9.23
206.472	-41.8
206.858	8.46
207.245	13.27
207.631	-27.54
208.017	16.47
208.403	-10.67
208.789	-35.6
209.175	45.4
209.561	-44.87
209.947	36.29
210.333	-3.23
210.719	-16.88
211.105	-20.18
211.491	-1.57
211.876	-34.92
212.262	-41.62
212.648	-16.3
213.034	-1.76
213.419	4.23
213.805	-49.56
214.19	-15.4
214.576	-21.02
214.961	-50.28
215.346	-27.61
215.732	-36.38
216.117	-48.27
216.502	-28.32
216.888	-35.54
217.273	-10.3
217.658	-59.44
218.043	8.3
218.428	-24.64
218.813	14.27
219.198	-50.98
219.583	-3.05
219.968	11.59
220.353	1.03
220.738	-24.69
221.122	-23.78
221.507	8.46
221.892	2.92
222.276	-4.77
222.661	-8.41
223.046	-11.8
223.43	-9.61
223.815	-1.84
224.199	-9.16
224.583	-2.59
224.968	5.4
225.352	-1.91
225.736	-0.84
226.121	-10.67
226.505	-5.62
226.889	7.49
227.273	6.05
227.657	1.78
228.041	6.75
228.425	-1.58
228.809	3.03
229.193	-0.83
229.577	1.89
229.961	2.8
230.344	3.18
230.728	2.65
231.112	1.16
231.495	1.53
231.879	1.07
232.263	-0.21
232.646	0.39
233.03	2.29
233.413	3.6
233.797	4.95
234.18	0.11
234.563	0.35
234.946	1.07
235.33	2.79
235.713	0.85
236.096	1.9
236.479	1.02
236.862	1.43
237.245	3.2
237.628	3.61
238.011	1.62
238.394	2.02
238.777	0.11
239.16	1.26
239.543	0.37
239.925	2.54
240.308	2.62
240.691	1.75
241.073	1.46
241.456	1.65
241.838	1.27
242.221	2.38
242.603	2.32
242.986	3.64
243.368	2.58
243.75	2.08
244.133	2.5
244.515	2.31
244.897	2.07
245.279	2.68
245.661	3.07
246.043	2.82
246.425	2.34
246.807	2.26
247.189	1.76
247.571	2.59
247.953	2.34
248.335	2.89
248.717	2.55
249.098	2.77
249.48	2.37
249.862	2.62
250.243	2.29
250.625	2.56
251.006	1.82
251.388	1.78
251.769	2.03
252.151	1.67
252.532	1.6
252.913	2.31
253.295	2.82
253.676	2.77
254.057	2.2
254.438	2.14
254.819	2.04
255.2	2.89
255.581	1.25
255.962	1.6
256.343	2.8
256.724	1.11
257.105	3.31
257.486	2.32
257.867	1.18
258.247	2.79
258.628	2.48
259.009	2.08
259.389	2.9
259.77	2.32
260.15	3.03
260.531	2.81
260.911	2.25
261.292	2.44
261.672	2.65
262.052	2.46
262.432	2.4
262.813	2.24
263.193	1.46
263.573	2.86
263.953	1.84
264.333	2.04
264.713	1.95
265.093	1.67
265.473	2.6
265.853	2.4
266.233	1.95
266.612	3.39
266.992	1.27
267.372	2.55
267.752	1.8
268.131	2.28
268.511	2.37
268.89	2.88
269.27	2.61
269.649	2.24
270.029	2.82
270.408	2.1
270.787	2.02
271.167	2.58
271.546	1.93
271.925	1.97
272.304	2.03
272.683	1.86
273.062	2.73
273.441	2.19
273.82	2.34
274.199	2.33
274.578	1.99
274.957	1.99
275.336	1.87
275.715	2.65
276.093	2.98
276.472	2.76
276.851	2.6
277.229	2.99
277.608	2.39
277.986	2.36
278.365	2.3
278.743	3.07
279.122	1.73
279.5	2.19
279.878	1.68
280.257	2.14
280.635	1.88
281.013	2.46
281.391	1.85
281.769	2.11
282.147	2.75
282.525	2.27
282.903	2.67
283.281	2.29
283.659	2.28
284.037	2.47
284.415	1.97
284.792	2.45
285.17	1.91
285.548	1.59
285.925	2.05
286.303	2.09
286.68	2.56
287.058	2.67
287.435	2.04
287.813	2.25
288.19	2.68
288.567	2.25
288.945	2.09
289.322	2.53
289.699	2.3
290.076	2.63
290.453	1.88
290.83	2.09
291.207	2.04
291.584	1.97
291.961	2.64
292.338	2.2
292.715	2.12
293.092	2.65
293.469	2.89
293.845	2.12
294.222	1.98
294.599	2.69
294.975	2.56
295.352	1.73
295.728	2.34
296.105	2.3
296.481	2.8
296.858	2.49
297.234	1.78
297.61	2.24
297.986	2.32
298.363	1.67
298.739	2.34
299.115	1.93
299.491	2.16
299.867	2.32
300.243	1.86
300.619	1.98
300.995	2.33
301.371	2.35
301.746	2.27
302.122	2.54
302.498	2.04
302.874	2.43
303.249	2.65
303.625	2.24
304	1.9
304.376	2.27
304.751	2.22
305.127	2.09
305.502	2.33
305.878	1.74
306.253	2.24
306.628	2.71
307.003	2.24
307.378	1.91
307.754	2.47
308.129	1.68
308.504	1.86
308.879	2.49
309.254	1.68
309.629	2.05
310.003	2.42
310.378	2.19
310.753	2.15
311.128	2.36
311.502	1.91
311.877	2.38
312.252	1.81
312.626	2.34
313.001	2.33
313.375	2.2
313.75	1.88
314.124	2.85
314.498	1.9
314.873	1.82
315.247	2.12
315.621	2.88
315.995	2.07
316.369	1.9
316.743	2.48
317.117	2.36
317.491	2.31
317.865	1.24
318.239	2.44
318.613	1.86
318.987	1.8
319.361	2.44
319.734	1.87
320.108	2.86
320.482	1.73
320.855	2.08
321.229	2.2
321.602	2.11
321.976	1.19
322.349	1
322.723	1.71
323.096	1.52
323.469	2.06
323.843	2.01
324.216	1.62
324.589	1.92
324.962	2.21
325.335	2.24
325.708	2.17
326.081	2.19
326.454	2.27
326.827	2.6
327.2	2.57
327.573	2.57
327.945	1.74
328.318	1.77
328.691	2.38
329.063	2.2
329.436	1.62
329.809	2.07
330.181	2.03
330.553	2.49
330.926	2.16
331.298	1.75
331.671	1.77
332.043	2.08
332.415	2.12
332.787	2.33
333.159	1.86
333.532	1.82
333.904	2.08
334.276	2.37
334.648	2.18
335.02	2
335.391	2.01
335.763	1.96
336.135	2.23
336.507	2.28
336.879	1.97
337.25	2.07
337.622	2.06
337.993	2.17
338.365	2.53
338.736	2.28
339.108	2.03
339.479	2.09
339.851	2.73
340.222	2.36
340.593	1.71
340.964	2.29
341.336	2.04
341.707	1.61
342.078	1.74
342.449	2.19
342.82	2.18
343.191	1.73
343.562	2.18
343.933	1.83
344.303	2.25
344.674	1.98
345.045	2.96
345.416	1.83
345.786	1.98
346.157	1.99
346.527	2.17
346.898	2.22
347.268	1.83
347.639	2.11
348.009	2.33
348.38	2.2
348.75	2.02
349.12	1.97
349.49	1.75
349.861	2.54
350.231	2.63
350.601	1.99
350.971	1.73
351.341	2.11
351.711	1.97
352.081	2.18
352.45	2.3
352.82	2.38
353.19	1.83
353.56	2.34
353.929	2.08
354.299	2.35
354.669	2.09
355.038	2.01
355.408	2.56
355.777	2.29
356.147	2.49
356.516	2.39
356.885	1.98
357.254	2.27
357.624	2.2
357.993	2.21
358.362	2.4
358.731	2.25
359.1	2.2
359.469	2.19
359.838	2.13
360.207	2.5
360.576	2.41
360.945	1.85
361.314	2.45
361.682	1.78
362.051	1.94
362.42	2.3
362.788	2.27
363.157	2.04
363.525	2.1
363.894	2.04
364.262	2.19
364.631	2.72
364.999	2.11
365.367	2.71
365.735	1.82
366.104	2.09
366.472	2.43
366.84	2.26
367.208	1.91
367.576	2.48
367.944	2.38
368.312	1.89
368.68	2.47
369.048	2.38
369.416	2.23
369.783	2.2
370.151	1.85
370.519	2
370.886	2.25
371.254	2.48
371.621	2.44
371.989	2.52
372.356	2.24
372.724	2.43
373.091	1.98
373.458	2.16
373.826	2.01
374.193	2.65
374.56	2.31
374.927	1.97
375.294	2.28
375.661	2.13
376.028	2.22
376.395	2.12
376.762	2.63
377.129	2.46
377.496	2.13
377.863	2.35
378.229	2.4
378.596	2.13
378.963	2.35
379.329	2.29
379.696	2.32
380.062	2.41
380.429	2.27
380.795	2.1
381.161	2.27
381.528	1.91
381.894	2.44
382.26	2.14
382.626	2.26
382.993	2.02
383.359	2.28
383.725	2.49
384.091	2.17
384.457	2.26
384.823	2.4
385.188	2.61
385.554	2.31
385.92	2.58
386.286	2.48
386.651	2.23
387.017	2.49
387.383	2.3
387.748	2.05
388.114	2.39
388.479	2.3
388.845	2.46
389.21	2.34
389.575	2.13
389.94	2.43
390.306	2.27
390.671	2.13
391.036	2.69
391.401	2.53
391.766	2.24
392.131	2.06
392.496	2.38
392.861	2.19
393.226	2.19
393.591	2.51
393.956	2.51
394.32	2.22
394.685	2.41
395.05	2.35
395.414	2.27
395.779	2.2
396.143	2.38
396.508	2.38
396.872	2.51
397.236	2.18
397.601	2.37
397.965	2.26
398.329	2.66
398.694	2.41
399.058	2.37
399.422	2.6
399.786	2.2
400.15	2.16
400.514	2.21
400.878	2.08
401.242	2.34
401.605	2.47
401.969	2.52
402.333	2.33
402.697	2.53
403.06	2.32
403.424	2.43
403.787	2.7
404.151	2.4
404.514	2.44
404.878	2.51
405.241	2.63
405.604	2.45
405.968	2.58
406.331	2.52
406.694	2.53
407.057	2.61
407.42	2.39
407.783	2.32
408.146	2.36
408.509	2.53
408.872	2.23
409.235	2.62
409.598	2.59
409.961	2.5
410.323	2.57
410.686	2.55
411.049	2.2
411.411	2.46
411.774	2.45
412.136	2.42
412.499	2.44
412.861	2.47
413.223	2.69
413.586	2.36
413.948	2.45
414.31	2.65
414.672	2.55
415.035	2.68
415.397	2.63
415.759	2.48
416.121	2.66
416.483	2.63
416.845	2.39
417.206	2.56
417.568	2.58
417.93	2.46
418.292	2.6
418.653	2.47
419.015	2.51
419.377	2.46
419.738	2.38
420.1	2.41
420.461	2.4
420.822	2.59
421.184	2.47
421.545	2.47
421.906	2.52
422.267	2.33
422.629	2.52
422.99	2.49
423.351	2.43
423.712	2.48
424.073	2.6
424.434	2.38
424.795	2.45
425.155	2.49
425.516	2.34
425.877	2.46
426.238	2.39
426.598	2.53
426.959	2.4
427.32	2.58
427.68	2.61
428.041	2.54
428.401	2.63
428.761	2.63
429.122	2.4
429.482	2.51
429.842	2.47
430.202	2.52
430.563	2.53
430.923	2.46
431.283	2.65
431.643	2.4
432.003	2.69
432.363	2.57
432.722	2.48
433.082	2.53
433.442	2.54
433.802	2.6
434.161	2.43
434.521	2.46
434.881	2.6
435.24	2.5
435.6	2.49
435.959	2.53
436.319	2.38
436.678	2.57
437.037	2.85
437.396	2.73
437.756	2.56
438.115	2.52
438.474	2.61
438.833	2.52
439.192	2.72
439.551	2.59
439.91	2.62
440.269	2.73
440.628	2.57
440.987	2.44
441.345	2.58
441.704	2.68
442.063	2.55
442.421	2.49
442.78	2.44
443.138	2.59
443.497	2.52
443.855	2.55
444.214	2.67
444.572	2.65
444.93	2.72
445.288	2.53
445.647	2.69
446.005	2.52
446.363	2.53
446.721	2.47
447.079	2.63
447.437	2.49
447.795	2.52
448.153	2.54
448.51	2.54
448.868	2.63
449.226	2.63
449.584	2.55
449.941	2.71
450.299	2.5
450.656	2.76
451.014	2.59
451.371	2.76
451.729	2.56
452.086	2.53
452.443	2.51
452.801	2.66
453.158	2.68
453.515	2.51
453.872	2.62
454.229	2.44
454.586	2.57
454.943	2.58
455.3	2.79
455.657	2.63
456.014	2.75
456.371	2.71
456.727	2.52
457.084	2.67
457.441	2.66
457.797	2.63
458.154	2.56
458.51	2.64
458.867	2.51
459.223	2.67
459.58	2.54
459.936	2.62
460.292	2.59
460.648	2.5
461.005	2.44
461.361	2.62
461.717	2.58
462.073	2.67
462.429	2.65
462.785	2.67
463.141	2.63
463.496	2.73
463.852	2.79
464.208	2.7
464.564	2.53
464.919	2.7
465.275	2.73
465.631	2.51
465.986	2.64
466.342	2.62
466.697	2.69
467.052	2.73
467.408	2.69
467.763	2.52
468.118	2.65
468.473	2.79
468.829	2.69
469.184	2.81
469.539	2.65
469.894	2.76
470.249	2.73
470.603	2.73
470.958	2.76
471.313	2.5
471.668	2.62
472.023	2.8
472.377	2.79
472.732	2.74
473.086	2.42
473.441	2.79
473.795	2.69
474.15	2.7
474.504	2.73
474.859	2.64
475.213	2.6
475.567	2.61
475.921	2.83
476.275	2.76
476.63	2.68
476.984	2.67
477.338	2.96
477.692	2.72
478.045	2.54
478.399	2.63
478.753	2.58
479.107	2.67
479.461	2.68
479.814	2.64
480.168	2.72
480.521	2.72
480.875	2.78
481.228	2.73
481.582	2.61
481.935	2.65
482.289	2.55
482.642	2.66
482.995	2.78
483.348	2.64
483.701	2.55
484.055	2.56
484.408	2.59
484.761	2.42
485.114	2.4
485.466	2.47
485.819	2.53
486.172	2.61
486.525	2.69
486.878	2.67
487.23	2.72
487.583	2.61
487.936	2.64
488.288	2.58
488.641	2.55
488.993	2.52
489.345	2.51
489.698	2.63
490.05	2.62
490.402	2.74
490.754	2.82
491.107	2.73
491.459	2.82
491.811	2.78
492.163	2.66
492.515	2.58
492.866	2.49
493.218	2.49
493.57	2.61
493.922	2.71
494.274	2.82
494.625	2.69
494.977	2.75
495.328	2.86
495.68	2.86
496.031	2.74
496.383	2.72
496.734	2.84
497.086	2.65
497.437	2.79
497.788	2.66
498.139	2.74
498.49	2.73
498.842	2.66
499.193	2.75
499.544	2.76
499.894	2.72
500.245	2.75
500.596	2.74
500.947	2.67
501.298	2.69
501.648	2.79
501.999	2.9
502.35	2.92
502.7	2.88
503.051	2.78
503.401	2.76
503.752	2.68
504.102	2.78
504.452	2.79
504.803	2.64
505.153	2.83
505.503	2.71
505.853	2.81
506.203	2.69
506.553	2.69
506.903	2.65
507.253	2.76
507.603	2.74
507.953	2.9
508.303	2.84
508.652	2.8
509.002	2.76
509.352	2.74
509.701	2.68
510.051	2.83
510.4	2.79
510.75	2.75
511.099	2.72
511.449	2.78
511.798	2.91
512.147	2.79
512.496	2.86
512.846	2.7
513.195	2.74
513.544	2.71
513.893	2.66
514.242	2.84
514.591	2.9
514.939	2.77
515.288	2.88
515.637	2.88
515.986	2.82
516.334	2.93
516.683	2.8
517.032	2.75
517.38	2.78
517.729	2.72
518.077	2.88
518.426	2.7
518.774	2.69
519.122	2.8
519.47	2.75
519.819	2.74
520.167	2.79
520.515	2.68
520.863	2.77
521.211	2.79
521.559	2.84
521.907	2.78
522.255	2.81
522.602	2.92
522.95	2.9
523.298	2.89
523.645	2.74
523.993	2.94
524.341	2.87
524.688	2.88
525.036	3.01
525.383	2.89
525.73	2.74
526.078	2.78
526.425	2.75
526.772	2.64
527.119	2.61
527.466	2.63
527.814	2.73
528.161	2.86
528.508	2.8
528.854	2.63
529.201	2.72
529.548	2.6
529.895	2.57
530.242	2.61
530.588	2.74
530.935	2.76
531.282	2.78
531.628	2.85
531.975	2.76
532.321	2.78
532.667	2.86
533.014	2.86
533.36	2.75
533.706	2.76
534.052	2.73
534.399	2.69
534.745	2.61
535.091	2.73
535.437	2.75
535.783	2.83
536.129	2.82
536.474	2.89
536.82	2.8
537.166	2.83
537.512	2.89
537.857	2.76
538.203	2.63
538.549	2.84
538.894	2.81
539.239	2.92
539.585	2.92
539.93	2.84
540.276	2.85
540.621	2.81
540.966	2.84
541.311	2.9
541.656	2.72
542.001	2.78
542.346	2.73
542.691	2.62
543.036	2.68
543.381	2.76
543.726	2.86
544.071	2.9
544.415	2.88
544.76	2.76
545.105	2.85
545.449	2.76
545.794	2.8
546.138	2.9
546.483	2.82
546.827	2.75
547.171	2.74
547.516	2.92
547.86	2.88
548.204	2.76
548.548	2.9
548.892	2.96
549.236	2.96
549.58	2.94
549.924	2.94
550.268	3.04
550.612	3.05
550.956	2.85
551.3	2.87
551.643	2.8
551.987	2.86
552.33	2.87
552.674	3.1
553.017	2.83
553.361	2.93
553.704	2.88
554.048	2.87
554.391	2.85
554.734	2.87
555.077	3.06
555.42	2.87
555.764	2.96
556.107	3.07
556.45	2.74
556.793	3.15
557.135	3.07
557.478	2.98
557.821	2.91
558.164	3.04
558.507	2.82
558.849	2.84
559.192	2.96
559.534	2.76
559.877	3.09
560.219	3.25
560.562	3.09
560.904	2.81
561.246	2.97
561.589	2.81
561.931	3.14
562.273	2.82
562.615	2.76
562.957	2.98
563.299	2.98
563.641	2.95
563.983	2.94
564.325	2.84
564.667	2.85
565.008	3.01
565.35	3.05
565.692	3
566.033	2.9
566.375	2.94
566.716	2.96
567.058	3.04
567.399	3.02
567.741	3.05
568.082	2.83
568.423	2.93
568.764	2.98
569.105	3.07
569.447	3.04
569.788	2.85
570.129	2.96
570.47	3.03
570.811	2.98
571.151	3
571.492	3.13
571.833	3.02
572.174	2.95
572.514	2.78
572.855	3.12
573.195	2.83
573.536	3.01
573.876	2.98
574.217	3.1
574.557	2.94
574.898	2.85
575.238	2.9
575.578	3.01
575.918	2.99
576.258	2.91
576.598	2.86
576.938	3.13
577.278	2.91
577.618	2.88
577.958	2.97
578.298	2.99
578.638	3
578.977	3.02
579.317	3.12
579.657	3.06
579.996	2.95
580.336	2.83
580.675	2.98
581.014	2.91
581.354	3.06
581.693	2.76
582.032	2.88
582.372	2.87
582.711	3.09
583.05	3.05
583.389	3.02
583.728	3.01
584.067	3
584.406	3.04
584.745	2.99
585.083	3.16
585.422	3.13
585.761	2.95
586.1	3.11
586.438	3.06
586.777	2.89
587.115	3.03
587.454	3
587.792	2.94
588.13	3.3
588.469	3.03
588.807	3.05
589.145	3
589.483	2.75
589.821	3.11
590.159	3.2
590.497	2.84
590.835	2.91
591.173	3.22
591.511	3.13
591.849	3.21
592.187	3.17
592.524	3
592.862	2.89
593.2	2.97
593.537	2.79
593.875	3.28
594.212	2.88
594.55	3.22
594.887	3.08
595.224	2.97
595.561	3.11
595.899	2.93
596.236	3.1
596.573	3.01
596.91	3.1
597.247	2.97
597.584	2.92
597.921	2.89
598.258	2.99
598.594	2.78
598.931	3
599.268	2.96
599.604	3.13
599.941	2.94
600.277	3.05
600.614	2.99
600.95	3.11
601.287	2.79
601.623	3.02
601.959	2.91
602.296	3.2
602.632	3.3
602.968	3.01
603.304	3.13
603.64	3.03
603.976	2.96
604.312	3.19
604.648	3.13
604.984	3.01
605.319	2.93
605.655	3.15
605.991	2.98
606.326	2.99
606.662	2.95
606.998	2.94
607.333	3.18
607.668	3.38
608.004	2.95
608.339	3.1
608.674	3.12
609.01	3.2
609.345	3.03
609.68	2.81
610.015	3.18
610.35	3.06
610.685	3.06
611.02	3.19
611.355	3
611.689	2.97
612.024	3.34
612.359	3.28
612.694	3.4
613.028	3.32
613.363	2.92
613.697	3.18
614.032	3.41
614.366	2.83
614.7	3.17
615.035	3.04
615.369	3.12
615.703	3.45
616.037	3.36
616.371	3.04
616.705	3.06
617.039	3.34
617.373	3.08
617.707	3.03
618.041	3.19
618.375	2.81
618.709	3.03
619.042	2.96
619.376	3
619.71	2.89
620.043	3.07
620.377	2.85
620.71	3.27
621.043	2.9
621.377	2.73
621.71	3.15
622.043	3.02
622.376	3.04
622.709	3.45
623.043	2.95
623.376	3.41
623.709	3.51
624.041	3.03
624.374	2.73
624.707	3.15
625.04	3.48
625.373	2.99
625.705	3.13
626.038	2.93
626.37	2.92
626.703	2.72
627.035	3.41
627.368	3.08
627.7	3.2
628.032	3.1
628.365	2.83
628.697	3
629.029	3.28
629.361	3.27
629.693	3.32
630.025	3.01
630.357	2.88
630.689	3.53
631.021	3.1
631.353	3.39
631.684	3.48
632.016	2.94
632.348	3.31
632.679	2.92
633.011	3.27
633.342	3.28
633.674	3.09
634.005	2.98
634.336	3.24
634.668	3.2
634.999	3.1
635.33	3.1
635.661	3.29
635.992	3.37
636.323	2.96
636.654	3.14
636.985	3.19
637.316	3.19
637.647	3.49
637.977	3.28
638.308	2.88
638.639	3.14
638.969	3.12
639.3	3.22
639.63	3.17
639.961	2.99
640.291	3.82
640.622	3.58
640.952	3.03
641.282	2.89
641.612	3.04
641.943	3.47
642.273	3.3
642.603	3.38
642.933	3.2
643.263	3.43
643.592	3.17
643.922	3.92
644.252	3.46
644.582	3.12
644.911	2.94
645.241	3.03
645.571	3
645.9	3.65
646.23	2.68
646.559	2.87
646.888	2.85
647.218	3.22
647.547	3.56
647.876	3.71
648.205	3.04
648.534	2.99
648.863	3.47
649.192	3.16
649.521	2.59
649.85	3.3
650.179	3.1
650.508	3.14
650.837	3.45
651.165	3.7
651.494	3.23
651.822	3.08
652.151	3.73
652.479	3.85
652.808	3.25
653.136	3.26
653.465	3.33
653.793	3.66
654.121	3.53
654.449	3.11
654.777	3.08
655.105	3.77
655.433	3.08
655.761	3.02
656.089	3.43
656.417	2.82
656.745	3.58
657.073	3.4
657.4	3.52
657.728	3.24
658.056	3.15
658.383	3.21
658.711	2.92
659.038	3.39
659.365	3.22
659.693	3.21
660.02	2.97
660.347	3.57
660.674	3.25
661.001	2.97
661.329	3.2
661.656	3.36
661.982	3.53
662.309	3.17
662.636	3.3
662.963	3.31
663.29	2.83
663.616	3.29
663.943	3.73
664.27	3.29
664.596	3.08
664.923	3.17
665.249	3.53
665.576	3.15
665.902	3.28
666.228	3.12
666.554	3.47
666.881	3.13
667.207	3.02
667.533	3.53
667.859	3.01
668.185	2.94
668.511	2.94
668.837	2.85
669.162	3.44
669.488	3.21
669.814	4.29
670.139	3.87
670.465	3.78
670.791	3.44
671.116	2.83
671.442	3.47
671.767	2.98
672.092	3.51
672.418	3.13
672.743	3.69
673.068	3.36
673.393	3.06
673.718	2.75
674.043	3.92
674.368	4.06
674.693	3.53
675.018	3.06
675.343	3.11
675.667	2.96
675.992	2.75
676.317	3.12
676.641	3.51
676.966	3.4
677.29	2.98
677.615	2.9
677.939	3.23
678.264	3.63
678.588	3.68
678.912	3.57
679.236	3.69
679.56	3.17
679.885	3.56
680.209	3.43
680.532	3.42
680.856	3.84
681.18	3.26
681.504	3.38
681.828	2.94
682.152	3.18
682.475	2.9
682.799	3.62
683.122	3.49
683.446	3.31
683.769	3.81
684.093	3.61
684.416	3.4
684.739	3.6
685.062	3.41
685.386	3.67
685.709	3.19
686.032	3.32
686.355	3.17
686.678	3.03
687.001	2.39
687.324	2.33
687.646	2.58
687.969	3.78
688.292	3.67
688.614	3.87
688.937	3.59
689.26	2.53
689.582	2.3
689.904	3.41
690.227	3.86
690.549	4.14
690.871	3.84
691.194	3.69
691.516	3.35
691.838	3.45
692.16	3.82
