Data from 0031_forehead_Reflection__4__151.txt Node

Date: Thu Oct 20 22:04:37 CDT 2022
User: ToomeyLab
Spectrometer: FLMS14357
Trigger mode: 0
Integration Time (sec): 1.000000E-2
Scans to average: 100
Electric dark correction enabled: true
Nonlinearity correction enabled: false
Boxcar width: 0
XAxis mode: Wavelengths
Number of Pixels in Spectrum: 2048
>>>>>Begin Spectral Data<<<<<
189.047	-3.74
189.435	-3.74
189.823	-3.74
190.211	37.08
190.599	58.38
190.987	46.87
191.375	110.32
191.763	7.46
192.151	117.4
192.538	79.23
192.926	237.21
193.314	58.92
193.702	444.67
194.089	927.11
194.477	36.69
194.864	590.19
195.252	67.27
195.639	959.23
196.027	-23.05
196.414	118.2
196.801	-500.81
197.189	73.2
197.576	4891.67
197.963	48.57
198.351	-5.23
198.738	-73.97
199.125	19.96
199.512	12.09
199.899	27.13
200.286	15
200.673	-0.98
201.06	42.81
201.447	2.79
201.833	44.7
202.22	1.61
202.607	34.33
202.994	29.84
203.38	-38.24
203.767	-6.75
204.154	-35.59
204.54	-6.44
204.927	5.64
205.313	25.66
205.699	12.19
206.086	-13.35
206.472	-0.64
206.858	-16.99
207.245	19.35
207.631	-1.7
208.017	40.28
208.403	-35.19
208.789	27.22
209.175	13.87
209.561	-6.49
209.947	24.64
210.333	-13.77
210.719	3.75
211.105	20.37
211.491	-59.42
211.876	11.76
212.262	48.5
212.648	12.86
213.034	10.65
213.419	-13.91
213.805	-19.02
214.19	-10.56
214.576	-50.83
214.961	-28.53
215.346	7.52
215.732	-25.96
216.117	2.41
216.502	15.57
216.888	-2.22
217.273	0.69
217.658	38.55
218.043	13.49
218.428	-11.18
218.813	18.63
219.198	-9.52
219.583	18.98
219.968	35.72
220.353	11.09
220.738	15.68
221.122	9.42
221.507	3.17
221.892	-9.62
222.276	-1.55
222.661	6.75
223.046	2.94
223.43	8.02
223.815	4.42
224.199	-3.23
224.583	-1.14
224.968	13.97
225.352	9.66
225.736	11.14
226.121	-2.8
226.505	5.18
226.889	-2
227.273	-2.11
227.657	0.11
228.041	1.59
228.425	1.32
228.809	3.08
229.193	2.69
229.577	-0.37
229.961	2.09
230.344	1.46
230.728	1.74
231.112	1.59
231.495	1.83
231.879	2.06
232.263	2.27
232.646	3.2
233.03	1.89
233.413	-0.69
233.797	0.74
234.18	0.08
234.563	0.82
234.946	2.1
235.33	1.51
235.713	2.61
236.096	1.65
236.479	2.35
236.862	3.06
237.245	1.78
237.628	2.98
238.011	2.52
238.394	3.14
238.777	0.45
239.16	0.3
239.543	0.38
239.925	0.03
240.308	1.34
240.691	3.26
241.073	1.47
241.456	1.94
241.838	0.69
242.221	1.18
242.603	1.94
242.986	1.41
243.368	1.65
243.75	1.58
244.133	2.29
244.515	1.96
244.897	1.51
245.279	1.79
245.661	2.3
246.043	2.45
246.425	2.24
246.807	2.42
247.189	1.44
247.571	1.75
247.953	1.7
248.335	1.92
248.717	1.79
249.098	1.71
249.48	1.84
249.862	1.85
250.243	2
250.625	2.2
251.006	2.6
251.388	1.18
251.769	2.61
252.151	1.88
252.532	2.12
252.913	2.33
253.295	1.63
253.676	2.49
254.057	1.11
254.438	2.57
254.819	1.59
255.2	2.8
255.581	1.25
255.962	3.11
256.343	1.23
256.724	2.55
257.105	1.3
257.486	1.91
257.867	2.46
258.247	1.87
258.628	2.22
259.009	0.68
259.389	1.95
259.77	1.55
260.15	1.96
260.531	1.83
260.911	1.88
261.292	1.98
261.672	1.77
262.052	2.01
262.432	2.16
262.813	1.67
263.193	2.68
263.573	2.39
263.953	2.18
264.333	1.7
264.713	1.52
265.093	1.92
265.473	2.59
265.853	2.37
266.233	1.51
266.612	2.2
266.992	1.68
267.372	2.66
267.752	1.83
268.131	2.17
268.511	2.04
268.89	1.86
269.27	2.15
269.649	1.48
270.029	1.45
270.408	1.28
270.787	1.53
271.167	2.09
271.546	1.77
271.925	2.15
272.304	1.8
272.683	1.71
273.062	1.61
273.441	1.82
273.82	2.01
274.199	1.57
274.578	1.56
274.957	1.99
275.336	1.43
275.715	1.98
276.093	2.41
276.472	2.6
276.851	2.33
277.229	2.13
277.608	1.83
277.986	1.99
278.365	1.55
278.743	1.81
279.122	2.4
279.5	2.11
279.878	1.96
280.257	2.14
280.635	2.26
281.013	1.68
281.391	2.11
281.769	2
282.147	1.54
282.525	1.52
282.903	1.91
283.281	1.63
283.659	1.63
284.037	1.28
284.415	1.7
284.792	1.66
285.17	2.3
285.548	2
285.925	1.93
286.303	1.68
286.68	2.14
287.058	1.92
287.435	1.75
287.813	1.76
288.19	1.7
288.567	1.96
288.945	2.22
289.322	1.48
289.699	1.65
290.076	1.99
290.453	1.47
290.83	1.95
291.207	2.26
291.584	2.06
291.961	1.99
292.338	1.86
292.715	2.07
293.092	2.38
293.469	2.31
293.845	2
294.222	2.69
294.599	3.06
294.975	2.03
295.352	2.49
295.728	1.89
296.105	2.51
296.481	1.54
296.858	2.29
297.234	2.16
297.61	2.05
297.986	1.89
298.363	2.02
298.739	1.9
299.115	2.32
299.491	2.43
299.867	1.94
300.243	2.36
300.619	2.37
300.995	1.84
301.371	2.73
301.746	2.15
302.122	2.34
302.498	2.11
302.874	2.83
303.249	2.6
303.625	2.31
304	2.63
304.376	2.1
304.751	2.09
305.127	1.93
305.502	2.66
305.878	2.52
306.253	2.61
306.628	2.55
307.003	2.22
307.378	2.09
307.754	2.53
308.129	2.75
308.504	2.43
308.879	2.89
309.254	2.87
309.629	2.66
310.003	2.16
310.378	2.57
310.753	2.8
311.128	2.22
311.502	2.57
311.877	3.19
312.252	2.65
312.626	2.73
313.001	2.52
313.375	2.96
313.75	2.7
314.124	2.66
314.498	2.64
314.873	2.64
315.247	3.08
315.621	3.19
315.995	2.59
316.369	2.92
316.743	2.59
317.117	3.05
317.491	3.28
317.865	2.95
318.239	3.12
318.613	3.16
318.987	3.07
319.361	3.35
319.734	2.71
320.108	3.19
320.482	3.05
320.855	3.37
321.229	3.24
321.602	2.18
321.976	3.05
322.349	3.01
322.723	3.39
323.096	3.44
323.469	2.66
323.843	3.4
324.216	3.14
324.589	3.99
324.962	3.54
325.335	3.57
325.708	3.53
326.081	3.32
326.454	3.34
326.827	3.32
327.2	3.84
327.573	3.55
327.945	3.52
328.318	3.17
328.691	3.78
329.063	3.81
329.436	3.18
329.809	3.41
330.181	3.18
330.553	3.53
330.926	3.72
331.298	3.64
331.671	3.85
332.043	4.4
332.415	3.77
332.787	4.18
333.159	3.97
333.532	3.69
333.904	3.59
334.276	3.63
334.648	3.46
335.02	3.42
335.391	3.66
335.763	3.67
336.135	4.03
336.507	3.05
336.879	4.33
337.25	3.15
337.622	3.9
337.993	3.66
338.365	4.18
338.736	3.82
339.108	3.81
339.479	3.85
339.851	4
340.222	3.97
340.593	3.47
340.964	3.85
341.336	3.47
341.707	3.44
342.078	3.6
342.449	3.8
342.82	3.8
343.191	3.96
343.562	3.99
343.933	4.18
344.303	3.81
344.674	4.13
345.045	4.33
345.416	4.02
345.786	3.88
346.157	4.11
346.527	3.61
346.898	3.94
347.268	3.92
347.639	4.32
348.009	4.4
348.38	4.4
348.75	4.01
349.12	4.4
349.49	4.33
349.861	4.32
350.231	4.24
350.601	4.92
350.971	4.23
351.341	4.56
351.711	4.63
352.081	4.4
352.45	4.1
352.82	4.48
353.19	4.48
353.56	4.81
353.929	4.27
354.299	4.66
354.669	4.25
355.038	4.25
355.408	4.15
355.777	4.98
356.147	4.78
356.516	4.47
356.885	4.77
357.254	4.71
357.624	4.63
357.993	4.3
358.362	4.9
358.731	4.53
359.1	4.26
359.469	4.6
359.838	4.43
360.207	5.32
360.576	4.74
360.945	4.79
361.314	4.43
361.682	4.85
362.051	4.59
362.42	4.68
362.788	4.7
363.157	4.84
363.525	4.99
363.894	4.75
364.262	5.09
364.631	4.75
364.999	4.8
365.367	4.95
365.735	5.11
366.104	4.78
366.472	4.67
366.84	5.13
367.208	4.76
367.576	5.15
367.944	5.27
368.312	5.17
368.68	5.51
369.048	4.96
369.416	5.05
369.783	5.19
370.151	5.56
370.519	5.1
370.886	5.08
371.254	5.29
371.621	5.24
371.989	5.36
372.356	5.11
372.724	5.32
373.091	5.21
373.458	4.95
373.826	5.31
374.193	5.46
374.56	4.71
374.927	5.29
375.294	5.49
375.661	5.65
376.028	5.15
376.395	5.61
376.762	5.35
377.129	5.34
377.496	5.39
377.863	5.54
378.229	5.53
378.596	5.57
378.963	5.73
379.329	5.74
379.696	5.35
380.062	5.6
380.429	5.85
380.795	5.92
381.161	5.87
381.528	5.68
381.894	5.89
382.26	5.79
382.626	5.97
382.993	5.59
383.359	6.11
383.725	5.99
384.091	5.94
384.457	5.51
384.823	5.61
385.188	6
385.554	5.61
385.92	5.77
386.286	5.87
386.651	5.55
387.017	6.06
387.383	5.99
387.748	6.3
388.114	6.1
388.479	5.85
388.845	6.34
389.21	6.22
389.575	6.05
389.94	6.47
390.306	6.39
390.671	6.2
391.036	6.22
391.401	5.99
391.766	6.45
392.131	6.38
392.496	6.17
392.861	6.29
393.226	6.33
393.591	6.19
393.956	6.27
394.32	6.38
394.685	6.55
395.05	6.41
395.414	6.41
395.779	6.43
396.143	6.48
396.508	6.47
396.872	6.66
397.236	6.42
397.601	6.84
397.965	6.63
398.329	6.8
398.694	6.73
399.058	6.71
399.422	6.55
399.786	6.54
400.15	6.49
400.514	7.13
400.878	6.78
401.242	6.79
401.605	6.89
401.969	6.8
402.333	7.06
402.697	7.06
403.06	6.78
403.424	6.96
403.787	6.86
404.151	6.78
404.514	6.95
404.878	6.88
405.241	6.98
405.604	7
405.968	6.99
406.331	6.9
406.694	7.13
407.057	7.23
407.42	7.06
407.783	7.2
408.146	7.2
408.509	7.17
408.872	7.49
409.235	7.06
409.598	7.4
409.961	7.26
410.323	7.51
410.686	7.15
411.049	7.07
411.411	7.07
411.774	7.16
412.136	7.32
412.499	7.55
412.861	7.4
413.223	7.42
413.586	7.49
413.948	7.49
414.31	7.3
414.672	7.55
415.035	7.65
415.397	7.55
415.759	7.61
416.121	7.66
416.483	7.67
416.845	7.55
417.206	7.38
417.568	7.74
417.93	7.59
418.292	7.75
418.653	7.68
419.015	7.64
419.377	7.59
419.738	7.7
420.1	7.71
420.461	7.76
420.822	7.6
421.184	7.59
421.545	7.68
421.906	7.65
422.267	7.55
422.629	7.67
422.99	7.74
423.351	7.66
423.712	7.73
424.073	7.86
424.434	7.85
424.795	7.87
425.155	7.79
425.516	7.84
425.877	7.89
426.238	8.02
426.598	8.01
426.959	7.95
427.32	8.13
427.68	8.17
428.041	8.22
428.401	8.15
428.761	8.2
429.122	8.4
429.482	8.45
429.842	8.44
430.202	8.35
430.563	8.22
430.923	8.62
431.283	8.48
431.643	8.48
432.003	8.47
432.363	8.68
432.722	8.65
433.082	8.46
433.442	8.59
433.802	8.6
434.161	8.61
434.521	8.46
434.881	8.55
435.24	8.57
435.6	8.72
435.959	8.74
436.319	8.81
436.678	8.67
437.037	8.66
437.396	8.9
437.756	8.81
438.115	9
438.474	8.75
438.833	8.93
439.192	8.71
439.551	8.86
439.91	9.03
440.269	8.83
440.628	8.84
440.987	8.86
441.345	8.97
441.704	9.01
442.063	9.03
442.421	8.92
442.78	8.97
443.138	9.06
443.497	9.12
443.855	9.24
444.214	9.3
444.572	9.4
444.93	9.26
445.288	9.19
445.647	9.33
446.005	9.16
446.363	9.34
446.721	9.25
447.079	9.27
447.437	9.17
447.795	9.24
448.153	9.3
448.51	9.31
448.868	9.39
449.226	9.34
449.584	9.45
449.941	9.44
450.299	9.68
450.656	9.67
451.014	9.63
451.371	9.69
451.729	9.67
452.086	9.91
452.443	9.83
452.801	9.92
453.158	9.79
453.515	9.85
453.872	9.81
454.229	9.89
454.586	9.81
454.943	9.81
455.3	10.03
455.657	9.99
456.014	10.17
456.371	10.14
456.727	10.2
457.084	10.09
457.441	10.21
457.797	10.17
458.154	10.17
458.51	10.03
458.867	10.21
459.223	10.65
459.58	10.3
459.936	10.39
460.292	10.26
460.648	10.11
461.005	9.93
461.361	10.1
461.717	10.18
462.073	10.41
462.429	10.59
462.785	10.65
463.141	10.65
463.496	10.76
463.852	10.73
464.208	10.73
464.564	10.81
464.919	10.74
465.275	10.87
465.631	10.77
465.986	10.93
466.342	10.6
466.697	10.89
467.052	10.79
467.408	10.94
467.763	10.88
468.118	10.85
468.473	11.04
468.829	10.99
469.184	11.25
469.539	10.98
469.894	11.02
470.249	11.11
470.603	11.21
470.958	11.31
471.313	11.24
471.668	11.26
472.023	11.26
472.377	11.4
472.732	11.57
473.086	11.44
473.441	11.23
473.795	11.54
474.15	11.41
474.504	11.37
474.859	11.58
475.213	11.71
475.567	11.85
475.921	11.42
476.275	11.63
476.63	11.95
476.984	11.69
477.338	11.62
477.692	11.61
478.045	11.68
478.399	11.94
478.753	11.59
479.107	11.67
479.461	11.74
479.814	11.76
480.168	11.94
480.521	11.77
480.875	11.96
481.228	12.07
481.582	12.15
481.935	11.88
482.289	11.83
482.642	11.77
482.995	12
483.348	11.95
483.701	11.79
484.055	11.75
484.408	11.51
484.761	11.34
485.114	11.17
485.466	11.21
485.819	11.42
486.172	11.62
486.525	11.81
486.878	11.89
487.23	12.05
487.583	11.96
487.936	11.97
488.288	11.86
488.641	11.74
488.993	11.73
489.345	11.8
489.698	11.86
490.05	12.02
490.402	12.24
490.754	12.38
491.107	12.45
491.459	12.5
491.811	12.43
492.163	12.36
492.515	12.15
492.866	12
493.218	12.07
493.57	12.27
493.922	12.47
494.274	12.63
494.625	12.84
494.977	12.96
495.328	12.89
495.68	13.07
496.031	13.25
496.383	13.05
496.734	13.07
497.086	13.21
497.437	13.3
497.788	13.16
498.139	13.07
498.49	13.14
498.842	13.12
499.193	13.27
499.544	13.39
499.894	13.32
500.245	13.35
500.596	13.38
500.947	13.48
501.298	13.62
501.648	13.6
501.999	13.68
502.35	13.73
502.7	13.79
503.051	13.81
503.401	13.9
503.752	13.82
504.102	13.79
504.452	13.95
504.803	13.76
505.153	13.8
505.503	13.88
505.853	13.89
506.203	13.89
506.553	14.02
506.903	14.01
507.253	14.21
507.603	14.17
507.953	14.22
508.303	14.21
508.652	14.06
509.002	14.15
509.352	14.12
509.701	14.15
510.051	14.13
510.4	14.09
510.75	14.09
511.099	14.28
511.449	14.4
511.798	14.41
512.147	14.38
512.496	14.53
512.846	14.6
513.195	14.46
513.544	14.41
513.893	14.47
514.242	14.62
514.591	14.76
514.939	14.59
515.288	14.76
515.637	14.75
515.986	14.79
516.334	14.79
516.683	14.93
517.032	14.9
517.38	14.98
517.729	14.98
518.077	14.93
518.426	14.9
518.774	14.95
519.122	14.9
519.47	14.78
519.819	14.7
520.167	14.62
520.515	14.8
520.863	14.87
521.211	15
521.559	15.14
521.907	15.25
522.255	15.25
522.602	15.31
522.95	15.42
523.298	15.48
523.645	15.51
523.993	15.42
524.341	15.55
524.688	15.41
525.036	15.57
525.383	15.61
525.73	15.68
526.078	15.54
526.425	15.48
526.772	15.27
527.119	15.18
527.466	15.38
527.814	15.44
528.161	15.45
528.508	15.44
528.854	15.52
529.201	15.28
529.548	15.07
529.895	14.83
530.242	14.91
530.588	15.11
530.935	15.33
531.282	15.41
531.628	15.64
531.975	15.76
532.321	15.89
532.667	15.93
533.014	15.95
533.36	15.94
533.706	15.92
534.052	15.84
534.399	15.75
534.745	15.52
535.091	15.66
535.437	15.92
535.783	16.08
536.129	16.15
536.474	16.24
536.82	16.31
537.166	16.53
537.512	16.34
537.857	16.21
538.203	16.24
538.549	16.22
538.894	16.49
539.239	16.66
539.585	16.73
539.93	16.78
540.276	17.01
540.621	16.81
540.966	16.86
541.311	16.99
541.656	16.83
542.001	16.6
542.346	16.38
542.691	16.21
543.036	16.18
543.381	16.47
543.726	16.48
544.071	16.74
544.415	16.91
544.76	16.91
545.105	17.07
545.449	17.2
545.794	17.25
546.138	17.44
546.483	17.38
546.827	17.36
547.171	17.41
547.516	17.37
547.86	17.26
548.204	17.4
548.548	17.35
548.892	17.57
549.236	17.69
549.58	17.79
549.924	18.02
550.268	18.03
550.612	18.15
550.956	18.12
551.3	18.27
551.643	18.1
551.987	18.35
552.33	18.38
552.674	18.12
553.017	18.34
553.361	18.33
553.704	18.48
554.048	18.22
554.391	18.21
554.734	18.31
555.077	18.43
555.42	18.57
555.764	18.65
556.107	18.57
556.45	18.59
556.793	18.67
557.135	18.79
557.478	18.65
557.821	18.72
558.164	18.73
558.507	18.88
558.849	19.02
559.192	19.04
559.534	18.99
559.877	19.11
560.219	19.3
560.562	19.08
560.904	19.14
561.246	19.13
561.589	19.24
561.931	19.03
562.273	19.13
562.615	19.01
562.957	19.2
563.299	19.35
563.641	19.28
563.983	19.57
564.325	19.28
564.667	19.71
565.008	19.48
565.35	19.54
565.692	19.51
566.033	19.5
566.375	19.41
566.716	19.7
567.058	19.61
567.399	19.53
567.741	19.67
568.082	19.46
568.423	19.8
568.764	19.67
569.105	19.83
569.447	19.99
569.788	19.88
570.129	20.16
570.47	20
570.811	19.82
571.151	19.88
571.492	19.82
571.833	20.07
572.174	20.39
572.514	20.05
572.855	20.12
573.195	20.02
573.536	19.98
573.876	20.05
574.217	20.07
574.557	20.22
574.898	20.32
575.238	20.58
575.578	20.18
575.918	20.36
576.258	20.54
576.598	20.54
576.938	20.37
577.278	20.66
577.618	20.74
577.958	20.64
578.298	20.66
578.638	20.77
578.977	21.01
579.317	20.84
579.657	21.09
579.996	21.08
580.336	21.19
580.675	21.25
581.014	21.08
581.354	21.25
581.693	21.29
582.032	21.19
582.372	21.52
582.711	21.29
583.05	21.24
583.389	21.27
583.728	21.49
584.067	21.35
584.406	21.42
584.745	21.62
585.083	21.56
585.422	21.72
585.761	21.77
586.1	21.77
586.438	21.99
586.777	21.86
587.115	21.88
587.454	22.19
587.792	21.77
588.13	22.12
588.469	22.11
588.807	22.14
589.145	22.05
589.483	21.98
589.821	22.16
590.159	21.93
590.497	22.01
590.835	21.97
591.173	22.09
591.511	22.03
591.849	21.98
592.187	22.19
592.524	22.16
592.862	22
593.2	22.35
593.537	22.61
593.875	22.52
594.212	22.43
594.55	22.48
594.887	22.47
595.224	22.64
595.561	22.49
595.899	22.66
596.236	22.78
596.573	22.91
596.91	22.53
597.247	22.77
597.584	22.59
597.921	22.55
598.258	22.48
598.594	22.44
598.931	22.51
599.268	22.76
599.604	22.64
599.941	22.91
600.277	22.98
600.614	23.12
600.95	23.26
601.287	23.3
601.623	23.27
601.959	23.2
602.296	23.14
602.632	23.04
602.968	23.24
603.304	23.35
603.64	23.53
603.976	23.19
604.312	23.15
604.648	23.23
604.984	23.23
605.319	23.24
605.655	23.3
605.991	23.17
606.326	23.27
606.662	23.45
606.998	23.56
607.333	23.56
607.668	23.47
608.004	23.78
608.339	23.8
608.674	24.01
609.01	24.1
609.345	24.19
609.68	24.07
610.015	23.99
610.35	23.74
610.685	23.85
611.02	23.7
611.355	23.72
611.689	24.2
612.024	23.81
612.359	24.05
612.694	24.04
613.028	24.14
613.363	24.42
613.697	24.49
614.032	24.4
614.366	24.5
614.7	24.25
615.035	24.53
615.369	24.69
615.703	24.65
616.037	24.7
616.371	24.64
616.705	24.48
617.039	24.59
617.373	24.49
617.707	24.99
618.041	24.9
618.375	24.59
618.709	24.74
619.042	24.82
619.376	25.24
619.71	25.08
620.043	24.88
620.377	25.04
620.71	25
621.043	25.38
621.377	24.83
621.71	25.14
622.043	25.3
622.376	25.69
622.709	25.25
623.043	25.42
623.376	25.93
623.709	25.43
624.041	25.5
624.374	25.6
624.707	25.45
625.04	26.21
625.373	25.67
625.705	25.27
626.038	25.85
626.37	25.49
626.703	25.75
627.035	26.05
627.368	25.74
627.7	26.05
628.032	25.78
628.365	25.52
628.697	25.6
629.029	25.75
629.361	25.78
629.693	26.37
630.025	26.05
630.357	25.89
630.689	26.08
631.021	26.26
631.353	26.26
631.684	26.2
632.016	26.14
632.348	26.02
632.679	26.06
633.011	26.47
633.342	26.43
633.674	26.39
634.005	26.57
634.336	26.29
634.668	26.2
634.999	26.36
635.33	26.61
635.661	26.22
635.992	26.54
636.323	26.74
636.654	26.39
636.985	27.06
637.316	26.68
637.647	26.91
637.977	27.26
638.308	26.76
638.639	27.11
638.969	26.71
639.3	27.11
639.63	26.97
639.961	26.92
640.291	26.88
640.622	27.01
640.952	27.05
641.282	27.65
641.612	27.5
641.943	27.32
642.273	27.47
642.603	27.25
642.933	27.15
643.263	27.48
643.592	27.68
643.922	27.43
644.252	27.68
644.582	27.14
644.911	27.72
645.241	27.71
645.571	27.76
645.9	27.53
646.23	27.32
646.559	27.76
646.888	27.97
647.218	27.43
647.547	28.17
647.876	27.82
648.205	28.14
648.534	28.13
648.863	27.59
649.192	27.88
649.521	28.41
649.85	28.22
650.179	28.13
650.508	28.22
650.837	28.11
651.165	28.1
651.494	28.38
651.822	28.66
652.151	28.44
652.479	27.86
652.808	28.03
653.136	28.25
653.465	27.78
653.793	28.01
654.121	28.64
654.449	28.54
654.777	28.09
655.105	28.52
655.433	28.36
655.761	28.8
656.089	28.52
656.417	29.01
656.745	29.3
657.073	28.75
657.4	28.49
657.728	28.96
658.056	29.15
658.383	29.08
658.711	29.06
659.038	28.7
659.365	29.2
659.693	29.11
660.02	28.71
660.347	29.13
660.674	28.89
661.001	28.86
661.329	28.97
661.656	28.94
661.982	29.02
662.309	29.2
662.636	29.26
662.963	28.98
663.29	29.45
663.616	29.39
663.943	29.86
664.27	29.99
664.596	29.59
664.923	29.33
665.249	29.49
665.576	29.89
665.902	29.71
666.228	30.03
666.554	29.31
666.881	29.47
667.207	30.18
667.533	29.51
667.859	29.22
668.185	30.05
668.511	30.5
668.837	29.77
669.162	29.65
669.488	29.47
669.814	29.58
670.139	30.02
670.465	30.07
670.791	30.43
671.116	30.34
671.442	30.65
671.767	30.62
672.092	30.84
672.418	30.22
672.743	29.86
673.068	30.33
673.393	31.08
673.718	30.24
674.043	29.9
674.368	29.66
674.693	29.96
675.018	30.12
675.343	30.05
675.667	30.77
675.992	31.37
676.317	31.27
676.641	30.94
676.966	30.63
677.29	30.77
677.615	31.01
