Data from 0031_forehead_Reflection__3__150.txt Node

Date: Thu Oct 20 22:04:27 CDT 2022
User: ToomeyLab
Spectrometer: FLMS14357
Trigger mode: 0
Integration Time (sec): 1.000000E-2
Scans to average: 100
Electric dark correction enabled: true
Nonlinearity correction enabled: false
Boxcar width: 0
XAxis mode: Wavelengths
Number of Pixels in Spectrum: 2048
>>>>>Begin Spectral Data<<<<<
189.047	88.79
189.435	88.79
189.823	88.79
190.211	524.15
190.599	-133.1
190.987	111.14
191.375	141.61
191.763	-133.71
192.151	155.29
192.538	315.05
192.926	92.21
193.314	21.23
193.702	1119.67
194.089	666.32
194.477	-84.42
194.864	542.96
195.252	87.65
195.639	119.82
196.027	-60.64
196.414	100.88
196.801	-4112.9
197.189	244.75
197.576	-425.93
197.963	48.59
198.351	4.64
198.738	-16.53
199.125	27.32
199.512	21.68
199.899	-0.45
200.286	-13.16
200.673	9.8
201.06	29
201.447	49.48
201.833	1.56
202.22	-4.12
202.607	39.59
202.994	-20.29
203.38	-40.18
203.767	4.11
204.154	11.91
204.54	-13.02
204.927	-35.11
205.313	15.69
205.699	-6.18
206.086	-16.86
206.472	-26.21
206.858	-14.75
207.245	12.13
207.631	-14.37
208.017	23.67
208.403	-93.16
208.789	-5.46
209.175	14.2
209.561	-0.24
209.947	-5.64
210.333	1.91
210.719	30.42
211.105	21.08
211.491	-41.63
211.876	31.29
212.262	-8.41
212.648	-6.41
213.034	-0.13
213.419	-4.07
213.805	6.9
214.19	-0.57
214.576	-21.19
214.961	-39.53
215.346	-2.29
215.732	7.42
216.117	-35.34
216.502	-0.1
216.888	1.25
217.273	-11.64
217.658	22.59
218.043	16.78
218.428	-14.31
218.813	10.73
219.198	12.07
219.583	20.6
219.968	30.16
220.353	-8.54
220.738	3.15
221.122	13.92
221.507	-13.65
221.892	1.22
222.276	13.73
222.661	16.09
223.046	8.11
223.43	-6.49
223.815	-3.82
224.199	-4.83
224.583	1.83
224.968	6.43
225.352	6.08
225.736	9.79
226.121	-5.38
226.505	8.13
226.889	-1.57
227.273	4.29
227.657	6.52
228.041	1.69
228.425	3.41
228.809	3.67
229.193	2.4
229.577	0.32
229.961	1.81
230.344	1.97
230.728	2.01
231.112	1.86
231.495	2.47
231.879	2.3
232.263	2.49
232.646	2.33
233.03	2.43
233.413	1.41
233.797	0.58
234.18	2.83
234.563	2.77
234.946	2.73
235.33	1.53
235.713	2.23
236.096	-0.71
236.479	3.34
236.862	2.72
237.245	1.18
237.628	0.8
238.011	1.77
238.394	4.09
238.777	3.45
239.16	3.64
239.543	0.89
239.925	2.77
240.308	2.28
240.691	3.1
241.073	3.02
241.456	2.42
241.838	1.53
242.221	1.46
242.603	2.43
242.986	2.5
243.368	2.47
243.75	2.74
244.133	2.78
244.515	2.4
244.897	1.94
245.279	1.51
245.661	3.04
246.043	2.8
246.425	3.13
246.807	2.86
247.189	2.52
247.571	2.65
247.953	2.31
248.335	2.46
248.717	2.49
249.098	2.4
249.48	2.58
249.862	2.79
250.243	2.08
250.625	2.74
251.006	3.16
251.388	3.03
251.769	1.77
252.151	2.49
252.532	1.93
252.913	2.17
253.295	2.33
253.676	2.79
254.057	1.8
254.438	3.17
254.819	3.03
255.2	2.96
255.581	2.7
255.962	3.26
256.343	2.75
256.724	1.96
257.105	2.32
257.486	3.01
257.867	2.46
258.247	2.09
258.628	2.89
259.009	1.89
259.389	2.69
259.77	2.44
260.15	2.57
260.531	2.51
260.911	2.1
261.292	2.59
261.672	2.59
262.052	2.62
262.432	2.86
262.813	2.68
263.193	2.6
263.573	2.66
263.953	2.68
264.333	2.22
264.713	2.9
265.093	1.84
265.473	2.45
265.853	2.99
266.233	2.17
266.612	3.07
266.992	2.15
267.372	3.3
267.752	2.25
268.131	2.94
268.511	2.53
268.89	2.56
269.27	2.34
269.649	2.21
270.029	1.65
270.408	2.5
270.787	1.97
271.167	2.25
271.546	2.23
271.925	2.5
272.304	2.77
272.683	2.6
273.062	2.67
273.441	2.43
273.82	2.97
274.199	2.46
274.578	2.2
274.957	2.4
275.336	2.8
275.715	2.37
276.093	3.04
276.472	2.89
276.851	2.61
277.229	2.42
277.608	2.66
277.986	2.98
278.365	2.54
278.743	2.51
279.122	2.22
279.5	2.53
279.878	3.19
280.257	2.59
280.635	2.6
281.013	2.31
281.391	2.81
281.769	2.84
282.147	2.06
282.525	2.3
282.903	2.62
283.281	2.1
283.659	2.36
284.037	2.27
284.415	2.41
284.792	1.8
285.17	2.64
285.548	2.37
285.925	2.39
286.303	2.14
286.68	2.71
287.058	2.57
287.435	2.28
287.813	2.27
288.19	2.33
288.567	2.73
288.945	2.45
289.322	2.24
289.699	1.92
290.076	2.63
290.453	2.4
290.83	2.87
291.207	2.75
291.584	2.45
291.961	2.57
292.338	2.4
292.715	2.52
293.092	3.34
293.469	2.97
293.845	2.49
294.222	3.06
294.599	3.33
294.975	2.67
295.352	3.13
295.728	2.52
296.105	3.16
296.481	2.65
296.858	3.1
297.234	2.8
297.61	2.43
297.986	2.65
298.363	2.87
298.739	2.66
299.115	2.91
299.491	3.13
299.867	2.51
300.243	3.16
300.619	2.96
300.995	2.55
301.371	3.52
301.746	2.59
302.122	3.68
302.498	3.21
302.874	3.62
303.249	3.13
303.625	3.14
304	3.73
304.376	2.77
304.751	3.15
305.127	2.68
305.502	2.97
305.878	2.99
306.253	2.69
306.628	2.89
307.003	3
307.378	2.72
307.754	2.89
308.129	3.27
308.504	3.37
308.879	3.01
309.254	3.45
309.629	3.53
310.003	2.93
310.378	3.24
310.753	3.44
311.128	3.28
311.502	3.41
311.877	3.75
312.252	3.19
312.626	3.26
313.001	3.64
313.375	3.62
313.75	3.01
314.124	3.6
314.498	3.09
314.873	3.54
315.247	4.12
315.621	3.96
315.995	3.68
316.369	3.74
316.743	3.52
317.117	3.91
317.491	3.89
317.865	3.68
318.239	4.02
318.613	3.99
318.987	3.69
319.361	4.33
319.734	3.52
320.108	4.09
320.482	3.81
320.855	4.04
321.229	3.87
321.602	3.23
321.976	3.74
322.349	3.54
322.723	3.93
323.096	3.91
323.469	4.15
323.843	4.16
324.216	3.71
324.589	4.42
324.962	3.94
325.335	4.36
325.708	4.29
326.081	4.62
326.454	4
326.827	3.86
327.2	4.75
327.573	4.23
327.945	3.98
328.318	3.98
328.691	4.23
329.063	4.27
329.436	4.59
329.809	4.15
330.181	4.18
330.553	4.01
330.926	4.55
331.298	4.49
331.671	4.65
332.043	4.33
332.415	4.01
332.787	4.59
333.159	4.69
333.532	4.56
333.904	4.91
334.276	4.47
334.648	4.19
335.02	4.43
335.391	4.68
335.763	5
336.135	4.87
336.507	3.97
336.879	5.2
337.25	4.58
337.622	5.16
337.993	4.28
338.365	5.19
338.736	4.99
339.108	4.82
339.479	4.5
339.851	4.72
340.222	4.61
340.593	4.92
340.964	5.01
341.336	4.49
341.707	4.64
342.078	4.51
342.449	4.65
342.82	4.86
343.191	4.99
343.562	5.2
343.933	4.71
344.303	4.85
344.674	4.89
345.045	4.98
345.416	5.01
345.786	5
346.157	4.78
346.527	4.58
346.898	4.9
347.268	5.25
347.639	5.11
348.009	5.35
348.38	5.23
348.75	5.29
349.12	5.26
349.49	5.44
349.861	5.15
350.231	5.09
350.601	5.57
350.971	5.22
351.341	5.55
351.711	5.35
352.081	4.93
352.45	5.56
352.82	4.96
353.19	5.28
353.56	5.53
353.929	5.1
354.299	5.77
354.669	5.54
355.038	5.43
355.408	5.13
355.777	5.76
356.147	5.53
356.516	5.46
356.885	5.48
357.254	5.56
357.624	5.65
357.993	5.32
358.362	5.72
358.731	5.54
359.1	5.26
359.469	5.73
359.838	5.72
360.207	5.83
360.576	5.36
360.945	5.79
361.314	5.84
361.682	5.72
362.051	5.46
362.42	5.86
362.788	5.76
363.157	5.6
363.525	5.85
363.894	5.92
364.262	6.02
364.631	5.65
364.999	5.67
365.367	6.17
365.735	5.96
366.104	5.84
366.472	6.07
366.84	6.28
367.208	6.06
367.576	6.14
367.944	6.23
368.312	6
368.68	6.22
369.048	6.13
369.416	6.2
369.783	6.48
370.151	6.41
370.519	6.41
370.886	5.99
371.254	6.4
371.621	6.34
371.989	6.37
372.356	6.46
372.724	6.53
373.091	6.3
373.458	5.96
373.826	6.28
374.193	6.48
374.56	6.29
374.927	5.85
375.294	6.4
375.661	6.89
376.028	6.43
376.395	6.91
376.762	6.54
377.129	6.45
377.496	6.51
377.863	6.5
378.229	6.49
378.596	6.7
378.963	6.63
379.329	6.89
379.696	6.83
380.062	6.79
380.429	7.09
380.795	7.01
381.161	6.93
381.528	6.84
381.894	6.92
382.26	6.96
382.626	6.99
382.993	6.82
383.359	6.93
383.725	7.1
384.091	7.16
384.457	6.74
384.823	7
385.188	7.1
385.554	6.71
385.92	7.16
386.286	7.09
386.651	6.94
387.017	7.1
387.383	7.12
387.748	7.3
388.114	7.5
388.479	7.33
388.845	7.52
389.21	7.48
389.575	7.29
389.94	7.6
390.306	7.64
390.671	7.65
391.036	7.46
391.401	7.11
391.766	7.69
392.131	7.76
392.496	7.37
392.861	7.45
393.226	7.62
393.591	7.78
393.956	7.83
394.32	7.71
394.685	7.98
395.05	7.44
395.414	7.77
395.779	7.71
396.143	7.84
396.508	7.9
396.872	7.9
397.236	7.85
397.601	8.07
397.965	8.02
398.329	8.03
398.694	7.95
399.058	7.83
399.422	8.17
399.786	8.13
400.15	8.23
400.514	8.27
400.878	8.17
401.242	8.19
401.605	8.47
401.969	8.27
402.333	8.36
402.697	8.49
403.06	8.33
403.424	8.46
403.787	8.39
404.151	8.45
404.514	8.17
404.878	8.26
405.241	8.43
405.604	8.28
405.968	8.3
406.331	8.25
406.694	8.48
407.057	8.61
407.42	8.63
407.783	8.54
408.146	8.62
408.509	8.58
408.872	8.61
409.235	8.7
409.598	8.83
409.961	8.74
410.323	8.92
410.686	8.81
411.049	8.68
411.411	8.62
411.774	8.79
412.136	9.05
412.499	8.93
412.861	8.6
413.223	8.98
413.586	8.7
413.948	9.04
414.31	8.9
414.672	8.83
415.035	9.17
415.397	9.09
415.759	8.92
416.121	9.09
416.483	8.93
416.845	9.14
417.206	8.99
417.568	9.18
417.93	9
418.292	9.21
418.653	9.21
419.015	9.27
419.377	9.07
419.738	9.05
420.1	9.15
420.461	9.31
420.822	9.2
421.184	9.13
421.545	9.2
421.906	9.23
422.267	9.06
422.629	9.09
422.99	9.27
423.351	9.29
423.712	9.39
424.073	9.42
424.434	9.44
424.795	9.43
425.155	9.31
425.516	9.44
425.877	9.33
426.238	9.61
426.598	9.52
426.959	9.76
427.32	9.72
427.68	9.77
428.041	9.85
428.401	9.96
428.761	9.83
429.122	10.01
429.482	10.03
429.842	10.13
430.202	10.05
430.563	10.06
430.923	10.13
431.283	10.09
431.643	10.11
432.003	10.24
432.363	10.39
432.722	10.38
433.082	10.03
433.442	10.21
433.802	10.31
434.161	10.29
434.521	10.12
434.881	10.23
435.24	10.15
435.6	10.36
435.959	10.43
436.319	10.54
436.678	10.55
437.037	10.63
437.396	10.74
437.756	10.61
438.115	10.63
438.474	10.58
438.833	10.86
439.192	10.59
439.551	10.68
439.91	10.69
440.269	10.55
440.628	10.76
440.987	10.64
441.345	10.7
441.704	10.75
442.063	10.78
442.421	10.58
442.78	10.79
443.138	10.95
443.497	11.07
443.855	11.09
444.214	11.22
444.572	11.27
444.93	10.87
445.288	10.99
445.647	11.21
446.005	11.16
446.363	10.99
446.721	11.08
447.079	11.13
447.437	10.99
447.795	11.09
448.153	11.15
448.51	11.22
448.868	11.34
449.226	11.38
449.584	11.35
449.941	11.54
450.299	11.61
450.656	11.69
451.014	11.63
451.371	11.58
451.729	11.62
452.086	11.93
452.443	11.76
452.801	11.82
453.158	11.83
453.515	11.79
453.872	11.63
454.229	11.61
454.586	11.96
454.943	11.97
455.3	12.01
455.657	12.17
456.014	12.12
456.371	12.14
456.727	12.19
457.084	12.09
457.441	12.4
457.797	12.14
458.154	12.41
458.51	12.39
458.867	12.18
459.223	12.48
459.58	12.28
459.936	12.29
460.292	12.13
460.648	12.21
461.005	11.95
461.361	12.06
461.717	12.24
462.073	12.51
462.429	12.73
462.785	12.62
463.141	12.84
463.496	12.94
463.852	12.81
464.208	12.97
464.564	12.73
464.919	13.05
465.275	13.06
465.631	12.78
465.986	12.82
466.342	12.83
466.697	12.97
467.052	13.03
467.408	13.14
467.763	13.08
468.118	13.18
468.473	13.24
468.829	13.2
469.184	13.32
469.539	13.21
469.894	13.29
470.249	13.56
470.603	13.31
470.958	13.49
471.313	13.45
471.668	13.5
472.023	13.53
472.377	13.57
472.732	13.61
473.086	13.67
473.441	13.75
473.795	13.69
474.15	13.78
474.504	13.6
474.859	13.84
475.213	13.98
475.567	14.14
475.921	13.92
476.275	14.07
476.63	14.15
476.984	14.11
477.338	14
477.692	13.9
478.045	13.86
478.399	14.13
478.753	14
479.107	14.09
479.461	14
479.814	14.2
480.168	14.23
480.521	14.16
480.875	14.47
481.228	14.22
481.582	14.4
481.935	14.42
482.289	14.32
482.642	14.07
482.995	14.32
483.348	14.3
483.701	14.09
484.055	13.93
484.408	13.69
484.761	13.43
485.114	13.14
485.466	13.28
485.819	13.66
486.172	14.14
486.525	14.41
486.878	14.61
487.23	14.6
487.583	14.55
487.936	14.27
488.288	14.05
488.641	13.91
488.993	14.01
489.345	14.08
489.698	14.28
490.05	14.45
490.402	14.82
490.754	15.03
491.107	15.09
491.459	15.03
491.811	15.09
492.163	14.82
492.515	14.48
492.866	14.29
493.218	14.29
493.57	14.69
493.922	15.03
494.274	15.32
494.625	15.61
494.977	15.73
495.328	15.55
495.68	15.77
496.031	15.88
496.383	15.79
496.734	15.7
497.086	15.68
497.437	15.85
497.788	15.64
498.139	15.5
498.49	15.69
498.842	15.81
499.193	15.91
499.544	15.93
499.894	16.07
500.245	16.1
500.596	16.15
500.947	16.19
501.298	16.39
501.648	16.22
501.999	16.43
502.35	16.59
502.7	16.54
503.051	16.59
503.401	16.61
503.752	16.62
504.102	16.47
504.452	16.78
504.803	16.5
505.153	16.65
505.503	16.73
505.853	16.69
506.203	16.79
506.553	16.78
506.903	16.66
507.253	17.05
507.603	16.95
507.953	16.92
508.303	16.99
508.652	16.93
509.002	16.91
509.352	16.96
509.701	17
510.051	16.86
510.4	16.82
510.75	16.97
511.099	17.02
511.449	17.26
511.798	17.12
512.147	17.3
512.496	17.21
512.846	17.39
513.195	17.34
513.544	17.3
513.893	17.39
514.242	17.31
514.591	17.61
514.939	17.6
515.288	17.75
515.637	17.68
515.986	17.62
516.334	17.84
516.683	17.84
517.032	17.74
517.38	17.84
517.729	17.85
518.077	17.86
518.426	18
518.774	17.82
519.122	17.7
519.47	17.53
519.819	17.46
520.167	17.41
520.515	17.72
520.863	17.89
521.211	18.06
521.559	18.12
521.907	18.2
522.255	18.23
522.602	18.19
522.95	18.52
523.298	18.37
523.645	18.59
523.993	18.55
524.341	18.62
524.688	18.63
525.036	18.6
525.383	18.58
525.73	18.62
526.078	18.62
526.425	18.35
526.772	18.16
527.119	17.98
527.466	18.25
527.814	18.35
528.161	18.5
528.508	18.54
528.854	18.46
529.201	18.08
529.548	17.8
529.895	17.5
530.242	17.6
530.588	18.02
530.935	18.45
531.282	18.58
531.628	18.88
531.975	18.97
532.321	19.09
532.667	19.1
533.014	19.16
533.36	19.07
533.706	18.86
534.052	18.83
534.399	18.58
534.745	18.36
535.091	18.49
535.437	19.01
535.783	19.3
536.129	19.48
536.474	19.65
536.82	19.7
537.166	19.63
537.512	19.46
537.857	19.13
538.203	19.15
538.549	19.45
538.894	19.77
539.239	19.9
539.585	20.12
539.93	20.13
540.276	20.2
540.621	20.09
540.966	20.12
541.311	20.14
541.656	19.88
542.001	19.5
542.346	19.3
542.691	18.98
543.036	19.12
543.381	19.55
543.726	19.76
544.071	20.07
544.415	20.28
544.76	20.1
545.105	20.32
545.449	20.41
545.794	20.55
546.138	20.71
546.483	20.69
546.827	20.58
547.171	20.6
547.516	20.65
547.86	20.53
548.204	20.6
548.548	20.55
548.892	20.7
549.236	21.03
549.58	21.07
549.924	21.35
550.268	21.44
550.612	21.68
550.956	21.51
551.3	21.71
551.643	21.48
551.987	21.87
552.33	21.51
552.674	21.62
553.017	21.53
553.361	21.78
553.704	21.63
554.048	21.48
554.391	21.58
554.734	21.5
555.077	21.89
555.42	22.01
555.764	21.92
556.107	22.01
556.45	22.02
556.793	22.16
557.135	22.2
557.478	22.31
557.821	22.43
558.164	22.36
558.507	22.38
558.849	22.56
559.192	22.5
559.534	22.55
559.877	22.63
560.219	22.75
560.562	22.93
560.904	22.53
561.246	22.75
561.589	23.02
561.931	22.74
562.273	22.81
562.615	22.77
562.957	22.42
563.299	22.82
563.641	22.85
563.983	23.26
564.325	23.15
564.667	23.07
565.008	23.07
565.35	23.38
565.692	23.08
566.033	22.9
566.375	22.96
566.716	23.19
567.058	23.17
567.399	22.96
567.741	22.96
568.082	23.13
568.423	23.24
568.764	23.31
569.105	23.55
569.447	23.73
569.788	23.65
570.129	23.72
570.47	23.51
570.811	23.44
571.151	23.69
571.492	23.44
571.833	23.57
572.174	23.75
572.514	23.68
572.855	23.76
573.195	23.54
573.536	23.61
573.876	23.57
574.217	23.73
574.557	23.82
574.898	24.18
575.238	24.19
575.578	24.13
575.918	23.95
576.258	23.97
576.598	23.99
576.938	23.89
577.278	24.29
577.618	24.6
577.958	24.28
578.298	24.44
578.638	24.31
578.977	24.42
579.317	24.35
579.657	24.48
579.996	24.66
580.336	24.72
580.675	24.97
581.014	24.88
581.354	25.01
581.693	24.95
582.032	25.31
582.372	24.97
582.711	24.98
583.05	25
583.389	25.25
583.728	25.08
584.067	25.2
584.406	25.31
584.745	25.1
585.083	25.26
585.422	25.47
585.761	25.48
586.1	25.47
586.438	25.66
586.777	25.66
587.115	25.83
587.454	25.8
587.792	25.71
588.13	25.65
588.469	25.86
588.807	25.76
589.145	25.84
589.483	25.58
589.821	25.78
590.159	26
590.497	25.75
590.835	25.79
591.173	25.98
591.511	25.79
591.849	26.05
592.187	25.85
592.524	26.13
592.862	26.35
593.2	26.11
593.537	26.54
593.875	26.36
594.212	26.28
594.55	26.47
594.887	26.34
595.224	26.17
595.561	26.36
595.899	26.39
596.236	26.32
596.573	26.5
596.91	26.49
597.247	26.45
597.584	26.26
597.921	26.32
598.258	26.23
598.594	26.14
598.931	26.39
599.268	26.55
599.604	26.67
599.941	26.98
600.277	27.1
600.614	27.42
600.95	26.96
601.287	27.04
601.623	27.19
601.959	26.97
602.296	27.13
602.632	27.15
602.968	27.02
603.304	27.17
603.64	27.62
603.976	27.17
604.312	27.19
604.648	27.11
604.984	27.05
605.319	27.07
605.655	27.02
605.991	26.94
606.326	27
606.662	27.11
606.998	27.54
607.333	27.45
607.668	27.68
608.004	27.92
608.339	27.91
608.674	27.99
609.01	27.83
609.345	27.87
609.68	27.35
610.015	27.66
610.35	27.73
610.685	27.59
611.02	27.8
611.355	27.61
611.689	27.91
612.024	28.18
612.359	27.97
612.694	28.3
613.028	28.34
613.363	28.53
613.697	28.47
614.032	28.7
614.366	28.63
614.7	28.28
615.035	28.44
615.369	28.65
615.703	28.72
616.037	28.56
616.371	28.6
616.705	28.88
617.039	28.9
617.373	28.88
617.707	28.76
618.041	28.8
618.375	28.95
618.709	28.79
619.042	28.78
619.376	29.1
619.71	29.21
620.043	28.89
620.377	29.25
620.71	29.07
621.043	29.12
621.377	28.93
621.71	28.92
622.043	29.13
622.376	29.48
622.709	29.39
623.043	29.24
623.376	29.87
623.709	29.36
624.041	29.28
624.374	29.53
624.707	29.55
625.04	30.3
625.373	29.53
625.705	29.72
626.038	30.07
626.37	29.61
626.703	29.7
627.035	29.9
627.368	29.93
627.7	29.54
628.032	29.84
628.365	29.64
628.697	29.71
629.029	29.65
629.361	29.85
629.693	30.25
630.025	30.32
630.357	30.24
630.689	30.31
631.021	30.15
631.353	30.16
631.684	30.34
632.016	29.99
632.348	30.31
632.679	30.49
633.011	30.56
633.342	30.5
633.674	30.37
634.005	30.85
634.336	30.84
634.668	30.57
634.999	30.39
635.33	30.61
635.661	30.34
635.992	30.51
636.323	30.95
636.654	30.56
636.985	31
637.316	31.04
637.647	31.2
637.977	31.21
638.308	31
638.639	31.52
638.969	30.87
639.3	31.12
639.63	31.26
639.961	31.1
640.291	31.28
640.622	31.15
640.952	31.22
641.282	31.94
641.612	31.88
641.943	31.44
642.273	31.78
642.603	31.5
642.933	31.5
643.263	31.33
643.592	31.57
643.922	32.14
644.252	31.84
644.582	31.23
644.911	32.15
645.241	31.86
645.571	32.07
645.9	31.96
646.23	31.93
646.559	32.22
646.888	32.11
647.218	31.98
647.547	32.32
647.876	31.82
648.205	32.22
648.534	31.83
648.863	32.05
649.192	32.03
649.521	32.28
649.85	32.33
650.179	32.19
650.508	32.56
650.837	32.3
651.165	32.43
651.494	32.44
651.822	32.6
652.151	32.76
652.479	32.16
652.808	32.44
653.136	32.26
653.465	32.47
653.793	32.71
654.121	32.98
654.449	32.86
654.777	32.79
655.105	32.69
655.433	32.59
655.761	33.12
656.089	33.33
656.417	33.43
656.745	33
657.073	33.43
657.4	33.29
657.728	32.59
658.056	32.94
658.383	33.28
658.711	33.74
659.038	33.15
659.365	33.26
659.693	33.06
660.02	33.16
660.347	33.15
660.674	33.4
661.001	32.94
661.329	33.17
661.656	32.94
661.982	33.98
662.309	33.74
662.636	33.71
662.963	33.42
663.29	33.57
663.616	33.5
663.943	33.84
664.27	33.74
664.596	34.15
664.923	33.59
665.249	33.8
665.576	34.48
665.902	33.56
666.228	34.03
666.554	33.91
666.881	34.01
667.207	34.48
667.533	33.96
667.859	34.32
668.185	34.88
668.511	34.92
668.837	34.03
669.162	34.53
669.488	34.58
669.814	34.51
670.139	34.01
670.465	33.98
670.791	34.35
671.116	34.28
671.442	34.11
671.767	33.93
672.092	35.05
672.418	34.36
672.743	34.77
673.068	35
673.393	34.67
673.718	33.54
674.043	33.72
674.368	34.06
674.693	34.47
675.018	34.48
675.343	34.31
675.667	35.11
675.992	35.16
676.317	35.53
