Data from 0031_crown_Reflection__0__142.txt Node

Date: Thu Oct 20 22:01:44 CDT 2022
User: ToomeyLab
Spectrometer: FLMS14357
Trigger mode: 0
Integration Time (sec): 1.000000E-2
Scans to average: 100
Electric dark correction enabled: true
Nonlinearity correction enabled: false
Boxcar width: 0
XAxis mode: Wavelengths
Number of Pixels in Spectrum: 2048
>>>>>Begin Spectral Data<<<<<
189.047	1.79
189.435	1.79
189.823	1.79
190.211	-160.99
190.599	-51.69
190.987	134.85
191.375	94.48
191.763	-90.49
192.151	-0.53
192.538	35.97
192.926	146.21
193.314	52.78
193.702	146.31
194.089	811.32
194.477	-249.89
194.864	-291.3
195.252	118.83
195.639	-523.65
196.027	-164.47
196.414	133.56
196.801	-2029.84
197.189	138.53
197.576	5165.74
197.963	9.8
198.351	-8.5
198.738	-68.66
199.125	-14.37
199.512	1.05
199.899	-2.12
200.286	9
200.673	1.32
201.06	4.97
201.447	33.45
201.833	-21.5
202.22	-13.71
202.607	-1.89
202.994	-76.98
203.38	-47.79
203.767	-0.38
204.154	-11.01
204.54	-61.12
204.927	-19.79
205.313	37.23
205.699	9.53
206.086	-0.08
206.472	-19.42
206.858	-29.22
207.245	25.43
207.631	-23.85
208.017	-14.63
208.403	-33.76
208.789	10.72
209.175	-0.14
209.561	15.09
209.947	8.98
210.333	18.61
210.719	-12.71
211.105	12.31
211.491	-92.72
211.876	-51.46
212.262	3.49
212.648	-7.36
213.034	10.49
213.419	-29.88
213.805	-37.25
214.19	-34.89
214.576	-26.82
214.961	-21.95
215.346	-14.5
215.732	-15.57
216.117	-47.57
216.502	-6.59
216.888	2.23
217.273	-6.6
217.658	9.07
218.043	-1.73
218.428	10.41
218.813	20.79
219.198	-10.77
219.583	-14.66
219.968	17.71
220.353	-22.64
220.738	2.7
221.122	-9.47
221.507	-4.6
221.892	-5.12
222.276	-4.4
222.661	2.28
223.046	9.67
223.43	-10.87
223.815	7.95
224.199	-0.29
224.583	-5.63
224.968	-5.09
225.352	11.88
225.736	5.82
226.121	-1.15
226.505	4.97
226.889	6.07
227.273	-1.92
227.657	-0.46
228.041	0.35
228.425	3.68
228.809	2.11
229.193	3.61
229.577	0.63
229.961	2.33
230.344	2.34
230.728	1.94
231.112	1.47
231.495	1.13
231.879	1.61
232.263	2.25
232.646	2.57
233.03	1.79
233.413	0.39
233.797	1.07
234.18	0.31
234.563	1.96
234.946	3.42
235.33	1.85
235.713	2.04
236.096	1.4
236.479	3.16
236.862	2.41
237.245	2.39
237.628	0.48
238.011	1.71
238.394	3.5
238.777	1.71
239.16	2.11
239.543	1.3
239.925	1.14
240.308	1.38
240.691	2.71
241.073	0.95
241.456	2.34
241.838	1.92
242.221	2.32
242.603	1.96
242.986	2.77
243.368	2.28
243.75	2.43
244.133	2.64
244.515	2.15
244.897	1.96
245.279	1.31
245.661	2.31
246.043	2.53
246.425	2.93
246.807	2.56
247.189	2.33
247.571	2.46
247.953	2.25
248.335	2.17
248.717	2.42
249.098	2.27
249.48	2.22
249.862	2.06
250.243	2.17
250.625	2.47
251.006	2.87
251.388	2.29
251.769	1.84
252.151	1.77
252.532	1.61
252.913	1.69
253.295	2.83
253.676	2.63
254.057	1.77
254.438	2.39
254.819	2.56
255.2	3.55
255.581	1.1
255.962	2.88
256.343	1.22
256.724	2.22
257.105	2.54
257.486	1.19
257.867	2.3
258.247	2.8
258.628	2.25
259.009	2.03
259.389	1.97
259.77	2.24
260.15	2.47
260.531	2.34
260.911	2.09
261.292	2.47
261.672	2.22
262.052	2.29
262.432	2.51
262.813	1.94
263.193	2.65
263.573	2.28
263.953	2.7
264.333	2.14
264.713	1.61
265.093	1.72
265.473	2.64
265.853	2.5
266.233	2.69
266.612	2.04
266.992	2.33
267.372	2.47
267.752	2.38
268.131	2.4
268.511	2.93
268.89	1.76
269.27	2.19
269.649	1.94
270.029	1.84
270.408	1.82
270.787	1.96
271.167	2.11
271.546	2
271.925	2.43
272.304	2.54
272.683	2.36
273.062	1.77
273.441	2.07
273.82	2.53
274.199	1.79
274.578	1.98
274.957	1.96
275.336	2.31
275.715	2.42
276.093	2.79
276.472	2.44
276.851	2.29
277.229	2.2
277.608	1.74
277.986	1.87
278.365	1.78
278.743	2.04
279.122	2.37
279.5	1.76
279.878	2.34
280.257	1.91
280.635	1.74
281.013	1.99
281.391	2.72
281.769	2.42
282.147	1.66
282.525	2.19
282.903	2.01
283.281	1.52
283.659	1.5
284.037	1.63
284.415	1.97
284.792	1.82
285.17	2.58
285.548	2.07
285.925	2
286.303	1.9
286.68	2.3
287.058	2.11
287.435	2.11
287.813	2.05
288.19	1.93
288.567	1.86
288.945	2.41
289.322	2.05
289.699	1.85
290.076	1.58
290.453	2
290.83	2.33
291.207	2.06
291.584	2.24
291.961	1.88
292.338	1.75
292.715	1.87
293.092	2.47
293.469	2.07
293.845	2.54
294.222	2.41
294.599	2.72
294.975	1.32
295.352	2.56
295.728	1.73
296.105	2.11
296.481	1.74
296.858	2.35
297.234	1.93
297.61	2.13
297.986	1.76
298.363	2.22
298.739	2.08
299.115	2.21
299.491	2.19
299.867	1.57
300.243	2.05
300.619	2.16
300.995	1.63
301.371	1.63
301.746	1.91
302.122	2.29
302.498	2.02
302.874	2.66
303.249	2.56
303.625	2.06
304	2.4
304.376	2.17
304.751	2.52
305.127	1.49
305.502	2.18
305.878	2.36
306.253	1.87
306.628	2.12
307.003	1.89
307.378	1.3
307.754	2.29
308.129	1.8
308.504	2.12
308.879	2.16
309.254	1.98
309.629	2.13
310.003	1.76
310.378	2.08
310.753	2.24
311.128	2.07
311.502	1.97
311.877	2.2
312.252	1.97
312.626	1.9
313.001	2.06
313.375	2.24
313.75	2.03
314.124	1.87
314.498	2.21
314.873	2.05
315.247	2.11
315.621	1.99
315.995	2.16
316.369	2.24
316.743	1.72
317.117	1.99
317.491	2.5
317.865	1.98
318.239	1.86
318.613	2.51
318.987	2.17
319.361	2.29
319.734	1.89
320.108	2.11
320.482	2.16
320.855	2.3
321.229	2.55
321.602	1.08
321.976	2.25
322.349	1.85
322.723	2.2
323.096	2.17
323.469	2.16
323.843	2.47
324.216	2.19
324.589	2.68
324.962	1.77
325.335	2.38
325.708	2.1
326.081	2.43
326.454	1.94
326.827	2.28
327.2	2.35
327.573	2.37
327.945	2.56
328.318	1.97
328.691	2.32
329.063	2.32
329.436	2.01
329.809	2.48
330.181	2.26
330.553	1.88
330.926	2.07
331.298	1.89
331.671	2
332.043	2.52
332.415	2.31
332.787	1.86
333.159	2.29
333.532	2.62
333.904	2.5
334.276	2.48
334.648	1.64
335.02	2.11
335.391	1.8
335.763	2.27
336.135	2.39
336.507	2.04
336.879	3.13
337.25	1.79
337.622	2.47
337.993	1.57
338.365	2.12
338.736	1.76
339.108	1.94
339.479	2.24
339.851	2.14
340.222	1.94
340.593	2.3
340.964	2.36
341.336	1.92
341.707	1.93
342.078	2.08
342.449	1.7
342.82	2.33
343.191	2.01
343.562	2.24
343.933	2.15
344.303	1.94
344.674	2.16
345.045	2.19
345.416	2.25
345.786	2.49
346.157	1.98
346.527	1.94
346.898	2.22
347.268	1.99
347.639	2.24
348.009	2.55
348.38	2.5
348.75	1.77
349.12	2.22
349.49	2.58
349.861	2.47
350.231	2.25
350.601	2.46
350.971	2.06
351.341	2.48
351.711	2.37
352.081	1.9
352.45	2.19
352.82	2.08
353.19	1.96
353.56	2.36
353.929	1.91
354.299	2.58
354.669	1.89
355.038	2.27
355.408	1.98
355.777	2.36
356.147	2.65
356.516	2.39
356.885	2.16
357.254	2.36
357.624	2.29
357.993	1.94
358.362	2.41
358.731	2.67
359.1	1.93
359.469	2.24
359.838	2.06
360.207	2.79
360.576	1.81
360.945	2.64
361.314	2.46
361.682	2.16
362.051	2.21
362.42	2.15
362.788	2.22
363.157	2.31
363.525	2.36
363.894	2.1
364.262	2.39
364.631	2.1
364.999	2.14
365.367	2.37
365.735	2.29
366.104	2.28
366.472	2.21
366.84	2.36
367.208	2.3
367.576	2.42
367.944	2.56
368.312	2.2
368.68	2.65
369.048	2.38
369.416	1.95
369.783	2.63
370.151	2.5
370.519	2.29
370.886	2.13
371.254	2.32
371.621	2.38
371.989	2.43
372.356	2.4
372.724	2.42
373.091	2.31
373.458	2.11
373.826	2.52
374.193	2.21
374.56	2.06
374.927	1.88
375.294	2.25
375.661	2.74
376.028	2.16
376.395	2.62
376.762	2.27
377.129	2.19
377.496	2.15
377.863	2.25
378.229	2.12
378.596	2.34
378.963	2.25
379.329	2.55
379.696	2.43
380.062	2.16
380.429	2.62
380.795	2.15
381.161	2.22
381.528	2.18
381.894	2.3
382.26	2.08
382.626	2.58
382.993	1.91
383.359	2.6
383.725	2.35
384.091	2.39
384.457	2.34
384.823	2.26
385.188	2.29
385.554	2.07
385.92	2.37
386.286	2.21
386.651	2.01
387.017	2.55
387.383	2.03
387.748	2.4
388.114	2.42
388.479	2.32
388.845	2.64
389.21	2.25
389.575	2.21
389.94	2.6
390.306	2.53
390.671	2.48
391.036	2.49
391.401	2.15
391.766	2.51
392.131	2.49
392.496	1.99
392.861	2.16
393.226	2.27
393.591	2.37
393.956	2.54
394.32	2.48
394.685	2.66
395.05	2.38
395.414	2.48
395.779	2.4
396.143	2.41
396.508	2.47
396.872	2.56
397.236	2.32
397.601	2.67
397.965	2.43
398.329	2.45
398.694	2.44
399.058	2.26
399.422	2.35
399.786	2.65
400.15	2.6
400.514	2.77
400.878	2.4
401.242	2.53
401.605	2.59
401.969	2.54
402.333	2.64
402.697	2.57
403.06	2.54
403.424	2.3
403.787	2.55
404.151	2.31
404.514	2.54
404.878	2.48
405.241	2.45
405.604	2.54
405.968	2.56
406.331	2.51
406.694	2.54
407.057	2.81
407.42	2.58
407.783	2.34
408.146	2.63
408.509	2.52
408.872	2.44
409.235	2.42
409.598	2.49
409.961	2.41
410.323	2.63
410.686	2.38
411.049	2.45
411.411	2.43
411.774	2.47
412.136	2.52
412.499	2.5
412.861	2.5
413.223	2.62
413.586	2.29
413.948	2.52
414.31	2.51
414.672	2.46
415.035	2.63
415.397	2.58
415.759	2.63
416.121	2.75
416.483	2.51
416.845	2.58
417.206	2.45
417.568	2.67
417.93	2.42
418.292	2.63
418.653	2.67
419.015	2.62
419.377	2.65
419.738	2.54
420.1	2.61
420.461	2.63
420.822	2.43
421.184	2.43
421.545	2.54
421.906	2.56
422.267	2.49
422.629	2.45
422.99	2.5
423.351	2.5
423.712	2.61
424.073	2.54
424.434	2.52
424.795	2.59
425.155	2.63
425.516	2.51
425.877	2.5
426.238	2.66
426.598	2.6
426.959	2.54
427.32	2.65
427.68	2.56
428.041	2.52
428.401	2.52
428.761	2.6
429.122	2.57
429.482	2.47
429.842	2.68
430.202	2.66
430.563	2.72
430.923	2.8
431.283	2.45
431.643	2.57
432.003	2.53
432.363	2.88
432.722	2.81
433.082	2.71
433.442	2.67
433.802	2.65
434.161	2.76
434.521	2.52
434.881	2.71
435.24	2.55
435.6	2.57
435.959	2.78
436.319	2.64
436.678	2.58
437.037	2.68
437.396	2.75
437.756	2.78
438.115	2.65
438.474	2.55
438.833	2.65
439.192	2.58
439.551	2.61
439.91	2.63
440.269	2.68
440.628	2.63
440.987	2.58
441.345	2.7
441.704	2.6
442.063	2.77
442.421	2.59
442.78	2.66
443.138	2.7
443.497	2.74
443.855	2.72
444.214	2.62
444.572	2.69
444.93	2.5
445.288	2.55
445.647	2.63
446.005	2.65
446.363	2.72
446.721	2.74
447.079	2.66
447.437	2.63
447.795	2.65
448.153	2.57
448.51	2.62
448.868	2.68
449.226	2.62
449.584	2.66
449.941	2.72
450.299	2.73
450.656	2.74
451.014	2.83
451.371	2.76
451.729	2.67
452.086	2.78
452.443	2.62
452.801	2.75
453.158	2.77
453.515	2.83
453.872	2.75
454.229	2.68
454.586	2.56
454.943	2.68
455.3	2.68
455.657	2.71
456.014	2.93
456.371	2.59
456.727	2.82
457.084	2.68
457.441	2.9
457.797	2.79
458.154	2.7
458.51	2.65
458.867	2.95
459.223	2.95
459.58	2.64
459.936	2.83
460.292	2.57
460.648	2.67
461.005	2.62
461.361	2.66
461.717	2.76
462.073	2.92
462.429	2.73
462.785	2.86
463.141	2.82
463.496	2.97
463.852	2.8
464.208	2.8
464.564	2.76
464.919	2.82
465.275	2.83
465.631	2.81
465.986	2.81
466.342	2.56
466.697	2.78
467.052	2.7
467.408	2.71
467.763	2.8
468.118	2.85
468.473	2.89
468.829	2.82
469.184	2.8
469.539	2.78
469.894	2.78
470.249	2.78
470.603	2.61
470.958	2.95
471.313	2.7
471.668	2.71
472.023	2.82
472.377	2.7
472.732	2.82
473.086	2.9
473.441	2.74
473.795	2.8
474.15	2.76
474.504	2.79
474.859	2.89
475.213	2.9
475.567	3.02
475.921	2.6
476.275	2.88
476.63	2.9
476.984	2.91
477.338	2.7
477.692	2.84
478.045	2.84
478.399	2.93
478.753	2.69
479.107	2.87
479.461	2.89
479.814	2.8
480.168	2.89
480.521	2.83
480.875	2.95
481.228	2.79
481.582	2.84
481.935	2.88
482.289	2.75
482.642	2.68
482.995	2.84
483.348	2.81
483.701	2.76
484.055	2.72
484.408	2.69
484.761	2.71
485.114	2.62
485.466	2.57
485.819	2.67
486.172	2.72
486.525	2.76
486.878	2.82
487.23	2.78
487.583	2.74
487.936	2.77
488.288	2.76
488.641	2.72
488.993	2.74
489.345	2.68
489.698	2.78
490.05	2.74
490.402	2.89
490.754	2.84
491.107	2.82
491.459	2.89
491.811	2.79
492.163	2.75
492.515	2.76
492.866	2.74
493.218	2.76
493.57	2.73
493.922	2.75
494.274	2.79
494.625	2.91
494.977	2.95
495.328	2.88
495.68	2.82
496.031	2.94
496.383	2.88
496.734	2.82
497.086	2.82
497.437	2.93
497.788	2.97
498.139	2.8
498.49	2.94
498.842	2.8
499.193	2.8
499.544	2.89
499.894	2.96
500.245	2.85
500.596	2.9
500.947	2.84
501.298	2.95
501.648	2.85
501.999	2.94
502.35	2.92
502.7	2.99
503.051	3.03
503.401	3.03
503.752	2.92
504.102	2.84
504.452	3
504.803	2.89
505.153	2.86
505.503	3.06
505.853	2.99
506.203	2.91
506.553	2.95
506.903	2.83
507.253	2.99
507.603	2.92
507.953	3.03
508.303	3
508.652	2.89
509.002	2.95
509.352	2.96
509.701	2.96
510.051	2.79
510.4	2.89
510.75	2.8
511.099	2.85
511.449	3.06
511.798	2.96
512.147	2.9
512.496	3.03
512.846	2.99
513.195	2.97
513.544	2.91
513.893	3.01
514.242	2.92
514.591	3.08
514.939	3.07
515.288	3
515.637	3.03
515.986	3.05
516.334	2.99
516.683	2.99
517.032	2.91
517.38	3.07
517.729	3.03
518.077	3.02
518.426	3.02
518.774	2.92
519.122	3.02
519.47	2.99
519.819	2.84
520.167	2.94
520.515	2.92
520.863	2.92
521.211	2.99
521.559	3.03
521.907	2.93
522.255	2.99
522.602	3.01
522.95	3.02
523.298	3
523.645	2.96
523.993	2.96
524.341	3.15
524.688	3.06
525.036	3.08
525.383	3.09
525.73	2.97
526.078	3.01
526.425	3.04
526.772	3.01
527.119	2.85
527.466	3.06
527.814	2.99
528.161	2.93
528.508	2.99
528.854	3.01
529.201	2.9
529.548	2.92
529.895	2.88
530.242	2.84
530.588	2.9
530.935	2.95
531.282	2.92
531.628	2.99
531.975	3
532.321	3.02
532.667	3.01
533.014	3.13
533.36	2.98
533.706	2.94
534.052	3.06
534.399	3.03
534.745	2.99
535.091	2.94
535.437	3.03
535.783	2.97
536.129	2.99
536.474	3.06
536.82	3.01
537.166	3.05
537.512	3.01
537.857	2.96
538.203	3.02
538.549	2.99
538.894	3.03
539.239	3.01
539.585	3.17
539.93	3.15
540.276	3.21
540.621	3.14
540.966	3.15
541.311	3.13
541.656	3.1
542.001	3.04
542.346	2.97
542.691	2.92
543.036	2.9
543.381	2.99
543.726	3.03
544.071	3.07
544.415	3.08
544.76	3.04
545.105	3.12
545.449	3.05
545.794	3.12
546.138	3.24
546.483	3.23
546.827	3.17
547.171	3.09
547.516	3.07
547.86	3.06
548.204	3.13
548.548	3.16
548.892	3.18
549.236	3.21
549.58	3.28
549.924	3.26
550.268	3.19
550.612	3.23
550.956	3.22
551.3	3.16
551.643	3.3
551.987	3.43
552.33	3.22
552.674	3.1
553.017	3.14
553.361	3.19
553.704	3.13
554.048	3.16
554.391	3.23
554.734	3.15
555.077	3.27
555.42	3.27
555.764	3.29
556.107	3.2
556.45	3.04
556.793	3.15
557.135	3.24
557.478	3.16
557.821	3.24
558.164	3.25
558.507	3.22
558.849	3.41
559.192	3.36
559.534	3.34
559.877	3.25
560.219	3.35
560.562	3.3
560.904	3.26
561.246	3.29
561.589	3.38
561.931	3.12
562.273	3.16
562.615	3.34
562.957	3.18
563.299	3.31
563.641	3.23
563.983	3.55
564.325	3.32
564.667	3.25
565.008	3.37
565.35	3.28
565.692	3.26
566.033	3.08
566.375	3.17
566.716	3.3
567.058	3.19
567.399	3.28
567.741	3.26
568.082	3.2
568.423	3.31
568.764	3.15
569.105	3.39
569.447	3.38
569.788	3.27
570.129	3.4
570.47	3.37
570.811	3.13
571.151	3.17
571.492	3.24
571.833	3.32
572.174	3.32
572.514	3.28
572.855	3.4
573.195	3.27
573.536	3.29
573.876	3.17
574.217	3.35
574.557	3.36
574.898	3.3
575.238	3.58
575.578	3.16
575.918	3.39
576.258	3.44
576.598	3.44
576.938	3.31
577.278	3.34
577.618	3.54
577.958	3.44
578.298	3.42
578.638	3.41
578.977	3.57
579.317	3.34
579.657	3.37
579.996	3.47
580.336	3.66
580.675	3.79
581.014	3.41
581.354	3.52
581.693	3.53
582.032	3.49
582.372	3.5
582.711	3.22
583.05	3.2
583.389	3.4
583.728	3.43
584.067	3.5
584.406	3.48
584.745	3.42
585.083	3.32
585.422	3.42
585.761	3.6
586.1	3.42
586.438	3.48
586.777	3.32
587.115	3.42
587.454	3.64
587.792	3.32
588.13	3.46
588.469	3.87
588.807	3.35
589.145	3.44
589.483	3.47
589.821	3.35
590.159	3.45
590.497	3.31
590.835	3.42
591.173	3.66
591.511	3.57
591.849	3.49
592.187	3.27
592.524	3.51
592.862	3.36
593.2	3.4
593.537	3.46
593.875	3.66
594.212	3.42
594.55	3.41
594.887	3.34
595.224	3.71
595.561	3.56
595.899	3.98
596.236	3.8
596.573	3.72
596.91	3.65
597.247	3.49
597.584	3.54
597.921	3.49
598.258	3.48
598.594	3.49
598.931	3.5
599.268	3.4
599.604	3.41
599.941	3.65
600.277	3.6
600.614	3.34
600.95	3.59
601.287	3.5
601.623	3.74
601.959	3.56
602.296	3.5
602.632	3.46
602.968	3.72
603.304	3.51
603.64	3.58
603.976	3.45
604.312	3.65
604.648	3.52
604.984	3.46
605.319	3.55
605.655	3.44
605.991	3.41
606.326	3.66
606.662	3.5
606.998	3.71
607.333	3.68
607.668	3.3
608.004	3.59
608.339	3.63
608.674	3.65
609.01	3.66
609.345	3.52
609.68	3.58
610.015	3.45
610.35	3.57
610.685	3.46
611.02	3.4
611.355	3.48
611.689	3.38
612.024	3.57
612.359	3.5
612.694	3.58
613.028	3.57
613.363	3.64
613.697	3.67
614.032	3.55
614.366	3.78
614.7	3.51
615.035	3.6
615.369	3.5
615.703	3.67
616.037	3.81
616.371	3.36
616.705	3.23
617.039	3.65
617.373	3.73
617.707	3.73
618.041	3.52
618.375	3.41
618.709	3.68
619.042	3.57
619.376	3.53
619.71	3.6
620.043	3.3
620.377	3.59
620.71	3.73
621.043	3.66
621.377	3.35
621.71	3.68
622.043	3.44
622.376	3.83
622.709	3.87
623.043	3.72
623.376	3.74
623.709	3.64
624.041	3.51
624.374	3.5
624.707	3.45
625.04	4.05
625.373	3.82
625.705	3.48
626.038	4.14
626.37	3.47
626.703	3.56
627.035	3.62
627.368	3.66
627.7	3.46
628.032	3.87
628.365	3.72
628.697	3.83
629.029	3.8
629.361	3.85
629.693	3.96
630.025	3.78
630.357	3.82
630.689	3.73
631.021	3.86
631.353	4
631.684	3.81
632.016	3.71
632.348	3.77
632.679	3.65
633.011	4.07
633.342	3.72
633.674	3.81
634.005	3.93
634.336	3.65
634.668	3.82
634.999	3.72
635.33	4.14
635.661	3.94
635.992	3.92
636.323	3.96
636.654	3.83
636.985	3.89
637.316	3.47
637.647	3.71
637.977	4
638.308	3.75
638.639	4.08
638.969	3.82
639.3	3.6
639.63	3.74
639.961	3.64
640.291	3.58
640.622	3.92
640.952	3.89
641.282	4.04
641.612	3.9
641.943	3.91
642.273	4.17
642.603	3.8
642.933	4.17
643.263	3.46
643.592	4.02
643.922	4.04
644.252	3.74
644.582	3.84
644.911	4.1
645.241	3.86
645.571	3.71
645.9	4.12
646.23	3.83
646.559	3.96
646.888	3.8
647.218	3.75
647.547	3.68
647.876	3.58
648.205	3.74
648.534	3.57
648.863	4.3
649.192	3.8
649.521	3.6
649.85	4.15
650.179	3.74
650.508	3.86
650.837	3.74
651.165	3.53
651.494	4.3
651.822	4.19
652.151	4.13
652.479	3.97
652.808	3.78
653.136	3.57
653.465	4.18
653.793	4.22
654.121	4.05
654.449	4.27
654.777	3.88
655.105	4.31
655.433	3.92
655.761	3.87
656.089	4.24
656.417	3.93
656.745	4.35
657.073	3.94
657.4	3.68
657.728	3.79
658.056	4.53
658.383	3.77
658.711	4.34
659.038	3.79
659.365	4.07
659.693	3.87
660.02	4.12
660.347	3.94
660.674	4.32
661.001	3.93
661.329	3.92
661.656	3.87
661.982	4.05
662.309	4.14
662.636	4.21
662.963	3.8
663.29	4.47
663.616	3.82
663.943	4.32
664.27	4.31
664.596	4.46
664.923	3.72
665.249	4.54
665.576	4.66
665.902	3.87
666.228	4.12
666.554	3.81
666.881	4.35
667.207	4.74
667.533	4.53
667.859	3.85
668.185	4.51
668.511	5
668.837	3.71
669.162	4.62
669.488	4.12
669.814	4.35
670.139	4.28
670.465	3.52
670.791	4.32
671.116	4.59
671.442	4.2
671.767	3.87
672.092	4.31
672.418	4.05
672.743	3.77
673.068	3.62
673.393	4.55
673.718	4.13
674.043	4.18
674.368	3.97
674.693	4.52
675.018	4.1
675.343	4.13
675.667	4.66
675.992	4.81
676.317	4.38
676.641	4.37
676.966	3.62
677.29	4.26
677.615	4.15
677.939	4.15
678.264	4.48
678.588	4.34
678.912	4.11
679.236	4.64
679.56	4.41
679.885	4.75
680.209	4.04
680.532	4.31
680.856	4.4
681.18	4.41
681.504	4.03
681.828	4.31
682.152	4.8
682.475	4.53
682.799	4.85
683.122	4.61
683.446	3.86
683.769	4.33
684.093	4.67
684.416	4.28
684.739	4.27
685.062	4.22
685.386	3.95
685.709	3.85
686.032	4.8
686.355	3.76
686.678	4.13
687.001	4.61
687.324	4.55
687.646	4.43
687.969	3.85
688.292	4.5
688.614	4.1
688.937	4.15
689.26	4.42
689.582	4.1
689.904	4.52
690.227	4.43
690.549	5.01
690.871	3.83
691.194	3.89
691.516	4.26
691.838	4.47
692.16	4.21
692.482	4.31
