Data from 0031_chest_Reflection__2__139.txt Node

Date: Thu Oct 20 22:00:15 CDT 2022
User: ToomeyLab
Spectrometer: FLMS14357
Trigger mode: 0
Integration Time (sec): 1.000000E-2
Scans to average: 100
Electric dark correction enabled: true
Nonlinearity correction enabled: false
Boxcar width: 0
XAxis mode: Wavelengths
Number of Pixels in Spectrum: 2048
>>>>>Begin Spectral Data<<<<<
189.047	58.29
189.435	58.29
189.823	58.29
190.211	-130.07
190.599	11.21
190.987	10.23
191.375	79.7
191.763	-15.77
192.151	71.83
192.538	103.68
192.926	21.11
193.314	-2.65
193.702	159.43
194.089	735.53
194.477	172.62
194.864	-190.56
195.252	48.81
195.639	384.46
196.027	-70.19
196.414	102.14
196.801	-3849.19
197.189	12.48
197.576	2425
197.963	65.82
198.351	11.79
198.738	-62.59
199.125	37.58
199.512	-8.92
199.899	-23.54
200.286	4.33
200.673	-6.8
201.06	18.47
201.447	-10.56
201.833	41.98
202.22	16.93
202.607	-0.09
202.994	2.73
203.38	-17.5
203.767	3.14
204.154	-3.52
204.54	-15.77
204.927	-32.07
205.313	27.71
205.699	-22.72
206.086	-9
206.472	6.45
206.858	-27.72
207.245	37.7
207.631	-0.09
208.017	-59.99
208.403	-67.4
208.789	5.96
209.175	2.4
209.561	10.53
209.947	3.08
210.333	21.62
210.719	9.24
211.105	16.85
211.491	-48.9
211.876	-20.3
212.262	17.01
212.648	-12.99
213.034	17.1
213.419	-83.65
213.805	-26.99
214.19	-13.26
214.576	-35.31
214.961	-10.31
215.346	-22.13
215.732	1.24
216.117	-17.74
216.502	15.61
216.888	-18.92
217.273	-8.25
217.658	18.53
218.043	12.72
218.428	-2.31
218.813	23.77
219.198	-9.91
219.583	6.38
219.968	18
220.353	-5.98
220.738	6.58
221.122	12.16
221.507	-8.42
221.892	-1.32
222.276	1.11
222.661	8.84
223.046	10.23
223.43	-11.93
223.815	-1.29
224.199	-11.59
224.583	-6.73
224.968	12.72
225.352	10.32
225.736	11.25
226.121	-2.46
226.505	0.01
226.889	0.66
227.273	-1.59
227.657	0.12
228.041	2.7
228.425	2.51
228.809	4.37
229.193	1.27
229.577	0.32
229.961	1.18
230.344	1.04
230.728	1.1
231.112	1.22
231.495	0.83
231.879	3.2
232.263	2.12
232.646	2.4
233.03	0.87
233.413	0.79
233.797	0.96
234.18	1.38
234.563	-0.18
234.946	0.42
235.33	1.12
235.713	1.29
236.096	0.47
236.479	2.63
236.862	0.75
237.245	1.22
237.628	1.21
238.011	2.59
238.394	1.22
238.777	0.16
239.16	-0.76
239.543	1.64
239.925	2.03
240.308	1.6
240.691	3.78
241.073	1.18
241.456	1.21
241.838	0.99
242.221	1.07
242.603	1.25
242.986	1.07
243.368	1.65
243.75	1.43
244.133	1.76
244.515	1.32
244.897	0.96
245.279	0.66
245.661	1.69
246.043	1.24
246.425	1.95
246.807	0.95
247.189	1.59
247.571	1.8
247.953	1.5
248.335	1.32
248.717	1.45
249.098	1.39
249.48	1.62
249.862	1.4
250.243	1.22
250.625	1.65
251.006	1.86
251.388	1.14
251.769	1.48
252.151	1.37
252.532	0.75
252.913	0.51
253.295	1.83
253.676	1.87
254.057	1.18
254.438	1.55
254.819	1.35
255.2	1.86
255.581	1.11
255.962	2.86
256.343	1.09
256.724	1.62
257.105	1.14
257.486	0.98
257.867	1.91
258.247	1.82
258.628	1.7
259.009	1.29
259.389	1.98
259.77	1.24
260.15	1.78
260.531	1.53
260.911	1.29
261.292	1.64
261.672	1.33
262.052	1.56
262.432	1.81
262.813	1.38
263.193	1.92
263.573	1.32
263.953	0.94
264.333	1.45
264.713	1.39
265.093	1.45
265.473	1.58
265.853	1.8
266.233	1.9
266.612	1.32
266.992	0.58
267.372	1.63
267.752	1.92
268.131	1.97
268.511	1.43
268.89	1.25
269.27	1.48
269.649	1.24
270.029	1.3
270.408	1.75
270.787	1.61
271.167	0.85
271.546	1.08
271.925	1.62
272.304	1.55
272.683	1.29
273.062	1.25
273.441	1.32
273.82	1.63
274.199	1.18
274.578	1.03
274.957	1.54
275.336	1.21
275.715	1.58
276.093	1.57
276.472	1.74
276.851	1.71
277.229	1.57
277.608	1.17
277.986	1.47
278.365	0.94
278.743	1.46
279.122	1.34
279.5	1.41
279.878	1.37
280.257	1.62
280.635	1.65
281.013	1.09
281.391	1.57
281.769	1.7
282.147	1.19
282.525	0.98
282.903	1.44
283.281	1.04
283.659	0.79
284.037	0.83
284.415	1.33
284.792	1.26
285.17	1.64
285.548	1.29
285.925	1.26
286.303	1.28
286.68	1.82
287.058	1.61
287.435	1.44
287.813	1.28
288.19	1.25
288.567	1.5
288.945	1.72
289.322	1.53
289.699	0.8
290.076	1.24
290.453	0.92
290.83	1.26
291.207	1.73
291.584	1.23
291.961	1.27
292.338	1.03
292.715	1.54
293.092	1.7
293.469	1.67
293.845	1.72
294.222	1.59
294.599	2.04
294.975	1.36
295.352	1.74
295.728	1.39
296.105	1.58
296.481	1.44
296.858	1.89
297.234	1.39
297.61	1.48
297.986	1.3
298.363	1.4
298.739	1.39
299.115	1.48
299.491	1.57
299.867	1.38
300.243	1.57
300.619	1.46
300.995	0.97
301.371	1.47
301.746	1.34
302.122	1.94
302.498	1.27
302.874	1.66
303.249	1.72
303.625	1.16
304	1.78
304.376	1.52
304.751	1.93
305.127	1.61
305.502	1.62
305.878	2.05
306.253	1.52
306.628	1.52
307.003	1.46
307.378	0.92
307.754	1.85
308.129	1.3
308.504	1.16
308.879	1.61
309.254	1.93
309.629	1.63
310.003	1.4
310.378	1.43
310.753	1.64
311.128	1.2
311.502	1.52
311.877	1.81
312.252	1.68
312.626	1.63
313.001	1.52
313.375	1.72
313.75	1.28
314.124	1.43
314.498	1.64
314.873	1.85
315.247	1.86
315.621	1.63
315.995	1.23
316.369	1.81
316.743	1.02
317.117	1.55
317.491	1.42
317.865	1.42
318.239	1.5
318.613	1.92
318.987	1.61
319.361	2.04
319.734	1.34
320.108	2.18
320.482	1.68
320.855	1.56
321.229	2.37
321.602	1.07
321.976	1.52
322.349	1.35
322.723	2.36
323.096	1.8
323.469	1.52
323.843	2.14
324.216	2.01
324.589	2.33
324.962	1.72
325.335	1.8
325.708	1.86
326.081	1.78
326.454	1.89
326.827	1.67
327.2	1.87
327.573	1.75
327.945	1.65
328.318	1.46
328.691	1.93
329.063	1.86
329.436	1.58
329.809	1.82
330.181	2.03
330.553	1.35
330.926	1.7
331.298	1.41
331.671	2.35
332.043	2.31
332.415	1.93
332.787	2.14
333.159	2.12
333.532	1.83
333.904	2.21
334.276	1.87
334.648	1.02
335.02	1.77
335.391	1.75
335.763	1.92
336.135	2.1
336.507	1.31
336.879	2.68
337.25	1.18
337.622	1.76
337.993	1.64
338.365	2.73
338.736	1.99
339.108	1.78
339.479	1.96
339.851	1.56
340.222	1.58
340.593	1.62
340.964	2.03
341.336	1.72
341.707	1.21
342.078	1.09
342.449	1.6
342.82	1.97
343.191	2.02
343.562	1.98
343.933	1.65
344.303	1.54
344.674	1.86
345.045	1.51
345.416	1.7
345.786	1.71
346.157	1.75
346.527	1.9
346.898	1.8
347.268	1.59
347.639	2
348.009	1.73
348.38	1.95
348.75	1.38
349.12	2.13
349.49	1.71
349.861	1.89
350.231	1.89
350.601	2.27
350.971	2.15
351.341	2.49
351.711	2.24
352.081	1.69
352.45	1.86
352.82	1.23
353.19	1.73
353.56	1.97
353.929	1.56
354.299	2.34
354.669	1.94
355.038	2
355.408	1.54
355.777	1.92
356.147	2.2
356.516	2.03
356.885	2.01
357.254	2.14
357.624	1.91
357.993	1.42
358.362	2.13
358.731	1.82
359.1	1.66
359.469	1.93
359.838	1.89
360.207	2.35
360.576	1.72
360.945	1.95
361.314	1.68
361.682	1.91
362.051	1.7
362.42	1.7
362.788	1.82
363.157	1.74
363.525	1.86
363.894	1.91
364.262	1.93
364.631	1.76
364.999	2.09
365.367	1.85
365.735	1.85
366.104	1.65
366.472	1.72
366.84	2.06
367.208	1.75
367.576	1.87
367.944	2.28
368.312	1.83
368.68	1.84
369.048	1.69
369.416	1.99
369.783	1.92
370.151	2.49
370.519	1.87
370.886	1.75
371.254	1.99
371.621	2.05
371.989	2.12
372.356	2
372.724	1.99
373.091	1.81
373.458	1.82
373.826	1.69
374.193	1.9
374.56	1.53
374.927	1.54
375.294	1.71
375.661	2.23
376.028	1.84
376.395	2.16
376.762	1.99
377.129	1.79
377.496	1.57
377.863	1.75
378.229	1.79
378.596	1.8
378.963	2.01
379.329	2.16
379.696	1.88
380.062	1.97
380.429	2.28
380.795	1.89
381.161	2.01
381.528	2.16
381.894	2.15
382.26	1.98
382.626	2.3
382.993	2.01
383.359	1.9
383.725	2.3
384.091	2.25
384.457	1.99
384.823	1.98
385.188	1.85
385.554	1.68
385.92	1.71
386.286	1.9
386.651	1.84
387.017	2
387.383	2.15
387.748	2.31
388.114	2.08
388.479	2
388.845	2.09
389.21	2
389.575	1.75
389.94	2.14
390.306	2
390.671	1.91
391.036	2.11
391.401	1.79
391.766	2.01
392.131	2.08
392.496	1.96
392.861	1.81
393.226	1.91
393.591	2.33
393.956	2.15
394.32	2.12
394.685	2.21
395.05	1.98
395.414	2.28
395.779	1.95
396.143	2.2
396.508	2.05
396.872	2.08
397.236	1.81
397.601	2.09
397.965	2.26
398.329	1.88
398.694	2.06
399.058	1.97
399.422	2.03
399.786	2.05
400.15	2.02
400.514	2.24
400.878	2.19
401.242	2.15
401.605	2.24
401.969	2.07
402.333	1.96
402.697	2.28
403.06	2.03
403.424	1.97
403.787	2.1
404.151	2.03
404.514	1.92
404.878	1.91
405.241	2.06
405.604	2.19
405.968	2.22
406.331	2.14
406.694	2.17
407.057	2.03
407.42	2.09
407.783	2.06
408.146	2.31
408.509	2.09
408.872	2.23
409.235	1.88
409.598	2.24
409.961	2.09
410.323	2.31
410.686	2.19
411.049	2.05
411.411	2.09
411.774	2.12
412.136	2.13
412.499	2.05
412.861	2.11
413.223	2.05
413.586	2.16
413.948	2.25
414.31	1.92
414.672	2.07
415.035	2.21
415.397	2.14
415.759	2.08
416.121	2.14
416.483	1.94
416.845	2.3
417.206	1.92
417.568	2.23
417.93	1.95
418.292	2.24
418.653	2.04
419.015	2.16
419.377	2.18
419.738	2.07
420.1	2.09
420.461	2.15
420.822	2.08
421.184	2.01
421.545	2.19
421.906	2.06
422.267	2.14
422.629	2.05
422.99	2.14
423.351	2.12
423.712	2.04
424.073	2.17
424.434	2.19
424.795	2.13
425.155	2
425.516	2.13
425.877	2.12
426.238	2.27
426.598	2.17
426.959	2.13
427.32	2.27
427.68	2.18
428.041	2.32
428.401	2.2
428.761	2.12
429.122	2.15
429.482	2.23
429.842	2.28
430.202	2.38
430.563	1.99
430.923	2.29
431.283	2.14
431.643	2.11
432.003	2.27
432.363	2.47
432.722	2.44
433.082	2.21
433.442	2.15
433.802	2.25
434.161	2.33
434.521	2.25
434.881	2.2
435.24	2.11
435.6	2.29
435.959	2.27
436.319	2.29
436.678	2.13
437.037	2.42
437.396	2.36
437.756	2.35
438.115	2.32
438.474	2.07
438.833	2.19
439.192	2.16
439.551	2.22
439.91	2.28
440.269	2.24
440.628	2.29
440.987	2.26
441.345	2.3
441.704	2.28
442.063	2.3
442.421	2.22
442.78	2.24
443.138	2.31
443.497	2.27
443.855	2.33
444.214	2.33
444.572	2.34
444.93	2.22
445.288	2.21
445.647	2.35
446.005	2.19
446.363	2.22
446.721	2.26
447.079	2.23
447.437	2.3
447.795	2.29
448.153	2.26
448.51	2.27
448.868	2.21
449.226	2.37
449.584	2.31
449.941	2.44
450.299	2.37
450.656	2.33
451.014	2.39
451.371	2.47
451.729	2.39
452.086	2.59
452.443	2.27
452.801	2.23
453.158	2.29
453.515	2.34
453.872	2.35
454.229	2.26
454.586	2.36
454.943	2.32
455.3	2.45
455.657	2.39
456.014	2.39
456.371	2.37
456.727	2.34
457.084	2.3
457.441	2.56
457.797	2.3
458.154	2.35
458.51	2.35
458.867	2.49
459.223	2.64
459.58	2.44
459.936	2.34
460.292	2.36
460.648	2.24
461.005	2.22
461.361	2.32
461.717	2.39
462.073	2.45
462.429	2.59
462.785	2.53
463.141	2.58
463.496	2.59
463.852	2.52
464.208	2.51
464.564	2.57
464.919	2.58
465.275	2.47
465.631	2.27
465.986	2.56
466.342	2.29
466.697	2.41
467.052	2.45
467.408	2.57
467.763	2.48
468.118	2.71
468.473	2.61
468.829	2.54
469.184	2.47
469.539	2.46
469.894	2.42
470.249	2.71
470.603	2.57
470.958	2.48
471.313	2.43
471.668	2.24
472.023	2.53
472.377	2.48
472.732	2.46
473.086	2.65
473.441	2.45
473.795	2.48
474.15	2.5
474.504	2.41
474.859	2.54
475.213	2.67
475.567	2.69
475.921	2.42
476.275	2.77
476.63	2.82
476.984	2.56
477.338	2.55
477.692	2.42
478.045	2.55
478.399	2.77
478.753	2.45
479.107	2.58
479.461	2.44
479.814	2.59
480.168	2.63
480.521	2.61
480.875	2.62
481.228	2.56
481.582	2.51
481.935	2.58
482.289	2.53
482.642	2.46
482.995	2.61
483.348	2.55
483.701	2.51
484.055	2.46
484.408	2.41
484.761	2.39
485.114	2.3
485.466	2.33
485.819	2.41
486.172	2.47
486.525	2.54
486.878	2.63
487.23	2.62
487.583	2.5
487.936	2.52
488.288	2.44
488.641	2.47
488.993	2.44
489.345	2.47
489.698	2.5
490.05	2.54
490.402	2.64
490.754	2.67
491.107	2.51
491.459	2.75
491.811	2.56
492.163	2.63
492.515	2.45
492.866	2.47
493.218	2.47
493.57	2.49
493.922	2.57
494.274	2.6
494.625	2.67
494.977	2.74
495.328	2.69
495.68	2.64
496.031	2.68
496.383	2.72
496.734	2.71
497.086	2.72
497.437	2.7
497.788	2.69
498.139	2.61
498.49	2.76
498.842	2.6
499.193	2.78
499.544	2.81
499.894	2.8
500.245	2.76
500.596	2.79
500.947	2.74
501.298	2.87
501.648	2.65
501.999	2.89
502.35	2.83
502.7	2.89
503.051	2.77
503.401	2.72
503.752	2.75
504.102	2.76
504.452	2.85
504.803	2.74
505.153	2.71
505.503	2.95
505.853	2.77
506.203	2.76
506.553	2.8
506.903	2.82
507.253	2.8
507.603	2.86
507.953	2.89
508.303	2.9
508.652	2.8
509.002	2.66
509.352	2.78
509.701	2.89
510.051	2.76
510.4	2.75
510.75	2.76
511.099	2.81
511.449	2.83
511.798	2.84
512.147	2.87
512.496	2.96
512.846	2.94
513.195	2.93
513.544	2.83
513.893	2.94
514.242	2.88
514.591	3
514.939	2.96
515.288	3
515.637	3.06
515.986	2.87
516.334	2.98
516.683	2.98
517.032	2.9
517.38	3.02
517.729	3.12
518.077	2.9
518.426	3.03
518.774	2.96
519.122	2.98
519.47	2.88
519.819	2.87
520.167	2.85
520.515	2.93
520.863	2.94
521.211	2.91
521.559	2.99
521.907	3.03
522.255	2.98
522.602	2.97
522.95	3
523.298	3.05
523.645	3.03
523.993	3.15
524.341	3.09
524.688	2.92
525.036	3.09
525.383	3.15
525.73	3.01
526.078	3.13
526.425	3.11
526.772	3.05
527.119	2.92
527.466	3.08
527.814	3.06
528.161	3.04
528.508	3.07
528.854	3.12
529.201	2.99
529.548	2.98
529.895	2.92
530.242	2.9
530.588	2.95
530.935	3.03
531.282	3.04
531.628	3.09
531.975	3.16
532.321	3.12
532.667	3.13
533.014	3.29
533.36	3.18
533.706	3.05
534.052	3.12
534.399	3.15
534.745	3.04
535.091	3.07
535.437	3.16
535.783	3.16
536.129	3.2
536.474	3.26
536.82	3.26
537.166	3.2
537.512	3.29
537.857	3.14
538.203	3.23
538.549	3.27
538.894	3.32
539.239	3.35
539.585	3.29
539.93	3.36
540.276	3.42
540.621	3.32
540.966	3.34
541.311	3.37
541.656	3.35
542.001	3.25
542.346	3.27
542.691	3.14
543.036	3.18
543.381	3.32
543.726	3.3
544.071	3.37
544.415	3.42
544.76	3.33
545.105	3.45
545.449	3.34
545.794	3.42
546.138	3.55
546.483	3.56
546.827	3.61
547.171	3.55
547.516	3.45
547.86	3.47
548.204	3.49
548.548	3.51
548.892	3.59
549.236	3.62
549.58	3.62
549.924	3.68
550.268	3.58
550.612	3.79
550.956	3.73
551.3	3.78
551.643	3.73
551.987	3.85
552.33	3.66
552.674	3.78
553.017	3.71
553.361	3.8
553.704	3.8
554.048	3.93
554.391	3.8
554.734	3.6
555.077	3.7
555.42	3.82
555.764	3.9
556.107	3.74
556.45	3.77
556.793	3.96
557.135	4.02
557.478	3.78
557.821	3.8
558.164	3.96
558.507	3.8
558.849	3.92
559.192	4.02
559.534	4.02
559.877	4.03
560.219	4.14
560.562	4.05
560.904	3.98
561.246	4.06
561.589	4.02
561.931	3.86
562.273	4.14
562.615	4.05
562.957	3.93
563.299	4.18
563.641	3.96
563.983	4.28
564.325	4.17
564.667	4.13
565.008	4.08
565.35	4.33
565.692	4.22
566.033	4
566.375	4.08
566.716	4.22
567.058	4.14
567.399	4.3
567.741	4.19
568.082	4.19
568.423	4.26
568.764	4.17
569.105	4.35
569.447	4.35
569.788	4.34
570.129	4.32
570.47	4.34
570.811	4.13
571.151	4.29
571.492	4.28
571.833	4.45
572.174	4.49
572.514	4.39
572.855	4.46
573.195	4.4
573.536	4.43
573.876	4.36
574.217	4.36
574.557	4.56
574.898	4.46
575.238	4.7
575.578	4.6
575.918	4.62
576.258	4.49
576.598	4.63
576.938	4.42
577.278	4.69
577.618	4.86
577.958	4.67
578.298	4.82
578.638	4.69
578.977	4.91
579.317	4.76
579.657	4.47
579.996	4.91
580.336	4.96
580.675	5.15
581.014	4.92
581.354	4.81
581.693	4.99
582.032	4.92
582.372	4.89
582.711	4.91
583.05	5.1
583.389	4.9
583.728	4.82
584.067	4.97
584.406	5.11
584.745	4.98
585.083	4.84
585.422	5.37
585.761	5.44
586.1	5.19
586.438	5.26
586.777	5.15
587.115	5.22
587.454	5.22
587.792	5.36
588.13	5.42
588.469	5.55
588.807	5.33
589.145	5.26
589.483	5.31
589.821	4.99
590.159	5.44
590.497	5.22
590.835	5.3
591.173	5.31
591.511	5.41
591.849	5.46
592.187	5.25
592.524	5.5
592.862	5.41
593.2	5.56
593.537	5.37
593.875	5.43
594.212	5.55
594.55	5.5
594.887	5.54
595.224	5.84
595.561	5.6
595.899	5.74
596.236	5.86
596.573	5.87
596.91	5.63
597.247	5.67
597.584	5.67
597.921	5.71
598.258	5.71
598.594	5.69
598.931	5.79
599.268	5.77
599.604	5.8
599.941	6.02
600.277	5.72
600.614	5.84
600.95	5.97
601.287	5.96
601.623	6.13
601.959	5.79
602.296	6.1
602.632	5.97
602.968	6.12
603.304	5.96
603.64	6.32
603.976	6.04
604.312	6.08
604.648	5.98
604.984	6.09
605.319	5.98
605.655	6.26
605.991	6.07
606.326	6.26
606.662	6.16
606.998	6.43
607.333	6.32
607.668	6.19
608.004	6.39
608.339	6.25
608.674	6.63
609.01	6.52
609.345	6.32
609.68	6.36
610.015	6.42
610.35	6.43
610.685	6.39
611.02	6.28
611.355	6.58
611.689	6.42
612.024	6.5
612.359	6.46
612.694	6.33
613.028	6.52
613.363	6.81
613.697	6.67
614.032	6.83
614.366	6.74
614.7	6.59
615.035	6.8
615.369	6.94
615.703	6.76
616.037	6.75
616.371	6.76
616.705	6.65
617.039	6.83
617.373	6.92
617.707	7.3
618.041	6.97
618.375	6.79
618.709	6.99
619.042	6.59
619.376	7.17
619.71	7.04
620.043	7.03
620.377	7.11
620.71	7.23
621.043	7.21
621.377	6.89
621.71	6.94
622.043	6.82
622.376	7.32
622.709	7.2
623.043	7.25
623.376	7.52
623.709	7.66
624.041	7.57
624.374	7.36
624.707	7.34
625.04	7.68
625.373	7.5
625.705	7.55
626.038	7.56
626.37	7.32
626.703	7.33
627.035	7.58
627.368	7.4
627.7	7.5
628.032	7.67
628.365	7.63
628.697	7.47
629.029	7.62
629.361	7.73
629.693	7.89
630.025	7.91
630.357	7.87
630.689	7.68
631.021	7.83
631.353	7.84
631.684	7.71
632.016	7.41
632.348	7.59
632.679	7.86
633.011	8.26
633.342	8.03
633.674	8.1
634.005	8.12
634.336	8.12
634.668	7.94
634.999	8.24
635.33	8
635.661	8.36
635.992	8.26
636.323	8.46
636.654	8.12
636.985	8.18
637.316	8.29
637.647	8.24
637.977	8.79
638.308	8.22
638.639	8.68
638.969	8.59
639.3	8.43
639.63	8.63
639.961	8.13
640.291	8.16
640.622	8.9
640.952	8.54
641.282	8.67
641.612	8.94
641.943	8.48
642.273	8.71
642.603	8.45
642.933	8.65
643.263	8.38
643.592	9
643.922	9.11
644.252	8.64
644.582	8.54
644.911	9.09
645.241	8.81
645.571	8.67
645.9	9.27
646.23	8.93
646.559	8.85
646.888	9.18
647.218	8.78
647.547	9.16
647.876	8.98
648.205	8.64
648.534	8.81
648.863	9.26
649.192	9.55
649.521	9.31
649.85	9.08
650.179	9.12
650.508	9.07
650.837	9.01
651.165	9.62
651.494	9.47
651.822	9.67
652.151	9.54
652.479	8.99
652.808	9.22
653.136	8.69
653.465	9.73
653.793	9.69
654.121	9.47
654.449	9.54
654.777	9.64
655.105	10.24
655.433	9.67
655.761	9.53
656.089	9.55
656.417	9.68
656.745	9.9
657.073	9.71
657.4	9.72
657.728	9.68
658.056	9.68
658.383	10.2
658.711	10.33
659.038	9.67
659.365	9.99
659.693	10.15
660.02	9.7
660.347	9.97
660.674	10.13
661.001	9.86
661.329	10.19
661.656	9.93
661.982	9.88
662.309	10.03
662.636	10.3
662.963	9.83
663.29	10.31
663.616	10.35
663.943	10.33
664.27	10.55
664.596	10.42
664.923	10.14
665.249	10.77
665.576	10.64
665.902	10.33
666.228	10.36
666.554	9.92
666.881	10.43
667.207	10.71
667.533	10.55
667.859	10.23
668.185	11.08
668.511	10.78
668.837	10.8
669.162	11.3
669.488	10.43
669.814	10.71
670.139	10.84
670.465	10.59
670.791	11.12
671.116	10.82
671.442	10.65
671.767	11.06
672.092	11.07
672.418	10.19
672.743	11.01
673.068	10.14
673.393	10.78
673.718	11
674.043	10.81
674.368	10.74
674.693	11.03
675.018	11.3
675.343	10.65
675.667	11.01
675.992	10.94
676.317	11.79
676.641	11.58
676.966	11.72
677.29	11.38
677.615	11.94
677.939	11.4
678.264	11.57
678.588	11.34
678.912	11.39
679.236	11.67
679.56	11.39
679.885	11.28
680.209	11.34
680.532	12.2
680.856	11.93
681.18	11.38
681.504	11.5
681.828	11.5
682.152	12.42
682.475	11.81
682.799	12.1
683.122	12.07
683.446	11.48
683.769	11.78
684.093	11.78
684.416	11.84
684.739	11.89
685.062	11.93
685.386	12.1
685.709	11.51
686.032	12.61
686.355	12.36
686.678	11.87
687.001	12.03
687.324	12.5
687.646	12.08
687.969	12.46
688.292	12.5
688.614	11.66
688.937	11.95
689.26	12.03
689.582	12.25
689.904	12.02
690.227	11.76
690.549	12.52
