Data from 0031_chest_Reflection__3__140.txt Node

Date: Thu Oct 20 22:00:30 CDT 2022
User: ToomeyLab
Spectrometer: FLMS14357
Trigger mode: 0
Integration Time (sec): 1.000000E-2
Scans to average: 100
Electric dark correction enabled: true
Nonlinearity correction enabled: false
Boxcar width: 0
XAxis mode: Wavelengths
Number of Pixels in Spectrum: 2048
>>>>>Begin Spectral Data<<<<<
189.047	5.93
189.435	5.93
189.823	5.93
190.211	13.77
190.599	33.03
190.987	53.63
191.375	111.99
191.763	-80.98
192.151	96.12
192.538	-4.86
192.926	154.03
193.314	13.89
193.702	563.11
194.089	88.95
194.477	-121
194.864	889.26
195.252	66.23
195.639	1146.4
196.027	-105.38
196.414	77.27
196.801	-4308.06
197.189	5.25
197.576	-1924.07
197.963	6.19
198.351	42.83
198.738	-21.49
199.125	-41.64
199.512	24.47
199.899	-33.94
200.286	-28.04
200.673	3.83
201.06	22.76
201.447	29.91
201.833	-27.63
202.22	-45.64
202.607	13.75
202.994	-28.75
203.38	-14.88
203.767	11.99
204.154	26.28
204.54	-51.64
204.927	-1.1
205.313	52.13
205.699	-2.2
206.086	-14.02
206.472	7.13
206.858	7.04
207.245	23.23
207.631	-7.64
208.017	-57.56
208.403	-44.3
208.789	17.87
209.175	2.61
209.561	30.31
209.947	10.46
210.333	3.85
210.719	11.55
211.105	3.1
211.491	-75.33
211.876	-17.95
212.262	29.33
212.648	1.17
213.034	0.63
213.419	-46.34
213.805	-12.63
214.19	10.44
214.576	-5.72
214.961	6.76
215.346	-29.16
215.732	-3.65
216.117	4.73
216.502	3.34
216.888	9.12
217.273	-16.24
217.658	21.53
218.043	1.47
218.428	-25.45
218.813	10.21
219.198	14.03
219.583	-3.54
219.968	10.82
220.353	-11.76
220.738	15.03
221.122	13.37
221.507	-21.65
221.892	4.02
222.276	-1.69
222.661	9.89
223.046	2.49
223.43	-4.61
223.815	-2.27
224.199	-8.35
224.583	-3.37
224.968	2.4
225.352	10.37
225.736	1.09
226.121	-7.45
226.505	9.62
226.889	3.2
227.273	0.5
227.657	6.09
228.041	-0.04
228.425	3.67
228.809	5.26
229.193	3.35
229.577	2.38
229.961	3.4
230.344	3.14
230.728	3.5
231.112	3.56
231.495	3.84
231.879	3.83
232.263	3.04
232.646	3.47
233.03	2.96
233.413	2.33
233.797	1.02
234.18	3.44
234.563	3.76
234.946	2.65
235.33	2.37
235.713	2.31
236.096	2.88
236.479	2.94
236.862	3.65
237.245	3.19
237.628	2.17
238.011	4.84
238.394	3.46
238.777	3.44
239.16	2.49
239.543	2.68
239.925	3.52
240.308	3.09
240.691	4.26
241.073	2.03
241.456	3.65
241.838	3.17
242.221	3.28
242.603	3.54
242.986	3.31
243.368	3.01
243.75	3
244.133	3.89
244.515	3.36
244.897	3.26
245.279	2.24
245.661	3.76
246.043	4.13
246.425	3.08
246.807	3.19
247.189	3.48
247.571	3.85
247.953	3.18
248.335	3.3
248.717	3.2
249.098	3.1
249.48	3.25
249.862	3.29
250.243	3.44
250.625	3.7
251.006	3.53
251.388	3.37
251.769	3.36
252.151	3.71
252.532	3.69
252.913	3.52
253.295	3.22
253.676	3.32
254.057	2.43
254.438	2.81
254.819	3.09
255.2	3.84
255.581	2.98
255.962	3.96
256.343	2.57
256.724	2.48
257.105	2.4
257.486	2.73
257.867	3.05
258.247	3.16
258.628	2.84
259.009	2.33
259.389	2.72
259.77	3.08
260.15	3.25
260.531	3.03
260.911	2.92
261.292	3.19
261.672	3.12
262.052	3.13
262.432	3.4
262.813	3.05
263.193	3.42
263.573	3.3
263.953	3.34
264.333	3.07
264.713	2.74
265.093	2.49
265.473	3.06
265.853	4.32
266.233	3
266.612	3.22
266.992	3.12
267.372	3.43
267.752	3.32
268.131	3.44
268.511	2.98
268.89	3.13
269.27	3.01
269.649	2.83
270.029	2.81
270.408	2.81
270.787	3.05
271.167	2.65
271.546	2.92
271.925	3.14
272.304	3.05
272.683	2.74
273.062	2.68
273.441	3.04
273.82	3.28
274.199	2.89
274.578	2.79
274.957	3.09
275.336	2.95
275.715	3.12
276.093	3.45
276.472	3.42
276.851	3.66
277.229	2.58
277.608	2.61
277.986	2.71
278.365	2.81
278.743	2.8
279.122	2.94
279.5	2.64
279.878	3.17
280.257	3.18
280.635	3.11
281.013	2.83
281.391	3.05
281.769	2.86
282.147	2.81
282.525	2.47
282.903	2.72
283.281	2.38
283.659	2.93
284.037	2.53
284.415	2.76
284.792	2.83
285.17	3.29
285.548	2.67
285.925	2.83
286.303	2.76
286.68	3.26
287.058	3.01
287.435	2.78
287.813	2.82
288.19	3.02
288.567	2.74
288.945	3.25
289.322	2.8
289.699	2.48
290.076	2.88
290.453	2.7
290.83	2.95
291.207	3.09
291.584	2.66
291.961	2.72
292.338	2.72
292.715	3.07
293.092	3.28
293.469	3.08
293.845	3.25
294.222	3.05
294.599	3.9
294.975	3.12
295.352	3.22
295.728	3.41
296.105	3.2
296.481	2.96
296.858	3.08
297.234	2.98
297.61	3.06
297.986	2.66
298.363	2.92
298.739	3.16
299.115	2.97
299.491	3.02
299.867	2.88
300.243	2.76
300.619	3.27
300.995	2.8
301.371	3.15
301.746	2.84
302.122	3.22
302.498	3.2
302.874	3.39
303.249	3.69
303.625	3.05
304	3.66
304.376	2.9
304.751	3.22
305.127	2.69
305.502	3.24
305.878	3.24
306.253	2.87
306.628	3.25
307.003	3.23
307.378	2.93
307.754	3.05
308.129	3.04
308.504	3.32
308.879	3.08
309.254	3.55
309.629	3.05
310.003	2.8
310.378	3.21
310.753	3.12
311.128	3.05
311.502	3.12
311.877	3.54
312.252	3.07
312.626	3.16
313.001	3.3
313.375	3.27
313.75	3.05
314.124	2.93
314.498	3.39
314.873	3.39
315.247	2.96
315.621	3.15
315.995	3.18
316.369	3.85
316.743	2.84
317.117	3.57
317.491	3.28
317.865	3.3
318.239	3.64
318.613	3.88
318.987	3.43
319.361	3.38
319.734	3.04
320.108	3.36
320.482	3.55
320.855	3.69
321.229	3.78
321.602	2.44
321.976	3.56
322.349	3.47
322.723	3.35
323.096	3.25
323.469	3.41
323.843	3.71
324.216	3.26
324.589	3.97
324.962	3.18
325.335	3.93
325.708	3.45
326.081	3.14
326.454	3.57
326.827	3.58
327.2	3.72
327.573	3.89
327.945	3.83
328.318	3.1
328.691	3.74
329.063	3.51
329.436	3.29
329.809	3.36
330.181	3.71
330.553	3.29
330.926	3.14
331.298	3.53
331.671	3.89
332.043	3.74
332.415	3.43
332.787	3.98
333.159	3.31
333.532	3.55
333.904	3.7
334.276	3.6
334.648	3.56
335.02	3.47
335.391	3.15
335.763	3.21
336.135	3.49
336.507	3.31
336.879	4.64
337.25	3.03
337.622	3.58
337.993	3.35
338.365	3.58
338.736	3.39
339.108	3.38
339.479	3.51
339.851	3.54
340.222	3.18
340.593	3.59
340.964	4.07
341.336	3.32
341.707	3.3
342.078	3.46
342.449	2.96
342.82	3.8
343.191	3.48
343.562	3.41
343.933	3.16
344.303	3.7
344.674	3.66
345.045	3.59
345.416	3.49
345.786	3.2
346.157	3.27
346.527	3.22
346.898	3.21
347.268	3.43
347.639	3.77
348.009	3.67
348.38	3.87
348.75	3.31
349.12	3.86
349.49	3.61
349.861	3.51
350.231	3.43
350.601	3.84
350.971	3.57
351.341	4.02
351.711	3.91
352.081	3.39
352.45	3.74
352.82	3.31
353.19	3.37
353.56	3.47
353.929	3.58
354.299	3.5
354.669	3.48
355.038	3.9
355.408	3.03
355.777	3.44
356.147	3.85
356.516	3.61
356.885	3.34
357.254	3.96
357.624	3.58
357.993	3.58
358.362	3.87
358.731	3.68
359.1	3.45
359.469	3.75
359.838	3.48
360.207	3.93
360.576	3.53
360.945	3.89
361.314	3.54
361.682	3.58
362.051	3.59
362.42	3.61
362.788	3.53
363.157	3.73
363.525	3.71
363.894	3.57
364.262	3.85
364.631	3.65
364.999	3.65
365.367	3.78
365.735	3.8
366.104	3.54
366.472	3.34
366.84	3.94
367.208	3.63
367.576	3.68
367.944	4.12
368.312	3.66
368.68	3.9
369.048	3.51
369.416	3.57
369.783	3.85
370.151	3.87
370.519	3.7
370.886	3.46
371.254	4
371.621	3.71
371.989	3.62
372.356	3.56
372.724	3.91
373.091	3.59
373.458	3.37
373.826	3.62
374.193	3.89
374.56	3.68
374.927	3.47
375.294	3.76
375.661	3.96
376.028	3.69
376.395	3.96
376.762	3.83
377.129	3.99
377.496	3.66
377.863	3.7
378.229	3.57
378.596	4.12
378.963	3.78
379.329	3.92
379.696	3.65
380.062	3.78
380.429	3.99
380.795	3.94
381.161	3.8
381.528	3.61
381.894	3.98
382.26	3.61
382.626	3.69
382.993	3.68
383.359	3.75
383.725	3.78
384.091	3.85
384.457	3.65
384.823	3.66
385.188	3.83
385.554	3.63
385.92	3.57
386.286	3.65
386.651	3.74
387.017	3.59
387.383	3.75
387.748	4
388.114	3.94
388.479	3.91
388.845	3.89
389.21	3.94
389.575	3.65
389.94	3.87
390.306	4.05
390.671	3.96
391.036	3.84
391.401	3.45
391.766	4.04
392.131	3.89
392.496	3.7
392.861	3.71
393.226	3.77
393.591	3.91
393.956	3.96
394.32	3.98
394.685	4.19
395.05	3.82
395.414	3.81
395.779	3.66
396.143	3.97
396.508	3.91
396.872	4.06
397.236	3.78
397.601	4.11
397.965	3.95
398.329	3.89
398.694	4.02
399.058	3.74
399.422	4.08
399.786	3.92
400.15	3.83
400.514	4.12
400.878	3.8
401.242	4.11
401.605	3.95
401.969	3.94
402.333	3.92
402.697	4.24
403.06	3.65
403.424	3.88
403.787	4.13
404.151	3.88
404.514	3.82
404.878	3.91
405.241	3.91
405.604	3.99
405.968	4.07
406.331	3.93
406.694	3.71
407.057	3.94
407.42	4.18
407.783	4.06
408.146	4.09
408.509	4.04
408.872	3.95
409.235	3.74
409.598	4.05
409.961	4.06
410.323	4
410.686	3.96
411.049	3.82
411.411	3.88
411.774	3.72
412.136	4.02
412.499	4.09
412.861	3.95
413.223	4
413.586	3.89
413.948	3.89
414.31	3.93
414.672	3.94
415.035	4.14
415.397	3.99
415.759	4.16
416.121	3.95
416.483	3.95
416.845	4.12
417.206	3.89
417.568	4.03
417.93	4.02
418.292	4.09
418.653	3.93
419.015	3.95
419.377	3.88
419.738	3.97
420.1	4.02
420.461	4.1
420.822	3.95
421.184	3.89
421.545	3.89
421.906	3.85
422.267	3.87
422.629	3.91
422.99	3.94
423.351	3.9
423.712	3.99
424.073	4.02
424.434	3.93
424.795	4.06
425.155	4.04
425.516	3.9
425.877	3.95
426.238	4.09
426.598	4
426.959	3.89
427.32	4.1
427.68	4.04
428.041	4.12
428.401	4.16
428.761	4.04
429.122	4.08
429.482	4.04
429.842	4.26
430.202	4.17
430.563	3.92
430.923	4.24
431.283	4.04
431.643	4.05
432.003	4.17
432.363	4.53
432.722	4.25
433.082	4.03
433.442	4.14
433.802	4.08
434.161	4.31
434.521	4.14
434.881	4.11
435.24	4.1
435.6	4.17
435.959	4.16
436.319	4.06
436.678	4.1
437.037	4.15
437.396	4.24
437.756	4.1
438.115	4.31
438.474	4.18
438.833	4.18
439.192	4.17
439.551	4.22
439.91	4.2
440.269	4.19
440.628	4.25
440.987	4.1
441.345	4.3
441.704	4.18
442.063	4.24
442.421	4.07
442.78	4.24
443.138	4.25
443.497	4.16
443.855	4.22
444.214	4.34
444.572	4.48
444.93	4.16
445.288	4.25
445.647	4.23
446.005	4.1
446.363	4.12
446.721	4.29
447.079	4.21
447.437	4.21
447.795	4.14
448.153	4.14
448.51	4.25
448.868	4.26
449.226	4.2
449.584	4.31
449.941	4.37
450.299	4.42
450.656	4.26
451.014	4.37
451.371	4.46
451.729	4.29
452.086	4.45
452.443	4.4
452.801	4.47
453.158	4.34
453.515	4.42
453.872	4.33
454.229	4.33
454.586	4.47
454.943	4.29
455.3	4.51
455.657	4.53
456.014	4.48
456.371	4.49
456.727	4.4
457.084	4.27
457.441	4.44
457.797	4.38
458.154	4.42
458.51	4.39
458.867	4.48
459.223	4.68
459.58	4.46
459.936	4.41
460.292	4.31
460.648	4.24
461.005	4.3
461.361	4.43
461.717	4.38
462.073	4.55
462.429	4.56
462.785	4.6
463.141	4.59
463.496	4.72
463.852	4.5
464.208	4.56
464.564	4.71
464.919	4.71
465.275	4.68
465.631	4.37
465.986	4.5
466.342	4.47
466.697	4.53
467.052	4.6
467.408	4.69
467.763	4.67
468.118	4.75
468.473	4.75
468.829	4.68
469.184	4.63
469.539	4.47
469.894	4.45
470.249	4.82
470.603	4.62
470.958	4.6
471.313	4.62
471.668	4.57
472.023	4.68
472.377	4.58
472.732	4.79
473.086	4.68
473.441	4.72
473.795	4.67
474.15	4.68
474.504	4.6
474.859	4.7
475.213	4.73
475.567	4.95
475.921	4.7
476.275	4.88
476.63	4.75
476.984	4.78
477.338	4.57
477.692	4.69
478.045	4.64
478.399	4.78
478.753	4.6
479.107	4.65
479.461	4.72
479.814	4.78
480.168	4.84
480.521	4.69
480.875	4.83
481.228	4.74
481.582	4.77
481.935	4.61
482.289	4.71
482.642	4.56
482.995	4.74
483.348	4.75
483.701	4.67
484.055	4.55
484.408	4.49
484.761	4.44
485.114	4.33
485.466	4.32
485.819	4.4
486.172	4.57
486.525	4.69
486.878	4.73
487.23	4.79
487.583	4.69
487.936	4.77
488.288	4.58
488.641	4.52
488.993	4.49
489.345	4.53
489.698	4.55
490.05	4.69
490.402	4.8
490.754	4.83
491.107	4.81
491.459	4.87
491.811	4.81
492.163	4.74
492.515	4.59
492.866	4.59
493.218	4.55
493.57	4.67
493.922	4.74
494.274	4.86
494.625	4.86
494.977	5.06
495.328	4.91
495.68	4.99
496.031	4.93
496.383	5.05
496.734	4.94
497.086	4.88
497.437	5.01
497.788	4.91
498.139	4.85
498.49	4.98
498.842	4.84
499.193	4.96
499.544	5.02
499.894	5.06
500.245	5.07
500.596	5.04
500.947	5.07
501.298	5.06
501.648	5
501.999	5.01
502.35	5.1
502.7	5.06
503.051	5.2
503.401	5.16
503.752	5.09
504.102	4.95
504.452	5.2
504.803	5.07
505.153	5.23
505.503	5.12
505.853	5.03
506.203	5.18
506.553	5.24
506.903	5.14
507.253	5.21
507.603	5.27
507.953	5.24
508.303	5.25
508.652	5.16
509.002	5.25
509.352	5.23
509.701	5.23
510.051	5.15
510.4	5.07
510.75	5.09
511.099	5.19
511.449	5.21
511.798	5.25
512.147	5.28
512.496	5.3
512.846	5.32
513.195	5.34
513.544	5.28
513.893	5.26
514.242	5.31
514.591	5.37
514.939	5.27
515.288	5.27
515.637	5.41
515.986	5.43
516.334	5.4
516.683	5.41
517.032	5.46
517.38	5.37
517.729	5.37
518.077	5.4
518.426	5.37
518.774	5.33
519.122	5.45
519.47	5.22
519.819	5.29
520.167	5.25
520.515	5.29
520.863	5.34
521.211	5.43
521.559	5.48
521.907	5.46
522.255	5.44
522.602	5.58
522.95	5.6
523.298	5.53
523.645	5.64
523.993	5.54
524.341	5.72
524.688	5.6
525.036	5.58
525.383	5.57
525.73	5.43
526.078	5.57
526.425	5.6
526.772	5.57
527.119	5.32
527.466	5.45
527.814	5.55
528.161	5.5
528.508	5.48
528.854	5.57
529.201	5.38
529.548	5.32
529.895	5.16
530.242	5.19
530.588	5.32
530.935	5.45
531.282	5.57
531.628	5.63
531.975	5.7
532.321	5.67
532.667	5.69
533.014	5.74
533.36	5.71
533.706	5.62
534.052	5.63
534.399	5.58
534.745	5.5
535.091	5.55
535.437	5.64
535.783	5.71
536.129	5.9
536.474	5.96
536.82	5.93
537.166	5.89
537.512	5.82
537.857	5.7
538.203	5.76
538.549	5.71
538.894	5.91
539.239	5.95
539.585	5.93
539.93	6.03
540.276	6.14
540.621	5.89
540.966	5.96
541.311	6.08
541.656	5.91
542.001	5.86
542.346	5.67
542.691	5.66
543.036	5.63
543.381	5.83
543.726	5.9
544.071	6.04
544.415	6.1
544.76	6.03
545.105	6.1
545.449	6.06
545.794	6.21
546.138	6.22
546.483	6.3
546.827	6.2
547.171	6.21
547.516	6.14
547.86	6.19
548.204	6.24
548.548	6.21
548.892	6.25
549.236	6.3
549.58	6.39
549.924	6.38
550.268	6.42
550.612	6.55
550.956	6.55
551.3	6.51
551.643	6.59
551.987	6.58
552.33	6.45
552.674	6.57
553.017	6.43
553.361	6.66
553.704	6.55
554.048	6.51
554.391	6.56
554.734	6.47
555.077	6.51
555.42	6.78
555.764	6.58
556.107	6.66
556.45	6.78
556.793	6.61
557.135	6.85
557.478	6.91
557.821	6.78
558.164	6.74
558.507	6.86
558.849	6.99
559.192	6.81
559.534	6.93
559.877	7.06
560.219	6.96
560.562	6.88
560.904	7.01
561.246	6.95
561.589	7.12
561.931	6.9
562.273	6.93
562.615	7.05
562.957	6.79
563.299	7.07
563.641	7.03
563.983	7.25
564.325	7.12
564.667	7.1
565.008	7.27
565.35	7.3
565.692	7.17
566.033	7.02
566.375	7.34
566.716	7.17
567.058	7.15
567.399	7.31
567.741	7.18
568.082	7.25
568.423	7.32
568.764	7.12
569.105	7.35
569.447	7.48
569.788	7.6
570.129	7.53
570.47	7.34
570.811	7.25
571.151	7.28
571.492	7.36
571.833	7.44
572.174	7.57
572.514	7.51
572.855	7.5
573.195	7.64
573.536	7.42
573.876	7.4
574.217	7.5
574.557	7.66
574.898	7.68
575.238	7.88
575.578	7.75
575.918	7.81
576.258	7.79
576.598	7.78
576.938	7.84
577.278	7.71
577.618	7.96
577.958	7.84
578.298	7.85
578.638	7.81
578.977	8.09
579.317	8.08
579.657	7.92
579.996	8.06
580.336	8.1
580.675	8.26
581.014	7.93
581.354	8.2
581.693	8.2
582.032	8.22
582.372	8.21
582.711	8.14
583.05	8.39
583.389	8.37
583.728	8.37
584.067	8.33
584.406	8.26
584.745	8.51
585.083	8.24
585.422	8.66
585.761	8.56
586.1	8.61
586.438	8.49
586.777	8.52
587.115	8.52
587.454	8.73
587.792	8.54
588.13	8.81
588.469	8.98
588.807	8.48
589.145	8.67
589.483	8.67
589.821	8.66
590.159	8.6
590.497	8.66
590.835	8.75
591.173	8.93
591.511	8.69
591.849	8.92
592.187	8.63
592.524	9.06
592.862	8.88
593.2	8.96
593.537	9.07
593.875	9.22
594.212	9.01
594.55	8.96
594.887	9.03
595.224	9.2
595.561	8.99
595.899	9.47
596.236	9.15
596.573	9.21
596.91	9.22
597.247	9.14
597.584	9.38
597.921	9.12
598.258	8.96
598.594	9.21
598.931	9.23
599.268	9.24
599.604	9.39
599.941	9.51
600.277	9.51
600.614	9.48
600.95	9.47
601.287	9.53
601.623	9.5
601.959	9.55
602.296	9.56
602.632	9.64
602.968	9.95
603.304	9.69
603.64	9.92
603.976	9.56
604.312	9.69
604.648	9.63
604.984	9.6
605.319	9.85
605.655	9.78
605.991	9.74
606.326	9.95
606.662	9.75
606.998	9.96
607.333	10
607.668	9.82
608.004	10.19
608.339	10.24
608.674	10.26
609.01	10.26
609.345	10.28
609.68	10.13
610.015	10.11
610.35	10.14
610.685	10.13
611.02	10.03
611.355	9.99
611.689	10.19
612.024	10.23
612.359	10.44
612.694	10.52
613.028	10.56
613.363	10.37
613.697	10.51
614.032	10.86
614.366	10.74
614.7	10.58
615.035	10.44
615.369	10.65
615.703	10.68
616.037	10.77
616.371	10.55
616.705	10.56
617.039	10.68
617.373	10.58
617.707	10.9
618.041	10.74
618.375	10.62
618.709	11.13
619.042	10.86
619.376	10.99
619.71	10.93
620.043	11.06
620.377	11
620.71	10.7
621.043	11.24
621.377	10.98
621.71	11.18
622.043	10.94
622.376	11.52
622.709	11.39
623.043	11.23
623.376	11.42
623.709	11.56
624.041	11.31
624.374	11.42
624.707	11.34
625.04	11.64
625.373	11.42
625.705	11.22
626.038	11.76
626.37	11.52
626.703	11.72
627.035	11.52
627.368	11.34
627.7	11.77
628.032	11.4
628.365	11.58
628.697	11.77
629.029	11.92
629.361	11.87
629.693	11.97
630.025	12.17
630.357	11.95
630.689	11.96
631.021	11.8
631.353	12.12
631.684	11.68
632.016	11.71
632.348	12.26
632.679	12.1
633.011	12.5
633.342	12.55
633.674	12.12
634.005	12.2
634.336	12.44
634.668	12.45
634.999	12.31
635.33	12.44
635.661	12.19
635.992	12.28
636.323	12.77
636.654	12.55
636.985	12.37
637.316	12.5
637.647	12.69
637.977	13.04
638.308	12.64
638.639	12.84
638.969	12.59
639.3	12.79
639.63	12.87
639.961	12.81
640.291	12.69
640.622	12.93
640.952	13.12
641.282	13.18
641.612	13.41
641.943	12.67
642.273	12.73
642.603	12.59
642.933	13.23
643.263	12.95
643.592	13.13
643.922	13.19
644.252	13.19
644.582	13.3
644.911	13.13
645.241	13.62
645.571	13.12
645.9	13.76
646.23	13.6
646.559	13.05
646.888	13.81
647.218	13.38
647.547	13.26
647.876	13.22
648.205	13.28
648.534	13.37
648.863	13.61
649.192	13.54
649.521	13.4
649.85	13.48
650.179	13.52
650.508	13.48
650.837	13.98
651.165	13.42
651.494	13.8
651.822	14.07
652.151	14.05
652.479	13.74
652.808	13.75
653.136	13.71
653.465	14.09
653.793	14.45
654.121	14.33
654.449	14.26
654.777	13.99
655.105	14.32
655.433	14.23
655.761	14.18
656.089	14.11
656.417	14.56
656.745	14.38
657.073	14.45
657.4	14.27
657.728	14.39
658.056	14.73
658.383	14.27
658.711	15.03
659.038	14.47
659.365	14.29
659.693	14.6
660.02	14.49
660.347	14.65
660.674	14.74
661.001	14.71
661.329	14.68
661.656	14.09
661.982	14.83
662.309	14.8
662.636	14.87
662.963	14.31
663.29	14.76
663.616	15.06
663.943	15.57
664.27	15.56
664.596	15.02
664.923	14.69
665.249	15.33
665.576	15.77
665.902	14.88
666.228	15.13
666.554	14.81
666.881	15.5
667.207	15.35
667.533	15.62
667.859	14.99
668.185	16.1
668.511	15.81
668.837	15.61
669.162	15.46
669.488	14.97
669.814	15.63
670.139	15.81
670.465	15.86
670.791	15.79
671.116	15.6
671.442	16.06
671.767	16.14
672.092	15.87
672.418	15.8
672.743	16.01
673.068	15.65
673.393	15.85
673.718	15.93
674.043	15.99
674.368	15.77
674.693	16.16
675.018	16.09
675.343	15.76
675.667	16.29
675.992	16.38
676.317	16.25
676.641	16.33
676.966	15.9
677.29	16.29
677.615	15.95
677.939	16.31
678.264	16.36
678.588	16.9
678.912	16.64
679.236	16.97
679.56	15.9
679.885	16.49
680.209	15.85
680.532	17.07
680.856	17.77
681.18	16.83
681.504	16.5
681.828	17.01
682.152	17.56
682.475	17.33
682.799	17.3
683.122	17.43
683.446	16.45
683.769	16.98
684.093	16.8
684.416	16.86
684.739	17.04
685.062	17.21
685.386	17.26
685.709	17.16
686.032	16.76
686.355	16.82
686.678	17.28
687.001	17.5
