Data from 0031_forehead_Reflection__0__147.txt Node

Date: Thu Oct 20 22:03:56 CDT 2022
User: ToomeyLab
Spectrometer: FLMS14357
Trigger mode: 0
Integration Time (sec): 1.000000E-2
Scans to average: 100
Electric dark correction enabled: true
Nonlinearity correction enabled: false
Boxcar width: 0
XAxis mode: Wavelengths
Number of Pixels in Spectrum: 2048
>>>>>Begin Spectral Data<<<<<
189.047	16.86
189.435	16.86
189.823	16.86
190.211	720.05
190.599	-4.76
190.987	45.08
191.375	130.36
191.763	125.4
192.151	90.96
192.538	-159.72
192.926	145.7
193.314	37.24
193.702	1117.21
194.089	1345.79
194.477	-376.41
194.864	668.52
195.252	92.33
195.639	330.18
196.027	135.81
196.414	77.8
196.801	-43.55
197.189	24.53
197.576	646.3
197.963	118.06
198.351	37.69
198.738	-14.44
199.125	8.25
199.512	16.58
199.899	-45.34
200.286	7.12
200.673	7.41
201.06	31.38
201.447	55.87
201.833	-30.35
202.22	21.02
202.607	28.1
202.994	12.42
203.38	-14.79
203.767	10.6
204.154	17.07
204.54	1.7
204.927	-13.44
205.313	14.21
205.699	-10.61
206.086	-10.91
206.472	14.73
206.858	-16.75
207.245	19.63
207.631	-27.72
208.017	-78.03
208.403	9
208.789	32.72
209.175	30.42
209.561	40.01
209.947	6.61
210.333	19.26
210.719	35.45
211.105	35.02
211.491	-78.33
211.876	-15.44
212.262	29.7
212.648	-28.53
213.034	-2.84
213.419	-37.44
213.805	-8.68
214.19	1.13
214.576	3.6
214.961	-14.14
215.346	-8.59
215.732	11.02
216.117	-4.82
216.502	5.31
216.888	-21.96
217.273	12.24
217.658	25.68
218.043	15.68
218.428	16
218.813	26.23
219.198	-0.4
219.583	12.1
219.968	16.4
220.353	1.9
220.738	16.67
221.122	10.63
221.507	7.23
221.892	9.69
222.276	-2.61
222.661	19.89
223.046	12.59
223.43	0.38
223.815	9.77
224.199	-0.49
224.583	-6.06
224.968	5.7
225.352	7.68
225.736	2.65
226.121	-2.3
226.505	3.3
226.889	-7.25
227.273	-1.83
227.657	3.08
228.041	0.89
228.425	0
228.809	1.72
229.193	1.99
229.577	1.23
229.961	2.21
230.344	1.59
230.728	2.06
231.112	1.41
231.495	2.35
231.879	3.42
232.263	2.92
232.646	2.24
233.03	1.38
233.413	0.19
233.797	2.34
234.18	2.75
234.563	1.4
234.946	1.67
235.33	2.74
235.713	2.31
236.096	0.94
236.479	1.11
236.862	2.72
237.245	2.03
237.628	1.25
238.011	3.48
238.394	3.57
238.777	2.57
239.16	2.37
239.543	0.76
239.925	0.79
240.308	4.09
240.691	3.48
241.073	1.91
241.456	2.45
241.838	2.36
242.221	1.54
242.603	2.71
242.986	2.15
243.368	2.14
243.75	2.26
244.133	2.64
244.515	2.14
244.897	2.06
245.279	0.95
245.661	2.55
246.043	2.74
246.425	2.88
246.807	2.53
247.189	2.46
247.571	3.09
247.953	2.3
248.335	2.35
248.717	2.45
249.098	2.2
249.48	2.13
249.862	2.26
250.243	2.47
250.625	3.05
251.006	2.68
251.388	2.14
251.769	2.83
252.151	3.22
252.532	0.87
252.913	2.79
253.295	2.37
253.676	2.79
254.057	1.56
254.438	1.96
254.819	2.42
255.2	2.44
255.581	2.12
255.962	3.44
256.343	1.64
256.724	2.09
257.105	2.57
257.486	1.47
257.867	3.06
258.247	2.97
258.628	2.63
259.009	1.46
259.389	2.11
259.77	1.74
260.15	2.44
260.531	2.43
260.911	2.35
261.292	2.47
261.672	2.25
262.052	2.32
262.432	2.49
262.813	2.37
263.193	2.83
263.573	2.53
263.953	1.94
264.333	2.16
264.713	2.06
265.093	2.26
265.473	2.41
265.853	2.88
266.233	2.35
266.612	2.72
266.992	2.03
267.372	2.87
267.752	2.4
268.131	1.97
268.511	2.82
268.89	1.87
269.27	1.85
269.649	1.76
270.029	2.1
270.408	1.67
270.787	2.31
271.167	2.08
271.546	2
271.925	2.67
272.304	2.17
272.683	2.05
273.062	1.91
273.441	2.51
273.82	2.51
274.199	1.88
274.578	1.9
274.957	1.97
275.336	2.38
275.715	2.51
276.093	2.81
276.472	2.94
276.851	2.6
277.229	2.11
277.608	1.95
277.986	2.16
278.365	1.73
278.743	2.15
279.122	2.29
279.5	2.21
279.878	2.73
280.257	2.04
280.635	2.4
281.013	2.12
281.391	2.49
281.769	2.46
282.147	1.5
282.525	1.81
282.903	2.42
283.281	2.35
283.659	1.8
284.037	1.91
284.415	2.24
284.792	1.81
285.17	2.75
285.548	2.13
285.925	2.14
286.303	1.86
286.68	2.62
287.058	2.23
287.435	1.92
287.813	2.54
288.19	2.13
288.567	2.34
288.945	2.38
289.322	2.45
289.699	1.97
290.076	1.99
290.453	2.11
290.83	2.43
291.207	2.76
291.584	2.28
291.961	2.39
292.338	2.17
292.715	2.43
293.092	3.04
293.469	2.66
293.845	2.96
294.222	2.68
294.599	2.71
294.975	2.57
295.352	2.97
295.728	2.53
296.105	3.13
296.481	2.23
296.858	2.48
297.234	2.93
297.61	2.75
297.986	2.49
298.363	2.54
298.739	2.6
299.115	2.33
299.491	2.83
299.867	2.19
300.243	2.61
300.619	2.94
300.995	2.41
301.371	2.86
301.746	2.56
302.122	2.98
302.498	2.91
302.874	3.29
303.249	3.32
303.625	2.99
304	3.26
304.376	2.36
304.751	2.53
305.127	2.57
305.502	3.17
305.878	3.23
306.253	2.83
306.628	2.78
307.003	2.88
307.378	2.34
307.754	3.29
308.129	2.97
308.504	3.17
308.879	3.32
309.254	3.09
309.629	3.06
310.003	2.78
310.378	2.89
310.753	3.34
311.128	2.94
311.502	2.93
311.877	3.4
312.252	2.56
312.626	3.01
313.001	3.17
313.375	3.54
313.75	3.17
314.124	3.3
314.498	3.4
314.873	3.26
315.247	2.95
315.621	3.14
315.995	3.25
316.369	3.46
316.743	2.98
317.117	3.46
317.491	3.65
317.865	3.22
318.239	3.59
318.613	3.95
318.987	3.5
319.361	3.81
319.734	2.74
320.108	3.73
320.482	3.54
320.855	3.78
321.229	4.07
321.602	2.95
321.976	3.58
322.349	3.98
322.723	3.93
323.096	4.03
323.469	3.37
323.843	3.78
324.216	3.75
324.589	4.19
324.962	3.63
325.335	3.92
325.708	4.17
326.081	4.16
326.454	3.73
326.827	3.96
327.2	4.29
327.573	4.13
327.945	3.95
328.318	3.96
328.691	4.44
329.063	4.13
329.436	3.84
329.809	4.1
330.181	3.99
330.553	3.73
330.926	4.67
331.298	4.15
331.671	4.28
332.043	4.53
332.415	3.91
332.787	4.35
333.159	4.31
333.532	4.63
333.904	4.47
334.276	4.04
334.648	4.05
335.02	4.27
335.391	4.39
335.763	4.48
336.135	4.52
336.507	3.2
336.879	4.75
337.25	4
337.622	4.31
337.993	4.14
338.365	4.22
338.736	4.18
339.108	3.57
339.479	4.61
339.851	3.95
340.222	4.32
340.593	4.35
340.964	4.58
341.336	3.97
341.707	4.13
342.078	4.39
342.449	4.22
342.82	4.2
343.191	4.38
343.562	4.58
343.933	4.52
344.303	4.27
344.674	4.56
345.045	4.79
345.416	4.38
345.786	4.63
346.157	4.46
346.527	4.52
346.898	4.78
347.268	4.46
347.639	4.93
348.009	4.89
348.38	5.12
348.75	4.55
349.12	4.8
349.49	4.64
349.861	5.05
350.231	4.63
350.601	4.79
350.971	4.78
351.341	4.89
351.711	5.15
352.081	4.78
352.45	4.7
352.82	5
353.19	4.77
353.56	4.9
353.929	4.58
354.299	4.98
354.669	4.87
355.038	5.05
355.408	4.81
355.777	5.03
356.147	5.06
356.516	4.87
356.885	5.02
357.254	5.34
357.624	4.85
357.993	5.07
358.362	5.2
358.731	5.09
359.1	4.82
359.469	5.36
359.838	4.92
360.207	5.72
360.576	5.01
360.945	5.28
361.314	5.44
361.682	4.9
362.051	5.07
362.42	5.19
362.788	5.21
363.157	5.01
363.525	5.26
363.894	5.27
364.262	5.34
364.631	5.32
364.999	5.12
365.367	5.49
365.735	5.36
366.104	5.06
366.472	5.23
366.84	5.87
367.208	5.67
367.576	5.48
367.944	5.63
368.312	5.25
368.68	5.63
369.048	5.61
369.416	5.52
369.783	5.45
370.151	5.91
370.519	5.52
370.886	5.43
371.254	5.72
371.621	5.57
371.989	5.57
372.356	5.52
372.724	5.84
373.091	5.57
373.458	5.63
373.826	5.66
374.193	5.69
374.56	5.71
374.927	5.43
375.294	5.58
375.661	5.88
376.028	5.63
376.395	6.34
376.762	5.96
377.129	5.75
377.496	5.85
377.863	5.94
378.229	5.76
378.596	6.11
378.963	5.93
379.329	6.28
379.696	5.75
380.062	6.09
380.429	6.39
380.795	6.14
381.161	6.43
381.528	6.4
381.894	6.21
382.26	5.88
382.626	6.49
382.993	6.07
383.359	6.21
383.725	6.58
384.091	6.32
384.457	5.94
384.823	6.37
385.188	6.4
385.554	6.03
385.92	6.37
386.286	6.22
386.651	6.13
387.017	6.38
387.383	6.42
387.748	6.63
388.114	6.72
388.479	6.61
388.845	6.49
389.21	6.74
389.575	6.41
389.94	6.77
390.306	6.57
390.671	6.66
391.036	6.74
391.401	6.42
391.766	6.82
392.131	6.73
392.496	6.41
392.861	6.6
393.226	6.58
393.591	6.92
393.956	6.67
394.32	6.89
394.685	6.83
395.05	6.57
395.414	6.87
395.779	6.62
396.143	7.01
396.508	6.98
396.872	6.89
397.236	6.63
397.601	7.22
397.965	7.06
398.329	6.92
398.694	6.97
399.058	6.76
399.422	7.31
399.786	6.89
400.15	7.09
400.514	7.45
400.878	7.07
401.242	7.24
401.605	7.36
401.969	7.29
402.333	7.3
402.697	7.32
403.06	7.03
403.424	7.11
403.787	7.5
404.151	7.36
404.514	7.32
404.878	7.26
405.241	7.49
405.604	7.46
405.968	7.23
406.331	7.43
406.694	7.27
407.057	7.64
407.42	7.55
407.783	7.4
408.146	7.5
408.509	7.59
408.872	7.47
409.235	7.41
409.598	7.5
409.961	7.35
410.323	7.84
410.686	7.59
411.049	7.43
411.411	7.67
411.774	7.75
412.136	7.73
412.499	7.77
412.861	7.76
413.223	7.88
413.586	7.68
413.948	7.58
414.31	7.6
414.672	7.76
415.035	8.14
415.397	7.81
415.759	8.02
416.121	7.91
416.483	7.74
416.845	7.85
417.206	7.84
417.568	8.03
417.93	7.88
418.292	8.07
418.653	7.98
419.015	8.05
419.377	7.96
419.738	7.94
420.1	7.94
420.461	7.97
420.822	7.94
421.184	8.02
421.545	8
421.906	8
422.267	7.97
422.629	7.98
422.99	7.98
423.351	7.97
423.712	8.07
424.073	8.2
424.434	8.1
424.795	8.21
425.155	8.1
425.516	8.18
425.877	8.14
426.238	8.26
426.598	8.14
426.959	8.31
427.32	8.43
427.68	8.26
428.041	8.51
428.401	8.46
428.761	8.53
429.122	8.54
429.482	8.77
429.842	8.74
430.202	8.77
430.563	8.7
430.923	8.89
431.283	8.62
431.643	8.69
432.003	8.71
432.363	8.91
432.722	8.99
433.082	8.7
433.442	8.89
433.802	8.84
434.161	8.94
434.521	8.91
434.881	8.83
435.24	8.73
435.6	9
435.959	8.95
436.319	9.13
436.678	9.05
437.037	9.14
437.396	9.23
437.756	9.16
438.115	9.21
438.474	9.25
438.833	9.26
439.192	9.17
439.551	9.21
439.91	9.23
440.269	9.29
440.628	9.34
440.987	9.16
441.345	9.52
441.704	9.19
442.063	9.36
442.421	9.32
442.78	9.35
443.138	9.52
443.497	9.29
443.855	9.32
444.214	9.56
444.572	9.63
444.93	9.62
445.288	9.42
445.647	9.47
446.005	9.65
446.363	9.63
446.721	9.53
447.079	9.55
447.437	9.53
447.795	9.5
448.153	9.51
448.51	9.59
448.868	9.65
449.226	9.74
449.584	9.77
449.941	9.82
450.299	9.89
450.656	9.96
451.014	9.96
451.371	10.06
451.729	9.96
452.086	10.27
452.443	10.07
452.801	10.13
453.158	10.23
453.515	10.18
453.872	10.09
454.229	10.24
454.586	10.32
454.943	10.13
455.3	10.2
455.657	10.2
456.014	10.4
456.371	10.43
456.727	10.52
457.084	10.33
457.441	10.54
457.797	10.54
458.154	10.69
458.51	10.47
458.867	10.63
459.223	10.84
459.58	10.54
459.936	10.6
460.292	10.37
460.648	10.42
461.005	10.4
461.361	10.39
461.717	10.48
462.073	10.61
462.429	10.65
462.785	10.76
463.141	10.94
463.496	11
463.852	10.91
464.208	10.94
464.564	10.84
464.919	10.95
465.275	11
465.631	10.91
465.986	11.04
466.342	10.99
466.697	11.1
467.052	11.11
467.408	11.13
467.763	11.11
468.118	11.38
468.473	11.28
468.829	11.21
469.184	11.31
469.539	11.13
469.894	11.36
470.249	11.52
470.603	11.33
470.958	11.49
471.313	11.42
471.668	11.48
472.023	11.57
472.377	11.47
472.732	11.72
473.086	11.73
473.441	11.57
473.795	11.68
474.15	11.6
474.504	11.6
474.859	11.66
475.213	11.78
475.567	11.96
475.921	11.76
476.275	11.92
476.63	11.95
476.984	12.06
477.338	11.72
477.692	11.85
478.045	11.93
478.399	12.1
478.753	11.85
479.107	11.92
479.461	12.01
479.814	11.99
480.168	12.09
480.521	12.06
480.875	12.22
481.228	12.11
481.582	12.13
481.935	12.06
482.289	12.24
482.642	12.09
482.995	12.19
483.348	12.15
483.701	12.1
484.055	11.96
484.408	11.93
484.761	11.72
485.114	11.56
485.466	11.53
485.819	11.63
486.172	11.75
486.525	11.88
486.878	12.04
487.23	12.06
487.583	12.21
487.936	12.16
488.288	12.09
488.641	12.02
488.993	11.98
489.345	12.02
489.698	12.04
490.05	12.22
490.402	12.29
490.754	12.4
491.107	12.4
491.459	12.68
491.811	12.53
492.163	12.57
492.515	12.47
492.866	12.39
493.218	12.36
493.57	12.37
493.922	12.5
494.274	12.7
494.625	12.84
494.977	13.01
495.328	12.97
495.68	13.19
496.031	13.23
496.383	13.15
496.734	13.18
497.086	13.35
497.437	13.29
497.788	13.28
498.139	13.21
498.49	13.2
498.842	13.23
499.193	13.29
499.544	13.47
499.894	13.45
500.245	13.48
500.596	13.55
500.947	13.46
501.298	13.75
501.648	13.56
501.999	13.74
502.35	13.78
502.7	13.97
503.051	13.97
503.401	13.82
503.752	13.92
504.102	13.88
504.452	13.97
504.803	13.99
505.153	14
505.503	14.05
505.853	13.91
506.203	14.11
506.553	14.18
506.903	13.92
507.253	14.23
507.603	14.25
507.953	14.26
508.303	14.34
508.652	14.24
509.002	14.31
509.352	14.36
509.701	14.3
510.051	14.29
510.4	14.22
510.75	14.2
511.099	14.24
511.449	14.4
511.798	14.37
512.147	14.41
512.496	14.46
512.846	14.56
513.195	14.52
513.544	14.45
513.893	14.52
514.242	14.6
514.591	14.6
514.939	14.63
515.288	14.7
515.637	14.73
515.986	14.82
516.334	14.77
516.683	14.77
517.032	14.83
517.38	14.87
517.729	14.94
518.077	14.8
518.426	14.84
518.774	14.94
519.122	14.86
519.47	14.75
519.819	14.71
520.167	14.78
520.515	14.84
520.863	14.84
521.211	14.92
521.559	15.03
521.907	15.05
522.255	15.14
522.602	15.29
522.95	15.29
523.298	15.36
523.645	15.47
523.993	15.43
524.341	15.51
524.688	15.47
525.036	15.51
525.383	15.63
525.73	15.49
526.078	15.48
526.425	15.53
526.772	15.41
527.119	15.29
527.466	15.31
527.814	15.4
528.161	15.44
528.508	15.39
528.854	15.38
529.201	15.27
529.548	15.27
529.895	14.98
530.242	15.05
530.588	15.16
530.935	15.22
531.282	15.22
531.628	15.43
531.975	15.57
532.321	15.71
532.667	15.78
533.014	15.81
533.36	15.83
533.706	15.76
534.052	15.82
534.399	15.7
534.745	15.61
535.091	15.68
535.437	15.77
535.783	15.76
536.129	15.93
536.474	16.16
536.82	16.22
537.166	16.25
537.512	16.18
537.857	16.23
538.203	16.2
538.549	16.27
538.894	16.43
539.239	16.56
539.585	16.54
539.93	16.51
540.276	16.7
540.621	16.85
540.966	16.79
541.311	16.71
541.656	16.76
542.001	16.49
542.346	16.32
542.691	16.2
543.036	16.22
543.381	16.28
543.726	16.41
544.071	16.56
544.415	16.67
544.76	16.62
545.105	16.78
545.449	16.93
545.794	16.89
546.138	17.07
546.483	17.15
546.827	17.04
547.171	17.15
547.516	17.18
547.86	17.16
548.204	17.12
548.548	17.11
548.892	17.29
549.236	17.36
549.58	17.48
549.924	17.55
550.268	17.55
550.612	17.73
550.956	17.69
551.3	17.95
551.643	17.96
551.987	17.85
552.33	17.95
552.674	17.82
553.017	17.98
553.361	17.88
553.704	18.07
554.048	18.02
554.391	18.01
554.734	17.99
555.077	17.84
555.42	18.08
555.764	18.11
556.107	18.12
556.45	18.29
556.793	18.27
557.135	18.49
557.478	18.35
557.821	18.58
558.164	18.41
558.507	18.49
558.849	18.66
559.192	18.69
559.534	18.62
559.877	18.7
560.219	18.93
560.562	18.83
560.904	18.86
561.246	18.8
561.589	18.91
561.931	18.72
562.273	18.63
562.615	18.93
562.957	18.76
563.299	18.9
563.641	18.86
563.983	19.25
564.325	18.8
564.667	19.05
565.008	19.21
565.35	19.41
565.692	19.19
566.033	19.1
566.375	19.15
566.716	19.21
567.058	19.16
567.399	19.06
567.741	19.11
568.082	19.18
568.423	19.33
568.764	19.23
569.105	19.39
569.447	19.5
569.788	19.48
570.129	19.72
570.47	19.64
570.811	19.42
571.151	19.69
571.492	19.59
571.833	19.6
572.174	19.79
572.514	19.7
572.855	19.69
573.195	19.75
573.536	19.58
573.876	19.47
574.217	19.63
574.557	19.68
574.898	19.79
575.238	19.94
575.578	19.94
575.918	19.9
576.258	19.98
576.598	20.02
576.938	20.04
577.278	20.03
577.618	20.38
577.958	20.16
578.298	20.17
578.638	20.27
578.977	20.37
579.317	20.42
579.657	20.37
579.996	20.38
580.336	20.58
580.675	20.61
581.014	20.41
581.354	20.71
581.693	20.65
582.032	20.7
582.372	20.93
582.711	20.84
583.05	20.72
583.389	20.93
583.728	20.78
584.067	21.05
584.406	20.99
584.745	21.21
585.083	20.76
585.422	21.2
585.761	21.19
586.1	21.39
586.438	21.16
586.777	21.15
587.115	21.22
587.454	21.35
587.792	21.14
588.13	21.31
588.469	21.5
588.807	21.38
589.145	21.29
589.483	21.6
589.821	21.49
590.159	21.33
590.497	21.39
590.835	21.6
591.173	21.38
591.511	21.64
591.849	21.68
592.187	21.41
592.524	21.48
592.862	21.37
593.2	21.58
593.537	21.74
593.875	21.9
594.212	21.89
594.55	21.84
594.887	21.78
595.224	22.16
595.561	21.97
595.899	21.94
596.236	21.97
596.573	22.02
596.91	21.91
597.247	21.88
597.584	21.97
597.921	21.77
598.258	22.08
598.594	21.93
598.931	22.12
599.268	21.89
599.604	21.97
599.941	22.33
600.277	22.39
600.614	22.3
600.95	22.52
601.287	22.26
601.623	22.43
601.959	22.27
602.296	22.58
602.632	22.55
602.968	22.49
603.304	22.63
603.64	22.74
603.976	22.92
604.312	22.46
604.648	22.61
604.984	22.72
605.319	22.5
605.655	22.49
605.991	22.32
606.326	22.51
606.662	22.72
606.998	22.88
607.333	22.64
607.668	22.87
608.004	23.05
608.339	23.09
608.674	23.15
609.01	23.12
609.345	23.29
609.68	23.05
610.015	23.3
610.35	22.96
610.685	23.11
611.02	23.1
611.355	23.18
611.689	23.29
612.024	23.25
612.359	23.22
612.694	23.15
613.028	23.46
613.363	23.34
613.697	23.52
614.032	23.99
614.366	23.84
614.7	23.46
615.035	23.77
615.369	23.61
615.703	23.97
616.037	23.61
616.371	23.87
616.705	23.76
617.039	23.96
617.373	23.67
617.707	24.2
618.041	23.69
618.375	23.89
618.709	23.74
619.042	23.93
619.376	24.22
619.71	24.2
620.043	23.78
620.377	24.21
620.71	24.08
621.043	24.29
621.377	24.17
621.71	24.36
622.043	24.07
622.376	24.47
622.709	24.77
623.043	24.42
623.376	24.64
623.709	24.72
624.041	24.44
624.374	24.93
624.707	24.77
625.04	24.82
625.373	24.7
625.705	24.59
626.038	24.81
626.37	24.55
626.703	24.85
627.035	25.14
627.368	24.72
627.7	24.6
628.032	24.98
628.365	24.65
628.697	24.75
629.029	25.06
629.361	24.99
629.693	25.2
630.025	25.25
630.357	25.25
630.689	25.05
631.021	25.18
631.353	25.06
631.684	25.06
632.016	25.21
632.348	25.19
632.679	25.29
633.011	25.62
633.342	25.15
633.674	25.49
634.005	25.45
634.336	25.52
634.668	25.37
634.999	25.6
635.33	25.59
635.661	25.31
635.992	25.58
636.323	25.74
636.654	25.59
636.985	25.88
637.316	25.63
637.647	25.77
637.977	26.24
638.308	25.64
638.639	26.16
638.969	25.74
639.3	25.97
639.63	26.2
639.961	26.1
640.291	25.74
640.622	26.02
640.952	26.25
641.282	26
641.612	26.53
641.943	26.7
642.273	26.38
642.603	26.37
642.933	26.22
643.263	25.96
643.592	26.36
643.922	26.94
644.252	26.57
644.582	25.96
644.911	26.57
645.241	26.63
645.571	26.59
645.9	26.59
646.23	26.94
646.559	26.82
646.888	26.48
647.218	26.34
647.547	26.8
647.876	26.71
648.205	26.8
648.534	26.69
648.863	26.93
649.192	26.56
649.521	26.69
649.85	26.7
650.179	26.68
650.508	27.11
650.837	27.43
651.165	26.6
651.494	27.14
651.822	27.52
652.151	27.26
652.479	26.82
652.808	26.98
653.136	26.83
653.465	27.16
653.793	27.4
654.121	27.18
654.449	27.66
654.777	27.19
655.105	27.81
655.433	27.44
655.761	27.62
656.089	27.34
656.417	27.66
656.745	27.67
657.073	27.53
657.4	27.68
657.728	28.29
658.056	27.94
658.383	27.68
658.711	28.01
659.038	27.6
659.365	27.73
659.693	27.89
660.02	27.55
660.347	27.96
660.674	28.17
661.001	27.75
661.329	27.62
661.656	27.64
661.982	28.32
662.309	28
662.636	28.48
662.963	27.56
663.29	28.25
663.616	28.14
663.943	28.49
664.27	28.28
664.596	28.34
664.923	28.17
665.249	28.52
665.576	28.47
665.902	28.22
666.228	28.29
666.554	28.25
666.881	28.11
667.207	28.95
667.533	28.61
667.859	27.97
668.185	28.67
668.511	28.94
668.837	28.99
669.162	28.95
669.488	28.9
669.814	28.28
670.139	29.1
670.465	28.48
670.791	28.43
671.116	29.02
671.442	28.83
671.767	29.08
672.092	29.79
672.418	29.37
672.743	28.66
673.068	29.1
673.393	29.55
673.718	29.25
674.043	29.18
674.368	29.17
674.693	29.24
675.018	29.12
675.343	28.78
675.667	29.38
675.992	29.31
676.317	29.46
676.641	29.92
676.966	29.46
677.29	29.02
