Data from 0031_crown_Reflection__1__143.txt Node

Date: Thu Oct 20 22:01:54 CDT 2022
User: ToomeyLab
Spectrometer: FLMS14357
Trigger mode: 0
Integration Time (sec): 1.000000E-2
Scans to average: 100
Electric dark correction enabled: true
Nonlinearity correction enabled: false
Boxcar width: 0
XAxis mode: Wavelengths
Number of Pixels in Spectrum: 2048
>>>>>Begin Spectral Data<<<<<
189.047	54.79
189.435	54.79
189.823	54.79
190.211	143
190.599	-8.83
190.987	47.78
191.375	45.62
191.763	3.64
192.151	109.95
192.538	163.01
192.926	185.77
193.314	-40.96
193.702	-1718.03
194.089	572.63
194.477	-192.21
194.864	-80
195.252	-6.11
195.639	1214.41
196.027	-160.18
196.414	119.68
196.801	-3251.61
197.189	21.29
197.576	4637.04
197.963	147.57
198.351	-0.27
198.738	-77.62
199.125	-12.62
199.512	-23.22
199.899	-0.59
200.286	-4.17
200.673	-15.17
201.06	18.04
201.447	-3.62
201.833	-10.88
202.22	-11.85
202.607	10.16
202.994	-34.58
203.38	-28.17
203.767	13.97
204.154	22.74
204.54	-42.52
204.927	-8.9
205.313	18.16
205.699	-20.35
206.086	11.86
206.472	6.11
206.858	15.91
207.245	10.55
207.631	-35.65
208.017	-1.89
208.403	-87.41
208.789	15.59
209.175	9.23
209.561	-4.35
209.947	-18.95
210.333	0.32
210.719	11.68
211.105	-0.45
211.491	-70.69
211.876	-36.5
212.262	7.02
212.648	-45.32
213.034	-5.55
213.419	-24.99
213.805	-32.17
214.19	-29.42
214.576	-17.23
214.961	-5.11
215.346	-23.25
215.732	3.88
216.117	-25.08
216.502	-1.01
216.888	-19.2
217.273	-39.8
217.658	21.62
218.043	4.17
218.428	-28.9
218.813	18.38
219.198	-8.71
219.583	-0.07
219.968	32.58
220.353	-18.33
220.738	9.96
221.122	0.74
221.507	6.84
221.892	-0.78
222.276	0.84
222.661	14.39
223.046	16.2
223.43	11.78
223.815	5.36
224.199	-1.89
224.583	3.24
224.968	2.05
225.352	12.01
225.736	9.21
226.121	2.26
226.505	9.15
226.889	6.04
227.273	-1.34
227.657	3.79
228.041	1.76
228.425	8.13
228.809	9.45
229.193	8.24
229.577	7.03
229.961	7.57
230.344	6.75
230.728	7.19
231.112	6.64
231.495	7.6
231.879	9.69
232.263	8.41
232.646	7.83
233.03	7.35
233.413	6.58
233.797	3.01
234.18	6.06
234.563	6.44
234.946	6.49
235.33	6.68
235.713	5.56
236.096	5.05
236.479	8.02
236.862	7.54
237.245	7.72
237.628	7.05
238.011	7.39
238.394	7.58
238.777	5.87
239.16	6.67
239.543	5.11
239.925	7.3
240.308	6.29
240.691	7.89
241.073	5.95
241.456	7.64
241.838	6.89
242.221	6.91
242.603	7.36
242.986	7.54
243.368	7.3
243.75	7.33
244.133	7.49
244.515	6.92
244.897	6.87
245.279	6.04
245.661	8.12
246.043	7.06
246.425	7.12
246.807	7.31
247.189	7.31
247.571	7.57
247.953	7.04
248.335	7.21
248.717	6.94
249.098	6.87
249.48	7.03
249.862	7.13
250.243	6.78
250.625	7.41
251.006	7.4
251.388	6.87
251.769	7.33
252.151	6.75
252.532	6.88
252.913	7.13
253.295	7.41
253.676	7.39
254.057	6.21
254.438	6.57
254.819	6.15
255.2	7.18
255.581	7.03
255.962	7.26
256.343	6.84
256.724	6.72
257.105	6.35
257.486	6.74
257.867	7.19
258.247	7
258.628	7.83
259.009	6.13
259.389	7.38
259.77	6.94
260.15	7.01
260.531	7.21
260.911	7.05
261.292	7.22
261.672	6.93
262.052	6.59
262.432	6.74
262.813	6.44
263.193	6.93
263.573	7.21
263.953	6.98
264.333	6.46
264.713	6.69
265.093	6.27
265.473	7.19
265.853	7.15
266.233	6.51
266.612	7.32
266.992	6.9
267.372	6.9
267.752	6.98
268.131	6.73
268.511	6.8
268.89	6.42
269.27	7.13
269.649	6.4
270.029	6.7
270.408	6.43
270.787	6.5
271.167	6.57
271.546	6.61
271.925	7.09
272.304	6.87
272.683	7.13
273.062	6.47
273.441	6.62
273.82	6.68
274.199	6.45
274.578	6.22
274.957	6.46
275.336	7.03
275.715	6.93
276.093	7.22
276.472	6.95
276.851	7.68
277.229	6.45
277.608	6.16
277.986	6.96
278.365	6.76
278.743	6.32
279.122	6.65
279.5	6.64
279.878	6.73
280.257	6.33
280.635	6.64
281.013	6.62
281.391	6.8
281.769	6.77
282.147	6.01
282.525	6.55
282.903	6.91
283.281	6.28
283.659	6.33
284.037	6.12
284.415	6.35
284.792	6.55
285.17	7.17
285.548	6.46
285.925	6.4
286.303	6.36
286.68	6.69
287.058	6.38
287.435	6.27
287.813	6.18
288.19	6.15
288.567	6.47
288.945	6.62
289.322	6.22
289.699	6.19
290.076	6.25
290.453	6.29
290.83	6.47
291.207	6.37
291.584	6.27
291.961	6.13
292.338	5.78
292.715	5.83
293.092	6.42
293.469	6.48
293.845	6.02
294.222	6.77
294.599	6.81
294.975	5.85
295.352	6.5
295.728	6.12
296.105	6.65
296.481	5.82
296.858	6.45
297.234	6.44
297.61	6.55
297.986	6.13
298.363	6.24
298.739	6.11
299.115	6.05
299.491	6.13
299.867	5.95
300.243	6.05
300.619	6.39
300.995	5.85
301.371	6.06
301.746	5.71
302.122	6.15
302.498	5.92
302.874	6.44
303.249	6.25
303.625	6.41
304	6.47
304.376	5.79
304.751	6.27
305.127	5.58
305.502	6.05
305.878	5.67
306.253	5.72
306.628	5.95
307.003	5.58
307.378	5.41
307.754	6.19
308.129	5.76
308.504	6.06
308.879	5.45
309.254	5.84
309.629	5.97
310.003	5.7
310.378	5.81
310.753	5.79
311.128	5.59
311.502	5.41
311.877	6.14
312.252	5.55
312.626	5.83
313.001	5.93
313.375	5.82
313.75	5.61
314.124	5.42
314.498	5.87
314.873	5.9
315.247	5.61
315.621	5.58
315.995	5.41
316.369	5.64
316.743	5.51
317.117	6.03
317.491	5.83
317.865	5.73
318.239	5.75
318.613	6.33
318.987	5.64
319.361	5.77
319.734	5.15
320.108	5.7
320.482	6.04
320.855	5.81
321.229	5.53
321.602	5.02
321.976	5.56
322.349	5.95
322.723	6.09
323.096	5.29
323.469	5.22
323.843	5.79
324.216	5.42
324.589	6.09
324.962	5.59
325.335	5.98
325.708	5.68
326.081	5.94
326.454	5.55
326.827	5.4
327.2	5.78
327.573	5.7
327.945	5.69
328.318	5.34
328.691	5.96
329.063	5.9
329.436	5.46
329.809	5.84
330.181	5.34
330.553	5.66
330.926	5.44
331.298	5.21
331.671	5.82
332.043	5.79
332.415	5.5
332.787	5.46
333.159	5.82
333.532	5.58
333.904	5.55
334.276	5.88
334.648	5.12
335.02	5.41
335.391	5.74
335.763	5.63
336.135	5.39
336.507	5.14
336.879	5.91
337.25	5.34
337.622	5.43
337.993	5.61
338.365	5.8
338.736	5.01
339.108	4.83
339.479	5.52
339.851	5.21
340.222	5.38
340.593	5.95
340.964	5.2
341.336	5.14
341.707	5.05
342.078	5.49
342.449	5.36
342.82	5.5
343.191	5.35
343.562	5.74
343.933	5.27
344.303	5.12
344.674	4.98
345.045	5.85
345.416	5.64
345.786	5.48
346.157	5.7
346.527	5.02
346.898	5.52
347.268	5.22
347.639	5.29
348.009	5.32
348.38	5.51
348.75	5.07
349.12	5.55
349.49	5.69
349.861	5.62
350.231	5.64
350.601	5.51
350.971	5.42
351.341	5.8
351.711	5.52
352.081	4.96
352.45	5.28
352.82	5.44
353.19	5.2
353.56	5.48
353.929	5.28
354.299	5.68
354.669	5.44
355.038	5.38
355.408	4.92
355.777	5.27
356.147	5.79
356.516	5.24
356.885	5.32
357.254	5.85
357.624	5.74
357.993	5.34
358.362	5.61
358.731	5.74
359.1	5.14
359.469	5.56
359.838	5.43
360.207	5.95
360.576	5.42
360.945	5.85
361.314	5.7
361.682	5.57
362.051	5.28
362.42	5.54
362.788	5.52
363.157	5.38
363.525	5.69
363.894	5.34
364.262	5.55
364.631	5.32
364.999	5.34
365.367	5.55
365.735	5.62
366.104	5.3
366.472	5.25
366.84	5.9
367.208	5.54
367.576	5.57
367.944	5.83
368.312	5.39
368.68	5.68
369.048	5.3
369.416	5.43
369.783	5.63
370.151	5.63
370.519	5.46
370.886	5.29
371.254	5.61
371.621	5.58
371.989	5.58
372.356	5.48
372.724	5.56
373.091	5.46
373.458	5.28
373.826	5.55
374.193	5.53
374.56	5.07
374.927	5.43
375.294	5.56
375.661	5.77
376.028	5.38
376.395	5.86
376.762	5.56
377.129	5.57
377.496	5.43
377.863	5.32
378.229	5.36
378.596	5.7
378.963	5.76
379.329	5.77
379.696	5.44
380.062	5.38
380.429	5.81
380.795	5.69
381.161	5.72
381.528	5.53
381.894	5.77
382.26	5.4
382.626	5.8
382.993	5.52
383.359	5.76
383.725	5.59
384.091	5.69
384.457	5.67
384.823	5.76
385.188	5.76
385.554	5.41
385.92	5.77
386.286	5.09
386.651	5.36
387.017	5.69
387.383	5.75
387.748	5.95
388.114	5.69
388.479	5.59
388.845	5.8
389.21	5.74
389.575	5.34
389.94	5.83
390.306	5.99
390.671	5.93
391.036	5.48
391.401	5.63
391.766	5.73
392.131	5.9
392.496	5.6
392.861	5.72
393.226	5.78
393.591	5.84
393.956	5.75
394.32	5.69
394.685	6.05
395.05	5.66
395.414	5.71
395.779	5.66
396.143	5.75
396.508	5.7
396.872	5.9
397.236	5.74
397.601	6.04
397.965	6.04
398.329	5.88
398.694	5.9
399.058	5.54
399.422	5.96
399.786	5.97
400.15	5.76
400.514	6.02
400.878	5.68
401.242	6.01
401.605	5.91
401.969	6.19
402.333	5.91
402.697	6.04
403.06	5.67
403.424	5.75
403.787	5.84
404.151	5.76
404.514	5.94
404.878	5.85
405.241	6.03
405.604	6.11
405.968	6.04
406.331	5.8
406.694	5.67
407.057	5.95
407.42	5.82
407.783	5.8
408.146	5.86
408.509	5.81
408.872	5.85
409.235	5.77
409.598	5.99
409.961	6.13
410.323	6.31
410.686	5.78
411.049	5.81
411.411	5.92
411.774	6.06
412.136	6
412.499	6.04
412.861	5.89
413.223	5.91
413.586	5.87
413.948	5.83
414.31	6.33
414.672	5.9
415.035	5.91
415.397	5.94
415.759	5.84
416.121	6.05
416.483	5.95
416.845	5.94
417.206	6.07
417.568	6.1
417.93	5.84
418.292	6.22
418.653	6.06
419.015	6.12
419.377	6.01
419.738	6.11
420.1	5.94
420.461	6.05
420.822	6.05
421.184	6.11
421.545	6.04
421.906	5.95
422.267	6.09
422.629	5.97
422.99	6.01
423.351	5.93
423.712	5.91
424.073	5.99
424.434	5.9
424.795	6.09
425.155	6.07
425.516	6.07
425.877	5.96
426.238	6.11
426.598	6.01
426.959	5.96
427.32	5.97
427.68	5.98
428.041	5.95
428.401	6.18
428.761	5.96
429.122	6.11
429.482	6.09
429.842	6.03
430.202	6.15
430.563	6.04
430.923	6.16
431.283	6.21
431.643	6.16
432.003	5.99
432.363	6.31
432.722	6.29
433.082	6.07
433.442	6.21
433.802	6.28
434.161	6.26
434.521	6.24
434.881	6.15
435.24	6.08
435.6	6.18
435.959	6.23
436.319	6.17
436.678	6.06
437.037	6.25
437.396	6.18
437.756	6.13
438.115	6.14
438.474	6.09
438.833	6.18
439.192	6.28
439.551	6.23
439.91	6.24
440.269	6.2
440.628	6.31
440.987	6.21
441.345	6.31
441.704	6.26
442.063	6.38
442.421	6.25
442.78	6.28
443.138	6.34
443.497	6.13
443.855	6.17
444.214	6.23
444.572	6.59
444.93	6.11
445.288	6.06
445.647	6.21
446.005	6.26
446.363	6.28
446.721	6.25
447.079	6.24
447.437	6.22
447.795	6.17
448.153	6.23
448.51	6.21
448.868	6.24
449.226	6.18
449.584	6.25
449.941	6.31
450.299	6.24
450.656	6.16
451.014	6.34
451.371	6.34
451.729	6.3
452.086	6.33
452.443	6.13
452.801	6.44
453.158	6.4
453.515	6.49
453.872	6.33
454.229	6.23
454.586	6.35
454.943	6.25
455.3	6.31
455.657	6.38
456.014	6.29
456.371	6.29
456.727	6.36
457.084	6.25
457.441	6.32
457.797	6.36
458.154	6.31
458.51	6.3
458.867	6.58
459.223	6.63
459.58	6.27
459.936	6.5
460.292	6.41
460.648	6.31
461.005	6.44
461.361	6.43
461.717	6.36
462.073	6.37
462.429	6.32
462.785	6.35
463.141	6.55
463.496	6.59
463.852	6.43
464.208	6.53
464.564	6.41
464.919	6.36
465.275	6.58
465.631	6.2
465.986	6.59
466.342	6.28
466.697	6.58
467.052	6.46
467.408	6.39
467.763	6.5
468.118	6.6
468.473	6.63
468.829	6.59
469.184	6.5
469.539	6.37
469.894	6.43
470.249	6.48
470.603	6.38
470.958	6.54
471.313	6.58
471.668	6.42
472.023	6.45
472.377	6.53
472.732	6.61
473.086	6.56
473.441	6.61
473.795	6.67
474.15	6.42
474.504	6.49
474.859	6.6
475.213	6.62
475.567	6.83
475.921	6.45
476.275	6.64
476.63	6.62
476.984	6.71
477.338	6.64
477.692	6.62
478.045	6.63
478.399	6.67
478.753	6.57
479.107	6.45
479.461	6.68
479.814	6.66
480.168	6.71
480.521	6.55
480.875	6.69
481.228	6.54
481.582	6.54
481.935	6.52
482.289	6.47
482.642	6.46
482.995	6.61
483.348	6.73
483.701	6.55
484.055	6.59
484.408	6.53
484.761	6.5
485.114	6.51
485.466	6.4
485.819	6.32
486.172	6.19
486.525	6.18
486.878	6.19
487.23	6.24
487.583	6.34
487.936	6.48
488.288	6.49
488.641	6.53
488.993	6.48
489.345	6.44
489.698	6.41
490.05	6.34
490.402	6.36
490.754	6.36
491.107	6.34
491.459	6.47
491.811	6.4
492.163	6.65
492.515	6.55
492.866	6.68
493.218	6.54
493.57	6.46
493.922	6.37
494.274	6.31
494.625	6.35
494.977	6.46
495.328	6.53
495.68	6.57
496.031	6.67
496.383	6.68
496.734	6.58
497.086	6.76
497.437	6.77
497.788	6.78
498.139	6.73
498.49	6.76
498.842	6.61
499.193	6.63
499.544	6.66
499.894	6.65
500.245	6.62
500.596	6.69
500.947	6.66
501.298	6.66
501.648	6.64
501.999	6.77
502.35	6.75
502.7	6.71
503.051	6.7
503.401	6.72
503.752	6.69
504.102	6.61
504.452	6.75
504.803	6.76
505.153	6.86
505.503	6.97
505.853	6.76
506.203	6.79
506.553	6.84
506.903	6.72
507.253	6.78
507.603	6.84
507.953	6.98
508.303	6.89
508.652	6.81
509.002	6.82
509.352	6.82
509.701	6.86
510.051	6.76
510.4	6.82
510.75	6.76
511.099	6.82
511.449	6.81
511.798	6.75
512.147	6.86
512.496	6.91
512.846	6.92
513.195	6.92
513.544	6.83
513.893	6.98
514.242	6.75
514.591	6.87
514.939	6.82
515.288	6.93
515.637	6.72
515.986	6.87
516.334	6.82
516.683	6.82
517.032	6.83
517.38	6.87
517.729	6.98
518.077	6.78
518.426	6.88
518.774	6.88
519.122	6.98
519.47	6.86
519.819	6.89
520.167	6.83
520.515	6.87
520.863	6.82
521.211	6.84
521.559	6.83
521.907	6.77
522.255	6.8
522.602	6.86
522.95	6.98
523.298	6.85
523.645	6.87
523.993	6.91
524.341	7.06
524.688	6.93
525.036	6.91
525.383	7.09
525.73	6.88
526.078	7.01
526.425	7.08
526.772	6.93
527.119	6.9
527.466	6.97
527.814	6.89
528.161	6.75
528.508	6.82
528.854	6.82
529.201	7
529.548	6.92
529.895	6.89
530.242	6.89
530.588	6.75
530.935	6.61
531.282	6.49
531.628	6.6
531.975	6.68
532.321	6.68
532.667	6.83
533.014	6.89
533.36	6.87
533.706	6.88
534.052	6.95
534.399	7.02
534.745	6.94
535.091	6.9
535.437	6.75
535.783	6.7
536.129	6.65
536.474	6.69
536.82	6.79
537.166	6.86
537.512	6.91
537.857	7.01
538.203	7.03
538.549	6.92
538.894	6.82
539.239	6.86
539.585	6.88
539.93	6.82
540.276	7.11
540.621	6.99
540.966	6.97
541.311	7.04
541.656	7.1
542.001	7.03
542.346	7.05
542.691	7.05
543.036	6.92
543.381	6.89
543.726	6.78
544.071	6.74
544.415	6.76
544.76	6.77
545.105	6.87
545.449	6.91
545.794	6.91
546.138	7.01
546.483	6.94
546.827	7.08
547.171	7.05
547.516	7.04
547.86	6.95
548.204	7.23
548.548	7.04
548.892	7.02
549.236	6.96
549.58	6.88
549.924	6.98
550.268	7.07
550.612	7.22
550.956	7.13
551.3	7.16
551.643	7.22
551.987	7.22
552.33	7.18
552.674	7.05
553.017	7.1
553.361	7.39
553.704	7.18
554.048	7.23
554.391	7.2
554.734	7.12
555.077	6.93
555.42	7.17
555.764	7.03
556.107	7.04
556.45	6.98
556.793	7.14
557.135	7.18
557.478	7.09
557.821	7.23
558.164	7.2
558.507	7.31
558.849	7.39
559.192	7.3
559.534	7.26
559.877	7.17
560.219	7.29
560.562	7.23
560.904	7.03
561.246	7.12
561.589	7.41
561.931	7.05
562.273	7.16
562.615	7.3
562.957	7.2
563.299	7.39
563.641	7.13
563.983	7.29
564.325	7.1
564.667	7.17
565.008	7.19
565.35	7.32
565.692	7.18
566.033	6.96
566.375	7.2
566.716	7.34
567.058	7.21
567.399	7.37
567.741	7.16
568.082	7.31
568.423	7.23
568.764	6.97
569.105	7.17
569.447	7.25
569.788	7.11
570.129	7.35
570.47	7.33
570.811	7.01
571.151	7.25
571.492	7.18
571.833	7.22
572.174	7.18
572.514	7.27
572.855	7.29
573.195	7.3
573.536	7.31
573.876	7.16
574.217	7.25
574.557	7.17
574.898	7.22
575.238	7.42
575.578	6.98
575.918	7.19
576.258	7.21
576.598	7.27
576.938	7.21
577.278	7.28
577.618	7.45
577.958	7.15
578.298	7.15
578.638	7.19
578.977	7.42
579.317	7.06
579.657	7.26
579.996	7.2
580.336	7.27
580.675	7.52
581.014	7.27
581.354	7.38
581.693	7.34
582.032	7.47
582.372	7.41
582.711	7.19
583.05	7.4
583.389	7.44
583.728	7.37
584.067	7.28
584.406	7.36
584.745	7.13
585.083	7.25
585.422	7.38
585.761	7.54
586.1	7.4
586.438	7.68
586.777	7.3
587.115	7.28
587.454	7.44
587.792	7.24
588.13	7.43
588.469	7.37
588.807	7.22
589.145	7.21
589.483	7.2
589.821	7.18
590.159	7.38
590.497	7.4
590.835	7.49
591.173	7.32
591.511	7.32
591.849	7.3
592.187	7.04
592.524	7.33
592.862	7.14
593.2	7.33
593.537	7.32
593.875	7.36
594.212	7.42
594.55	7.25
594.887	7.18
595.224	7.53
595.561	7.52
595.899	7.6
596.236	7.44
596.573	7.55
596.91	7.34
597.247	7.49
597.584	7.38
597.921	7.35
598.258	7.4
598.594	7.43
598.931	7.43
599.268	7.22
599.604	7.05
599.941	7.31
600.277	7.21
600.614	7.18
600.95	7.39
601.287	7.28
601.623	7.19
601.959	7.25
602.296	7.46
602.632	7.2
602.968	7.62
603.304	7.23
603.64	7.3
603.976	7.24
604.312	7.5
604.648	7.37
604.984	7.34
605.319	7.44
605.655	7.39
605.991	7.32
606.326	7.56
606.662	7.39
606.998	7.46
607.333	7.09
607.668	7.31
608.004	7.18
608.339	7.29
608.674	7.47
609.01	7.44
609.345	7.58
609.68	7.22
610.015	7.54
610.35	7.61
610.685	7.42
611.02	7.36
611.355	7.38
611.689	7.51
612.024	7.32
612.359	7.37
612.694	7.24
613.028	7.25
613.363	7.16
613.697	7.39
614.032	7.44
614.366	7.45
614.7	7.13
615.035	6.94
615.369	7.49
615.703	7.41
616.037	7.63
616.371	7.11
616.705	7.25
617.039	7.4
617.373	7.3
617.707	7.5
618.041	7.23
618.375	7.26
618.709	7.12
619.042	7.1
619.376	7.24
619.71	7.55
620.043	7.33
620.377	7.56
620.71	7.32
621.043	7.16
621.377	7.08
621.71	7.31
622.043	7.05
622.376	7.94
622.709	7.64
623.043	7.54
623.376	7.53
623.709	7.53
624.041	7.33
624.374	7.85
624.707	7.17
625.04	7.73
625.373	7.57
625.705	7.34
626.038	7.52
626.37	7.4
626.703	7.43
627.035	7.53
627.368	7.65
627.7	7.42
628.032	7.66
628.365	7.43
628.697	7.46
629.029	7.69
629.361	7.49
629.693	7.51
630.025	7.69
630.357	7.42
630.689	7.35
631.021	7.61
631.353	7.57
631.684	7.54
632.016	7.22
632.348	7.34
632.679	7.45
633.011	7.71
633.342	7.42
633.674	7.51
634.005	7.51
634.336	7.35
634.668	7.73
634.999	7.42
635.33	7.69
635.661	7.39
635.992	7.46
636.323	7.55
636.654	7.34
636.985	7.54
637.316	7.56
637.647	7.79
637.977	7.84
638.308	7.53
638.639	7.86
638.969	7.42
639.3	7.62
639.63	7.51
639.961	7.43
640.291	7.48
640.622	7.71
640.952	7.49
641.282	7.47
641.612	7.92
641.943	7.29
642.273	7.72
642.603	7.38
642.933	7.63
643.263	7.28
643.592	7.62
643.922	7.82
644.252	7.97
644.582	7.8
644.911	7.86
645.241	7.52
645.571	7.26
645.9	7.27
646.23	7.48
646.559	7.37
646.888	7.92
647.218	7.29
647.547	7.54
647.876	7.19
648.205	7.17
648.534	7.3
648.863	7.37
649.192	7.19
649.521	7.22
649.85	7.44
650.179	7.22
650.508	8.29
650.837	7.33
651.165	7
651.494	7.65
651.822	7.57
652.151	7.81
652.479	7.3
652.808	7.15
653.136	7.04
653.465	7.51
653.793	7.72
654.121	7.44
654.449	7.63
654.777	7.48
655.105	8.04
655.433	7.15
655.761	8.05
656.089	7.2
656.417	7.75
656.745	7.92
657.073	7.26
657.4	7.6
657.728	7.82
658.056	7.4
658.383	7.99
658.711	7.81
659.038	7.93
659.365	7.57
659.693	7.97
660.02	7.81
660.347	8.11
660.674	7.93
661.001	7.7
661.329	7.8
661.656	7.16
661.982	7.81
662.309	7.49
662.636	7.59
662.963	6.75
663.29	8.07
663.616	7.57
663.943	7.88
664.27	7.89
664.596	7.9
664.923	7.06
665.249	8.1
665.576	8.01
665.902	7.63
666.228	7.38
666.554	7.16
666.881	7.82
667.207	8.08
667.533	7.53
667.859	7.22
668.185	7.92
668.511	7.93
668.837	7.55
669.162	7.84
669.488	7.54
669.814	7.65
670.139	8.14
670.465	7.61
670.791	8.55
671.116	7.69
671.442	7.8
671.767	8.12
672.092	8.13
672.418	7.29
672.743	7.69
673.068	6.95
673.393	7.25
673.718	7.42
674.043	7.17
674.368	8.06
674.693	8.17
675.018	7.98
675.343	7.36
675.667	7.48
675.992	7.65
676.317	8.08
676.641	7.9
676.966	7.7
677.29	7.71
677.615	7.94
677.939	7.49
678.264	7.78
678.588	7.71
678.912	7.85
679.236	7.96
679.56	7.44
679.885	7.56
680.209	7.83
680.532	8.44
680.856	8.54
681.18	7.71
681.504	7.53
681.828	8
682.152	8.29
682.475	7.46
682.799	7.97
683.122	8.39
683.446	7.79
683.769	8.18
684.093	7.91
684.416	8.19
684.739	7.98
685.062	7.67
685.386	7.66
685.709	7.93
686.032	8.44
686.355	7.5
686.678	7.66
687.001	7.92
687.324	7.44
687.646	7.49
687.969	7.54
688.292	8.26
688.614	8.03
688.937	7.56
689.26	7.72
689.582	8.03
689.904	7.56
690.227	7.92
690.549	8.6
690.871	7.13
691.194	8.12
691.516	7.99
