Data from 0031_crown_Reflection__4__146.txt Node

Date: Thu Oct 20 22:02:29 CDT 2022
User: ToomeyLab
Spectrometer: FLMS14357
Trigger mode: 0
Integration Time (sec): 1.000000E-2
Scans to average: 100
Electric dark correction enabled: true
Nonlinearity correction enabled: false
Boxcar width: 0
XAxis mode: Wavelengths
Number of Pixels in Spectrum: 2048
>>>>>Begin Spectral Data<<<<<
189.047	99.1
189.435	99.1
189.823	99.1
190.211	125.48
190.599	-25.9
190.987	52.93
191.375	152.46
191.763	-21.01
192.151	66.11
192.538	-186.91
192.926	56.95
193.314	11.21
193.702	164.34
194.089	231.32
194.477	-349.89
194.864	-450.56
195.252	78.15
195.639	882.66
196.027	54.98
196.414	69.92
196.801	463.71
197.189	-21.33
197.576	4013.89
197.963	171.46
198.351	-1.06
198.738	-64.38
199.125	14.1
199.512	-7.44
199.899	-33.11
200.286	11.75
200.673	1.93
201.06	23.49
201.447	25.77
201.833	-8.65
202.22	-14.02
202.607	20.08
202.994	-60.93
203.38	-17.35
203.767	-10.65
204.154	-37.08
204.54	-32.96
204.927	-4.58
205.313	21.48
205.699	-4.38
206.086	-0.22
206.472	17.29
206.858	-39.02
207.245	-7.85
207.631	-26.73
208.017	-26.44
208.403	-39.32
208.789	-24.61
209.175	-3.38
209.561	46.76
209.947	3.81
210.333	39.09
210.719	-15.69
211.105	17.19
211.491	-57.84
211.876	-25.5
212.262	4.62
212.648	25.04
213.034	-1.7
213.419	-29.28
213.805	-46.72
214.19	-9.34
214.576	-18.11
214.961	-11.75
215.346	-28.42
215.732	0.97
216.117	-22.03
216.502	-0.41
216.888	-23.09
217.273	-17.05
217.658	12.42
218.043	8.4
218.428	-41.16
218.813	8.7
219.198	0.36
219.583	-1.55
219.968	32.13
220.353	-8.65
220.738	9.19
221.122	2.1
221.507	-2.49
221.892	5.31
222.276	11.96
222.661	4.73
223.046	4.15
223.43	-2.85
223.815	-0.48
224.199	-2.92
224.583	3.87
224.968	9.52
225.352	8.08
225.736	3.05
226.121	5.35
226.505	7.01
226.889	6.5
227.273	-2.87
227.657	2.14
228.041	-0.13
228.425	5.07
228.809	5.65
229.193	4.27
229.577	1.72
229.961	4.08
230.344	4.51
230.728	3.98
231.112	3.83
231.495	4.41
231.879	4.51
232.263	3.89
232.646	4.75
233.03	4.21
233.413	1.8
233.797	3.26
234.18	3.02
234.563	3.93
234.946	5.05
235.33	4.01
235.713	3.16
236.096	2.62
236.479	4.9
236.862	5.41
237.245	3.22
237.628	4.46
238.011	5.34
238.394	4.19
238.777	3.97
239.16	2.59
239.543	3.63
239.925	4.28
240.308	3.85
240.691	5.79
241.073	4.04
241.456	3.7
241.838	3.1
242.221	4.19
242.603	4.46
242.986	4.5
243.368	4.15
243.75	4.39
244.133	4.52
244.515	4.23
244.897	4.49
245.279	3.37
245.661	5.19
246.043	3.96
246.425	5.33
246.807	4.45
247.189	4.13
247.571	4.45
247.953	4.17
248.335	4.02
248.717	4.34
249.098	4.33
249.48	4.36
249.862	4.45
250.243	4.09
250.625	4.86
251.006	4.85
251.388	4.19
251.769	4.73
252.151	4.17
252.532	3.5
252.913	3.31
253.295	3.76
253.676	4.23
254.057	3.74
254.438	4.25
254.819	3.83
255.2	4.97
255.581	4.09
255.962	5.06
256.343	3
256.724	4.49
257.105	4.55
257.486	3.81
257.867	4.55
258.247	4.06
258.628	4.2
259.009	3.58
259.389	4.01
259.77	3.51
260.15	3.91
260.531	4.03
260.911	3.75
261.292	4.13
261.672	4.22
262.052	4.07
262.432	4.12
262.813	4.11
263.193	4.11
263.573	3.97
263.953	4.16
264.333	4.24
264.713	3.93
265.093	4
265.473	4.43
265.853	4.71
266.233	4.07
266.612	4.45
266.992	3.63
267.372	4.07
267.752	4.44
268.131	4.46
268.511	4.02
268.89	4
269.27	4.32
269.649	3.66
270.029	3.9
270.408	4.28
270.787	3.61
271.167	3.56
271.546	3.84
271.925	4.32
272.304	4.1
272.683	3.79
273.062	3.56
273.441	4.35
273.82	4.54
274.199	3.78
274.578	3.73
274.957	3.72
275.336	3.57
275.715	4.32
276.093	4.3
276.472	4.24
276.851	4.2
277.229	3.53
277.608	3.73
277.986	3.62
278.365	3.86
278.743	4.01
279.122	3.93
279.5	3.76
279.878	4.11
280.257	3.95
280.635	3.94
281.013	3.38
281.391	4.11
281.769	4.03
282.147	3.38
282.525	3.64
282.903	3.94
283.281	3.41
283.659	3.73
284.037	3.07
284.415	3.88
284.792	3.57
285.17	4.46
285.548	3.36
285.925	3.84
286.303	3.92
286.68	3.92
287.058	3.72
287.435	3.73
287.813	3.7
288.19	3.81
288.567	3.92
288.945	4.01
289.322	3.68
289.699	3.6
290.076	3.6
290.453	3.49
290.83	3.7
291.207	4.01
291.584	3.62
291.961	3.78
292.338	3.68
292.715	3.84
293.092	3.95
293.469	3.6
293.845	3.84
294.222	3.79
294.599	4.12
294.975	3.45
295.352	4.15
295.728	3.56
296.105	3.95
296.481	3.45
296.858	3.87
297.234	3.81
297.61	3.41
297.986	3.41
298.363	3.58
298.739	3.63
299.115	3.73
299.491	3.73
299.867	3.75
300.243	3.55
300.619	3.79
300.995	3.61
301.371	3.69
301.746	3.3
302.122	3.72
302.498	3.66
302.874	4.21
303.249	4.28
303.625	3.58
304	3.89
304.376	3.57
304.751	3.83
305.127	3.08
305.502	3.98
305.878	3.69
306.253	3.64
306.628	3.41
307.003	3.19
307.378	3.39
307.754	3.75
308.129	4.04
308.504	3.55
308.879	3.32
309.254	3.57
309.629	3.47
310.003	3.63
310.378	3.43
310.753	3.57
311.128	3.5
311.502	3.7
311.877	3.62
312.252	3.59
312.626	3.83
313.001	3.59
313.375	3.92
313.75	3.41
314.124	3.38
314.498	3.44
314.873	4.09
315.247	3.5
315.621	3.81
315.995	3.47
316.369	3.91
316.743	3.23
317.117	3.52
317.491	3.88
317.865	3.68
318.239	3.24
318.613	3.57
318.987	3.46
319.361	3.64
319.734	3.06
320.108	3.28
320.482	3.44
320.855	3.6
321.229	3.75
321.602	2.89
321.976	3.98
322.349	3.52
322.723	3.68
323.096	3.99
323.469	3.56
323.843	3.9
324.216	3.66
324.589	4.09
324.962	3.23
325.335	3.93
325.708	3.87
326.081	3.68
326.454	3.69
326.827	3.55
327.2	3.68
327.573	3.53
327.945	3.36
328.318	3.26
328.691	4.05
329.063	3.49
329.436	3.06
329.809	3.75
330.181	3.76
330.553	3.4
330.926	3.79
331.298	3.25
331.671	3.54
332.043	3.78
332.415	3.45
332.787	3.78
333.159	3.86
333.532	3.69
333.904	4.04
334.276	3.86
334.648	2.99
335.02	3.89
335.391	3.31
335.763	3.47
336.135	3.99
336.507	3.1
336.879	3.81
337.25	3.34
337.622	3.6
337.993	3.25
338.365	3.74
338.736	3.19
339.108	3.36
339.479	3.32
339.851	2.78
340.222	3.39
340.593	3.83
340.964	3.94
341.336	3.41
341.707	2.85
342.078	3.61
342.449	3.48
342.82	3.87
343.191	3.35
343.562	3.75
343.933	3.76
344.303	3.4
344.674	3.36
345.045	3.5
345.416	3.51
345.786	3.68
346.157	3.36
346.527	3.28
346.898	3.3
347.268	3.56
347.639	3.4
348.009	3.38
348.38	3.57
348.75	3.36
349.12	3.61
349.49	3.71
349.861	3.59
350.231	3.59
350.601	3.72
350.971	3.17
351.341	3.94
351.711	3.79
352.081	3.47
352.45	3.54
352.82	3.49
353.19	3.48
353.56	3.25
353.929	3.29
354.299	3.64
354.669	3.6
355.038	3.45
355.408	3.11
355.777	3.55
356.147	3.34
356.516	3.12
356.885	3.65
357.254	3.62
357.624	3.52
357.993	3.43
358.362	3.65
358.731	4.03
359.1	3.52
359.469	3.72
359.838	3.41
360.207	3.91
360.576	3.2
360.945	3.98
361.314	3.59
361.682	3.52
362.051	3.37
362.42	3.34
362.788	3.65
363.157	3.42
363.525	3.52
363.894	3.6
364.262	3.76
364.631	3.45
364.999	3.73
365.367	3.79
365.735	3.82
366.104	3.38
366.472	3.54
366.84	3.88
367.208	3.51
367.576	3.5
367.944	3.61
368.312	3.41
368.68	4.03
369.048	3.31
369.416	3.29
369.783	3.86
370.151	3.73
370.519	3.84
370.886	3.42
371.254	4.07
371.621	3.77
371.989	3.48
372.356	3.55
372.724	3.83
373.091	3.84
373.458	3.45
373.826	3.68
374.193	3.48
374.56	3.75
374.927	3.57
375.294	3.39
375.661	3.94
376.028	3.39
376.395	3.89
376.762	3.6
377.129	3.44
377.496	3.29
377.863	3.41
378.229	3.62
378.596	3.68
378.963	3.82
379.329	4.14
379.696	3.88
380.062	3.74
380.429	3.87
380.795	3.78
381.161	4.05
381.528	3.55
381.894	3.67
382.26	3.5
382.626	4.06
382.993	3.73
383.359	3.68
383.725	3.92
384.091	3.53
384.457	3.5
384.823	3.71
385.188	3.48
385.554	3.6
385.92	3.76
386.286	3.41
386.651	3.56
387.017	3.53
387.383	3.59
387.748	3.94
388.114	3.77
388.479	3.65
388.845	3.69
389.21	3.75
389.575	3.7
389.94	3.93
390.306	3.9
390.671	3.63
391.036	3.51
391.401	3.58
391.766	3.86
392.131	4.01
392.496	3.55
392.861	3.66
393.226	3.61
393.591	3.81
393.956	4.04
394.32	3.81
394.685	3.78
395.05	3.73
395.414	3.69
395.779	3.71
396.143	3.73
396.508	3.88
396.872	4.02
397.236	3.73
397.601	3.96
397.965	4.04
398.329	3.61
398.694	3.76
399.058	3.76
399.422	4
399.786	3.83
400.15	3.78
400.514	3.97
400.878	3.63
401.242	3.78
401.605	4.04
401.969	3.74
402.333	3.89
402.697	3.99
403.06	3.8
403.424	3.65
403.787	3.78
404.151	3.9
404.514	3.94
404.878	3.58
405.241	3.76
405.604	3.91
405.968	3.95
406.331	3.79
406.694	3.78
407.057	3.88
407.42	3.96
407.783	3.86
408.146	3.91
408.509	3.97
408.872	3.71
409.235	3.72
409.598	3.79
409.961	3.83
410.323	4.18
410.686	3.88
411.049	3.67
411.411	3.82
411.774	3.9
412.136	3.79
412.499	3.83
412.861	3.73
413.223	3.76
413.586	3.82
413.948	3.98
414.31	3.77
414.672	3.99
415.035	3.89
415.397	3.9
415.759	4.1
416.121	3.78
416.483	3.87
416.845	3.98
417.206	3.84
417.568	3.83
417.93	3.72
418.292	3.92
418.653	3.89
419.015	3.95
419.377	3.86
419.738	3.78
420.1	3.89
420.461	3.92
420.822	3.94
421.184	3.76
421.545	3.92
421.906	3.83
422.267	3.9
422.629	3.85
422.99	3.81
423.351	3.83
423.712	3.8
424.073	3.96
424.434	3.87
424.795	3.95
425.155	3.81
425.516	3.79
425.877	3.84
426.238	3.9
426.598	3.96
426.959	3.87
427.32	3.93
427.68	3.96
428.041	3.97
428.401	3.96
428.761	3.9
429.122	3.85
429.482	3.98
429.842	3.95
430.202	4.07
430.563	3.86
430.923	4.07
431.283	3.97
431.643	3.81
432.003	4.02
432.363	4.11
432.722	4.21
433.082	3.91
433.442	3.99
433.802	3.89
434.161	3.9
434.521	3.99
434.881	4.02
435.24	3.91
435.6	4.01
435.959	3.99
436.319	4.13
436.678	3.91
437.037	4.04
437.396	4.14
437.756	3.92
438.115	4.09
438.474	3.97
438.833	4
439.192	3.92
439.551	3.91
439.91	3.96
440.269	3.86
440.628	3.95
440.987	3.93
441.345	3.98
441.704	3.94
442.063	4.03
442.421	3.8
442.78	3.98
443.138	4.01
443.497	4
443.855	4.1
444.214	3.95
444.572	4.08
444.93	4.03
445.288	3.99
445.647	4.01
446.005	3.99
446.363	3.95
446.721	3.95
447.079	3.93
447.437	3.97
447.795	3.89
448.153	4.03
448.51	4
448.868	4.1
449.226	4
449.584	4.08
449.941	4.04
450.299	4.15
450.656	4.04
451.014	4.19
451.371	4.1
451.729	3.94
452.086	4.23
452.443	3.99
452.801	4.17
453.158	4
453.515	4.09
453.872	3.96
454.229	4.01
454.586	4.11
454.943	4.11
455.3	4.16
455.657	3.92
456.014	4.13
456.371	4.02
456.727	4.01
457.084	4.07
457.441	4.27
457.797	4.22
458.154	4.18
458.51	3.88
458.867	4.09
459.223	4.19
459.58	3.98
459.936	4.03
460.292	3.96
460.648	3.89
461.005	3.85
461.361	3.95
461.717	4.07
462.073	4.16
462.429	4.12
462.785	4.19
463.141	4.28
463.496	4.15
463.852	4.18
464.208	4.15
464.564	4.16
464.919	4.32
465.275	4.2
465.631	4
465.986	4.06
466.342	4.03
466.697	4.07
467.052	4.14
467.408	4.24
467.763	4.24
468.118	4.32
468.473	4.25
468.829	4.24
469.184	4.19
469.539	4.1
469.894	4.12
470.249	4.29
470.603	4.07
470.958	4.12
471.313	4.24
471.668	4.13
472.023	4.23
472.377	4.15
472.732	4.27
473.086	4.17
473.441	4.18
473.795	4.22
474.15	4.16
474.504	4.09
474.859	4.23
475.213	4.29
475.567	4.38
475.921	4.18
476.275	4.37
476.63	4.31
476.984	4.17
477.338	4.08
477.692	4.17
478.045	4.19
478.399	4.17
478.753	3.99
479.107	4.15
479.461	4.16
479.814	4.13
480.168	4.3
480.521	4.18
480.875	4.28
481.228	4.17
481.582	4.16
481.935	4.23
482.289	3.99
482.642	3.95
482.995	4.24
483.348	4.12
483.701	4.08
484.055	3.97
484.408	3.89
484.761	3.87
485.114	3.75
485.466	3.77
485.819	3.93
486.172	4.05
486.525	4.15
486.878	4.24
487.23	4.18
487.583	4.07
487.936	4.06
488.288	4
488.641	3.99
488.993	3.92
489.345	3.92
489.698	4
490.05	4.06
490.402	4.2
490.754	4.18
491.107	4.12
491.459	4.19
491.811	4.12
492.163	4.07
492.515	3.94
492.866	3.9
493.218	3.88
493.57	4.04
493.922	4.13
494.274	4.22
494.625	4.22
494.977	4.27
495.328	4.28
495.68	4.26
496.031	4.28
496.383	4.29
496.734	4.17
497.086	4.18
497.437	4.26
497.788	4.12
498.139	4.08
498.49	4.17
498.842	4.09
499.193	4.32
499.544	4.21
499.894	4.2
500.245	4.28
500.596	4.31
500.947	4.18
501.298	4.32
501.648	4.19
501.999	4.24
502.35	4.36
502.7	4.32
503.051	4.42
503.401	4.31
503.752	4.42
504.102	4.26
504.452	4.28
504.803	4.16
505.153	4.26
505.503	4.45
505.853	4.32
506.203	4.23
506.553	4.37
506.903	4.31
507.253	4.36
507.603	4.34
507.953	4.31
508.303	4.28
508.652	4.31
509.002	4.31
509.352	4.23
509.701	4.26
510.051	4.17
510.4	4.23
510.75	4.15
511.099	4.25
511.449	4.33
511.798	4.28
512.147	4.32
512.496	4.31
512.846	4.49
513.195	4.31
513.544	4.22
513.893	4.31
514.242	4.21
514.591	4.44
514.939	4.24
515.288	4.35
515.637	4.3
515.986	4.27
516.334	4.35
516.683	4.34
517.032	4.36
517.38	4.28
517.729	4.4
518.077	4.29
518.426	4.31
518.774	4.32
519.122	4.29
519.47	4.19
519.819	4.18
520.167	4.11
520.515	4.17
520.863	4.24
521.211	4.29
521.559	4.38
521.907	4.3
522.255	4.35
522.602	4.29
522.95	4.44
523.298	4.34
523.645	4.42
523.993	4.29
524.341	4.43
524.688	4.35
525.036	4.34
525.383	4.44
525.73	4.33
526.078	4.38
526.425	4.22
526.772	4.2
527.119	4.09
527.466	4.26
527.814	4.28
528.161	4.19
528.508	4.26
528.854	4.29
529.201	4.22
529.548	4.07
529.895	3.99
530.242	3.99
530.588	4.12
530.935	4.23
531.282	4.29
531.628	4.35
531.975	4.39
532.321	4.36
532.667	4.4
533.014	4.37
533.36	4.29
533.706	4.24
534.052	4.26
534.399	4.15
534.745	4.13
535.091	4.14
535.437	4.27
535.783	4.31
536.129	4.38
536.474	4.43
536.82	4.33
537.166	4.35
537.512	4.34
537.857	4.24
538.203	4.25
538.549	4.29
538.894	4.35
539.239	4.37
539.585	4.39
539.93	4.45
540.276	4.37
540.621	4.45
540.966	4.39
541.311	4.28
541.656	4.19
542.001	4.23
542.346	4.14
542.691	4.05
543.036	4.07
543.381	4.19
543.726	4.26
544.071	4.31
544.415	4.43
544.76	4.33
545.105	4.4
545.449	4.39
545.794	4.46
546.138	4.58
546.483	4.5
546.827	4.43
547.171	4.28
547.516	4.42
547.86	4.36
548.204	4.51
548.548	4.4
548.892	4.29
549.236	4.5
549.58	4.46
549.924	4.43
550.268	4.55
550.612	4.62
550.956	4.48
551.3	4.57
551.643	4.42
551.987	4.63
552.33	4.55
552.674	4.34
553.017	4.39
553.361	4.49
553.704	4.53
554.048	4.49
554.391	4.43
554.734	4.37
555.077	4.47
555.42	4.5
555.764	4.49
556.107	4.41
556.45	4.49
556.793	4.48
557.135	4.58
557.478	4.47
557.821	4.52
558.164	4.49
558.507	4.51
558.849	4.56
559.192	4.73
559.534	4.68
559.877	4.6
560.219	4.81
560.562	4.66
560.904	4.44
561.246	4.47
561.589	4.62
561.931	4.38
562.273	4.54
562.615	4.55
562.957	4.38
563.299	4.58
563.641	4.4
563.983	4.72
564.325	4.52
564.667	4.47
565.008	4.61
565.35	4.58
565.692	4.42
566.033	4.22
566.375	4.55
566.716	4.64
567.058	4.41
567.399	4.48
567.741	4.46
568.082	4.51
568.423	4.65
568.764	4.38
569.105	4.49
569.447	4.58
569.788	4.58
570.129	4.67
570.47	4.56
570.811	4.16
571.151	4.48
571.492	4.48
571.833	4.46
572.174	4.5
572.514	4.5
572.855	4.57
573.195	4.56
573.536	4.4
573.876	4.29
574.217	4.46
574.557	4.64
574.898	4.56
575.238	4.78
575.578	4.47
575.918	4.52
576.258	4.5
576.598	4.46
576.938	4.55
577.278	4.57
577.618	4.63
577.958	4.58
578.298	4.62
578.638	4.54
578.977	4.76
579.317	4.57
579.657	4.44
579.996	4.65
580.336	4.83
580.675	4.83
581.014	4.68
581.354	4.7
581.693	4.54
582.032	4.8
582.372	4.76
582.711	4.49
583.05	4.71
583.389	4.78
583.728	4.57
584.067	4.71
584.406	4.89
584.745	4.59
585.083	4.43
585.422	4.51
585.761	4.69
586.1	4.74
586.438	4.73
586.777	4.66
587.115	4.7
587.454	4.8
587.792	4.61
588.13	4.75
588.469	4.72
588.807	4.48
589.145	4.71
589.483	4.49
589.821	4.51
590.159	4.58
590.497	4.77
590.835	4.52
591.173	4.55
591.511	4.51
591.849	4.7
592.187	4.48
592.524	4.93
592.862	4.48
593.2	4.73
593.537	4.58
593.875	4.55
594.212	4.44
594.55	4.71
594.887	4.56
595.224	4.84
595.561	4.84
595.899	4.81
596.236	4.81
596.573	4.89
596.91	4.74
597.247	4.75
597.584	4.64
597.921	4.62
598.258	4.47
598.594	4.62
598.931	4.62
599.268	4.65
599.604	4.64
599.941	4.82
600.277	4.81
600.614	4.76
600.95	4.52
601.287	4.73
601.623	4.6
601.959	4.86
602.296	4.59
602.632	4.35
602.968	4.86
603.304	4.6
603.64	4.97
603.976	4.58
604.312	4.71
604.648	4.53
604.984	4.58
605.319	4.48
605.655	4.77
605.991	4.41
606.326	4.71
606.662	4.74
606.998	4.77
607.333	4.74
607.668	4.55
608.004	4.78
608.339	4.84
608.674	4.94
609.01	4.66
609.345	5.01
609.68	4.6
610.015	4.57
610.35	4.74
610.685	4.68
611.02	4.65
611.355	4.47
611.689	4.62
612.024	4.49
612.359	4.7
612.694	4.77
613.028	4.79
613.363	4.59
613.697	4.89
614.032	4.96
614.366	4.74
614.7	4.67
615.035	4.61
615.369	4.49
615.703	4.81
616.037	4.89
616.371	4.49
616.705	4.63
617.039	4.65
617.373	4.63
617.707	5.09
618.041	4.53
618.375	4.51
618.709	4.69
619.042	4.54
619.376	4.87
619.71	4.76
620.043	4.57
620.377	4.43
620.71	4.58
621.043	4.83
621.377	4.46
621.71	4.52
622.043	4.52
622.376	4.68
622.709	5.04
623.043	4.87
623.376	4.94
623.709	4.74
624.041	4.91
624.374	4.98
624.707	4.72
625.04	5
625.373	5.16
625.705	4.71
626.038	4.5
626.37	4.44
626.703	4.98
627.035	4.67
627.368	5.03
627.7	4.68
628.032	5.05
628.365	4.61
628.697	4.82
629.029	5.11
629.361	4.95
629.693	5.15
630.025	5.03
630.357	5.01
630.689	4.83
631.021	4.94
631.353	4.85
631.684	4.6
632.016	4.5
632.348	4.47
632.679	4.85
633.011	5.25
633.342	4.92
633.674	4.68
634.005	5.04
634.336	5.04
634.668	4.72
634.999	4.9
635.33	5.15
635.661	4.49
635.992	4.94
636.323	5.18
636.654	4.94
636.985	4.79
637.316	5.01
637.647	5.12
637.977	5.04
638.308	5.1
638.639	5.08
638.969	4.87
639.3	4.82
639.63	5.16
639.961	4.5
640.291	4.58
640.622	5.3
640.952	4.82
641.282	5.35
641.612	5.31
641.943	4.89
642.273	4.91
642.603	4.76
642.933	5.21
643.263	4.94
643.592	4.99
643.922	5.14
644.252	5.25
644.582	4.95
644.911	5.29
645.241	4.69
645.571	4.76
645.9	5.15
646.23	4.35
646.559	4.97
646.888	5.05
647.218	4.28
647.547	4.74
647.876	5.14
648.205	4.87
648.534	5.01
648.863	4.92
649.192	4.75
649.521	5.24
649.85	5.51
650.179	4.71
650.508	5.5
650.837	4.78
651.165	4.81
651.494	5
651.822	5.28
652.151	5.33
652.479	4.99
652.808	4.83
653.136	4.64
653.465	5.19
653.793	5.45
654.121	5.58
654.449	5.42
654.777	4.56
655.105	5.29
655.433	5.03
655.761	5.23
656.089	5.14
656.417	5.09
656.745	4.81
657.073	4.97
657.4	4.65
657.728	4.94
658.056	5.24
658.383	5.11
658.711	5.43
659.038	4.62
659.365	4.76
659.693	5.02
660.02	5.22
660.347	5.09
660.674	5.52
661.001	5.08
661.329	5.16
661.656	4.8
661.982	5.38
662.309	5.26
662.636	5.04
662.963	4.66
663.29	5.37
663.616	5.02
663.943	5.2
664.27	5.47
664.596	5.17
664.923	5.08
665.249	5.62
665.576	5.86
665.902	5.13
666.228	5.18
666.554	4.81
666.881	5.78
667.207	5.31
667.533	5.16
667.859	4.79
668.185	5.28
668.511	5.21
668.837	5.22
669.162	5.44
669.488	5.16
669.814	5.64
670.139	5.44
670.465	4.83
670.791	5.58
671.116	5.47
671.442	5.49
671.767	4.93
672.092	5
672.418	4.94
672.743	5.07
673.068	4.81
673.393	5.3
673.718	5.28
674.043	5.24
674.368	4.86
674.693	5.43
675.018	5.36
675.343	4.92
675.667	5.08
675.992	5.32
676.317	5.52
676.641	5.73
676.966	4.71
677.29	6.05
677.615	6.09
677.939	4.99
678.264	5.44
678.588	5.35
678.912	5.12
679.236	5.57
679.56	5.39
679.885	4.9
680.209	4.95
680.532	6.02
680.856	5.4
681.18	4.77
681.504	4.73
681.828	5.59
682.152	6
682.475	5.25
682.799	5.5
683.122	5.35
683.446	5.03
683.769	5.47
684.093	6.11
684.416	5.63
684.739	5.13
685.062	4.96
685.386	5.45
685.709	5.5
686.032	5.18
686.355	5.24
686.678	5.58
687.001	5.43
687.324	5.66
687.646	5.3
687.969	5.46
688.292	5.95
688.614	5.45
688.937	5.12
689.26	4.94
689.582	5.05
689.904	5.02
690.227	5.34
690.549	6.19
690.871	4.89
691.194	5.64
691.516	5.2
691.838	5.52
692.16	5.82
692.482	5.7
