Data from 0031_chest_Reflection__4__141.txt Node

Date: Thu Oct 20 22:00:42 CDT 2022
User: ToomeyLab
Spectrometer: FLMS14357
Trigger mode: 0
Integration Time (sec): 1.000000E-2
Scans to average: 100
Electric dark correction enabled: true
Nonlinearity correction enabled: false
Boxcar width: 0
XAxis mode: Wavelengths
Number of Pixels in Spectrum: 2048
>>>>>Begin Spectral Data<<<<<
189.047	58.59
189.435	58.59
189.823	58.59
190.211	-70.29
190.599	-91.93
190.987	89.63
191.375	-24.66
191.763	-77.79
192.151	-33.09
192.538	49.69
192.926	182.21
193.314	-0.72
193.702	-495.9
194.089	545.79
194.477	238.31
194.864	99.63
195.252	-7.48
195.639	308.56
196.027	45.19
196.414	76.39
196.801	-1411.29
197.189	132.73
197.576	3372.22
197.963	86.29
198.351	14.86
198.738	-29.4
199.125	-33.37
199.512	-18.13
199.899	22.68
200.286	-0.96
200.673	-8.5
201.06	1.05
201.447	0.86
201.833	-25.92
202.22	-21.2
202.607	-13.98
202.994	-21.87
203.38	-51.25
203.767	9.66
204.154	-18.24
204.54	30.94
204.927	24.74
205.313	-3.39
205.699	-5.18
206.086	-9.22
206.472	-9.9
206.858	-23.36
207.245	-0.39
207.631	-57.17
208.017	-52.62
208.403	-58.84
208.789	-12.74
209.175	2.91
209.561	-31.34
209.947	-6.82
210.333	11.1
210.719	1.22
211.105	7.07
211.491	-64.63
211.876	-58.4
212.262	23.51
212.648	0.5
213.034	-4.76
213.419	-24.44
213.805	-27.26
214.19	-20.03
214.576	-16.55
214.961	-9.8
215.346	-5.6
215.732	5.36
216.117	-47.56
216.502	13.02
216.888	13.4
217.273	-26.13
217.658	26.75
218.043	9.7
218.428	-8.88
218.813	28.89
219.198	-10.34
219.583	0.94
219.968	26.54
220.353	10.35
220.738	4.74
221.122	5.14
221.507	6.12
221.892	-3.56
222.276	0.32
222.661	13.21
223.046	12.63
223.43	-7.81
223.815	-3.59
224.199	-11.92
224.583	-1.92
224.968	-0.09
225.352	8.14
225.736	1.28
226.121	-8.53
226.505	3.66
226.889	0.19
227.273	-1
227.657	-2.09
228.041	2.53
228.425	1.71
228.809	3.93
229.193	1.9
229.577	1.68
229.961	1.66
230.344	1.93
230.728	2.31
231.112	2.2
231.495	2.2
231.879	3.05
232.263	3.7
232.646	1.63
233.03	2.41
233.413	-0.43
233.797	0.21
234.18	2.95
234.563	1.44
234.946	2.45
235.33	3.61
235.713	1.98
236.096	1.13
236.479	3.16
236.862	1.75
237.245	2.4
237.628	3.31
238.011	1.78
238.394	3.18
238.777	2.41
239.16	1.6
239.543	0.93
239.925	1.86
240.308	0.9
240.691	3.97
241.073	1.62
241.456	4.39
241.838	1.98
242.221	2.27
242.603	2.77
242.986	2.32
243.368	2.26
243.75	2.77
244.133	2.49
244.515	2.47
244.897	1.89
245.279	2.24
245.661	3.1
246.043	3.31
246.425	3.3
246.807	2.95
247.189	2.8
247.571	3.15
247.953	2.42
248.335	2.66
248.717	2.4
249.098	2.62
249.48	2.57
249.862	2.73
250.243	2.75
250.625	2.99
251.006	2.92
251.388	2.1
251.769	2.74
252.151	2.22
252.532	1.8
252.913	2.21
253.295	2.89
253.676	2.88
254.057	2.25
254.438	2.52
254.819	1.99
255.2	2.8
255.581	2.68
255.962	3.12
256.343	2.39
256.724	2.6
257.105	2.59
257.486	2.46
257.867	2.37
258.247	3.28
258.628	3.16
259.009	2.19
259.389	2.6
259.77	2.14
260.15	2.15
260.531	2.75
260.911	2.3
261.292	2.79
261.672	2.65
262.052	2.68
262.432	2.51
262.813	2.26
263.193	2.7
263.573	2.42
263.953	2.78
264.333	2.42
264.713	2.75
265.093	2.37
265.473	3.25
265.853	2.63
266.233	2.64
266.612	2.26
266.992	2.22
267.372	2.42
267.752	2.84
268.131	2.93
268.511	2.6
268.89	2.69
269.27	2.16
269.649	2.15
270.029	1.9
270.408	2.1
270.787	2.16
271.167	2.21
271.546	2.25
271.925	2.45
272.304	2.56
272.683	2.65
273.062	2.23
273.441	2.07
273.82	2.57
274.199	2.29
274.578	2.25
274.957	1.96
275.336	2.3
275.715	2.25
276.093	2.61
276.472	2.81
276.851	2.63
277.229	2.1
277.608	2.03
277.986	2.52
278.365	1.87
278.743	2.24
279.122	2.35
279.5	1.89
279.878	2.22
280.257	2.12
280.635	2.32
281.013	2.64
281.391	2.48
281.769	2.53
282.147	1.9
282.525	2.19
282.903	2.62
283.281	2.27
283.659	2.12
284.037	1.84
284.415	2.17
284.792	2.33
285.17	2.57
285.548	2.49
285.925	1.96
286.303	2.26
286.68	2.79
287.058	2.28
287.435	2.22
287.813	2.32
288.19	2.31
288.567	2.46
288.945	2.47
289.322	2.56
289.699	2.03
290.076	2.05
290.453	2.2
290.83	2.44
291.207	2.77
291.584	2.32
291.961	2.35
292.338	2.05
292.715	2.26
293.092	2.81
293.469	2.64
293.845	2.6
294.222	2.52
294.599	3.28
294.975	2.62
295.352	2.98
295.728	2.47
296.105	3.02
296.481	2.1
296.858	2.36
297.234	2.63
297.61	2.47
297.986	2.41
298.363	2.37
298.739	2.49
299.115	2.54
299.491	2.36
299.867	2.34
300.243	2.57
300.619	2.58
300.995	2.52
301.371	2.5
301.746	2.24
302.122	2.65
302.498	2.67
302.874	2.72
303.249	3
303.625	2.67
304	2.87
304.376	2.58
304.751	2.7
305.127	1.94
305.502	2.61
305.878	2.97
306.253	2.6
306.628	2.48
307.003	2.62
307.378	2.4
307.754	2.86
308.129	2.73
308.504	2.68
308.879	2.65
309.254	2.85
309.629	2.67
310.003	2.44
310.378	2.5
310.753	2.79
311.128	2.34
311.502	2.65
311.877	3.31
312.252	2.45
312.626	2.58
313.001	2.77
313.375	2.96
313.75	2.69
314.124	2.75
314.498	2.64
314.873	2.6
315.247	2.51
315.621	2.51
315.995	2.86
316.369	3.06
316.743	2.43
317.117	2.61
317.491	2.74
317.865	3.05
318.239	3.03
318.613	3.36
318.987	2.44
319.361	2.92
319.734	2.5
320.108	2.82
320.482	2.59
320.855	2.97
321.229	3.2
321.602	1.92
321.976	2.88
322.349	2.79
322.723	3.3
323.096	2.69
323.469	2.97
323.843	3.27
324.216	2.9
324.589	2.89
324.962	3.05
325.335	3.43
325.708	3.45
326.081	3.16
326.454	3.09
326.827	2.84
327.2	2.82
327.573	3.29
327.945	2.78
328.318	2.7
328.691	3
329.063	2.83
329.436	2.95
329.809	2.84
330.181	3.17
330.553	2.94
330.926	3.04
331.298	2.77
331.671	3.38
332.043	2.97
332.415	3.17
332.787	3.2
333.159	2.95
333.532	2.85
333.904	3.41
334.276	2.92
334.648	2.67
335.02	3.13
335.391	2.7
335.763	3.09
336.135	3.17
336.507	2.57
336.879	3.4
337.25	2.45
337.622	3.21
337.993	2.49
338.365	3.15
338.736	2.97
339.108	3.16
339.479	3.05
339.851	2.37
340.222	3
340.593	3.16
340.964	3.37
341.336	2.71
341.707	2.48
342.078	2.98
342.449	3.23
342.82	3.11
343.191	2.77
343.562	3.34
343.933	3.19
344.303	2.95
344.674	2.77
345.045	3.44
345.416	3.09
345.786	3.01
346.157	3.12
346.527	2.72
346.898	3.05
347.268	2.81
347.639	3.2
348.009	3.09
348.38	3.33
348.75	2.91
349.12	3.34
349.49	3.26
349.861	3.22
350.231	2.94
350.601	3.11
350.971	3.07
351.341	3.26
351.711	3.04
352.081	2.82
352.45	3.13
352.82	3.32
353.19	3.12
353.56	3.17
353.929	2.75
354.299	3.22
354.669	2.75
355.038	3.09
355.408	2.6
355.777	3.42
356.147	3.55
356.516	2.97
356.885	3.07
357.254	3.05
357.624	3.01
357.993	2.78
358.362	3.1
358.731	3.36
359.1	2.98
359.469	3.16
359.838	2.88
360.207	3.43
360.576	2.77
360.945	3.41
361.314	2.89
361.682	3.16
362.051	3.04
362.42	2.94
362.788	3.29
363.157	3.12
363.525	3.15
363.894	3.03
364.262	3.42
364.631	2.91
364.999	2.99
365.367	3.21
365.735	3.3
366.104	3.05
366.472	3.3
366.84	3.39
367.208	2.92
367.576	3.04
367.944	3.26
368.312	3.14
368.68	3.16
369.048	3
369.416	3.16
369.783	3.19
370.151	3.51
370.519	3.16
370.886	3.13
371.254	3.57
371.621	3
371.989	3.42
372.356	3.06
372.724	3.25
373.091	3.28
373.458	2.82
373.826	3.23
374.193	3.32
374.56	2.97
374.927	2.89
375.294	3.03
375.661	3.35
376.028	3.3
376.395	3.21
376.762	3.45
377.129	3.19
377.496	3.1
377.863	3.18
378.229	3.08
378.596	3.23
378.963	3.25
379.329	3.49
379.696	3.18
380.062	3.27
380.429	3.62
380.795	3.43
381.161	3.49
381.528	3.01
381.894	3.3
382.26	3.3
382.626	3.31
382.993	3.07
383.359	3.16
383.725	3.57
384.091	3.26
384.457	2.99
384.823	3.13
385.188	3.24
385.554	3.09
385.92	3.03
386.286	3.1
386.651	3.18
387.017	3.07
387.383	3.19
387.748	3.72
388.114	3.31
388.479	3.18
388.845	3.5
389.21	3.41
389.575	3.11
389.94	3.64
390.306	3.47
390.671	3.4
391.036	3.38
391.401	3.28
391.766	3.39
392.131	3.65
392.496	3.23
392.861	3.34
393.226	3.33
393.591	3.47
393.956	3.32
394.32	3.41
394.685	3.35
395.05	3.1
395.414	3.54
395.779	3.29
396.143	3.5
396.508	3.49
396.872	3.57
397.236	3.34
397.601	3.74
397.965	3.59
398.329	3.32
398.694	3.36
399.058	3.38
399.422	3.4
399.786	3.31
400.15	3.5
400.514	3.72
400.878	3.61
401.242	3.51
401.605	3.54
401.969	3.43
402.333	3.44
402.697	3.82
403.06	3.44
403.424	3.5
403.787	3.64
404.151	3.47
404.514	3.53
404.878	3.56
405.241	3.34
405.604	3.53
405.968	3.64
406.331	3.35
406.694	3.4
407.057	3.52
407.42	3.54
407.783	3.49
408.146	3.56
408.509	3.49
408.872	3.64
409.235	3.62
409.598	3.47
409.961	3.59
410.323	3.66
410.686	3.43
411.049	3.46
411.411	3.59
411.774	3.4
412.136	3.74
412.499	3.66
412.861	3.44
413.223	3.58
413.586	3.52
413.948	3.52
414.31	3.41
414.672	3.5
415.035	3.62
415.397	3.62
415.759	3.63
416.121	3.55
416.483	3.53
416.845	3.51
417.206	3.51
417.568	3.63
417.93	3.56
418.292	3.75
418.653	3.54
419.015	3.57
419.377	3.56
419.738	3.58
420.1	3.57
420.461	3.64
420.822	3.49
421.184	3.55
421.545	3.57
421.906	3.51
422.267	3.57
422.629	3.6
422.99	3.54
423.351	3.47
423.712	3.48
424.073	3.57
424.434	3.53
424.795	3.7
425.155	3.61
425.516	3.55
425.877	3.53
426.238	3.63
426.598	3.65
426.959	3.61
427.32	3.6
427.68	3.64
428.041	3.7
428.401	3.56
428.761	3.75
429.122	3.54
429.482	3.79
429.842	3.61
430.202	3.66
430.563	3.58
430.923	3.76
431.283	3.67
431.643	3.52
432.003	3.68
432.363	3.85
432.722	3.89
433.082	3.68
433.442	3.71
433.802	3.7
434.161	3.89
434.521	3.75
434.881	3.73
435.24	3.7
435.6	3.62
435.959	3.86
436.319	3.72
436.678	3.72
437.037	3.69
437.396	3.92
437.756	3.77
438.115	3.59
438.474	3.79
438.833	3.83
439.192	3.72
439.551	3.65
439.91	3.63
440.269	3.89
440.628	3.73
440.987	3.74
441.345	3.94
441.704	3.71
442.063	3.9
442.421	3.75
442.78	3.85
443.138	3.82
443.497	3.81
443.855	3.76
444.214	3.83
444.572	3.9
444.93	3.73
445.288	3.78
445.647	3.89
446.005	3.82
446.363	3.76
446.721	3.83
447.079	3.8
447.437	3.87
447.795	3.86
448.153	3.78
448.51	3.81
448.868	3.85
449.226	3.8
449.584	3.8
449.941	3.91
450.299	3.89
450.656	4.02
451.014	3.99
451.371	4.05
451.729	3.87
452.086	4.01
452.443	3.85
452.801	4.09
453.158	3.84
453.515	3.97
453.872	3.82
454.229	3.91
454.586	3.94
454.943	3.95
455.3	3.94
455.657	3.84
456.014	4.03
456.371	3.98
456.727	4.08
457.084	4.04
457.441	4.15
457.797	3.99
458.154	4.22
458.51	3.9
458.867	4.11
459.223	4.16
459.58	3.94
459.936	4.29
460.292	3.86
460.648	4.04
461.005	3.99
461.361	3.97
461.717	3.97
462.073	4.15
462.429	4.06
462.785	4.11
463.141	4.23
463.496	4.35
463.852	4.07
464.208	4.19
464.564	4.26
464.919	4.18
465.275	4.15
465.631	3.99
465.986	4.16
466.342	4.03
466.697	4.04
467.052	4.04
467.408	4.19
467.763	4.24
468.118	4.22
468.473	4.26
468.829	4.12
469.184	4.22
469.539	4.18
469.894	4.19
470.249	4.33
470.603	4.14
470.958	4.14
471.313	4.06
471.668	4.11
472.023	4.22
472.377	4.14
472.732	4.24
473.086	4.19
473.441	4.26
473.795	4.37
474.15	4.27
474.504	4.09
474.859	4.4
475.213	4.32
475.567	4.33
475.921	4.19
476.275	4.34
476.63	4.47
476.984	4.23
477.338	4.3
477.692	4.23
478.045	4.14
478.399	4.31
478.753	4.14
479.107	4.25
479.461	4.3
479.814	4.37
480.168	4.36
480.521	4.25
480.875	4.43
481.228	4.37
481.582	4.3
481.935	4.39
482.289	4.33
482.642	4.3
482.995	4.38
483.348	4.32
483.701	4.32
484.055	4.23
484.408	4.26
484.761	4.22
485.114	4.11
485.466	4.08
485.819	4.17
486.172	4.18
486.525	4.25
486.878	4.31
487.23	4.29
487.583	4.33
487.936	4.33
488.288	4.33
488.641	4.23
488.993	4.3
489.345	4.28
489.698	4.27
490.05	4.27
490.402	4.39
490.754	4.35
491.107	4.3
491.459	4.38
491.811	4.5
492.163	4.46
492.515	4.39
492.866	4.33
493.218	4.31
493.57	4.36
493.922	4.36
494.274	4.43
494.625	4.46
494.977	4.59
495.328	4.5
495.68	4.62
496.031	4.52
496.383	4.59
496.734	4.51
497.086	4.58
497.437	4.65
497.788	4.66
498.139	4.48
498.49	4.66
498.842	4.53
499.193	4.61
499.544	4.58
499.894	4.68
500.245	4.63
500.596	4.63
500.947	4.6
501.298	4.78
501.648	4.63
501.999	4.72
502.35	4.83
502.7	4.78
503.051	4.76
503.401	4.66
503.752	4.73
504.102	4.63
504.452	4.83
504.803	4.61
505.153	4.75
505.503	4.92
505.853	4.64
506.203	4.79
506.553	4.81
506.903	4.63
507.253	4.8
507.603	4.85
507.953	4.89
508.303	4.89
508.652	4.73
509.002	4.76
509.352	4.91
509.701	4.88
510.051	4.84
510.4	4.76
510.75	4.75
511.099	4.84
511.449	4.9
511.798	4.93
512.147	4.87
512.496	5.05
512.846	4.97
513.195	5
513.544	4.92
513.893	4.96
514.242	4.9
514.591	5.06
514.939	4.87
515.288	5.02
515.637	5.02
515.986	5.11
516.334	4.92
516.683	5.08
517.032	5.03
517.38	5.07
517.729	5.02
518.077	5.05
518.426	5.04
518.774	5.08
519.122	5.12
519.47	5.02
519.819	4.98
520.167	4.99
520.515	4.98
520.863	5.09
521.211	5.06
521.559	5.12
521.907	5.05
522.255	5.1
522.602	5.09
522.95	5.18
523.298	5.1
523.645	5.15
523.993	5.16
524.341	5.23
524.688	5.1
525.036	5.25
525.383	5.27
525.73	5.22
526.078	5.34
526.425	5.21
526.772	5.26
527.119	5.14
527.466	5.17
527.814	5.29
528.161	5.16
528.508	5.16
528.854	5.25
529.201	5.21
529.548	5.11
529.895	5.11
530.242	5.08
530.588	5.12
530.935	5.15
531.282	5.14
531.628	5.23
531.975	5.23
532.321	5.36
532.667	5.38
533.014	5.43
533.36	5.35
533.706	5.33
534.052	5.4
534.399	5.35
534.745	5.36
535.091	5.32
535.437	5.29
535.783	5.35
536.129	5.35
536.474	5.38
536.82	5.49
537.166	5.49
537.512	5.61
537.857	5.54
538.203	5.56
538.549	5.55
538.894	5.6
539.239	5.53
539.585	5.58
539.93	5.62
540.276	5.79
540.621	5.7
540.966	5.7
541.311	5.67
541.656	5.65
542.001	5.6
542.346	5.59
542.691	5.52
543.036	5.49
543.381	5.57
543.726	5.57
544.071	5.64
544.415	5.72
544.76	5.67
545.105	5.77
545.449	5.76
545.794	5.75
546.138	5.95
546.483	5.92
546.827	5.91
547.171	5.84
547.516	5.78
547.86	5.93
548.204	5.97
548.548	5.89
548.892	5.9
549.236	5.94
549.58	6.01
549.924	5.94
550.268	5.97
550.612	6.2
550.956	6.14
551.3	6.15
551.643	6.13
551.987	6.18
552.33	6.31
552.674	6.11
553.017	6.09
553.361	6.09
553.704	6.19
554.048	6.21
554.391	6.12
554.734	6.09
555.077	6.23
555.42	6.29
555.764	6.22
556.107	6.27
556.45	6.11
556.793	6.15
557.135	6.49
557.478	6.35
557.821	6.3
558.164	6.43
558.507	6.34
558.849	6.5
559.192	6.48
559.534	6.63
559.877	6.59
560.219	6.66
560.562	6.41
560.904	6.58
561.246	6.64
561.589	6.67
561.931	6.33
562.273	6.56
562.615	6.65
562.957	6.43
563.299	6.59
563.641	6.65
563.983	6.73
564.325	6.58
564.667	6.62
565.008	6.78
565.35	6.71
565.692	6.61
566.033	6.55
566.375	6.65
566.716	6.95
567.058	6.79
567.399	6.85
567.741	6.85
568.082	6.75
568.423	6.97
568.764	6.81
569.105	6.82
569.447	6.85
569.788	6.9
570.129	7
570.47	6.81
570.811	6.63
571.151	6.81
571.492	6.81
571.833	6.87
572.174	7.1
572.514	7.05
572.855	7.11
573.195	7
573.536	7.09
573.876	7.01
574.217	7
574.557	7.08
574.898	7.1
575.238	7.46
575.578	7.06
575.918	6.98
576.258	7.11
576.598	7.28
576.938	7.09
577.278	7.12
577.618	7.18
577.958	7.2
578.298	7.33
578.638	7.45
578.977	7.61
579.317	7.39
579.657	7.19
579.996	7.45
580.336	7.45
580.675	7.73
581.014	7.51
581.354	7.5
581.693	7.43
582.032	7.58
582.372	7.67
582.711	7.46
583.05	7.5
583.389	7.56
583.728	7.56
584.067	7.58
584.406	7.64
584.745	7.72
585.083	7.55
585.422	7.8
585.761	7.74
586.1	7.89
586.438	7.93
586.777	7.73
587.115	7.71
587.454	7.84
587.792	7.75
588.13	7.88
588.469	8.21
588.807	7.7
589.145	7.97
589.483	7.97
589.821	7.88
590.159	8.09
590.497	8.13
590.835	7.95
591.173	8.05
591.511	8.31
591.849	8.12
592.187	7.71
592.524	8.26
592.862	8.14
593.2	8.02
593.537	8.15
593.875	8.11
594.212	8.17
594.55	8.12
594.887	7.88
595.224	8.34
595.561	8.27
595.899	8.63
596.236	8.38
596.573	8.57
596.91	8.32
597.247	8.36
597.584	8.32
597.921	8.44
598.258	8.18
598.594	8.42
598.931	8.4
599.268	8.34
599.604	8.37
599.941	8.46
600.277	8.48
600.614	8.66
600.95	8.71
601.287	8.66
601.623	8.76
601.959	8.55
602.296	8.55
602.632	8.29
602.968	8.74
603.304	8.67
603.64	9.07
603.976	8.75
604.312	9.06
604.648	8.71
604.984	8.6
605.319	8.8
605.655	8.75
605.991	8.67
606.326	8.9
606.662	8.86
606.998	8.91
607.333	8.7
607.668	8.55
608.004	8.9
608.339	9.11
608.674	9.16
609.01	8.93
609.345	9.1
609.68	9.04
610.015	9.01
610.35	9.28
610.685	9.15
611.02	9.18
611.355	9.02
611.689	9.26
612.024	9.01
612.359	9.12
612.694	9.01
613.028	9.18
613.363	8.92
613.697	9.18
614.032	9.46
614.366	9.15
614.7	9.1
615.035	9.23
615.369	9.3
615.703	9.56
616.037	9.56
616.371	9.47
616.705	9.76
617.039	9.42
617.373	9.34
617.707	9.77
618.041	9.34
618.375	9.27
618.709	9.72
619.042	9.81
619.376	9.4
619.71	9.88
620.043	9.61
620.377	9.73
620.71	10.05
621.043	9.76
621.377	9.27
621.71	9.48
622.043	9.64
622.376	9.85
622.709	9.88
623.043	9.87
623.376	10.18
623.709	10.13
624.041	9.93
624.374	9.93
624.707	10.07
625.04	10.37
625.373	10.39
625.705	10.1
626.038	10.18
626.37	9.82
626.703	10.15
627.035	10.17
627.368	10.32
627.7	9.99
628.032	10.24
628.365	10.28
628.697	10.41
629.029	10.29
629.361	10.27
629.693	10.55
630.025	10.4
630.357	10.33
630.689	10.62
631.021	10.52
631.353	10.43
631.684	10.49
632.016	10.66
632.348	10.42
632.679	9.96
633.011	10.57
633.342	10.46
633.674	10.31
634.005	10.77
634.336	10.68
634.668	10.55
634.999	10.75
635.33	11.16
635.661	10.59
635.992	10.7
636.323	10.82
636.654	10.7
636.985	10.95
637.316	10.58
637.647	10.55
637.977	11.29
638.308	10.85
638.639	10.94
638.969	10.82
639.3	10.94
639.63	11.22
639.961	10.8
640.291	11.11
640.622	11.27
640.952	11.16
641.282	11.39
641.612	11.37
641.943	11.58
642.273	11.36
642.603	11.33
642.933	11.17
643.263	11.41
643.592	11.18
643.922	11.55
644.252	11.55
644.582	11.02
644.911	11.47
645.241	11.56
645.571	11.28
645.9	11.65
646.23	11.24
646.559	11.57
646.888	11.57
647.218	11.22
647.547	11.55
647.876	11.37
648.205	11.47
648.534	11.57
648.863	11.59
649.192	11.89
649.521	11.6
649.85	11.98
650.179	11.5
650.508	11.75
650.837	11.72
651.165	11.53
651.494	11.59
651.822	12.23
652.151	12.24
652.479	11.76
652.808	11.79
653.136	11.49
653.465	11.99
653.793	11.82
654.121	12.17
654.449	12.16
654.777	11.89
655.105	12.23
655.433	11.99
655.761	12.35
656.089	11.97
656.417	12.12
656.745	12.41
657.073	12.16
657.4	12.1
657.728	12.08
658.056	12.54
658.383	12.34
658.711	12.45
659.038	12.51
659.365	12.27
659.693	12.23
660.02	12.45
660.347	12.65
660.674	12.83
661.001	12.54
661.329	12.29
661.656	12
661.982	12.47
662.309	12.55
662.636	12.59
662.963	12.17
663.29	12.49
663.616	12.46
663.943	12.74
664.27	12.94
664.596	12.41
664.923	12.5
665.249	12.7
665.576	13.42
665.902	12.81
666.228	12.9
666.554	12.48
666.881	12.5
667.207	13.14
667.533	12.91
667.859	12.82
668.185	13.7
668.511	12.96
668.837	12.49
669.162	13.32
669.488	12.59
669.814	12.94
670.139	13.15
670.465	13.18
670.791	13.42
671.116	13.48
671.442	13.42
671.767	13.12
672.092	13.53
672.418	13.22
672.743	13.08
673.068	12.47
673.393	13.16
673.718	13.3
674.043	13.06
674.368	13.29
674.693	13.69
675.018	13.55
675.343	13.3
675.667	13.12
675.992	13.59
676.317	13.66
676.641	13.68
676.966	13.63
677.29	13.77
677.615	13.49
677.939	14.12
678.264	14.26
678.588	14.17
678.912	13.79
679.236	14.47
679.56	13.79
679.885	13.65
680.209	13.45
680.532	14.28
680.856	14.28
681.18	14.05
681.504	14.26
681.828	13.75
682.152	14.77
682.475	13.88
682.799	14.47
683.122	13.97
683.446	13.63
683.769	14.57
684.093	14.13
684.416	14.01
684.739	14.39
685.062	14.59
685.386	14.42
685.709	14.3
686.032	14.25
686.355	14.31
686.678	14.46
687.001	14.36
687.324	14.34
687.646	14.17
687.969	14.48
688.292	14.46
