Data from 0031_chest_Reflection__1__138.txt Node

Date: Thu Oct 20 22:00:03 CDT 2022
User: ToomeyLab
Spectrometer: FLMS14357
Trigger mode: 0
Integration Time (sec): 1.000000E-2
Scans to average: 100
Electric dark correction enabled: true
Nonlinearity correction enabled: false
Boxcar width: 0
XAxis mode: Wavelengths
Number of Pixels in Spectrum: 2048
>>>>>Begin Spectral Data<<<<<
189.047	20.32
189.435	20.32
189.823	20.32
190.211	433.7
190.599	79.21
190.987	13.05
191.375	96.91
191.763	-7.8
192.151	76.61
192.538	146
192.926	44.87
193.314	95.72
193.702	128.28
194.089	376.58
194.477	-278.03
194.864	306.48
195.252	2.91
195.639	819.59
196.027	-109.32
196.414	50.68
196.801	947.58
197.189	-25.65
197.576	6806.48
197.963	123.46
198.351	12.22
198.738	12.26
199.125	3.04
199.512	14.46
199.899	-41.34
200.286	45.89
200.673	22.38
201.06	19.91
201.447	70.25
201.833	-11.57
202.22	24.86
202.607	-2.89
202.994	-44.96
203.38	-65.3
203.767	-6.15
204.154	6.93
204.54	36.19
204.927	-4.38
205.313	25.08
205.699	4.44
206.086	11.47
206.472	-24.99
206.858	-16.28
207.245	23.09
207.631	2.4
208.017	1.59
208.403	-29.73
208.789	25.21
209.175	-5.46
209.561	56.67
209.947	25.19
210.333	13.7
210.719	30.4
211.105	-1.91
211.491	-32.42
211.876	-1.36
212.262	2.47
212.648	-38.12
213.034	-22.88
213.419	-56.86
213.805	-15.73
214.19	10.5
214.576	-33.12
214.961	-27.54
215.346	-31.1
215.732	21.63
216.117	-14.06
216.502	33.57
216.888	-11.54
217.273	-14.27
217.658	8.27
218.043	12.07
218.428	-26.83
218.813	26.04
219.198	-5.21
219.583	13.17
219.968	0.09
220.353	-21.01
220.738	29.33
221.122	18.77
221.507	0.56
221.892	-26.01
222.276	-0.96
222.661	22.09
223.046	10.74
223.43	-1.36
223.815	-1.46
224.199	-4.07
224.583	-0.85
224.968	6.03
225.352	4.76
225.736	6.59
226.121	1.9
226.505	8.49
226.889	5.6
227.273	-1.41
227.657	1.44
228.041	-0.01
228.425	2.77
228.809	5.77
229.193	0.78
229.577	1.02
229.961	2.94
230.344	2.88
230.728	2.14
231.112	3.07
231.495	3.38
231.879	4.3
232.263	3.7
232.646	2.4
233.03	2.71
233.413	0.12
233.797	0.83
234.18	0.1
234.563	2.29
234.946	3.29
235.33	2.35
235.713	2.23
236.096	1.9
236.479	4.02
236.862	2.61
237.245	0.77
237.628	3.6
238.011	3.29
238.394	5.23
238.777	1.99
239.16	3.47
239.543	3.32
239.925	2.65
240.308	3.68
240.691	4.12
241.073	2.54
241.456	3.41
241.838	2.57
242.221	3.19
242.603	3.17
242.986	2.78
243.368	2.36
243.75	2.9
244.133	3.08
244.515	2.5
244.897	2.77
245.279	2.57
245.661	3.21
246.043	3.3
246.425	2.98
246.807	3.08
247.189	3.3
247.571	2.9
247.953	2.78
248.335	2.72
248.717	2.66
249.098	2.63
249.48	2.78
249.862	3.03
250.243	2.7
250.625	3.3
251.006	3.15
251.388	3.23
251.769	2.23
252.151	3.09
252.532	2.81
252.913	2.49
253.295	3.2
253.676	3.17
254.057	2.41
254.438	2.77
254.819	3.07
255.2	2.6
255.581	3.16
255.962	2.75
256.343	2.9
256.724	2.18
257.105	2.85
257.486	3
257.867	4.08
258.247	2.91
258.628	2.68
259.009	2.11
259.389	2.59
259.77	2.79
260.15	2.63
260.531	2.81
260.911	2.7
261.292	2.93
261.672	2.82
262.052	2.75
262.432	2.91
262.813	2.68
263.193	2.59
263.573	3.13
263.953	2.3
264.333	2.95
264.713	2.91
265.093	2.12
265.473	2.94
265.853	3.08
266.233	2.35
266.612	3.01
266.992	2.74
267.372	3.09
267.752	3.09
268.131	2.88
268.511	2.82
268.89	2.93
269.27	2.39
269.649	2.35
270.029	2.39
270.408	2.52
270.787	2.39
271.167	2.73
271.546	2.37
271.925	2.89
272.304	2.67
272.683	2.54
273.062	2.22
273.441	2.77
273.82	2.93
274.199	2.47
274.578	2.14
274.957	2.5
275.336	2.9
275.715	3.04
276.093	2.52
276.472	3.22
276.851	2.7
277.229	2.64
277.608	2.39
277.986	2.31
278.365	2.4
278.743	2.76
279.122	2.36
279.5	2.85
279.878	2.78
280.257	2.02
280.635	2.62
281.013	2.37
281.391	3.12
281.769	2.55
282.147	2.33
282.525	2.47
282.903	2.63
283.281	2.25
283.659	2.04
284.037	2.07
284.415	2.49
284.792	2.28
285.17	2.99
285.548	2.77
285.925	2.48
286.303	2.5
286.68	2.81
287.058	2.45
287.435	2.36
287.813	2.36
288.19	2.44
288.567	2.21
288.945	2.85
289.322	2.41
289.699	2.2
290.076	2.21
290.453	2.25
290.83	2.61
291.207	2.95
291.584	2.38
291.961	2.37
292.338	2.31
292.715	2.45
293.092	2.87
293.469	2.54
293.845	3.05
294.222	3.06
294.599	3.59
294.975	2.51
295.352	3.15
295.728	2.56
296.105	2.78
296.481	2.37
296.858	2.39
297.234	3.03
297.61	2.96
297.986	2.59
298.363	2.71
298.739	2.49
299.115	2.45
299.491	2.93
299.867	2.32
300.243	2.77
300.619	2.75
300.995	2.36
301.371	2.82
301.746	2.34
302.122	2.85
302.498	2.49
302.874	3.26
303.249	3.12
303.625	2.66
304	2.76
304.376	2.83
304.751	3.12
305.127	2.37
305.502	3.09
305.878	2.58
306.253	2.46
306.628	2.42
307.003	2.5
307.378	2.4
307.754	2.8
308.129	2.53
308.504	2.78
308.879	2.61
309.254	2.56
309.629	2.53
310.003	2.58
310.378	2.74
310.753	2.63
311.128	2.37
311.502	2.41
311.877	2.86
312.252	2.46
312.626	2.73
313.001	2.7
313.375	2.96
313.75	2.38
314.124	2.61
314.498	2.44
314.873	2.62
315.247	2.52
315.621	2.41
315.995	2.27
316.369	2.6
316.743	2.34
317.117	3.19
317.491	2.98
317.865	2.32
318.239	2.92
318.613	3.1
318.987	2.43
319.361	3.33
319.734	2.36
320.108	2.79
320.482	2.38
320.855	2.6
321.229	2.73
321.602	2.22
321.976	2.4
322.349	2.49
322.723	3.32
323.096	2.87
323.469	3.13
323.843	2.8
324.216	2.38
324.589	2.95
324.962	2.74
325.335	2.78
325.708	2.7
326.081	2.82
326.454	2.93
326.827	2.15
327.2	3.06
327.573	2.75
327.945	2.53
328.318	2.64
328.691	3.17
329.063	2.65
329.436	2.93
329.809	3.03
330.181	2.23
330.553	2.44
330.926	3.21
331.298	2.57
331.671	2.9
332.043	2.83
332.415	3.27
332.787	3.55
333.159	2.36
333.532	3.03
333.904	2.67
334.276	2.47
334.648	2.41
335.02	2.77
335.391	2.51
335.763	2.69
336.135	2.95
336.507	2.81
336.879	3.77
337.25	2.76
337.622	2.88
337.993	2.53
338.365	2.9
338.736	2.83
339.108	2.75
339.479	2.98
339.851	2.65
340.222	2.73
340.593	2.96
340.964	2.88
341.336	2.49
341.707	2.63
342.078	2.46
342.449	2.6
342.82	2.76
343.191	2.7
343.562	3.02
343.933	2.96
344.303	3.03
344.674	3.04
345.045	2.92
345.416	3.05
345.786	2.47
346.157	2.7
346.527	2.6
346.898	2.45
347.268	2.77
347.639	2.85
348.009	2.6
348.38	3.26
348.75	2.38
349.12	2.66
349.49	3.27
349.861	2.82
350.231	2.82
350.601	3.1
350.971	2.58
351.341	3.23
351.711	3.11
352.081	2.43
352.45	3.08
352.82	2.87
353.19	3
353.56	3.07
353.929	2.48
354.299	3.14
354.669	2.87
355.038	3.01
355.408	2.54
355.777	2.84
356.147	2.8
356.516	2.8
356.885	2.57
357.254	2.93
357.624	2.88
357.993	2.72
358.362	2.92
358.731	3.11
359.1	2.51
359.469	3.17
359.838	2.77
360.207	3.47
360.576	2.53
360.945	3.05
361.314	2.85
361.682	3.03
362.051	2.73
362.42	2.92
362.788	2.92
363.157	2.81
363.525	2.71
363.894	2.8
364.262	2.98
364.631	2.62
364.999	2.65
365.367	3.09
365.735	2.88
366.104	2.61
366.472	2.57
366.84	2.92
367.208	2.67
367.576	2.96
367.944	3.11
368.312	2.71
368.68	3.03
369.048	2.99
369.416	2.87
369.783	2.9
370.151	3.02
370.519	3.04
370.886	2.56
371.254	3.2
371.621	2.7
371.989	2.87
372.356	2.75
372.724	3.1
373.091	3.01
373.458	2.73
373.826	2.86
374.193	2.88
374.56	2.74
374.927	2.78
375.294	2.69
375.661	3.27
376.028	3.05
376.395	3.13
376.762	2.77
377.129	2.73
377.496	2.67
377.863	2.9
378.229	2.96
378.596	2.97
378.963	2.81
379.329	3.33
379.696	2.89
380.062	2.98
380.429	3.18
380.795	2.84
381.161	3.22
381.528	2.85
381.894	2.77
382.26	2.6
382.626	2.98
382.993	2.76
383.359	2.78
383.725	3.1
384.091	3.09
384.457	2.6
384.823	2.93
385.188	2.78
385.554	2.56
385.92	2.86
386.286	2.79
386.651	2.62
387.017	3.05
387.383	3.08
387.748	3.41
388.114	2.96
388.479	2.94
388.845	2.93
389.21	3.13
389.575	2.84
389.94	3.1
390.306	3.01
390.671	2.88
391.036	2.87
391.401	2.82
391.766	3.07
392.131	3.09
392.496	2.81
392.861	2.97
393.226	2.92
393.591	3.08
393.956	3.01
394.32	2.91
394.685	3.04
395.05	2.72
395.414	3.14
395.779	2.85
396.143	3.22
396.508	3.04
396.872	3.2
397.236	2.94
397.601	3.5
397.965	3.16
398.329	3.01
398.694	2.92
399.058	2.78
399.422	3.1
399.786	2.98
400.15	3.16
400.514	3.26
400.878	2.77
401.242	3.35
401.605	3.23
401.969	3.06
402.333	2.87
402.697	2.99
403.06	2.86
403.424	2.94
403.787	2.84
404.151	3.08
404.514	2.95
404.878	2.92
405.241	3.04
405.604	3.04
405.968	3.16
406.331	3.09
406.694	3.04
407.057	3.02
407.42	2.92
407.783	3.06
408.146	3.2
408.509	3.16
408.872	3.22
409.235	2.9
409.598	3.25
409.961	3.12
410.323	3.49
410.686	3.2
411.049	2.84
411.411	3.05
411.774	2.85
412.136	3.17
412.499	3.06
412.861	3.09
413.223	3.12
413.586	3
413.948	2.93
414.31	3.05
414.672	3.22
415.035	3.11
415.397	3.16
415.759	3.19
416.121	3.16
416.483	3.07
416.845	3.25
417.206	2.97
417.568	3.26
417.93	3
418.292	3.14
418.653	3.06
419.015	3.21
419.377	3.04
419.738	3.02
420.1	3.12
420.461	3.05
420.822	2.92
421.184	3.03
421.545	3.09
421.906	2.95
422.267	3.01
422.629	3.04
422.99	3.04
423.351	2.96
423.712	2.96
424.073	3.03
424.434	3
424.795	2.98
425.155	3.06
425.516	3.1
425.877	3.03
426.238	3.1
426.598	3.11
426.959	3.07
427.32	3.11
427.68	2.96
428.041	3.13
428.401	3.08
428.761	3.18
429.122	3.02
429.482	3.2
429.842	3.24
430.202	3.19
430.563	3.03
430.923	3.38
431.283	3.13
431.643	3.18
432.003	3.31
432.363	3.36
432.722	3.29
433.082	3.18
433.442	3.17
433.802	3.04
434.161	3.26
434.521	3.1
434.881	3.24
435.24	3.09
435.6	3.06
435.959	3.26
436.319	3.13
436.678	2.95
437.037	3.26
437.396	3.23
437.756	3.31
438.115	3.29
438.474	3.19
438.833	3.28
439.192	3.06
439.551	3.17
439.91	3.27
440.269	3.14
440.628	3.15
440.987	3.14
441.345	3.16
441.704	3.09
442.063	3.24
442.421	3.08
442.78	3.09
443.138	3.23
443.497	3.2
443.855	3.23
444.214	3.27
444.572	3.32
444.93	3.15
445.288	3.05
445.647	3.33
446.005	3.22
446.363	3.16
446.721	3.24
447.079	3.19
447.437	3.21
447.795	3.17
448.153	3.2
448.51	3.17
448.868	3.17
449.226	3.17
449.584	3.22
449.941	3.3
450.299	3.27
450.656	3.19
451.014	3.34
451.371	3.42
451.729	3.31
452.086	3.49
452.443	3.24
452.801	3.38
453.158	3.21
453.515	3.41
453.872	3.29
454.229	3.21
454.586	3.15
454.943	3.23
455.3	3.22
455.657	3.18
456.014	3.24
456.371	3.25
456.727	3.37
457.084	3.16
457.441	3.41
457.797	3.27
458.154	3.31
458.51	3.23
458.867	3.21
459.223	3.5
459.58	3.42
459.936	3.37
460.292	3.27
460.648	3.17
461.005	3.14
461.361	3.19
461.717	3.27
462.073	3.44
462.429	3.4
462.785	3.35
463.141	3.52
463.496	3.38
463.852	3.32
464.208	3.4
464.564	3.47
464.919	3.55
465.275	3.47
465.631	3.3
465.986	3.44
466.342	3.28
466.697	3.38
467.052	3.3
467.408	3.38
467.763	3.43
468.118	3.45
468.473	3.51
468.829	3.34
469.184	3.5
469.539	3.43
469.894	3.51
470.249	3.59
470.603	3.32
470.958	3.41
471.313	3.35
471.668	3.33
472.023	3.37
472.377	3.45
472.732	3.38
473.086	3.45
473.441	3.36
473.795	3.49
474.15	3.46
474.504	3.34
474.859	3.5
475.213	3.4
475.567	3.65
475.921	3.32
476.275	3.48
476.63	3.61
476.984	3.59
477.338	3.42
477.692	3.47
478.045	3.43
478.399	3.48
478.753	3.42
479.107	3.34
479.461	3.5
479.814	3.51
480.168	3.52
480.521	3.39
480.875	3.58
481.228	3.47
481.582	3.39
481.935	3.5
482.289	3.38
482.642	3.24
482.995	3.46
483.348	3.53
483.701	3.4
484.055	3.35
484.408	3.31
484.761	3.27
485.114	3.2
485.466	3.16
485.819	3.25
486.172	3.25
486.525	3.38
486.878	3.39
487.23	3.39
487.583	3.38
487.936	3.41
488.288	3.35
488.641	3.3
488.993	3.3
489.345	3.3
489.698	3.3
490.05	3.36
490.402	3.45
490.754	3.42
491.107	3.45
491.459	3.51
491.811	3.48
492.163	3.51
492.515	3.32
492.866	3.36
493.218	3.36
493.57	3.37
493.922	3.42
494.274	3.45
494.625	3.48
494.977	3.61
495.328	3.45
495.68	3.53
496.031	3.61
496.383	3.54
496.734	3.61
497.086	3.56
497.437	3.64
497.788	3.6
498.139	3.46
498.49	3.52
498.842	3.44
499.193	3.55
499.544	3.6
499.894	3.65
500.245	3.62
500.596	3.66
500.947	3.63
501.298	3.71
501.648	3.52
501.999	3.67
502.35	3.69
502.7	3.61
503.051	3.77
503.401	3.82
503.752	3.7
504.102	3.54
504.452	3.71
504.803	3.56
505.153	3.66
505.503	3.76
505.853	3.63
506.203	3.71
506.553	3.71
506.903	3.68
507.253	3.81
507.603	3.71
507.953	3.78
508.303	3.76
508.652	3.67
509.002	3.61
509.352	3.72
509.701	3.76
510.051	3.62
510.4	3.62
510.75	3.69
511.099	3.66
511.449	3.77
511.798	3.68
512.147	3.77
512.496	3.81
512.846	3.81
513.195	3.81
513.544	3.79
513.893	3.86
514.242	3.77
514.591	3.83
514.939	3.72
515.288	3.92
515.637	3.74
515.986	3.87
516.334	3.86
516.683	3.87
517.032	3.77
517.38	3.87
517.729	3.91
518.077	3.77
518.426	3.74
518.774	3.88
519.122	3.81
519.47	3.75
519.819	3.7
520.167	3.78
520.515	3.74
520.863	3.8
521.211	3.81
521.559	3.86
521.907	3.8
522.255	3.89
522.602	3.9
522.95	3.94
523.298	3.87
523.645	3.98
523.993	3.9
524.341	3.99
524.688	3.88
525.036	4.04
525.383	3.95
525.73	3.87
526.078	3.93
526.425	3.9
526.772	3.91
527.119	3.78
527.466	3.95
527.814	4
528.161	3.96
528.508	3.87
528.854	3.98
529.201	3.88
529.548	3.81
529.895	3.69
530.242	3.73
530.588	3.79
530.935	3.87
531.282	3.9
531.628	3.89
531.975	4.01
532.321	3.96
532.667	3.99
533.014	4
533.36	4.04
533.706	3.91
534.052	4.02
534.399	4.01
534.745	3.96
535.091	3.94
535.437	4
535.783	3.98
536.129	4.02
536.474	4.05
536.82	4.12
537.166	4.15
537.512	4.03
537.857	4.07
538.203	4.05
538.549	4.07
538.894	4.13
539.239	4.23
539.585	4.27
539.93	4.28
540.276	4.39
540.621	4.29
540.966	4.26
541.311	4.23
541.656	4.28
542.001	4.23
542.346	4.15
542.691	4.01
543.036	4.01
543.381	4.1
543.726	4.17
544.071	4.22
544.415	4.23
544.76	4.14
545.105	4.25
545.449	4.31
545.794	4.33
546.138	4.42
546.483	4.32
546.827	4.28
547.171	4.35
547.516	4.37
547.86	4.35
548.204	4.43
548.548	4.35
548.892	4.41
549.236	4.48
549.58	4.4
549.924	4.53
550.268	4.44
550.612	4.57
550.956	4.59
551.3	4.63
551.643	4.69
551.987	4.72
552.33	4.57
552.674	4.51
553.017	4.68
553.361	4.55
553.704	4.61
554.048	4.67
554.391	4.56
554.734	4.61
555.077	4.55
555.42	4.77
555.764	4.7
556.107	4.71
556.45	4.6
556.793	4.7
557.135	4.73
557.478	4.75
557.821	4.81
558.164	4.64
558.507	4.84
558.849	4.98
559.192	4.82
559.534	4.88
559.877	4.93
560.219	4.74
560.562	4.96
560.904	4.89
561.246	4.85
561.589	5.14
561.931	4.66
562.273	4.95
562.615	4.9
562.957	4.95
563.299	4.83
563.641	4.99
563.983	5.14
564.325	5
564.667	5.02
565.008	5.15
565.35	5.2
565.692	5.03
566.033	4.86
566.375	5.05
566.716	4.97
567.058	5.08
567.399	5.15
567.741	5.08
568.082	5.05
568.423	5.23
568.764	5.1
569.105	5.23
569.447	5.24
569.788	5.24
570.129	5.28
570.47	5.25
570.811	5.15
571.151	5.18
571.492	5.21
571.833	5.2
572.174	5.47
572.514	5.3
572.855	5.36
573.195	5.38
573.536	5.32
573.876	5.32
574.217	5.35
574.557	5.37
574.898	5.36
575.238	5.58
575.578	5.59
575.918	5.62
576.258	5.42
576.598	5.62
576.938	5.52
577.278	5.46
577.618	5.61
577.958	5.48
578.298	5.53
578.638	5.73
578.977	5.77
579.317	5.7
579.657	5.74
579.996	5.75
580.336	5.81
580.675	5.76
581.014	5.71
581.354	5.97
581.693	5.76
582.032	5.88
582.372	5.75
582.711	5.8
583.05	5.96
583.389	5.77
583.728	6.04
584.067	6.06
584.406	6.17
584.745	6.01
585.083	5.74
585.422	6.01
585.761	6.15
586.1	6.32
586.438	6.13
586.777	6.13
587.115	6.09
587.454	6.26
587.792	6.04
588.13	6.4
588.469	6.41
588.807	6.01
589.145	6.26
589.483	6.3
589.821	6.25
590.159	6.32
590.497	6.27
590.835	6.18
591.173	6.27
591.511	6.22
591.849	6.47
592.187	6.3
592.524	6.46
592.862	6.27
593.2	6.5
593.537	6.51
593.875	6.5
594.212	6.46
594.55	6.42
594.887	6.32
595.224	6.69
595.561	6.56
595.899	6.75
596.236	6.78
596.573	6.75
596.91	6.69
597.247	6.68
597.584	6.53
597.921	6.62
598.258	6.46
598.594	6.66
598.931	6.62
599.268	6.77
599.604	6.7
599.941	6.86
600.277	6.8
600.614	6.85
600.95	6.97
601.287	7.02
601.623	6.96
601.959	7.11
602.296	6.86
602.632	6.9
602.968	7.31
603.304	6.86
603.64	7.29
603.976	6.99
604.312	7.23
604.648	7.04
604.984	7.15
605.319	7.1
605.655	7.08
605.991	7.16
606.326	7.07
606.662	7.15
606.998	7.26
607.333	7.22
607.668	7.29
608.004	7.36
608.339	7.46
608.674	7.43
609.01	7.56
609.345	7.42
609.68	7.42
610.015	7.51
610.35	7.31
610.685	7.44
611.02	7.33
611.355	7.41
611.689	7.47
612.024	7.38
612.359	7.54
612.694	7.43
613.028	7.51
613.363	7.58
613.697	7.41
614.032	7.99
614.366	7.66
614.7	7.61
615.035	7.76
615.369	7.91
615.703	8.08
616.037	7.8
616.371	7.62
616.705	7.79
617.039	7.86
617.373	7.79
617.707	7.99
618.041	7.61
618.375	7.83
618.709	7.98
619.042	7.8
619.376	7.87
619.71	8
620.043	7.94
620.377	7.99
620.71	8.2
621.043	8.22
621.377	7.88
621.71	8.13
622.043	8.05
622.376	8.28
622.709	8.33
623.043	8.03
623.376	8.54
623.709	8.34
624.041	8.53
624.374	8.52
624.707	8.28
625.04	8.76
625.373	8.48
625.705	8.21
626.038	8.76
626.37	8.39
626.703	8.68
627.035	8.44
627.368	8.59
627.7	8.56
628.032	8.73
628.365	8.47
628.697	8.57
629.029	8.98
629.361	9
629.693	9.03
630.025	8.75
630.357	8.72
630.689	8.95
631.021	9
631.353	9.18
631.684	8.92
632.016	8.82
632.348	8.79
632.679	8.75
633.011	9.13
633.342	9.03
633.674	9.18
634.005	9.23
634.336	9.31
634.668	9
634.999	9.14
635.33	9.47
635.661	9.19
635.992	9.36
636.323	9.39
636.654	9.29
636.985	9.38
637.316	9.13
637.647	9.52
637.977	9.91
638.308	9.54
638.639	9.68
638.969	9.69
639.3	9.6
639.63	9.56
639.961	9.61
640.291	9.43
640.622	9.56
640.952	9.49
641.282	9.85
641.612	9.65
641.943	9.88
642.273	9.9
642.603	9.99
642.933	10.24
643.263	9.57
643.592	10.05
643.922	10.15
644.252	9.87
644.582	9.79
644.911	9.96
645.241	10.36
645.571	9.89
645.9	10.05
646.23	9.92
646.559	10.49
646.888	10.39
647.218	9.95
647.547	10.35
647.876	9.98
648.205	10.14
648.534	10.23
648.863	10.42
649.192	10.27
649.521	9.99
649.85	10.47
650.179	10.44
650.508	10.67
650.837	10.32
651.165	10
651.494	10.53
651.822	10.94
652.151	10.44
652.479	10.59
652.808	10.22
653.136	10.37
653.465	10.76
653.793	10.68
654.121	10.42
654.449	11.04
654.777	10.82
655.105	11.28
655.433	10.49
655.761	10.69
656.089	11.2
656.417	10.65
656.745	11.19
657.073	11.28
657.4	11.16
657.728	10.69
658.056	11.03
658.383	11.11
658.711	11.61
659.038	11.12
659.365	10.6
659.693	11.57
660.02	11.36
660.347	11.16
660.674	11.49
661.001	10.89
661.329	11.02
661.656	11.19
661.982	11.23
662.309	11.45
662.636	11.62
662.963	11.02
663.29	11.53
663.616	11.55
663.943	11.76
664.27	11.93
664.596	12.11
664.923	11.37
665.249	11.82
665.576	12.05
665.902	11.43
666.228	12.21
666.554	11.91
666.881	11.36
667.207	11.76
667.533	11.72
667.859	11.2
668.185	12.07
668.511	11.84
668.837	11.65
669.162	12.22
669.488	11.77
669.814	12.5
670.139	12.16
670.465	12.18
670.791	12.26
671.116	12.21
671.442	11.96
671.767	12.01
672.092	12.48
672.418	11.69
672.743	12.41
673.068	12.11
673.393	12.75
673.718	12.22
674.043	11.63
674.368	11.94
674.693	12.11
675.018	12.58
675.343	12.2
675.667	12.49
675.992	12.66
676.317	12.89
676.641	12.46
676.966	12.53
677.29	12.3
677.615	13.17
677.939	12.98
678.264	12.34
678.588	12.16
678.912	12.28
679.236	12.98
679.56	12.76
679.885	12.44
680.209	12.57
680.532	12.96
680.856	13.35
681.18	13
681.504	12.08
681.828	13.14
682.152	13.46
682.475	13.45
682.799	13.11
683.122	13.11
683.446	13.14
683.769	13.4
684.093	12.76
684.416	12.89
684.739	13.26
685.062	13.08
685.386	13.11
685.709	12.84
686.032	13.35
686.355	12.93
686.678	13.73
687.001	13.22
687.324	13.69
687.646	13.29
687.969	12.89
688.292	13.75
688.614	13.59
688.937	13.61
689.26	13.61
689.582	13.15
689.904	14.23
