Data from 0031_forehead_Reflection__2__149.txt Node

Date: Thu Oct 20 22:04:16 CDT 2022
User: ToomeyLab
Spectrometer: FLMS14357
Trigger mode: 0
Integration Time (sec): 1.000000E-2
Scans to average: 100
Electric dark correction enabled: true
Nonlinearity correction enabled: false
Boxcar width: 0
XAxis mode: Wavelengths
Number of Pixels in Spectrum: 2048
>>>>>Begin Spectral Data<<<<<
189.047	20
189.435	20
189.823	20
190.211	654.23
190.599	-73.69
190.987	86.38
191.375	180.17
191.763	-206.32
192.151	85.02
192.538	39.58
192.926	65.74
193.314	66.74
193.702	1491.39
194.089	2326.58
194.477	-82.14
194.864	226.85
195.252	85.69
195.639	376.8
196.027	256.69
196.414	140.67
196.801	291.13
197.189	64.21
197.576	-732.41
197.963	32.98
198.351	0.06
198.738	19.61
199.125	-3.37
199.512	43.6
199.899	-28.27
200.286	22.14
200.673	22.69
201.06	25.04
201.447	14.95
201.833	17.82
202.22	29.75
202.607	40.46
202.994	-64.34
203.38	-17.86
203.767	-1.92
204.154	19.74
204.54	41.54
204.927	24.88
205.313	2.59
205.699	23.73
206.086	-24.12
206.472	16.91
206.858	-7.89
207.245	22.22
207.631	4.84
208.017	60.98
208.403	-23.86
208.789	34.38
209.175	30.01
209.561	26.34
209.947	35.18
210.333	10.03
210.719	3
211.105	37.43
211.491	-28.17
211.876	-15.43
212.262	-2.89
212.648	5.4
213.034	22.45
213.419	-18.12
213.805	-5.07
214.19	-8.76
214.576	9.05
214.961	-19.5
215.346	10.12
215.732	5.29
216.117	-25.88
216.502	9.26
216.888	-15.61
217.273	-25.18
217.658	14.92
218.043	26.97
218.428	-12.78
218.813	27.5
219.198	8.53
219.583	23.33
219.968	20.58
220.353	0.03
220.738	9.51
221.122	0.4
221.507	4.74
221.892	-9.2
222.276	-0.77
222.661	2.05
223.046	11.4
223.43	-6.13
223.815	-0.67
224.199	-3.67
224.583	9.92
224.968	12.3
225.352	12.92
225.736	4.1
226.121	-0.69
226.505	2.74
226.889	-3.14
227.273	-0.62
227.657	0.01
228.041	1.47
228.425	1.25
228.809	4.09
229.193	2.12
229.577	2.11
229.961	1.99
230.344	1.87
230.728	1.75
231.112	1.35
231.495	1.97
231.879	2.49
232.263	2.54
232.646	3.5
233.03	0.79
233.413	1.33
233.797	1.19
234.18	0.41
234.563	3.73
234.946	1.98
235.33	2.61
235.713	1.36
236.096	0.38
236.479	3.68
236.862	1.3
237.245	2.56
237.628	1.98
238.011	2.88
238.394	4.51
238.777	2.46
239.16	1.61
239.543	1.88
239.925	0.98
240.308	1.87
240.691	1.9
241.073	1.82
241.456	1.63
241.838	2.28
242.221	1.43
242.603	1.84
242.986	2.29
243.368	1.92
243.75	2.16
244.133	2.25
244.515	1.78
244.897	1.62
245.279	1.1
245.661	2.82
246.043	2.16
246.425	2.74
246.807	2.22
247.189	2.26
247.571	1.98
247.953	2.15
248.335	2.04
248.717	2.04
249.098	2.15
249.48	2.09
249.862	2.04
250.243	2.23
250.625	2.42
251.006	2.65
251.388	2.07
251.769	2.14
252.151	2.29
252.532	1.51
252.913	2.09
253.295	2.3
253.676	2.26
254.057	1.53
254.438	1.77
254.819	2.14
255.2	3.4
255.581	1.97
255.962	2.64
256.343	2.55
256.724	1.67
257.105	2.27
257.486	1.84
257.867	2.06
258.247	2.46
258.628	2.21
259.009	1.74
259.389	1.88
259.77	1.43
260.15	2.12
260.531	2.06
260.911	1.75
261.292	2.16
261.672	2.09
262.052	2.24
262.432	2.23
262.813	1.76
263.193	2.81
263.573	2.12
263.953	2.3
264.333	1.88
264.713	2.2
265.093	1.95
265.473	1.94
265.853	2.16
266.233	2.74
266.612	2.7
266.992	1.33
267.372	2.94
267.752	1.95
268.131	2.59
268.511	2.22
268.89	2
269.27	2.01
269.649	1.62
270.029	1.28
270.408	1.91
270.787	1.63
271.167	2.27
271.546	1.81
271.925	2.3
272.304	1.95
272.683	1.8
273.062	1.82
273.441	2.03
273.82	2.17
274.199	1.58
274.578	1.6
274.957	1.71
275.336	1.81
275.715	1.81
276.093	2.43
276.472	2.87
276.851	2.54
277.229	2
277.608	1.71
277.986	1.89
278.365	1.91
278.743	2.21
279.122	2.2
279.5	1.9
279.878	2.9
280.257	1.79
280.635	2.39
281.013	2
281.391	2.06
281.769	1.98
282.147	2.16
282.525	1.47
282.903	2.12
283.281	1.77
283.659	1.73
284.037	1.53
284.415	1.94
284.792	2.07
285.17	1.92
285.548	1.72
285.925	1.83
286.303	2.02
286.68	2.08
287.058	2.06
287.435	2.05
287.813	2.16
288.19	2.07
288.567	2.09
288.945	2.33
289.322	2.22
289.699	2.2
290.076	1.99
290.453	2.05
290.83	1.92
291.207	2.13
291.584	2.13
291.961	2.1
292.338	1.96
292.715	2.09
293.092	2.64
293.469	2.16
293.845	2.23
294.222	2.59
294.599	3.16
294.975	2.25
295.352	2.58
295.728	2.31
296.105	2.62
296.481	2.29
296.858	2.43
297.234	2.42
297.61	2.42
297.986	2.49
298.363	2.27
298.739	2.36
299.115	2.53
299.491	2.47
299.867	2.19
300.243	2.59
300.619	2.78
300.995	2.69
301.371	2.55
301.746	2.28
302.122	2.85
302.498	2.56
302.874	2.95
303.249	3.1
303.625	2.46
304	3.23
304.376	2.62
304.751	3.07
305.127	2.08
305.502	2.89
305.878	3.1
306.253	2.97
306.628	2.88
307.003	2.59
307.378	2.54
307.754	2.8
308.129	3.2
308.504	3.39
308.879	3.11
309.254	3.22
309.629	2.83
310.003	2.75
310.378	2.78
310.753	3.06
311.128	2.71
311.502	2.79
311.877	3.42
312.252	3.05
312.626	3.17
313.001	3.15
313.375	3.14
313.75	2.73
314.124	3.67
314.498	3.37
314.873	3.19
315.247	3.44
315.621	3.49
315.995	3.27
316.369	3.91
316.743	3.06
317.117	3.26
317.491	3.74
317.865	3.45
318.239	3.33
318.613	3.85
318.987	3.71
319.361	4.12
319.734	3.23
320.108	4
320.482	3.75
320.855	4.35
321.229	3.53
321.602	2.96
321.976	3.97
322.349	3.73
322.723	4.28
323.096	4.01
323.469	4.07
323.843	3.92
324.216	3.44
324.589	4.31
324.962	3.7
325.335	3.94
325.708	4.21
326.081	4.39
326.454	4.35
326.827	3.96
327.2	4.6
327.573	3.99
327.945	3.86
328.318	4.08
328.691	4.57
329.063	4.32
329.436	4.19
329.809	4.38
330.181	4.41
330.553	4.18
330.926	4.28
331.298	4.47
331.671	4.98
332.043	4.07
332.415	4.37
332.787	4.95
333.159	4.86
333.532	4.55
333.904	4.5
334.276	4.23
334.648	4.34
335.02	4.42
335.391	4.91
335.763	4.47
336.135	4.71
336.507	4.39
336.879	5.21
337.25	4.41
337.622	5.01
337.993	4.34
338.365	4.88
338.736	4.94
339.108	4.38
339.479	4.55
339.851	4.41
340.222	4.68
340.593	4.57
340.964	5.14
341.336	4.87
341.707	4.19
342.078	4.02
342.449	4.47
342.82	4.95
343.191	5.13
343.562	5.13
343.933	5.19
344.303	5.17
344.674	4.94
345.045	5.29
345.416	5.3
345.786	5.06
346.157	5.02
346.527	4.91
346.898	4.94
347.268	5.03
347.639	5.29
348.009	5.16
348.38	5.63
348.75	4.68
349.12	5.55
349.49	5.23
349.861	5.46
350.231	5.39
350.601	5.64
350.971	5.43
351.341	5.83
351.711	5.89
352.081	5.26
352.45	5.31
352.82	5.43
353.19	5.53
353.56	5.52
353.929	5.22
354.299	5.65
354.669	5.69
355.038	5.77
355.408	5.57
355.777	5.51
356.147	5.98
356.516	5.62
356.885	5.84
357.254	5.97
357.624	5.89
357.993	5.75
358.362	5.64
358.731	6.1
359.1	5.66
359.469	6.07
359.838	5.87
360.207	6.59
360.576	5.64
360.945	6.19
361.314	6.02
361.682	5.94
362.051	6.11
362.42	6
362.788	5.97
363.157	5.91
363.525	6.2
363.894	6.05
364.262	6.26
364.631	6.01
364.999	5.93
365.367	6.27
365.735	6.13
366.104	6.21
366.472	6.09
366.84	6.45
367.208	6.11
367.576	5.91
367.944	6.85
368.312	6.31
368.68	6.52
369.048	6.2
369.416	6.44
369.783	6.44
370.151	6.66
370.519	6.41
370.886	6.38
371.254	6.92
371.621	6.63
371.989	6.63
372.356	6.51
372.724	6.69
373.091	6.63
373.458	6.6
373.826	6.82
374.193	6.82
374.56	6.47
374.927	6.98
375.294	6.79
375.661	6.99
376.028	6.72
376.395	7.23
376.762	6.66
377.129	6.85
377.496	6.72
377.863	6.89
378.229	6.79
378.596	6.8
378.963	7.05
379.329	6.93
379.696	6.92
380.062	7.01
380.429	7.31
380.795	7.39
381.161	7.48
381.528	7.05
381.894	7.29
382.26	7.31
382.626	7.53
382.993	6.97
383.359	7.47
383.725	7.62
384.091	7.53
384.457	7.35
384.823	7.22
385.188	7.35
385.554	7
385.92	7.28
386.286	7.16
386.651	7.4
387.017	7.46
387.383	7.48
387.748	7.68
388.114	7.67
388.479	7.52
388.845	7.79
389.21	7.62
389.575	7.58
389.94	8
390.306	7.8
390.671	7.67
391.036	7.77
391.401	7.55
391.766	7.91
392.131	7.88
392.496	7.67
392.861	7.6
393.226	7.9
393.591	8.03
393.956	8.24
394.32	7.79
394.685	8.19
395.05	7.95
395.414	8.08
395.779	8
396.143	8.1
396.508	8.03
396.872	8.2
397.236	8.08
397.601	8.3
397.965	8.38
398.329	8.21
398.694	8.23
399.058	8.24
399.422	8.48
399.786	8.31
400.15	8.36
400.514	8.31
400.878	8.6
401.242	8.54
401.605	8.48
401.969	8.44
402.333	8.61
402.697	8.52
403.06	8.53
403.424	8.52
403.787	8.53
404.151	8.47
404.514	8.54
404.878	8.41
405.241	8.66
405.604	8.7
405.968	8.77
406.331	8.7
406.694	8.63
407.057	8.72
407.42	8.67
407.783	8.67
408.146	8.88
408.509	8.75
408.872	8.98
409.235	8.66
409.598	8.86
409.961	9.02
410.323	9.17
410.686	8.93
411.049	8.88
411.411	8.86
411.774	8.84
412.136	8.87
412.499	9.06
412.861	8.89
413.223	9.05
413.586	9.05
413.948	9.2
414.31	9.12
414.672	9.08
415.035	9.2
415.397	9.31
415.759	9.26
416.121	9.29
416.483	9.07
416.845	9.48
417.206	9.26
417.568	9.32
417.93	9.25
418.292	9.54
418.653	9.23
419.015	9.46
419.377	9.44
419.738	9.3
420.1	9.29
420.461	9.41
420.822	9.2
421.184	9.38
421.545	9.35
421.906	9.31
422.267	9.34
422.629	9.25
422.99	9.32
423.351	9.27
423.712	9.33
424.073	9.62
424.434	9.49
424.795	9.53
425.155	9.47
425.516	9.59
425.877	9.5
426.238	9.67
426.598	9.67
426.959	9.6
427.32	9.69
427.68	9.82
428.041	9.9
428.401	10.1
428.761	10.01
429.122	9.85
429.482	10.14
429.842	10.09
430.202	10.22
430.563	10.05
430.923	10.32
431.283	10.07
431.643	10.08
432.003	10.25
432.363	10.38
432.722	10.56
433.082	10.38
433.442	10.43
433.802	10.5
434.161	10.51
434.521	10.37
434.881	10.41
435.24	10.33
435.6	10.5
435.959	10.68
436.319	10.62
436.678	10.6
437.037	10.68
437.396	10.71
437.756	10.76
438.115	10.91
438.474	10.74
438.833	10.85
439.192	10.75
439.551	10.86
439.91	11.01
440.269	10.96
440.628	11.01
440.987	10.82
441.345	11
441.704	10.86
442.063	11.01
442.421	10.88
442.78	11.03
443.138	11.07
443.497	11.02
443.855	11.2
444.214	11.09
444.572	11.38
444.93	11.23
445.288	11.23
445.647	11.38
446.005	11.33
446.363	11.28
446.721	11.41
447.079	11.36
447.437	11.4
447.795	11.32
448.153	11.25
448.51	11.44
448.868	11.39
449.226	11.4
449.584	11.53
449.941	11.65
450.299	11.64
450.656	11.79
451.014	11.74
451.371	11.85
451.729	11.81
452.086	11.98
452.443	11.92
452.801	11.98
453.158	11.81
453.515	11.88
453.872	11.98
454.229	12.01
454.586	11.97
454.943	12
455.3	12.09
455.657	12.09
456.014	12.38
456.371	12.23
456.727	12.38
457.084	12.23
457.441	12.47
457.797	12.37
458.154	12.34
458.51	12.34
458.867	12.51
459.223	12.78
459.58	12.43
459.936	12.58
460.292	12.46
460.648	12.45
461.005	12.35
461.361	12.48
461.717	12.46
462.073	12.7
462.429	12.58
462.785	12.84
463.141	12.83
463.496	12.9
463.852	12.87
464.208	12.99
464.564	12.98
464.919	13.05
465.275	13.17
465.631	13.03
465.986	13.27
466.342	13.19
466.697	13.12
467.052	13.27
467.408	13.28
467.763	13.39
468.118	13.54
468.473	13.48
468.829	13.44
469.184	13.45
469.539	13.3
469.894	13.44
470.249	13.67
470.603	13.5
470.958	13.62
471.313	13.54
471.668	13.51
472.023	13.78
472.377	13.66
472.732	13.86
473.086	14.02
473.441	13.89
473.795	13.86
474.15	14.03
474.504	13.88
474.859	14.04
475.213	14.15
475.567	14.22
475.921	13.96
476.275	14.26
476.63	14.24
476.984	14.24
477.338	14.19
477.692	14.16
478.045	14.24
478.399	14.26
478.753	14.16
479.107	14.31
479.461	14.4
479.814	14.32
480.168	14.48
480.521	14.38
480.875	14.52
481.228	14.45
481.582	14.58
481.935	14.59
482.289	14.42
482.642	14.41
482.995	14.58
483.348	14.53
483.701	14.48
484.055	14.39
484.408	14.33
484.761	14.16
485.114	14.08
485.466	14
485.819	14.01
486.172	13.95
486.525	14.12
486.878	14.34
487.23	14.37
487.583	14.49
487.936	14.54
488.288	14.54
488.641	14.51
488.993	14.44
489.345	14.52
489.698	14.46
490.05	14.57
490.402	14.71
490.754	14.82
491.107	14.85
491.459	15.15
491.811	15.26
492.163	15.12
492.515	15.1
492.866	15.06
493.218	14.92
493.57	14.88
493.922	14.93
494.274	15.07
494.625	15.28
494.977	15.57
495.328	15.53
495.68	15.63
496.031	15.86
496.383	15.97
496.734	15.86
497.086	15.87
497.437	16.17
497.788	16.01
498.139	15.84
498.49	15.93
498.842	15.96
499.193	15.96
499.544	16.08
499.894	16.16
500.245	16.16
500.596	16.36
500.947	16.26
501.298	16.45
501.648	16.34
501.999	16.49
502.35	16.55
502.7	16.68
503.051	16.6
503.401	16.81
503.752	16.65
504.102	16.71
504.452	16.85
504.803	16.8
505.153	16.86
505.503	16.94
505.853	16.89
506.203	16.94
506.553	17.04
506.903	16.78
507.253	16.96
507.603	17
507.953	17.3
508.303	17.22
508.652	17.05
509.002	17.19
509.352	17.17
509.701	17.26
510.051	17.16
510.4	17.09
510.75	17.14
511.099	17.16
511.449	17.28
511.798	17.25
512.147	17.28
512.496	17.48
512.846	17.53
513.195	17.54
513.544	17.42
513.893	17.67
514.242	17.55
514.591	17.63
514.939	17.68
515.288	17.81
515.637	17.8
515.986	17.98
516.334	17.88
516.683	17.97
517.032	17.86
517.38	18.13
517.729	18.06
518.077	18.01
518.426	18.15
518.774	18.25
519.122	18.09
519.47	17.93
519.819	17.93
520.167	17.91
520.515	17.83
520.863	17.88
521.211	18
521.559	18.22
521.907	18.15
522.255	18.35
522.602	18.42
522.95	18.46
523.298	18.44
523.645	18.72
523.993	18.56
524.341	18.73
524.688	18.72
525.036	18.7
525.383	18.67
525.73	18.76
526.078	18.79
526.425	18.63
526.772	18.72
527.119	18.52
527.466	18.57
527.814	18.54
528.161	18.54
528.508	18.68
528.854	18.62
529.201	18.6
529.548	18.55
529.895	18.44
530.242	18.37
530.588	18.4
530.935	18.33
531.282	18.26
531.628	18.53
531.975	18.71
532.321	18.9
532.667	19
533.014	19.12
533.36	19.22
533.706	19.21
534.052	19.14
534.399	19.12
534.745	19.06
535.091	19.11
535.437	18.91
535.783	19.11
536.129	19.17
536.474	19.37
536.82	19.45
537.166	19.68
537.512	19.67
537.857	19.64
538.203	19.76
538.549	19.66
538.894	19.74
539.239	19.8
539.585	19.87
539.93	20.04
540.276	20.36
540.621	20.2
540.966	20.42
541.311	20.31
541.656	20.21
542.001	20.21
542.346	20.03
542.691	19.92
543.036	19.81
543.381	19.83
543.726	19.88
544.071	20.03
544.415	20.08
544.76	20.18
545.105	20.26
545.449	20.46
545.794	20.51
546.138	20.62
546.483	20.64
546.827	20.86
547.171	20.81
547.516	20.9
547.86	20.89
548.204	20.96
548.548	20.84
548.892	20.98
549.236	21.09
549.58	21.02
549.924	21.2
550.268	21.38
550.612	21.49
550.956	21.52
551.3	21.67
551.643	21.64
551.987	21.78
552.33	21.74
552.674	21.68
553.017	21.82
553.361	21.81
553.704	22.07
554.048	21.97
554.391	21.83
554.734	21.85
555.077	21.89
555.42	22.08
555.764	22.1
556.107	22.06
556.45	22.19
556.793	22.15
557.135	22.36
557.478	22.3
557.821	22.35
558.164	22.45
558.507	22.5
558.849	22.65
559.192	22.67
559.534	22.84
559.877	22.9
560.219	22.95
560.562	22.95
560.904	22.8
561.246	22.89
561.589	23.04
561.931	22.88
562.273	22.94
562.615	22.95
562.957	22.93
563.299	23.13
563.641	23.15
563.983	23.25
564.325	23.14
564.667	23.13
565.008	23.21
565.35	23.22
565.692	23.22
566.033	23.2
566.375	23.25
566.716	23.37
567.058	23.41
567.399	23.53
567.741	23.28
568.082	23.42
568.423	23.66
568.764	23.45
569.105	23.63
569.447	23.76
569.788	23.91
570.129	23.92
570.47	23.85
570.811	23.74
571.151	23.9
571.492	23.91
571.833	23.97
572.174	24.03
572.514	23.86
572.855	23.97
573.195	24.07
573.536	23.99
573.876	23.89
574.217	23.97
574.557	24.11
574.898	24.27
575.238	24.37
575.578	24.17
575.918	24.31
576.258	24.45
576.598	24.44
576.938	24.56
577.278	24.65
577.618	24.58
577.958	24.54
578.298	24.82
578.638	24.52
578.977	24.97
579.317	24.71
579.657	24.94
579.996	24.82
580.336	25.2
580.675	25.33
581.014	25.32
581.354	25.23
581.693	25.14
582.032	25.37
582.372	25.37
582.711	25.25
583.05	25.76
583.389	25.44
583.728	25.27
584.067	25.45
584.406	25.69
584.745	25.62
585.083	25.47
585.422	25.47
585.761	25.57
586.1	25.89
586.438	25.81
586.777	25.89
587.115	25.96
587.454	26.2
587.792	25.83
588.13	26.17
588.469	26.33
588.807	26.14
589.145	26.1
589.483	26.23
589.821	26.14
590.159	26.18
590.497	26.2
590.835	26.46
591.173	26.11
591.511	26.39
591.849	26.12
592.187	26.45
592.524	26.48
592.862	26.43
593.2	26.63
593.537	26.77
593.875	26.7
594.212	26.73
594.55	26.91
594.887	26.68
595.224	27.12
595.561	26.98
595.899	27.03
596.236	27.16
596.573	27.22
596.91	26.72
597.247	26.96
597.584	27.24
597.921	27.16
598.258	26.92
598.594	27.13
598.931	26.94
599.268	27.06
599.604	27.15
599.941	27.09
600.277	27.22
600.614	27.35
600.95	27.47
601.287	27.39
601.623	27.72
601.959	27.76
602.296	27.57
602.632	27.42
602.968	27.89
603.304	27.63
603.64	27.96
603.976	27.93
604.312	28.26
604.648	28.17
604.984	27.81
605.319	27.82
605.655	27.91
605.991	27.87
606.326	27.85
606.662	28.16
606.998	28.06
607.333	28
607.668	28.12
608.004	28.37
608.339	28.26
608.674	28.52
609.01	28.37
609.345	28.57
609.68	28.79
610.015	28.39
610.35	28.61
610.685	28.56
611.02	28.61
611.355	28.59
611.689	28.77
612.024	28.6
612.359	28.69
612.694	28.53
613.028	29.07
613.363	28.81
613.697	28.95
614.032	29.37
614.366	29.19
614.7	29.31
615.035	29.21
615.369	29.13
615.703	29.32
616.037	29.32
616.371	29.08
616.705	29.44
617.039	29.34
617.373	29.52
617.707	29.55
618.041	29.45
618.375	29.55
618.709	29.85
619.042	29.56
619.376	29.84
619.71	29.89
620.043	29.96
620.377	29.96
620.71	29.88
621.043	29.93
621.377	29.35
621.71	30.29
622.043	29.77
622.376	30.35
622.709	30.3
623.043	30.07
623.376	30.08
623.709	30.45
624.041	30.09
624.374	30.51
624.707	30.63
625.04	30.79
625.373	30.36
625.705	30.56
626.038	30.69
626.37	30.83
626.703	30.85
627.035	30.88
627.368	30.71
627.7	30.69
628.032	30.93
628.365	30.96
628.697	31.02
629.029	30.92
629.361	30.82
629.693	31.07
630.025	30.95
630.357	30.87
630.689	31.14
631.021	31.38
631.353	31.27
631.684	31.18
632.016	31.26
632.348	31.18
632.679	31.32
633.011	31.67
633.342	31.67
633.674	31.62
634.005	31.95
634.336	31.99
634.668	31.54
634.999	31.8
635.33	32.05
635.661	31.68
635.992	31.96
636.323	31.78
636.654	31.72
636.985	32.04
637.316	31.84
637.647	32.04
637.977	32.35
638.308	31.89
638.639	32.09
638.969	32
639.3	32.44
639.63	32.43
639.961	32.59
640.291	32.08
640.622	32.6
640.952	32.28
641.282	32.77
641.612	32.97
641.943	32.78
642.273	32.5
642.603	32.86
642.933	32.82
643.263	32.75
643.592	33.05
643.922	32.82
644.252	33.3
644.582	32.79
644.911	33.45
645.241	33.34
645.571	33.18
645.9	33.52
646.23	33.28
646.559	33.3
646.888	33.78
647.218	33.14
647.547	33.17
647.876	33.54
648.205	33.19
648.534	33.14
648.863	33.62
649.192	33.38
649.521	33.64
649.85	33.44
650.179	33.6
650.508	33.81
650.837	33.76
651.165	33.54
651.494	34.28
651.822	34.4
652.151	34.17
652.479	33.7
652.808	34.06
653.136	33.73
653.465	33.84
653.793	34.15
654.121	34.32
654.449	34.31
654.777	34.27
655.105	34.5
655.433	33.78
655.761	34.21
656.089	34.2
656.417	34.44
656.745	34.73
657.073	34.54
657.4	34.72
657.728	34.96
658.056	34.63
658.383	34.81
658.711	34.9
659.038	35.16
659.365	34.66
659.693	35.16
660.02	35.11
660.347	35.08
660.674	34.94
661.001	35.11
661.329	35.18
661.656	34.86
661.982	34.9
662.309	35.07
662.636	35.32
662.963	34.85
663.29	35.42
663.616	35.25
663.943	35.32
664.27	35.41
664.596	35.46
664.923	35.36
665.249	35.53
665.576	35.46
665.902	35.69
666.228	35.98
666.554	35.52
666.881	36.09
667.207	35.93
667.533	35.4
667.859	35.63
668.185	36.21
668.511	35.96
668.837	36.02
669.162	36.07
669.488	35.7
669.814	36.18
670.139	36.17
670.465	35.98
670.791	36.59
671.116	36.26
671.442	35.86
671.767	36.52
672.092	36.52
672.418	36.08
672.743	36.44
673.068	36.05
673.393	36.85
673.718	36.27
674.043	36.16
674.368	36.14
674.693	37.34
675.018	36.73
675.343	36.49
675.667	36.6
675.992	37.04
