Data from 0031_chest_Reflection__0__137.txt Node

Date: Thu Oct 20 21:59:50 CDT 2022
User: ToomeyLab
Spectrometer: FLMS14357
Trigger mode: 0
Integration Time (sec): 1.000000E-2
Scans to average: 100
Electric dark correction enabled: true
Nonlinearity correction enabled: false
Boxcar width: 0
XAxis mode: Wavelengths
Number of Pixels in Spectrum: 2048
>>>>>Begin Spectral Data<<<<<
189.047	33.68
189.435	33.68
189.823	33.68
190.211	232.61
190.599	-28.34
190.987	119.25
191.375	134.48
191.763	-40.66
192.151	-26.43
192.538	85.74
192.926	143.15
193.314	8.63
193.702	253.28
194.089	797.37
194.477	244.81
194.864	-923.33
195.252	62.73
195.639	-719.37
196.027	161.67
196.414	44
196.801	-2885.48
197.189	0.79
197.576	5472.22
197.963	110.46
198.351	14.9
198.738	-94.17
199.125	-11.7
199.512	6.89
199.899	-138.7
200.286	-6.48
200.673	-28.45
201.06	-4.77
201.447	10.55
201.833	-23.25
202.22	16.84
202.607	1.88
202.994	-103.26
203.38	-74.17
203.767	8.03
204.154	-6.65
204.54	-18.85
204.927	7.23
205.313	14.68
205.699	-6.82
206.086	-2.19
206.472	19.42
206.858	-37.88
207.245	31.17
207.631	-5.34
208.017	-77.35
208.403	-92.04
208.789	2.73
209.175	-8.16
209.561	10.03
209.947	-1.65
210.333	2.75
210.719	-2.4
211.105	-5.46
211.491	-100.36
211.876	-11.85
212.262	20.5
212.648	-4.94
213.034	-11.46
213.419	-27.19
213.805	-57.18
214.19	-24.41
214.576	-38.31
214.961	-10.27
215.346	-23.1
215.732	-10.86
216.117	-39.01
216.502	-3.64
216.888	-32.6
217.273	-20.54
217.658	7.45
218.043	26.72
218.428	-18.9
218.813	10.52
219.198	-5.07
219.583	-6.73
219.968	14.92
220.353	-19.13
220.738	0.45
221.122	-4.71
221.507	-1.66
221.892	-0.92
222.276	-1.8
222.661	2.93
223.046	1.46
223.43	-5.03
223.815	-5.41
224.199	-7.82
224.583	-5.25
224.968	10.58
225.352	14.18
225.736	5.52
226.121	-1.27
226.505	-5.91
226.889	4.37
227.273	-5.9
227.657	4.66
228.041	0.42
228.425	3.2
228.809	3.46
229.193	0.5
229.577	2.1
229.961	3.62
230.344	2.6
230.728	3.05
231.112	3.56
231.495	3.03
231.879	3.87
232.263	3.64
232.646	4.07
233.03	2.37
233.413	2
233.797	2.2
234.18	2.13
234.563	1.7
234.946	3.18
235.33	3.98
235.713	4.17
236.096	3.06
236.479	4.18
236.862	3.79
237.245	2.7
237.628	3.74
238.011	3.35
238.394	4.17
238.777	2.79
239.16	1.86
239.543	2.37
239.925	2.28
240.308	2.12
240.691	3.65
241.073	2.34
241.456	2.94
241.838	2.52
242.221	3.02
242.603	3.86
242.986	3.97
243.368	3.67
243.75	3.83
244.133	4.02
244.515	3.6
244.897	3.81
245.279	2.53
245.661	3.55
246.043	2.95
246.425	4.83
246.807	4.31
247.189	3.72
247.571	4
247.953	3.78
248.335	3.98
248.717	3.72
249.098	3.73
249.48	4.07
249.862	3.64
250.243	3.54
250.625	4.03
251.006	3.79
251.388	3.28
251.769	3.43
252.151	3.38
252.532	3.41
252.913	3.2
253.295	4.34
253.676	4.26
254.057	3.28
254.438	3.56
254.819	3.85
255.2	4.08
255.581	3.18
255.962	4.31
256.343	3.39
256.724	4.02
257.105	4.34
257.486	3.12
257.867	4.54
258.247	3.48
258.628	3.96
259.009	3.15
259.389	3.37
259.77	3.08
260.15	3.67
260.531	3.74
260.911	3.6
261.292	3.92
261.672	3.69
262.052	3.68
262.432	3.9
262.813	3.61
263.193	4.01
263.573	3.8
263.953	3.05
264.333	3.67
264.713	3.16
265.093	3.4
265.473	3.5
265.853	3.98
266.233	3.61
266.612	3.97
266.992	2.94
267.372	3.75
267.752	3.89
268.131	3.92
268.511	3.57
268.89	3.44
269.27	3.66
269.649	3.44
270.029	3.34
270.408	3.57
270.787	3.55
271.167	3.69
271.546	3.5
271.925	4.03
272.304	4.15
272.683	3.65
273.062	3.35
273.441	3.62
273.82	3.98
274.199	3.2
274.578	3.44
274.957	3.36
275.336	3.6
275.715	3.86
276.093	4.46
276.472	4.28
276.851	4.07
277.229	3.3
277.608	3.26
277.986	3.14
278.365	3.22
278.743	3.36
279.122	3.42
279.5	3.26
279.878	3.69
280.257	3.66
280.635	3.5
281.013	3.64
281.391	3.79
281.769	3.61
282.147	3.23
282.525	3.3
282.903	3.5
283.281	3.06
283.659	3.3
284.037	3.3
284.415	3.2
284.792	3.21
285.17	4.12
285.548	3.6
285.925	3.35
286.303	3.65
286.68	3.92
287.058	3.55
287.435	3.24
287.813	3.57
288.19	3.41
288.567	3.5
288.945	3.96
289.322	3.71
289.699	3.43
290.076	3.25
290.453	3.45
290.83	3.45
291.207	3.96
291.584	3.54
291.961	3.62
292.338	3.36
292.715	3.5
293.092	3.95
293.469	3.83
293.845	3.75
294.222	3.8
294.599	4.55
294.975	3.46
295.352	4.47
295.728	3.39
296.105	4.02
296.481	3.63
296.858	4.12
297.234	3.81
297.61	3.89
297.986	3.89
298.363	3.58
298.739	3.83
299.115	3.81
299.491	3.74
299.867	4.15
300.243	3.76
300.619	4.28
300.995	3.73
301.371	3.88
301.746	4.01
302.122	4.36
302.498	4.45
302.874	4.25
303.249	4.03
303.625	3.89
304	4.49
304.376	3.67
304.751	4.05
305.127	3.79
305.502	4.33
305.878	4.15
306.253	3.78
306.628	4.2
307.003	3.86
307.378	3.72
307.754	4.01
308.129	3.84
308.504	4.67
308.879	4.21
309.254	4.25
309.629	4
310.003	3.8
310.378	4.17
310.753	4.69
311.128	4.15
311.502	4.24
311.877	4.38
312.252	4.35
312.626	4.28
313.001	4.54
313.375	4.43
313.75	4.13
314.124	4.06
314.498	4.25
314.873	4.33
315.247	4.18
315.621	4.4
315.995	4.18
316.369	4.63
316.743	4.19
317.117	4.3
317.491	4.28
317.865	3.91
318.239	4.73
318.613	4.87
318.987	4.14
319.361	4.59
319.734	4.46
320.108	4.74
320.482	4.94
320.855	4.77
321.229	4.26
321.602	4.22
321.976	4.44
322.349	4.48
322.723	4.87
323.096	5.12
323.469	4.57
323.843	4.96
324.216	4.58
324.589	4.88
324.962	4.43
325.335	5.08
325.708	4.69
326.081	5.01
326.454	4.83
326.827	4.61
327.2	4.92
327.573	4.72
327.945	4.8
328.318	4.77
328.691	5.17
329.063	5.01
329.436	4.58
329.809	5.23
330.181	4.68
330.553	4.99
330.926	5.39
331.298	4.7
331.671	4.97
332.043	5.02
332.415	4.33
332.787	5.32
333.159	5.14
333.532	5.27
333.904	5.01
334.276	4.48
334.648	4.57
335.02	5.08
335.391	4.7
335.763	5.06
336.135	4.97
336.507	5
336.879	5.64
337.25	4.94
337.622	4.81
337.993	4.69
338.365	5.15
338.736	4.7
339.108	4.81
339.479	4.95
339.851	4.79
340.222	4.81
340.593	5.32
340.964	5.6
341.336	5.02
341.707	4.68
342.078	4.82
342.449	4.85
342.82	5.36
343.191	5.23
343.562	5.3
343.933	4.98
344.303	4.82
344.674	5.19
345.045	5.13
345.416	5.31
345.786	5.05
346.157	5.14
346.527	5.28
346.898	5.07
347.268	5.02
347.639	5.01
348.009	4.81
348.38	5.46
348.75	4.65
349.12	5.44
349.49	5.66
349.861	4.96
350.231	5.37
350.601	5.32
350.971	5.28
351.341	5.7
351.711	5.36
352.081	4.9
352.45	5.47
352.82	4.89
353.19	5.29
353.56	5.61
353.929	5.28
354.299	5.66
354.669	5.17
355.038	5.25
355.408	4.96
355.777	5.18
356.147	5.45
356.516	5.13
356.885	5.4
357.254	5.52
357.624	5.29
357.993	4.88
358.362	5.56
358.731	5.66
359.1	4.93
359.469	5.52
359.838	5.21
360.207	5.97
360.576	4.98
360.945	5.59
361.314	5.33
361.682	5.32
362.051	5.4
362.42	5.45
362.788	5.23
363.157	5.43
363.525	5.38
363.894	5.58
364.262	5.73
364.631	5.35
364.999	5.34
365.367	5.72
365.735	5.53
366.104	5.4
366.472	5.38
366.84	5.65
367.208	5.5
367.576	5.49
367.944	5.76
368.312	5.57
368.68	5.4
369.048	5.41
369.416	5.43
369.783	5.39
370.151	5.82
370.519	5.68
370.886	5.26
371.254	5.62
371.621	5.49
371.989	5.77
372.356	5.46
372.724	5.79
373.091	5.62
373.458	5.42
373.826	5.75
374.193	5.87
374.56	5.42
374.927	5.55
375.294	5.55
375.661	5.77
376.028	5.59
376.395	5.93
376.762	5.72
377.129	5.21
377.496	5.3
377.863	5.55
378.229	5.62
378.596	5.66
378.963	5.69
379.329	5.91
379.696	5.64
380.062	5.58
380.429	6.04
380.795	5.61
381.161	5.7
381.528	5.84
381.894	5.55
382.26	5.4
382.626	6.05
382.993	5.55
383.359	5.87
383.725	5.81
384.091	5.62
384.457	5.41
384.823	5.82
385.188	5.86
385.554	5.5
385.92	5.55
386.286	5.54
386.651	5.53
387.017	5.43
387.383	5.92
387.748	5.97
388.114	5.73
388.479	5.65
388.845	5.75
389.21	5.93
389.575	5.7
389.94	6.14
390.306	5.85
390.671	6.08
391.036	5.91
391.401	5.69
391.766	5.76
392.131	5.78
392.496	5.85
392.861	5.68
393.226	5.89
393.591	6.1
393.956	5.91
394.32	5.87
394.685	6.02
395.05	5.88
395.414	5.99
395.779	5.94
396.143	6.05
396.508	5.94
396.872	5.81
397.236	5.68
397.601	6.09
397.965	6.03
398.329	5.86
398.694	5.94
399.058	5.95
399.422	6.17
399.786	5.97
400.15	5.83
400.514	6.1
400.878	5.86
401.242	5.91
401.605	6.09
401.969	6.23
402.333	5.98
402.697	6.29
403.06	5.93
403.424	6.02
403.787	5.91
404.151	5.98
404.514	6.01
404.878	5.81
405.241	6.06
405.604	6.05
405.968	5.98
406.331	6.06
406.694	5.91
407.057	6.22
407.42	6.04
407.783	5.97
408.146	6.08
408.509	5.99
408.872	6.1
409.235	5.92
409.598	6.11
409.961	6.21
410.323	6.28
410.686	6.25
411.049	6.04
411.411	5.92
411.774	5.99
412.136	6.22
412.499	6.02
412.861	6.28
413.223	6.19
413.586	6.23
413.948	6.06
414.31	5.85
414.672	6
415.035	6.25
415.397	6.3
415.759	6.33
416.121	6.16
416.483	6.14
416.845	6.12
417.206	6.14
417.568	6.18
417.93	6.1
418.292	6.05
418.653	6.19
419.015	6.16
419.377	6.18
419.738	6.16
420.1	6.2
420.461	6.2
420.822	6.16
421.184	6.07
421.545	6.19
421.906	6.05
422.267	6.06
422.629	6.11
422.99	6.16
423.351	6.14
423.712	6.18
424.073	6.34
424.434	6.25
424.795	6.19
425.155	6.16
425.516	6.18
425.877	6.08
426.238	6.34
426.598	6.24
426.959	6.18
427.32	6.34
427.68	6.38
428.041	6.37
428.401	6.27
428.761	6.41
429.122	6.42
429.482	6.42
429.842	6.46
430.202	6.45
430.563	6.35
430.923	6.5
431.283	6.42
431.643	6.42
432.003	6.56
432.363	6.67
432.722	6.74
433.082	6.38
433.442	6.56
433.802	6.46
434.161	6.47
434.521	6.43
434.881	6.55
435.24	6.45
435.6	6.53
435.959	6.59
436.319	6.56
436.678	6.59
437.037	6.69
437.396	6.65
437.756	6.64
438.115	6.57
438.474	6.6
438.833	6.65
439.192	6.54
439.551	6.69
439.91	6.54
440.269	6.57
440.628	6.67
440.987	6.51
441.345	6.62
441.704	6.53
442.063	6.66
442.421	6.48
442.78	6.71
443.138	6.75
443.497	6.69
443.855	6.72
444.214	6.65
444.572	6.87
444.93	6.68
445.288	6.69
445.647	6.72
446.005	6.71
446.363	6.82
446.721	6.67
447.079	6.67
447.437	6.65
447.795	6.6
448.153	6.63
448.51	6.77
448.868	6.75
449.226	6.76
449.584	6.76
449.941	6.83
450.299	6.95
450.656	6.93
451.014	6.81
451.371	6.98
451.729	6.93
452.086	7.08
452.443	6.77
452.801	7.01
453.158	6.94
453.515	7.07
453.872	6.82
454.229	6.97
454.586	6.97
454.943	6.98
455.3	6.89
455.657	7.13
456.014	6.93
456.371	6.93
456.727	7.05
457.084	7.04
457.441	7.07
457.797	7.07
458.154	7.16
458.51	6.98
458.867	7.07
459.223	7.36
459.58	7.07
459.936	7.03
460.292	6.94
460.648	6.96
461.005	6.86
461.361	6.93
461.717	7.04
462.073	7.14
462.429	7.25
462.785	7.27
463.141	7.3
463.496	7.45
463.852	7.16
464.208	7.31
464.564	7.25
464.919	7.27
465.275	7.37
465.631	7.12
465.986	7.16
466.342	7.05
466.697	7.32
467.052	7.41
467.408	7.42
467.763	7.24
468.118	7.29
468.473	7.35
468.829	7.36
469.184	7.33
469.539	7.3
469.894	7.34
470.249	7.37
470.603	7.33
470.958	7.41
471.313	7.32
471.668	7.3
472.023	7.25
472.377	7.41
472.732	7.32
473.086	7.55
473.441	7.48
473.795	7.41
474.15	7.37
474.504	7.32
474.859	7.5
475.213	7.57
475.567	7.63
475.921	7.52
476.275	7.74
476.63	7.63
476.984	7.6
477.338	7.47
477.692	7.49
478.045	7.49
478.399	7.72
478.753	7.46
479.107	7.47
479.461	7.52
479.814	7.56
480.168	7.69
480.521	7.57
480.875	7.68
481.228	7.61
481.582	7.58
481.935	7.61
482.289	7.53
482.642	7.38
482.995	7.55
483.348	7.57
483.701	7.54
484.055	7.5
484.408	7.28
484.761	7.31
485.114	7.15
485.466	7.14
485.819	7.27
486.172	7.36
486.525	7.48
486.878	7.53
487.23	7.56
487.583	7.53
487.936	7.54
488.288	7.44
488.641	7.46
488.993	7.38
489.345	7.38
489.698	7.48
490.05	7.58
490.402	7.66
490.754	7.72
491.107	7.71
491.459	7.81
491.811	7.7
492.163	7.66
492.515	7.55
492.866	7.53
493.218	7.5
493.57	7.54
493.922	7.71
494.274	7.74
494.625	7.86
494.977	7.96
495.328	7.88
495.68	8.01
496.031	8.09
496.383	7.94
496.734	7.91
497.086	7.88
497.437	7.98
497.788	7.92
498.139	7.75
498.49	8.02
498.842	7.87
499.193	7.99
499.544	8
499.894	8.02
500.245	7.98
500.596	8.01
500.947	8.06
501.298	8.24
501.648	8.06
501.999	8.09
502.35	8.13
502.7	8.15
503.051	8.29
503.401	8.11
503.752	8.21
504.102	8.14
504.452	8.19
504.803	8.11
505.153	8.17
505.503	8.36
505.853	8.1
506.203	8.06
506.553	8.43
506.903	8.26
507.253	8.26
507.603	8.23
507.953	8.31
508.303	8.4
508.652	8.23
509.002	8.18
509.352	8.27
509.701	8.31
510.051	8.25
510.4	8.2
510.75	8.23
511.099	8.26
511.449	8.37
511.798	8.4
512.147	8.38
512.496	8.43
512.846	8.47
513.195	8.44
513.544	8.35
513.893	8.39
514.242	8.3
514.591	8.45
514.939	8.32
515.288	8.48
515.637	8.51
515.986	8.45
516.334	8.45
516.683	8.55
517.032	8.55
517.38	8.62
517.729	8.58
518.077	8.56
518.426	8.66
518.774	8.44
519.122	8.55
519.47	8.4
519.819	8.43
520.167	8.45
520.515	8.38
520.863	8.49
521.211	8.55
521.559	8.64
521.907	8.55
522.255	8.63
522.602	8.66
522.95	8.75
523.298	8.6
523.645	8.72
523.993	8.69
524.341	8.79
524.688	8.85
525.036	8.72
525.383	8.83
525.73	8.71
526.078	8.83
526.425	8.78
526.772	8.66
527.119	8.57
527.466	8.69
527.814	8.71
528.161	8.72
528.508	8.72
528.854	8.71
529.201	8.68
529.548	8.47
529.895	8.35
530.242	8.42
530.588	8.49
530.935	8.63
531.282	8.67
531.628	8.77
531.975	8.88
532.321	8.91
532.667	8.86
533.014	8.99
533.36	8.93
533.706	8.87
534.052	8.9
534.399	8.81
534.745	8.7
535.091	8.72
535.437	8.87
535.783	8.94
536.129	8.95
536.474	9.06
536.82	9.1
537.166	9.11
537.512	9.08
537.857	8.96
538.203	8.98
538.549	8.98
538.894	9.22
539.239	9.2
539.585	9.19
539.93	9.22
540.276	9.35
540.621	9.33
540.966	9.28
541.311	9.27
541.656	9.31
542.001	9.16
542.346	9.05
542.691	8.92
543.036	8.95
543.381	9.04
543.726	9.15
544.071	9.3
544.415	9.27
544.76	9.24
545.105	9.34
545.449	9.36
545.794	9.46
546.138	9.54
546.483	9.53
546.827	9.54
547.171	9.5
547.516	9.59
547.86	9.42
548.204	9.54
548.548	9.48
548.892	9.5
549.236	9.68
549.58	9.63
549.924	9.64
550.268	9.88
550.612	9.85
550.956	9.8
551.3	9.85
551.643	9.93
551.987	10.06
552.33	9.75
552.674	9.88
553.017	9.85
553.361	10.03
553.704	9.93
554.048	10.07
554.391	9.92
554.734	9.85
555.077	9.93
555.42	10.01
555.764	9.97
556.107	9.94
556.45	10.08
556.793	10.15
557.135	10.19
557.478	10.13
557.821	10.21
558.164	10.22
558.507	10.14
558.849	10.31
559.192	10.24
559.534	10.38
559.877	10.31
560.219	10.51
560.562	10.44
560.904	10.2
561.246	10.15
561.589	10.46
561.931	10.3
562.273	10.37
562.615	10.47
562.957	10.23
563.299	10.38
563.641	10.4
563.983	10.62
564.325	10.36
564.667	10.67
565.008	10.52
565.35	10.5
565.692	10.52
566.033	10.47
566.375	10.46
566.716	10.65
567.058	10.51
567.399	10.65
567.741	10.64
568.082	10.55
568.423	10.74
568.764	10.56
569.105	10.67
569.447	10.57
569.788	10.87
570.129	10.85
570.47	10.83
570.811	10.63
571.151	10.9
571.492	10.82
571.833	10.91
572.174	10.92
572.514	10.95
572.855	11.05
573.195	10.93
573.536	10.84
573.876	10.7
574.217	10.92
574.557	11.06
574.898	11.13
575.238	11.1
575.578	11.03
575.918	11.03
576.258	11.06
576.598	11.13
576.938	11.08
577.278	11.24
577.618	11.5
577.958	11.31
578.298	11.26
578.638	11.32
578.977	11.42
579.317	11.35
579.657	11.28
579.996	11.29
580.336	11.55
580.675	11.78
581.014	11.52
581.354	11.53
581.693	11.47
582.032	11.52
582.372	11.65
582.711	11.45
583.05	11.78
583.389	11.59
583.728	11.77
584.067	11.66
584.406	11.83
584.745	11.74
585.083	11.57
585.422	11.83
585.761	12.1
586.1	12
586.438	12.06
586.777	11.92
587.115	11.72
587.454	12.17
587.792	11.97
588.13	12.06
588.469	12.23
588.807	11.92
589.145	11.91
589.483	12.2
589.821	12.07
590.159	12
590.497	12.19
590.835	12.22
591.173	12.1
591.511	12.32
591.849	12.16
592.187	12.2
592.524	12.37
592.862	12.25
593.2	12.38
593.537	12.47
593.875	12.26
594.212	12.26
594.55	12.46
594.887	12.3
595.224	12.74
595.561	12.68
595.899	12.86
596.236	12.93
596.573	12.85
596.91	12.76
597.247	12.69
597.584	12.78
597.921	12.53
598.258	12.66
598.594	12.64
598.931	12.66
599.268	12.67
599.604	12.67
599.941	12.88
600.277	12.68
600.614	13.15
600.95	13.1
601.287	12.9
601.623	12.93
601.959	12.91
602.296	13.01
602.632	12.9
602.968	13.16
603.304	12.98
603.64	13.34
603.976	13.26
604.312	13.37
604.648	13.13
604.984	13.13
605.319	13.08
605.655	13.01
605.991	13.17
606.326	13.09
606.662	13.25
606.998	13.54
607.333	13.4
607.668	13.41
608.004	13.61
608.339	13.57
608.674	13.72
609.01	13.57
609.345	13.7
609.68	13.44
610.015	13.74
610.35	13.57
610.685	13.73
611.02	13.51
611.355	13.63
611.689	13.64
612.024	13.6
612.359	13.6
612.694	13.95
613.028	13.64
613.363	13.79
613.697	13.86
614.032	14.2
614.366	14.23
614.7	13.81
615.035	14
615.369	14.14
615.703	14.24
616.037	14
616.371	13.97
616.705	14.2
617.039	14.31
617.373	13.97
617.707	14.31
618.041	13.96
618.375	13.8
618.709	14.04
619.042	14.2
619.376	14.36
619.71	14.44
620.043	14.21
620.377	14.4
620.71	14.35
621.043	14.68
621.377	14.18
621.71	14.49
622.043	14.4
622.376	14.93
622.709	14.65
623.043	14.95
623.376	14.94
623.709	14.83
624.041	14.74
624.374	14.88
624.707	14.6
625.04	15.06
625.373	14.68
625.705	14.84
626.038	14.96
626.37	14.62
626.703	14.79
627.035	15.23
627.368	15.2
627.7	15.18
628.032	15.05
628.365	14.67
628.697	15.15
629.029	15.14
629.361	15.25
629.693	15.39
630.025	15.38
630.357	15.21
630.689	15.25
631.021	15.26
631.353	15.53
631.684	15.45
632.016	15.11
632.348	15.2
632.679	15.22
633.011	15.65
633.342	15.49
633.674	15.4
634.005	15.49
634.336	15.67
634.668	15.53
634.999	15.71
635.33	15.89
635.661	15.7
635.992	15.7
636.323	16.25
636.654	15.7
636.985	16.16
637.316	15.73
637.647	15.8
637.977	16.23
638.308	15.6
638.639	16.11
638.969	15.64
639.3	15.83
639.63	16.21
639.961	16.01
640.291	15.64
640.622	16.05
640.952	15.98
641.282	16
641.612	16.7
641.943	16.6
642.273	16.77
642.603	15.92
642.933	16.53
643.263	16.4
643.592	16.36
643.922	16.98
644.252	16.72
644.582	16.29
644.911	16.87
645.241	16.47
645.571	16.52
645.9	16.47
646.23	16.61
646.559	16.79
646.888	17.08
647.218	16.59
647.547	16.77
647.876	16.69
648.205	16.66
648.534	16.69
648.863	16.87
649.192	17.07
649.521	17.2
649.85	17.04
650.179	16.99
650.508	17.07
650.837	17.08
651.165	17.14
651.494	17.17
651.822	17.43
652.151	17.38
652.479	16.84
652.808	16.94
653.136	16.44
653.465	17.4
653.793	17.1
654.121	17.47
654.449	17.57
654.777	16.98
655.105	17.89
655.433	17.5
655.761	17.25
656.089	17.46
656.417	17.18
656.745	17.64
657.073	17.55
657.4	17.83
657.728	17.94
658.056	17.39
658.383	17.73
658.711	18.19
659.038	17.59
659.365	17.85
659.693	17.81
660.02	18.02
660.347	18.4
660.674	18.07
661.001	17.96
661.329	17.8
661.656	17.89
661.982	18.05
662.309	17.82
662.636	18.63
662.963	18.28
663.29	18.02
663.616	18.19
663.943	18.15
664.27	18.04
664.596	18.5
664.923	18.18
665.249	18.93
665.576	18.89
665.902	18.23
666.228	18.12
666.554	17.95
666.881	18.6
667.207	18.83
667.533	18.88
667.859	18.03
668.185	18.69
668.511	18.56
668.837	18.43
669.162	18.82
669.488	18.38
669.814	18.56
670.139	18.46
670.465	18.25
670.791	18.87
671.116	18.49
671.442	18.5
671.767	18.72
672.092	18.86
672.418	18.44
672.743	19.02
673.068	18.35
673.393	18.57
673.718	18.98
674.043	18.88
674.368	18.44
674.693	19.06
675.018	19.25
675.343	18.75
675.667	18.98
675.992	19.09
676.317	19.34
676.641	19.56
676.966	19.2
677.29	19.29
677.615	19.41
677.939	19.5
678.264	19.4
678.588	19.62
678.912	19.34
679.236	19.77
679.56	18.94
679.885	19.47
680.209	19.1
680.532	19.7
680.856	19.55
681.18	19.42
681.504	19.34
681.828	20.16
682.152	20.35
682.475	19.61
682.799	20.43
683.122	19.99
683.446	19.78
683.769	19.82
