Data from 0031_forehead_Reflection__1__148.txt Node

Date: Thu Oct 20 22:04:06 CDT 2022
User: ToomeyLab
Spectrometer: FLMS14357
Trigger mode: 0
Integration Time (sec): 1.000000E-2
Scans to average: 100
Electric dark correction enabled: true
Nonlinearity correction enabled: false
Boxcar width: 0
XAxis mode: Wavelengths
Number of Pixels in Spectrum: 2048
>>>>>Begin Spectral Data<<<<<
189.047	30.29
189.435	30.29
189.823	30.29
190.211	423.79
190.599	152.66
190.987	102.44
191.375	105.73
191.763	47.67
192.151	56.28
192.538	-98.67
192.926	244.66
193.314	32.68
193.702	1040.57
194.089	2030.79
194.477	-202.06
194.864	812.78
195.252	84.61
195.639	-1065.54
196.027	-25.92
196.414	38.02
196.801	-2899.19
197.189	-48.17
197.576	5056.48
197.963	73.89
198.351	11.97
198.738	9.04
199.125	3.23
199.512	24.2
199.899	-37.54
200.286	32.65
200.673	-19.58
201.06	36.15
201.447	6.4
201.833	-89.53
202.22	-20.2
202.607	30.58
202.994	-9.18
203.38	-18.01
203.767	27.08
204.154	10
204.54	16.66
204.927	4.54
205.313	68.27
205.699	7.9
206.086	3.47
206.472	13.73
206.858	-4.55
207.245	34.3
207.631	-0.04
208.017	-12.66
208.403	-70.56
208.789	19.48
209.175	-3.67
209.561	14.17
209.947	14.16
210.333	-7.66
210.719	32.42
211.105	24.19
211.491	-40.28
211.876	-17.65
212.262	18.2
212.648	-22.56
213.034	-17.42
213.419	-28.57
213.805	0.23
214.19	-17.99
214.576	-9.29
214.961	-17.68
215.346	1.79
215.732	11.94
216.117	-5.03
216.502	10.37
216.888	-4.93
217.273	-19.11
217.658	17.82
218.043	16.71
218.428	-0.48
218.813	16.3
219.198	-20.54
219.583	1.46
219.968	29.76
220.353	-6.86
220.738	19.07
221.122	27.17
221.507	6.14
221.892	-7.06
222.276	25.79
222.661	11.4
223.046	13.09
223.43	4.55
223.815	2.46
224.199	0.69
224.583	5.76
224.968	4.99
225.352	12.16
225.736	4.26
226.121	-1.59
226.505	5.78
226.889	-1.79
227.273	-1
227.657	6.2
228.041	1.06
228.425	1.27
228.809	3.68
229.193	2.05
229.577	0.61
229.961	2.19
230.344	2.39
230.728	1.79
231.112	2.38
231.495	2.21
231.879	1.75
232.263	4.51
232.646	2.74
233.03	2.04
233.413	0.69
233.797	1.53
234.18	2.72
234.563	1.58
234.946	2.71
235.33	2.06
235.713	1.32
236.096	1.87
236.479	3.7
236.862	2.38
237.245	0.91
237.628	2.05
238.011	1.85
238.394	4.64
238.777	1.59
239.16	2.02
239.543	1.66
239.925	2.38
240.308	2.87
240.691	3.46
241.073	1.36
241.456	2.95
241.838	2.07
242.221	1.91
242.603	2.04
242.986	2.24
243.368	1.89
243.75	2.33
244.133	2.41
244.515	2.47
244.897	1.98
245.279	1.17
245.661	2.42
246.043	2.95
246.425	2.87
246.807	2.44
247.189	2.6
247.571	2.75
247.953	2.27
248.335	2.6
248.717	2.15
249.098	2.1
249.48	2.26
249.862	2.32
250.243	2.04
250.625	2.59
251.006	2.93
251.388	2.48
251.769	2.09
252.151	3.29
252.532	2.06
252.913	2.22
253.295	2.36
253.676	2.65
254.057	1.89
254.438	2.65
254.819	3.3
255.2	2.89
255.581	1.69
255.962	2.81
256.343	2.22
256.724	2.09
257.105	1.78
257.486	1.87
257.867	2.01
258.247	3.23
258.628	2.33
259.009	2.16
259.389	1.49
259.77	2.58
260.15	2.04
260.531	2.45
260.911	2.24
261.292	2.58
261.672	2.36
262.052	2.22
262.432	2.57
262.813	2.12
263.193	2.93
263.573	2.3
263.953	2.39
264.333	2.4
264.713	2.34
265.093	2.21
265.473	2.61
265.853	3.27
266.233	2.41
266.612	2.76
266.992	2.14
267.372	2.71
267.752	2.63
268.131	2.59
268.511	2.42
268.89	2.42
269.27	2.56
269.649	2.37
270.029	2.14
270.408	1.93
270.787	2.25
271.167	2.45
271.546	1.78
271.925	2.52
272.304	2.55
272.683	2.19
273.062	2.42
273.441	2.29
273.82	2.75
274.199	2.17
274.578	1.93
274.957	2.25
275.336	2.22
275.715	2.21
276.093	2.74
276.472	2.35
276.851	2.3
277.229	1.89
277.608	1.79
277.986	1.8
278.365	1.93
278.743	2.31
279.122	2.44
279.5	1.78
279.878	2.28
280.257	2.68
280.635	2.23
281.013	1.89
281.391	2.78
281.769	2.23
282.147	2.38
282.525	2.17
282.903	2.49
283.281	2.2
283.659	1.82
284.037	1.2
284.415	2.25
284.792	2.12
285.17	2.85
285.548	2.38
285.925	1.83
286.303	2.04
286.68	2.53
287.058	2.46
287.435	2.39
287.813	2.15
288.19	2.22
288.567	2.25
288.945	2.54
289.322	2.52
289.699	2.29
290.076	2.14
290.453	2.33
290.83	2.59
291.207	2.69
291.584	2.37
291.961	2.52
292.338	2
292.715	2.42
293.092	3.06
293.469	2.32
293.845	2.49
294.222	2.78
294.599	3.13
294.975	2.53
295.352	2.67
295.728	2.35
296.105	2.71
296.481	2.63
296.858	2.64
297.234	3.01
297.61	2.62
297.986	2.62
298.363	2.77
298.739	2.52
299.115	2.69
299.491	2.79
299.867	2.59
300.243	3.02
300.619	3.18
300.995	2.36
301.371	2.7
301.746	2.45
302.122	3
302.498	2.68
302.874	3.85
303.249	3.14
303.625	3
304	3.27
304.376	2.89
304.751	3.1
305.127	2.75
305.502	3.12
305.878	3.38
306.253	3.08
306.628	3.31
307.003	2.95
307.378	2.81
307.754	3.53
308.129	3.04
308.504	3.26
308.879	3.13
309.254	3.11
309.629	3.25
310.003	3.18
310.378	3.16
310.753	3.31
311.128	3.11
311.502	3.1
311.877	3.52
312.252	3.26
312.626	3.43
313.001	3.47
313.375	3.4
313.75	3.27
314.124	3.33
314.498	3.59
314.873	3.37
315.247	3.52
315.621	3.43
315.995	3.26
316.369	3.33
316.743	3.35
317.117	3.5
317.491	3.93
317.865	3.76
318.239	3.32
318.613	4.14
318.987	3.82
319.361	3.93
319.734	3.02
320.108	4.29
320.482	3.91
320.855	4.19
321.229	3.82
321.602	3.1
321.976	3.56
322.349	4.03
322.723	4.24
323.096	3.76
323.469	3.87
323.843	3.9
324.216	3.86
324.589	4.75
324.962	3.77
325.335	4.2
325.708	4.2
326.081	4.45
326.454	4.32
326.827	3.94
327.2	4.64
327.573	4.21
327.945	4.04
328.318	4.07
328.691	4.38
329.063	4.73
329.436	4.27
329.809	4.2
330.181	4.33
330.553	4.29
330.926	4.76
331.298	4.38
331.671	4.56
332.043	4.61
332.415	4.7
332.787	5.26
333.159	4.74
333.532	4.83
333.904	4.64
334.276	4.71
334.648	4.28
335.02	4.68
335.391	4.51
335.763	4.49
336.135	4.51
336.507	4.11
336.879	5.34
337.25	4.36
337.622	4.76
337.993	4.39
338.365	4.61
338.736	4.56
339.108	4.64
339.479	4.59
339.851	4.49
340.222	4.47
340.593	5.04
340.964	5.09
341.336	5.07
341.707	4.63
342.078	4.82
342.449	5.15
342.82	5.11
343.191	5.04
343.562	5.07
343.933	4.84
344.303	4.86
344.674	5.15
345.045	5.26
345.416	5.3
345.786	5.02
346.157	5.48
346.527	4.81
346.898	4.73
347.268	5.14
347.639	5.49
348.009	5.18
348.38	5.46
348.75	4.97
349.12	5.68
349.49	5.28
349.861	5.53
350.231	5.49
350.601	5.51
350.971	5.25
351.341	5.24
351.711	5.52
352.081	5.35
352.45	5.33
352.82	5.53
353.19	5.33
353.56	5.38
353.929	5.25
354.299	5.81
354.669	5.23
355.038	5.27
355.408	5.35
355.777	5.54
356.147	5.81
356.516	5.6
356.885	5.7
357.254	6.06
357.624	5.5
357.993	5.64
358.362	5.91
358.731	5.91
359.1	5.41
359.469	5.71
359.838	5.49
360.207	6.06
360.576	5.57
360.945	5.76
361.314	5.96
361.682	5.79
362.051	5.74
362.42	5.84
362.788	5.99
363.157	5.77
363.525	5.96
363.894	5.68
364.262	5.96
364.631	6.14
364.999	5.78
365.367	6.06
365.735	5.92
366.104	5.88
366.472	5.88
366.84	6.18
367.208	6.22
367.576	5.9
367.944	6.35
368.312	6.02
368.68	6.21
369.048	6.13
369.416	5.92
369.783	6.24
370.151	6.26
370.519	6.62
370.886	6.32
371.254	6.51
371.621	6.38
371.989	6.43
372.356	6.26
372.724	6.42
373.091	6.58
373.458	5.95
373.826	6.55
374.193	6.84
374.56	6
374.927	6.28
375.294	6.54
375.661	6.81
376.028	6.48
376.395	6.87
376.762	6.68
377.129	6.6
377.496	6.43
377.863	6.46
378.229	6.74
378.596	6.73
378.963	6.93
379.329	6.89
379.696	6.74
380.062	6.59
380.429	7.18
380.795	6.73
381.161	7.01
381.528	6.99
381.894	6.92
382.26	6.74
382.626	6.78
382.993	6.62
383.359	7.06
383.725	6.89
384.091	7.14
384.457	7.04
384.823	7.02
385.188	7.16
385.554	6.71
385.92	6.87
386.286	6.64
386.651	7.06
387.017	7.28
387.383	7.03
387.748	7.41
388.114	7.2
388.479	7.34
388.845	7.24
389.21	7.38
389.575	7.13
389.94	7.46
390.306	7.53
390.671	7.55
391.036	7.43
391.401	7.17
391.766	7.59
392.131	7.54
392.496	7.35
392.861	7.5
393.226	7.39
393.591	7.39
393.956	7.34
394.32	7.61
394.685	7.61
395.05	7.48
395.414	7.74
395.779	7.68
396.143	7.67
396.508	7.82
396.872	7.88
397.236	7.58
397.601	7.91
397.965	7.54
398.329	7.93
398.694	7.84
399.058	7.71
399.422	7.94
399.786	7.81
400.15	7.68
400.514	7.89
400.878	7.79
401.242	8.23
401.605	8.25
401.969	8.05
402.333	7.96
402.697	8.17
403.06	7.87
403.424	8.13
403.787	8.09
404.151	8.04
404.514	8.19
404.878	8.04
405.241	8.22
405.604	8.2
405.968	7.99
406.331	8.1
406.694	8.04
407.057	8.22
407.42	8.19
407.783	8.2
408.146	8.34
408.509	8.13
408.872	8.39
409.235	8.05
409.598	8.17
409.961	8.26
410.323	8.53
410.686	8.45
411.049	8.32
411.411	8.29
411.774	8.3
412.136	8.36
412.499	8.4
412.861	8.56
413.223	8.38
413.586	8.5
413.948	8.36
414.31	8.44
414.672	8.58
415.035	8.66
415.397	8.53
415.759	8.73
416.121	8.79
416.483	8.55
416.845	8.7
417.206	8.53
417.568	8.71
417.93	8.6
418.292	8.82
418.653	8.55
419.015	8.83
419.377	8.65
419.738	8.69
420.1	8.65
420.461	8.74
420.822	8.66
421.184	8.68
421.545	8.72
421.906	8.59
422.267	8.77
422.629	8.57
422.99	8.66
423.351	8.66
423.712	8.73
424.073	8.87
424.434	8.9
424.795	8.87
425.155	8.96
425.516	8.85
425.877	8.86
426.238	9.04
426.598	8.96
426.959	9.02
427.32	9.05
427.68	9.1
428.041	9.21
428.401	9.07
428.761	9.1
429.122	9.24
429.482	9.2
429.842	9.38
430.202	9.58
430.563	9.41
430.923	9.63
431.283	9.71
431.643	9.48
432.003	9.48
432.363	9.73
432.722	9.92
433.082	9.58
433.442	9.63
433.802	9.69
434.161	9.88
434.521	9.81
434.881	9.79
435.24	9.7
435.6	9.8
435.959	9.9
436.319	9.85
436.678	9.84
437.037	9.86
437.396	10
437.756	10.07
438.115	10.13
438.474	10.02
438.833	10.06
439.192	9.97
439.551	10.25
439.91	10.12
440.269	10.14
440.628	10.16
440.987	10.05
441.345	10.3
441.704	10.18
442.063	10.4
442.421	10.24
442.78	10.23
443.138	10.27
443.497	10.26
443.855	10.31
444.214	10.44
444.572	10.52
444.93	10.36
445.288	10.47
445.647	10.58
446.005	10.47
446.363	10.47
446.721	10.48
447.079	10.46
447.437	10.41
447.795	10.44
448.153	10.47
448.51	10.5
448.868	10.54
449.226	10.56
449.584	10.54
449.941	10.75
450.299	10.77
450.656	10.76
451.014	10.85
451.371	11.06
451.729	10.79
452.086	11.06
452.443	10.95
452.801	11.08
453.158	11.16
453.515	11.23
453.872	11.17
454.229	11.17
454.586	11.25
454.943	11.1
455.3	11.16
455.657	11.35
456.014	11.42
456.371	11.52
456.727	11.56
457.084	11.52
457.441	11.57
457.797	11.43
458.154	11.67
458.51	11.49
458.867	11.72
459.223	11.92
459.58	11.64
459.936	11.68
460.292	11.53
460.648	11.52
461.005	11.6
461.361	11.52
461.717	11.48
462.073	11.57
462.429	11.61
462.785	11.84
463.141	11.92
463.496	12.05
463.852	11.96
464.208	12.15
464.564	11.98
464.919	12
465.275	12.06
465.631	12.03
465.986	12.18
466.342	11.95
466.697	12.3
467.052	12.23
467.408	12.11
467.763	12.42
468.118	12.43
468.473	12.57
468.829	12.47
469.184	12.56
469.539	12.54
469.894	12.46
470.249	12.7
470.603	12.51
470.958	12.5
471.313	12.79
471.668	12.44
472.023	12.66
472.377	12.71
472.732	12.8
473.086	13.02
473.441	12.8
473.795	12.9
474.15	12.91
474.504	12.85
474.859	12.95
475.213	13.22
475.567	13.19
475.921	13.03
476.275	13.13
476.63	13.01
476.984	13.17
477.338	13.1
477.692	13.19
478.045	13.15
478.399	13.33
478.753	13
479.107	13.19
479.461	13.14
479.814	13.27
480.168	13.31
480.521	13.33
480.875	13.46
481.228	13.42
481.582	13.45
481.935	13.44
482.289	13.45
482.642	13.24
482.995	13.48
483.348	13.4
483.701	13.45
484.055	13.26
484.408	13.18
484.761	13.17
485.114	13.05
485.466	12.95
485.819	12.78
486.172	12.84
486.525	12.92
486.878	13.05
487.23	13.28
487.583	13.35
487.936	13.51
488.288	13.47
488.641	13.43
488.993	13.31
489.345	13.36
489.698	13.33
490.05	13.41
490.402	13.41
490.754	13.64
491.107	13.68
491.459	13.93
491.811	13.96
492.163	13.98
492.515	13.97
492.866	13.86
493.218	13.78
493.57	13.7
493.922	13.69
494.274	13.89
494.625	14.03
494.977	14.22
495.328	14.2
495.68	14.37
496.031	14.64
496.383	14.72
496.734	14.7
497.086	14.71
497.437	14.77
497.788	14.78
498.139	14.65
498.49	14.79
498.842	14.55
499.193	14.58
499.544	14.72
499.894	14.91
500.245	14.93
500.596	14.95
500.947	14.92
501.298	15.15
501.648	15.11
501.999	15.24
502.35	15.34
502.7	15.2
503.051	15.58
503.401	15.42
503.752	15.36
504.102	15.28
504.452	15.62
504.803	15.48
505.153	15.49
505.503	15.56
505.853	15.62
506.203	15.5
506.553	15.6
506.903	15.6
507.253	15.84
507.603	15.69
507.953	15.75
508.303	15.97
508.652	15.7
509.002	15.76
509.352	15.84
509.701	15.94
510.051	15.87
510.4	15.86
510.75	15.62
511.099	15.88
511.449	15.92
511.798	15.81
512.147	15.99
512.496	16.08
512.846	16.06
513.195	16.19
513.544	16.19
513.893	16.16
514.242	16.1
514.591	16.16
514.939	16.23
515.288	16.32
515.637	16.45
515.986	16.32
516.334	16.44
516.683	16.54
517.032	16.55
517.38	16.56
517.729	16.58
518.077	16.54
518.426	16.62
518.774	16.63
519.122	16.64
519.47	16.48
519.819	16.5
520.167	16.43
520.515	16.4
520.863	16.29
521.211	16.43
521.559	16.55
521.907	16.7
522.255	16.66
522.602	16.8
522.95	16.98
523.298	17.01
523.645	17.05
523.993	17.04
524.341	17.16
524.688	17.16
525.036	17.23
525.383	17.19
525.73	17.17
526.078	17.17
526.425	17.22
526.772	17.16
527.119	17.01
527.466	16.98
527.814	16.91
528.161	16.93
528.508	16.98
528.854	17.11
529.201	17.07
529.548	16.94
529.895	16.88
530.242	16.86
530.588	16.73
530.935	16.72
531.282	16.67
531.628	16.77
531.975	17.04
532.321	17.2
532.667	17.35
533.014	17.49
533.36	17.56
533.706	17.52
534.052	17.56
534.399	17.58
534.745	17.44
535.091	17.29
535.437	17.26
535.783	17.35
536.129	17.44
536.474	17.68
536.82	17.81
537.166	17.9
537.512	17.95
537.857	17.89
538.203	17.91
538.549	17.9
538.894	17.95
539.239	17.96
539.585	18.05
539.93	18.16
540.276	18.51
540.621	18.35
540.966	18.49
541.311	18.63
541.656	18.53
542.001	18.42
542.346	18.34
542.691	18.1
543.036	18.01
543.381	17.88
543.726	17.9
544.071	18.11
544.415	18.21
544.76	18.38
545.105	18.47
545.449	18.54
545.794	18.75
546.138	18.83
546.483	18.93
546.827	18.9
547.171	18.95
547.516	18.98
547.86	18.94
548.204	19.08
548.548	19.05
548.892	19.16
549.236	19.11
549.58	19.16
549.924	19.21
550.268	19.37
550.612	19.59
550.956	19.49
551.3	19.75
551.643	19.55
551.987	19.95
552.33	19.71
552.674	19.85
553.017	19.92
553.361	19.89
553.704	19.9
554.048	20.07
554.391	20
554.734	19.9
555.077	20
555.42	20.19
555.764	20.05
556.107	20.23
556.45	20.24
556.793	20.14
557.135	20.33
557.478	20.33
557.821	20.43
558.164	20.38
558.507	20.59
558.849	20.64
559.192	20.64
559.534	20.9
559.877	20.67
560.219	20.81
560.562	20.8
560.904	20.64
561.246	20.74
561.589	20.97
561.931	20.65
562.273	20.92
562.615	20.93
562.957	20.99
563.299	20.93
563.641	20.81
563.983	21.18
564.325	21.1
564.667	21.16
565.008	21.12
565.35	21.14
565.692	21.29
566.033	21.06
566.375	21.19
566.716	21.4
567.058	21.4
567.399	21.32
567.741	21.27
568.082	21.39
568.423	21.39
568.764	21.29
569.105	21.41
569.447	21.3
569.788	21.55
570.129	21.81
570.47	21.63
570.811	21.4
571.151	21.63
571.492	21.61
571.833	21.67
572.174	21.78
572.514	21.87
572.855	21.91
573.195	22.03
573.536	21.86
573.876	21.59
574.217	21.75
574.557	21.79
574.898	21.89
575.238	22.23
575.578	22.12
575.918	21.96
576.258	22.3
576.598	22.28
576.938	22.19
577.278	22.38
577.618	22.3
577.958	22.18
578.298	22.31
578.638	22.5
578.977	22.47
579.317	22.25
579.657	22.57
579.996	22.72
580.336	22.7
580.675	23.01
581.014	22.98
581.354	22.86
581.693	22.99
582.032	22.99
582.372	23
582.711	22.84
583.05	23.23
583.389	23.06
583.728	23.13
584.067	23.22
584.406	23.24
584.745	23.29
585.083	23.24
585.422	23.43
585.761	23.51
586.1	23.77
586.438	23.57
586.777	23.54
587.115	23.52
587.454	23.81
587.792	23.82
588.13	23.7
588.469	23.83
588.807	23.83
589.145	23.74
589.483	23.55
589.821	23.69
590.159	23.7
590.497	23.87
590.835	23.96
591.173	23.67
591.511	24.05
591.849	24.03
592.187	23.86
592.524	24.04
592.862	23.97
593.2	24.13
593.537	24.49
593.875	24.17
594.212	24.16
594.55	24.34
594.887	23.99
595.224	24.55
595.561	24.27
595.899	24.65
596.236	24.27
596.573	24.39
596.91	24.4
597.247	24.18
597.584	24.4
597.921	24.66
598.258	24.53
598.594	24.53
598.931	24.45
599.268	24.34
599.604	24.38
599.941	24.45
600.277	24.54
600.614	24.9
600.95	25.07
601.287	25.18
601.623	25.06
601.959	25.15
602.296	25.08
602.632	25.1
602.968	25.09
603.304	25.03
603.64	25.42
603.976	25.28
604.312	25.33
604.648	25.23
604.984	25.13
605.319	25.26
605.655	25.14
605.991	25.24
606.326	25.32
606.662	25.43
606.998	25.32
607.333	25.18
607.668	25.28
608.004	25.72
608.339	25.66
608.674	25.81
609.01	25.79
609.345	25.93
609.68	25.54
610.015	25.81
610.35	25.63
610.685	25.78
611.02	25.83
611.355	25.92
611.689	25.89
612.024	25.85
612.359	25.96
612.694	25.97
613.028	26.29
613.363	26.19
613.697	26.26
614.032	26.24
614.366	26.17
614.7	26.45
615.035	26.33
615.369	26.54
615.703	26.87
616.037	26.62
616.371	26.32
616.705	26.4
617.039	26.81
617.373	26.59
617.707	27.04
618.041	26.66
618.375	26.72
618.709	27.06
619.042	26.89
619.376	26.97
619.71	27.16
620.043	26.73
620.377	27.32
620.71	27.29
621.043	27.07
621.377	27.09
621.71	27.08
622.043	26.91
622.376	27.47
622.709	27.74
623.043	27.66
623.376	27.34
623.709	27.46
624.041	27.43
624.374	27.64
624.707	27.43
625.04	28.15
625.373	27.56
625.705	27.5
626.038	27.9
626.37	27.76
626.703	27.86
627.035	27.96
627.368	27.98
627.7	27.79
628.032	27.67
628.365	27.97
628.697	27.96
629.029	27.93
629.361	28.21
629.693	27.8
630.025	28.14
630.357	27.91
630.689	27.63
631.021	28.34
631.353	28.14
631.684	28.42
632.016	28.24
632.348	28.31
632.679	28
633.011	28.84
633.342	28.51
633.674	28.67
634.005	28.5
634.336	28.63
634.668	28.46
634.999	29.06
635.33	28.78
635.661	28.69
635.992	29.03
636.323	29.02
636.654	28.4
636.985	28.83
637.316	29.25
637.647	29.14
637.977	28.87
638.308	28.94
638.639	29.23
638.969	28.98
639.3	29
639.63	29.06
639.961	29.4
640.291	28.92
640.622	29.32
640.952	29.25
641.282	29.96
641.612	29.39
641.943	29.34
642.273	29.57
642.603	29.39
642.933	29.57
643.263	29.63
643.592	29.87
643.922	29.27
644.252	29.67
644.582	29.61
644.911	30.11
645.241	30.18
645.571	30.13
645.9	29.93
646.23	30.09
646.559	30.26
646.888	30.01
647.218	29.77
647.547	30.19
647.876	29.72
648.205	30.35
648.534	29.93
648.863	30.53
649.192	30.83
649.521	30.17
649.85	30.42
650.179	30.73
650.508	30.6
650.837	30.54
651.165	30.28
651.494	30.58
651.822	31.15
652.151	30.77
652.479	30.69
652.808	30.72
653.136	30.44
653.465	30.98
653.793	30.76
654.121	31.04
654.449	30.94
654.777	30.46
655.105	31.37
655.433	31.04
655.761	30.81
656.089	30.93
656.417	31.11
656.745	31.49
657.073	30.63
657.4	31.11
657.728	31.77
658.056	30.95
658.383	31.95
658.711	31.96
659.038	31.23
659.365	31.45
659.693	31.39
660.02	31.64
660.347	31.42
660.674	31.93
661.001	31.41
661.329	31.22
661.656	30.92
661.982	31.72
662.309	31.34
662.636	31.7
662.963	31.82
663.29	31.84
663.616	31.71
663.943	31.94
664.27	32.21
664.596	32.24
664.923	31.79
665.249	32.14
665.576	32.41
665.902	32.14
666.228	32.41
666.554	32.18
666.881	32.48
667.207	32.63
667.533	31.96
667.859	32.09
668.185	33.12
668.511	32.98
668.837	32.32
669.162	32.75
669.488	32.45
669.814	32.62
670.139	32.71
670.465	33.07
670.791	32.8
671.116	33.03
671.442	32.42
671.767	32.48
672.092	33.31
672.418	33.05
672.743	33.3
673.068	32.1
673.393	32.77
673.718	32.24
674.043	32.66
674.368	33.08
674.693	32.83
675.018	32.88
675.343	32.66
675.667	33.03
675.992	33.68
676.317	33.42
