Data from 0031_crown_Reflection__2__144.txt Node

Date: Thu Oct 20 22:02:05 CDT 2022
User: ToomeyLab
Spectrometer: FLMS14357
Trigger mode: 0
Integration Time (sec): 1.000000E-2
Scans to average: 100
Electric dark correction enabled: true
Nonlinearity correction enabled: false
Boxcar width: 0
XAxis mode: Wavelengths
Number of Pixels in Spectrum: 2048
>>>>>Begin Spectral Data<<<<<
189.047	-49.18
189.435	-49.18
189.823	-49.18
190.211	-40.1
190.599	-161.79
190.987	-22.2
191.375	67.27
191.763	-135.54
192.151	31.25
192.538	434.17
192.926	151.81
193.314	71.19
193.702	1231.15
194.089	868.42
194.477	390.04
194.864	18.52
195.252	114.13
195.639	678.38
196.027	116.93
196.414	97.71
196.801	-1635.48
197.189	-124.75
197.576	1159.26
197.963	32.54
198.351	-52.09
198.738	-45.58
199.125	-17.74
199.512	-5.84
199.899	-26.62
200.286	11.08
200.673	5.63
201.06	23.26
201.447	29.76
201.833	26.75
202.22	-46.88
202.607	11.68
202.994	-70.99
203.38	-42.5
203.767	-5.82
204.154	0.6
204.54	-21.52
204.927	-24.18
205.313	28.65
205.699	1.12
206.086	-12.79
206.472	3.49
206.858	-40.41
207.245	14.18
207.631	-26.25
208.017	28.5
208.403	-31.97
208.789	-10.22
209.175	15.13
209.561	47.15
209.947	22.07
210.333	29.4
210.719	-1.56
211.105	-0.11
211.491	-82.03
211.876	-21.36
212.262	18.73
212.648	-36.62
213.034	-19.23
213.419	-47.11
213.805	-5.3
214.19	-17.34
214.576	-45.64
214.961	-52.83
215.346	-14.37
215.732	9.27
216.117	-13.55
216.502	-3.12
216.888	-40.45
217.273	-42.32
217.658	-6.35
218.043	1.93
218.428	-25.47
218.813	24.86
219.198	-28.95
219.583	-10.11
219.968	17.68
220.353	-12.22
220.738	5.71
221.122	5.9
221.507	-5.11
221.892	-9.4
222.276	3.01
222.661	12.12
223.046	14.99
223.43	-5.18
223.815	9.09
224.199	-5.09
224.583	1.73
224.968	2.1
225.352	7.93
225.736	3.19
226.121	0.91
226.505	10.11
226.889	4.78
227.273	-2.61
227.657	7.48
228.041	3.21
228.425	5.64
228.809	7.7
229.193	6.85
229.577	3.64
229.961	4.22
230.344	5.1
230.728	4.87
231.112	4.63
231.495	4.86
231.879	5.36
232.263	4.58
232.646	4.61
233.03	4.58
233.413	3.64
233.797	5.04
234.18	4.46
234.563	3.51
234.946	3.45
235.33	4.33
235.713	4.99
236.096	2.25
236.479	4.87
236.862	5.04
237.245	5.16
237.628	3.98
238.011	4.58
238.394	4.88
238.777	5.36
239.16	2.4
239.543	4.87
239.925	4.79
240.308	5.3
240.691	7.07
241.073	3.05
241.456	4.59
241.838	4.89
242.221	4.51
242.603	4.64
242.986	4.63
243.368	4.42
243.75	5.01
244.133	4.8
244.515	5.08
244.897	4.22
245.279	3.65
245.661	5
246.043	5.44
246.425	5.18
246.807	4.33
247.189	4.86
247.571	5.09
247.953	4.61
248.335	4.88
248.717	4.67
249.098	4.86
249.48	4.59
249.862	4.46
250.243	4.6
250.625	5.16
251.006	5.07
251.388	4.76
251.769	4.88
252.151	5.23
252.532	4.62
252.913	4.42
253.295	5.08
253.676	4.87
254.057	4.13
254.438	4.65
254.819	5.06
255.2	4.54
255.581	4.62
255.962	3.75
256.343	4.41
256.724	4.6
257.105	4.33
257.486	3.76
257.867	5.03
258.247	4.98
258.628	4.9
259.009	4.14
259.389	4.66
259.77	4.33
260.15	4.45
260.531	4.46
260.911	4.64
261.292	4.82
261.672	4.7
262.052	4.64
262.432	4.76
262.813	4.61
263.193	5.04
263.573	4.56
263.953	4.8
264.333	5.1
264.713	4.71
265.093	3.97
265.473	4.75
265.853	5.44
266.233	4.37
266.612	5.11
266.992	4.49
267.372	5.09
267.752	5.42
268.131	4.94
268.511	4.77
268.89	4.33
269.27	4.65
269.649	4.35
270.029	4.3
270.408	4.15
270.787	4.3
271.167	4.5
271.546	3.99
271.925	4.84
272.304	4.54
272.683	4.34
273.062	4.49
273.441	4.96
273.82	4.56
274.199	4.39
274.578	4.32
274.957	4.2
275.336	4.17
275.715	4.68
276.093	4.99
276.472	4.67
276.851	4.83
277.229	3.71
277.608	3.88
277.986	4.68
278.365	4.33
278.743	4.43
279.122	4.32
279.5	5.01
279.878	4.2
280.257	5.02
280.635	4.59
281.013	4.56
281.391	4.64
281.769	4.77
282.147	3.82
282.525	4.2
282.903	4.46
283.281	4.09
283.659	3.77
284.037	3.82
284.415	4.34
284.792	4.22
285.17	4.53
285.548	4.32
285.925	4.08
286.303	4.31
286.68	4.88
287.058	4.12
287.435	4.34
287.813	3.91
288.19	4.3
288.567	4.18
288.945	4.47
289.322	4.27
289.699	3.67
290.076	4.07
290.453	3.78
290.83	4.29
291.207	4.69
291.584	4.09
291.961	4.09
292.338	3.69
292.715	3.89
293.092	4.74
293.469	4.44
293.845	4.31
294.222	4.37
294.599	4.95
294.975	3.8
295.352	4.36
295.728	3.77
296.105	4.44
296.481	3.62
296.858	4.22
297.234	4.43
297.61	4.19
297.986	3.96
298.363	3.86
298.739	4.14
299.115	4.02
299.491	4.01
299.867	3.5
300.243	4.15
300.619	4.15
300.995	3.74
301.371	3.73
301.746	3.65
302.122	4.05
302.498	4.2
302.874	4.2
303.249	4.24
303.625	3.74
304	4.11
304.376	3.79
304.751	4
305.127	3.61
305.502	3.88
305.878	4.26
306.253	3.52
306.628	3.83
307.003	3.9
307.378	3.5
307.754	3.69
308.129	3.97
308.504	4.15
308.879	3.95
309.254	3.57
309.629	3.77
310.003	3.75
310.378	3.74
310.753	4.06
311.128	3.66
311.502	3.66
311.877	3.89
312.252	3.83
312.626	3.77
313.001	3.9
313.375	4.12
313.75	3.46
314.124	3.41
314.498	3.75
314.873	3.94
315.247	3.6
315.621	4.02
315.995	3.47
316.369	4.45
316.743	3.28
317.117	3.74
317.491	4.21
317.865	3.6
318.239	4
318.613	3.86
318.987	3.94
319.361	3.32
319.734	3.19
320.108	4.2
320.482	3.69
320.855	3.85
321.229	4.06
321.602	3.88
321.976	3.66
322.349	3.62
322.723	4.36
323.096	3.37
323.469	3.92
323.843	3.51
324.216	3.57
324.589	3.8
324.962	3.63
325.335	3.77
325.708	3.91
326.081	3.93
326.454	3.55
326.827	3.72
327.2	3.82
327.573	3.69
327.945	3.79
328.318	3.29
328.691	4.16
329.063	3.54
329.436	3.26
329.809	3.54
330.181	3.74
330.553	3.07
330.926	3.73
331.298	2.89
331.671	3.81
332.043	3.82
332.415	3.61
332.787	3.89
333.159	3.91
333.532	3.9
333.904	3.73
334.276	3.21
334.648	3.27
335.02	3.52
335.391	3.63
335.763	3.84
336.135	3.35
336.507	3.54
336.879	4.29
337.25	3.37
337.622	3.57
337.993	3.46
338.365	3.71
338.736	3.76
339.108	3.48
339.479	3.95
339.851	3.37
340.222	3.58
340.593	3.36
340.964	4.05
341.336	3.49
341.707	3.04
342.078	3.07
342.449	3.36
342.82	3.59
343.191	3.48
343.562	3.79
343.933	3.5
344.303	3.42
344.674	3.65
345.045	4.09
345.416	3.71
345.786	3.72
346.157	3.66
346.527	3.37
346.898	3.51
347.268	3.41
347.639	3.73
348.009	3.51
348.38	3.77
348.75	3.16
349.12	3.63
349.49	3.91
349.861	3.85
350.231	3.29
350.601	3.62
350.971	3.23
351.341	3.96
351.711	3.77
352.081	3.22
352.45	3.44
352.82	3.3
353.19	3.63
353.56	3.71
353.929	3.38
354.299	3.81
354.669	3.26
355.038	3.74
355.408	3.27
355.777	3.69
356.147	3.68
356.516	3.36
356.885	3.86
357.254	3.77
357.624	3.48
357.993	3.5
358.362	3.82
358.731	3.74
359.1	3.42
359.469	3.97
359.838	3.53
360.207	3.89
360.576	3.58
360.945	3.76
361.314	3.59
361.682	3.81
362.051	3.43
362.42	3.7
362.788	3.67
363.157	3.52
363.525	3.51
363.894	3.66
364.262	3.75
364.631	3.51
364.999	3.48
365.367	3.9
365.735	4
366.104	3.51
366.472	3.26
366.84	3.9
367.208	3.69
367.576	3.65
367.944	3.85
368.312	3.59
368.68	3.79
369.048	3.46
369.416	3.48
369.783	3.73
370.151	3.97
370.519	3.68
370.886	3.3
371.254	3.78
371.621	3.7
371.989	3.6
372.356	3.31
372.724	3.57
373.091	3.58
373.458	3.5
373.826	3.47
374.193	3.79
374.56	3.66
374.927	3.53
375.294	3.67
375.661	3.86
376.028	3.77
376.395	3.93
376.762	3.78
377.129	3.57
377.496	3.37
377.863	3.53
378.229	3.63
378.596	3.67
378.963	3.87
379.329	3.93
379.696	3.45
380.062	3.59
380.429	3.99
380.795	3.76
381.161	4.14
381.528	3.74
381.894	3.71
382.26	3.47
382.626	3.89
382.993	3.6
383.359	3.74
383.725	3.72
384.091	3.97
384.457	3.68
384.823	3.59
385.188	3.74
385.554	3.53
385.92	3.89
386.286	3.6
386.651	3.83
387.017	3.72
387.383	3.71
387.748	3.82
388.114	3.83
388.479	3.83
388.845	3.97
389.21	4.09
389.575	3.61
389.94	4.13
390.306	3.89
390.671	3.89
391.036	3.69
391.401	3.75
391.766	4
392.131	3.92
392.496	3.7
392.861	3.72
393.226	4.09
393.591	4.09
393.956	3.97
394.32	4.04
394.685	4.01
395.05	3.72
395.414	4.01
395.779	3.95
396.143	4.08
396.508	4.24
396.872	3.96
397.236	3.95
397.601	4.01
397.965	4.15
398.329	3.87
398.694	4.1
399.058	3.86
399.422	4.12
399.786	3.75
400.15	3.86
400.514	4.17
400.878	3.99
401.242	4.16
401.605	4.07
401.969	4.01
402.333	3.94
402.697	4.1
403.06	3.85
403.424	3.87
403.787	4.2
404.151	3.86
404.514	3.91
404.878	3.95
405.241	3.96
405.604	3.98
405.968	4.02
406.331	3.95
406.694	3.92
407.057	4.02
407.42	4
407.783	3.88
408.146	3.92
408.509	3.88
408.872	4.13
409.235	3.76
409.598	3.88
409.961	4.02
410.323	4.12
410.686	4.25
411.049	4.14
411.411	3.91
411.774	3.92
412.136	4.15
412.499	3.94
412.861	4.14
413.223	3.96
413.586	3.85
413.948	3.97
414.31	3.87
414.672	4.23
415.035	4.12
415.397	3.97
415.759	3.92
416.121	4.37
416.483	4.16
416.845	4.07
417.206	3.97
417.568	4.04
417.93	3.98
418.292	4.1
418.653	4.14
419.015	4.17
419.377	4.16
419.738	3.93
420.1	4.13
420.461	3.96
420.822	4.05
421.184	3.96
421.545	4.1
421.906	4
422.267	4.06
422.629	4.03
422.99	4.07
423.351	4.03
423.712	4.09
424.073	4.11
424.434	4.01
424.795	4.02
425.155	4.07
425.516	4.09
425.877	4.02
426.238	4.11
426.598	4.11
426.959	4.13
427.32	4.19
427.68	4.09
428.041	4.13
428.401	4.08
428.761	4.2
429.122	4.08
429.482	4.01
429.842	4.09
430.202	4.33
430.563	4.02
430.923	4.35
431.283	4.09
431.643	4.03
432.003	4.2
432.363	4.29
432.722	4.27
433.082	4.19
433.442	4.24
433.802	4.15
434.161	4.3
434.521	4.23
434.881	4.2
435.24	3.99
435.6	4.26
435.959	4.21
436.319	4.2
436.678	4.09
437.037	4.25
437.396	4.41
437.756	4.23
438.115	4.2
438.474	4.01
438.833	4.23
439.192	4.16
439.551	4.2
439.91	4.27
440.269	4.27
440.628	4.28
440.987	4.14
441.345	4.19
441.704	4.21
442.063	4.28
442.421	4.05
442.78	4.23
443.138	4.27
443.497	4.13
443.855	4.13
444.214	4.22
444.572	4.29
444.93	4.04
445.288	4.23
445.647	4.31
446.005	4.14
446.363	4.42
446.721	4.3
447.079	4.33
447.437	4.14
447.795	4.2
448.153	4.14
448.51	4.19
448.868	4.26
449.226	4.23
449.584	4.17
449.941	4.24
450.299	4.29
450.656	4.21
451.014	4.33
451.371	4.34
451.729	4.26
452.086	4.53
452.443	4.23
452.801	4.35
453.158	4.34
453.515	4.35
453.872	4.2
454.229	4.13
454.586	4.27
454.943	4.18
455.3	4.35
455.657	4.2
456.014	4.37
456.371	4.17
456.727	4.31
457.084	4.24
457.441	4.4
457.797	4.24
458.154	4.52
458.51	4.31
458.867	4.26
459.223	4.45
459.58	4.24
459.936	4.32
460.292	4.2
460.648	4.26
461.005	4.12
461.361	4.3
461.717	4.29
462.073	4.37
462.429	4.38
462.785	4.4
463.141	4.51
463.496	4.39
463.852	4.27
464.208	4.34
464.564	4.5
464.919	4.4
465.275	4.52
465.631	4.23
465.986	4.32
466.342	4.23
466.697	4.45
467.052	4.37
467.408	4.31
467.763	4.24
468.118	4.54
468.473	4.49
468.829	4.5
469.184	4.32
469.539	4.36
469.894	4.37
470.249	4.53
470.603	4.43
470.958	4.4
471.313	4.32
471.668	4.33
472.023	4.48
472.377	4.34
472.732	4.42
473.086	4.54
473.441	4.32
473.795	4.44
474.15	4.45
474.504	4.4
474.859	4.35
475.213	4.6
475.567	4.45
475.921	4.39
476.275	4.54
476.63	4.48
476.984	4.61
477.338	4.43
477.692	4.39
478.045	4.45
478.399	4.47
478.753	4.4
479.107	4.4
479.461	4.37
479.814	4.5
480.168	4.62
480.521	4.47
480.875	4.52
481.228	4.48
481.582	4.41
481.935	4.4
482.289	4.32
482.642	4.33
482.995	4.52
483.348	4.51
483.701	4.35
484.055	4.37
484.408	4.26
484.761	4.27
485.114	4.19
485.466	4.18
485.819	4.21
486.172	4.26
486.525	4.29
486.878	4.35
487.23	4.37
487.583	4.32
487.936	4.41
488.288	4.41
488.641	4.31
488.993	4.31
489.345	4.26
489.698	4.3
490.05	4.35
490.402	4.4
490.754	4.34
491.107	4.35
491.459	4.45
491.811	4.4
492.163	4.44
492.515	4.33
492.866	4.31
493.218	4.3
493.57	4.38
493.922	4.34
494.274	4.37
494.625	4.45
494.977	4.48
495.328	4.37
495.68	4.51
496.031	4.47
496.383	4.43
496.734	4.46
497.086	4.45
497.437	4.6
497.788	4.62
498.139	4.43
498.49	4.55
498.842	4.41
499.193	4.55
499.544	4.54
499.894	4.56
500.245	4.59
500.596	4.53
500.947	4.49
501.298	4.53
501.648	4.42
501.999	4.71
502.35	4.62
502.7	4.65
503.051	4.61
503.401	4.44
503.752	4.5
504.102	4.39
504.452	4.61
504.803	4.42
505.153	4.49
505.503	4.76
505.853	4.5
506.203	4.48
506.553	4.67
506.903	4.49
507.253	4.66
507.603	4.61
507.953	4.66
508.303	4.6
508.652	4.51
509.002	4.54
509.352	4.59
509.701	4.57
510.051	4.57
510.4	4.52
510.75	4.46
511.099	4.48
511.449	4.61
511.798	4.59
512.147	4.69
512.496	4.68
512.846	4.71
513.195	4.66
513.544	4.64
513.893	4.72
514.242	4.57
514.591	4.71
514.939	4.59
515.288	4.76
515.637	4.61
515.986	4.61
516.334	4.61
516.683	4.72
517.032	4.68
517.38	4.67
517.729	4.67
518.077	4.71
518.426	4.66
518.774	4.61
519.122	4.76
519.47	4.57
519.819	4.61
520.167	4.56
520.515	4.59
520.863	4.58
521.211	4.64
521.559	4.67
521.907	4.63
522.255	4.55
522.602	4.72
522.95	4.72
523.298	4.57
523.645	4.63
523.993	4.71
524.341	4.76
524.688	4.67
525.036	4.64
525.383	4.74
525.73	4.54
526.078	4.67
526.425	4.65
526.772	4.64
527.119	4.58
527.466	4.69
527.814	4.67
528.161	4.58
528.508	4.65
528.854	4.74
529.201	4.58
529.548	4.56
529.895	4.5
530.242	4.44
530.588	4.5
530.935	4.54
531.282	4.51
531.628	4.57
531.975	4.67
532.321	4.69
532.667	4.66
533.014	4.7
533.36	4.67
533.706	4.64
534.052	4.63
534.399	4.7
534.745	4.62
535.091	4.57
535.437	4.65
535.783	4.57
536.129	4.56
536.474	4.65
536.82	4.63
537.166	4.64
537.512	4.67
537.857	4.59
538.203	4.65
538.549	4.68
538.894	4.77
539.239	4.72
539.585	4.75
539.93	4.75
540.276	4.79
540.621	4.7
540.966	4.83
541.311	4.84
541.656	4.74
542.001	4.76
542.346	4.6
542.691	4.53
543.036	4.51
543.381	4.58
543.726	4.57
544.071	4.65
544.415	4.65
544.76	4.63
545.105	4.74
545.449	4.69
545.794	4.78
546.138	4.86
546.483	4.76
546.827	4.77
547.171	4.78
547.516	4.77
547.86	4.72
548.204	4.79
548.548	4.71
548.892	4.73
549.236	4.8
549.58	4.8
549.924	4.83
550.268	4.87
550.612	4.9
550.956	4.84
551.3	4.93
551.643	4.85
551.987	5.04
552.33	4.76
552.674	4.75
553.017	4.93
553.361	4.92
553.704	4.91
554.048	4.87
554.391	4.85
554.734	4.8
555.077	4.78
555.42	4.85
555.764	4.87
556.107	4.73
556.45	4.88
556.793	4.84
557.135	4.87
557.478	4.68
557.821	4.87
558.164	4.92
558.507	4.92
558.849	4.99
559.192	4.83
559.534	4.96
559.877	4.97
560.219	4.97
560.562	4.94
560.904	4.91
561.246	4.96
561.589	4.98
561.931	4.77
562.273	4.9
562.615	4.9
562.957	4.77
563.299	4.84
563.641	4.94
563.983	5.05
564.325	4.96
564.667	4.95
565.008	4.84
565.35	5.04
565.692	4.99
566.033	4.68
566.375	4.93
566.716	4.86
567.058	4.8
567.399	4.97
567.741	4.86
568.082	4.92
568.423	4.93
568.764	4.9
569.105	4.84
569.447	5.1
569.788	4.87
570.129	4.92
570.47	4.96
570.811	4.76
571.151	4.81
571.492	4.8
571.833	4.95
572.174	4.98
572.514	4.98
572.855	5.01
573.195	4.94
573.536	4.95
573.876	4.86
574.217	4.94
574.557	5.09
574.898	4.97
575.238	5.17
575.578	4.93
575.918	4.93
576.258	4.95
576.598	5.01
576.938	4.84
577.278	4.9
577.618	5.15
577.958	5.07
578.298	5.05
578.638	4.98
578.977	5.14
579.317	4.99
579.657	4.87
579.996	5.17
580.336	5.11
580.675	5.17
581.014	4.98
581.354	5.01
581.693	5.05
582.032	4.95
582.372	5
582.711	4.91
583.05	4.85
583.389	5.04
583.728	4.82
584.067	5.26
584.406	4.94
584.745	5.16
585.083	4.85
585.422	5.05
585.761	5.12
586.1	5.07
586.438	5.21
586.777	5.12
587.115	5.01
587.454	5.12
587.792	5.14
588.13	5.12
588.469	5.27
588.807	4.82
589.145	4.99
589.483	5.06
589.821	5.04
590.159	4.96
590.497	4.89
590.835	5.06
591.173	4.95
591.511	5.03
591.849	4.98
592.187	4.91
592.524	5.12
592.862	5.13
593.2	5.1
593.537	5.03
593.875	5.05
594.212	4.95
594.55	4.93
594.887	5
595.224	5.42
595.561	4.85
595.899	5.3
596.236	5.14
596.573	5.22
596.91	5.03
597.247	5.1
597.584	4.93
597.921	4.92
598.258	5.04
598.594	4.98
598.931	5.11
599.268	5.02
599.604	4.95
599.941	5.02
600.277	5.15
600.614	5.02
600.95	5.23
601.287	4.98
601.623	5.05
601.959	5.01
602.296	4.94
602.632	4.85
602.968	5.15
603.304	4.94
603.64	5.24
603.976	5.21
604.312	5.23
604.648	5.13
604.984	5.05
605.319	5.03
605.655	5.13
605.991	5.02
606.326	5.1
606.662	5.01
606.998	5.23
607.333	5.07
607.668	4.97
608.004	4.96
608.339	4.95
608.674	5.26
609.01	5.16
609.345	5.11
609.68	4.7
610.015	5.14
610.35	5.23
610.685	5.08
611.02	5.08
611.355	5.13
611.689	5.22
612.024	5
612.359	5.03
612.694	4.84
613.028	5.14
613.363	5.04
613.697	4.91
614.032	5.19
614.366	5.12
614.7	5.07
615.035	5.1
615.369	5.04
615.703	5.05
616.037	5.08
616.371	4.75
616.705	5.04
617.039	5.16
617.373	5.29
617.707	5.13
618.041	4.84
618.375	5.06
618.709	5.04
619.042	4.93
619.376	4.91
619.71	4.95
620.043	5.14
620.377	5.19
620.71	5.25
621.043	4.96
621.377	4.85
621.71	5.02
622.043	4.97
622.376	5.48
622.709	5.43
623.043	5.43
623.376	5.32
623.709	5.2
624.041	5.31
624.374	5.21
624.707	4.97
625.04	5.47
625.373	5.16
625.705	5.27
626.038	5.38
626.37	5.11
626.703	5.09
627.035	5.24
627.368	5.11
627.7	5.11
628.032	5.19
628.365	5.21
628.697	5.42
629.029	5.03
629.361	5.17
629.693	5.33
630.025	5.05
630.357	5.18
630.689	5.25
631.021	5.29
631.353	5.29
631.684	5.06
632.016	4.8
632.348	5.19
632.679	4.95
633.011	5.27
633.342	5.32
633.674	5.38
634.005	5.33
634.336	5.14
634.668	5.29
634.999	5.35
635.33	5.59
635.661	5.16
635.992	5.33
636.323	5.54
636.654	5.12
636.985	5.39
637.316	5.07
637.647	5.27
637.977	5.4
638.308	5.21
638.639	5.75
638.969	5.32
639.3	5.14
639.63	5.38
639.961	4.95
640.291	4.89
640.622	5.31
640.952	5.16
641.282	5.31
641.612	5.25
641.943	5.18
642.273	5.35
642.603	4.97
642.933	5.48
643.263	4.93
643.592	5.41
643.922	5.58
644.252	5.33
644.582	4.7
644.911	5.52
645.241	5.14
645.571	5.28
645.9	5.62
646.23	5.05
646.559	5.33
646.888	5.35
647.218	5.07
647.547	5.21
647.876	5.14
648.205	4.88
648.534	5.24
648.863	5.25
649.192	5.4
649.521	5.36
649.85	5.37
650.179	5.38
650.508	5.63
650.837	5.42
651.165	4.99
651.494	5.44
651.822	5.68
652.151	5.48
652.479	5.08
652.808	5.38
653.136	5.02
653.465	5.54
653.793	5.68
654.121	5.62
654.449	5.29
654.777	4.9
655.105	5.98
655.433	5.18
655.761	5.87
656.089	5.71
656.417	5.63
656.745	5.6
657.073	5.17
657.4	5.14
657.728	5.25
658.056	5.09
658.383	5.52
658.711	5.55
659.038	5.42
659.365	5.27
659.693	5.3
660.02	5.69
660.347	5.59
660.674	5.77
661.001	5.44
661.329	5.75
661.656	5.06
661.982	5.54
662.309	5.47
662.636	5.91
662.963	4.84
663.29	5.08
663.616	5.63
663.943	5.65
664.27	5.8
664.596	5.47
664.923	5.24
665.249	5.75
665.576	6
665.902	5.38
666.228	5.34
666.554	5.68
666.881	5.63
667.207	5.79
667.533	5.17
667.859	5.11
668.185	6.46
668.511	5.61
668.837	5.52
669.162	5.51
669.488	4.88
669.814	5.96
670.139	5.67
670.465	5.26
670.791	5.63
671.116	5.11
671.442	5.54
671.767	5.68
672.092	5.67
672.418	5.45
672.743	5.09
673.068	4.83
673.393	5.36
673.718	5.64
674.043	5.08
674.368	4.65
674.693	5.57
675.018	5.8
675.343	4.9
675.667	5.39
675.992	5.69
676.317	6.1
676.641	5.58
676.966	5.52
677.29	5.16
677.615	6.08
677.939	5.3
678.264	5.47
678.588	6.16
678.912	5.95
679.236	5.64
679.56	6.14
679.885	5.52
680.209	5.24
680.532	5.72
680.856	5.72
681.18	5.49
681.504	5.69
681.828	5.95
682.152	5.79
682.475	5.49
682.799	5.87
683.122	5.71
683.446	5.34
683.769	6.02
684.093	5.66
684.416	5.92
684.739	5.49
685.062	5.29
685.386	5.88
685.709	5.23
686.032	5.67
686.355	5.51
686.678	5.6
687.001	6.08
687.324	5.31
687.646	6.24
687.969	5.39
688.292	5.94
688.614	6.18
688.937	5.53
689.26	5.36
689.582	5.48
689.904	5.84
690.227	5.04
690.549	6.62
690.871	4.82
691.194	5.99
691.516	5.22
691.838	5.5
692.16	5.93
