Data from 0048_crown_Reflection__1__187.txt Node

Date: Fri Nov 04 16:23:04 CDT 2022
User: ToomeyLab
Spectrometer: FLMS14357
Trigger mode: 0
Integration Time (sec): 1.000000E-2
Scans to average: 100
Electric dark correction enabled: true
Nonlinearity correction enabled: false
Boxcar width: 0
XAxis mode: Wavelengths
Number of Pixels in Spectrum: 2048
>>>>>Begin Spectral Data<<<<<
189.047	-216.03
189.435	-216.03
189.823	-216.03
190.211	-212.34
190.599	49.24
190.987	134.32
191.375	178.14
191.763	251.48
192.151	108.58
192.538	54.33
192.926	2.28
193.314	971.34
193.702	162.23
194.089	56.77
194.477	-183.55
194.864	-108.3
195.252	47.5
195.639	164.09
196.027	-44.32
196.414	4.65
196.801	478.87
197.189	1436.11
197.576	287.82
197.963	-227.14
198.351	-50.84
198.738	13.48
199.125	14.74
199.512	-54.28
199.899	-21.33
200.286	-41.72
200.673	-51.17
201.06	34.36
201.447	-114.63
201.833	-2.57
202.22	-9.1
202.607	-18.93
202.994	65.75
203.38	22.47
203.767	15.27
204.154	20.02
204.54	-109.01
204.927	10.95
205.313	8.73
205.699	23.78
206.086	-8.71
206.472	7.24
206.858	-15.41
207.245	24.55
207.631	20.76
208.017	10.16
208.403	14.05
208.789	28.26
209.175	-3.01
209.561	-49.63
209.947	-101.43
210.333	-9.48
210.719	13.65
211.105	-37.65
211.491	5.92
211.876	2.64
212.262	16.02
212.648	-11.99
213.034	16.26
213.419	-16.95
213.805	-16.91
214.19	-59.84
214.576	-34.3
214.961	1.13
215.346	-6.84
215.732	-19.89
216.117	-5.42
216.502	18.91
216.888	-28.65
217.273	14.13
217.658	8.32
218.043	-6.92
218.428	20.09
218.813	-21
219.198	2.76
219.583	-10.79
219.968	7.51
220.353	-21.86
220.738	-15.73
221.122	-1.68
221.507	15.54
221.892	-1.1
222.276	-5.56
222.661	0.82
223.046	6.01
223.43	-3.04
223.815	-1.19
224.199	5.54
224.583	2.64
224.968	-2.08
225.352	3.23
225.736	-1.79
226.121	-5.77
226.505	11.06
226.889	2.26
227.273	5.87
227.657	2.09
228.041	6.18
228.425	5.42
228.809	6.37
229.193	6.65
229.577	3.01
229.961	6.29
230.344	6.27
230.728	6.7
231.112	5.94
231.495	5.58
231.879	6.36
232.263	6.72
232.646	5.15
233.03	6.26
233.413	3.72
233.797	4.96
234.18	5.27
234.563	6.19
234.946	5.86
235.33	8.24
235.713	4.91
236.096	7.4
236.479	4.99
236.862	4.5
237.245	5.27
237.628	7.19
238.011	4.26
238.394	7.52
238.777	6.56
239.16	6.3
239.543	3.71
239.925	6.75
240.308	6.65
240.691	3.71
241.073	4.74
241.456	5.21
241.838	4.8
242.221	5.4
242.603	5.69
242.986	5.96
243.368	5.89
243.75	5.95
244.133	6.16
244.515	6.05
244.897	5.84
245.279	5.81
245.661	6.16
246.043	6.68
246.425	5.8
246.807	6.46
247.189	5.71
247.571	6.52
247.953	5.89
248.335	6
248.717	5.84
249.098	5.58
249.48	5.66
249.862	5.84
250.243	5.73
250.625	5.42
251.006	5.5
251.388	6.02
251.769	6.42
252.151	5.52
252.532	5.76
252.913	4.98
253.295	5.32
253.676	6.09
254.057	5.32
254.438	5.41
254.819	5.46
255.2	5.29
255.581	6.03
255.962	6.04
256.343	4.88
256.724	6.64
257.105	4.9
257.486	5.09
257.867	6.53
258.247	6.06
258.628	5.42
259.009	5.69
259.389	5.46
259.77	5.27
260.15	5.07
260.531	5.76
260.911	5.16
261.292	5.19
261.672	5.34
262.052	5.43
262.432	5.5
262.813	5.3
263.193	4.95
263.573	5.39
263.953	5.11
264.333	5.7
264.713	5.8
265.093	5.43
265.473	5.82
265.853	4.73
266.233	4.47
266.612	5.98
266.992	5.6
267.372	4.55
267.752	4.81
268.131	5.54
268.511	5.18
268.89	5.34
269.27	4.93
269.649	5.09
270.029	5.04
270.408	4.9
270.787	5.5
271.167	5.15
271.546	5.43
271.925	5.28
272.304	4.87
272.683	5.12
273.062	5.03
273.441	5.07
273.82	4.9
274.199	5.53
274.578	4.93
274.957	4.86
275.336	4.6
275.715	4.94
276.093	5.25
276.472	4.59
276.851	4.81
277.229	4.79
277.608	4.98
277.986	5.46
278.365	5.19
278.743	5.42
279.122	4.98
279.5	5.1
279.878	5.34
280.257	4.53
280.635	4.96
281.013	5.09
281.391	5.76
281.769	4.94
282.147	4.5
282.525	5.22
282.903	5.12
283.281	5.35
283.659	4.85
284.037	4.86
284.415	4.64
284.792	5.01
285.17	4.83
285.548	4.97
285.925	4.87
286.303	4.89
286.68	5.16
287.058	4.81
287.435	4.86
287.813	4.66
288.19	4.82
288.567	4.56
288.945	4.92
289.322	4.96
289.699	5.02
290.076	4.88
290.453	4.45
290.83	4.39
291.207	4.44
291.584	4.84
291.961	4.87
292.338	4.88
292.715	4.24
293.092	4.82
293.469	4.33
293.845	4.78
294.222	4.84
294.599	4.26
294.975	4.53
295.352	4.14
295.728	4.79
296.105	4.58
296.481	4.48
296.858	4.61
297.234	4.94
297.61	4.39
297.986	4.16
298.363	4.25
298.739	4.49
299.115	4.8
299.491	4.34
299.867	4.4
300.243	4.22
300.619	4.72
300.995	4.64
301.371	4.72
301.746	4.48
302.122	4.37
302.498	4.29
302.874	4.5
303.249	4.05
303.625	4.24
304	4.57
304.376	4.04
304.751	4.4
305.127	3.57
305.502	4.06
305.878	4.56
306.253	4.46
306.628	4.48
307.003	4.33
307.378	4.45
307.754	4.46
308.129	3.73
308.504	4.44
308.879	4.18
309.254	4.52
309.629	4.62
310.003	4.33
310.378	4.07
310.753	4.16
311.128	4
311.502	4.17
311.877	4.11
312.252	4.07
312.626	4.16
313.001	4.21
313.375	4.12
313.75	4.07
314.124	3.97
314.498	3.99
314.873	4.25
315.247	4.3
315.621	3.56
315.995	4.48
316.369	3.87
316.743	4.38
317.117	4.07
317.491	4.25
317.865	4.16
318.239	3.65
318.613	4.72
318.987	4.16
319.361	3.91
319.734	4.19
320.108	4.52
320.482	3.71
320.855	4.28
321.229	3.73
321.602	3.86
321.976	3.63
322.349	4.51
322.723	3.67
323.096	4.24
323.469	4.29
323.843	3.97
324.216	4.33
324.589	4.05
324.962	4.28
325.335	4.19
325.708	3.56
326.081	3.97
326.454	3.69
326.827	4.04
327.2	3.81
327.573	4.07
327.945	3.9
328.318	3.73
328.691	3.77
329.063	3.84
329.436	4.2
329.809	3.86
330.181	4.19
330.553	3.9
330.926	3.78
331.298	4.04
331.671	3.73
332.043	3.31
332.415	3.57
332.787	3.53
333.159	3.58
333.532	3.48
333.904	4.12
334.276	3.91
334.648	4.21
335.02	3.69
335.391	3.96
335.763	3.79
336.135	3.99
336.507	3.97
336.879	3.98
337.25	4.06
337.622	3.76
337.993	3.88
338.365	3.69
338.736	3.67
339.108	4.18
339.479	3.6
339.851	3.81
340.222	3.83
340.593	3.74
340.964	3.93
341.336	3.58
341.707	3.3
342.078	3.7
342.449	4.01
342.82	4.12
343.191	3.76
343.562	4.03
343.933	3.78
344.303	4.09
344.674	3.8
345.045	3.59
345.416	4.02
345.786	3.93
346.157	4.06
346.527	4.07
346.898	3.98
347.268	3.53
347.639	3.84
348.009	4.02
348.38	3.87
348.75	3.72
349.12	3.62
349.49	3.88
349.861	3.66
350.231	4.36
350.601	4.14
350.971	3.61
351.341	4.61
351.711	4.01
352.081	3.86
352.45	3.75
352.82	4.18
353.19	4.09
353.56	4.34
353.929	3.94
354.299	4.14
354.669	4.37
355.038	4.51
355.408	3.59
355.777	3.96
356.147	4.16
356.516	3.89
356.885	3.86
357.254	4
357.624	4.07
357.993	3.77
358.362	3.7
358.731	4.11
359.1	4.19
359.469	3.91
359.838	3.98
360.207	3.94
360.576	3.98
360.945	4.36
361.314	4.24
361.682	4.07
362.051	4.1
362.42	4.17
362.788	4.13
363.157	4
363.525	4.01
363.894	4.02
364.262	3.82
364.631	4.47
364.999	4.27
365.367	3.75
365.735	4.42
366.104	4.22
366.472	4.22
366.84	3.76
367.208	4.09
367.576	4
367.944	4.27
368.312	4.11
368.68	3.92
369.048	3.86
369.416	4.01
369.783	3.84
370.151	3.97
370.519	4.71
370.886	4.16
371.254	4.08
371.621	3.97
371.989	4.08
372.356	4.21
372.724	4.19
373.091	4.1
373.458	4.23
373.826	4.45
374.193	3.92
374.56	4.06
374.927	4.4
375.294	4.18
375.661	4.11
376.028	4.32
376.395	4.27
376.762	4.43
377.129	4.35
377.496	4.33
377.863	4.22
378.229	4.57
378.596	4.2
378.963	4.17
379.329	4.11
379.696	4.24
380.062	4.45
380.429	4.47
380.795	4.31
381.161	4.06
381.528	4.42
381.894	4.1
382.26	4.36
382.626	4.08
382.993	4.55
383.359	4.31
383.725	4.17
384.091	4.63
384.457	4.36
384.823	4.29
385.188	4.42
385.554	4.4
385.92	3.82
386.286	4.36
386.651	4.38
387.017	4.15
387.383	4.42
387.748	4.43
388.114	4.29
388.479	4.76
388.845	4.54
389.21	4.42
389.575	4.37
389.94	4.4
390.306	4.33
390.671	4.55
391.036	4.24
391.401	4.65
391.766	4.34
392.131	4.27
392.496	4.57
392.861	4.39
393.226	4.26
393.591	4.44
393.956	4.51
394.32	4.45
394.685	4.43
395.05	4.62
395.414	4.3
395.779	4.3
396.143	4.24
396.508	4.55
396.872	4.53
397.236	4.55
397.601	4.55
397.965	4.76
398.329	4.55
398.694	4.68
399.058	4.63
399.422	4.7
399.786	4.43
400.15	4.46
400.514	4.54
400.878	4.32
401.242	4.56
401.605	4.52
401.969	4.82
402.333	4.69
402.697	4.74
403.06	4.98
403.424	4.63
403.787	4.49
404.151	4.53
404.514	4.67
404.878	4.54
405.241	4.59
405.604	4.66
405.968	4.39
406.331	4.54
406.694	4.52
407.057	4.7
407.42	4.65
407.783	4.52
408.146	4.69
408.509	4.71
408.872	4.55
409.235	4.73
409.598	4.74
409.961	4.77
410.323	4.69
410.686	4.53
411.049	4.65
411.411	4.53
411.774	4.63
412.136	4.93
412.499	4.75
412.861	4.79
413.223	4.74
413.586	4.67
413.948	4.84
414.31	4.59
414.672	4.98
415.035	4.84
415.397	4.65
415.759	4.76
416.121	4.65
416.483	4.89
416.845	4.93
417.206	4.76
417.568	4.89
417.93	4.71
418.292	4.7
418.653	4.92
419.015	4.77
419.377	4.78
419.738	4.8
420.1	4.85
420.461	4.93
420.822	4.67
421.184	4.73
421.545	4.64
421.906	4.78
422.267	4.72
422.629	4.71
422.99	4.56
423.351	4.55
423.712	4.72
424.073	4.73
424.434	4.59
424.795	4.74
425.155	4.78
425.516	4.82
425.877	4.69
426.238	4.69
426.598	4.66
426.959	4.63
427.32	4.72
427.68	4.71
428.041	4.78
428.401	4.89
428.761	4.86
429.122	4.79
429.482	4.86
429.842	4.59
430.202	4.97
430.563	4.91
430.923	4.95
431.283	4.81
431.643	5.02
432.003	5.1
432.363	4.93
432.722	4.88
433.082	4.94
433.442	4.93
433.802	4.89
434.161	4.9
434.521	4.85
434.881	4.85
435.24	4.71
435.6	5.02
435.959	4.95
436.319	4.97
436.678	4.91
437.037	4.83
437.396	5
437.756	5.03
438.115	4.77
438.474	5.01
438.833	4.98
439.192	5.07
439.551	5.01
439.91	5.2
440.269	5.08
440.628	5.05
440.987	5.04
441.345	4.97
441.704	4.96
442.063	4.92
442.421	4.99
442.78	4.94
443.138	4.96
443.497	4.76
443.855	4.99
444.214	5.08
444.572	4.99
444.93	5.04
445.288	5.05
445.647	4.97
446.005	5.07
446.363	5.06
446.721	4.99
447.079	5.01
447.437	4.91
447.795	5.03
448.153	4.82
448.51	4.97
448.868	4.91
449.226	4.86
449.584	4.95
449.941	4.94
450.299	5.04
450.656	5.06
451.014	5.09
451.371	5.18
451.729	5.28
452.086	5.09
452.443	5.1
452.801	5.18
453.158	5.1
453.515	5.22
453.872	5.03
454.229	5.24
454.586	5.02
454.943	5.23
455.3	5.13
455.657	5.15
456.014	5.26
456.371	5.1
456.727	5.21
457.084	5.41
457.441	5.22
457.797	5.27
458.154	5.3
458.51	5.29
458.867	5.05
459.223	5.25
459.58	5.28
459.936	5.05
460.292	5.17
460.648	5.16
461.005	5.04
461.361	5.15
461.717	5.06
462.073	5.17
462.429	5.07
462.785	5.21
463.141	5.24
463.496	5.22
463.852	5.38
464.208	5.26
464.564	5.24
464.919	5.26
465.275	5.21
465.631	5.36
465.986	5.4
466.342	5.34
466.697	5.25
467.052	5.25
467.408	5.31
467.763	5.25
468.118	5.43
468.473	5.44
468.829	5.18
469.184	5.16
469.539	5.19
469.894	5.35
470.249	5.29
470.603	5.19
470.958	5.32
471.313	5.03
471.668	5.23
472.023	5.18
472.377	5.41
472.732	5.42
473.086	5.27
473.441	5.43
473.795	5.22
474.15	5.5
474.504	5.33
474.859	5.36
475.213	5.32
475.567	5.28
475.921	5.32
476.275	5.54
476.63	5.43
476.984	5.27
477.338	5.41
477.692	5.61
478.045	5.28
478.399	5.41
478.753	5.35
479.107	5.4
479.461	5.51
479.814	5.35
480.168	5.35
480.521	5.26
480.875	5.39
481.228	5.38
481.582	5.37
481.935	5.49
482.289	5.39
482.642	5.34
482.995	5.48
483.348	5.36
483.701	5.32
484.055	5.26
484.408	5.3
484.761	5.21
485.114	5.11
485.466	5.04
485.819	4.96
486.172	4.96
486.525	5.03
486.878	5.18
487.23	5.29
487.583	5.27
487.936	5.3
488.288	5.3
488.641	5.15
488.993	5.13
489.345	5.08
489.698	5.08
490.05	5.14
490.402	5.17
490.754	5.23
491.107	5.34
491.459	5.39
491.811	5.33
492.163	5.44
492.515	5.4
492.866	5.27
493.218	5.26
493.57	5.13
493.922	5.13
494.274	5.15
494.625	5.33
494.977	5.42
495.328	5.39
495.68	5.37
496.031	5.5
496.383	5.57
496.734	5.51
497.086	5.62
497.437	5.59
497.788	5.55
498.139	5.38
498.49	5.37
498.842	5.49
499.193	5.35
499.544	5.55
499.894	5.38
500.245	5.47
500.596	5.44
500.947	5.5
501.298	5.41
501.648	5.51
501.999	5.57
502.35	5.45
502.7	5.58
503.051	5.55
503.401	5.43
503.752	5.5
504.102	5.65
504.452	5.54
504.803	5.56
505.153	5.56
505.503	5.52
505.853	5.6
506.203	5.58
506.553	5.56
506.903	5.5
507.253	5.62
507.603	5.57
507.953	5.47
508.303	5.62
508.652	5.56
509.002	5.78
509.352	5.64
509.701	5.49
510.051	5.43
510.4	5.42
510.75	5.39
511.099	5.53
511.449	5.5
511.798	5.37
512.147	5.5
512.496	5.52
512.846	5.49
513.195	5.66
513.544	5.43
513.893	5.56
514.242	5.43
514.591	5.33
514.939	5.61
515.288	5.52
515.637	5.53
515.986	5.56
516.334	5.53
516.683	5.51
517.032	5.66
517.38	5.69
517.729	5.52
518.077	5.54
518.426	5.47
518.774	5.52
519.122	5.52
519.47	5.52
519.819	5.46
520.167	5.39
520.515	5.36
520.863	5.38
521.211	5.38
521.559	5.47
521.907	5.44
522.255	5.48
522.602	5.48
522.95	5.51
523.298	5.59
523.645	5.57
523.993	5.6
524.341	5.67
524.688	5.61
525.036	5.56
525.383	5.6
525.73	5.64
526.078	5.56
526.425	5.52
526.772	5.48
527.119	5.5
527.466	5.5
527.814	5.41
528.161	5.37
528.508	5.43
528.854	5.47
529.201	5.45
529.548	5.38
529.895	5.31
530.242	5.19
530.588	5.13
530.935	5.22
531.282	5.28
531.628	5.29
531.975	5.42
532.321	5.5
532.667	5.47
533.014	5.54
533.36	5.59
533.706	5.59
534.052	5.43
534.399	5.49
534.745	5.38
535.091	5.29
535.437	5.31
535.783	5.35
536.129	5.48
536.474	5.52
536.82	5.48
537.166	5.45
537.512	5.56
537.857	5.52
538.203	5.43
538.549	5.38
538.894	5.4
539.239	5.49
539.585	5.52
539.93	5.5
540.276	5.46
540.621	5.5
540.966	5.63
541.311	5.56
541.656	5.56
542.001	5.5
542.346	5.42
542.691	5.36
543.036	5.21
543.381	5.24
543.726	5.28
544.071	5.33
544.415	5.43
544.76	5.48
545.105	5.43
545.449	5.48
545.794	5.48
546.138	5.4
546.483	5.52
546.827	5.45
547.171	5.54
547.516	5.5
547.86	5.47
548.204	5.58
548.548	5.4
548.892	5.4
549.236	5.49
549.58	5.54
549.924	5.5
550.268	5.62
550.612	5.58
550.956	5.51
551.3	5.65
551.643	5.62
551.987	5.57
552.33	5.57
552.674	5.59
553.017	5.69
553.361	5.73
553.704	5.44
554.048	5.4
554.391	5.35
554.734	5.61
555.077	5.54
555.42	5.62
555.764	5.7
556.107	5.67
556.45	5.75
556.793	5.67
557.135	5.76
557.478	5.36
557.821	5.67
558.164	5.7
558.507	5.62
558.849	5.77
559.192	5.69
559.534	5.56
559.877	5.63
560.219	5.69
560.562	5.59
560.904	5.73
561.246	5.49
561.589	5.53
561.931	5.53
562.273	5.67
562.615	5.35
562.957	5.61
563.299	5.44
563.641	5.46
563.983	5.57
564.325	5.51
564.667	5.62
565.008	5.67
565.35	5.74
565.692	5.79
566.033	5.58
566.375	5.58
566.716	5.53
567.058	5.53
567.399	5.5
567.741	5.54
568.082	5.41
568.423	5.44
568.764	5.4
569.105	5.41
569.447	5.57
569.788	5.53
570.129	5.61
570.47	5.57
570.811	5.67
571.151	5.66
571.492	5.65
571.833	5.41
572.174	5.59
572.514	5.46
572.855	5.39
573.195	5.38
573.536	5.49
573.876	5.49
574.217	5.46
574.557	5.36
574.898	5.59
575.238	5.42
575.578	5.62
575.918	5.45
576.258	5.47
576.598	5.6
576.938	5.58
577.278	5.45
577.618	5.31
577.958	5.47
578.298	5.59
578.638	5.65
578.977	5.7
579.317	5.6
579.657	5.47
579.996	5.65
580.336	5.45
580.675	5.31
581.014	5.5
581.354	5.3
581.693	5.7
582.032	5.48
582.372	5.6
582.711	5.44
583.05	5.63
583.389	5.41
583.728	5.38
584.067	5.35
584.406	5.45
584.745	5.68
585.083	5.61
585.422	5.68
585.761	5.49
586.1	5.45
586.438	5.24
586.777	5.36
587.115	5.43
587.454	5.57
587.792	5.58
588.13	5.56
588.469	5.43
588.807	5.59
589.145	5.46
589.483	5.2
589.821	5.68
590.159	5.41
590.497	5.53
590.835	5.28
591.173	5.45
591.511	5.38
591.849	5.45
592.187	5.35
592.524	5.44
592.862	5.4
593.2	5.65
593.537	5.18
593.875	5.56
594.212	5.27
594.55	5.38
594.887	5.37
595.224	5.68
595.561	5.18
595.899	5.14
596.236	5.53
596.573	5.48
596.91	5.43
597.247	5.48
597.584	5.37
597.921	5.41
598.258	5.46
598.594	5.08
598.931	5.3
599.268	5.4
599.604	5.23
599.941	5.43
600.277	5.18
600.614	5.58
600.95	5.46
601.287	5.57
601.623	5.41
601.959	5.39
602.296	5.36
602.632	5.55
602.968	5.37
603.304	5.43
603.64	5.29
603.976	5.08
604.312	5.53
604.648	5.24
604.984	5.44
605.319	5.21
605.655	5.27
605.991	5.51
606.326	5.43
606.662	5.31
606.998	5.26
607.333	5.27
607.668	5.36
608.004	5.32
608.339	5.31
608.674	5.38
609.01	5.26
609.345	5.32
609.68	5.3
610.015	5.33
610.35	5.25
610.685	5.3
611.02	5.4
611.355	5.39
611.689	5.33
612.024	5.09
612.359	5.33
612.694	5.26
613.028	5.21
613.363	5.42
613.697	5.21
614.032	5.14
614.366	5.17
614.7	5.25
615.035	5.4
615.369	5.21
615.703	5.57
616.037	5.15
616.371	5.33
616.705	5.18
617.039	5.4
617.373	5.38
617.707	5.32
618.041	5.52
618.375	5.32
618.709	5.51
619.042	5.73
619.376	5.49
619.71	5.31
620.043	5.56
620.377	5.45
620.71	5.35
621.043	5.11
621.377	5.08
621.71	5.33
622.043	5.66
622.376	5.66
622.709	5.36
623.043	5.36
623.376	5.5
623.709	5.04
624.041	5.39
624.374	5.13
624.707	5.22
625.04	5.17
625.373	5.44
625.705	5.16
626.038	5.17
626.37	5.47
626.703	5.24
627.035	5.28
627.368	5.25
627.7	5.08
628.032	5.22
628.365	5.48
628.697	5.11
629.029	5.06
629.361	5.22
629.693	5.29
630.025	5.45
630.357	5.39
630.689	5.17
631.021	5.06
631.353	5.23
631.684	5.32
632.016	5.4
632.348	5.27
632.679	5.15
633.011	5.16
633.342	5.12
633.674	5.02
634.005	5.25
634.336	5.46
634.668	5.34
634.999	5.34
635.33	4.6
635.661	5.24
635.992	5.28
636.323	5.39
636.654	5.13
636.985	5.13
637.316	5.11
637.647	4.96
637.977	5.28
638.308	5.53
638.639	5.42
638.969	4.92
639.3	5.61
639.63	5.11
639.961	5.16
640.291	5.39
640.622	5.35
640.952	5.38
641.282	5.23
641.612	5.3
641.943	5.07
642.273	5.04
642.603	5.58
642.933	5.09
643.263	5.07
643.592	4.69
643.922	5.25
644.252	5.42
644.582	5.21
644.911	5.3
645.241	4.78
645.571	5.15
645.9	5.22
646.23	5.27
646.559	5.54
646.888	5.29
647.218	5
647.547	5.37
647.876	5.92
648.205	4.69
648.534	5.17
648.863	5.42
649.192	4.95
649.521	5.21
649.85	4.96
650.179	4.98
650.508	4.86
650.837	5.43
651.165	5.27
651.494	5.07
651.822	5.2
652.151	5.4
652.479	4.98
652.808	4.59
653.136	4.78
653.465	5.05
653.793	5.21
654.121	4.84
654.449	4.51
654.777	5.01
655.105	5
655.433	4.99
655.761	5.09
656.089	5.34
656.417	5.09
656.745	4.73
657.073	4.62
657.4	5.35
657.728	4.91
658.056	4.44
658.383	5.18
658.711	5.05
659.038	5.01
659.365	6.1
659.693	5.46
660.02	5.55
660.347	4.8
660.674	4.99
661.001	5.27
661.329	5.01
661.656	5.09
661.982	5.03
662.309	5.22
662.636	5.09
662.963	4.68
663.29	4.52
663.616	5.18
663.943	5.26
664.27	5.04
664.596	4.95
664.923	5.19
665.249	5.23
665.576	5.29
665.902	4.49
666.228	4.57
666.554	5.99
666.881	4.97
667.207	5.52
667.533	5.19
667.859	5.6
668.185	5.26
668.511	5.08
668.837	5.54
669.162	4.81
669.488	4.64
669.814	4.9
670.139	5.02
670.465	5.06
670.791	4.8
671.116	5.06
671.442	5.13
671.767	5.01
672.092	5.14
672.418	4.96
672.743	5.19
673.068	5.03
673.393	5.12
673.718	5.31
674.043	5.42
674.368	4.72
674.693	4.93
675.018	5.41
675.343	5.07
675.667	5.36
675.992	5.13
676.317	4.97
676.641	5.27
676.966	4.97
677.29	5.41
677.615	5.54
677.939	5.31
678.264	5.64
678.588	4.91
678.912	5.45
679.236	5.06
679.56	4.74
679.885	4.9
680.209	4.93
680.532	5.44
680.856	4.98
681.18	4.95
681.504	5.06
681.828	5.01
682.152	5.55
682.475	5.31
682.799	5.57
683.122	4.63
683.446	5.29
683.769	5.17
684.093	5.57
684.416	4.01
684.739	5.16
685.062	5.88
685.386	5.26
685.709	5.57
686.032	5.35
686.355	5.99
686.678	5.11
687.001	5.01
687.324	4.51
687.646	5.38
687.969	5.09
688.292	5.34
688.614	5.4
688.937	5.36
689.26	5.33
689.582	5.61
689.904	5.19
690.227	5.07
690.549	5.11
690.871	5.67
691.194	5.24
691.516	5.29
691.838	5.08
