Data from 0048_chest_Reflection__0__181.txt Node

Date: Fri Nov 04 16:20:34 CDT 2022
User: ToomeyLab
Spectrometer: FLMS14357
Trigger mode: 0
Integration Time (sec): 1.000000E-2
Scans to average: 100
Electric dark correction enabled: true
Nonlinearity correction enabled: false
Boxcar width: 0
XAxis mode: Wavelengths
Number of Pixels in Spectrum: 2048
>>>>>Begin Spectral Data<<<<<
189.047	-240.64
189.435	-240.64
189.823	-240.64
190.211	299.25
190.599	214.89
190.987	119.18
191.375	73.56
191.763	51.91
192.151	55.01
192.538	73.55
192.926	-18.86
193.314	548.58
193.702	146.84
194.089	113.44
194.477	-152.6
194.864	-25.06
195.252	168.02
195.639	193.19
196.027	188
196.414	-179.96
196.801	93.73
197.189	10902.78
197.576	177.65
197.963	-6.05
198.351	-35.63
198.738	14.4
199.125	15.83
199.512	-140.61
199.899	-20.12
200.286	-15.37
200.673	-13.89
201.06	43.61
201.447	38.52
201.833	95.74
202.22	-30.05
202.607	35.3
202.994	40.77
203.38	28.71
203.767	-2.69
204.154	62.38
204.54	46.04
204.927	0.82
205.313	45.27
205.699	46.28
206.086	32.21
206.472	13.81
206.858	-5.65
207.245	26.97
207.631	-10.15
208.017	-3.29
208.403	49.72
208.789	45.15
209.175	13.78
209.561	-85.3
209.947	-41.09
210.333	26.25
210.719	-4.01
211.105	-17.75
211.491	14.4
211.876	34.12
212.262	0.12
212.648	-2.41
213.034	38.92
213.419	-23.08
213.805	-25.18
214.19	-48.71
214.576	9.05
214.961	16.42
215.346	-21.88
215.732	1.86
216.117	7.76
216.502	30.04
216.888	-32.39
217.273	2.8
217.658	-1.72
218.043	-0.4
218.428	39.44
218.813	-6.47
219.198	-1.41
219.583	-26.11
219.968	8.66
220.353	-31.22
220.738	2.14
221.122	7.86
221.507	11.78
221.892	-6.66
222.276	-8.32
222.661	-5.27
223.046	-6.04
223.43	12.26
223.815	-1.5
224.199	1.72
224.583	-3.4
224.968	-2.53
225.352	3.64
225.736	-4.62
226.121	-4.64
226.505	0.16
226.889	1.01
227.273	3.55
227.657	1.92
228.041	2.4
228.425	3.41
228.809	3.97
229.193	1.73
229.577	3.13
229.961	4.68
230.344	3.14
230.728	2.03
231.112	1.52
231.495	1.7
231.879	3.52
232.263	1.73
232.646	1.9
233.03	2.1
233.413	-0.05
233.797	1.53
234.18	2.11
234.563	2.85
234.946	0.28
235.33	3.79
235.713	2.35
236.096	2.25
236.479	2.16
236.862	2.54
237.245	2.26
237.628	2.26
238.011	-0.36
238.394	1.32
238.777	2.92
239.16	1.91
239.543	2.54
239.925	2.58
240.308	2.03
240.691	1.05
241.073	2.18
241.456	2.45
241.838	0.97
242.221	2.16
242.603	1.8
242.986	1.76
243.368	2.43
243.75	2.22
244.133	2.3
244.515	2.41
244.897	2.36
245.279	2.55
245.661	2.4
246.043	2.4
246.425	1.34
246.807	3.43
247.189	1.95
247.571	3.14
247.953	2.67
248.335	2.17
248.717	2.18
249.098	2.35
249.48	2.27
249.862	2.64
250.243	2.46
250.625	1.96
251.006	2.48
251.388	2.16
251.769	3.01
252.151	2.47
252.532	2.16
252.913	2.16
253.295	2.66
253.676	2.53
254.057	1.97
254.438	1.9
254.819	2.44
255.2	1.72
255.581	3.14
255.962	2.46
256.343	1.7
256.724	1.67
257.105	1.31
257.486	2.39
257.867	3.68
258.247	2.41
258.628	2.1
259.009	1.35
259.389	2.44
259.77	2.75
260.15	1.94
260.531	2.8
260.911	2.36
261.292	2.26
261.672	2.21
262.052	2.24
262.432	2.32
262.813	1.94
263.193	1.58
263.573	2.16
263.953	2.25
264.333	2.03
264.713	2.81
265.093	1.83
265.473	2.59
265.853	1.6
266.233	1.89
266.612	3.31
266.992	2.5
267.372	1.32
267.752	2.35
268.131	2.48
268.511	1.83
268.89	2.54
269.27	2.4
269.649	2.49
270.029	1.95
270.408	2.24
270.787	2.52
271.167	2
271.546	2.74
271.925	2.32
272.304	2.15
272.683	2.01
273.062	2.24
273.441	2.16
273.82	2.02
274.199	2.14
274.578	2.02
274.957	1.89
275.336	1.63
275.715	2.07
276.093	2.23
276.472	1.78
276.851	2.29
277.229	1.8
277.608	1.99
277.986	2.71
278.365	2.57
278.743	2.26
279.122	1.76
279.5	2.1
279.878	2.16
280.257	1.59
280.635	1.49
281.013	1.86
281.391	2.35
281.769	2.14
282.147	1.71
282.525	2.15
282.903	2.86
283.281	2.75
283.659	1.97
284.037	2.29
284.415	2.25
284.792	2.12
285.17	1.73
285.548	2.33
285.925	2.11
286.303	2.5
286.68	2.67
287.058	2.32
287.435	1.99
287.813	2.12
288.19	2.35
288.567	2.21
288.945	2.09
289.322	2.16
289.699	1.95
290.076	2.52
290.453	1.97
290.83	1.89
291.207	1.9
291.584	2.1
291.961	2.46
292.338	2.2
292.715	2.54
293.092	2.44
293.469	2.34
293.845	1.75
294.222	2.39
294.599	1.88
294.975	2.69
295.352	2.41
295.728	2.39
296.105	2.2
296.481	2.05
296.858	1.92
297.234	2.42
297.61	2.44
297.986	2.18
298.363	1.81
298.739	2.49
299.115	2.38
299.491	2.21
299.867	2.15
300.243	2.16
300.619	2.72
300.995	2.79
301.371	2.9
301.746	2.27
302.122	2.32
302.498	2.28
302.874	2.96
303.249	2.33
303.625	2.48
304	2.73
304.376	2.07
304.751	2.32
305.127	1.52
305.502	2.48
305.878	2.38
306.253	2.66
306.628	2.27
307.003	2.74
307.378	2.24
307.754	2.41
308.129	2.44
308.504	1.95
308.879	2.65
309.254	2.62
309.629	2.4
310.003	2.6
310.378	2.69
310.753	2.48
311.128	2.17
311.502	2.25
311.877	2.43
312.252	2.41
312.626	2.43
313.001	2.62
313.375	2.51
313.75	2.08
314.124	2.01
314.498	2.5
314.873	2.49
315.247	2.6
315.621	2.91
315.995	2.78
316.369	1.86
316.743	2.69
317.117	2.6
317.491	2.84
317.865	2
318.239	2.68
318.613	2.62
318.987	2.64
319.361	2.34
319.734	3.34
320.108	2.35
320.482	2.22
320.855	2.75
321.229	2.49
321.602	2.86
321.976	2.64
322.349	3.4
322.723	2.53
323.096	3.12
323.469	2.58
323.843	2.88
324.216	2.69
324.589	2.57
324.962	2.89
325.335	2.68
325.708	2.58
326.081	2.84
326.454	2.87
326.827	2.54
327.2	2.56
327.573	2.7
327.945	2.64
328.318	2.35
328.691	2.45
329.063	2.17
329.436	2.9
329.809	2.68
330.181	2.76
330.553	2.54
330.926	2.35
331.298	3
331.671	2.7
332.043	2.78
332.415	2.81
332.787	2.45
333.159	1.77
333.532	2.48
333.904	2.69
334.276	2.68
334.648	2.81
335.02	2.47
335.391	2.77
335.763	2.72
336.135	2.72
336.507	2.66
336.879	2.7
337.25	2.91
337.622	2.68
337.993	2.77
338.365	2.53
338.736	3.12
339.108	3.4
339.479	2.87
339.851	2.59
340.222	2.27
340.593	3.18
340.964	2.86
341.336	2.69
341.707	2.47
342.078	2.45
342.449	3.07
342.82	2.77
343.191	2.14
343.562	2.51
343.933	2.54
344.303	2.8
344.674	3.13
345.045	2.35
345.416	2.54
345.786	2.97
346.157	2.51
346.527	2.95
346.898	2.78
347.268	2.66
347.639	2.82
348.009	2.96
348.38	2.83
348.75	2.42
349.12	2.65
349.49	2.99
349.861	2.3
350.231	3.03
350.601	2.64
350.971	2.63
351.341	2.47
351.711	2.59
352.081	2.85
352.45	2.84
352.82	2.76
353.19	2.8
353.56	2.65
353.929	2.54
354.299	3.1
354.669	3.14
355.038	3.32
355.408	2.69
355.777	2.81
356.147	2.74
356.516	2.65
356.885	2.59
357.254	2.85
357.624	2.88
357.993	2.67
358.362	2.85
358.731	2.74
359.1	2.84
359.469	2.62
359.838	2.96
360.207	2.78
360.576	2.86
360.945	2.87
361.314	2.9
361.682	2.69
362.051	2.89
362.42	2.98
362.788	2.71
363.157	2.79
363.525	2.77
363.894	2.68
364.262	2.91
364.631	2.89
364.999	3.05
365.367	2.79
365.735	3.13
366.104	2.65
366.472	3.07
366.84	2.29
367.208	2.87
367.576	2.95
367.944	2.96
368.312	2.91
368.68	2.63
369.048	2.64
369.416	2.61
369.783	2.51
370.151	2.71
370.519	3.16
370.886	2.65
371.254	2.76
371.621	2.78
371.989	2.78
372.356	2.98
372.724	3.04
373.091	2.97
373.458	2.97
373.826	3.11
374.193	2.82
374.56	2.68
374.927	2.92
375.294	2.46
375.661	2.74
376.028	2.73
376.395	3.07
376.762	3.11
377.129	2.92
377.496	3.04
377.863	3.1
378.229	2.91
378.596	2.89
378.963	2.75
379.329	2.72
379.696	2.93
380.062	3.06
380.429	2.78
380.795	2.75
381.161	2.81
381.528	3.01
381.894	2.42
382.26	2.94
382.626	2.9
382.993	2.89
383.359	2.87
383.725	3
384.091	2.99
384.457	3.04
384.823	3
385.188	3.1
385.554	2.73
385.92	2.53
386.286	2.93
386.651	2.94
387.017	2.64
387.383	2.97
387.748	2.64
388.114	3
388.479	3.3
388.845	3.16
389.21	3.09
389.575	3.34
389.94	3.15
390.306	2.77
390.671	3
391.036	2.76
391.401	3.12
391.766	2.66
392.131	2.82
392.496	2.92
392.861	3.13
393.226	2.76
393.591	2.99
393.956	3.19
394.32	2.86
394.685	3.14
395.05	3.14
395.414	2.99
395.779	2.94
396.143	2.96
396.508	3.03
396.872	3.08
397.236	3
397.601	3.11
397.965	2.84
398.329	2.83
398.694	3.18
399.058	3.25
399.422	3.03
399.786	3.02
400.15	2.85
400.514	2.97
400.878	2.9
401.242	3.07
401.605	2.93
401.969	3.2
402.333	2.96
402.697	2.88
403.06	3.1
403.424	3.07
403.787	3.27
404.151	3.14
404.514	3.08
404.878	3
405.241	2.98
405.604	3.16
405.968	2.92
406.331	2.9
406.694	3.1
407.057	3.1
407.42	3.1
407.783	3
408.146	3.13
408.509	2.97
408.872	3.16
409.235	3.15
409.598	3.08
409.961	3.34
410.323	3.18
410.686	3.12
411.049	3.14
411.411	2.93
411.774	3.11
412.136	3.18
412.499	3.27
412.861	3.14
413.223	3.06
413.586	3.09
413.948	3.21
414.31	3.21
414.672	3.1
415.035	3.41
415.397	3.06
415.759	3.21
416.121	3.06
416.483	3.18
416.845	3.1
417.206	3.04
417.568	3.09
417.93	3.1
418.292	3.11
418.653	3.17
419.015	2.94
419.377	2.98
419.738	2.99
420.1	3.11
420.461	3.02
420.822	3.04
421.184	3.12
421.545	3.05
421.906	3.06
422.267	3.03
422.629	3.15
422.99	3.05
423.351	3.01
423.712	3.09
424.073	3.14
424.434	3.06
424.795	3.06
425.155	3.19
425.516	3.11
425.877	3.09
426.238	3.04
426.598	3.09
426.959	2.99
427.32	3.04
427.68	3.09
428.041	2.99
428.401	3.12
428.761	3.24
429.122	3.13
429.482	3.28
429.842	2.9
430.202	3.35
430.563	3.15
430.923	3.31
431.283	3.13
431.643	3.27
432.003	3.41
432.363	3.39
432.722	3.18
433.082	3.35
433.442	3.18
433.802	3.15
434.161	3.27
434.521	3.31
434.881	3.3
435.24	3.09
435.6	3.27
435.959	3.14
436.319	3.33
436.678	3.24
437.037	3.13
437.396	3.32
437.756	3.3
438.115	3.08
438.474	3.26
438.833	3.3
439.192	3.21
439.551	3.31
439.91	3.44
440.269	3.27
440.628	3.32
440.987	3.33
441.345	3.24
441.704	3.23
442.063	3.14
442.421	3.24
442.78	3.23
443.138	3.32
443.497	3.2
443.855	3.22
444.214	3.32
444.572	3.24
444.93	3.34
445.288	3.37
445.647	3.27
446.005	3.33
446.363	3.37
446.721	3.24
447.079	3.24
447.437	3.22
447.795	3.31
448.153	3.21
448.51	3.26
448.868	3.28
449.226	3.23
449.584	3.3
449.941	3.22
450.299	3.29
450.656	3.31
451.014	3.36
451.371	3.39
451.729	3.43
452.086	3.3
452.443	3.34
452.801	3.5
453.158	3.35
453.515	3.42
453.872	3.26
454.229	3.48
454.586	3.3
454.943	3.41
455.3	3.36
455.657	3.47
456.014	3.38
456.371	3.33
456.727	3.65
457.084	3.43
457.441	3.38
457.797	3.41
458.154	3.49
458.51	3.45
458.867	3.31
459.223	3.42
459.58	3.68
459.936	3.28
460.292	3.38
460.648	3.43
461.005	3.41
461.361	3.42
461.717	3.45
462.073	3.45
462.429	3.4
462.785	3.35
463.141	3.62
463.496	3.47
463.852	3.44
464.208	3.49
464.564	3.34
464.919	3.55
465.275	3.57
465.631	3.46
465.986	3.49
466.342	3.52
466.697	3.59
467.052	3.42
467.408	3.51
467.763	3.48
468.118	3.56
468.473	3.59
468.829	3.51
469.184	3.42
469.539	3.42
469.894	3.59
470.249	3.43
470.603	3.57
470.958	3.51
471.313	3.44
471.668	3.49
472.023	3.36
472.377	3.57
472.732	3.67
473.086	3.51
473.441	3.52
473.795	3.57
474.15	3.6
474.504	3.53
474.859	3.53
475.213	3.45
475.567	3.48
475.921	3.43
476.275	3.69
476.63	3.58
476.984	3.6
477.338	3.63
477.692	3.61
478.045	3.74
478.399	3.52
478.753	3.48
479.107	3.65
479.461	3.71
479.814	3.69
480.168	3.56
480.521	3.52
480.875	3.56
481.228	3.63
481.582	3.7
481.935	3.61
482.289	3.68
482.642	3.59
482.995	3.66
483.348	3.64
483.701	3.66
484.055	3.54
484.408	3.56
484.761	3.55
485.114	3.43
485.466	3.41
485.819	3.41
486.172	3.39
486.525	3.42
486.878	3.49
487.23	3.54
487.583	3.49
487.936	3.64
488.288	3.52
488.641	3.52
488.993	3.57
489.345	3.48
489.698	3.47
490.05	3.49
490.402	3.54
490.754	3.57
491.107	3.6
491.459	3.67
491.811	3.6
492.163	3.68
492.515	3.73
492.866	3.69
493.218	3.61
493.57	3.57
493.922	3.65
494.274	3.64
494.625	3.66
494.977	3.78
495.328	3.73
495.68	3.69
496.031	3.75
496.383	3.8
496.734	3.73
497.086	3.88
497.437	3.8
497.788	3.89
498.139	3.74
498.49	3.75
498.842	3.93
499.193	3.82
499.544	3.78
499.894	3.74
500.245	3.79
500.596	3.81
500.947	3.86
501.298	3.78
501.648	3.94
501.999	4.08
502.35	3.92
502.7	3.76
503.051	3.9
503.401	3.83
503.752	3.97
504.102	3.88
504.452	3.92
504.803	4.09
505.153	4.01
505.503	4.04
505.853	4.06
506.203	4
506.553	4.08
506.903	4.06
507.253	3.99
507.603	3.97
507.953	4.03
508.303	4.02
508.652	3.99
509.002	4.04
509.352	4.04
509.701	3.96
510.051	3.99
510.4	3.95
510.75	4.04
511.099	4.04
511.449	3.93
511.798	3.99
512.147	4.04
512.496	4.12
512.846	3.93
513.195	4.18
513.544	4.08
513.893	4.07
514.242	4.02
514.591	3.98
514.939	4.19
515.288	4.16
515.637	3.99
515.986	4.13
516.334	4.19
516.683	4.23
517.032	4.13
517.38	4.19
517.729	4.26
518.077	4.22
518.426	4.23
518.774	4.2
519.122	4.28
519.47	4.16
519.819	4.16
520.167	4.21
520.515	4.15
520.863	4.09
521.211	4.14
521.559	4.23
521.907	4.23
522.255	4.29
522.602	4.36
522.95	4.22
523.298	4.36
523.645	4.27
523.993	4.3
524.341	4.4
524.688	4.37
525.036	4.32
525.383	4.43
525.73	4.37
526.078	4.38
526.425	4.47
526.772	4.38
527.119	4.38
527.466	4.35
527.814	4.28
528.161	4.32
528.508	4.4
528.854	4.31
529.201	4.37
529.548	4.29
529.895	4.29
530.242	4.27
530.588	4.22
530.935	4.21
531.282	4.28
531.628	4.23
531.975	4.36
532.321	4.42
532.667	4.37
533.014	4.5
533.36	4.48
533.706	4.55
534.052	4.54
534.399	4.61
534.745	4.48
535.091	4.39
535.437	4.43
535.783	4.43
536.129	4.54
536.474	4.53
536.82	4.55
537.166	4.56
537.512	4.75
537.857	4.64
538.203	4.55
538.549	4.5
538.894	4.68
539.239	4.65
539.585	4.68
539.93	4.71
540.276	4.78
540.621	4.71
540.966	4.86
541.311	4.71
541.656	4.82
542.001	4.67
542.346	4.78
542.691	4.76
543.036	4.64
543.381	4.66
543.726	4.68
544.071	4.72
544.415	4.75
544.76	4.76
545.105	4.81
545.449	4.84
545.794	4.81
546.138	4.93
546.483	4.86
546.827	4.95
547.171	5.15
547.516	5.02
547.86	4.95
548.204	4.97
548.548	4.98
548.892	5
549.236	5.03
549.58	5.04
549.924	5.13
550.268	5.26
550.612	5.11
550.956	5.17
551.3	5.19
551.643	5.4
551.987	5.24
552.33	5.15
552.674	5.2
553.017	5.41
553.361	5.35
553.704	5.31
554.048	5.36
554.391	5.27
554.734	5.31
555.077	5.41
555.42	5.39
555.764	5.54
556.107	5.58
556.45	5.56
556.793	5.53
557.135	5.49
557.478	5.46
557.821	5.64
558.164	5.69
558.507	5.61
558.849	5.71
559.192	5.58
559.534	5.55
559.877	5.7
560.219	5.76
560.562	5.79
560.904	5.79
561.246	5.63
561.589	5.72
561.931	5.73
562.273	5.73
562.615	5.56
562.957	5.83
563.299	5.76
563.641	5.76
563.983	5.82
564.325	5.86
564.667	5.84
565.008	5.86
565.35	5.92
565.692	5.96
566.033	6.03
566.375	6.12
566.716	5.96
567.058	5.98
567.399	6
567.741	5.86
568.082	6.12
568.423	6.08
568.764	6.1
569.105	6.09
569.447	6.08
569.788	6.08
570.129	6.13
570.47	6.31
570.811	6.18
571.151	6.18
571.492	6.28
571.833	6.22
572.174	6.2
572.514	6.34
572.855	6.11
573.195	6.46
573.536	6.41
573.876	6.31
574.217	6.31
574.557	6.28
574.898	6.4
575.238	6.41
575.578	6.59
575.918	6.38
576.258	6.59
576.598	6.53
576.938	6.62
577.278	6.41
577.618	6.49
577.958	6.6
578.298	6.58
578.638	6.76
578.977	6.75
579.317	6.77
579.657	6.74
579.996	6.86
580.336	6.69
580.675	6.62
581.014	6.78
581.354	6.9
581.693	7.1
582.032	6.84
582.372	7.05
582.711	6.88
583.05	7.14
583.389	6.95
583.728	7.11
584.067	7.13
584.406	6.92
584.745	7.24
585.083	6.86
585.422	7.22
585.761	7.2
586.1	7.14
586.438	7.02
586.777	7.33
587.115	7.12
587.454	7.39
587.792	7.51
588.13	7.39
588.469	7.61
588.807	7.7
589.145	7.4
589.483	7.1
589.821	7.6
590.159	7.24
590.497	7.48
590.835	7.29
591.173	7.48
591.511	7.57
591.849	7.86
592.187	7.41
592.524	7.56
592.862	7.62
593.2	7.66
593.537	7.8
593.875	7.81
594.212	7.54
594.55	7.7
594.887	7.82
595.224	7.79
595.561	7.61
595.899	7.87
596.236	7.97
596.573	7.7
596.91	7.96
597.247	7.74
597.584	7.82
597.921	8.14
598.258	8.16
598.594	7.6
598.931	7.97
599.268	8.15
599.604	8.05
599.941	8.14
600.277	8.08
600.614	8.23
600.95	8.25
601.287	8.12
601.623	8.35
601.959	8.47
602.296	8.42
602.632	8.33
602.968	8.3
603.304	8.47
603.64	8.47
603.976	8.41
604.312	8.54
604.648	8.6
604.984	8.48
605.319	8.48
605.655	8.33
605.991	8.71
606.326	8.54
606.662	8.45
606.998	8.39
607.333	8.26
607.668	8.64
608.004	8.49
608.339	8.46
608.674	8.83
609.01	8.71
609.345	8.5
609.68	8.7
610.015	8.74
610.35	8.8
610.685	8.91
611.02	8.98
611.355	9.03
611.689	9.02
612.024	8.97
612.359	8.79
612.694	8.98
613.028	9.05
613.363	9.28
613.697	8.81
614.032	9.17
614.366	9.15
614.7	9.25
615.035	9.48
615.369	9.06
615.703	9.69
616.037	9.5
616.371	9.45
616.705	9.21
617.039	9.51
617.373	9.62
617.707	9.42
618.041	9.61
618.375	9.57
618.709	9.8
619.042	9.57
619.376	9.85
619.71	9.63
620.043	9.79
620.377	9.98
620.71	9.93
621.043	9.78
621.377	9.68
621.71	9.78
622.043	10.01
622.376	9.69
622.709	10
623.043	10.04
623.376	10.1
623.709	9.69
624.041	9.98
624.374	10.1
624.707	9.89
625.04	10.01
625.373	10.34
625.705	10.12
626.038	10.22
626.37	10.26
626.703	10.12
627.035	10.27
627.368	10.07
627.7	10.15
628.032	10.22
628.365	10.54
628.697	10.23
629.029	10.35
629.361	10.07
629.693	10.25
630.025	10.66
630.357	10.27
630.689	10.39
631.021	10.42
631.353	10.22
631.684	10.45
632.016	10.43
632.348	10.52
632.679	10.54
633.011	10.67
633.342	10.8
633.674	10.43
634.005	10.64
634.336	10.58
634.668	10.64
634.999	11.02
635.33	10.46
635.661	10.78
635.992	10.94
636.323	10.83
636.654	10.71
636.985	10.89
637.316	11.07
637.647	11.02
637.977	11.24
638.308	11.47
638.639	11.14
638.969	10.84
639.3	11.56
639.63	11.18
639.961	11.2
640.291	11.56
640.622	10.96
640.952	10.77
641.282	11.3
641.612	11.3
641.943	11.22
642.273	11.22
642.603	11.27
642.933	11.58
643.263	11.1
643.592	11.45
643.922	12.01
644.252	11.48
644.582	11.75
644.911	11.96
645.241	11.34
645.571	11.39
645.9	12.19
646.23	11.41
646.559	12.03
646.888	11.83
647.218	11.63
647.547	11.89
647.876	11.92
648.205	11.9
648.534	11.7
648.863	12.24
649.192	12.17
649.521	12.2
649.85	12.14
650.179	11.96
650.508	11.99
650.837	12.05
651.165	12.31
651.494	11.89
651.822	11.84
652.151	12.08
652.479	12.12
652.808	12.05
653.136	12.21
653.465	12.27
653.793	12.39
654.121	11.98
654.449	12.04
654.777	11.97
655.105	12.09
655.433	12.72
655.761	12.13
656.089	12.34
656.417	12.22
656.745	11.95
657.073	12.02
657.4	12.48
657.728	12.26
658.056	12.32
658.383	12.31
658.711	12.01
659.038	12.71
659.365	13.58
659.693	12.58
660.02	12.59
660.347	12.68
660.674	12.66
661.001	12.65
661.329	12.91
661.656	13.03
661.982	12.82
662.309	12.86
662.636	12.82
662.963	12.82
663.29	12.68
663.616	13.08
663.943	12.92
664.27	13.09
664.596	12.44
664.923	13.13
665.249	13.01
665.576	13.63
665.902	12.7
666.228	12.9
666.554	13.69
666.881	13.44
667.207	13.25
667.533	13.32
667.859	13.24
668.185	13.05
668.511	13.37
668.837	12.79
669.162	13.33
669.488	13.35
669.814	13.12
670.139	13.42
670.465	13.55
670.791	13.52
671.116	13.49
671.442	13.84
671.767	13.58
672.092	13.65
672.418	13.81
672.743	14.15
673.068	13.74
673.393	14
673.718	14.16
674.043	13.43
674.368	13.42
674.693	14.3
675.018	13.73
675.343	13.95
675.667	13.87
675.992	14.07
676.317	14.45
676.641	14.17
676.966	13.92
677.29	14.49
677.615	14.48
677.939	14.22
678.264	14.25
678.588	14.42
678.912	14.74
679.236	14.03
679.56	14.38
679.885	14.03
680.209	14.07
680.532	14.65
680.856	14.05
681.18	14.43
681.504	14.67
681.828	14.27
682.152	15.05
682.475	14.61
682.799	14.94
683.122	14.94
683.446	14.3
683.769	14.35
684.093	14.96
684.416	14.53
684.739	14.11
685.062	15.43
685.386	14.82
685.709	14.82
686.032	15.18
686.355	15.54
686.678	14.86
687.001	15.05
687.324	15.51
687.646	15.19
687.969	15.3
