Data from 0048_forehead_Reflection__4__195.txt Node

Date: Fri Nov 04 16:25:49 CDT 2022
User: ToomeyLab
Spectrometer: FLMS14357
Trigger mode: 0
Integration Time (sec): 1.000000E-2
Scans to average: 100
Electric dark correction enabled: true
Nonlinearity correction enabled: false
Boxcar width: 0
XAxis mode: Wavelengths
Number of Pixels in Spectrum: 2048
>>>>>Begin Spectral Data<<<<<
189.047	-225.26
189.435	-225.26
189.823	-225.26
190.211	-8.91
190.599	107.34
190.987	34.46
191.375	262.01
191.763	254.54
192.151	72.41
192.538	47.32
192.926	145.74
193.314	228.25
193.702	42.67
194.089	-21.83
194.477	-65.84
194.864	1.72
195.252	72.98
195.639	-79.16
196.027	106.03
196.414	-44.48
196.801	327.17
197.189	9680.56
197.576	139.93
197.963	-129.7
198.351	6.47
198.738	58.01
199.125	5.16
199.512	-57.45
199.899	21.62
200.286	-2.58
200.673	33.94
201.06	22.14
201.447	4.76
201.833	43.69
202.22	20.98
202.607	67.99
202.994	35.2
203.38	47.07
203.767	34.13
204.154	17.31
204.54	-26.53
204.927	26.36
205.313	44.47
205.699	88.52
206.086	9.11
206.472	-6.35
206.858	27.3
207.245	14.77
207.631	5.68
208.017	31.05
208.403	26.41
208.789	41.75
209.175	21.7
209.561	-17.44
209.947	8.82
210.333	25.54
210.719	10.94
211.105	18.76
211.491	-0.08
211.876	24.54
212.262	16.11
212.648	6.7
213.034	10.76
213.419	0.63
213.805	11.7
214.19	-2.68
214.576	-4.73
214.961	35.91
215.346	22.64
215.732	28.79
216.117	-6.14
216.502	23.25
216.888	34.65
217.273	-2.52
217.658	19.95
218.043	43.22
218.428	22.71
218.813	-0.49
219.198	8.1
219.583	-21.25
219.968	5.98
220.353	-1.64
220.738	-11.43
221.122	13.65
221.507	9.72
221.892	-12.11
222.276	8.63
222.661	12
223.046	2.27
223.43	10.16
223.815	-6.55
224.199	18.43
224.583	3.43
224.968	6.6
225.352	11.5
225.736	-2.88
226.121	2.4
226.505	8.78
226.889	14.16
227.273	7.74
227.657	3.73
228.041	4.89
228.425	5.85
228.809	5.22
229.193	4.54
229.577	2.82
229.961	4.52
230.344	3.24
230.728	3.09
231.112	2.54
231.495	3.89
231.879	3.62
232.263	3.25
232.646	4.42
233.03	2.49
233.413	2.76
233.797	4.52
234.18	2.14
234.563	4.88
234.946	4.76
235.33	5.32
235.713	3.28
236.096	4.11
236.479	3.63
236.862	3.19
237.245	3.02
237.628	3.11
238.011	1.04
238.394	5.44
238.777	4.55
239.16	4.22
239.543	5.33
239.925	5
240.308	3.25
240.691	3.92
241.073	3.47
241.456	3.92
241.838	2.81
242.221	3.14
242.603	3.29
242.986	2.68
243.368	3.8
243.75	3.76
244.133	3.42
244.515	3.16
244.897	3.67
245.279	3.35
245.661	4.06
246.043	4.31
246.425	3.9
246.807	4.98
247.189	4
247.571	4.2
247.953	3.3
248.335	3.08
248.717	3.2
249.098	3.31
249.48	3.53
249.862	3.68
250.243	3.45
250.625	3.25
251.006	3.66
251.388	3.94
251.769	4.05
252.151	4.34
252.532	4.15
252.913	4.08
253.295	3.94
253.676	3.03
254.057	3.11
254.438	3.84
254.819	3.74
255.2	3.26
255.581	3.89
255.962	3.82
256.343	2.88
256.724	4.3
257.105	3.41
257.486	4.34
257.867	5.65
258.247	4.41
258.628	4.07
259.009	3.53
259.389	4.15
259.77	3.77
260.15	3.46
260.531	3.69
260.911	3.27
261.292	3.16
261.672	3.4
262.052	3.28
262.432	3.49
262.813	3.2
263.193	3.18
263.573	3.24
263.953	3.32
264.333	3.5
264.713	4.06
265.093	3.47
265.473	3.29
265.853	2.53
266.233	3.28
266.612	4.26
266.992	4.46
267.372	3.19
267.752	3.45
268.131	3.33
268.511	3.53
268.89	3.42
269.27	3.3
269.649	3.58
270.029	3.3
270.408	3.41
270.787	4.1
271.167	3.45
271.546	4.02
271.925	3.1
272.304	3.37
272.683	3.31
273.062	3.55
273.441	3.37
273.82	3.14
274.199	3.51
274.578	3.34
274.957	3.16
275.336	3.12
275.715	3.49
276.093	3.73
276.472	3.28
276.851	2.76
277.229	3.43
277.608	3.1
277.986	3.52
278.365	4.25
278.743	3.41
279.122	3.9
279.5	3.69
279.878	3.21
280.257	3.26
280.635	3.31
281.013	3.32
281.391	3.29
281.769	3.53
282.147	3.33
282.525	3.9
282.903	3.26
283.281	4.01
283.659	3.13
284.037	3.43
284.415	3.55
284.792	3.36
285.17	3.31
285.548	3.45
285.925	3.31
286.303	3.54
286.68	3.88
287.058	3.4
287.435	3.17
287.813	3.64
288.19	3.56
288.567	3.26
288.945	3.81
289.322	3.63
289.699	3.7
290.076	3.62
290.453	3.58
290.83	3.49
291.207	3.75
291.584	3.75
291.961	3.88
292.338	3.7
292.715	4.07
293.092	3.99
293.469	3.59
293.845	3.7
294.222	4.12
294.599	3.67
294.975	4.01
295.352	3.76
295.728	4.17
296.105	4.56
296.481	4.02
296.858	4.13
297.234	4.79
297.61	4.39
297.986	3.75
298.363	4.16
298.739	4.3
299.115	4.32
299.491	4.47
299.867	4.3
300.243	4.39
300.619	4.59
300.995	4.66
301.371	4.94
301.746	4.6
302.122	4.64
302.498	4.43
302.874	4.9
303.249	4.71
303.625	4.57
304	4.82
304.376	4.5
304.751	4.76
305.127	4.36
305.502	4.68
305.878	4.88
306.253	5.19
306.628	4.51
307.003	4.62
307.378	5.15
307.754	5.49
308.129	4.99
308.504	4.79
308.879	5.25
309.254	5.42
309.629	5.14
310.003	5.4
310.378	5.15
310.753	5.41
311.128	5.15
311.502	5.04
311.877	5.5
312.252	5.39
312.626	5.39
313.001	5.26
313.375	5.4
313.75	5.04
314.124	5.41
314.498	5.62
314.873	5.83
315.247	5.96
315.621	5.94
315.995	5.75
316.369	5.95
316.743	6.07
317.117	5.83
317.491	5.91
317.865	5.58
318.239	6.07
318.613	6
318.987	5.9
319.361	6.27
319.734	6.39
320.108	6.51
320.482	5.49
320.855	6.12
321.229	6.27
321.602	6.15
321.976	5.88
322.349	6.55
322.723	6.31
323.096	6.16
323.469	6.38
323.843	6.46
324.216	6.85
324.589	6.53
324.962	6.62
325.335	6.41
325.708	6.21
326.081	6.07
326.454	6.38
326.827	6.37
327.2	6.85
327.573	6.77
327.945	6.84
328.318	6.28
328.691	6.83
329.063	6.29
329.436	6.9
329.809	6.41
330.181	6.68
330.553	6.53
330.926	7.07
331.298	7.01
331.671	6.71
332.043	6.41
332.415	6.65
332.787	6.55
333.159	6.93
333.532	6.9
333.904	6.72
334.276	6.81
334.648	7.1
335.02	7.35
335.391	7.37
335.763	7.45
336.135	7.45
336.507	7.28
336.879	6.96
337.25	7.49
337.622	7.32
337.993	7.41
338.365	7.3
338.736	7.04
339.108	7.71
339.479	7.55
339.851	7.12
340.222	7.19
340.593	7.78
340.964	7.58
341.336	7.26
341.707	7.47
342.078	7.4
342.449	7.86
342.82	7.66
343.191	7.54
343.562	7.67
343.933	7.89
344.303	7.94
344.674	7.48
345.045	7.39
345.416	7.61
345.786	8.36
346.157	8.57
346.527	7.87
346.898	8.36
347.268	7.89
347.639	8.02
348.009	7.98
348.38	8.07
348.75	7.86
349.12	8
349.49	8.48
349.861	8.02
350.231	7.91
350.601	8.15
350.971	8.3
351.341	8.37
351.711	8.32
352.081	8.36
352.45	8.42
352.82	8.55
353.19	8.17
353.56	8.28
353.929	8.4
354.299	8.6
354.669	8.87
355.038	8.75
355.408	8.28
355.777	8.42
356.147	8.47
356.516	8.33
356.885	8.79
357.254	8.74
357.624	8.82
357.993	8.64
358.362	8.64
358.731	8.93
359.1	8.94
359.469	8.74
359.838	8.7
360.207	8.61
360.576	9.13
360.945	9.27
361.314	9.28
361.682	8.96
362.051	9.33
362.42	9.18
362.788	8.97
363.157	9.02
363.525	9.09
363.894	9.05
364.262	9.09
364.631	9.38
364.999	9.33
365.367	8.96
365.735	9.67
366.104	9.27
366.472	9.39
366.84	9.25
367.208	9.54
367.576	9.42
367.944	9.42
368.312	9.44
368.68	9.53
369.048	9.61
369.416	9.59
369.783	9.4
370.151	9.44
370.519	10.31
370.886	9.67
371.254	9.94
371.621	10
371.989	9.76
372.356	9.92
372.724	10.08
373.091	10.02
373.458	10.01
373.826	10.16
374.193	9.8
374.56	9.76
374.927	10.36
375.294	10.13
375.661	10
376.028	10.06
376.395	10.17
376.762	10.19
377.129	10.18
377.496	10.64
377.863	10.37
378.229	10.13
378.596	10.39
378.963	10.17
379.329	10.14
379.696	10.46
380.062	10.51
380.429	10.4
380.795	10.65
381.161	10.52
381.528	10.6
381.894	10.24
382.26	10.58
382.626	10.48
382.993	11.12
383.359	11.01
383.725	10.55
384.091	10.76
384.457	10.72
384.823	10.82
385.188	11.24
385.554	10.9
385.92	10.57
386.286	10.66
386.651	10.91
387.017	11.14
387.383	10.94
387.748	10.92
388.114	10.82
388.479	11.69
388.845	11.13
389.21	11.55
389.575	11.4
389.94	11.56
390.306	11.28
390.671	11.41
391.036	11.5
391.401	11.65
391.766	11.36
392.131	11.65
392.496	11.61
392.861	11.7
393.226	11.57
393.591	11.64
393.956	11.83
394.32	11.52
394.685	11.93
395.05	11.99
395.414	11.87
395.779	11.87
396.143	11.86
396.508	12.02
396.872	12.15
397.236	12.03
397.601	11.92
397.965	12.23
398.329	12.05
398.694	12.25
399.058	12.2
399.422	12.35
399.786	12.23
400.15	12.31
400.514	12.47
400.878	12.18
401.242	12.36
401.605	12.31
401.969	12.5
402.333	12.67
402.697	12.54
403.06	12.59
403.424	12.61
403.787	12.66
404.151	12.54
404.514	12.76
404.878	12.66
405.241	12.71
405.604	12.67
405.968	12.44
406.331	12.7
406.694	12.61
407.057	12.84
407.42	12.84
407.783	12.81
408.146	12.96
408.509	12.82
408.872	12.89
409.235	12.98
409.598	13.14
409.961	13.33
410.323	13.06
410.686	13.33
411.049	13
411.411	13.19
411.774	13.42
412.136	13.39
412.499	13.32
412.861	13.29
413.223	13.26
413.586	13.29
413.948	13.75
414.31	13.57
414.672	13.75
415.035	13.69
415.397	13.65
415.759	13.99
416.121	13.5
416.483	13.76
416.845	13.79
417.206	13.74
417.568	13.81
417.93	13.76
418.292	13.65
418.653	13.92
419.015	13.73
419.377	13.83
419.738	13.83
420.1	13.88
420.461	13.82
420.822	13.79
421.184	13.81
421.545	13.73
421.906	13.87
422.267	13.88
422.629	14.02
422.99	13.8
423.351	13.76
423.712	13.8
424.073	14.09
424.434	14.04
424.795	14.13
425.155	14.27
425.516	14.21
425.877	14.19
426.238	14.16
426.598	14.2
426.959	14.19
427.32	14.38
427.68	14.37
428.041	14.54
428.401	14.77
428.761	14.75
429.122	14.67
429.482	14.97
429.842	14.69
430.202	15.06
430.563	15.03
430.923	15.08
431.283	14.97
431.643	15.13
432.003	15.15
432.363	15.26
432.722	15.26
433.082	15.12
433.442	15.34
433.802	15.22
434.161	15.35
434.521	15.14
434.881	15.36
435.24	15.19
435.6	15.4
435.959	15.48
436.319	15.56
436.678	15.58
437.037	15.56
437.396	15.61
437.756	15.57
438.115	15.65
438.474	15.75
438.833	15.7
439.192	15.85
439.551	15.84
439.91	15.76
440.269	15.8
440.628	16.03
440.987	15.8
441.345	15.83
441.704	15.9
442.063	15.82
442.421	16.01
442.78	15.9
443.138	15.96
443.497	16.06
443.855	16.07
444.214	16.26
444.572	16.34
444.93	16.34
445.288	16.34
445.647	16.28
446.005	16.37
446.363	16.31
446.721	16.48
447.079	16.42
447.437	16.4
447.795	16.21
448.153	16.25
448.51	16.3
448.868	16.38
449.226	16.26
449.584	16.44
449.941	16.51
450.299	16.65
450.656	16.83
451.014	16.84
451.371	17.04
451.729	17.02
452.086	17.04
452.443	17.13
452.801	17.17
453.158	17.22
453.515	17.3
453.872	17.4
454.229	17.41
454.586	17.31
454.943	17.64
455.3	17.34
455.657	17.47
456.014	17.44
456.371	17.58
456.727	17.59
457.084	17.75
457.441	17.72
457.797	17.61
458.154	17.76
458.51	17.99
458.867	17.78
459.223	17.87
459.58	18.05
459.936	17.95
460.292	17.99
460.648	17.93
461.005	17.78
461.361	17.82
461.717	17.73
462.073	17.78
462.429	17.97
462.785	17.76
463.141	18.07
463.496	18.05
463.852	18.26
464.208	18.52
464.564	18.49
464.919	18.62
465.275	18.88
465.631	18.77
465.986	18.87
466.342	18.66
466.697	18.78
467.052	18.72
467.408	18.72
467.763	18.97
468.118	19.15
468.473	18.91
468.829	18.74
469.184	19.03
469.539	18.98
469.894	19.16
470.249	19.01
470.603	19.17
470.958	19.22
471.313	19.27
471.668	19.26
472.023	19.35
472.377	19.47
472.732	19.29
473.086	19.48
473.441	19.6
473.795	19.43
474.15	19.52
474.504	19.79
474.859	19.62
475.213	19.64
475.567	19.75
475.921	19.81
476.275	19.96
476.63	19.96
476.984	20.03
477.338	20.07
477.692	20.09
478.045	20.24
478.399	19.97
478.753	20.15
479.107	20.25
479.461	20.36
479.814	20.35
480.168	20.19
480.521	20.16
480.875	20.32
481.228	20.4
481.582	20.41
481.935	20.5
482.289	20.4
482.642	20.53
482.995	20.54
483.348	20.35
483.701	20.39
484.055	20.3
484.408	20.38
484.761	20.14
485.114	19.91
485.466	19.76
485.819	19.72
486.172	19.81
486.525	19.92
486.878	20.05
487.23	20.21
487.583	20.38
487.936	20.57
488.288	20.5
488.641	20.56
488.993	20.41
489.345	20.32
489.698	20.37
490.05	20.46
490.402	20.55
490.754	20.66
491.107	20.92
491.459	21.11
491.811	21.08
492.163	21.21
492.515	21.31
492.866	21.16
493.218	20.96
493.57	20.87
493.922	21.01
494.274	21.1
494.625	21.39
494.977	21.63
495.328	21.79
495.68	21.85
496.031	21.99
496.383	22.12
496.734	22.31
497.086	22.34
497.437	22.32
497.788	22.41
498.139	22.38
498.49	22.11
498.842	22.31
499.193	22.34
499.544	22.35
499.894	22.39
500.245	22.51
500.596	22.53
500.947	22.63
501.298	22.75
501.648	22.67
501.999	22.92
502.35	22.94
502.7	22.99
503.051	23.15
503.401	23.28
503.752	23.13
504.102	23.39
504.452	23.28
504.803	23.41
505.153	23.48
505.503	23.58
505.853	23.54
506.203	23.45
506.553	23.69
506.903	23.66
507.253	23.86
507.603	23.85
507.953	23.67
508.303	23.83
508.652	23.85
509.002	24.06
509.352	24.03
509.701	24.02
510.051	23.95
510.4	23.89
510.75	24.07
511.099	23.95
511.449	23.93
511.798	24.03
512.147	24.17
512.496	24.19
512.846	24.41
513.195	24.44
513.544	24.32
513.893	24.44
514.242	24.59
514.591	24.54
514.939	24.75
515.288	24.64
515.637	24.84
515.986	24.82
516.334	24.8
516.683	25.18
517.032	25.03
517.38	25.16
517.729	25.16
518.077	25.29
518.426	25.04
518.774	25.31
519.122	25.21
519.47	25.12
519.819	25.05
520.167	25.13
520.515	24.98
520.863	24.99
521.211	25.12
521.559	25.18
521.907	25.42
522.255	25.64
522.602	25.52
522.95	25.72
523.298	25.9
523.645	26.01
523.993	26
524.341	26.13
524.688	26.13
525.036	26.3
525.383	26.19
525.73	26.21
526.078	26.38
526.425	26.3
526.772	26.19
527.119	26.11
527.466	26.02
527.814	26.09
528.161	26.01
528.508	26.02
528.854	26.11
529.201	26.17
529.548	26.09
529.895	26.02
530.242	25.81
530.588	25.85
530.935	25.93
531.282	25.99
531.628	26.07
531.975	26.2
532.321	26.53
532.667	26.62
533.014	26.67
533.36	26.95
533.706	27.11
534.052	27.01
534.399	26.97
534.745	27
535.091	26.68
535.437	26.86
535.783	27
536.129	27.06
536.474	27.21
536.82	27.38
537.166	27.58
537.512	27.65
537.857	27.64
538.203	27.76
538.549	27.64
538.894	27.82
539.239	27.81
539.585	27.94
539.93	27.99
540.276	28.26
540.621	28.31
540.966	28.42
541.311	28.37
541.656	28.54
542.001	28.63
542.346	28.41
542.691	28.18
543.036	27.97
543.381	27.94
543.726	28.1
544.071	28.19
544.415	28.31
544.76	28.27
545.105	28.52
545.449	28.56
545.794	28.77
546.138	28.92
546.483	29.15
546.827	29.27
547.171	29.27
547.516	29.3
547.86	29.36
548.204	29.48
548.548	29.34
548.892	29.36
549.236	29.49
549.58	29.69
549.924	29.82
550.268	29.98
550.612	29.91
550.956	30.21
551.3	30.29
551.643	30.34
551.987	30.45
552.33	30.6
552.674	30.69
553.017	31.02
553.361	30.72
553.704	30.8
554.048	30.69
554.391	30.73
554.734	30.83
555.077	30.96
555.42	31.02
555.764	31.11
556.107	31.18
556.45	31.13
556.793	31.43
557.135	31.36
557.478	31.57
557.821	31.46
558.164	31.53
558.507	31.59
558.849	31.58
559.192	31.78
559.534	31.76
559.877	31.61
560.219	32.09
560.562	31.83
560.904	32.17
561.246	32.21
561.589	32.17
561.931	32.2
562.273	32.33
562.615	32.4
562.957	32.5
563.299	32.45
563.641	32.5
563.983	32.58
564.325	32.4
564.667	32.73
565.008	32.5
565.35	32.61
565.692	32.91
566.033	33.06
566.375	32.72
566.716	33.09
567.058	32.98
567.399	32.92
567.741	32.92
568.082	33.01
568.423	33.08
568.764	33.04
569.105	33.16
569.447	33.13
569.788	33.32
570.129	33.59
570.47	33.53
570.811	33.73
571.151	33.71
571.492	33.73
571.833	33.6
572.174	33.77
572.514	33.48
572.855	33.84
573.195	33.93
573.536	33.85
573.876	33.93
574.217	34.02
574.557	33.99
574.898	34.04
575.238	34.03
575.578	34.48
575.918	34.34
576.258	34.25
576.598	34.5
576.938	34.66
577.278	34.51
577.618	34.52
577.958	34.72
578.298	34.96
578.638	35.06
578.977	35.17
579.317	35.05
579.657	35.03
579.996	35.3
580.336	35.11
580.675	35.24
581.014	35.5
581.354	35.52
581.693	35.7
582.032	35.7
582.372	35.69
582.711	35.54
583.05	36.22
583.389	36.22
583.728	35.73
584.067	35.92
584.406	35.79
584.745	36.41
585.083	36.21
585.422	36.33
585.761	36.23
586.1	36.56
586.438	36.39
586.777	36.64
587.115	36.65
587.454	36.8
587.792	36.82
588.13	36.67
588.469	36.91
588.807	36.81
589.145	36.94
589.483	36.63
589.821	36.76
590.159	37.05
590.497	37.3
590.835	36.98
591.173	37.02
591.511	37.15
591.849	37.43
592.187	37
592.524	37.04
592.862	37.37
593.2	37.22
593.537	37.57
593.875	37.49
594.212	37.53
594.55	37.85
594.887	37.86
595.224	37.8
595.561	37.9
595.899	37.97
596.236	37.97
596.573	38.21
596.91	38.06
597.247	37.95
597.584	38.01
597.921	38.32
598.258	37.98
598.594	37.83
598.931	38.3
599.268	38.34
599.604	38.38
599.941	38.21
600.277	38.25
600.614	38.34
600.95	38.65
601.287	38.73
601.623	39.16
601.959	39.05
602.296	38.95
602.632	39.12
602.968	38.96
603.304	39.14
603.64	39.04
603.976	39.12
604.312	39.7
604.648	39.33
604.984	39.17
605.319	39.46
605.655	39.17
605.991	39.44
606.326	39.14
606.662	39.37
606.998	39.43
607.333	39.51
607.668	39.27
608.004	39.35
608.339	39.57
608.674	40.23
609.01	39.96
609.345	40.1
609.68	40.13
610.015	40.23
610.35	40.35
610.685	40.26
611.02	40.57
611.355	40.39
611.689	40.02
612.024	40.02
612.359	40.03
612.694	40.23
613.028	40.66
613.363	41.02
613.697	40.66
614.032	40.64
614.366	40.87
614.7	41.03
615.035	40.85
615.369	41.54
615.703	41.64
616.037	41.4
616.371	41.65
616.705	41.47
617.039	41.76
617.373	41.66
617.707	41.61
618.041	41.41
618.375	42.06
618.709	41.88
619.042	41.85
619.376	42.03
619.71	42.02
620.043	41.99
620.377	42.19
620.71	42.39
621.043	42.3
621.377	42.33
621.71	42.16
622.043	42.3
622.376	42.51
622.709	42.38
623.043	42.44
623.376	42.43
623.709	42.41
624.041	42.59
624.374	42.47
624.707	42.31
625.04	42.89
625.373	43.29
625.705	42.64
626.038	42.72
626.37	42.68
626.703	43.1
627.035	43.4
627.368	43.25
627.7	43.27
628.032	43.18
628.365	43.29
628.697	43.06
629.029	43.03
629.361	43.06
629.693	43.24
630.025	43.5
630.357	43.46
630.689	43.82
631.021	43.45
631.353	43.42
631.684	43.67
632.016	43.84
632.348	43.49
632.679	43.63
633.011	44.3
633.342	44.16
633.674	44.24
634.005	44.22
634.336	44.41
634.668	44.29
634.999	44.12
635.33	43.76
635.661	44.45
635.992	44.47
636.323	44.28
636.654	44.15
636.985	44.56
637.316	44.45
637.647	44.72
637.977	44.52
638.308	44.97
638.639	45.1
638.969	44.74
639.3	44.82
639.63	45.01
639.961	45.25
640.291	45.01
640.622	45.2
640.952	45.1
641.282	45.18
641.612	45.33
641.943	45.43
642.273	45.48
642.603	45.54
642.933	45.7
643.263	45.05
643.592	45.35
643.922	45.77
644.252	45.4
644.582	45.64
644.911	45.94
645.241	46.17
645.571	46.07
645.9	46.14
646.23	45.66
646.559	46.56
646.888	46.46
647.218	45.95
647.547	46.48
647.876	46.34
648.205	46.06
648.534	46.39
648.863	46.95
649.192	46.2
649.521	46.75
649.85	46.72
650.179	46.73
650.508	46.61
650.837	46.53
651.165	46.51
651.494	47.12
651.822	46.61
652.151	47.27
652.479	46.59
652.808	46.47
653.136	46.81
653.465	47.16
653.793	47.46
654.121	46.97
654.449	46.92
654.777	46.5
655.105	47.11
655.433	47.45
655.761	47.61
656.089	47.36
656.417	48.05
656.745	47.07
657.073	47.87
657.4	47.38
657.728	47.45
658.056	47.14
658.383	47.68
658.711	47.96
659.038	47.81
659.365	48.05
659.693	48.17
660.02	47.69
660.347	47.62
660.674	48
661.001	47.88
661.329	47.93
661.656	48.18
661.982	47.56
662.309	48.03
662.636	47.64
662.963	47.83
663.29	48.42
663.616	48.4
663.943	48.2
664.27	48.61
664.596	48.08
664.923	48.74
665.249	48.62
665.576	48.32
665.902	48.6
666.228	48.53
666.554	48.78
666.881	48.65
667.207	49.37
667.533	48.95
667.859	48.63
668.185	48.95
668.511	49.33
668.837	48.71
669.162	49.26
669.488	49.28
669.814	49.14
670.139	49.07
670.465	49.15
670.791	49.68
671.116	49.34
671.442	49.71
671.767	48.72
672.092	49.84
672.418	49.68
672.743	50.07
