Data from 0048_forehead_Reflection__3__194.txt Node

Date: Fri Nov 04 16:25:36 CDT 2022
User: ToomeyLab
Spectrometer: FLMS14357
Trigger mode: 0
Integration Time (sec): 1.000000E-2
Scans to average: 100
Electric dark correction enabled: true
Nonlinearity correction enabled: false
Boxcar width: 0
XAxis mode: Wavelengths
Number of Pixels in Spectrum: 2048
>>>>>Begin Spectral Data<<<<<
189.047	-449.49
189.435	-449.49
189.823	-449.49
190.211	-49.57
190.599	87.24
190.987	-50.15
191.375	96.52
191.763	190.04
192.151	152.83
192.538	23.97
192.926	80.38
193.314	-465.45
193.702	95.56
194.089	18.23
194.477	-171.18
194.864	-89.48
195.252	133.3
195.639	193.87
196.027	255.62
196.414	13.77
196.801	217.8
197.189	16272.22
197.576	220.96
197.963	46.58
198.351	8.33
198.738	5.99
199.125	18.15
199.512	-111.73
199.899	77.67
200.286	-36.94
200.673	40.97
201.06	-17.08
201.447	-59.49
201.833	27.4
202.22	-6.72
202.607	10.1
202.994	26.95
203.38	45.1
203.767	53.23
204.154	1.44
204.54	36.97
204.927	28.46
205.313	42.17
205.699	30.32
206.086	20.24
206.472	-13.45
206.858	25.08
207.245	19.21
207.631	9.64
208.017	43.62
208.403	30.55
208.789	18.6
209.175	-13.47
209.561	-38.36
209.947	-10.35
210.333	14.07
210.719	19.79
211.105	-51.97
211.491	-18.83
211.876	8.7
212.262	-28.07
212.648	8.6
213.034	47.27
213.419	4.11
213.805	-32.45
214.19	-6.15
214.576	-1.46
214.961	24.98
215.346	4.38
215.732	7.35
216.117	8.07
216.502	18.92
216.888	-15.23
217.273	10.73
217.658	23.03
218.043	16.88
218.428	34.19
218.813	19.32
219.198	29.64
219.583	-7.05
219.968	22.91
220.353	-49.66
220.738	-11.54
221.122	-4.18
221.507	16.49
221.892	-10.26
222.276	2.26
222.661	1.76
223.046	-8.74
223.43	-0.38
223.815	-9.84
224.199	11.66
224.583	-2.65
224.968	1.48
225.352	4.5
225.736	2.53
226.121	-1.3
226.505	7.17
226.889	5.6
227.273	2.52
227.657	1.95
228.041	4.37
228.425	4.58
228.809	3.74
229.193	2.21
229.577	3.43
229.961	4.09
230.344	2.12
230.728	2.08
231.112	1.79
231.495	2.1
231.879	3.13
232.263	2.05
232.646	2.39
233.03	0.74
233.413	0.78
233.797	1.9
234.18	2.47
234.563	4.19
234.946	1.7
235.33	4.25
235.713	2.87
236.096	2.9
236.479	1.02
236.862	2.61
237.245	0.45
237.628	2.19
238.011	1.31
238.394	4.02
238.777	2.23
239.16	3.96
239.543	3.83
239.925	3.26
240.308	5.02
240.691	3.19
241.073	2.91
241.456	1.98
241.838	2.15
242.221	2.73
242.603	3
242.986	2.87
243.368	2.63
243.75	2.59
244.133	2.95
244.515	2.58
244.897	2.82
245.279	2.48
245.661	3.14
246.043	4
246.425	2.84
246.807	3.45
247.189	2.18
247.571	3.64
247.953	2.9
248.335	2.58
248.717	2.82
249.098	2.52
249.48	2.66
249.862	2.95
250.243	2.67
250.625	2.71
251.006	2.98
251.388	2.53
251.769	4.01
252.151	3.05
252.532	2.63
252.913	2.49
253.295	2.8
253.676	3.23
254.057	2.26
254.438	3.06
254.819	3.02
255.2	2.03
255.581	3.26
255.962	4.08
256.343	3.02
256.724	2.53
257.105	2.67
257.486	4.77
257.867	5.09
258.247	3.23
258.628	2.46
259.009	2.52
259.389	3.34
259.77	3.45
260.15	2.58
260.531	2.84
260.911	2.76
261.292	2.38
261.672	2.73
262.052	2.72
262.432	2.96
262.813	2.51
263.193	2.12
263.573	2.33
263.953	2.73
264.333	3.28
264.713	3.45
265.093	2.52
265.473	3.74
265.853	2.11
266.233	2.52
266.612	2.4
266.992	3.8
267.372	2.62
267.752	3.05
268.131	3.74
268.511	3.19
268.89	3.27
269.27	2.67
269.649	2.81
270.029	2.44
270.408	2.75
270.787	3.07
271.167	2.53
271.546	3.34
271.925	2.83
272.304	2.85
272.683	2.88
273.062	2.68
273.441	2.86
273.82	2.54
274.199	2.82
274.578	2.27
274.957	2.77
275.336	2.55
275.715	2.69
276.093	2.76
276.472	2.56
276.851	2.15
277.229	3.22
277.608	2.58
277.986	2.75
278.365	3.13
278.743	3.3
279.122	2.82
279.5	2.82
279.878	2.99
280.257	2.82
280.635	2.48
281.013	2.53
281.391	2.83
281.769	2.63
282.147	2.18
282.525	2.4
282.903	2.9
283.281	3.12
283.659	2.4
284.037	2.79
284.415	2.66
284.792	2.83
285.17	2.75
285.548	2.72
285.925	2.84
286.303	2.6
286.68	3.1
287.058	2.82
287.435	2.62
287.813	2.61
288.19	2.89
288.567	2.98
288.945	2.75
289.322	3.11
289.699	3.07
290.076	3.31
290.453	2.47
290.83	2.88
291.207	2.83
291.584	3.03
291.961	3.23
292.338	3.02
292.715	3
293.092	3.41
293.469	3.13
293.845	2.96
294.222	2.84
294.599	2.98
294.975	3.46
295.352	3.14
295.728	3.44
296.105	3.21
296.481	3.11
296.858	3.27
297.234	3.46
297.61	3.86
297.986	3.05
298.363	3.35
298.739	3.41
299.115	3.72
299.491	3.51
299.867	3.67
300.243	3.31
300.619	3.94
300.995	3.58
301.371	3.96
301.746	3.54
302.122	3.56
302.498	3.71
302.874	3.9
303.249	3.56
303.625	3.67
304	4.04
304.376	3.23
304.751	3.66
305.127	3.17
305.502	3.65
305.878	4.01
306.253	3.64
306.628	3.3
307.003	3.7
307.378	3.85
307.754	4.05
308.129	3.72
308.504	3.88
308.879	3.84
309.254	4.26
309.629	3.87
310.003	3.92
310.378	4.15
310.753	4.7
311.128	3.76
311.502	3.68
311.877	4.38
312.252	4.18
312.626	4.37
313.001	4.12
313.375	4.29
313.75	4.16
314.124	4.1
314.498	4.71
314.873	4.93
315.247	4.89
315.621	4.32
315.995	4.7
316.369	4.53
316.743	4.78
317.117	4.69
317.491	4.7
317.865	5.08
318.239	5.01
318.613	5.04
318.987	4.97
319.361	5.09
319.734	4.76
320.108	5.07
320.482	4.72
320.855	5.04
321.229	5.24
321.602	4.81
321.976	4.67
322.349	5.65
322.723	5.22
323.096	4.96
323.469	4.83
323.843	5.15
324.216	5.08
324.589	5.13
324.962	5.39
325.335	5.44
325.708	5.15
326.081	4.97
326.454	5.04
326.827	5.15
327.2	5.67
327.573	5.11
327.945	5.6
328.318	4.99
328.691	5.45
329.063	5.39
329.436	5.13
329.809	5.38
330.181	5.61
330.553	5.36
330.926	5.66
331.298	5.65
331.671	4.97
332.043	5.67
332.415	5.78
332.787	5.28
333.159	5.7
333.532	5.71
333.904	6.04
334.276	5.87
334.648	6.1
335.02	5.86
335.391	6.23
335.763	5.96
336.135	6.01
336.507	6.27
336.879	5.77
337.25	6.3
337.622	5.97
337.993	6.14
338.365	6.12
338.736	6.05
339.108	6.5
339.479	6.33
339.851	5.98
340.222	5.85
340.593	6.23
340.964	6.39
341.336	6.06
341.707	5.76
342.078	6.59
342.449	6.3
342.82	6.07
343.191	6.14
343.562	6.07
343.933	6.24
344.303	6.56
344.674	6.5
345.045	6.2
345.416	6.09
345.786	6.51
346.157	6.81
346.527	6.53
346.898	6.71
347.268	6.25
347.639	6.42
348.009	7.18
348.38	6.56
348.75	6.7
349.12	6.37
349.49	6.55
349.861	6.68
350.231	6.9
350.601	6.61
350.971	6.36
351.341	6.59
351.711	6.79
352.081	6.99
352.45	7.07
352.82	6.97
353.19	6.79
353.56	7.28
353.929	7.04
354.299	7.42
354.669	7.52
355.038	7.66
355.408	6.63
355.777	7.2
356.147	6.78
356.516	6.87
356.885	7.2
357.254	7.56
357.624	7.3
357.993	7.38
358.362	7
358.731	7.44
359.1	7.29
359.469	7.18
359.838	7.48
360.207	7.08
360.576	7.23
360.945	7.72
361.314	7.61
361.682	7.5
362.051	7.54
362.42	7.78
362.788	7.42
363.157	7.53
363.525	7.55
363.894	7.56
364.262	7.61
364.631	7.69
364.999	7.46
365.367	7.48
365.735	7.79
366.104	7.57
366.472	7.84
366.84	7.46
367.208	7.71
367.576	7.84
367.944	7.93
368.312	7.81
368.68	7.95
369.048	8.06
369.416	7.94
369.783	7.94
370.151	8.09
370.519	8.4
370.886	8.05
371.254	8.6
371.621	8
371.989	7.95
372.356	8.24
372.724	8.22
373.091	8.22
373.458	8.01
373.826	8.53
374.193	7.97
374.56	8.29
374.927	8.59
375.294	8.03
375.661	8.44
376.028	8.3
376.395	8.75
376.762	8.5
377.129	8.46
377.496	8.45
377.863	8.49
378.229	8.38
378.596	8.49
378.963	8.51
379.329	8.5
379.696	8.53
380.062	8.66
380.429	8.86
380.795	8.79
381.161	8.81
381.528	8.95
381.894	8.49
382.26	8.74
382.626	8.93
382.993	9.09
383.359	9
383.725	9.16
384.091	8.82
384.457	9.21
384.823	9
385.188	9.25
385.554	9.3
385.92	9.01
386.286	9.1
386.651	9.18
387.017	9.06
387.383	9.31
387.748	9.01
388.114	9.01
388.479	9.75
388.845	9.21
389.21	9.47
389.575	9.34
389.94	9.31
390.306	9.54
390.671	9.48
391.036	9.24
391.401	9.61
391.766	9.3
392.131	9.41
392.496	9.54
392.861	9.58
393.226	9.41
393.591	9.5
393.956	9.77
394.32	9.65
394.685	9.69
395.05	9.82
395.414	9.73
395.779	9.84
396.143	9.68
396.508	9.88
396.872	9.88
397.236	9.87
397.601	9.73
397.965	9.86
398.329	9.92
398.694	10.16
399.058	9.97
399.422	10.09
399.786	10.1
400.15	9.73
400.514	9.92
400.878	10.11
401.242	10.32
401.605	10.11
401.969	10.27
402.333	10.14
402.697	10.22
403.06	10.35
403.424	10.42
403.787	10.4
404.151	10.64
404.514	10.35
404.878	10.38
405.241	10.47
405.604	10.61
405.968	10.25
406.331	10.3
406.694	10.32
407.057	10.39
407.42	10.46
407.783	10.34
408.146	10.6
408.509	10.55
408.872	10.66
409.235	10.78
409.598	10.79
409.961	10.76
410.323	10.85
410.686	10.71
411.049	10.65
411.411	10.71
411.774	10.83
412.136	11.09
412.499	11.17
412.861	11.03
413.223	11.07
413.586	10.99
413.948	11.02
414.31	11.07
414.672	11.27
415.035	11.16
415.397	11.2
415.759	11.4
416.121	10.95
416.483	11.24
416.845	11.02
417.206	11.23
417.568	11.45
417.93	11.18
418.292	11.29
418.653	11.41
419.015	11.16
419.377	11.33
419.738	11.25
420.1	11.44
420.461	11.39
420.822	11.35
421.184	11.38
421.545	11.32
421.906	11.35
422.267	11.29
422.629	11.37
422.99	11.31
423.351	11.27
423.712	11.41
424.073	11.55
424.434	11.48
424.795	11.51
425.155	11.67
425.516	11.59
425.877	11.48
426.238	11.39
426.598	11.56
426.959	11.62
427.32	11.81
427.68	11.81
428.041	11.77
428.401	11.99
428.761	11.9
429.122	11.92
429.482	12.27
429.842	11.97
430.202	12.28
430.563	12.15
430.923	12.33
431.283	12.15
431.643	12.27
432.003	12.48
432.363	12.29
432.722	12.46
433.082	12.46
433.442	12.34
433.802	12.28
434.161	12.56
434.521	12.27
434.881	12.34
435.24	12.43
435.6	12.54
435.959	12.38
436.319	12.45
436.678	12.59
437.037	12.56
437.396	12.71
437.756	12.76
438.115	12.54
438.474	12.86
438.833	12.84
439.192	12.83
439.551	12.98
439.91	13.04
440.269	12.92
440.628	13
440.987	12.91
441.345	12.85
441.704	12.83
442.063	12.73
442.421	12.91
442.78	13
443.138	12.95
443.497	13.02
443.855	13.08
444.214	13.22
444.572	13.24
444.93	13.18
445.288	13.3
445.647	13.29
446.005	13.14
446.363	13.21
446.721	13.35
447.079	13.28
447.437	13.25
447.795	13.21
448.153	13.14
448.51	13.29
448.868	13.19
449.226	13.21
449.584	13.39
449.941	13.41
450.299	13.59
450.656	13.68
451.014	13.77
451.371	13.88
451.729	13.77
452.086	13.79
452.443	13.82
452.801	13.99
453.158	14
453.515	14.08
453.872	13.82
454.229	14.03
454.586	13.96
454.943	14.02
455.3	14.12
455.657	14.28
456.014	14.26
456.371	14.25
456.727	14.37
457.084	14.39
457.441	14.4
457.797	14.4
458.154	14.37
458.51	14.56
458.867	14.33
459.223	14.45
459.58	14.61
459.936	14.29
460.292	14.49
460.648	14.47
461.005	14.36
461.361	14.39
461.717	14.25
462.073	14.34
462.429	14.52
462.785	14.55
463.141	14.69
463.496	14.64
463.852	14.97
464.208	14.72
464.564	14.87
464.919	15.11
465.275	15.01
465.631	15.27
465.986	15.04
466.342	15.05
466.697	15.16
467.052	15.15
467.408	15.15
467.763	15.26
468.118	15.37
468.473	15.31
468.829	15.13
469.184	15.27
469.539	15.26
469.894	15.53
470.249	15.52
470.603	15.51
470.958	15.57
471.313	15.42
471.668	15.58
472.023	15.59
472.377	15.66
472.732	15.67
473.086	15.79
473.441	15.77
473.795	15.6
474.15	15.84
474.504	15.95
474.859	15.83
475.213	15.84
475.567	15.89
475.921	15.99
476.275	16.1
476.63	16.05
476.984	16.05
477.338	16.18
477.692	16.34
478.045	16.01
478.399	16.07
478.753	16.23
479.107	16.15
479.461	16.34
479.814	16.29
480.168	16.27
480.521	16.38
480.875	16.39
481.228	16.42
481.582	16.56
481.935	16.52
482.289	16.42
482.642	16.55
482.995	16.51
483.348	16.44
483.701	16.29
484.055	16.2
484.408	16.34
484.761	16.19
485.114	16
485.466	15.73
485.819	15.67
486.172	15.79
486.525	15.96
486.878	16.08
487.23	16.2
487.583	16.31
487.936	16.48
488.288	16.48
488.641	16.4
488.993	16.29
489.345	16.26
489.698	16.23
490.05	16.28
490.402	16.36
490.754	16.56
491.107	16.73
491.459	16.88
491.811	16.94
492.163	17.15
492.515	17.15
492.866	16.9
493.218	16.77
493.57	16.66
493.922	16.75
494.274	16.88
494.625	17.05
494.977	17.35
495.328	17.47
495.68	17.52
496.031	17.69
496.383	17.71
496.734	17.69
497.086	18.09
497.437	18.05
497.788	18.12
498.139	17.87
498.49	17.67
498.842	17.91
499.193	17.85
499.544	17.9
499.894	17.88
500.245	18.01
500.596	18.12
500.947	18.19
501.298	18.26
501.648	18.27
501.999	18.52
502.35	18.42
502.7	18.33
503.051	18.45
503.401	18.41
503.752	18.56
504.102	18.51
504.452	18.86
504.803	18.71
505.153	18.76
505.503	18.77
505.853	18.8
506.203	18.73
506.553	18.95
506.903	18.86
507.253	18.92
507.603	19.03
507.953	19.03
508.303	19.01
508.652	19.08
509.002	19.15
509.352	19.18
509.701	19.08
510.051	19.23
510.4	18.98
510.75	19.12
511.099	19.08
511.449	19.16
511.798	19.23
512.147	19.27
512.496	19.41
512.846	19.31
513.195	19.48
513.544	19.47
513.893	19.47
514.242	19.41
514.591	19.39
514.939	19.59
515.288	19.85
515.637	19.65
515.986	19.86
516.334	19.87
516.683	19.9
517.032	19.85
517.38	20.08
517.729	20.16
518.077	20.11
518.426	20.16
518.774	20.08
519.122	20.17
519.47	19.98
519.819	19.98
520.167	19.99
520.515	19.8
520.863	19.88
521.211	19.89
521.559	20.05
521.907	20.24
522.255	20.27
522.602	20.36
522.95	20.5
523.298	20.65
523.645	20.62
523.993	20.75
524.341	20.76
524.688	20.83
525.036	20.74
525.383	20.89
525.73	20.8
526.078	20.93
526.425	20.77
526.772	20.86
527.119	20.86
527.466	20.72
527.814	20.52
528.161	20.71
528.508	20.7
528.854	20.75
529.201	20.86
529.548	20.74
529.895	20.59
530.242	20.35
530.588	20.4
530.935	20.49
531.282	20.52
531.628	20.64
531.975	20.81
532.321	21.03
532.667	21.14
533.014	21.16
533.36	21.37
533.706	21.43
534.052	21.44
534.399	21.27
534.745	21.23
535.091	21.18
535.437	21.14
535.783	21.18
536.129	21.48
536.474	21.57
536.82	21.69
537.166	21.87
537.512	21.91
537.857	21.9
538.203	21.83
538.549	21.82
538.894	21.86
539.239	22.06
539.585	22.21
539.93	22.24
540.276	22.38
540.621	22.47
540.966	22.5
541.311	22.44
541.656	22.65
542.001	22.6
542.346	22.44
542.691	22.18
543.036	21.98
543.381	21.94
543.726	22.13
544.071	22.19
544.415	22.21
544.76	22.45
545.105	22.56
545.449	22.6
545.794	22.79
546.138	22.66
546.483	23.11
546.827	23.07
547.171	23.05
547.516	23.3
547.86	23.26
548.204	23.24
548.548	23.27
548.892	23.24
549.236	23.25
549.58	23.47
549.924	23.56
550.268	23.79
550.612	23.83
550.956	23.82
551.3	24.03
551.643	24.1
551.987	24.22
552.33	24.11
552.674	24.41
553.017	24.43
553.361	24.44
553.704	24.27
554.048	24.43
554.391	24.06
554.734	24.45
555.077	24.23
555.42	24.54
555.764	24.5
556.107	24.53
556.45	24.73
556.793	24.78
557.135	25
557.478	24.79
557.821	24.97
558.164	24.96
558.507	25.12
558.849	25.18
559.192	25.34
559.534	25.13
559.877	25.2
560.219	25.07
560.562	25.18
560.904	25.39
561.246	25.26
561.589	25.52
561.931	25.32
562.273	25.41
562.615	25.44
562.957	25.7
563.299	25.6
563.641	25.69
563.983	25.67
564.325	25.38
564.667	25.74
565.008	25.79
565.35	25.95
565.692	25.98
566.033	26.01
566.375	26.11
566.716	26.18
567.058	26.08
567.399	26.06
567.741	26.08
568.082	26.1
568.423	25.88
568.764	26.01
569.105	26.08
569.447	26.23
569.788	26.38
570.129	26.49
570.47	26.47
570.811	26.59
571.151	26.67
571.492	26.8
571.833	26.6
572.174	26.84
572.514	26.69
572.855	26.85
573.195	26.55
573.536	26.53
573.876	26.63
574.217	26.7
574.557	26.61
574.898	26.99
575.238	26.83
575.578	27.03
575.918	27.08
576.258	27.19
576.598	27.12
576.938	27.22
577.278	27.31
577.618	27.04
577.958	27.47
578.298	27.48
578.638	27.64
578.977	27.64
579.317	27.61
579.657	27.4
579.996	27.71
580.336	27.83
580.675	27.56
581.014	28.19
581.354	27.99
581.693	28.19
582.032	27.95
582.372	28.28
582.711	28.19
583.05	28.4
583.389	28.3
583.728	28.3
584.067	28.37
584.406	28.18
584.745	28.66
585.083	28.49
585.422	28.81
585.761	28.7
586.1	28.44
586.438	28.67
586.777	28.71
587.115	28.99
587.454	29.08
587.792	28.76
588.13	28.93
588.469	28.92
588.807	29.05
589.145	29.03
589.483	28.97
589.821	29.23
590.159	29.14
590.497	29.23
590.835	28.98
591.173	29.2
591.511	29.37
591.849	29.63
592.187	29.3
592.524	29.38
592.862	29.58
593.2	29.65
593.537	29.47
593.875	29.8
594.212	29.43
594.55	29.49
594.887	29.65
595.224	29.86
595.561	29.45
595.899	29.99
596.236	29.8
596.573	29.96
596.91	30
597.247	30.05
597.584	30.02
597.921	30.08
598.258	29.83
598.594	29.51
598.931	30
599.268	29.89
599.604	29.89
599.941	30.04
600.277	30.26
600.614	30.27
600.95	30.59
601.287	30.57
601.623	30.58
601.959	30.84
602.296	30.58
602.632	30.62
602.968	30.57
603.304	30.82
603.64	30.77
603.976	30.8
604.312	31.06
604.648	30.84
604.984	30.85
605.319	30.72
605.655	30.86
605.991	30.97
606.326	30.77
606.662	30.95
606.998	30.75
607.333	30.67
607.668	30.68
608.004	31.11
608.339	31.16
608.674	31.65
609.01	31.58
609.345	31.5
609.68	31.46
610.015	31.46
610.35	31.6
610.685	31.58
611.02	31.64
611.355	31.51
611.689	31.55
612.024	31.62
612.359	31.55
612.694	31.65
613.028	31.74
613.363	32.01
613.697	32.12
614.032	32.21
614.366	32.12
614.7	32.3
615.035	32.3
615.369	32.19
615.703	32.96
616.037	32.48
616.371	32.38
616.705	32.13
617.039	32.62
617.373	32.39
617.707	32.62
618.041	32.74
618.375	32.95
618.709	33.19
619.042	33.05
619.376	33.1
619.71	33.1
620.043	33.21
620.377	33.25
620.71	33.28
621.043	33.03
621.377	33.31
621.71	33.71
622.043	33.47
622.376	33.09
622.709	33.66
623.043	33.43
623.376	33.44
623.709	33.17
624.041	33.34
624.374	33.46
624.707	33.32
625.04	33.92
625.373	33.65
625.705	33.73
626.038	33.43
626.37	34
626.703	33.49
627.035	33.74
627.368	33.94
627.7	33.63
628.032	33.71
628.365	33.81
628.697	33.88
629.029	33.68
629.361	33.86
629.693	34.19
630.025	34.17
630.357	34.39
630.689	34.31
631.021	34.04
631.353	34.33
631.684	33.87
632.016	34.33
632.348	34.2
632.679	34.34
633.011	34.39
633.342	34.52
633.674	34.62
634.005	34.35
634.336	34.76
634.668	34.77
634.999	34.99
635.33	34.6
635.661	34.71
635.992	34.74
636.323	34.79
636.654	34.72
636.985	34.84
637.316	35.04
637.647	35.12
637.977	35.04
638.308	35.37
638.639	35.28
638.969	34.97
639.3	35.39
639.63	35.3
639.961	35.18
640.291	35.31
640.622	35.64
640.952	35.4
641.282	35.72
641.612	35.72
641.943	35.35
642.273	35.64
642.603	35.59
642.933	35.77
643.263	35.34
643.592	35.4
643.922	36.06
644.252	35.68
644.582	35.76
644.911	36.05
645.241	35.91
645.571	35.82
645.9	36.16
646.23	36.15
646.559	36.27
646.888	36.23
647.218	36.29
647.547	36.38
647.876	36.22
648.205	36.35
648.534	36.46
648.863	36.7
649.192	36.14
649.521	36.14
649.85	36.87
650.179	36.2
650.508	36.28
650.837	36.96
651.165	36.75
651.494	36.46
651.822	36.88
652.151	36.68
652.479	36.21
652.808	36.54
653.136	36.58
653.465	37.17
653.793	36.99
654.121	36.24
654.449	36.51
654.777	36.74
655.105	37.15
655.433	36.92
655.761	36.52
656.089	36.83
656.417	37.41
656.745	37.01
657.073	37.09
657.4	37.12
657.728	37.39
658.056	37.22
658.383	37.78
658.711	37.48
659.038	37.55
659.365	37.75
659.693	37.49
660.02	38.11
660.347	37.48
660.674	37.39
661.001	37.36
661.329	37.63
661.656	37.6
661.982	37.17
662.309	37.42
662.636	37.68
662.963	37.68
663.29	37.81
663.616	38.01
663.943	37.71
664.27	38.4
664.596	38.05
664.923	38.08
665.249	38.32
665.576	38.33
665.902	38.12
666.228	37.66
666.554	38.84
666.881	38.23
667.207	38.89
667.533	38.85
667.859	38.16
668.185	38.56
668.511	38.78
668.837	38.57
669.162	38.5
669.488	37.84
669.814	38.21
670.139	38.64
670.465	38.82
670.791	38.74
671.116	38.94
671.442	38.82
671.767	38.63
672.092	38.87
672.418	38.91
672.743	39.26
673.068	39.33
673.393	39.23
673.718	39.18
674.043	39.34
