Data from 0048_crown_Reflection__0__186.txt Node

Date: Fri Nov 04 16:22:51 CDT 2022
User: ToomeyLab
Spectrometer: FLMS14357
Trigger mode: 0
Integration Time (sec): 1.000000E-2
Scans to average: 100
Electric dark correction enabled: true
Nonlinearity correction enabled: false
Boxcar width: 0
XAxis mode: Wavelengths
Number of Pixels in Spectrum: 2048
>>>>>Begin Spectral Data<<<<<
189.047	-300.77
189.435	-300.77
189.823	-300.77
190.211	250
190.599	-22.23
190.987	113.17
191.375	101.61
191.763	106.46
192.151	110.02
192.538	-37.89
192.926	140.89
193.314	511.79
193.702	85.98
194.089	18.38
194.477	-172.4
194.864	2.98
195.252	113.31
195.639	99.48
196.027	47.19
196.414	81.76
196.801	208.51
197.189	1272.22
197.576	187.04
197.963	-118.09
198.351	-44.27
198.738	18.99
199.125	-5.87
199.512	-232.88
199.899	-14.99
200.286	-29.05
200.673	4.79
201.06	-1.97
201.447	-23.38
201.833	17.65
202.22	-57.92
202.607	-21.9
202.994	25.64
203.38	42.03
203.767	-15.25
204.154	14.96
204.54	-18.14
204.927	-9.13
205.313	1.13
205.699	39.18
206.086	4.99
206.472	-0.87
206.858	-13.48
207.245	-9.8
207.631	34.99
208.017	4.31
208.403	-0.38
208.789	5.03
209.175	-4.96
209.561	-76.62
209.947	-89.39
210.333	25.56
210.719	4.63
211.105	-55.14
211.491	2.96
211.876	29.67
212.262	-4.76
212.648	-27.46
213.034	6.96
213.419	-0.76
213.805	-115.87
214.19	-64.59
214.576	1.38
214.961	45.76
215.346	28.15
215.732	10.39
216.117	5.52
216.502	-3.56
216.888	2.43
217.273	-3.77
217.658	-14.39
218.043	-23.97
218.428	15.49
218.813	-11.07
219.198	3.08
219.583	-17.02
219.968	20.71
220.353	-18.35
220.738	-42.59
221.122	32.92
221.507	7.69
221.892	-39.16
222.276	9.21
222.661	2.85
223.046	-11.62
223.43	-0.12
223.815	-7.59
224.199	7.89
224.583	7.34
224.968	1.18
225.352	6.08
225.736	-1.32
226.121	-15.72
226.505	4.9
226.889	0.19
227.273	6.17
227.657	-2.95
228.041	4.62
228.425	10.05
228.809	5.43
229.193	5.85
229.577	4.05
229.961	7.3
230.344	6.69
230.728	6.08
231.112	5.72
231.495	6.37
231.879	6.39
232.263	4.92
232.646	5.7
233.03	5.3
233.413	5.57
233.797	4.61
234.18	4.42
234.563	6.16
234.946	5.77
235.33	6.8
235.713	4.77
236.096	6.97
236.479	5.15
236.862	5.44
237.245	5.65
237.628	4.26
238.011	2.96
238.394	5.23
238.777	6.45
239.16	5.85
239.543	5.08
239.925	4.34
240.308	5.06
240.691	5.19
241.073	5.3
241.456	5.63
241.838	4.89
242.221	6.09
242.603	6.22
242.986	5.75
243.368	5.74
243.75	6.14
244.133	5.86
244.515	5.8
244.897	5.92
245.279	5.62
245.661	6.17
246.043	6.66
246.425	5.35
246.807	6.14
247.189	6.05
247.571	5.89
247.953	5.57
248.335	5.51
248.717	5.71
249.098	5.53
249.48	5.89
249.862	5.76
250.243	5.4
250.625	5.33
251.006	5.44
251.388	5.73
251.769	6.37
252.151	6.24
252.532	5.99
252.913	4.96
253.295	5.63
253.676	5.38
254.057	5.31
254.438	5.53
254.819	5.54
255.2	4.49
255.581	5.4
255.962	6.31
256.343	6.12
256.724	5.49
257.105	4.23
257.486	5.68
257.867	6.54
258.247	4.97
258.628	5.44
259.009	4.86
259.389	5.49
259.77	5.52
260.15	5.88
260.531	5.33
260.911	5.47
261.292	5.27
261.672	5.37
262.052	5.47
262.432	5.48
262.813	5.21
263.193	4.83
263.573	5.29
263.953	5
264.333	5.71
264.713	6.26
265.093	4.79
265.473	5.4
265.853	4.66
266.233	5.23
266.612	5.44
266.992	5.78
267.372	4.1
267.752	5.29
268.131	5.53
268.511	5.59
268.89	5.27
269.27	5.2
269.649	5.47
270.029	5.06
270.408	4.76
270.787	5.41
271.167	5.11
271.546	6.15
271.925	5.34
272.304	4.47
272.683	5.02
273.062	4.81
273.441	5.49
273.82	5
274.199	5.12
274.578	4.65
274.957	5.1
275.336	4.75
275.715	4.91
276.093	5.17
276.472	4.77
276.851	4.68
277.229	5.18
277.608	4.9
277.986	5.29
278.365	5.19
278.743	5.68
279.122	5.1
279.5	4.56
279.878	4.94
280.257	4.47
280.635	4.71
281.013	4.3
281.391	5.17
281.769	5.15
282.147	4.62
282.525	5.09
282.903	4.77
283.281	5.05
283.659	4.72
284.037	4.87
284.415	4.71
284.792	4.55
285.17	4.55
285.548	4.82
285.925	4.79
286.303	5.11
286.68	5.18
287.058	4.69
287.435	4.53
287.813	4.58
288.19	4.73
288.567	4.65
288.945	4.72
289.322	4.71
289.699	5.03
290.076	4.82
290.453	4.51
290.83	4.21
291.207	4.55
291.584	5
291.961	4.57
292.338	4.77
292.715	4.77
293.092	4.44
293.469	4.61
293.845	4.13
294.222	4.56
294.599	4.72
294.975	4.43
295.352	4.02
295.728	4.84
296.105	4.31
296.481	4.31
296.858	4.68
297.234	4.46
297.61	4.46
297.986	4.38
298.363	4.06
298.739	4.44
299.115	4.4
299.491	4.34
299.867	4.4
300.243	4.23
300.619	4.59
300.995	5.1
301.371	4.77
301.746	4.7
302.122	4.6
302.498	4.54
302.874	4.64
303.249	3.97
303.625	3.9
304	4.22
304.376	3.93
304.751	4.21
305.127	4.23
305.502	4.46
305.878	4.66
306.253	4.02
306.628	3.87
307.003	4.2
307.378	4.49
307.754	4.38
308.129	3.63
308.504	4.01
308.879	4.13
309.254	4.14
309.629	4.7
310.003	4.26
310.378	4.24
310.753	4
311.128	3.92
311.502	3.84
311.877	4.12
312.252	4.18
312.626	4.18
313.001	4.3
313.375	4.31
313.75	4.08
314.124	4.12
314.498	4.14
314.873	4.4
315.247	4.38
315.621	4.27
315.995	4.42
316.369	4.35
316.743	4.55
317.117	4.34
317.491	3.9
317.865	3.4
318.239	4.21
318.613	4.35
318.987	4.37
319.361	4.1
319.734	3.82
320.108	4.16
320.482	3.61
320.855	4.09
321.229	3.95
321.602	3.88
321.976	4.18
322.349	4.56
322.723	3.99
323.096	4.21
323.469	3.53
323.843	3.6
324.216	3.96
324.589	4.1
324.962	4.4
325.335	3.65
325.708	3.54
326.081	3.84
326.454	3.98
326.827	3.78
327.2	4.05
327.573	3.62
327.945	3.83
328.318	3.41
328.691	4.22
329.063	3.6
329.436	3.72
329.809	3.71
330.181	3.99
330.553	3.95
330.926	3.86
331.298	4.21
331.671	3.97
332.043	4.01
332.415	3.89
332.787	3.38
333.159	3.48
333.532	3.67
333.904	3.83
334.276	3.97
334.648	4.6
335.02	3.87
335.391	4.1
335.763	3.93
336.135	3.98
336.507	3.77
336.879	3.74
337.25	3.99
337.622	4.09
337.993	4.18
338.365	4.28
338.736	3.88
339.108	4.17
339.479	4.14
339.851	3.92
340.222	3.89
340.593	4.58
340.964	3.93
341.336	3.73
341.707	3.4
342.078	4.37
342.449	4.08
342.82	4.2
343.191	3.5
343.562	4.06
343.933	4.06
344.303	4.11
344.674	3.94
345.045	4.15
345.416	3.76
345.786	4.27
346.157	4.01
346.527	3.89
346.898	4.39
347.268	3.64
347.639	4.18
348.009	4.09
348.38	3.93
348.75	3.83
349.12	3.87
349.49	3.93
349.861	3.74
350.231	4.23
350.601	4
350.971	4.25
351.341	4.44
351.711	4.29
352.081	4.07
352.45	3.91
352.82	4.15
353.19	3.97
353.56	4.02
353.929	4.06
354.299	4.52
354.669	4.2
355.038	4.33
355.408	3.92
355.777	3.83
356.147	3.86
356.516	4.11
356.885	3.89
357.254	4.53
357.624	4.12
357.993	4.02
358.362	3.93
358.731	4
359.1	4.32
359.469	4.08
359.838	4.12
360.207	4.06
360.576	4.21
360.945	4.22
361.314	4.3
361.682	4.13
362.051	4.16
362.42	4.12
362.788	3.99
363.157	4.14
363.525	4.2
363.894	4.16
364.262	4.35
364.631	4.34
364.999	4.22
365.367	4.16
365.735	4.34
366.104	3.78
366.472	4.35
366.84	3.74
367.208	4.26
367.576	4.12
367.944	4.37
368.312	4.17
368.68	4.18
369.048	3.93
369.416	4.02
369.783	3.9
370.151	4
370.519	4.67
370.886	4.46
371.254	4.44
371.621	4.13
371.989	4.22
372.356	4.33
372.724	4.21
373.091	4.45
373.458	4.39
373.826	4.2
374.193	4.27
374.56	4.09
374.927	4.52
375.294	4.15
375.661	4.11
376.028	4.18
376.395	4.41
376.762	4.24
377.129	4.42
377.496	4.32
377.863	4.19
378.229	4.36
378.596	4.38
378.963	4.34
379.329	4.21
379.696	4.23
380.062	4.36
380.429	4.08
380.795	4.31
381.161	4.36
381.528	4.41
381.894	4.31
382.26	4.41
382.626	4.46
382.993	4.09
383.359	4.42
383.725	4.28
384.091	4.46
384.457	4.47
384.823	4.54
385.188	4.56
385.554	4.53
385.92	4.23
386.286	4.13
386.651	4.5
387.017	4.53
387.383	4.26
387.748	4.25
388.114	4.24
388.479	4.76
388.845	4.66
389.21	4.7
389.575	4.57
389.94	4.45
390.306	4.47
390.671	4.61
391.036	4.25
391.401	4.52
391.766	4.22
392.131	4.46
392.496	4.36
392.861	4.68
393.226	4.52
393.591	4.57
393.956	4.73
394.32	4.31
394.685	4.44
395.05	4.64
395.414	4.65
395.779	4.43
396.143	4.5
396.508	4.61
396.872	4.78
397.236	4.44
397.601	4.55
397.965	4.55
398.329	4.54
398.694	4.67
399.058	4.82
399.422	4.54
399.786	4.56
400.15	4.38
400.514	4.44
400.878	4.47
401.242	4.61
401.605	4.52
401.969	4.82
402.333	4.73
402.697	4.75
403.06	4.82
403.424	4.58
403.787	4.85
404.151	4.66
404.514	4.62
404.878	4.71
405.241	4.79
405.604	4.83
405.968	4.51
406.331	4.57
406.694	4.64
407.057	4.67
407.42	4.57
407.783	4.56
408.146	4.78
408.509	4.62
408.872	4.79
409.235	4.8
409.598	4.87
409.961	4.9
410.323	4.77
410.686	4.78
411.049	4.73
411.411	4.63
411.774	4.75
412.136	4.9
412.499	4.93
412.861	4.91
413.223	4.75
413.586	4.58
413.948	4.79
414.31	4.89
414.672	4.9
415.035	4.76
415.397	4.71
415.759	5.18
416.121	4.86
416.483	4.91
416.845	4.91
417.206	4.77
417.568	4.93
417.93	4.77
418.292	4.77
418.653	4.71
419.015	4.63
419.377	4.76
419.738	4.79
420.1	4.92
420.461	4.84
420.822	4.79
421.184	4.89
421.545	4.63
421.906	4.71
422.267	4.69
422.629	4.71
422.99	4.67
423.351	4.54
423.712	4.75
424.073	4.76
424.434	4.67
424.795	4.75
425.155	4.77
425.516	4.75
425.877	4.66
426.238	4.67
426.598	4.77
426.959	4.67
427.32	4.78
427.68	4.81
428.041	4.81
428.401	4.97
428.761	4.87
429.122	4.81
429.482	4.89
429.842	4.71
430.202	4.9
430.563	4.93
430.923	5.04
431.283	4.78
431.643	5.14
432.003	5.24
432.363	5.06
432.722	4.77
433.082	5.05
433.442	4.95
433.802	4.95
434.161	4.99
434.521	4.88
434.881	5.03
435.24	4.83
435.6	4.99
435.959	4.84
436.319	4.94
436.678	4.86
437.037	4.9
437.396	5.08
437.756	4.99
438.115	4.95
438.474	4.94
438.833	5.1
439.192	5
439.551	4.89
439.91	5.12
440.269	4.91
440.628	5.1
440.987	5
441.345	4.93
441.704	4.91
442.063	4.96
442.421	4.93
442.78	4.98
443.138	4.9
443.497	5
443.855	5.01
444.214	5.11
444.572	4.98
444.93	4.98
445.288	4.96
445.647	4.85
446.005	4.88
446.363	5.02
446.721	5.02
447.079	5.03
447.437	5.03
447.795	4.92
448.153	4.89
448.51	4.92
448.868	4.9
449.226	4.84
449.584	4.95
449.941	4.88
450.299	4.99
450.656	5.02
451.014	5.04
451.371	5.16
451.729	5.12
452.086	4.96
452.443	5.21
452.801	5.08
453.158	5.13
453.515	5.06
453.872	5
454.229	5.11
454.586	5.09
454.943	5.01
455.3	5.18
455.657	5.01
456.014	5.07
456.371	4.95
456.727	5.16
457.084	5.18
457.441	5.01
457.797	5.12
458.154	5.24
458.51	5.19
458.867	5.14
459.223	5.15
459.58	5.3
459.936	5.09
460.292	4.97
460.648	5.07
461.005	4.92
461.361	5.12
461.717	5.14
462.073	5.1
462.429	5.12
462.785	5.05
463.141	5.11
463.496	5.09
463.852	5.19
464.208	5.14
464.564	5.14
464.919	5.18
465.275	5.18
465.631	5.31
465.986	5.2
466.342	5.27
466.697	5.25
467.052	5.11
467.408	5.23
467.763	5.1
468.118	5.38
468.473	5.27
468.829	5.04
469.184	5.18
469.539	5.1
469.894	5.24
470.249	5.19
470.603	5.28
470.958	5.06
471.313	5.14
471.668	5.24
472.023	5.12
472.377	5.32
472.732	5.29
473.086	5.23
473.441	5.21
473.795	5.28
474.15	5.21
474.504	5.2
474.859	5.08
475.213	5.27
475.567	5.14
475.921	5.21
476.275	5.3
476.63	5.36
476.984	5.26
477.338	5.19
477.692	5.32
478.045	5.27
478.399	5.24
478.753	5.25
479.107	5.26
479.461	5.33
479.814	5.39
480.168	5.17
480.521	5.08
480.875	5.2
481.228	5.22
481.582	5.16
481.935	5.2
482.289	5.24
482.642	5.17
482.995	5.3
483.348	5.18
483.701	5.25
484.055	5.07
484.408	5.18
484.761	5.05
485.114	5.04
485.466	4.94
485.819	4.91
486.172	4.85
486.525	4.93
486.878	5.03
487.23	5.13
487.583	5.09
487.936	5.21
488.288	5.11
488.641	5.06
488.993	5.04
489.345	4.95
489.698	4.95
490.05	5.02
490.402	5.01
490.754	5.13
491.107	5.14
491.459	5.28
491.811	5.17
492.163	5.29
492.515	5.2
492.866	5.1
493.218	5.01
493.57	5.01
493.922	5.05
494.274	5.06
494.625	5.2
494.977	5.24
495.328	5.3
495.68	5.23
496.031	5.26
496.383	5.38
496.734	5.26
497.086	5.39
497.437	5.29
497.788	5.37
498.139	5.26
498.49	5.18
498.842	5.32
499.193	5.18
499.544	5.26
499.894	5.31
500.245	5.33
500.596	5.25
500.947	5.34
501.298	5.3
501.648	5.47
501.999	5.44
502.35	5.32
502.7	5.32
503.051	5.51
503.401	5.42
503.752	5.49
504.102	5.38
504.452	5.47
504.803	5.53
505.153	5.4
505.503	5.4
505.853	5.33
506.203	5.35
506.553	5.38
506.903	5.38
507.253	5.39
507.603	5.46
507.953	5.3
508.303	5.44
508.652	5.4
509.002	5.58
509.352	5.43
509.701	5.37
510.051	5.31
510.4	5.39
510.75	5.31
511.099	5.31
511.449	5.34
511.798	5.35
512.147	5.39
512.496	5.37
512.846	5.33
513.195	5.38
513.544	5.39
513.893	5.38
514.242	5.3
514.591	5.29
514.939	5.38
515.288	5.34
515.637	5.35
515.986	5.38
516.334	5.37
516.683	5.4
517.032	5.46
517.38	5.43
517.729	5.48
518.077	5.54
518.426	5.38
518.774	5.46
519.122	5.41
519.47	5.42
519.819	5.31
520.167	5.35
520.515	5.33
520.863	5.19
521.211	5.23
521.559	5.36
521.907	5.26
522.255	5.33
522.602	5.39
522.95	5.37
523.298	5.47
523.645	5.43
523.993	5.4
524.341	5.47
524.688	5.51
525.036	5.42
525.383	5.47
525.73	5.49
526.078	5.44
526.425	5.35
526.772	5.29
527.119	5.3
527.466	5.26
527.814	5.27
528.161	5.24
528.508	5.35
528.854	5.3
529.201	5.21
529.548	5.27
529.895	5.18
530.242	5.12
530.588	5.08
530.935	5.08
531.282	5.14
531.628	5.19
531.975	5.25
532.321	5.4
532.667	5.31
533.014	5.4
533.36	5.41
533.706	5.45
534.052	5.39
534.399	5.3
534.745	5.29
535.091	5.2
535.437	5.22
535.783	5.26
536.129	5.36
536.474	5.35
536.82	5.37
537.166	5.47
537.512	5.47
537.857	5.33
538.203	5.32
538.549	5.28
538.894	5.43
539.239	5.36
539.585	5.27
539.93	5.42
540.276	5.51
540.621	5.45
540.966	5.52
541.311	5.33
541.656	5.44
542.001	5.29
542.346	5.36
542.691	5.33
543.036	5.16
543.381	5.2
543.726	5.26
544.071	5.27
544.415	5.29
544.76	5.4
545.105	5.35
545.449	5.41
545.794	5.37
546.138	5.4
546.483	5.41
546.827	5.47
547.171	5.38
547.516	5.38
547.86	5.43
548.204	5.48
548.548	5.42
548.892	5.27
549.236	5.42
549.58	5.41
549.924	5.58
550.268	5.58
550.612	5.43
550.956	5.46
551.3	5.54
551.643	5.53
551.987	5.34
552.33	5.55
552.674	5.45
553.017	5.63
553.361	5.49
553.704	5.49
554.048	5.49
554.391	5.33
554.734	5.47
555.077	5.52
555.42	5.45
555.764	5.62
556.107	5.65
556.45	5.64
556.793	5.61
557.135	5.52
557.478	5.37
557.821	5.65
558.164	5.55
558.507	5.46
558.849	5.63
559.192	5.66
559.534	5.25
559.877	5.59
560.219	5.54
560.562	5.49
560.904	5.59
561.246	5.45
561.589	5.49
561.931	5.31
562.273	5.64
562.615	5.2
562.957	5.6
563.299	5.42
563.641	5.38
563.983	5.53
564.325	5.47
564.667	5.51
565.008	5.42
565.35	5.5
565.692	5.66
566.033	5.48
566.375	5.44
566.716	5.6
567.058	5.68
567.399	5.48
567.741	5.48
568.082	5.33
568.423	5.51
568.764	5.4
569.105	5.46
569.447	5.47
569.788	5.31
570.129	5.51
570.47	5.45
570.811	5.68
571.151	5.42
571.492	5.54
571.833	5.54
572.174	5.54
572.514	5.3
572.855	5.25
573.195	5.54
573.536	5.39
573.876	5.35
574.217	5.41
574.557	5.31
574.898	5.53
575.238	5.52
575.578	5.51
575.918	5.47
576.258	5.38
576.598	5.55
576.938	5.38
577.278	5.36
577.618	5.3
577.958	5.24
578.298	5.57
578.638	5.52
578.977	5.46
579.317	5.51
579.657	5.53
579.996	5.6
580.336	5.41
580.675	5.33
581.014	5.6
581.354	5.39
581.693	5.64
582.032	5.33
582.372	5.68
582.711	5.34
583.05	5.43
583.389	5.22
583.728	5.31
584.067	5.78
584.406	5.39
584.745	5.53
585.083	5.42
585.422	5.57
585.761	5.41
586.1	5.41
586.438	5.08
586.777	5.59
587.115	5.42
587.454	5.51
587.792	5.52
588.13	5.21
588.469	5.71
588.807	5.41
589.145	5.49
589.483	5.25
589.821	5.41
590.159	5.38
590.497	5.59
590.835	5.26
591.173	5.29
591.511	5.58
591.849	5.5
592.187	5.44
592.524	5.48
592.862	5.44
593.2	5.28
593.537	5.52
593.875	5.36
594.212	5.41
594.55	5.28
594.887	5.47
595.224	5.49
595.561	5.06
595.899	5.32
596.236	5.65
596.573	5.46
596.91	5.38
597.247	5.34
597.584	5.28
597.921	5.49
598.258	5.41
598.594	5.15
598.931	5.31
599.268	5.31
599.604	5.18
599.941	5.4
600.277	5.3
600.614	5.47
600.95	5.33
601.287	5.4
601.623	5.32
601.959	5.22
602.296	5.43
602.632	5.49
602.968	5.39
603.304	5.33
603.64	5.35
603.976	4.9
604.312	5.38
604.648	5.18
604.984	5.17
605.319	5.27
605.655	5.18
605.991	5.35
606.326	5.23
606.662	5.21
606.998	5.13
607.333	5.19
607.668	5.27
608.004	5.29
608.339	5.21
608.674	5.59
609.01	5.2
609.345	5.49
609.68	5.33
610.015	5.29
610.35	5.2
610.685	5.36
611.02	5.36
611.355	5.39
611.689	4.99
612.024	5.21
612.359	4.99
612.694	5.35
613.028	5.29
613.363	5.42
613.697	5.21
614.032	5.21
614.366	5.29
614.7	5.06
615.035	5.33
615.369	5.06
615.703	5.48
616.037	5.29
616.371	5.62
616.705	5.24
617.039	5.49
617.373	5.2
617.707	5.49
618.041	5.15
618.375	5.51
618.709	5.45
619.042	5.25
619.376	5.37
619.71	5.32
620.043	5.39
620.377	5.3
620.71	5.23
621.043	5.13
621.377	5.51
621.71	5.76
622.043	5.39
622.376	5.46
622.709	5.54
623.043	5.57
623.376	5.61
623.709	5.31
624.041	5.18
624.374	5.21
624.707	5.09
625.04	5.41
625.373	5.38
625.705	5.3
626.038	5.05
626.37	5.28
626.703	5.4
627.035	5.14
627.368	5.2
627.7	5.2
628.032	5.32
628.365	5.72
628.697	5.19
629.029	5.17
629.361	5.12
629.693	5.02
630.025	5.49
630.357	5.33
630.689	5.16
631.021	4.97
631.353	5.14
631.684	5.14
632.016	5.17
632.348	5.13
632.679	5.16
633.011	5.25
633.342	5.24
633.674	5.08
634.005	5.4
634.336	5.39
634.668	5.18
634.999	5.39
635.33	4.96
635.661	5.17
635.992	5.13
636.323	5.18
636.654	4.93
636.985	5.31
637.316	5.13
637.647	4.92
637.977	5.41
638.308	5.24
638.639	5.05
638.969	4.9
639.3	5.23
639.63	5.18
639.961	5.2
640.291	5.46
640.622	5.41
640.952	5.16
641.282	5.2
641.612	4.99
641.943	4.85
642.273	5
642.603	5.33
642.933	5.29
643.263	4.82
643.592	5.13
643.922	5.4
644.252	5.14
644.582	5.19
644.911	5.44
645.241	5.01
645.571	4.94
645.9	5.32
646.23	4.7
646.559	5.43
646.888	5.06
647.218	5.34
647.547	5.47
647.876	5.23
648.205	5.14
648.534	5.33
648.863	5.14
649.192	5.02
649.521	5.25
649.85	5.05
650.179	4.95
650.508	4.89
650.837	5.34
651.165	5.09
651.494	5.17
651.822	5.26
652.151	5.57
652.479	4.79
652.808	4.76
653.136	5.03
653.465	5.62
653.793	5.37
654.121	5.13
654.449	4.85
654.777	4.96
655.105	5.61
655.433	4.93
655.761	5.32
656.089	4.8
656.417	5.15
656.745	4.63
657.073	4.94
657.4	5.25
657.728	5.16
658.056	4.77
658.383	5.26
658.711	4.74
659.038	4.88
659.365	5.71
659.693	5.32
660.02	5
660.347	5.13
660.674	5.05
661.001	4.95
661.329	5.11
661.656	5.28
661.982	4.91
662.309	5.12
662.636	4.99
662.963	4.65
663.29	4.72
663.616	5.09
663.943	5.16
664.27	5.09
664.596	5.01
664.923	4.83
665.249	5.27
665.576	4.92
665.902	4.92
666.228	4.27
666.554	5.55
666.881	5.16
667.207	5.21
667.533	5.47
667.859	4.61
668.185	4.7
668.511	5.39
668.837	4.87
669.162	4.86
669.488	4.87
669.814	5.21
670.139	4.86
670.465	5.4
670.791	4.7
671.116	4.82
671.442	5.17
671.767	4.95
672.092	4.87
672.418	5.14
672.743	5.76
673.068	5.54
673.393	5.16
673.718	5.43
674.043	4.9
674.368	4.04
674.693	5.28
675.018	4.9
675.343	5.23
675.667	5.51
675.992	5
676.317	4.93
676.641	5.12
676.966	5.17
677.29	4.82
677.615	4.74
677.939	5.06
678.264	5.17
678.588	4.91
678.912	5.77
679.236	5.15
679.56	5.24
679.885	5.21
680.209	5.64
680.532	5.13
680.856	5.01
681.18	4.87
681.504	5.19
681.828	5.22
682.152	5.25
682.475	5.04
682.799	5.49
683.122	5.23
683.446	5.07
683.769	4.56
684.093	5.19
684.416	4.61
684.739	5.46
685.062	5.65
685.386	4.95
685.709	5.45
686.032	5.45
686.355	6.24
686.678	5.5
687.001	5.34
687.324	5.21
687.646	5.85
687.969	5.12
688.292	5.05
688.614	5.58
688.937	5.17
689.26	4.58
689.582	5.51
689.904	5.01
690.227	4.96
690.549	6.16
690.871	4.68
691.194	5.17
691.516	5.55
691.838	5.33
692.16	5.19
692.482	4.66
