Data from 0048_chest_Reflection__2__183.txt Node

Date: Fri Nov 04 16:21:03 CDT 2022
User: ToomeyLab
Spectrometer: FLMS14357
Trigger mode: 0
Integration Time (sec): 1.000000E-2
Scans to average: 100
Electric dark correction enabled: true
Nonlinearity correction enabled: false
Boxcar width: 0
XAxis mode: Wavelengths
Number of Pixels in Spectrum: 2048
>>>>>Begin Spectral Data<<<<<
189.047	-399.87
189.435	-399.87
189.823	-399.87
190.211	-336.59
190.599	80.94
190.987	84.46
191.375	198.94
191.763	389.44
192.151	43.43
192.538	29.65
192.926	-13.24
193.314	507.52
193.702	106.19
194.089	13.11
194.477	-55.35
194.864	-63.02
195.252	76.3
195.639	294.33
196.027	46.9
196.414	192.62
196.801	490.48
197.189	175
197.576	136.74
197.963	93.52
198.351	-33.19
198.738	12.02
199.125	17.95
199.512	-70.76
199.899	-13.98
200.286	-34.31
200.673	-15
201.06	-29.19
201.447	-17.78
201.833	13.53
202.22	-5.85
202.607	-12
202.994	20.09
203.38	13.68
203.767	-7.05
204.154	71.14
204.54	-51.84
204.927	-27.4
205.313	24.17
205.699	19.69
206.086	-1.9
206.472	-4.14
206.858	-45.5
207.245	3.13
207.631	18.89
208.017	1.17
208.403	-29.93
208.789	27.96
209.175	-3.92
209.561	-62.58
209.947	-130.48
210.333	-8.31
210.719	12.05
211.105	-43.16
211.491	-29.24
211.876	1.05
212.262	-32.15
212.648	-21.8
213.034	1.02
213.419	6.05
213.805	23.84
214.19	-105.16
214.576	-14.55
214.961	10.85
215.346	-16.46
215.732	-2.82
216.117	-35.29
216.502	1.58
216.888	-11.69
217.273	-12.59
217.658	-6.99
218.043	-38.73
218.428	-1.98
218.813	7.02
219.198	5.58
219.583	-20.08
219.968	-6.03
220.353	-29.83
220.738	-31.01
221.122	-6.09
221.507	1.1
221.892	-19.91
222.276	-14.9
222.661	2.28
223.046	-10.55
223.43	2.22
223.815	-11.45
224.199	3.99
224.583	-0.26
224.968	-2.87
225.352	1.88
225.736	-2.5
226.121	-11.2
226.505	-9.58
226.889	0.68
227.273	-0.54
227.657	-2.57
228.041	-0.6
228.425	0.77
228.809	1.08
229.193	0.82
229.577	-1.12
229.961	1.67
230.344	1.9
230.728	1.76
231.112	1.03
231.495	1.27
231.879	1.5
232.263	0.55
232.646	0.43
233.03	0.59
233.413	-1.44
233.797	0.49
234.18	-0.09
234.563	2.84
234.946	-1.36
235.33	2.1
235.713	0.78
236.096	1.66
236.479	0.92
236.862	0.66
237.245	-0.74
237.628	0.78
238.011	0.16
238.394	3.39
238.777	0.53
239.16	1.23
239.543	-1.16
239.925	-0.36
240.308	2.34
240.691	2.21
241.073	3.51
241.456	1.87
241.838	0.44
242.221	0.85
242.603	1.88
242.986	0.6
243.368	1.64
243.75	1.89
244.133	1.66
244.515	1.77
244.897	1.99
245.279	1.61
245.661	2.21
246.043	2.52
246.425	1.2
246.807	1.96
247.189	1.33
247.571	2.06
247.953	1.79
248.335	1.52
248.717	1.77
249.098	1.82
249.48	1.85
249.862	1.64
250.243	1.79
250.625	1.51
251.006	1.69
251.388	1.72
251.769	2.77
252.151	2.48
252.532	1.62
252.913	1.11
253.295	1.96
253.676	1.67
254.057	1.37
254.438	1.86
254.819	1.93
255.2	1.17
255.581	2.13
255.962	2.2
256.343	0.89
256.724	1.36
257.105	1.59
257.486	2
257.867	2.45
258.247	2.18
258.628	1.17
259.009	1.37
259.389	1.42
259.77	1.74
260.15	1.57
260.531	1.72
260.911	1.4
261.292	1.53
261.672	1.62
262.052	1.82
262.432	1.72
262.813	1.46
263.193	0.84
263.573	1.25
263.953	1.44
264.333	1.42
264.713	2.11
265.093	1.96
265.473	1.65
265.853	1.38
266.233	1.9
266.612	2.44
266.992	2.25
267.372	1.37
267.752	2.19
268.131	2.05
268.511	1.67
268.89	2.45
269.27	1.46
269.649	1.57
270.029	1.21
270.408	1.48
270.787	1.84
271.167	1.58
271.546	2.24
271.925	1.55
272.304	1.58
272.683	1.42
273.062	1.43
273.441	1.47
273.82	1.37
274.199	1.3
274.578	1.29
274.957	1.46
275.336	1.13
275.715	1.48
276.093	1.89
276.472	0.97
276.851	0.86
277.229	1.17
277.608	1.73
277.986	1.87
278.365	1.81
278.743	1.95
279.122	1.84
279.5	1.62
279.878	2.16
280.257	1.32
280.635	1.05
281.013	1.51
281.391	2.22
281.769	1.44
282.147	0.84
282.525	1.52
282.903	2.01
283.281	2.2
283.659	1.68
284.037	1.21
284.415	1.61
284.792	1.64
285.17	1.29
285.548	1.9
285.925	1.14
286.303	1.81
286.68	1.9
287.058	1.51
287.435	1.68
287.813	1.56
288.19	1.51
288.567	1.46
288.945	1.99
289.322	1.78
289.699	1.42
290.076	1.69
290.453	1.19
290.83	1.26
291.207	1.65
291.584	1.88
291.961	1.93
292.338	1.65
292.715	1.71
293.092	1.78
293.469	1.35
293.845	1.55
294.222	1.56
294.599	1.37
294.975	1.25
295.352	1.55
295.728	1.69
296.105	1.62
296.481	1.65
296.858	1.84
297.234	1.86
297.61	1.76
297.986	1.31
298.363	1.57
298.739	1.3
299.115	1.89
299.491	1.71
299.867	1.64
300.243	1.63
300.619	1.74
300.995	1.96
301.371	1.95
301.746	1.61
302.122	1.3
302.498	1.76
302.874	1.89
303.249	1.44
303.625	1.34
304	1.77
304.376	1.77
304.751	2.01
305.127	1.19
305.502	1.72
305.878	1.86
306.253	1.95
306.628	1.49
307.003	1.81
307.378	1.62
307.754	1.44
308.129	1.31
308.504	1.65
308.879	1.57
309.254	1.82
309.629	1.64
310.003	1.77
310.378	1.78
310.753	2.09
311.128	1.58
311.502	1.69
311.877	1.55
312.252	1.4
312.626	1.78
313.001	1.7
313.375	1.52
313.75	1.68
314.124	1.68
314.498	1.69
314.873	1.79
315.247	1.59
315.621	1.72
315.995	2.05
316.369	2.09
316.743	2.06
317.117	2.19
317.491	2.12
317.865	1.45
318.239	1.74
318.613	2.12
318.987	1.46
319.361	1.98
319.734	1.85
320.108	1.52
320.482	1
320.855	1.89
321.229	1.85
321.602	1.87
321.976	1.83
322.349	2.34
322.723	1.69
323.096	1.63
323.469	1.47
323.843	1.82
324.216	1.74
324.589	1.72
324.962	2.14
325.335	1.55
325.708	1.27
326.081	1.54
326.454	1.81
326.827	1.96
327.2	1.88
327.573	1.75
327.945	1.6
328.318	1.28
328.691	1.27
329.063	1.77
329.436	1.5
329.809	1.42
330.181	1.62
330.553	1.4
330.926	1.69
331.298	1.68
331.671	1.72
332.043	1.77
332.415	1.91
332.787	1.42
333.159	1.4
333.532	1.34
333.904	2.18
334.276	1.54
334.648	1.94
335.02	1.25
335.391	1.86
335.763	1.76
336.135	1.56
336.507	1.63
336.879	2.14
337.25	2.15
337.622	2.04
337.993	1.61
338.365	1.22
338.736	2.4
339.108	2.01
339.479	1.65
339.851	1.42
340.222	1.58
340.593	1.96
340.964	1.77
341.336	1.59
341.707	1.21
342.078	1.74
342.449	1.73
342.82	1.69
343.191	1.38
343.562	1.64
343.933	1.89
344.303	1.79
344.674	2.22
345.045	1.17
345.416	1.28
345.786	2
346.157	2
346.527	2.08
346.898	2.05
347.268	1.45
347.639	1.86
348.009	1.96
348.38	1.63
348.75	1.45
349.12	1.41
349.49	1.8
349.861	1.51
350.231	1.93
350.601	1.84
350.971	1.87
351.341	1.74
351.711	1.86
352.081	1.95
352.45	1.92
352.82	2.1
353.19	1.52
353.56	1.69
353.929	1.91
354.299	2.19
354.669	1.89
355.038	2.15
355.408	1.62
355.777	1.95
356.147	1.68
356.516	1.69
356.885	1.58
357.254	1.95
357.624	1.85
357.993	1.76
358.362	1.85
358.731	1.95
359.1	1.94
359.469	1.69
359.838	1.86
360.207	1.58
360.576	1.69
360.945	1.94
361.314	2.19
361.682	1.85
362.051	1.84
362.42	1.81
362.788	1.67
363.157	1.85
363.525	1.68
363.894	1.78
364.262	1.97
364.631	1.93
364.999	2.02
365.367	1.45
365.735	2.1
366.104	1.74
366.472	2.07
366.84	1.41
367.208	1.8
367.576	1.75
367.944	1.72
368.312	1.75
368.68	1.69
369.048	1.68
369.416	1.72
369.783	1.48
370.151	1.75
370.519	2.22
370.886	2.11
371.254	1.99
371.621	1.94
371.989	1.74
372.356	1.65
372.724	1.98
373.091	1.86
373.458	2.1
373.826	2.29
374.193	1.64
374.56	1.54
374.927	1.99
375.294	1.79
375.661	1.78
376.028	1.66
376.395	1.9
376.762	2.02
377.129	1.95
377.496	2.08
377.863	2
378.229	1.75
378.596	1.97
378.963	2.02
379.329	1.72
379.696	1.91
380.062	2.43
380.429	1.85
380.795	1.8
381.161	1.7
381.528	2.01
381.894	1.75
382.26	1.85
382.626	1.79
382.993	2
383.359	2.2
383.725	1.9
384.091	2.02
384.457	2.04
384.823	2.21
385.188	1.92
385.554	1.93
385.92	1.85
386.286	1.93
386.651	1.84
387.017	1.79
387.383	2.11
387.748	1.91
388.114	1.59
388.479	2.42
388.845	2.09
389.21	2.37
389.575	2.18
389.94	1.99
390.306	1.95
390.671	1.98
391.036	1.67
391.401	2.2
391.766	1.96
392.131	1.84
392.496	2.31
392.861	2.17
393.226	2.06
393.591	2.15
393.956	2.38
394.32	1.84
394.685	2
395.05	2.13
395.414	1.76
395.779	2.12
396.143	1.83
396.508	2.11
396.872	2.05
397.236	1.99
397.601	1.86
397.965	2.03
398.329	2.01
398.694	2.02
399.058	2.2
399.422	2.09
399.786	2.13
400.15	1.8
400.514	2.17
400.878	1.99
401.242	2.24
401.605	2.06
401.969	2.27
402.333	2.17
402.697	2.11
403.06	2.05
403.424	2.15
403.787	2.15
404.151	2.16
404.514	2.14
404.878	2.14
405.241	2.12
405.604	2.08
405.968	1.99
406.331	1.86
406.694	2.03
407.057	2.21
407.42	2.03
407.783	2.1
408.146	2.08
408.509	1.97
408.872	1.99
409.235	2.03
409.598	2.13
409.961	2.18
410.323	2.03
410.686	2.04
411.049	2.09
411.411	2.01
411.774	2.24
412.136	2.2
412.499	2.27
412.861	2.19
413.223	2.12
413.586	2.02
413.948	2.41
414.31	2.09
414.672	2.18
415.035	2.34
415.397	2
415.759	2.18
416.121	2.04
416.483	2.39
416.845	2.15
417.206	1.99
417.568	2.23
417.93	2.35
418.292	2.24
418.653	2.3
419.015	2.16
419.377	2.16
419.738	2.17
420.1	2.29
420.461	2.23
420.822	2.17
421.184	2.19
421.545	2.03
421.906	2.19
422.267	1.98
422.629	2.14
422.99	2.02
423.351	2.08
423.712	2.11
424.073	2.14
424.434	2.13
424.795	2.13
425.155	2.21
425.516	2.11
425.877	2.11
426.238	2.14
426.598	2.2
426.959	2.11
427.32	2.15
427.68	2.21
428.041	2.09
428.401	2.23
428.761	2.17
429.122	2.17
429.482	2.16
429.842	2.1
430.202	2.33
430.563	2.23
430.923	2.36
431.283	2.25
431.643	2.32
432.003	2.41
432.363	2.27
432.722	2.15
433.082	2.34
433.442	2.25
433.802	2.29
434.161	2.25
434.521	2.25
434.881	2.25
435.24	2.1
435.6	2.34
435.959	2.19
436.319	2.16
436.678	2.28
437.037	2.23
437.396	2.41
437.756	2.36
438.115	2.11
438.474	2.15
438.833	2.34
439.192	2.29
439.551	2.23
439.91	2.23
440.269	2.34
440.628	2.27
440.987	2.34
441.345	2.2
441.704	2.32
442.063	2.21
442.421	2.22
442.78	2.27
443.138	2.39
443.497	2.17
443.855	2.31
444.214	2.37
444.572	2.27
444.93	2.23
445.288	2.32
445.647	2.28
446.005	2.31
446.363	2.19
446.721	2.27
447.079	2.35
447.437	2.18
447.795	2.31
448.153	2.15
448.51	2.27
448.868	2.22
449.226	2.28
449.584	2.3
449.941	2.21
450.299	2.3
450.656	2.26
451.014	2.38
451.371	2.43
451.729	2.29
452.086	2.32
452.443	2.41
452.801	2.41
453.158	2.49
453.515	2.45
453.872	2.23
454.229	2.49
454.586	2.33
454.943	2.48
455.3	2.21
455.657	2.3
456.014	2.23
456.371	2.34
456.727	2.54
457.084	2.5
457.441	2.27
457.797	2.38
458.154	2.46
458.51	2.45
458.867	2.19
459.223	2.3
459.58	2.63
459.936	2.39
460.292	2.49
460.648	2.43
461.005	2.32
461.361	2.36
461.717	2.37
462.073	2.4
462.429	2.45
462.785	2.37
463.141	2.43
463.496	2.39
463.852	2.5
464.208	2.23
464.564	2.22
464.919	2.5
465.275	2.55
465.631	2.52
465.986	2.53
466.342	2.47
466.697	2.53
467.052	2.39
467.408	2.5
467.763	2.44
468.118	2.58
468.473	2.35
468.829	2.42
469.184	2.46
469.539	2.37
469.894	2.47
470.249	2.46
470.603	2.48
470.958	2.37
471.313	2.35
471.668	2.37
472.023	2.26
472.377	2.36
472.732	2.56
473.086	2.59
473.441	2.52
473.795	2.52
474.15	2.44
474.504	2.49
474.859	2.47
475.213	2.63
475.567	2.52
475.921	2.49
476.275	2.66
476.63	2.56
476.984	2.4
477.338	2.52
477.692	2.62
478.045	2.59
478.399	2.44
478.753	2.57
479.107	2.48
479.461	2.63
479.814	2.56
480.168	2.45
480.521	2.42
480.875	2.5
481.228	2.48
481.582	2.57
481.935	2.59
482.289	2.5
482.642	2.48
482.995	2.48
483.348	2.5
483.701	2.54
484.055	2.6
484.408	2.53
484.761	2.49
485.114	2.4
485.466	2.39
485.819	2.4
486.172	2.4
486.525	2.42
486.878	2.48
487.23	2.47
487.583	2.51
487.936	2.53
488.288	2.5
488.641	2.53
488.993	2.47
489.345	2.45
489.698	2.44
490.05	2.48
490.402	2.51
490.754	2.54
491.107	2.57
491.459	2.6
491.811	2.53
492.163	2.66
492.515	2.66
492.866	2.58
493.218	2.48
493.57	2.49
493.922	2.54
494.274	2.5
494.625	2.62
494.977	2.64
495.328	2.69
495.68	2.59
496.031	2.71
496.383	2.66
496.734	2.67
497.086	2.9
497.437	2.75
497.788	2.75
498.139	2.62
498.49	2.6
498.842	2.77
499.193	2.7
499.544	2.64
499.894	2.65
500.245	2.73
500.596	2.7
500.947	2.77
501.298	2.7
501.648	2.75
501.999	2.85
502.35	2.67
502.7	2.66
503.051	2.82
503.401	2.73
503.752	2.78
504.102	2.68
504.452	2.83
504.803	2.72
505.153	2.8
505.503	2.78
505.853	2.83
506.203	2.85
506.553	2.78
506.903	2.86
507.253	2.77
507.603	2.82
507.953	2.76
508.303	2.87
508.652	2.75
509.002	2.99
509.352	2.87
509.701	2.87
510.051	2.87
510.4	2.77
510.75	2.86
511.099	2.83
511.449	2.84
511.798	2.8
512.147	2.85
512.496	2.82
512.846	2.66
513.195	2.94
513.544	2.89
513.893	2.92
514.242	2.84
514.591	2.89
514.939	2.96
515.288	2.91
515.637	2.91
515.986	2.9
516.334	2.91
516.683	2.96
517.032	3.02
517.38	3.01
517.729	2.99
518.077	2.99
518.426	2.94
518.774	2.93
519.122	2.93
519.47	2.87
519.819	2.91
520.167	2.93
520.515	2.91
520.863	2.93
521.211	2.91
521.559	3.04
521.907	2.96
522.255	3.1
522.602	3.05
522.95	3
523.298	3.02
523.645	3
523.993	3.11
524.341	3.08
524.688	3.13
525.036	2.99
525.383	3.18
525.73	3.11
526.078	3.1
526.425	3.14
526.772	2.94
527.119	3.07
527.466	3.07
527.814	3.09
528.161	3.09
528.508	3.01
528.854	3.05
529.201	3.08
529.548	3.04
529.895	3.05
530.242	2.97
530.588	2.98
530.935	3.01
531.282	3.03
531.628	2.99
531.975	3.12
532.321	3.2
532.667	3.16
533.014	3.14
533.36	3.24
533.706	3.23
534.052	3.19
534.399	3.21
534.745	3.19
535.091	3.14
535.437	3.19
535.783	3.17
536.129	3.27
536.474	3.27
536.82	3.27
537.166	3.26
537.512	3.29
537.857	3.37
538.203	3.21
538.549	3.3
538.894	3.36
539.239	3.33
539.585	3.25
539.93	3.36
540.276	3.38
540.621	3.35
540.966	3.48
541.311	3.44
541.656	3.39
542.001	3.45
542.346	3.41
542.691	3.38
543.036	3.31
543.381	3.37
543.726	3.4
544.071	3.39
544.415	3.42
544.76	3.41
545.105	3.42
545.449	3.46
545.794	3.51
546.138	3.5
546.483	3.52
546.827	3.5
547.171	3.55
547.516	3.64
547.86	3.51
548.204	3.54
548.548	3.54
548.892	3.6
549.236	3.58
549.58	3.59
549.924	3.68
550.268	3.73
550.612	3.56
550.956	3.72
551.3	3.66
551.643	3.82
551.987	3.67
552.33	3.77
552.674	3.72
553.017	3.79
553.361	3.83
553.704	3.78
554.048	3.77
554.391	3.83
554.734	3.91
555.077	3.96
555.42	3.87
555.764	4.05
556.107	4.02
556.45	4.01
556.793	4.01
557.135	4.04
557.478	3.91
557.821	4.09
558.164	4.12
558.507	3.8
558.849	4.01
559.192	4.29
559.534	4.1
559.877	4.12
560.219	4.04
560.562	4.19
560.904	4.33
561.246	4.13
561.589	4.23
561.931	4.21
562.273	4.18
562.615	4.04
562.957	4.15
563.299	4.1
563.641	4.3
563.983	4.22
564.325	4.2
564.667	4.33
565.008	4.31
565.35	4.35
565.692	4.42
566.033	4.36
566.375	4.36
566.716	4.35
567.058	4.56
567.399	4.38
567.741	4.34
568.082	4.48
568.423	4.41
568.764	4.28
569.105	4.48
569.447	4.44
569.788	4.4
570.129	4.51
570.47	4.55
570.811	4.69
571.151	4.71
571.492	4.79
571.833	4.64
572.174	4.69
572.514	4.59
572.855	4.62
573.195	4.64
573.536	4.63
573.876	4.65
574.217	4.64
574.557	4.55
574.898	4.77
575.238	4.63
575.578	4.91
575.918	4.67
576.258	4.57
576.598	4.87
576.938	4.96
577.278	4.58
577.618	4.6
577.958	4.75
578.298	4.84
578.638	4.94
578.977	5.09
579.317	5.16
579.657	4.95
579.996	5.04
580.336	4.96
580.675	4.93
581.014	5.14
581.354	5.19
581.693	5.21
582.032	5.01
582.372	5.27
582.711	5.33
583.05	5.1
583.389	5.14
583.728	5.24
584.067	5.35
584.406	5.08
584.745	5.63
585.083	5.29
585.422	5.53
585.761	5.43
586.1	5.42
586.438	5.05
586.777	5.6
587.115	5.4
587.454	5.67
587.792	5.71
588.13	5.45
588.469	5.63
588.807	5.58
589.145	5.58
589.483	5.31
589.821	5.75
590.159	5.43
590.497	5.65
590.835	5.51
591.173	5.54
591.511	5.78
591.849	5.94
592.187	5.51
592.524	5.68
592.862	5.66
593.2	5.79
593.537	5.71
593.875	5.74
594.212	5.59
594.55	5.67
594.887	5.8
595.224	6
595.561	5.77
595.899	5.91
596.236	5.94
596.573	6.02
596.91	6.05
597.247	5.98
597.584	5.83
597.921	6.28
598.258	5.88
598.594	5.72
598.931	6.13
599.268	6.21
599.604	6.04
599.941	6.21
600.277	6.07
600.614	6.28
600.95	6.23
601.287	6.03
601.623	6.32
601.959	6.14
602.296	6.25
602.632	6.43
602.968	6.53
603.304	6.46
603.64	6.65
603.976	6.18
604.312	6.54
604.648	6.23
604.984	6.46
605.319	6.4
605.655	6.34
605.991	6.56
606.326	6.47
606.662	6.28
606.998	6.37
607.333	6.48
607.668	6.57
608.004	6.46
608.339	6.61
608.674	6.87
609.01	6.61
609.345	6.71
609.68	6.83
610.015	6.76
610.35	6.82
610.685	7.06
611.02	6.92
611.355	6.73
611.689	7.05
612.024	6.83
612.359	6.94
612.694	7
613.028	7.2
613.363	7.29
613.697	7.11
614.032	7.01
614.366	7.19
614.7	7.21
615.035	7.2
615.369	6.96
615.703	7.63
616.037	7.05
616.371	7.27
616.705	7.17
617.039	7.3
617.373	7.51
617.707	7.52
618.041	7.5
618.375	7.72
618.709	7.62
619.042	7.79
619.376	7.55
619.71	7.5
620.043	7.82
620.377	7.75
620.71	7.63
621.043	7.3
621.377	7.8
621.71	7.48
622.043	7.73
622.376	7.77
622.709	7.86
623.043	7.76
623.376	8.07
623.709	7.51
624.041	7.79
624.374	7.56
624.707	7.63
625.04	7.97
625.373	8.03
625.705	7.88
626.038	7.75
626.37	7.95
626.703	8.23
627.035	7.76
627.368	7.83
627.7	7.96
628.032	8.21
628.365	8.36
628.697	7.75
629.029	8.04
629.361	8.04
629.693	8.11
630.025	8.37
630.357	8.24
630.689	8.39
631.021	8.18
631.353	8.23
631.684	8.41
632.016	8.18
632.348	8.45
632.679	8.32
633.011	8.23
633.342	8.43
633.674	8.52
634.005	8.65
634.336	8.52
634.668	8.51
634.999	8.68
635.33	8.45
635.661	8.7
635.992	8.78
636.323	8.83
636.654	8.46
636.985	8.98
637.316	8.65
637.647	8.68
637.977	8.93
638.308	8.93
638.639	8.98
638.969	8.87
639.3	8.92
639.63	8.68
639.961	8.75
640.291	9.29
640.622	9.36
640.952	9.05
641.282	9.11
641.612	9.17
641.943	9.12
642.273	9
642.603	9.29
642.933	9.23
643.263	9.23
643.592	9.14
643.922	9.48
644.252	9.24
644.582	9.31
644.911	9.65
645.241	9.48
645.571	9.27
645.9	9.49
646.23	9.18
646.559	9.8
646.888	9.47
647.218	9.92
647.547	9.5
647.876	9.8
648.205	9.08
648.534	9.86
648.863	9.5
649.192	9.86
649.521	9.79
649.85	10.03
650.179	9.62
650.508	9.37
650.837	9.97
651.165	9.61
651.494	9.88
651.822	10.23
652.151	9.9
652.479	9.54
652.808	9.46
653.136	10.23
653.465	9.58
653.793	10.13
654.121	10.09
654.449	9.37
654.777	9.78
655.105	10.17
655.433	9.66
655.761	10.1
656.089	9.62
656.417	9.62
656.745	9.67
657.073	10.09
657.4	10.22
657.728	9.71
658.056	9.67
658.383	10.38
658.711	9.94
659.038	10.2
659.365	10.75
659.693	10.55
660.02	10.31
660.347	10.38
660.674	10.22
661.001	10.34
661.329	10.21
661.656	10.39
661.982	10.07
662.309	10.19
662.636	10.06
662.963	10.37
663.29	10.05
663.616	10.39
663.943	10.64
664.27	10.84
664.596	10.53
664.923	10.58
665.249	10.46
665.576	10.57
665.902	10.6
666.228	10.24
666.554	11.21
666.881	10.8
667.207	11.09
667.533	11.12
667.859	10.98
668.185	10.64
668.511	11.19
668.837	10.96
669.162	11.26
669.488	10.56
669.814	10.89
670.139	11.16
670.465	10.76
670.791	10.45
671.116	11.1
671.442	11.03
671.767	11.05
672.092	10.71
672.418	11.32
672.743	11.65
673.068	11.38
673.393	11.71
673.718	11.45
674.043	11.46
674.368	11.06
674.693	11.72
675.018	11.55
675.343	11.71
675.667	11.88
675.992	11.09
676.317	11.39
676.641	11.3
676.966	11.21
677.29	11.45
677.615	11.07
677.939	11.56
678.264	12.05
678.588	11.12
678.912	11.89
679.236	11.67
679.56	11.33
679.885	11.74
680.209	11.54
680.532	11.71
680.856	11.85
681.18	11.78
681.504	11.82
681.828	11.68
682.152	12.14
682.475	12.3
682.799	11.81
683.122	12.23
683.446	12.05
683.769	11.81
684.093	11.78
684.416	11.15
684.739	11.62
685.062	12.68
685.386	12.53
685.709	12.37
686.032	12.73
686.355	12.85
686.678	12.38
687.001	12.07
687.324	12.28
687.646	12.95
687.969	11.89
688.292	12.78
688.614	12.11
688.937	12.73
689.26	12.12
689.582	12.77
