Data from 0048_chest_Reflection__3__184.txt Node

Date: Fri Nov 04 16:21:21 CDT 2022
User: ToomeyLab
Spectrometer: FLMS14357
Trigger mode: 0
Integration Time (sec): 1.000000E-2
Scans to average: 100
Electric dark correction enabled: true
Nonlinearity correction enabled: false
Boxcar width: 0
XAxis mode: Wavelengths
Number of Pixels in Spectrum: 2048
>>>>>Begin Spectral Data<<<<<
189.047	-353.85
189.435	-353.85
189.823	-353.85
190.211	-210.3
190.599	213.48
190.987	42.21
191.375	51.27
191.763	-60.83
192.151	9.19
192.538	-31.43
192.926	10.83
193.314	261.79
193.702	83.42
194.089	32.66
194.477	-89.21
194.864	-136.56
195.252	108.77
195.639	254.05
196.027	11.71
196.414	62.03
196.801	-20.43
197.189	7755.56
197.576	223.34
197.963	105.41
198.351	-13.18
198.738	-0.75
199.125	-2.24
199.512	-83.17
199.899	-42.19
200.286	-1.61
200.673	-5.48
201.06	-34.48
201.447	49.87
201.833	-8.98
202.22	-37.62
202.607	-12.1
202.994	40.44
203.38	16.31
203.767	-7.97
204.154	17.49
204.54	-43.39
204.927	-2.29
205.313	23.53
205.699	48
206.086	4.51
206.472	-1.06
206.858	-54.27
207.245	2.64
207.631	-8.1
208.017	-8.28
208.403	-12.15
208.789	44.48
209.175	-35.19
209.561	-78.56
209.947	-87.3
210.333	28.98
210.719	8.01
211.105	-26.95
211.491	20.23
211.876	-3.66
212.262	-19.38
212.648	-20.49
213.034	35.56
213.419	-0.48
213.805	4.46
214.19	-41.31
214.576	-42.89
214.961	11.09
215.346	25.75
215.732	16.06
216.117	-9.95
216.502	-3.11
216.888	0.06
217.273	1.12
217.658	-22.51
218.043	-26.49
218.428	-31.57
218.813	-22.02
219.198	-12.63
219.583	-30.61
219.968	9.05
220.353	-36.14
220.738	-31.37
221.122	25.78
221.507	4.52
221.892	-19.23
222.276	-3.68
222.661	2.44
223.046	0.2
223.43	-3.99
223.815	-14.58
224.199	10.39
224.583	1.12
224.968	-2.96
225.352	-5.41
225.736	-5.66
226.121	-11.41
226.505	-0.59
226.889	5.33
227.273	-3.79
227.657	-3.15
228.041	7.68
228.425	5.13
228.809	4.14
229.193	0.92
229.577	1.5
229.961	3.31
230.344	3.98
230.728	2.74
231.112	2.02
231.495	2.71
231.879	2.73
232.263	1.87
232.646	0.94
233.03	1.55
233.413	0.8
233.797	1.03
234.18	-0.37
234.563	3.44
234.946	0.9
235.33	2.86
235.713	2.54
236.096	2.09
236.479	1.99
236.862	1.36
237.245	3.15
237.628	3.21
238.011	0.35
238.394	3.01
238.777	2.29
239.16	2.59
239.543	2.13
239.925	3.92
240.308	4.74
240.691	2.62
241.073	4.56
241.456	2.73
241.838	2.05
242.221	3.24
242.603	2.96
242.986	3.13
243.368	3.29
243.75	2.88
244.133	2.98
244.515	3.3
244.897	3.11
245.279	2.95
245.661	3.48
246.043	3.8
246.425	3.09
246.807	3.88
247.189	3.07
247.571	3.15
247.953	3.54
248.335	3.04
248.717	3.39
249.098	3.25
249.48	3.45
249.862	3.41
250.243	2.95
250.625	3.18
251.006	3.32
251.388	3.54
251.769	3.52
252.151	3.87
252.532	3.21
252.913	2.88
253.295	4.01
253.676	2.93
254.057	2.97
254.438	3.04
254.819	3.44
255.2	2.82
255.581	3.02
255.962	3.9
256.343	1.95
256.724	3.2
257.105	2.5
257.486	4.23
257.867	3.97
258.247	3.39
258.628	2.94
259.009	2.91
259.389	3.1
259.77	3.4
260.15	3.82
260.531	3.55
260.911	3.21
261.292	3.38
261.672	3.18
262.052	3.13
262.432	3.22
262.813	2.84
263.193	2.68
263.573	3.12
263.953	2.99
264.333	3.49
264.713	3.75
265.093	3.07
265.473	3.17
265.853	3.02
266.233	3.3
266.612	3.17
266.992	3.5
267.372	2.15
267.752	2.53
268.131	3.09
268.511	3.23
268.89	2.96
269.27	3.09
269.649	3.22
270.029	2.72
270.408	3.1
270.787	3.2
271.167	3.4
271.546	3.51
271.925	2.76
272.304	2.54
272.683	2.29
273.062	3.44
273.441	3.4
273.82	3.05
274.199	3.03
274.578	2.73
274.957	3.07
275.336	2.72
275.715	3.24
276.093	3.08
276.472	2.26
276.851	2.91
277.229	3.03
277.608	2.78
277.986	3.11
278.365	3.14
278.743	3.2
279.122	3.3
279.5	2.87
279.878	3.39
280.257	3.02
280.635	2.5
281.013	3.06
281.391	2.93
281.769	3.31
282.147	2.72
282.525	2.96
282.903	3.16
283.281	3.23
283.659	3.11
284.037	2.74
284.415	3.02
284.792	3.4
285.17	2.7
285.548	3.33
285.925	2.99
286.303	3.1
286.68	3.23
287.058	2.96
287.435	2.95
287.813	2.88
288.19	3.13
288.567	3.33
288.945	2.92
289.322	3.3
289.699	3.35
290.076	3.39
290.453	3.13
290.83	2.83
291.207	3.04
291.584	2.96
291.961	3.56
292.338	3.36
292.715	3.45
293.092	3.22
293.469	3.51
293.845	2.99
294.222	3.61
294.599	3.17
294.975	3.3
295.352	3.36
295.728	3.39
296.105	3.47
296.481	3.35
296.858	3.59
297.234	3.69
297.61	3.34
297.986	3.63
298.363	3.35
298.739	3.66
299.115	3.49
299.491	3.63
299.867	3.41
300.243	3.53
300.619	3.65
300.995	3.62
301.371	4.17
301.746	3.42
302.122	3.57
302.498	3.58
302.874	3.73
303.249	3.26
303.625	3.29
304	3.64
304.376	3.4
304.751	3.65
305.127	3.15
305.502	3.61
305.878	3.76
306.253	3.67
306.628	3.49
307.003	3.54
307.378	3.6
307.754	3.7
308.129	3.34
308.504	3.49
308.879	3.27
309.254	3.76
309.629	3.85
310.003	4.19
310.378	3.82
310.753	4.41
311.128	3.6
311.502	3.46
311.877	3.97
312.252	3.91
312.626	3.71
313.001	3.44
313.375	4.04
313.75	3.69
314.124	3.53
314.498	4.06
314.873	3.97
315.247	3.92
315.621	4.02
315.995	4.09
316.369	3.83
316.743	4.54
317.117	4.17
317.491	4.18
317.865	3.56
318.239	3.97
318.613	4.07
318.987	4.2
319.361	3.89
319.734	4.31
320.108	4.44
320.482	3.07
320.855	4.05
321.229	3.76
321.602	3.67
321.976	3.53
322.349	4.72
322.723	4.17
323.096	4.2
323.469	4.3
323.843	4.29
324.216	4.3
324.589	3.98
324.962	4.71
325.335	3.55
325.708	4.14
326.081	4.22
326.454	4.16
326.827	4.34
327.2	4.09
327.573	4.06
327.945	4.39
328.318	3.64
328.691	4.1
329.063	4.3
329.436	4.3
329.809	4.21
330.181	4.09
330.553	3.76
330.926	4.32
331.298	4.13
331.671	3.62
332.043	4
332.415	4.53
332.787	3.72
333.159	3.56
333.532	3.47
333.904	4.49
334.276	3.9
334.648	4.63
335.02	3.86
335.391	4.39
335.763	4.37
336.135	4.27
336.507	4.33
336.879	4.24
337.25	4.08
337.622	4.24
337.993	4.08
338.365	4.03
338.736	4.63
339.108	4.64
339.479	4.58
339.851	4.06
340.222	4
340.593	4.01
340.964	4.28
341.336	3.91
341.707	4.21
342.078	3.96
342.449	4.35
342.82	4.46
343.191	4.18
343.562	4.1
343.933	4.29
344.303	4.29
344.674	4.46
345.045	4.24
345.416	4.11
345.786	4.74
346.157	4.76
346.527	4.59
346.898	4.55
347.268	4.24
347.639	4.07
348.009	4.5
348.38	4.3
348.75	3.98
349.12	3.91
349.49	4.38
349.861	4.37
350.231	4.56
350.601	4.51
350.971	4
351.341	4.45
351.711	4.57
352.081	4.34
352.45	4.24
352.82	4.48
353.19	4.47
353.56	4.3
353.929	4.35
354.299	4.55
354.669	4.6
355.038	4.48
355.408	4.17
355.777	4.2
356.147	4.29
356.516	3.99
356.885	4.43
357.254	4.39
357.624	4.25
357.993	4.58
358.362	4.04
358.731	4.52
359.1	4.57
359.469	4.48
359.838	4.4
360.207	4.34
360.576	4.29
360.945	4.48
361.314	4.54
361.682	4.53
362.051	4.61
362.42	4.7
362.788	4.26
363.157	4.47
363.525	4.54
363.894	4.35
364.262	4.52
364.631	4.33
364.999	4.38
365.367	4.42
365.735	4.47
366.104	4.42
366.472	4.81
366.84	4.08
367.208	4.6
367.576	4.44
367.944	4.87
368.312	4.6
368.68	4.2
369.048	4.32
369.416	4.56
369.783	4.57
370.151	4.07
370.519	4.97
370.886	4.41
371.254	4.43
371.621	4.66
371.989	4.49
372.356	4.63
372.724	4.58
373.091	4.41
373.458	4.63
373.826	4.65
374.193	4.35
374.56	4.33
374.927	5.05
375.294	4.42
375.661	4.85
376.028	4.4
376.395	4.67
376.762	4.68
377.129	4.63
377.496	4.79
377.863	4.79
378.229	4.42
378.596	4.53
378.963	4.7
379.329	4.36
379.696	4.54
380.062	4.81
380.429	4.59
380.795	4.45
381.161	4.66
381.528	4.71
381.894	4.35
382.26	4.54
382.626	4.41
382.993	4.85
383.359	4.62
383.725	4.45
384.091	4.83
384.457	4.61
384.823	4.53
385.188	4.77
385.554	4.49
385.92	4.55
386.286	4.55
386.651	4.43
387.017	4.56
387.383	4.7
387.748	4.66
388.114	4.53
388.479	5.12
388.845	4.77
389.21	4.96
389.575	4.78
389.94	5.04
390.306	4.76
390.671	4.78
391.036	4.4
391.401	4.87
391.766	4.54
392.131	4.48
392.496	4.81
392.861	4.75
393.226	4.8
393.591	4.78
393.956	4.74
394.32	4.64
394.685	4.84
395.05	5
395.414	4.72
395.779	4.76
396.143	4.84
396.508	4.87
396.872	4.72
397.236	4.87
397.601	5.02
397.965	4.82
398.329	4.77
398.694	5.09
399.058	4.93
399.422	4.98
399.786	4.69
400.15	4.66
400.514	4.76
400.878	5.06
401.242	4.93
401.605	4.85
401.969	5.04
402.333	4.73
402.697	4.82
403.06	5.04
403.424	4.75
403.787	4.89
404.151	4.95
404.514	5.24
404.878	4.9
405.241	5
405.604	5
405.968	4.72
406.331	4.98
406.694	4.83
407.057	4.97
407.42	4.97
407.783	4.79
408.146	5.02
408.509	5.07
408.872	4.97
409.235	5.02
409.598	5
409.961	5.06
410.323	5.03
410.686	4.98
411.049	4.88
411.411	4.85
411.774	5.14
412.136	5.09
412.499	5.14
412.861	5.03
413.223	4.99
413.586	4.98
413.948	5.02
414.31	5.14
414.672	5.31
415.035	5.21
415.397	5.01
415.759	5.35
416.121	5.03
416.483	5.01
416.845	5.27
417.206	5.02
417.568	5.12
417.93	5.22
418.292	5.05
418.653	5.13
419.015	5
419.377	5.06
419.738	5.05
420.1	5.1
420.461	5.05
420.822	5.02
421.184	5.11
421.545	4.89
421.906	5.07
422.267	4.97
422.629	5.06
422.99	4.91
423.351	4.95
423.712	5.01
424.073	5.13
424.434	4.98
424.795	5.1
425.155	5.11
425.516	5.06
425.877	5.01
426.238	5.03
426.598	5.09
426.959	5.03
427.32	4.98
427.68	5.11
428.041	5.04
428.401	5.3
428.761	5.28
429.122	5.11
429.482	5.22
429.842	5.01
430.202	5.26
430.563	5.24
430.923	5.29
431.283	5.28
431.643	5.46
432.003	5.54
432.363	5.37
432.722	5.3
433.082	5.35
433.442	5.25
433.802	5.23
434.161	5.36
434.521	5.17
434.881	5.24
435.24	5.07
435.6	5.25
435.959	5.23
436.319	5.31
436.678	5.32
437.037	5.48
437.396	5.43
437.756	5.42
438.115	5.15
438.474	5.44
438.833	5.32
439.192	5.26
439.551	5.36
439.91	5.43
440.269	5.3
440.628	5.36
440.987	5.34
441.345	5.23
441.704	5.35
442.063	5.3
442.421	5.29
442.78	5.41
443.138	5.4
443.497	5.33
443.855	5.29
444.214	5.5
444.572	5.48
444.93	5.52
445.288	5.44
445.647	5.43
446.005	5.51
446.363	5.41
446.721	5.36
447.079	5.35
447.437	5.36
447.795	5.33
448.153	5.29
448.51	5.36
448.868	5.42
449.226	5.26
449.584	5.38
449.941	5.4
450.299	5.37
450.656	5.47
451.014	5.57
451.371	5.57
451.729	5.49
452.086	5.55
452.443	5.59
452.801	5.67
453.158	5.61
453.515	5.5
453.872	5.29
454.229	5.66
454.586	5.62
454.943	5.69
455.3	5.66
455.657	5.57
456.014	5.57
456.371	5.51
456.727	5.63
457.084	5.59
457.441	5.52
457.797	5.59
458.154	5.63
458.51	5.67
458.867	5.53
459.223	5.57
459.58	5.86
459.936	5.53
460.292	5.54
460.648	5.62
461.005	5.63
461.361	5.6
461.717	5.6
462.073	5.64
462.429	5.65
462.785	5.64
463.141	5.71
463.496	5.6
463.852	5.78
464.208	5.61
464.564	5.65
464.919	5.85
465.275	5.9
465.631	5.86
465.986	5.79
466.342	5.68
466.697	5.88
467.052	5.71
467.408	5.79
467.763	5.74
468.118	5.75
468.473	5.89
468.829	5.76
469.184	5.77
469.539	5.81
469.894	5.95
470.249	5.73
470.603	5.85
470.958	5.77
471.313	5.8
471.668	5.71
472.023	5.9
472.377	5.97
472.732	5.89
473.086	5.97
473.441	5.9
473.795	5.93
474.15	6.05
474.504	5.97
474.859	5.87
475.213	5.84
475.567	5.73
475.921	5.82
476.275	5.95
476.63	5.86
476.984	5.85
477.338	5.98
477.692	6.1
478.045	5.93
478.399	5.9
478.753	5.94
479.107	5.92
479.461	6.12
479.814	6.18
480.168	5.96
480.521	5.8
480.875	6.08
481.228	6.11
481.582	6.09
481.935	5.97
482.289	5.97
482.642	6.06
482.995	6.11
483.348	6.03
483.701	6.07
484.055	5.92
484.408	6.02
484.761	5.95
485.114	5.81
485.466	5.81
485.819	5.76
486.172	5.76
486.525	5.8
486.878	5.81
487.23	5.86
487.583	5.88
487.936	5.98
488.288	5.95
488.641	5.98
488.993	5.91
489.345	5.87
489.698	5.92
490.05	5.94
490.402	5.93
490.754	5.99
491.107	6.04
491.459	6.11
491.811	6.04
492.163	6.15
492.515	6.17
492.866	6.06
493.218	6.06
493.57	6.07
493.922	6.1
494.274	6.08
494.625	6.07
494.977	6.2
495.328	6.17
495.68	6.14
496.031	6.19
496.383	6.27
496.734	6.27
497.086	6.46
497.437	6.52
497.788	6.47
498.139	6.27
498.49	6.24
498.842	6.45
499.193	6.34
499.544	6.34
499.894	6.3
500.245	6.45
500.596	6.35
500.947	6.4
501.298	6.45
501.648	6.48
501.999	6.68
502.35	6.52
502.7	6.44
503.051	6.49
503.401	6.43
503.752	6.66
504.102	6.55
504.452	6.55
504.803	6.63
505.153	6.62
505.503	6.58
505.853	6.64
506.203	6.59
506.553	6.7
506.903	6.69
507.253	6.66
507.603	6.61
507.953	6.58
508.303	6.7
508.652	6.65
509.002	6.73
509.352	6.76
509.701	6.65
510.051	6.67
510.4	6.74
510.75	6.67
511.099	6.72
511.449	6.65
511.798	6.72
512.147	6.81
512.496	6.61
512.846	6.73
513.195	6.81
513.544	6.77
513.893	6.88
514.242	6.86
514.591	6.68
514.939	6.86
515.288	6.86
515.637	6.82
515.986	6.85
516.334	6.98
516.683	6.96
517.032	7.01
517.38	7.06
517.729	6.92
518.077	7.08
518.426	7.02
518.774	6.94
519.122	7.01
519.47	6.96
519.819	7
520.167	7.01
520.515	6.89
520.863	6.88
521.211	6.91
521.559	7.03
521.907	6.96
522.255	7.02
522.602	7.04
522.95	7.08
523.298	7.27
523.645	7.27
523.993	7.09
524.341	7.22
524.688	7.16
525.036	7.14
525.383	7.34
525.73	7.26
526.078	7.29
526.425	7.27
526.772	7.15
527.119	7.17
527.466	7.19
527.814	7.23
528.161	7.15
528.508	7.21
528.854	7.13
529.201	7.19
529.548	7.09
529.895	7.14
530.242	7.09
530.588	7.05
530.935	7.11
531.282	7.1
531.628	7.08
531.975	7.14
532.321	7.25
532.667	7.28
533.014	7.26
533.36	7.35
533.706	7.43
534.052	7.37
534.399	7.39
534.745	7.43
535.091	7.35
535.437	7.39
535.783	7.33
536.129	7.47
536.474	7.49
536.82	7.41
537.166	7.49
537.512	7.6
537.857	7.58
538.203	7.56
538.549	7.55
538.894	7.68
539.239	7.73
539.585	7.68
539.93	7.67
540.276	7.73
540.621	7.8
540.966	7.81
541.311	7.71
541.656	7.86
542.001	7.82
542.346	7.9
542.691	7.82
543.036	7.71
543.381	7.71
543.726	7.7
544.071	7.72
544.415	7.76
544.76	7.77
545.105	7.79
545.449	7.9
545.794	7.93
546.138	8.01
546.483	7.98
546.827	8.01
547.171	8.12
547.516	8.05
547.86	8.1
548.204	8.01
548.548	8
548.892	8.07
549.236	8.12
549.58	8.11
549.924	8.14
550.268	8.29
550.612	8.17
550.956	8.4
551.3	8.26
551.643	8.34
551.987	8.33
552.33	8.4
552.674	8.5
553.017	8.58
553.361	8.71
553.704	8.57
554.048	8.42
554.391	8.39
554.734	8.56
555.077	8.53
555.42	8.44
555.764	8.74
556.107	8.66
556.45	8.59
556.793	8.8
557.135	8.6
557.478	8.63
557.821	8.88
558.164	8.78
558.507	8.69
558.849	9
559.192	8.76
559.534	8.67
559.877	8.89
560.219	8.81
560.562	8.94
560.904	8.93
561.246	8.87
561.589	8.93
561.931	9
562.273	9.04
562.615	9
562.957	9.07
563.299	9.1
563.641	9.12
563.983	9.13
564.325	8.97
564.667	9.1
565.008	9.08
565.35	9.18
565.692	9.34
566.033	9.23
566.375	9.31
566.716	9.22
567.058	9.48
567.399	9.24
567.741	9.37
568.082	9.23
568.423	9.25
568.764	9.25
569.105	9.24
569.447	9.32
569.788	9.33
570.129	9.24
570.47	9.38
570.811	9.6
571.151	9.58
571.492	9.69
571.833	9.36
572.174	9.61
572.514	9.42
572.855	9.53
573.195	9.62
573.536	9.61
573.876	9.54
574.217	9.52
574.557	9.56
574.898	9.7
575.238	9.47
575.578	9.82
575.918	9.67
576.258	9.73
576.598	9.77
576.938	9.96
577.278	9.77
577.618	9.73
577.958	9.8
578.298	9.73
578.638	9.82
578.977	10.03
579.317	10.04
579.657	9.9
579.996	10.16
580.336	9.89
580.675	10.07
581.014	10.02
581.354	10.13
581.693	10.37
582.032	10.12
582.372	10.33
582.711	10.33
583.05	10.34
583.389	10.1
583.728	10.34
584.067	10.54
584.406	10.24
584.745	10.5
585.083	10.39
585.422	10.64
585.761	10.43
586.1	10.42
586.438	10.46
586.777	10.72
587.115	10.36
587.454	10.81
587.792	10.92
588.13	10.67
588.469	10.74
588.807	10.8
589.145	10.94
589.483	10.56
589.821	10.62
590.159	10.54
590.497	11
590.835	10.64
591.173	10.69
591.511	10.87
591.849	10.89
592.187	10.87
592.524	10.76
592.862	10.95
593.2	10.84
593.537	10.98
593.875	11.04
594.212	10.85
594.55	10.92
594.887	11
595.224	11.17
595.561	10.81
595.899	10.96
596.236	11.18
596.573	11.24
596.91	11.31
597.247	11.11
597.584	11.24
597.921	11.45
598.258	11.17
598.594	11
598.931	11.27
599.268	11.45
599.604	11.24
599.941	11.32
600.277	11.21
600.614	11.29
600.95	11.48
601.287	11.32
601.623	11.63
601.959	11.59
602.296	11.62
602.632	11.67
602.968	11.38
603.304	11.39
603.64	11.78
603.976	11.38
604.312	11.7
604.648	11.69
604.984	11.72
605.319	11.69
605.655	11.66
605.991	11.84
606.326	11.95
606.662	11.65
606.998	11.66
607.333	11.69
607.668	11.7
608.004	11.82
608.339	11.88
608.674	12.22
609.01	12.02
609.345	12.08
609.68	12.05
610.015	12.05
610.35	12.13
610.685	12.08
611.02	12.16
611.355	12.27
611.689	12.08
612.024	12.03
612.359	12.1
612.694	12.21
613.028	12.41
613.363	12.45
613.697	12.12
614.032	12.37
614.366	12.53
614.7	12.34
615.035	12.1
615.369	12.61
615.703	12.54
616.037	12.52
616.371	12.61
616.705	12.52
617.039	12.77
617.373	12.77
617.707	12.63
618.041	12.66
618.375	12.73
618.709	12.84
619.042	12.78
619.376	12.74
619.71	12.9
620.043	12.99
620.377	12.99
620.71	13.26
621.043	12.59
621.377	13.18
621.71	12.81
622.043	13.2
622.376	12.78
622.709	13.17
623.043	13.11
623.376	13.33
623.709	12.88
624.041	13.18
624.374	13.03
624.707	12.78
625.04	13.22
625.373	13.06
625.705	12.8
626.038	12.99
626.37	13.33
626.703	13.47
627.035	13.3
627.368	13.49
627.7	13.52
628.032	13.3
628.365	13.64
628.697	13.4
629.029	13.47
629.361	13.57
629.693	13.46
630.025	13.79
630.357	13.55
630.689	13.4
631.021	13.22
631.353	13.37
631.684	13.6
632.016	14.07
632.348	13.79
632.679	13.71
633.011	13.75
633.342	13.63
633.674	13.63
634.005	13.69
634.336	13.95
634.668	14.25
634.999	14.32
635.33	13.44
635.661	14.05
635.992	14.12
636.323	13.81
636.654	13.81
636.985	14.21
637.316	14.38
637.647	13.89
637.977	14.29
638.308	14.55
638.639	14.28
638.969	13.86
639.3	14.6
639.63	14.16
639.961	14.54
640.291	14.41
640.622	14.78
640.952	14.37
641.282	14.46
641.612	14.38
641.943	14.27
642.273	14.16
642.603	14.2
642.933	14.67
643.263	14.14
643.592	14.68
643.922	15.12
644.252	14.68
644.582	14.82
644.911	14.98
645.241	14.81
645.571	14.1
645.9	14.62
646.23	15.02
646.559	14.67
646.888	14.7
647.218	14.98
647.547	15.3
647.876	15.28
648.205	14.36
648.534	15.2
648.863	15.33
649.192	14.76
649.521	15.47
649.85	15.37
650.179	14.5
650.508	14.6
650.837	15.11
651.165	15.14
651.494	14.91
651.822	15.08
652.151	15.37
652.479	15.16
652.808	14.71
653.136	15.02
653.465	15.1
653.793	15.51
654.121	15.4
654.449	15.14
654.777	14.87
655.105	15.17
655.433	15.35
655.761	15.69
656.089	15.18
656.417	15.82
656.745	15.16
657.073	15.34
657.4	15.69
657.728	15.75
658.056	15.35
658.383	15.81
658.711	15.63
659.038	15.56
659.365	15.98
659.693	16.05
660.02	15.97
660.347	15.67
660.674	16.07
661.001	15.92
661.329	15.85
661.656	15.92
661.982	15.59
662.309	15.71
662.636	16.01
662.963	15.43
663.29	15.37
663.616	16.26
663.943	15.9
664.27	16.31
664.596	15.7
664.923	15.92
665.249	16.39
665.576	16.45
665.902	15.62
666.228	16.18
666.554	16.72
666.881	15.96
667.207	16.15
667.533	16.25
667.859	15.99
668.185	16.31
668.511	16.28
668.837	16.7
669.162	16.77
669.488	15.99
669.814	16.35
670.139	16.3
670.465	16.62
670.791	15.87
671.116	16.54
671.442	16.53
671.767	16.77
672.092	16.45
672.418	16.88
672.743	17.22
673.068	16.22
673.393	17.32
673.718	17.12
674.043	16.21
674.368	16.17
674.693	16.83
675.018	16.68
675.343	17.23
675.667	16.89
675.992	16.79
676.317	16.75
676.641	16.9
676.966	16.91
677.29	17.04
677.615	16.68
677.939	16.27
678.264	17.55
678.588	16.52
678.912	17.47
679.236	17.15
679.56	16.72
679.885	16.89
680.209	17.47
680.532	17.82
680.856	17.13
681.18	16.42
681.504	17.47
681.828	16.96
682.152	17.57
682.475	17.4
682.799	17.88
683.122	17.44
683.446	17.44
683.769	17.12
684.093	17.45
684.416	17.4
684.739	17.63
685.062	17.91
685.386	17.62
