Data from 0048_chest_Reflection__4__185.txt Node

Date: Fri Nov 04 16:21:43 CDT 2022
User: ToomeyLab
Spectrometer: FLMS14357
Trigger mode: 0
Integration Time (sec): 1.000000E-2
Scans to average: 100
Electric dark correction enabled: true
Nonlinearity correction enabled: false
Boxcar width: 0
XAxis mode: Wavelengths
Number of Pixels in Spectrum: 2048
>>>>>Begin Spectral Data<<<<<
189.047	-103.46
189.435	-103.46
189.823	-103.46
190.211	730.36
190.599	212.24
190.987	85.33
191.375	62.1
191.763	38.89
192.151	0.22
192.538	37.46
192.926	139.2
193.314	535.16
193.702	71.15
194.089	26.68
194.477	20.01
194.864	6.5
195.252	53.87
195.639	173.34
196.027	166.33
196.414	-119.54
196.801	340.02
197.189	8952.78
197.576	163.6
197.963	-15.31
198.351	-63.08
198.738	4.11
199.125	-6.18
199.512	-30.76
199.899	5.86
200.286	-8.95
200.673	-42.42
201.06	-31.58
201.447	-3.51
201.833	-19.59
202.22	39.64
202.607	22.4
202.994	58.97
203.38	39.47
203.767	2.94
204.154	48.77
204.54	-35.81
204.927	12.54
205.313	42.73
205.699	21.26
206.086	21.29
206.472	-6.81
206.858	15.09
207.245	3.89
207.631	18.66
208.017	4.79
208.403	28.53
208.789	32.84
209.175	20.31
209.561	-45.73
209.947	-84.45
210.333	16.69
210.719	27.72
211.105	-50.72
211.491	9.41
211.876	30.04
212.262	31.9
212.648	7.16
213.034	16.56
213.419	0.84
213.805	2.36
214.19	-1.49
214.576	-5.93
214.961	47.64
215.346	6.87
215.732	-5.43
216.117	15.54
216.502	9.17
216.888	-7.2
217.273	5.04
217.658	-8.8
218.043	-19.72
218.428	15.43
218.813	3.62
219.198	-2.62
219.583	-27.5
219.968	22.96
220.353	-3.92
220.738	-27.57
221.122	-4.53
221.507	23.1
221.892	-12.15
222.276	1.23
222.661	23.59
223.046	14.56
223.43	1.3
223.815	-3.08
224.199	9.25
224.583	0.61
224.968	4.93
225.352	18.31
225.736	0.08
226.121	-5.52
226.505	14.81
226.889	3.33
227.273	5.61
227.657	4.1
228.041	11.23
228.425	3.53
228.809	10.31
229.193	4.09
229.577	2.85
229.961	5.94
230.344	5.65
230.728	6.12
231.112	5.15
231.495	5.06
231.879	5.43
232.263	5.95
232.646	4.88
233.03	5.82
233.413	4.51
233.797	4.83
234.18	3.68
234.563	5.62
234.946	5.63
235.33	7.05
235.713	3.94
236.096	5.56
236.479	4.6
236.862	5.56
237.245	3.79
237.628	4.78
238.011	3.77
238.394	6.73
238.777	6.55
239.16	6.87
239.543	6.87
239.925	5.16
240.308	6.08
240.691	6.92
241.073	4.66
241.456	5.18
241.838	4.63
242.221	6.17
242.603	5.19
242.986	5.14
243.368	5.96
243.75	5.91
244.133	5.69
244.515	5.59
244.897	5.75
245.279	5.25
245.661	5.72
246.043	6.44
246.425	4.27
246.807	6.33
247.189	4.83
247.571	6.13
247.953	5.63
248.335	5.29
248.717	5.33
249.098	5.17
249.48	5.24
249.862	5.34
250.243	5.17
250.625	4.86
251.006	5.19
251.388	4.99
251.769	5.1
252.151	6.49
252.532	5.17
252.913	4.43
253.295	5.44
253.676	4.88
254.057	4.93
254.438	5.14
254.819	4.78
255.2	4.25
255.581	5.69
255.962	5.77
256.343	5.61
256.724	5.63
257.105	3.12
257.486	5.53
257.867	6.15
258.247	5.3
258.628	4.66
259.009	5.26
259.389	4.86
259.77	5.36
260.15	5.14
260.531	4.41
260.911	4.8
261.292	4.88
261.672	4.71
262.052	4.93
262.432	4.82
262.813	4.49
263.193	4.65
263.573	4.6
263.953	4.8
264.333	5.34
264.713	4.67
265.093	5.01
265.473	4.83
265.853	4.06
266.233	5.08
266.612	4.97
266.992	4.56
267.372	3.9
267.752	4.67
268.131	5.15
268.511	5.11
268.89	5.17
269.27	4.85
269.649	4.59
270.029	4.4
270.408	4.32
270.787	4.73
271.167	5.15
271.546	5.65
271.925	4.75
272.304	4.33
272.683	4.42
273.062	4.66
273.441	4.38
273.82	4.15
274.199	4.81
274.578	4.27
274.957	4.58
275.336	4.44
275.715	4.49
276.093	4.48
276.472	4.5
276.851	3.56
277.229	4.31
277.608	4.45
277.986	4.71
278.365	4.66
278.743	4.8
279.122	4.39
279.5	4.76
279.878	4.77
280.257	4.45
280.635	4.22
281.013	4.68
281.391	4.68
281.769	4.14
282.147	4.16
282.525	4.8
282.903	4.5
283.281	4.84
283.659	4.62
284.037	4.31
284.415	4.45
284.792	4.4
285.17	4.65
285.548	4.61
285.925	4.42
286.303	4.49
286.68	4.65
287.058	4.49
287.435	4.16
287.813	4.17
288.19	4.44
288.567	4.42
288.945	4.5
289.322	4.46
289.699	4.68
290.076	4.62
290.453	4.2
290.83	4.19
291.207	4.85
291.584	4.41
291.961	4.43
292.338	4.66
292.715	4.52
293.092	4.3
293.469	4.54
293.845	4.42
294.222	4.23
294.599	3.99
294.975	4.12
295.352	4.39
295.728	4.97
296.105	4.67
296.481	4.3
296.858	3.95
297.234	4.29
297.61	4.5
297.986	4.26
298.363	4.07
298.739	4.37
299.115	4.5
299.491	4.5
299.867	4.28
300.243	4.43
300.619	4.3
300.995	4.93
301.371	4.59
301.746	4.45
302.122	4.24
302.498	4.36
302.874	4.27
303.249	3.77
303.625	4.17
304	4.12
304.376	3.95
304.751	4.17
305.127	3.79
305.502	4.38
305.878	4.46
306.253	4.24
306.628	3.97
307.003	4.18
307.378	4.17
307.754	4.09
308.129	3.97
308.504	3.71
308.879	4.07
309.254	4.23
309.629	4.4
310.003	4.01
310.378	4.18
310.753	4.5
311.128	4.22
311.502	3.86
311.877	4.11
312.252	4.09
312.626	4.37
313.001	4.3
313.375	4.15
313.75	4.12
314.124	3.94
314.498	4.31
314.873	4.52
315.247	4.57
315.621	4.22
315.995	4.3
316.369	4.31
316.743	4.78
317.117	4.54
317.491	4.69
317.865	3.66
318.239	4.43
318.613	4.26
318.987	4
319.361	4.55
319.734	3.96
320.108	4.62
320.482	3.47
320.855	4.56
321.229	4.38
321.602	3.95
321.976	4.33
322.349	4.77
322.723	4.13
323.096	3.68
323.469	4.31
323.843	4.31
324.216	4.19
324.589	3.81
324.962	4.43
325.335	4.13
325.708	4.2
326.081	4.06
326.454	4.27
326.827	4.26
327.2	4.13
327.573	3.79
327.945	4.45
328.318	3.82
328.691	4.53
329.063	4.09
329.436	4.67
329.809	3.92
330.181	4.22
330.553	4.06
330.926	3.87
331.298	4.71
331.671	4.46
332.043	4.22
332.415	4.3
332.787	4.01
333.159	3.92
333.532	4.13
333.904	4.53
334.276	4.3
334.648	4.47
335.02	4.34
335.391	4.07
335.763	4.18
336.135	4.15
336.507	4.29
336.879	4.57
337.25	4.31
337.622	4.46
337.993	4.15
338.365	3.81
338.736	4.38
339.108	4.66
339.479	4.36
339.851	3.96
340.222	3.9
340.593	4.2
340.964	4.22
341.336	3.81
341.707	3.74
342.078	4.33
342.449	4.57
342.82	4.31
343.191	4.14
343.562	4.18
343.933	4.4
344.303	4.53
344.674	4.55
345.045	3.89
345.416	4
345.786	4.09
346.157	4.38
346.527	4.24
346.898	4.31
347.268	4.19
347.639	4.6
348.009	4.15
348.38	3.98
348.75	3.85
349.12	4.11
349.49	4.46
349.861	4.11
350.231	4.46
350.601	4.32
350.971	3.88
351.341	4.15
351.711	4.45
352.081	3.93
352.45	4.32
352.82	4.29
353.19	4.25
353.56	4.1
353.929	4.4
354.299	4.77
354.669	4.59
355.038	4.51
355.408	3.99
355.777	4.34
356.147	4.21
356.516	3.9
356.885	3.94
357.254	4.4
357.624	4.37
357.993	4.44
358.362	4.26
358.731	4.28
359.1	4.25
359.469	4.27
359.838	4.36
360.207	4.1
360.576	4.48
360.945	4.49
361.314	4.33
361.682	4.19
362.051	4.52
362.42	4.43
362.788	4.41
363.157	4.2
363.525	4.27
363.894	4.36
364.262	4.41
364.631	4.58
364.999	4.35
365.367	3.95
365.735	4.48
366.104	4.09
366.472	4.36
366.84	4.04
367.208	4.31
367.576	4.16
367.944	4.64
368.312	4.19
368.68	4.31
369.048	4.41
369.416	4.13
369.783	4.24
370.151	4.37
370.519	4.66
370.886	3.96
371.254	4.12
371.621	4.3
371.989	4.15
372.356	4.18
372.724	4.39
373.091	4.55
373.458	4.18
373.826	4.73
374.193	4.26
374.56	4.15
374.927	4.58
375.294	4.22
375.661	4.69
376.028	3.83
376.395	4.32
376.762	4.52
377.129	4.68
377.496	4.48
377.863	4.36
378.229	4.28
378.596	4.27
378.963	4.51
379.329	4.29
379.696	4.51
380.062	4.67
380.429	4.67
380.795	4.65
381.161	4.47
381.528	4.43
381.894	4.26
382.26	4.26
382.626	4.4
382.993	4.34
383.359	4.48
383.725	4.29
384.091	4.46
384.457	4.44
384.823	4.52
385.188	4.62
385.554	4.39
385.92	4.12
386.286	4.32
386.651	4.53
387.017	4.3
387.383	4.41
387.748	4.31
388.114	4.43
388.479	4.94
388.845	4.57
389.21	4.8
389.575	4.76
389.94	4.8
390.306	4.43
390.671	4.73
391.036	4.35
391.401	4.9
391.766	4.48
392.131	4.73
392.496	4.59
392.861	4.53
393.226	4.56
393.591	4.45
393.956	4.68
394.32	4.33
394.685	4.68
395.05	4.43
395.414	4.55
395.779	4.64
396.143	4.57
396.508	4.74
396.872	4.58
397.236	4.53
397.601	4.56
397.965	4.56
398.329	4.65
398.694	4.81
399.058	4.75
399.422	4.48
399.786	4.47
400.15	4.46
400.514	4.48
400.878	4.68
401.242	4.54
401.605	4.4
401.969	4.61
402.333	4.84
402.697	4.62
403.06	4.66
403.424	4.63
403.787	4.56
404.151	4.46
404.514	4.57
404.878	4.54
405.241	4.72
405.604	4.62
405.968	4.44
406.331	4.67
406.694	4.45
407.057	4.5
407.42	4.55
407.783	4.56
408.146	4.6
408.509	4.75
408.872	4.58
409.235	4.58
409.598	4.74
409.961	4.65
410.323	4.49
410.686	4.4
411.049	4.52
411.411	4.44
411.774	4.68
412.136	4.49
412.499	4.86
412.861	4.63
413.223	4.66
413.586	4.54
413.948	4.79
414.31	4.71
414.672	4.73
415.035	4.73
415.397	4.58
415.759	4.8
416.121	4.45
416.483	4.76
416.845	4.85
417.206	4.49
417.568	4.83
417.93	4.75
418.292	4.5
418.653	4.81
419.015	4.53
419.377	4.57
419.738	4.69
420.1	4.79
420.461	4.63
420.822	4.58
421.184	4.71
421.545	4.6
421.906	4.64
422.267	4.56
422.629	4.62
422.99	4.6
423.351	4.55
423.712	4.61
424.073	4.71
424.434	4.54
424.795	4.73
425.155	4.61
425.516	4.74
425.877	4.6
426.238	4.57
426.598	4.61
426.959	4.56
427.32	4.67
427.68	4.59
428.041	4.63
428.401	4.81
428.761	4.72
429.122	4.67
429.482	4.76
429.842	4.51
430.202	4.81
430.563	4.69
430.923	4.79
431.283	4.64
431.643	4.7
432.003	4.85
432.363	4.86
432.722	4.84
433.082	4.77
433.442	4.72
433.802	4.55
434.161	4.72
434.521	4.74
434.881	4.85
435.24	4.71
435.6	4.88
435.959	4.6
436.319	4.76
436.678	4.8
437.037	4.81
437.396	4.78
437.756	4.72
438.115	4.67
438.474	4.88
438.833	4.79
439.192	4.8
439.551	4.77
439.91	4.74
440.269	4.72
440.628	4.89
440.987	4.75
441.345	4.73
441.704	4.82
442.063	4.68
442.421	4.66
442.78	4.94
443.138	4.85
443.497	4.75
443.855	4.76
444.214	4.83
444.572	4.93
444.93	4.82
445.288	4.77
445.647	4.81
446.005	4.73
446.363	4.86
446.721	4.77
447.079	4.78
447.437	4.73
447.795	4.77
448.153	4.68
448.51	4.77
448.868	4.72
449.226	4.69
449.584	4.87
449.941	4.72
450.299	4.88
450.656	4.77
451.014	4.86
451.371	4.94
451.729	4.94
452.086	4.9
452.443	4.81
452.801	5.01
453.158	4.88
453.515	4.92
453.872	4.91
454.229	4.78
454.586	4.81
454.943	4.89
455.3	5.01
455.657	4.85
456.014	4.89
456.371	4.97
456.727	5.1
457.084	4.88
457.441	4.9
457.797	4.89
458.154	4.96
458.51	4.89
458.867	4.83
459.223	4.93
459.58	5.08
459.936	4.75
460.292	4.75
460.648	4.89
461.005	4.72
461.361	4.87
461.717	4.8
462.073	4.87
462.429	4.89
462.785	4.81
463.141	4.9
463.496	4.81
463.852	4.99
464.208	4.98
464.564	4.99
464.919	4.98
465.275	5
465.631	5.1
465.986	4.86
466.342	4.92
466.697	4.99
467.052	4.95
467.408	4.79
467.763	5.03
468.118	4.93
468.473	4.96
468.829	4.78
469.184	5.04
469.539	4.95
469.894	4.98
470.249	5.01
470.603	5.08
470.958	4.85
471.313	4.92
471.668	4.87
472.023	4.75
472.377	5.07
472.732	5.04
473.086	5
473.441	5.07
473.795	4.89
474.15	4.85
474.504	5.02
474.859	5.03
475.213	4.98
475.567	4.98
475.921	4.9
476.275	4.98
476.63	4.98
476.984	5.01
477.338	5.08
477.692	4.96
478.045	5.07
478.399	5.05
478.753	4.92
479.107	4.99
479.461	5.07
479.814	5.18
480.168	4.97
480.521	4.92
480.875	5.09
481.228	5.01
481.582	5
481.935	5.14
482.289	5.05
482.642	5.06
482.995	5.07
483.348	4.96
483.701	5.05
484.055	4.89
484.408	4.95
484.761	4.95
485.114	4.78
485.466	4.76
485.819	4.74
486.172	4.77
486.525	4.8
486.878	4.82
487.23	4.83
487.583	4.87
487.936	4.96
488.288	4.95
488.641	4.96
488.993	4.89
489.345	4.81
489.698	4.8
490.05	4.87
490.402	4.8
490.754	4.9
491.107	4.96
491.459	4.99
491.811	4.99
492.163	5.03
492.515	5.13
492.866	4.96
493.218	4.93
493.57	4.92
493.922	4.97
494.274	4.89
494.625	4.96
494.977	5.08
495.328	5.12
495.68	4.91
496.031	5
496.383	5.12
496.734	5.1
497.086	5.22
497.437	5.24
497.788	5.24
498.139	5.1
498.49	5.02
498.842	5.16
499.193	5.11
499.544	5.12
499.894	5.04
500.245	5.08
500.596	5.11
500.947	5.13
501.298	5.16
501.648	5.14
501.999	5.23
502.35	5.2
502.7	5.07
503.051	5.18
503.401	5.28
503.752	5.22
504.102	5.23
504.452	5.19
504.803	5.21
505.153	5.27
505.503	5.24
505.853	5.23
506.203	5.19
506.553	5.29
506.903	5.26
507.253	5.15
507.603	5.22
507.953	5.08
508.303	5.35
508.652	5.2
509.002	5.39
509.352	5.39
509.701	5.29
510.051	5.28
510.4	5.35
510.75	5.17
511.099	5.26
511.449	5.19
511.798	5.18
512.147	5.3
512.496	5.2
512.846	5.23
513.195	5.22
513.544	5.25
513.893	5.32
514.242	5.27
514.591	5.28
514.939	5.34
515.288	5.44
515.637	5.28
515.986	5.27
516.334	5.35
516.683	5.43
517.032	5.42
517.38	5.39
517.729	5.4
518.077	5.47
518.426	5.41
518.774	5.49
519.122	5.37
519.47	5.3
519.819	5.35
520.167	5.34
520.515	5.37
520.863	5.33
521.211	5.34
521.559	5.43
521.907	5.39
522.255	5.5
522.602	5.41
522.95	5.53
523.298	5.55
523.645	5.48
523.993	5.49
524.341	5.49
524.688	5.51
525.036	5.5
525.383	5.58
525.73	5.61
526.078	5.55
526.425	5.52
526.772	5.47
527.119	5.46
527.466	5.47
527.814	5.45
528.161	5.4
528.508	5.52
528.854	5.41
529.201	5.44
529.548	5.42
529.895	5.36
530.242	5.37
530.588	5.33
530.935	5.37
531.282	5.4
531.628	5.37
531.975	5.45
532.321	5.5
532.667	5.45
533.014	5.52
533.36	5.59
533.706	5.57
534.052	5.58
534.399	5.59
534.745	5.54
535.091	5.52
535.437	5.51
535.783	5.52
536.129	5.58
536.474	5.62
536.82	5.54
537.166	5.6
537.512	5.7
537.857	5.73
538.203	5.6
538.549	5.69
538.894	5.76
539.239	5.82
539.585	5.79
539.93	5.67
540.276	5.84
540.621	5.69
540.966	5.77
541.311	5.75
541.656	5.91
542.001	5.9
542.346	5.83
542.691	5.83
543.036	5.74
543.381	5.75
543.726	5.74
544.071	5.78
544.415	5.82
544.76	5.75
545.105	5.86
545.449	5.87
545.794	5.9
546.138	5.83
546.483	5.96
546.827	5.98
547.171	6.11
547.516	5.98
547.86	6.03
548.204	6.1
548.548	5.97
548.892	5.96
549.236	6.05
549.58	6.06
549.924	6.15
550.268	6.25
550.612	6.07
550.956	6.19
551.3	6.1
551.643	6.11
551.987	6.26
552.33	6.23
552.674	6.32
553.017	6.34
553.361	6.37
553.704	6.16
554.048	6.25
554.391	6.26
554.734	6.36
555.077	6.31
555.42	6.4
555.764	6.51
556.107	6.47
556.45	6.55
556.793	6.55
557.135	6.44
557.478	6.44
557.821	6.65
558.164	6.55
558.507	6.57
558.849	6.59
559.192	6.5
559.534	6.55
559.877	6.77
560.219	6.67
560.562	6.63
560.904	6.73
561.246	6.6
561.589	6.69
561.931	6.58
562.273	6.7
562.615	6.62
562.957	6.8
563.299	6.76
563.641	6.79
563.983	6.79
564.325	6.66
564.667	6.7
565.008	6.89
565.35	6.81
565.692	6.98
566.033	6.88
566.375	6.95
566.716	6.89
567.058	6.98
567.399	6.86
567.741	6.87
568.082	7
568.423	6.89
568.764	6.89
569.105	6.84
569.447	7.05
569.788	7.09
570.129	7.15
570.47	7.04
570.811	7.03
571.151	7.19
571.492	7.27
571.833	7.15
572.174	7.24
572.514	7.33
572.855	7.13
573.195	7.33
573.536	7.21
573.876	7.29
574.217	7.22
574.557	7.13
574.898	7.36
575.238	7.34
575.578	7.39
575.918	7.43
576.258	7.49
576.598	7.49
576.938	7.52
577.278	7.35
577.618	7.5
577.958	7.54
578.298	7.5
578.638	7.56
578.977	7.67
579.317	7.71
579.657	7.61
579.996	7.79
580.336	7.7
580.675	7.5
581.014	7.91
581.354	7.72
581.693	8.06
582.032	7.7
582.372	7.8
582.711	7.84
583.05	7.88
583.389	7.86
583.728	7.86
584.067	8.16
584.406	7.8
584.745	8.12
585.083	7.95
585.422	8.39
585.761	7.98
586.1	7.95
586.438	7.97
586.777	8.09
587.115	8.19
587.454	8.26
587.792	8.46
588.13	8.26
588.469	8.42
588.807	8.43
589.145	8.28
589.483	8.14
589.821	8.52
590.159	8.36
590.497	8.6
590.835	8.6
591.173	8.26
591.511	8.63
591.849	8.57
592.187	8.47
592.524	8.78
592.862	8.6
593.2	8.64
593.537	8.7
593.875	8.49
594.212	8.57
594.55	8.63
594.887	8.58
595.224	8.69
595.561	8.47
595.899	9
596.236	9.08
596.573	8.97
596.91	8.92
597.247	9.1
597.584	8.86
597.921	9.12
598.258	9.08
598.594	8.73
598.931	9.18
599.268	9.01
599.604	9.07
599.941	9
600.277	9.07
600.614	9.28
600.95	9.35
601.287	9.15
601.623	9.46
601.959	9.27
602.296	9.13
602.632	9.32
602.968	9.2
603.304	9.28
603.64	9.16
603.976	9.14
604.312	9.37
604.648	9.3
604.984	9.43
605.319	9.52
605.655	9.42
605.991	9.53
606.326	9.61
606.662	9.54
606.998	9.6
607.333	9.45
607.668	9.64
608.004	9.75
608.339	9.72
608.674	9.89
609.01	9.71
609.345	9.97
609.68	10.06
610.015	9.88
610.35	9.74
610.685	10.06
611.02	10.21
611.355	10.15
611.689	9.8
612.024	10.02
612.359	10.09
612.694	10.12
613.028	10.23
613.363	10.41
613.697	10.12
614.032	10
614.366	10.38
614.7	10.34
615.035	10.37
615.369	10.22
615.703	10.83
616.037	10.51
616.371	10.38
616.705	10.85
617.039	10.62
617.373	10.67
617.707	10.81
618.041	10.82
618.375	10.66
618.709	11.06
619.042	10.86
619.376	10.79
619.71	11.06
620.043	10.99
620.377	10.97
620.71	10.87
621.043	10.83
621.377	10.93
621.71	10.73
622.043	11.5
622.376	10.81
622.709	11.37
623.043	11.01
623.376	11.4
623.709	10.88
624.041	11.32
624.374	11.22
624.707	10.97
625.04	11.11
625.373	11.22
625.705	11.53
626.038	11.46
626.37	11.49
626.703	11.41
627.035	11.34
627.368	11.57
627.7	11.17
628.032	11.27
628.365	11.7
628.697	11.61
629.029	11.65
629.361	11.57
629.693	12
630.025	11.92
630.357	11.81
630.689	11.85
631.021	11.4
631.353	12.09
631.684	12.07
632.016	12.09
632.348	11.95
632.679	11.88
633.011	11.88
633.342	12.22
633.674	12.02
634.005	12.06
634.336	12.32
634.668	11.82
634.999	12.12
635.33	11.92
635.661	12.33
635.992	12.78
636.323	12.32
636.654	12.22
636.985	12.62
637.316	12.4
637.647	12.84
637.977	12.42
638.308	12.76
638.639	12.86
638.969	12.38
639.3	12.66
639.63	12.5
639.961	12.65
640.291	12.68
640.622	13.32
640.952	12.75
641.282	12.9
641.612	12.8
641.943	12.72
642.273	12.79
642.603	13.16
642.933	13.13
643.263	12.97
643.592	13.37
643.922	13.62
644.252	13.11
644.582	13.43
644.911	13.19
645.241	13.12
645.571	13.09
645.9	13.66
646.23	13.53
646.559	13.78
646.888	13.62
647.218	13.08
647.547	13.38
647.876	14.21
648.205	13.63
648.534	13.83
648.863	14.26
649.192	13.89
649.521	13.53
649.85	13.84
650.179	13.46
650.508	14.05
650.837	13.98
651.165	14.57
651.494	13.95
651.822	14.08
652.151	13.94
652.479	13.89
652.808	13.46
653.136	14.2
653.465	14.16
653.793	14.67
654.121	14.04
654.449	13.87
654.777	13.72
655.105	14.04
655.433	14.65
655.761	14.45
656.089	14.39
656.417	14.4
656.745	14.37
657.073	14.33
657.4	14.78
657.728	14.47
658.056	14.07
658.383	14.61
658.711	14.59
659.038	14.99
659.365	15.23
659.693	15.24
660.02	15.03
660.347	15.02
660.674	14.56
661.001	15.17
661.329	15.08
661.656	15.05
661.982	14.71
662.309	14.9
662.636	14.94
662.963	14.78
663.29	14.77
663.616	15.55
663.943	14.98
664.27	14.99
664.596	15.23
664.923	15.55
665.249	15.38
665.576	15.09
665.902	15.49
666.228	14.75
666.554	16.13
666.881	15.16
667.207	15.62
667.533	15.49
667.859	15.59
668.185	15.84
668.511	15.66
668.837	15.52
669.162	15.96
669.488	16.03
669.814	15.92
670.139	15.85
670.465	15.73
670.791	15.92
671.116	15.98
671.442	16.26
671.767	16.32
672.092	16.33
672.418	15.99
672.743	16.39
673.068	15.81
673.393	16.57
673.718	16.31
674.043	16.12
674.368	16.24
674.693	16.67
675.018	16.12
675.343	16.82
675.667	16.99
675.992	16.15
676.317	16.44
676.641	16.8
676.966	15.84
677.29	16.92
677.615	17.42
677.939	16.76
678.264	17.38
678.588	17
678.912	17.13
679.236	16.82
679.56	16.39
679.885	17.24
680.209	17.29
680.532	17.56
680.856	17.48
681.18	17.23
681.504	17.07
681.828	17.45
682.152	17.66
682.475	17.49
682.799	17.47
683.122	17.79
683.446	17.09
683.769	17.14
684.093	17.18
684.416	17.28
684.739	17.52
685.062	18.03
685.386	17.38
685.709	17.81
686.032	17.84
686.355	18.69
686.678	18.38
687.001	18.62
687.324	17.7
687.646	17.65
