Data from 0048_crown_Reflection__3__189.txt Node

Date: Fri Nov 04 16:23:35 CDT 2022
User: ToomeyLab
Spectrometer: FLMS14357
Trigger mode: 0
Integration Time (sec): 1.000000E-2
Scans to average: 100
Electric dark correction enabled: true
Nonlinearity correction enabled: false
Boxcar width: 0
XAxis mode: Wavelengths
Number of Pixels in Spectrum: 2048
>>>>>Begin Spectral Data<<<<<
189.047	-177.56
189.435	-177.56
189.823	-177.56
190.211	-205.04
190.599	22.75
190.987	-120.85
191.375	256.41
191.763	246.44
192.151	81.89
192.538	66.64
192.926	-41.97
193.314	511.99
193.702	49.82
194.089	79.21
194.477	-103.11
194.864	-38.44
195.252	154.21
195.639	216.68
196.027	21.02
196.414	209.86
196.801	297.76
197.189	-5130.56
197.576	109.4
197.963	254.63
198.351	-27.97
198.738	20.03
199.125	36.49
199.512	-171.26
199.899	10.4
200.286	5.89
200.673	-39.4
201.06	-22.63
201.447	-2.54
201.833	-12.86
202.22	12.14
202.607	-20.17
202.994	27.84
203.38	31.38
203.767	36.4
204.154	76.73
204.54	-10.31
204.927	1.86
205.313	59.65
205.699	8.75
206.086	16.73
206.472	11.76
206.858	17.6
207.245	-13.91
207.631	32.62
208.017	-8.83
208.403	21.74
208.789	46.93
209.175	21.84
209.561	-52.35
209.947	-118.26
210.333	18.95
210.719	-1.38
211.105	-5.24
211.491	2.87
211.876	-6.69
212.262	-54.41
212.648	-43.15
213.034	17.95
213.419	16.17
213.805	-13.22
214.19	-32.05
214.576	-21.01
214.961	14.32
215.346	6.42
215.732	15.88
216.117	-3.61
216.502	27.39
216.888	-6.88
217.273	4.15
217.658	7.24
218.043	-28.3
218.428	2.93
218.813	12.63
219.198	-9.19
219.583	-41.04
219.968	17.93
220.353	5.15
220.738	-15.05
221.122	4.07
221.507	1.01
221.892	-23.06
222.276	0.28
222.661	2.72
223.046	-10.53
223.43	-8.85
223.815	-2.95
224.199	15.14
224.583	5.31
224.968	13.55
225.352	4.68
225.736	-0.86
226.121	-8.69
226.505	11.3
226.889	5.15
227.273	8.72
227.657	3.21
228.041	4.21
228.425	3.7
228.809	7.05
229.193	6.61
229.577	3.43
229.961	4.64
230.344	5.14
230.728	4.17
231.112	3.27
231.495	4.37
231.879	3.27
232.263	2.7
232.646	3.08
233.03	2.01
233.413	1.73
233.797	2.16
234.18	3.55
234.563	4.51
234.946	4.92
235.33	6.7
235.713	3.24
236.096	3.55
236.479	3.41
236.862	4.52
237.245	2.51
237.628	3.07
238.011	1.83
238.394	4.18
238.777	4.72
239.16	4.07
239.543	4.23
239.925	3.88
240.308	3.95
240.691	4.2
241.073	4.68
241.456	4.43
241.838	3.18
242.221	3.36
242.603	3.94
242.986	3.56
243.368	4.28
243.75	3.74
244.133	4.15
244.515	3.86
244.897	4.17
245.279	3.73
245.661	4.36
246.043	4.46
246.425	3.79
246.807	5.17
247.189	4.27
247.571	5.02
247.953	3.75
248.335	3.79
248.717	4.08
249.098	3.95
249.48	3.86
249.862	3.95
250.243	3.79
250.625	3.49
251.006	3.57
251.388	4.05
251.769	3.93
252.151	4.63
252.532	2.02
252.913	3.29
253.295	3.44
253.676	3.38
254.057	3.53
254.438	4.02
254.819	4.09
255.2	3.47
255.581	4.37
255.962	4.96
256.343	4.2
256.724	3.51
257.105	3.35
257.486	4.22
257.867	4.45
258.247	3.57
258.628	3.43
259.009	2.83
259.389	3.72
259.77	4.15
260.15	4.15
260.531	4.21
260.911	3.43
261.292	3.72
261.672	3.75
262.052	3.73
262.432	3.77
262.813	3.15
263.193	3.29
263.573	3.75
263.953	3.44
264.333	3.57
264.713	3.67
265.093	3.71
265.473	4.25
265.853	2.62
266.233	3.69
266.612	4.01
266.992	4.17
267.372	3.35
267.752	3.6
268.131	3.81
268.511	3.59
268.89	4.51
269.27	3.77
269.649	3.86
270.029	3.03
270.408	3.68
270.787	3.97
271.167	2.94
271.546	3.82
271.925	3.47
272.304	3.2
272.683	3.3
273.062	3.32
273.441	3.5
273.82	2.94
274.199	3.41
274.578	3.5
274.957	3.27
275.336	3.22
275.715	3.47
276.093	3.35
276.472	3.2
276.851	2.94
277.229	3.16
277.608	3.74
277.986	3.68
278.365	3.74
278.743	3.54
279.122	3.4
279.5	3.48
279.878	3.67
280.257	2.95
280.635	3.15
281.013	3.07
281.391	4.08
281.769	3.34
282.147	3.13
282.525	3.29
282.903	3.31
283.281	3.61
283.659	3.55
284.037	2.92
284.415	3.31
284.792	3.47
285.17	3.29
285.548	3.45
285.925	3.34
286.303	3.61
286.68	3.42
287.058	3.28
287.435	3.34
287.813	3.29
288.19	3.17
288.567	3.35
288.945	2.89
289.322	3.3
289.699	3.51
290.076	3.26
290.453	2.89
290.83	3.08
291.207	3.14
291.584	3.43
291.961	3.54
292.338	3.54
292.715	3.48
293.092	3.11
293.469	3.32
293.845	2.98
294.222	3.39
294.599	3.09
294.975	3.47
295.352	3.09
295.728	3.02
296.105	3.28
296.481	3.18
296.858	3.14
297.234	3.68
297.61	3.39
297.986	2.98
298.363	2.92
298.739	3.18
299.115	3.36
299.491	3.27
299.867	3.12
300.243	3.27
300.619	3.47
300.995	3.11
301.371	3.39
301.746	3.15
302.122	3.03
302.498	3.05
302.874	3.7
303.249	2.99
303.625	3.21
304	3.21
304.376	2.88
304.751	2.94
305.127	2.44
305.502	2.8
305.878	3.53
306.253	3.46
306.628	2.98
307.003	2.87
307.378	2.77
307.754	3.18
308.129	2.38
308.504	3.23
308.879	3.23
309.254	3.5
309.629	3.39
310.003	3
310.378	3.04
310.753	2.86
311.128	3.14
311.502	2.98
311.877	3.13
312.252	3.16
312.626	2.84
313.001	3.09
313.375	3.06
313.75	3.07
314.124	3.07
314.498	3.06
314.873	3.12
315.247	3.04
315.621	3.11
315.995	3.32
316.369	2.94
316.743	3.76
317.117	3.25
317.491	2.9
317.865	2.96
318.239	2.97
318.613	3.53
318.987	2.8
319.361	2.95
319.734	3.18
320.108	3.22
320.482	2.49
320.855	3.14
321.229	3.14
321.602	2.73
321.976	3.24
322.349	3.78
322.723	3
323.096	3.49
323.469	2.82
323.843	2.92
324.216	3.36
324.589	3.39
324.962	3.84
325.335	3.13
325.708	2.91
326.081	2.98
326.454	2.69
326.827	3.01
327.2	2.83
327.573	3.02
327.945	3.13
328.318	2.61
328.691	2.83
329.063	2.95
329.436	3.39
329.809	3.03
330.181	2.87
330.553	2.96
330.926	3.19
331.298	2.85
331.671	3.13
332.043	3
332.415	3.21
332.787	3.01
333.159	2.86
333.532	2.85
333.904	3.17
334.276	3.08
334.648	3.37
335.02	2.28
335.391	2.87
335.763	3.01
336.135	2.73
336.507	2.8
336.879	2.76
337.25	3.22
337.622	3.04
337.993	3.03
338.365	2.87
338.736	3.16
339.108	3.59
339.479	3.06
339.851	3.03
340.222	2.91
340.593	2.99
340.964	2.95
341.336	2.94
341.707	2.54
342.078	2.95
342.449	3.35
342.82	3.04
343.191	2.94
343.562	3.16
343.933	2.89
344.303	3.15
344.674	3.3
345.045	2.6
345.416	2.89
345.786	3.44
346.157	3.02
346.527	3.35
346.898	3.11
347.268	2.77
347.639	2.77
348.009	3.12
348.38	3.13
348.75	2.87
349.12	2.78
349.49	2.89
349.861	2.7
350.231	3.16
350.601	3.09
350.971	2.99
351.341	3.12
351.711	3.11
352.081	2.83
352.45	3.08
352.82	2.78
353.19	3.21
353.56	2.87
353.929	2.64
354.299	3.3
354.669	3.34
355.038	3
355.408	3
355.777	3.14
356.147	2.91
356.516	3.16
356.885	2.73
357.254	3.1
357.624	3.08
357.993	3.06
358.362	2.8
358.731	3.14
359.1	3.19
359.469	2.99
359.838	3.17
360.207	2.82
360.576	3.09
360.945	3.26
361.314	3.14
361.682	2.87
362.051	3.12
362.42	2.98
362.788	3.16
363.157	3.17
363.525	3.09
363.894	2.92
364.262	3.07
364.631	3.24
364.999	3.11
365.367	3.05
365.735	3.3
366.104	2.96
366.472	3.34
366.84	2.47
367.208	2.97
367.576	2.99
367.944	3.36
368.312	3.15
368.68	2.99
369.048	2.98
369.416	3.06
369.783	2.75
370.151	2.84
370.519	3.45
370.886	3.08
371.254	3.11
371.621	2.95
371.989	3.11
372.356	3.06
372.724	3.08
373.091	3.19
373.458	3.03
373.826	3.18
374.193	3.02
374.56	2.65
374.927	3.43
375.294	3.18
375.661	3.22
376.028	2.85
376.395	2.96
376.762	3.2
377.129	3.11
377.496	3.42
377.863	3.2
378.229	3.3
378.596	3.01
378.963	3.19
379.329	2.98
379.696	3.12
380.062	3.39
380.429	3.17
380.795	3.15
381.161	3.3
381.528	3.65
381.894	2.86
382.26	3.09
382.626	3.17
382.993	3.31
383.359	3.11
383.725	3.17
384.091	3.21
384.457	3.01
384.823	3.28
385.188	3.26
385.554	2.95
385.92	2.89
386.286	2.99
386.651	3.11
387.017	3.02
387.383	2.99
387.748	3.1
388.114	3.13
388.479	3.48
388.845	3.24
389.21	3.57
389.575	3.67
389.94	3.11
390.306	3.02
390.671	3.39
391.036	3.21
391.401	3.39
391.766	3.05
392.131	3.26
392.496	3.38
392.861	3.15
393.226	3.08
393.591	3.23
393.956	3.51
394.32	3.22
394.685	3.35
395.05	3.51
395.414	3.26
395.779	3.02
396.143	3.38
396.508	3.4
396.872	3.26
397.236	3.45
397.601	3.32
397.965	3.15
398.329	3.22
398.694	3.58
399.058	3.26
399.422	3.37
399.786	3.54
400.15	3.22
400.514	3.38
400.878	3.42
401.242	3.39
401.605	3.19
401.969	3.51
402.333	3.41
402.697	3.42
403.06	3.44
403.424	3.45
403.787	3.38
404.151	3.46
404.514	3.52
404.878	3.43
405.241	3.49
405.604	3.2
405.968	3.31
406.331	3.29
406.694	3.13
407.057	3.38
407.42	3.38
407.783	3.23
408.146	3.52
408.509	3.47
408.872	3.4
409.235	3.51
409.598	3.52
409.961	3.53
410.323	3.33
410.686	3.34
411.049	3.34
411.411	3.28
411.774	3.41
412.136	3.57
412.499	3.65
412.861	3.44
413.223	3.25
413.586	3.51
413.948	3.53
414.31	3.48
414.672	3.51
415.035	3.53
415.397	3.43
415.759	3.42
416.121	3.49
416.483	3.52
416.845	3.63
417.206	3.21
417.568	3.41
417.93	3.47
418.292	3.4
418.653	3.52
419.015	3.3
419.377	3.33
419.738	3.29
420.1	3.52
420.461	3.4
420.822	3.31
421.184	3.41
421.545	3.29
421.906	3.46
422.267	3.26
422.629	3.44
422.99	3.24
423.351	3.3
423.712	3.38
424.073	3.54
424.434	3.4
424.795	3.51
425.155	3.54
425.516	3.5
425.877	3.33
426.238	3.36
426.598	3.41
426.959	3.41
427.32	3.38
427.68	3.55
428.041	3.48
428.401	3.61
428.761	3.58
429.122	3.53
429.482	3.56
429.842	3.32
430.202	3.69
430.563	3.52
430.923	3.7
431.283	3.47
431.643	3.59
432.003	3.66
432.363	3.63
432.722	3.62
433.082	3.68
433.442	3.63
433.802	3.56
434.161	3.54
434.521	3.54
434.881	3.48
435.24	3.54
435.6	3.66
435.959	3.47
436.319	3.52
436.678	3.63
437.037	3.69
437.396	3.78
437.756	3.59
438.115	3.57
438.474	3.64
438.833	3.69
439.192	3.6
439.551	3.6
439.91	3.7
440.269	3.62
440.628	3.67
440.987	3.62
441.345	3.66
441.704	3.61
442.063	3.51
442.421	3.6
442.78	3.61
443.138	3.6
443.497	3.5
443.855	3.59
444.214	3.76
444.572	3.75
444.93	3.66
445.288	3.66
445.647	3.55
446.005	3.6
446.363	3.66
446.721	3.55
447.079	3.59
447.437	3.56
447.795	3.52
448.153	3.45
448.51	3.63
448.868	3.49
449.226	3.5
449.584	3.55
449.941	3.47
450.299	3.63
450.656	3.65
451.014	3.77
451.371	3.82
451.729	3.76
452.086	3.7
452.443	3.74
452.801	3.74
453.158	3.87
453.515	3.83
453.872	3.74
454.229	3.8
454.586	3.78
454.943	3.68
455.3	3.85
455.657	3.68
456.014	3.68
456.371	3.75
456.727	3.83
457.084	3.94
457.441	3.72
457.797	3.64
458.154	3.81
458.51	3.82
458.867	3.67
459.223	3.9
459.58	3.86
459.936	3.59
460.292	3.75
460.648	3.72
461.005	3.71
461.361	3.78
461.717	3.66
462.073	3.82
462.429	3.73
462.785	3.76
463.141	3.75
463.496	3.77
463.852	3.88
464.208	3.83
464.564	3.7
464.919	3.9
465.275	3.92
465.631	3.8
465.986	3.79
466.342	3.82
466.697	3.88
467.052	3.82
467.408	3.78
467.763	3.87
468.118	4.01
468.473	3.84
468.829	3.85
469.184	3.93
469.539	3.75
469.894	3.92
470.249	3.85
470.603	3.74
470.958	3.72
471.313	3.78
471.668	3.72
472.023	3.77
472.377	3.97
472.732	3.95
473.086	4
473.441	4
473.795	3.77
474.15	3.91
474.504	4.05
474.859	3.86
475.213	3.92
475.567	3.71
475.921	3.79
476.275	3.86
476.63	3.97
476.984	3.88
477.338	3.92
477.692	3.89
478.045	3.94
478.399	3.7
478.753	3.89
479.107	3.81
479.461	4.01
479.814	3.9
480.168	3.92
480.521	3.68
480.875	3.91
481.228	3.85
481.582	3.94
481.935	3.84
482.289	3.87
482.642	3.85
482.995	3.94
483.348	3.85
483.701	3.99
484.055	3.81
484.408	3.89
484.761	3.81
485.114	3.7
485.466	3.65
485.819	3.61
486.172	3.62
486.525	3.67
486.878	3.8
487.23	3.87
487.583	3.81
487.936	3.91
488.288	3.85
488.641	3.8
488.993	3.75
489.345	3.72
489.698	3.73
490.05	3.75
490.402	3.77
490.754	3.9
491.107	3.86
491.459	3.9
491.811	3.84
492.163	3.9
492.515	3.96
492.866	3.84
493.218	3.8
493.57	3.73
493.922	3.77
494.274	3.77
494.625	3.85
494.977	4
495.328	4.04
495.68	3.95
496.031	3.92
496.383	4.08
496.734	4.07
497.086	4.11
497.437	4.18
497.788	3.99
498.139	3.99
498.49	3.89
498.842	3.95
499.193	4.01
499.544	4.11
499.894	3.93
500.245	3.91
500.596	4.02
500.947	4.06
501.298	4.01
501.648	4.01
501.999	4.12
502.35	4.06
502.7	4.01
503.051	4.09
503.401	4.07
503.752	4.03
504.102	4.21
504.452	4.18
504.803	4.25
505.153	4.16
505.503	4.16
505.853	4.16
506.203	4.15
506.553	4.23
506.903	4.11
507.253	4.15
507.603	4
507.953	4.11
508.303	4.09
508.652	4.09
509.002	4.27
509.352	4.26
509.701	4.11
510.051	4.09
510.4	4.09
510.75	4.08
511.099	4.11
511.449	4.07
511.798	4.07
512.147	4.08
512.496	4.06
512.846	4.05
513.195	4.04
513.544	4.11
513.893	4.17
514.242	4.06
514.591	4.07
514.939	4.18
515.288	4.16
515.637	4.09
515.986	4.11
516.334	4.15
516.683	4.21
517.032	4.22
517.38	4.17
517.729	4.23
518.077	4.28
518.426	4.06
518.774	4.16
519.122	4.11
519.47	4.12
519.819	4.2
520.167	4.14
520.515	4.05
520.863	3.99
521.211	4.03
521.559	4.13
521.907	4.07
522.255	4.23
522.602	4.22
522.95	4.32
523.298	4.26
523.645	4.18
523.993	4.19
524.341	4.16
524.688	4.27
525.036	4.25
525.383	4.26
525.73	4.25
526.078	4.25
526.425	4.13
526.772	4.17
527.119	4.12
527.466	4.08
527.814	4.07
528.161	4.02
528.508	4.03
528.854	4.12
529.201	4.15
529.548	4.12
529.895	3.99
530.242	3.93
530.588	3.88
530.935	3.96
531.282	4
531.628	3.96
531.975	4.11
532.321	4.16
532.667	4.15
533.014	4.22
533.36	4.21
533.706	4.22
534.052	4.12
534.399	4.23
534.745	4.12
535.091	3.97
535.437	4.03
535.783	4.09
536.129	4.14
536.474	4.19
536.82	4.19
537.166	4.11
537.512	4.18
537.857	4.22
538.203	4.18
538.549	4.13
538.894	4.15
539.239	4.21
539.585	4.19
539.93	4.2
540.276	4.27
540.621	4.26
540.966	4.32
541.311	4.16
541.656	4.23
542.001	4.19
542.346	4.16
542.691	4.15
543.036	4.1
543.381	4.03
543.726	4.13
544.071	4.11
544.415	4.16
544.76	4.16
545.105	4.19
545.449	4.23
545.794	4.21
546.138	4.14
546.483	4.25
546.827	4.2
547.171	4.37
547.516	4.25
547.86	4.35
548.204	4.28
548.548	4.2
548.892	4.22
549.236	4.21
549.58	4.25
549.924	4.35
550.268	4.33
550.612	4.32
550.956	4.28
551.3	4.45
551.643	4.44
551.987	4.23
552.33	4.36
552.674	4.29
553.017	4.37
553.361	4.5
553.704	4.36
554.048	4.41
554.391	4.33
554.734	4.27
555.077	4.25
555.42	4.4
555.764	4.67
556.107	4.41
556.45	4.38
556.793	4.37
557.135	4.44
557.478	4.35
557.821	4.51
558.164	4.49
558.507	4.41
558.849	4.5
559.192	4.5
559.534	4.19
559.877	4.49
560.219	4.26
560.562	4.65
560.904	4.59
561.246	4.42
561.589	4.46
561.931	4.23
562.273	4.44
562.615	4.35
562.957	4.47
563.299	4.35
563.641	4.48
563.983	4.41
564.325	4.45
564.667	4.51
565.008	4.43
565.35	4.36
565.692	4.68
566.033	4.54
566.375	4.46
566.716	4.66
567.058	4.44
567.399	4.47
567.741	4.49
568.082	4.49
568.423	4.34
568.764	4.34
569.105	4.48
569.447	4.46
569.788	4.44
570.129	4.5
570.47	4.41
570.811	4.55
571.151	4.52
571.492	4.64
571.833	4.32
572.174	4.53
572.514	4.38
572.855	4.48
573.195	4.46
573.536	4.48
573.876	4.5
574.217	4.43
574.557	4.42
574.898	4.34
575.238	4.34
575.578	4.64
575.918	4.59
576.258	4.44
576.598	4.49
576.938	4.51
577.278	4.31
577.618	4.38
577.958	4.39
578.298	4.46
578.638	4.59
578.977	4.69
579.317	4.58
579.657	4.38
579.996	4.46
580.336	4.47
580.675	4.24
581.014	4.66
581.354	4.37
581.693	4.47
582.032	4.29
582.372	4.59
582.711	4.44
583.05	4.53
583.389	4.55
583.728	4.48
584.067	4.53
584.406	4.18
584.745	4.75
585.083	4.47
585.422	4.68
585.761	4.5
586.1	4.6
586.438	4.36
586.777	4.44
587.115	4.55
587.454	4.73
587.792	4.81
588.13	4.76
588.469	4.8
588.807	4.88
589.145	4.79
589.483	4.24
589.821	4.71
590.159	4.4
590.497	4.83
590.835	4.64
591.173	4.55
591.511	4.81
591.849	4.65
592.187	4.51
592.524	4.67
592.862	4.56
593.2	4.66
593.537	4.39
593.875	4.43
594.212	4.6
594.55	4.39
594.887	4.67
595.224	4.82
595.561	4.56
595.899	4.48
596.236	4.67
596.573	4.51
596.91	4.64
597.247	4.57
597.584	4.48
597.921	4.8
598.258	4.66
598.594	4.37
598.931	4.57
599.268	4.59
599.604	4.51
599.941	4.6
600.277	4.55
600.614	4.62
600.95	4.51
601.287	4.66
601.623	4.7
601.959	4.77
602.296	4.65
602.632	4.7
602.968	4.59
603.304	4.65
603.64	4.56
603.976	4.43
604.312	4.61
604.648	4.56
604.984	4.58
605.319	4.27
605.655	4.33
605.991	4.62
606.326	4.62
606.662	4.56
606.998	4.39
607.333	4.44
607.668	4.68
608.004	4.55
608.339	4.52
608.674	4.7
609.01	4.67
609.345	4.62
609.68	4.61
610.015	4.85
610.35	4.65
610.685	4.6
611.02	4.51
611.355	4.52
611.689	4.64
612.024	4.5
612.359	4.54
612.694	4.46
613.028	4.64
613.363	4.78
613.697	4.65
614.032	4.65
614.366	4.52
614.7	4.54
615.035	4.62
615.369	4.66
615.703	5.02
616.037	4.82
616.371	4.92
616.705	4.59
617.039	5.02
617.373	4.89
617.707	4.98
618.041	4.81
618.375	4.78
618.709	4.56
619.042	4.77
619.376	4.81
619.71	4.88
620.043	4.81
620.377	4.77
620.71	5.03
621.043	4.78
621.377	4.79
621.71	5.02
622.043	4.7
622.376	4.78
622.709	4.88
623.043	4.82
623.376	5.25
623.709	4.71
624.041	4.75
624.374	4.75
624.707	4.54
625.04	4.8
625.373	4.89
625.705	4.58
626.038	4.66
626.37	5.01
626.703	5.17
627.035	4.74
627.368	4.87
627.7	4.88
628.032	4.58
628.365	4.92
628.697	4.68
629.029	4.72
629.361	4.66
629.693	4.86
630.025	4.65
630.357	4.7
630.689	4.64
631.021	4.57
631.353	4.66
631.684	4.71
632.016	4.9
632.348	4.6
632.679	4.58
633.011	4.88
633.342	4.57
633.674	4.48
634.005	4.87
634.336	4.99
634.668	5.04
634.999	5.03
635.33	4.31
635.661	4.99
635.992	4.84
636.323	4.77
636.654	4.65
636.985	4.87
637.316	4.86
637.647	4.69
637.977	4.94
638.308	5.02
638.639	4.84
638.969	4.7
639.3	5.11
639.63	4.57
639.961	5.08
640.291	5.15
640.622	5.14
640.952	4.8
641.282	4.83
641.612	4.85
641.943	4.59
642.273	4.97
642.603	4.81
642.933	4.81
643.263	4.35
643.592	4.49
643.922	5.08
644.252	4.58
644.582	4.88
644.911	4.91
645.241	4.9
645.571	4.94
645.9	4.94
646.23	5.01
646.559	5.28
646.888	4.44
647.218	5.05
647.547	5.08
647.876	5.12
648.205	4.69
648.534	4.92
648.863	4.57
649.192	4.98
649.521	4.99
649.85	4.93
650.179	4.87
650.508	4.93
650.837	4.92
651.165	4.54
651.494	4.88
651.822	5
652.151	5.08
652.479	5.08
652.808	4.93
653.136	5.11
653.465	4.74
653.793	5.33
654.121	4.98
654.449	4.41
654.777	4.53
655.105	5
655.433	4.92
655.761	5.04
656.089	4.88
656.417	4.86
656.745	4.36
657.073	4.7
657.4	5.31
657.728	5.19
658.056	4.52
658.383	5.01
658.711	4.96
659.038	4.75
659.365	5.35
659.693	5.17
660.02	4.74
660.347	4.72
660.674	5.08
661.001	4.97
661.329	5.07
661.656	4.91
661.982	4.73
662.309	4.78
662.636	5.03
662.963	4.77
663.29	4.82
663.616	5.1
663.943	4.91
664.27	5.62
664.596	4.8
664.923	5.08
665.249	5.39
665.576	5.3
665.902	4.39
666.228	4.23
666.554	5.39
666.881	4.91
667.207	5.73
667.533	5.14
667.859	5.46
668.185	5.06
668.511	5.15
668.837	4.95
669.162	5.25
669.488	4.83
669.814	4.92
670.139	4.68
670.465	5.14
670.791	5.1
671.116	4.84
671.442	4.81
671.767	5.23
672.092	4.97
672.418	5.02
672.743	5.28
673.068	5.39
673.393	5.59
673.718	4.82
674.043	4.79
674.368	5.15
674.693	5.1
675.018	5.13
675.343	5.38
675.667	4.89
675.992	5.59
676.317	5.05
676.641	4.88
676.966	4.78
677.29	5.09
677.615	5.8
677.939	5.21
678.264	5.29
678.588	5.09
678.912	5.91
679.236	5.09
679.56	4.96
679.885	5.18
680.209	5.56
680.532	5.23
680.856	4.67
681.18	5.06
681.504	5.23
681.828	4.92
682.152	5.19
682.475	5.4
682.799	5.47
683.122	5.31
683.446	5.1
683.769	4.99
684.093	5.3
684.416	4.66
684.739	5.45
685.062	5.89
685.386	5.07
685.709	5.29
686.032	5.68
686.355	6.37
686.678	5.07
687.001	5.9
687.324	5.35
687.646	5.87
687.969	4.63
688.292	5.65
688.614	5.6
688.937	5.65
689.26	5.31
689.582	5.76
689.904	5.53
690.227	5.26
690.549	5.41
690.871	5.26
691.194	5.15
691.516	5.08
691.838	5.35
692.16	5.54
