Data from 0048_chest_Reflection__1__182.txt Node

Date: Fri Nov 04 16:20:46 CDT 2022
User: ToomeyLab
Spectrometer: FLMS14357
Trigger mode: 0
Integration Time (sec): 1.000000E-2
Scans to average: 100
Electric dark correction enabled: true
Nonlinearity correction enabled: false
Boxcar width: 0
XAxis mode: Wavelengths
Number of Pixels in Spectrum: 2048
>>>>>Begin Spectral Data<<<<<
189.047	455.13
189.435	455.13
189.823	455.13
190.211	-516.52
190.599	167.5
190.987	55.24
191.375	21.14
191.763	205.8
192.151	89.49
192.538	14.76
192.926	-80.25
193.314	-29.67
193.702	111.59
194.089	42.39
194.477	91.14
194.864	-115.58
195.252	106.14
195.639	137.32
196.027	-94.73
196.414	-289.95
196.801	126.16
197.189	-838.89
197.576	117.3
197.963	-108.4
198.351	8.97
198.738	53.58
199.125	25.05
199.512	-82.95
199.899	0.13
200.286	7.18
200.673	9.6
201.06	0.7
201.447	-14.15
201.833	40.73
202.22	20.93
202.607	8.73
202.994	59.32
203.38	38.86
203.767	-24.43
204.154	55.15
204.54	-73.26
204.927	2.23
205.313	39.22
205.699	23.58
206.086	17.27
206.472	-8.7
206.858	5.4
207.245	5.44
207.631	9.05
208.017	19.67
208.403	24.39
208.789	30.08
209.175	12.13
209.561	-67.25
209.947	18.02
210.333	9.35
210.719	4.99
211.105	-22.5
211.491	-6.25
211.876	30.77
212.262	5.16
212.648	-26.83
213.034	17.36
213.419	12.7
213.805	25.76
214.19	-0.45
214.576	-17.05
214.961	21.89
215.346	-21.1
215.732	17.72
216.117	11.72
216.502	13.66
216.888	2.94
217.273	31.15
217.658	12.43
218.043	2.88
218.428	43.41
218.813	13.45
219.198	13.72
219.583	-7.26
219.968	19.11
220.353	9.14
220.738	-14.86
221.122	-3.98
221.507	2.86
221.892	-4.27
222.276	2.82
222.661	3.67
223.046	-1.05
223.43	18.73
223.815	1.48
224.199	11.48
224.583	4.63
224.968	6.94
225.352	5.46
225.736	-1.89
226.121	-2.89
226.505	6.26
226.889	-0.79
227.273	-2.59
227.657	2.46
228.041	3.51
228.425	6.76
228.809	3.68
229.193	2.37
229.577	1.67
229.961	5.09
230.344	3.38
230.728	2.92
231.112	2.21
231.495	2.61
231.879	3.37
232.263	2.05
232.646	3.27
233.03	1.94
233.413	1.39
233.797	3.11
234.18	1.83
234.563	4.5
234.946	0.86
235.33	4.63
235.713	2.74
236.096	3.05
236.479	2.27
236.862	2.95
237.245	2.75
237.628	1.76
238.011	1.46
238.394	4.25
238.777	1.98
239.16	4.11
239.543	2.77
239.925	4.81
240.308	5.2
240.691	4.09
241.073	2.67
241.456	2.99
241.838	2.61
242.221	3.9
242.603	3.46
242.986	2.56
243.368	3.64
243.75	3.1
244.133	3.52
244.515	3.22
244.897	3.32
245.279	3.21
245.661	3.32
246.043	3.4
246.425	3.43
246.807	4.15
247.189	3.42
247.571	2.94
247.953	3.2
248.335	2.85
248.717	3.33
249.098	3.16
249.48	3.21
249.862	3.35
250.243	3.04
250.625	2.89
251.006	3
251.388	3.64
251.769	3.84
252.151	3.88
252.532	3.48
252.913	2.75
253.295	3.68
253.676	3.79
254.057	2.97
254.438	3.15
254.819	3.14
255.2	2.53
255.581	4.15
255.962	3.63
256.343	2.54
256.724	4.38
257.105	2.9
257.486	4.06
257.867	4.95
258.247	3.25
258.628	2.76
259.009	3.08
259.389	2.92
259.77	2.58
260.15	3.48
260.531	3.11
260.911	3.13
261.292	3.05
261.672	3.1
262.052	2.86
262.432	3.07
262.813	2.82
263.193	2.63
263.573	3.05
263.953	2.96
264.333	3.4
264.713	3.39
265.093	2.89
265.473	3.38
265.853	2.6
266.233	3.33
266.612	3.28
266.992	3.77
267.372	2.59
267.752	2.81
268.131	2.91
268.511	3.09
268.89	3.05
269.27	2.94
269.649	2.63
270.029	2.82
270.408	2.81
270.787	2.95
271.167	3.33
271.546	3.44
271.925	3.05
272.304	2.8
272.683	2.4
273.062	2.72
273.441	2.98
273.82	2.87
274.199	3.19
274.578	2.9
274.957	2.86
275.336	2.58
275.715	2.57
276.093	3.01
276.472	3.04
276.851	2.65
277.229	2.81
277.608	2.7
277.986	3.28
278.365	3.16
278.743	3.05
279.122	3.33
279.5	2.7
279.878	3.23
280.257	3.08
280.635	2.97
281.013	2.67
281.391	3.06
281.769	3.13
282.147	2.54
282.525	3.21
282.903	3.04
283.281	3.39
283.659	2.96
284.037	2.89
284.415	2.98
284.792	2.75
285.17	2.53
285.548	3.38
285.925	2.86
286.303	3.16
286.68	3.34
287.058	2.98
287.435	2.85
287.813	2.93
288.19	2.95
288.567	2.9
288.945	3.18
289.322	3.17
289.699	3.25
290.076	3.13
290.453	2.85
290.83	2.5
291.207	2.74
291.584	3.15
291.961	3.44
292.338	3.36
292.715	3.3
293.092	3.39
293.469	3.11
293.845	3.05
294.222	3.09
294.599	3.04
294.975	3.28
295.352	3.12
295.728	3.64
296.105	3.56
296.481	3.28
296.858	3.62
297.234	3.77
297.61	3.37
297.986	3.28
298.363	3.27
298.739	3.42
299.115	3.75
299.491	3.42
299.867	3.56
300.243	3.57
300.619	3.92
300.995	3.97
301.371	3.99
301.746	3.93
302.122	3.85
302.498	3.56
302.874	3.35
303.249	3.69
303.625	3.66
304	3.79
304.376	3.84
304.751	3.79
305.127	3.48
305.502	3.88
305.878	3.59
306.253	3.93
306.628	3.58
307.003	3.93
307.378	3.61
307.754	3.84
308.129	3.29
308.504	3.74
308.879	3.97
309.254	3.95
309.629	4.12
310.003	3.88
310.378	3.77
310.753	4.53
311.128	3.58
311.502	3.8
311.877	3.73
312.252	3.63
312.626	3.92
313.001	3.69
313.375	3.76
313.75	3.87
314.124	3.55
314.498	4.06
314.873	4.41
315.247	3.8
315.621	4
315.995	3.99
316.369	3.88
316.743	4.57
317.117	4.58
317.491	4
317.865	4.24
318.239	4.06
318.613	4.19
318.987	3.83
319.361	4.61
319.734	4.39
320.108	4.44
320.482	3.67
320.855	4.22
321.229	3.98
321.602	3.91
321.976	3.87
322.349	4.87
322.723	4.34
323.096	4.6
323.469	4.63
323.843	4.26
324.216	4.38
324.589	4.45
324.962	4.41
325.335	4.74
325.708	4.07
326.081	4.06
326.454	4.68
326.827	4.43
327.2	4
327.573	4.15
327.945	4.4
328.318	4.05
328.691	4.51
329.063	4.42
329.436	4.36
329.809	4.4
330.181	4.5
330.553	4.67
330.926	4.12
331.298	4.94
331.671	4.21
332.043	4.97
332.415	4.65
332.787	4.24
333.159	4.26
333.532	4.19
333.904	4.84
334.276	4.43
334.648	4.48
335.02	4.09
335.391	4.59
335.763	4.56
336.135	4.17
336.507	4.87
336.879	4.37
337.25	4.9
337.622	4.36
337.993	4.84
338.365	4.45
338.736	4.57
339.108	4.89
339.479	4.53
339.851	4.09
340.222	4.2
340.593	4.44
340.964	4.96
341.336	4.61
341.707	4.03
342.078	4.52
342.449	4.61
342.82	4.37
343.191	4.36
343.562	4.45
343.933	4.42
344.303	4.68
344.674	4.93
345.045	4.02
345.416	4.38
345.786	4.83
346.157	4.88
346.527	4.44
346.898	4.93
347.268	4.5
347.639	4.34
348.009	4.97
348.38	4.44
348.75	4.36
349.12	4.12
349.49	4.3
349.861	4.46
350.231	4.7
350.601	4.9
350.971	4.29
351.341	4.58
351.711	4.5
352.081	4.47
352.45	4.74
352.82	4.3
353.19	4.48
353.56	4.7
353.929	4.69
354.299	5.13
354.669	5.11
355.038	4.75
355.408	4.44
355.777	4.47
356.147	4.42
356.516	4.23
356.885	4.51
357.254	4.45
357.624	4.72
357.993	4.56
358.362	4.51
358.731	4.63
359.1	4.79
359.469	4.42
359.838	4.57
360.207	4.64
360.576	4.46
360.945	4.68
361.314	4.96
361.682	4.65
362.051	4.72
362.42	4.69
362.788	4.69
363.157	4.72
363.525	4.66
363.894	4.64
364.262	4.7
364.631	4.9
364.999	4.42
365.367	4.74
365.735	4.91
366.104	4.74
366.472	4.7
366.84	4.22
367.208	4.69
367.576	4.6
367.944	4.81
368.312	4.99
368.68	4.7
369.048	4.61
369.416	4.54
369.783	4.77
370.151	4.58
370.519	5.21
370.886	4.55
371.254	4.68
371.621	4.5
371.989	4.64
372.356	4.93
372.724	4.93
373.091	4.9
373.458	4.96
373.826	4.84
374.193	4.32
374.56	4.6
374.927	4.97
375.294	4.61
375.661	4.72
376.028	4.49
376.395	5.03
376.762	4.87
377.129	5.04
377.496	4.81
377.863	4.92
378.229	4.89
378.596	4.47
378.963	4.93
379.329	4.69
379.696	4.88
380.062	5.08
380.429	4.89
380.795	4.52
381.161	4.82
381.528	4.97
381.894	4.57
382.26	4.76
382.626	4.6
382.993	5.02
383.359	4.76
383.725	4.74
384.091	4.63
384.457	4.58
384.823	4.76
385.188	5
385.554	5.09
385.92	4.68
386.286	4.9
386.651	5.07
387.017	4.89
387.383	5.01
387.748	4.81
388.114	4.76
388.479	5.35
388.845	4.96
389.21	5.18
389.575	5.03
389.94	4.88
390.306	4.99
390.671	4.86
391.036	4.84
391.401	5.08
391.766	4.8
392.131	4.85
392.496	4.88
392.861	5.08
393.226	4.79
393.591	5.01
393.956	5.24
394.32	4.88
394.685	5
395.05	5.05
395.414	4.98
395.779	4.87
396.143	5
396.508	4.76
396.872	4.96
397.236	4.97
397.601	4.9
397.965	4.96
398.329	5.01
398.694	5.12
399.058	5.29
399.422	5.12
399.786	4.97
400.15	5.04
400.514	4.93
400.878	5.05
401.242	5.12
401.605	5.05
401.969	5.11
402.333	5.16
402.697	5.12
403.06	5.04
403.424	5.16
403.787	4.91
404.151	5.11
404.514	5.11
404.878	4.95
405.241	5.17
405.604	5.06
405.968	4.96
406.331	4.91
406.694	4.99
407.057	5.1
407.42	4.99
407.783	4.83
408.146	5.14
408.509	5
408.872	4.96
409.235	5.07
409.598	5.07
409.961	5.3
410.323	5.19
410.686	5.11
411.049	5.12
411.411	5.02
411.774	5.26
412.136	5.27
412.499	5.18
412.861	5.2
413.223	5.09
413.586	4.97
413.948	5.24
414.31	5.01
414.672	5.24
415.035	5.36
415.397	5.17
415.759	5.41
416.121	5.01
416.483	5.23
416.845	5.19
417.206	5.06
417.568	5.34
417.93	5.14
418.292	5.07
418.653	5.24
419.015	5.19
419.377	5.1
419.738	5.13
420.1	5.25
420.461	5.23
420.822	5.03
421.184	5.1
421.545	4.98
421.906	5.19
422.267	5.03
422.629	5.14
422.99	5.02
423.351	5.01
423.712	5.16
424.073	5.12
424.434	5.06
424.795	5.08
425.155	5.22
425.516	5.08
425.877	5.06
426.238	5.09
426.598	5.21
426.959	5.11
427.32	5.1
427.68	5.09
428.041	5.08
428.401	5.21
428.761	5.18
429.122	5.18
429.482	5.21
429.842	5.2
430.202	5.48
430.563	5.27
430.923	5.44
431.283	5.17
431.643	5.4
432.003	5.51
432.363	5.31
432.722	5.41
433.082	5.45
433.442	5.44
433.802	5.07
434.161	5.39
434.521	5.32
434.881	5.25
435.24	5.26
435.6	5.43
435.959	5.23
436.319	5.33
436.678	5.42
437.037	5.41
437.396	5.48
437.756	5.39
438.115	5.18
438.474	5.43
438.833	5.37
439.192	5.38
439.551	5.52
439.91	5.52
440.269	5.47
440.628	5.54
440.987	5.42
441.345	5.4
441.704	5.36
442.063	5.29
442.421	5.39
442.78	5.29
443.138	5.38
443.497	5.31
443.855	5.31
444.214	5.47
444.572	5.38
444.93	5.36
445.288	5.58
445.647	5.36
446.005	5.49
446.363	5.37
446.721	5.44
447.079	5.42
447.437	5.34
447.795	5.34
448.153	5.27
448.51	5.39
448.868	5.32
449.226	5.42
449.584	5.41
449.941	5.36
450.299	5.5
450.656	5.41
451.014	5.56
451.371	5.6
451.729	5.66
452.086	5.48
452.443	5.46
452.801	5.69
453.158	5.55
453.515	5.55
453.872	5.44
454.229	5.62
454.586	5.55
454.943	5.69
455.3	5.69
455.657	5.48
456.014	5.55
456.371	5.52
456.727	5.64
457.084	5.6
457.441	5.52
457.797	5.61
458.154	5.58
458.51	5.72
458.867	5.43
459.223	5.66
459.58	5.72
459.936	5.52
460.292	5.51
460.648	5.52
461.005	5.43
461.361	5.58
461.717	5.54
462.073	5.57
462.429	5.63
462.785	5.62
463.141	5.55
463.496	5.6
463.852	5.77
464.208	5.6
464.564	5.6
464.919	5.8
465.275	5.69
465.631	5.81
465.986	5.7
466.342	5.68
466.697	5.63
467.052	5.62
467.408	5.71
467.763	5.75
468.118	5.94
468.473	5.8
468.829	5.52
469.184	5.73
469.539	5.6
469.894	6
470.249	5.71
470.603	5.92
470.958	5.66
471.313	5.79
471.668	5.66
472.023	5.68
472.377	5.76
472.732	5.88
473.086	5.81
473.441	5.84
473.795	5.74
474.15	5.9
474.504	5.84
474.859	5.67
475.213	5.86
475.567	5.64
475.921	5.8
476.275	5.83
476.63	5.93
476.984	5.78
477.338	5.82
477.692	5.88
478.045	5.92
478.399	5.85
478.753	5.92
479.107	5.96
479.461	5.93
479.814	5.95
480.168	5.91
480.521	5.81
480.875	5.87
481.228	6.07
481.582	5.82
481.935	5.84
482.289	5.94
482.642	5.95
482.995	5.94
483.348	5.88
483.701	5.85
484.055	5.76
484.408	5.86
484.761	5.76
485.114	5.67
485.466	5.66
485.819	5.56
486.172	5.61
486.525	5.62
486.878	5.65
487.23	5.68
487.583	5.64
487.936	5.79
488.288	5.83
488.641	5.73
488.993	5.74
489.345	5.72
489.698	5.71
490.05	5.76
490.402	5.72
490.754	5.82
491.107	5.76
491.459	5.84
491.811	5.79
492.163	5.89
492.515	5.95
492.866	5.82
493.218	5.85
493.57	5.8
493.922	5.86
494.274	5.81
494.625	5.89
494.977	5.92
495.328	6
495.68	5.9
496.031	6.08
496.383	6.08
496.734	6.07
497.086	6.23
497.437	6.17
497.788	6.12
498.139	6.02
498.49	6.04
498.842	6.25
499.193	6.17
499.544	6.18
499.894	6.03
500.245	6.08
500.596	6.07
500.947	6.18
501.298	6.12
501.648	6.27
501.999	6.29
502.35	6.17
502.7	6.12
503.051	6.36
503.401	6.18
503.752	6.3
504.102	6.18
504.452	6.33
504.803	6.26
505.153	6.28
505.503	6.37
505.853	6.34
506.203	6.19
506.553	6.45
506.903	6.36
507.253	6.43
507.603	6.35
507.953	6.34
508.303	6.38
508.652	6.32
509.002	6.37
509.352	6.4
509.701	6.43
510.051	6.48
510.4	6.29
510.75	6.47
511.099	6.41
511.449	6.31
511.798	6.43
512.147	6.44
512.496	6.43
512.846	6.34
513.195	6.44
513.544	6.45
513.893	6.46
514.242	6.46
514.591	6.34
514.939	6.52
515.288	6.55
515.637	6.52
515.986	6.54
516.334	6.5
516.683	6.65
517.032	6.68
517.38	6.6
517.729	6.64
518.077	6.77
518.426	6.51
518.774	6.63
519.122	6.67
519.47	6.58
519.819	6.58
520.167	6.53
520.515	6.63
520.863	6.53
521.211	6.57
521.559	6.69
521.907	6.59
522.255	6.69
522.602	6.67
522.95	6.7
523.298	6.81
523.645	6.89
523.993	6.91
524.341	6.74
524.688	6.87
525.036	6.82
525.383	6.93
525.73	6.84
526.078	6.96
526.425	6.86
526.772	6.79
527.119	6.78
527.466	6.86
527.814	6.8
528.161	6.84
528.508	6.87
528.854	6.77
529.201	6.84
529.548	6.81
529.895	6.78
530.242	6.74
530.588	6.72
530.935	6.78
531.282	6.8
531.628	6.71
531.975	6.74
532.321	6.82
532.667	6.91
533.014	6.99
533.36	7.07
533.706	7.05
534.052	7.08
534.399	6.99
534.745	7.02
535.091	6.99
535.437	6.99
535.783	7.04
536.129	7.07
536.474	7.1
536.82	7.06
537.166	7.19
537.512	7.23
537.857	7.29
538.203	7.12
538.549	7.25
538.894	7.3
539.239	7.32
539.585	7.26
539.93	7.31
540.276	7.34
540.621	7.44
540.966	7.4
541.311	7.31
541.656	7.39
542.001	7.54
542.346	7.46
542.691	7.37
543.036	7.33
543.381	7.33
543.726	7.36
544.071	7.38
544.415	7.3
544.76	7.44
545.105	7.42
545.449	7.53
545.794	7.52
546.138	7.6
546.483	7.65
546.827	7.71
547.171	7.74
547.516	7.73
547.86	7.74
548.204	7.76
548.548	7.69
548.892	7.82
549.236	7.8
549.58	7.89
549.924	7.87
550.268	8.02
550.612	7.77
550.956	7.95
551.3	7.97
551.643	7.97
551.987	7.98
552.33	8.2
552.674	7.98
553.017	8.42
553.361	8.21
553.704	8.22
554.048	8.13
554.391	8.16
554.734	8.24
555.077	8.36
555.42	8.27
555.764	8.58
556.107	8.37
556.45	8.36
556.793	8.38
557.135	8.47
557.478	8.36
557.821	8.61
558.164	8.29
558.507	8.47
558.849	8.54
559.192	8.64
559.534	8.51
559.877	8.57
560.219	8.51
560.562	8.64
560.904	8.8
561.246	8.72
561.589	8.63
561.931	8.69
562.273	8.84
562.615	8.64
562.957	8.8
563.299	8.9
563.641	8.75
563.983	8.76
564.325	8.76
564.667	9.08
565.008	8.91
565.35	8.93
565.692	9.07
566.033	9.2
566.375	8.98
566.716	8.97
567.058	9.14
567.399	9.09
567.741	9.15
568.082	9.19
568.423	9.2
568.764	9.06
569.105	9.23
569.447	9.04
569.788	9.12
570.129	9.2
570.47	9.19
570.811	9.37
571.151	9.32
571.492	9.51
571.833	9.46
572.174	9.54
572.514	9.33
572.855	9.36
573.195	9.61
573.536	9.53
573.876	9.45
574.217	9.4
574.557	9.54
574.898	9.74
575.238	9.55
575.578	9.62
575.918	9.74
576.258	9.76
576.598	9.8
576.938	9.84
577.278	9.69
577.618	9.77
577.958	9.76
578.298	9.9
578.638	9.82
578.977	10.03
579.317	10.06
579.657	9.98
579.996	9.94
580.336	10.04
580.675	9.93
581.014	10.23
581.354	10.19
581.693	10.4
582.032	10.02
582.372	10.25
582.711	10.29
583.05	10.41
583.389	10.4
583.728	10.42
584.067	10.53
584.406	10.13
584.745	10.6
585.083	10.66
585.422	10.87
585.761	10.32
586.1	10.55
586.438	10.55
586.777	10.73
587.115	10.57
587.454	10.61
587.792	10.71
588.13	10.81
588.469	10.94
588.807	10.92
589.145	10.91
589.483	10.57
589.821	10.98
590.159	10.7
590.497	11.25
590.835	11
591.173	10.73
591.511	10.79
591.849	10.92
592.187	10.9
592.524	10.8
592.862	11.08
593.2	11.04
593.537	11.04
593.875	11.16
594.212	11.08
594.55	11.36
594.887	11.46
595.224	11.26
595.561	11.17
595.899	11.38
596.236	11.68
596.573	11.43
596.91	11.48
597.247	11.36
597.584	11.43
597.921	11.61
598.258	11.63
598.594	11.41
598.931	11.57
599.268	11.63
599.604	11.61
599.941	11.58
600.277	11.57
600.614	11.69
600.95	12
601.287	11.67
601.623	11.81
601.959	12.27
602.296	11.91
602.632	11.89
602.968	11.98
603.304	11.97
603.64	11.95
603.976	11.97
604.312	12
604.648	12.04
604.984	12.09
605.319	12.22
605.655	12.03
605.991	12.34
606.326	12.21
606.662	12.27
606.998	12.15
607.333	12.17
607.668	12.42
608.004	12.2
608.339	12.27
608.674	12.66
609.01	12.62
609.345	12.56
609.68	12.61
610.015	12.6
610.35	12.56
610.685	12.88
611.02	12.82
611.355	12.7
611.689	12.81
612.024	12.61
612.359	12.56
612.694	12.66
613.028	12.95
613.363	12.96
613.697	12.86
614.032	12.97
614.366	13.1
614.7	13.15
615.035	13
615.369	13.03
615.703	13.55
616.037	12.93
616.371	13.2
616.705	13.25
617.039	13.6
617.373	13.35
617.707	13.5
618.041	13.28
618.375	13.56
618.709	13.68
619.042	13.71
619.376	13.56
619.71	13.82
620.043	13.81
620.377	13.79
620.71	13.82
621.043	13.58
621.377	13.58
621.71	13.99
622.043	13.94
622.376	13.95
622.709	13.99
623.043	13.6
623.376	14.29
623.709	13.66
624.041	13.97
624.374	14.11
624.707	13.93
625.04	14.05
625.373	14.39
625.705	13.85
626.038	14.18
626.37	14.55
626.703	14.28
627.035	14.25
627.368	14.5
627.7	14.52
628.032	14.34
628.365	14.56
628.697	14.42
629.029	14.26
629.361	14.3
629.693	14.63
630.025	14.56
630.357	14.4
630.689	14.55
631.021	14.62
631.353	14.66
631.684	14.65
632.016	14.9
632.348	14.75
632.679	14.84
633.011	14.63
633.342	15.11
633.674	14.69
634.005	14.86
634.336	14.94
634.668	15.1
634.999	15.07
635.33	14.52
635.661	15.05
635.992	15.25
636.323	15.28
636.654	15.21
636.985	15.07
637.316	15.31
637.647	15.26
637.977	15.37
638.308	15.33
638.639	15.24
638.969	15.3
639.3	15.6
639.63	15.28
639.961	15.5
640.291	15.61
640.622	15.66
640.952	15.9
641.282	15.81
641.612	15.86
641.943	15.7
642.273	15.2
642.603	15.64
642.933	15.71
643.263	15.54
643.592	16.19
643.922	15.9
644.252	15.83
644.582	15.93
644.911	16.16
645.241	16.62
645.571	16.01
645.9	16.59
646.23	16.29
646.559	16.24
646.888	16.35
647.218	16.69
647.547	16.15
647.876	16.46
648.205	16.22
648.534	16.64
648.863	16.39
649.192	16.3
649.521	16.49
649.85	16.67
650.179	16.44
650.508	16.52
650.837	16.44
651.165	16.66
651.494	16.52
651.822	16.53
652.151	16.7
652.479	16.19
652.808	16.79
653.136	16.91
653.465	16.95
653.793	17.2
654.121	16.64
654.449	16.69
654.777	16.77
655.105	17.14
655.433	17
655.761	17.23
656.089	17.12
656.417	17.03
656.745	16.83
657.073	16.94
657.4	16.91
657.728	17.22
658.056	17.13
658.383	17.87
658.711	17.28
659.038	17.43
659.365	17.75
659.693	17.07
660.02	17.74
660.347	17.26
660.674	17.37
661.001	17.57
661.329	17.75
661.656	17.84
661.982	17.39
662.309	17.33
662.636	17.61
662.963	17.44
663.29	17.59
663.616	17.77
663.943	17.56
664.27	18.3
664.596	17.33
664.923	18.08
665.249	18.17
665.576	17.72
665.902	17.74
666.228	17.84
666.554	18.78
666.881	17.42
667.207	18.18
667.533	18.25
667.859	18.17
668.185	18.37
668.511	18.32
668.837	18.22
669.162	18.44
669.488	18.07
669.814	18.16
670.139	18.16
670.465	18.3
670.791	18.22
671.116	18.22
671.442	18.72
671.767	18.23
672.092	18.6
672.418	18.83
672.743	19.17
673.068	18.67
673.393	19.05
673.718	19.85
674.043	18.77
674.368	18.67
674.693	19.12
675.018	18.66
675.343	19.01
675.667	18.67
675.992	18.64
676.317	19.29
676.641	18.78
676.966	19.12
677.29	18.79
677.615	18.88
677.939	18.95
678.264	19.28
678.588	19.29
678.912	19.66
679.236	19.71
679.56	19.43
679.885	19.45
680.209	19.42
680.532	18.77
680.856	19.64
681.18	19.34
681.504	19.63
681.828	19.66
682.152	19.89
682.475	19.5
682.799	19.72
683.122	19.78
683.446	18.92
683.769	19.3
684.093	19.88
684.416	18.98
684.739	19.66
685.062	20.17
685.386	19.76
685.709	20.57
