Data from 0048_forehead_Reflection__2__193.txt Node

Date: Fri Nov 04 16:25:22 CDT 2022
User: ToomeyLab
Spectrometer: FLMS14357
Trigger mode: 0
Integration Time (sec): 1.000000E-2
Scans to average: 100
Electric dark correction enabled: true
Nonlinearity correction enabled: false
Boxcar width: 0
XAxis mode: Wavelengths
Number of Pixels in Spectrum: 2048
>>>>>Begin Spectral Data<<<<<
189.047	-395.26
189.435	-395.26
189.823	-395.26
190.211	505.9
190.599	11.76
190.987	74.13
191.375	-102.08
191.763	130.14
192.151	31.4
192.538	98.22
192.926	43.16
193.314	537.6
193.702	75.31
194.089	50.32
194.477	-118.69
194.864	36.3
195.252	43.73
195.639	220.95
196.027	228.86
196.414	-119.79
196.801	118.03
197.189	7630.56
197.576	153.97
197.963	215.74
198.351	-5.5
198.738	35.03
199.125	-10.8
199.512	-282.99
199.899	28.33
200.286	-13.74
200.673	-6.36
201.06	-18.46
201.447	-9.97
201.833	-15.78
202.22	2.06
202.607	6.23
202.994	49.99
203.38	8.86
203.767	19.63
204.154	44.25
204.54	-11.91
204.927	38.1
205.313	48.18
205.699	42.55
206.086	12.59
206.472	5.18
206.858	25.16
207.245	7.18
207.631	-13.48
208.017	8.81
208.403	21.1
208.789	26.59
209.175	37.07
209.561	-50.77
209.947	-38.35
210.333	18.09
210.719	11.36
211.105	-0.86
211.491	5.39
211.876	-19.6
212.262	7.56
212.648	15.05
213.034	20.04
213.419	-19.17
213.805	-0.6
214.19	-43.91
214.576	-5.54
214.961	22.57
215.346	26.06
215.732	5.59
216.117	18.02
216.502	24.13
216.888	-15.75
217.273	3.35
217.658	2.21
218.043	17.41
218.428	12.21
218.813	-2.05
219.198	8.44
219.583	-21.72
219.968	21.92
220.353	-13.74
220.738	-0.9
221.122	11.54
221.507	16.88
221.892	2.33
222.276	-20.05
222.661	7.36
223.046	1.55
223.43	-0.32
223.815	-5.32
224.199	15.77
224.583	0.75
224.968	-8.88
225.352	11.53
225.736	-7.32
226.121	4.83
226.505	9.73
226.889	8.53
227.273	0.07
227.657	0.91
228.041	0.58
228.425	4.09
228.809	5.03
229.193	3.23
229.577	-1.04
229.961	3.38
230.344	1.85
230.728	1.44
231.112	1.57
231.495	2.64
231.879	2.6
232.263	1.91
232.646	3.67
233.03	1.86
233.413	0.34
233.797	0.89
234.18	3.39
234.563	2.98
234.946	0.69
235.33	3.43
235.713	1.02
236.096	2.9
236.479	3.5
236.862	0.6
237.245	1.79
237.628	2.67
238.011	-1.02
238.394	4.17
238.777	1.87
239.16	3.23
239.543	0.38
239.925	3.43
240.308	4.49
240.691	1.11
241.073	1.67
241.456	2.67
241.838	1.11
242.221	2.62
242.603	2.8
242.986	2.36
243.368	2.42
243.75	2.64
244.133	2.42
244.515	2.27
244.897	2.7
245.279	2.77
245.661	3
246.043	2.98
246.425	2.23
246.807	3.27
247.189	2.82
247.571	3.68
247.953	2.53
248.335	2.14
248.717	2.56
249.098	2.4
249.48	2.48
249.862	2.75
250.243	2.44
250.625	2.2
251.006	2.42
251.388	2.53
251.769	2.7
252.151	2.97
252.532	2.83
252.913	2.43
253.295	2.59
253.676	2.36
254.057	2.34
254.438	2.54
254.819	2.48
255.2	2.08
255.581	3.03
255.962	3.11
256.343	2.27
256.724	2.54
257.105	2.52
257.486	3.12
257.867	4.63
258.247	2.9
258.628	1.8
259.009	2
259.389	2.47
259.77	3.14
260.15	2.39
260.531	2.7
260.911	2.69
261.292	2.4
261.672	2.46
262.052	2.52
262.432	2.52
262.813	2.28
263.193	1.85
263.573	2.83
263.953	2.43
264.333	2.51
264.713	3.03
265.093	2.61
265.473	2.58
265.853	2.54
266.233	2.75
266.612	3.73
266.992	3.03
267.372	1.86
267.752	2.81
268.131	2.6
268.511	2.24
268.89	2.54
269.27	2.57
269.649	2.55
270.029	2.28
270.408	2.6
270.787	2.5
271.167	2.62
271.546	2.34
271.925	2.48
272.304	2.46
272.683	2.44
273.062	2.54
273.441	2.77
273.82	2.23
274.199	2.6
274.578	2.46
274.957	2.6
275.336	1.97
275.715	1.89
276.093	2.42
276.472	2.25
276.851	1.92
277.229	1.96
277.608	2.56
277.986	2.42
278.365	2.61
278.743	2.81
279.122	2.7
279.5	2.97
279.878	2.33
280.257	2.24
280.635	1.8
281.013	2.11
281.391	2.63
281.769	2.28
282.147	2.21
282.525	2.65
282.903	2.68
283.281	3.32
283.659	2.37
284.037	2.61
284.415	2.17
284.792	2.71
285.17	2.01
285.548	2.98
285.925	2.59
286.303	2.6
286.68	2.66
287.058	2.43
287.435	2.17
287.813	2.16
288.19	2.63
288.567	2.23
288.945	2.74
289.322	2.82
289.699	2.39
290.076	2.58
290.453	2.6
290.83	2.12
291.207	2.59
291.584	2.99
291.961	2.99
292.338	2.76
292.715	2.89
293.092	2.91
293.469	2.83
293.845	2.32
294.222	2.42
294.599	2.72
294.975	2.33
295.352	2.58
295.728	3.08
296.105	3.02
296.481	2.67
296.858	2.92
297.234	3.28
297.61	3.45
297.986	2.76
298.363	2.88
298.739	2.99
299.115	3.11
299.491	2.8
299.867	2.96
300.243	3.09
300.619	3.06
300.995	3.2
301.371	3.47
301.746	3.29
302.122	3.41
302.498	3.33
302.874	3.21
303.249	2.78
303.625	3.12
304	3.46
304.376	2.95
304.751	3.06
305.127	2.68
305.502	3.07
305.878	2.91
306.253	3.39
306.628	3.02
307.003	3.3
307.378	3.32
307.754	3.27
308.129	2.9
308.504	3.37
308.879	3.38
309.254	3.7
309.629	3.61
310.003	3.54
310.378	3.33
310.753	3.82
311.128	3.52
311.502	3.17
311.877	3.68
312.252	3.56
312.626	3.36
313.001	3.62
313.375	3.8
313.75	3.33
314.124	3.69
314.498	3.94
314.873	3.71
315.247	4.01
315.621	3.82
315.995	3.98
316.369	3.54
316.743	3.63
317.117	4.16
317.491	4.3
317.865	3.61
318.239	4.48
318.613	4.48
318.987	3.61
319.361	4.47
319.734	4.27
320.108	3.78
320.482	3.55
320.855	4.17
321.229	4.11
321.602	3.98
321.976	4.25
322.349	4.53
322.723	4.52
323.096	3.96
323.469	3.62
323.843	4.48
324.216	4.33
324.589	4.13
324.962	4.61
325.335	4.09
325.708	3.76
326.081	4.5
326.454	4.04
326.827	4.59
327.2	4.39
327.573	4.02
327.945	4.61
328.318	4.2
328.691	4.38
329.063	4.3
329.436	4.53
329.809	4.37
330.181	4.61
330.553	4.52
330.926	4.84
331.298	4.57
331.671	4.42
332.043	4.66
332.415	4.37
332.787	4.66
333.159	4.22
333.532	4.2
333.904	4.66
334.276	4.7
334.648	4.78
335.02	4.3
335.391	4.63
335.763	4.18
336.135	4.69
336.507	4.5
336.879	5.15
337.25	4.38
337.622	4.36
337.993	4.61
338.365	4.41
338.736	5.24
339.108	4.66
339.479	4.93
339.851	4.6
340.222	4.66
340.593	5.12
340.964	5.04
341.336	4.68
341.707	4.4
342.078	5.14
342.449	4.67
342.82	4.71
343.191	4.68
343.562	4.86
343.933	5.05
344.303	4.96
344.674	5.19
345.045	4.78
345.416	4.45
345.786	5.1
346.157	5.05
346.527	5.16
346.898	5.15
347.268	5
347.639	5.11
348.009	5.46
348.38	5.11
348.75	4.76
349.12	5
349.49	4.95
349.861	5.28
350.231	5.74
350.601	5.21
350.971	4.92
351.341	5.2
351.711	5.17
352.081	5.47
352.45	4.88
352.82	5.14
353.19	5.33
353.56	5.28
353.929	5.02
354.299	5.67
354.669	5.63
355.038	5.64
355.408	5.05
355.777	5.54
356.147	5.08
356.516	5.26
356.885	5.15
357.254	5.43
357.624	5.53
357.993	5.39
358.362	5.36
358.731	5.48
359.1	5.39
359.469	5.55
359.838	5.59
360.207	5.42
360.576	5.64
360.945	5.6
361.314	5.93
361.682	5.52
362.051	5.52
362.42	5.66
362.788	5.55
363.157	5.75
363.525	5.7
363.894	5.7
364.262	5.77
364.631	5.87
364.999	5.67
365.367	5.47
365.735	5.99
366.104	5.78
366.472	5.51
366.84	5.76
367.208	6.1
367.576	5.96
367.944	6.11
368.312	5.67
368.68	5.71
369.048	5.79
369.416	5.93
369.783	5.82
370.151	5.71
370.519	6.03
370.886	5.89
371.254	6.18
371.621	6.3
371.989	6.11
372.356	6.28
372.724	6.24
373.091	6.03
373.458	6.02
373.826	6.1
374.193	6.11
374.56	6.04
374.927	6.13
375.294	5.91
375.661	6.3
376.028	6.01
376.395	6.16
376.762	6.4
377.129	5.95
377.496	6.42
377.863	6.4
378.229	6.06
378.596	6.16
378.963	6.5
379.329	6.03
379.696	6.45
380.062	6.45
380.429	6.15
380.795	6.42
381.161	6.41
381.528	6.68
381.894	6.06
382.26	6.29
382.626	6.39
382.993	6.64
383.359	6.58
383.725	6.65
384.091	6.54
384.457	6.74
384.823	6.61
385.188	6.9
385.554	6.75
385.92	6.38
386.286	6.8
386.651	6.61
387.017	6.76
387.383	6.62
387.748	6.31
388.114	6.43
388.479	6.98
388.845	6.79
389.21	7.11
389.575	7.08
389.94	6.73
390.306	6.79
390.671	6.94
391.036	6.74
391.401	6.95
391.766	6.62
392.131	6.76
392.496	6.89
392.861	7.11
393.226	6.77
393.591	7.04
393.956	7.03
394.32	6.85
394.685	6.96
395.05	7.01
395.414	7.23
395.779	7.1
396.143	6.94
396.508	7.11
396.872	7.1
397.236	7.21
397.601	7.08
397.965	7.01
398.329	7.18
398.694	7.27
399.058	7.32
399.422	7
399.786	6.95
400.15	7.27
400.514	7.21
400.878	7.48
401.242	7.46
401.605	7.34
401.969	7.41
402.333	7.35
402.697	7.34
403.06	7.51
403.424	7.22
403.787	7.24
404.151	7.42
404.514	7.71
404.878	7.35
405.241	7.58
405.604	7.5
405.968	7.66
406.331	7.41
406.694	7.31
407.057	7.55
407.42	7.51
407.783	7.41
408.146	7.53
408.509	7.6
408.872	7.78
409.235	7.6
409.598	7.68
409.961	7.88
410.323	7.59
410.686	7.75
411.049	7.45
411.411	7.61
411.774	7.68
412.136	7.87
412.499	7.76
412.861	7.89
413.223	7.63
413.586	7.55
413.948	7.86
414.31	7.89
414.672	8.2
415.035	7.98
415.397	7.86
415.759	8.15
416.121	7.97
416.483	8.01
416.845	7.92
417.206	8.11
417.568	8.13
417.93	8.02
418.292	8.1
418.653	8.08
419.015	7.82
419.377	7.85
419.738	8.04
420.1	7.97
420.461	7.96
420.822	8.01
421.184	8.07
421.545	7.99
421.906	7.98
422.267	7.93
422.629	8.11
422.99	7.99
423.351	7.84
423.712	8.01
424.073	8.11
424.434	8.02
424.795	8.11
425.155	8.26
425.516	8.14
425.877	8.03
426.238	8.07
426.598	8.08
426.959	8.01
427.32	8.19
427.68	8.23
428.041	8.33
428.401	8.45
428.761	8.48
429.122	8.5
429.482	8.6
429.842	8.35
430.202	8.61
430.563	8.57
430.923	8.7
431.283	8.49
431.643	8.77
432.003	8.73
432.363	8.78
432.722	8.86
433.082	8.8
433.442	8.79
433.802	8.69
434.161	8.55
434.521	8.63
434.881	8.65
435.24	8.7
435.6	8.74
435.959	8.82
436.319	8.7
436.678	8.93
437.037	8.8
437.396	8.99
437.756	8.94
438.115	8.74
438.474	9.05
438.833	8.99
439.192	9.01
439.551	8.99
439.91	9.07
440.269	8.93
440.628	9.07
440.987	8.98
441.345	9.01
441.704	8.96
442.063	8.82
442.421	9
442.78	9.09
443.138	8.95
443.497	9
443.855	9.14
444.214	9.27
444.572	9.26
444.93	9.22
445.288	9.24
445.647	9.13
446.005	9.25
446.363	9.35
446.721	9.31
447.079	9.19
447.437	9.18
447.795	9.11
448.153	9.1
448.51	9.12
448.868	9.1
449.226	9.3
449.584	9.18
449.941	9.31
450.299	9.43
450.656	9.54
451.014	9.53
451.371	9.45
451.729	9.73
452.086	9.51
452.443	9.64
452.801	9.86
453.158	9.64
453.515	9.66
453.872	9.49
454.229	9.74
454.586	9.6
454.943	9.85
455.3	9.74
455.657	9.63
456.014	9.76
456.371	9.58
456.727	9.87
457.084	10.01
457.441	9.86
457.797	9.93
458.154	9.93
458.51	9.98
458.867	9.84
459.223	10.15
459.58	10.17
459.936	10.03
460.292	10.12
460.648	10.05
461.005	9.97
461.361	9.91
461.717	9.93
462.073	10.01
462.429	10.07
462.785	10.03
463.141	10.05
463.496	10.12
463.852	10.28
464.208	10.22
464.564	10.21
464.919	10.59
465.275	10.42
465.631	10.57
465.986	10.38
466.342	10.37
466.697	10.37
467.052	10.4
467.408	10.4
467.763	10.43
468.118	10.65
468.473	10.68
468.829	10.41
469.184	10.61
469.539	10.47
469.894	10.75
470.249	10.67
470.603	10.77
470.958	10.49
471.313	10.62
471.668	10.67
472.023	10.6
472.377	10.69
472.732	10.63
473.086	10.85
473.441	10.69
473.795	10.72
474.15	10.92
474.504	10.78
474.859	10.95
475.213	10.87
475.567	10.89
475.921	10.79
476.275	11.11
476.63	11.01
476.984	11.05
477.338	10.99
477.692	11.29
478.045	11.13
478.399	11.15
478.753	11.08
479.107	11.08
479.461	11.17
479.814	11.17
480.168	11.2
480.521	11.08
480.875	11.23
481.228	11.24
481.582	11.18
481.935	11.23
482.289	11.26
482.642	11.34
482.995	11.39
483.348	11.28
483.701	11.35
484.055	11.18
484.408	11.24
484.761	11.16
485.114	10.99
485.466	10.87
485.819	10.78
486.172	10.83
486.525	10.91
486.878	10.91
487.23	11.01
487.583	11.13
487.936	11.26
488.288	11.24
488.641	11.31
488.993	11.2
489.345	11.13
489.698	11.12
490.05	11.18
490.402	11.15
490.754	11.28
491.107	11.34
491.459	11.53
491.811	11.52
492.163	11.71
492.515	11.71
492.866	11.69
493.218	11.48
493.57	11.43
493.922	11.56
494.274	11.54
494.625	11.61
494.977	11.69
495.328	11.92
495.68	11.89
496.031	11.94
496.383	12.16
496.734	12.14
497.086	12.4
497.437	12.3
497.788	12.24
498.139	12.29
498.49	12.12
498.842	12.34
499.193	12.3
499.544	12.36
499.894	12.18
500.245	12.27
500.596	12.41
500.947	12.47
501.298	12.52
501.648	12.54
501.999	12.71
502.35	12.62
502.7	12.64
503.051	12.7
503.401	12.65
503.752	12.75
504.102	12.89
504.452	12.76
504.803	12.86
505.153	12.76
505.503	12.86
505.853	13.05
506.203	12.81
506.553	12.96
506.903	13.01
507.253	13.16
507.603	13.04
507.953	13.1
508.303	13.06
508.652	12.99
509.002	13.15
509.352	13.21
509.701	13.16
510.051	12.97
510.4	13.02
510.75	13.14
511.099	13.14
511.449	12.96
511.798	13.19
512.147	13.12
512.496	13.28
512.846	13.14
513.195	13.33
513.544	13.35
513.893	13.45
514.242	13.33
514.591	13.28
514.939	13.45
515.288	13.45
515.637	13.48
515.986	13.58
516.334	13.58
516.683	13.61
517.032	13.73
517.38	13.81
517.729	13.68
518.077	13.82
518.426	13.73
518.774	13.71
519.122	13.81
519.47	13.74
519.819	13.62
520.167	13.61
520.515	13.58
520.863	13.59
521.211	13.58
521.559	13.71
521.907	13.82
522.255	13.77
522.602	13.95
522.95	14.04
523.298	14.18
523.645	14.21
523.993	14.1
524.341	14.27
524.688	14.21
525.036	14.31
525.383	14.32
525.73	14.38
526.078	14.23
526.425	14.44
526.772	14.27
527.119	14.2
527.466	14.12
527.814	14.16
528.161	14.05
528.508	14.16
528.854	14.15
529.201	14.2
529.548	14.18
529.895	14.11
530.242	13.94
530.588	13.97
530.935	13.97
531.282	13.96
531.628	13.97
531.975	14.13
532.321	14.28
532.667	14.36
533.014	14.5
533.36	14.63
533.706	14.76
534.052	14.7
534.399	14.73
534.745	14.65
535.091	14.45
535.437	14.49
535.783	14.52
536.129	14.61
536.474	14.74
536.82	14.84
537.166	14.8
537.512	15.05
537.857	15.07
538.203	15.04
538.549	14.94
538.894	14.97
539.239	15.14
539.585	15.12
539.93	15.12
540.276	15.34
540.621	15.33
540.966	15.41
541.311	15.43
541.656	15.63
542.001	15.51
542.346	15.47
542.691	15.32
543.036	15.13
543.381	15.1
543.726	15.11
544.071	15.1
544.415	15.22
544.76	15.26
545.105	15.35
545.449	15.47
545.794	15.57
546.138	15.65
546.483	15.75
546.827	15.75
547.171	15.86
547.516	15.9
547.86	15.9
548.204	15.98
548.548	15.96
548.892	15.88
549.236	15.98
549.58	16.17
549.924	16.31
550.268	16.23
550.612	16.33
550.956	16.46
551.3	16.38
551.643	16.63
551.987	16.54
552.33	16.61
552.674	16.71
553.017	16.84
553.361	16.93
553.704	16.52
554.048	16.84
554.391	16.43
554.734	16.69
555.077	16.69
555.42	16.95
555.764	17
556.107	17.08
556.45	17.01
556.793	17.03
557.135	17.03
557.478	17.04
557.821	17.28
558.164	17.21
558.507	17.25
558.849	17.23
559.192	17.39
559.534	17.22
559.877	17.27
560.219	17.32
560.562	17.51
560.904	17.58
561.246	17.44
561.589	17.46
561.931	17.43
562.273	17.65
562.615	17.74
562.957	17.68
563.299	17.73
563.641	17.75
563.983	17.75
564.325	17.54
564.667	17.62
565.008	17.54
565.35	17.74
565.692	18.06
566.033	17.9
566.375	17.91
566.716	17.85
567.058	18.08
567.399	17.95
567.741	18.01
568.082	17.96
568.423	18
568.764	18.08
569.105	18.13
569.447	17.89
569.788	18.02
570.129	18.15
570.47	18.31
570.811	18.29
571.151	18.41
571.492	18.54
571.833	18.43
572.174	18.5
572.514	18.41
572.855	18.33
573.195	18.6
573.536	18.43
573.876	18.43
574.217	18.46
574.557	18.34
574.898	18.62
575.238	18.64
575.578	18.63
575.918	18.72
576.258	18.77
576.598	18.82
576.938	18.95
577.278	18.82
577.618	18.83
577.958	18.71
578.298	19.06
578.638	18.97
578.977	19.14
579.317	19.23
579.657	19.07
579.996	19.09
580.336	19.28
580.675	19.08
581.014	19.35
581.354	19.5
581.693	19.48
582.032	19.25
582.372	19.62
582.711	19.49
583.05	19.73
583.389	19.53
583.728	19.86
584.067	19.74
584.406	19.5
584.745	19.88
585.083	19.82
585.422	19.94
585.761	19.93
586.1	19.87
586.438	19.83
586.777	19.63
587.115	19.96
587.454	19.89
587.792	20.18
588.13	20.09
588.469	20.12
588.807	20.14
589.145	20.21
589.483	20.21
589.821	20.42
590.159	20.11
590.497	20.46
590.835	20.01
591.173	20.24
591.511	20.53
591.849	20.38
592.187	20.45
592.524	20.4
592.862	20.56
593.2	20.42
593.537	20.3
593.875	20.6
594.212	20.45
594.55	20.56
594.887	20.7
595.224	20.83
595.561	20.4
595.899	20.68
596.236	21.02
596.573	20.83
596.91	20.84
597.247	20.8
597.584	20.99
597.921	21.07
598.258	20.78
598.594	20.67
598.931	20.69
599.268	21.06
599.604	21.04
599.941	20.9
600.277	20.84
600.614	21.1
600.95	21.02
601.287	21.11
601.623	21.21
601.959	21.41
602.296	21.34
602.632	21.39
602.968	21.31
603.304	21.51
603.64	21.46
603.976	21.65
604.312	21.62
604.648	21.46
604.984	21.59
605.319	21.49
605.655	21.35
605.991	21.44
606.326	21.39
606.662	21.54
606.998	21.5
607.333	21.76
607.668	21.61
608.004	21.6
608.339	21.87
608.674	22.12
609.01	21.92
609.345	21.99
609.68	22.06
610.015	22.04
610.35	22.08
610.685	22.16
611.02	22.3
611.355	22.1
611.689	22
612.024	22.13
612.359	21.99
612.694	21.97
613.028	22.26
613.363	22.52
613.697	22.42
614.032	21.98
614.366	22.42
614.7	22.46
615.035	22.68
615.369	22.71
615.703	22.65
616.037	22.77
616.371	22.72
616.705	22.81
617.039	22.9
617.373	22.92
617.707	22.85
618.041	22.98
618.375	23.18
618.709	23.42
619.042	23.25
619.376	23.13
619.71	23.05
620.043	22.98
620.377	23.26
620.71	23.14
621.043	22.99
621.377	23.17
621.71	23.45
622.043	23.36
622.376	23.34
622.709	23.62
623.043	23.19
623.376	23.56
623.709	23.13
624.041	23.49
624.374	23.5
624.707	23.15
625.04	23.64
625.373	23.77
625.705	23.01
626.038	23.59
626.37	23.85
626.703	24.03
627.035	23.64
627.368	23.86
627.7	23.56
628.032	23.59
628.365	23.88
628.697	23.8
629.029	23.51
629.361	23.79
629.693	23.85
630.025	24.15
630.357	23.96
630.689	23.92
631.021	24.08
631.353	23.98
631.684	24.04
632.016	24.32
632.348	24.36
632.679	24.1
633.011	24.13
633.342	24.4
633.674	24.34
634.005	24.42
634.336	24.62
634.668	24.87
634.999	25.05
635.33	23.97
635.661	24.56
635.992	24.62
636.323	24.57
636.654	24.36
636.985	24.37
637.316	24.58
637.647	24.96
637.977	24.92
638.308	24.97
638.639	24.94
638.969	24.57
639.3	24.83
639.63	24.67
639.961	25.14
640.291	24.97
640.622	24.84
640.952	25.03
641.282	25.12
641.612	25.13
641.943	25.17
642.273	25.29
642.603	25.3
642.933	25.26
643.263	24.8
643.592	25.15
643.922	25.94
644.252	25.76
644.582	25.35
644.911	25.71
645.241	25.9
645.571	25.33
645.9	25.36
646.23	25.47
646.559	25.57
646.888	25.61
647.218	25.7
647.547	25.41
647.876	25.9
648.205	25.62
648.534	26.34
648.863	26.21
649.192	25.81
649.521	25.92
649.85	25.71
650.179	26.08
650.508	25.82
650.837	25.73
651.165	25.85
651.494	26.11
651.822	26.45
652.151	26.3
652.479	25.94
652.808	25.98
653.136	26.19
653.465	26.3
653.793	26.55
654.121	26.02
654.449	26.23
654.777	26.05
655.105	26.69
655.433	26.25
655.761	26.33
656.089	25.93
656.417	26.6
656.745	26.54
657.073	26.52
657.4	26.67
657.728	26.43
658.056	26.42
658.383	26.92
658.711	26.48
659.038	26.6
659.365	27.09
659.693	26.82
660.02	27.09
660.347	26.6
660.674	27.01
661.001	26.83
661.329	26.94
661.656	27
661.982	26.74
662.309	26.9
662.636	26.57
662.963	26.74
663.29	26.57
663.616	27.52
663.943	26.93
664.27	27.13
664.596	26.97
664.923	27.3
665.249	27.45
665.576	27.13
665.902	26.54
666.228	27.27
666.554	27.67
666.881	27.2
667.207	27.89
667.533	27.61
667.859	27.42
668.185	27.92
668.511	27.69
668.837	27.48
669.162	27.38
669.488	27.66
669.814	27.73
670.139	27.39
670.465	28.05
670.791	27.78
671.116	27.52
671.442	28.15
671.767	27.62
672.092	27.69
672.418	28.01
672.743	28.46
673.068	27.81
673.393	28.53
673.718	28.36
674.043	28.27
674.368	27.96
674.693	28.07
675.018	28.41
675.343	28.23
675.667	28.57
675.992	28.41
676.317	28.28
676.641	27.78
676.966	27.92
677.29	28.76
677.615	28.75
677.939	27.91
