Data from 0048_crown_Reflection__4__190.txt Node

Date: Fri Nov 04 16:23:50 CDT 2022
User: ToomeyLab
Spectrometer: FLMS14357
Trigger mode: 0
Integration Time (sec): 1.000000E-2
Scans to average: 100
Electric dark correction enabled: true
Nonlinearity correction enabled: false
Boxcar width: 0
XAxis mode: Wavelengths
Number of Pixels in Spectrum: 2048
>>>>>Begin Spectral Data<<<<<
189.047	-179.49
189.435	-179.49
189.823	-179.49
190.211	395.71
190.599	-27.93
190.987	148.18
191.375	34.97
191.763	33.7
192.151	63.15
192.538	13.81
192.926	44.12
193.314	508.94
193.702	122.39
194.089	-0.15
194.477	-71.28
194.864	-17.77
195.252	127.08
195.639	236.59
196.027	1.41
196.414	-27.3
196.801	-126.93
197.189	4511.11
197.576	209.77
197.963	-98.58
198.351	-55.17
198.738	12.07
199.125	6.07
199.512	-101.01
199.899	12.24
200.286	-34.24
200.673	-37.03
201.06	-27.83
201.447	-43.49
201.833	-6.47
202.22	12.32
202.607	-62.55
202.994	4.74
203.38	32.79
203.767	69.69
204.154	46.52
204.54	8.73
204.927	-26.71
205.313	21.34
205.699	15.93
206.086	-12.19
206.472	-13.59
206.858	-14.54
207.245	9.88
207.631	-49.13
208.017	6.96
208.403	-5.68
208.789	37.43
209.175	23.04
209.561	-93.71
209.947	-35.72
210.333	-24.63
210.719	-22.3
211.105	-50.34
211.491	3.17
211.876	-10.17
212.262	-35.82
212.648	-25.77
213.034	35.72
213.419	4.51
213.805	-68.02
214.19	-65.86
214.576	-0.77
214.961	2.55
215.346	-12.68
215.732	-2.61
216.117	-25.44
216.502	8.2
216.888	-37.41
217.273	22.52
217.658	-9.08
218.043	-25.52
218.428	8.57
218.813	4.83
219.198	-7.66
219.583	-39.31
219.968	6.27
220.353	-19.28
220.738	-50.86
221.122	-1.89
221.507	4.67
221.892	-13.03
222.276	-6.57
222.661	-10.53
223.046	5.73
223.43	-8.66
223.815	6.45
224.199	3.42
224.583	-1.34
224.968	-7.35
225.352	-2.78
225.736	-0.7
226.121	-8.89
226.505	4.18
226.889	-2.05
227.273	1.52
227.657	0.9
228.041	7.65
228.425	7.23
228.809	3.86
229.193	5.18
229.577	2.66
229.961	5.01
230.344	5.33
230.728	4.49
231.112	4.54
231.495	4.51
231.879	4.84
232.263	5.17
232.646	4.4
233.03	3.58
233.413	1.82
233.797	4.01
234.18	4.96
234.563	3.76
234.946	2.52
235.33	3.24
235.713	2.09
236.096	4.09
236.479	3.46
236.862	2.87
237.245	3.33
237.628	4.75
238.011	0.76
238.394	4.52
238.777	5.25
239.16	4.01
239.543	2.57
239.925	4.31
240.308	4.75
240.691	4.61
241.073	3.27
241.456	4.13
241.838	1.99
242.221	4
242.603	4.36
242.986	3.25
243.368	3.89
243.75	4.23
244.133	4.18
244.515	4.38
244.897	4.17
245.279	3.7
245.661	4.6
246.043	4.82
246.425	4.14
246.807	5
247.189	3.68
247.571	4.2
247.953	3.81
248.335	4.09
248.717	4.13
249.098	4.04
249.48	3.95
249.862	4.09
250.243	4.33
250.625	3.84
251.006	3.68
251.388	3.89
251.769	4.32
252.151	4.67
252.532	4.14
252.913	3.68
253.295	3.91
253.676	3.8
254.057	3.45
254.438	3.61
254.819	4.07
255.2	3.46
255.581	4.35
255.962	3
256.343	3.23
256.724	3.69
257.105	4.17
257.486	5.1
257.867	5.47
258.247	4.44
258.628	3.91
259.009	3.07
259.389	3.6
259.77	4.13
260.15	3.44
260.531	4.55
260.911	3.94
261.292	3.76
261.672	3.72
262.052	3.76
262.432	3.88
262.813	3.57
263.193	3.31
263.573	3.76
263.953	3.33
264.333	3.94
264.713	4.11
265.093	2.6
265.473	3.41
265.853	3.3
266.233	4.5
266.612	3.27
266.992	3.87
267.372	3.27
267.752	3.83
268.131	3.93
268.511	4.05
268.89	4.24
269.27	3.61
269.649	4.12
270.029	3.45
270.408	3.57
270.787	3.69
271.167	3.5
271.546	4.46
271.925	4.2
272.304	3.35
272.683	3.51
273.062	3.54
273.441	3.64
273.82	3.26
274.199	3.8
274.578	3.55
274.957	3.61
275.336	3.31
275.715	3.64
276.093	3.66
276.472	3.32
276.851	3.35
277.229	3.48
277.608	3.24
277.986	3.92
278.365	3.85
278.743	4
279.122	3.35
279.5	3.32
279.878	3.73
280.257	3.56
280.635	3.22
281.013	2.8
281.391	3.88
281.769	3.65
282.147	2.93
282.525	3.8
282.903	3.21
283.281	3.99
283.659	3.58
284.037	3.22
284.415	3.55
284.792	3.43
285.17	3.04
285.548	3.92
285.925	3.21
286.303	3.53
286.68	3.59
287.058	3.64
287.435	3.76
287.813	3.24
288.19	3.19
288.567	3.24
288.945	3.44
289.322	3.39
289.699	3.5
290.076	3.4
290.453	2.8
290.83	3.45
291.207	3.27
291.584	3.2
291.961	3.26
292.338	3.63
292.715	3.22
293.092	3.69
293.469	3.42
293.845	2.58
294.222	2.98
294.599	2.91
294.975	2.97
295.352	3.12
295.728	3.09
296.105	3.34
296.481	3.24
296.858	3.23
297.234	3.67
297.61	3.44
297.986	3.15
298.363	3.28
298.739	3.08
299.115	3.27
299.491	3.19
299.867	3.14
300.243	3.26
300.619	3.35
300.995	3.36
301.371	3.17
301.746	3
302.122	3.18
302.498	3.26
302.874	3.56
303.249	2.94
303.625	2.69
304	3.14
304.376	2.52
304.751	3.06
305.127	2.38
305.502	2.98
305.878	2.91
306.253	3.33
306.628	2.55
307.003	3.37
307.378	3.11
307.754	3.07
308.129	2.55
308.504	3.11
308.879	3.22
309.254	3.28
309.629	3.14
310.003	2.91
310.378	3.08
310.753	3.1
311.128	2.82
311.502	2.92
311.877	2.89
312.252	2.67
312.626	2.54
313.001	2.99
313.375	2.77
313.75	2.97
314.124	2.89
314.498	2.92
314.873	3.13
315.247	2.74
315.621	3.28
315.995	3.29
316.369	2.53
316.743	3.5
317.117	3.21
317.491	3.18
317.865	2.43
318.239	3.17
318.613	3.15
318.987	3.53
319.361	3.07
319.734	3.3
320.108	2.82
320.482	2.24
320.855	3.13
321.229	3.3
321.602	2.92
321.976	3.01
322.349	3.34
322.723	3.26
323.096	3.25
323.469	2.65
323.843	2.78
324.216	2.78
324.589	3.41
324.962	3.37
325.335	2.56
325.708	2.45
326.081	3.04
326.454	2.67
326.827	2.61
327.2	3.23
327.573	2.54
327.945	2.95
328.318	2.47
328.691	2.7
329.063	2.67
329.436	3.3
329.809	2.6
330.181	2.62
330.553	2.7
330.926	2.41
331.298	2.97
331.671	2.83
332.043	2.93
332.415	2.8
332.787	2.38
333.159	2.69
333.532	2.17
333.904	2.71
334.276	2.52
334.648	3.26
335.02	2.33
335.391	3.05
335.763	3.26
336.135	2.72
336.507	2.69
336.879	2.63
337.25	2.96
337.622	2.96
337.993	2.8
338.365	2.88
338.736	3.01
339.108	3
339.479	3.15
339.851	2.21
340.222	2.76
340.593	2.96
340.964	2.77
341.336	2.6
341.707	2.4
342.078	2.92
342.449	2.9
342.82	2.93
343.191	2.46
343.562	2.51
343.933	2.96
344.303	3.36
344.674	2.95
345.045	2.33
345.416	2.52
345.786	2.87
346.157	2.71
346.527	2.92
346.898	3.21
347.268	2.83
347.639	3.03
348.009	3.16
348.38	2.9
348.75	2.74
349.12	2.81
349.49	2.7
349.861	2.97
350.231	3.23
350.601	2.72
350.971	2.86
351.341	2.97
351.711	2.99
352.081	2.93
352.45	2.79
352.82	2.81
353.19	3.13
353.56	2.9
353.929	2.89
354.299	3.38
354.669	3.09
355.038	3.32
355.408	2.66
355.777	3.04
356.147	2.63
356.516	2.78
356.885	2.94
357.254	2.87
357.624	3.35
357.993	2.77
358.362	2.6
358.731	2.96
359.1	2.94
359.469	2.89
359.838	3.24
360.207	2.89
360.576	3.04
360.945	3.21
361.314	3.28
361.682	2.75
362.051	2.9
362.42	3.19
362.788	2.87
363.157	3.03
363.525	2.9
363.894	2.93
364.262	3.17
364.631	3.07
364.999	3.02
365.367	2.92
365.735	3.23
366.104	2.91
366.472	3.11
366.84	2.9
367.208	3.15
367.576	2.86
367.944	3.14
368.312	3.15
368.68	2.89
369.048	3.05
369.416	2.99
369.783	2.71
370.151	2.63
370.519	3.65
370.886	2.74
371.254	3.11
371.621	2.9
371.989	2.82
372.356	3.01
372.724	3.02
373.091	2.86
373.458	3.25
373.826	3.21
374.193	2.76
374.56	2.77
374.927	3.35
375.294	2.85
375.661	3.07
376.028	2.84
376.395	3.28
376.762	3.46
377.129	2.98
377.496	3.33
377.863	3.23
378.229	3.15
378.596	2.99
378.963	3.07
379.329	2.88
379.696	3.02
380.062	3.31
380.429	2.99
380.795	3.12
381.161	3.29
381.528	3.36
381.894	2.66
382.26	2.91
382.626	2.99
382.993	3.34
383.359	3.14
383.725	3.15
384.091	3.31
384.457	3.13
384.823	3.19
385.188	3.54
385.554	3.03
385.92	2.87
386.286	3.33
386.651	3.28
387.017	3.25
387.383	3.05
387.748	3.1
388.114	3.05
388.479	3.64
388.845	3.33
389.21	3.36
389.575	3.24
389.94	3.27
390.306	3.24
390.671	3.24
391.036	3.1
391.401	3.49
391.766	3.14
392.131	3.14
392.496	3.41
392.861	3.12
393.226	3.42
393.591	3.16
393.956	3.34
394.32	3.27
394.685	3.54
395.05	3.37
395.414	3.21
395.779	3.38
396.143	3.21
396.508	3.51
396.872	3.47
397.236	3.31
397.601	3.35
397.965	3.24
398.329	3.25
398.694	3.61
399.058	3.48
399.422	3.28
399.786	3.24
400.15	3.12
400.514	3.48
400.878	3.36
401.242	3.44
401.605	3.19
401.969	3.37
402.333	3.68
402.697	3.53
403.06	3.51
403.424	3.38
403.787	3.06
404.151	3.35
404.514	3.41
404.878	3.27
405.241	3.42
405.604	3.49
405.968	3.34
406.331	3.5
406.694	3.36
407.057	3.43
407.42	3.43
407.783	3.29
408.146	3.61
408.509	3.63
408.872	3.51
409.235	3.32
409.598	3.48
409.961	3.67
410.323	3.45
410.686	3.4
411.049	3.4
411.411	3.36
411.774	3.47
412.136	3.54
412.499	3.52
412.861	3.51
413.223	3.48
413.586	3.54
413.948	3.66
414.31	3.43
414.672	3.66
415.035	3.57
415.397	3.43
415.759	3.74
416.121	3.44
416.483	3.58
416.845	3.37
417.206	3.39
417.568	3.74
417.93	3.59
418.292	3.37
418.653	3.45
419.015	3.55
419.377	3.4
419.738	3.49
420.1	3.52
420.461	3.44
420.822	3.34
421.184	3.57
421.545	3.56
421.906	3.55
422.267	3.45
422.629	3.52
422.99	3.43
423.351	3.36
423.712	3.46
424.073	3.42
424.434	3.38
424.795	3.57
425.155	3.52
425.516	3.49
425.877	3.42
426.238	3.49
426.598	3.52
426.959	3.4
427.32	3.45
427.68	3.54
428.041	3.48
428.401	3.63
428.761	3.65
429.122	3.54
429.482	3.75
429.842	3.48
430.202	3.74
430.563	3.51
430.923	3.8
431.283	3.56
431.643	3.78
432.003	3.82
432.363	3.66
432.722	3.56
433.082	3.84
433.442	3.66
433.802	3.61
434.161	3.65
434.521	3.64
434.881	3.7
435.24	3.6
435.6	3.71
435.959	3.67
436.319	3.65
436.678	3.56
437.037	3.78
437.396	3.65
437.756	3.62
438.115	3.58
438.474	3.61
438.833	3.7
439.192	3.67
439.551	3.71
439.91	3.74
440.269	3.79
440.628	3.72
440.987	3.66
441.345	3.62
441.704	3.71
442.063	3.63
442.421	3.64
442.78	3.63
443.138	3.65
443.497	3.64
443.855	3.6
444.214	3.75
444.572	3.56
444.93	3.71
445.288	3.79
445.647	3.71
446.005	3.73
446.363	3.78
446.721	3.63
447.079	3.66
447.437	3.61
447.795	3.58
448.153	3.57
448.51	3.71
448.868	3.64
449.226	3.61
449.584	3.63
449.941	3.57
450.299	3.71
450.656	3.76
451.014	3.8
451.371	3.92
451.729	3.76
452.086	3.7
452.443	3.79
452.801	3.77
453.158	3.77
453.515	3.94
453.872	3.78
454.229	3.8
454.586	3.83
454.943	3.88
455.3	3.78
455.657	3.88
456.014	3.71
456.371	3.84
456.727	4
457.084	3.97
457.441	3.75
457.797	3.76
458.154	3.77
458.51	3.93
458.867	3.76
459.223	3.9
459.58	4.01
459.936	3.71
460.292	3.83
460.648	3.75
461.005	3.81
461.361	3.81
461.717	3.75
462.073	3.8
462.429	3.9
462.785	3.76
463.141	3.84
463.496	3.79
463.852	3.85
464.208	3.85
464.564	3.8
464.919	3.97
465.275	4.1
465.631	3.94
465.986	4.01
466.342	3.9
466.697	3.93
467.052	3.75
467.408	3.89
467.763	3.94
468.118	4.07
468.473	4.11
468.829	3.79
469.184	3.97
469.539	3.68
469.894	3.98
470.249	3.83
470.603	3.99
470.958	3.81
471.313	3.91
471.668	3.86
472.023	3.87
472.377	3.94
472.732	3.95
473.086	3.86
473.441	3.86
473.795	3.87
474.15	3.88
474.504	3.85
474.859	4.01
475.213	3.93
475.567	3.81
475.921	3.97
476.275	3.98
476.63	3.9
476.984	3.77
477.338	4.05
477.692	4.12
478.045	3.97
478.399	3.95
478.753	3.98
479.107	3.92
479.461	4.01
479.814	4.04
480.168	3.98
480.521	3.93
480.875	3.98
481.228	4.04
481.582	4.06
481.935	3.93
482.289	3.93
482.642	4.06
482.995	3.98
483.348	3.9
483.701	3.88
484.055	3.9
484.408	3.89
484.761	3.82
485.114	3.73
485.466	3.62
485.819	3.63
486.172	3.62
486.525	3.69
486.878	3.83
487.23	3.9
487.583	3.9
487.936	3.97
488.288	3.93
488.641	3.86
488.993	3.78
489.345	3.7
489.698	3.75
490.05	3.75
490.402	3.78
490.754	3.86
491.107	3.87
491.459	4
491.811	3.91
492.163	4.03
492.515	4.01
492.866	3.9
493.218	3.8
493.57	3.74
493.922	3.82
494.274	3.83
494.625	3.9
494.977	3.99
495.328	4.1
495.68	4.07
496.031	4.11
496.383	4.04
496.734	3.96
497.086	4.28
497.437	4.15
497.788	4.15
498.139	4.01
498.49	4
498.842	4.06
499.193	3.97
499.544	4.02
499.894	3.95
500.245	4.03
500.596	4.03
500.947	4.01
501.298	3.92
501.648	4.05
501.999	4.14
502.35	4.06
502.7	3.97
503.051	4.12
503.401	4.11
503.752	4.13
504.102	4.1
504.452	4.12
504.803	4.15
505.153	4.13
505.503	4.14
505.853	4.14
506.203	4.07
506.553	4.17
506.903	4.01
507.253	4.21
507.603	4.09
507.953	4.07
508.303	4
508.652	4
509.002	4.22
509.352	4.23
509.701	4.13
510.051	4
510.4	4.01
510.75	4.12
511.099	4.07
511.449	4.07
511.798	4.02
512.147	4.14
512.496	4.09
512.846	3.95
513.195	4.12
513.544	4.08
513.893	4.09
514.242	4.07
514.591	4.01
514.939	4.14
515.288	3.97
515.637	4.13
515.986	4.09
516.334	4.11
516.683	4.2
517.032	4.26
517.38	4.21
517.729	4.08
518.077	4.1
518.426	4.08
518.774	4.17
519.122	4.12
519.47	4.16
519.819	4.02
520.167	4.05
520.515	4.03
520.863	3.97
521.211	3.99
521.559	4.14
521.907	4.05
522.255	4.08
522.602	4.14
522.95	4.12
523.298	4.32
523.645	4.17
523.993	4.15
524.341	4.19
524.688	4.25
525.036	4.14
525.383	4.21
525.73	4.24
526.078	4.12
526.425	4.11
526.772	4.02
527.119	3.93
527.466	4
527.814	3.98
528.161	3.93
528.508	4.01
528.854	4.05
529.201	3.99
529.548	3.92
529.895	3.93
530.242	3.83
530.588	3.8
530.935	3.81
531.282	3.92
531.628	3.95
531.975	4.07
532.321	4.11
532.667	4.08
533.014	4.08
533.36	4.05
533.706	4.12
534.052	4.08
534.399	3.96
534.745	3.99
535.091	3.92
535.437	3.88
535.783	3.94
536.129	4.09
536.474	4.13
536.82	4.13
537.166	4.16
537.512	4.16
537.857	4.05
538.203	4.03
538.549	3.92
538.894	4.05
539.239	4.09
539.585	4.02
539.93	4.13
540.276	4.22
540.621	4.16
540.966	4.15
541.311	4.1
541.656	4.22
542.001	4.15
542.346	3.99
542.691	3.99
543.036	3.86
543.381	3.87
543.726	3.94
544.071	4
544.415	3.98
544.76	4.09
545.105	4.02
545.449	4.18
545.794	4.05
546.138	4.09
546.483	4.06
546.827	4.23
547.171	4.18
547.516	4.16
547.86	4.04
548.204	4.05
548.548	4.05
548.892	4.07
549.236	4.08
549.58	4.07
549.924	4.14
550.268	4.24
550.612	4.14
550.956	4.06
551.3	4.1
551.643	4.23
551.987	4.07
552.33	4.12
552.674	4.23
553.017	4.31
553.361	4.26
553.704	4
554.048	4.14
554.391	3.98
554.734	4.22
555.077	4.16
555.42	4.2
555.764	4.34
556.107	4.2
556.45	4.24
556.793	4.27
557.135	4.19
557.478	4.14
557.821	4.16
558.164	4.12
558.507	4.2
558.849	4.22
559.192	4.22
559.534	4.09
559.877	4.29
560.219	4.14
560.562	4.33
560.904	4.34
561.246	4.12
561.589	4.31
561.931	4.23
562.273	4.12
562.615	4.04
562.957	4.23
563.299	4.11
563.641	4.22
563.983	4.15
564.325	4.06
564.667	4.29
565.008	4.17
565.35	4.08
565.692	4.26
566.033	4.23
566.375	4.18
566.716	4.15
567.058	4.31
567.399	4.23
567.741	4.25
568.082	4.17
568.423	4.1
568.764	4.11
569.105	4.02
569.447	4.37
569.788	4.11
570.129	4.14
570.47	4.28
570.811	4.35
571.151	4.1
571.492	4.22
571.833	4.12
572.174	4.31
572.514	4.07
572.855	3.8
573.195	4.04
573.536	4.05
573.876	3.99
574.217	4.02
574.557	4.09
574.898	4.09
575.238	4.07
575.578	4.39
575.918	4.19
576.258	4.09
576.598	4.21
576.938	4.22
577.278	4.06
577.618	4.03
577.958	4.07
578.298	4.13
578.638	4.12
578.977	4.31
579.317	4.24
579.657	4.04
579.996	4.17
580.336	4.15
580.675	4
581.014	4.19
581.354	3.98
581.693	4.41
582.032	4.3
582.372	4.37
582.711	4.09
583.05	4.27
583.389	4.11
583.728	4.16
584.067	4.11
584.406	3.92
584.745	4.3
585.083	4.04
585.422	4.22
585.761	4.38
586.1	4.07
586.438	3.97
586.777	4.22
587.115	4.21
587.454	4.53
587.792	4.32
588.13	4.18
588.469	4.04
588.807	4.2
589.145	4.26
589.483	4.05
589.821	4.03
590.159	3.87
590.497	4.17
590.835	3.96
591.173	3.99
591.511	4.18
591.849	4.36
592.187	3.96
592.524	4.12
592.862	3.95
593.2	4.24
593.537	3.99
593.875	4.27
594.212	3.96
594.55	3.83
594.887	4.2
595.224	4.16
595.561	3.86
595.899	4.1
596.236	4.26
596.573	4.11
596.91	4.03
597.247	4.1
597.584	4.08
597.921	4.19
598.258	3.84
598.594	3.77
598.931	3.91
599.268	4.16
599.604	4
599.941	3.92
600.277	4.06
600.614	4.16
600.95	4.23
601.287	4.17
601.623	4.03
601.959	3.93
602.296	4.22
602.632	4.3
602.968	4.18
603.304	4.02
603.64	4.05
603.976	4.08
604.312	3.93
604.648	3.9
604.984	3.97
605.319	3.94
605.655	4.02
605.991	3.98
606.326	3.99
606.662	3.95
606.998	3.83
607.333	3.94
607.668	4.18
608.004	3.96
608.339	3.86
608.674	4.35
609.01	4.12
609.345	4.11
609.68	3.94
610.015	3.96
610.35	4.08
610.685	4.16
611.02	3.96
611.355	4.1
611.689	4.16
612.024	3.89
612.359	3.76
612.694	4.06
613.028	4.19
613.363	4.21
613.697	3.85
614.032	4.04
614.366	3.77
614.7	3.92
615.035	3.87
615.369	3.84
615.703	4.18
616.037	3.91
616.371	4.27
616.705	3.83
617.039	3.92
617.373	4.21
617.707	4.26
618.041	4.12
618.375	4.14
618.709	3.99
619.042	4.04
619.376	3.81
619.71	4
620.043	4.32
620.377	4.32
620.71	4.2
621.043	3.74
621.377	4.06
621.71	4.2
622.043	3.73
622.376	4.09
622.709	3.99
623.043	4.15
623.376	4.21
623.709	4.02
624.041	3.83
624.374	3.87
624.707	3.76
625.04	4.13
625.373	4.34
625.705	3.58
626.038	3.66
626.37	4.23
626.703	3.88
627.035	3.93
627.368	3.87
627.7	3.56
628.032	3.5
628.365	4.45
628.697	3.89
629.029	3.78
629.361	3.96
629.693	4.12
630.025	3.94
630.357	3.94
630.689	3.9
631.021	3.84
631.353	3.73
631.684	4.13
632.016	4.04
632.348	4.21
632.679	3.75
633.011	3.87
633.342	3.83
633.674	3.89
634.005	4.08
634.336	4.11
634.668	3.95
634.999	4.26
635.33	3.71
635.661	4
635.992	4.02
636.323	4.04
636.654	3.85
636.985	4.04
637.316	3.76
637.647	3.69
637.977	4.45
638.308	4.36
638.639	4.13
638.969	3.81
639.3	4.1
639.63	3.86
639.961	4.26
640.291	4.44
640.622	4.26
640.952	4
641.282	3.92
641.612	4.41
641.943	3.52
642.273	3.61
642.603	4.15
642.933	3.71
643.263	3.62
643.592	3.81
643.922	4.37
644.252	3.98
644.582	4.11
644.911	4.19
645.241	4.08
645.571	3.77
645.9	3.6
646.23	3.81
646.559	4.07
646.888	3.64
647.218	4.16
647.547	4.2
647.876	3.88
648.205	3.52
648.534	3.91
648.863	4
649.192	4.17
649.521	4.01
649.85	4.16
650.179	3.83
650.508	3.88
650.837	4.14
651.165	4.26
651.494	3.59
651.822	4.06
652.151	3.95
652.479	3.56
652.808	2.95
653.136	4.19
653.465	3.81
653.793	4.43
654.121	3.67
654.449	3.81
654.777	3.78
655.105	3.82
655.433	4
655.761	4.14
656.089	3.65
656.417	3.77
656.745	3.74
657.073	3.58
657.4	3.87
657.728	3.62
658.056	3.68
658.383	4.06
658.711	3.52
659.038	4.08
659.365	4.6
659.693	4.43
660.02	4.1
660.347	3.31
660.674	3.84
661.001	3.74
661.329	3.98
661.656	4.2
661.982	3.45
662.309	3.8
662.636	3.68
662.963	3.69
663.29	3.6
663.616	4
663.943	3.77
664.27	4.29
664.596	4.18
664.923	3.73
665.249	3.84
665.576	4.21
665.902	3.25
666.228	3.27
666.554	4.15
666.881	3.72
667.207	3.97
667.533	4.02
667.859	3.84
668.185	4.23
668.511	3.95
668.837	3.35
669.162	4.02
669.488	3.78
669.814	3.81
670.139	4.02
670.465	3.6
670.791	4.01
671.116	4.18
671.442	3.65
671.767	3.54
672.092	3.68
672.418	4.34
672.743	4.45
673.068	3.93
673.393	4.21
673.718	4.1
674.043	4.14
674.368	2.95
674.693	3.54
675.018	3.61
675.343	4.08
675.667	4.08
675.992	4.1
676.317	3.83
676.641	3.73
676.966	3.33
677.29	4.05
677.615	4.38
677.939	4.45
678.264	3.91
678.588	4.24
678.912	4.28
679.236	4.16
679.56	4.15
679.885	3.74
680.209	3.93
680.532	3.84
680.856	3.99
681.18	3.47
681.504	4.02
681.828	3.51
682.152	4.12
682.475	3.93
682.799	4.36
683.122	4.12
683.446	3.94
683.769	3.51
684.093	3.85
684.416	2.69
684.739	3.45
685.062	4.84
685.386	3.24
685.709	4.37
686.032	3.86
686.355	4.85
686.678	4.17
687.001	3.95
687.324	4.33
687.646	4.4
687.969	3.91
688.292	4.09
688.614	4.68
688.937	4.15
689.26	4.28
689.582	4.24
689.904	4.26
690.227	4.25
690.549	4.39
690.871	4.33
691.194	4.78
691.516	4.1
691.838	3.27
692.16	5.03
692.482	3.72
692.804	3.53
