Data from 001-16_chest_Reflection__2__66.txt Node

Date: Fri Nov 11 16:39:12 CST 2022
User: ToomeyLab
Spectrometer: FLMS14357
Trigger mode: 0
Integration Time (sec): 1.000000E-2
Scans to average: 100
Electric dark correction enabled: true
Nonlinearity correction enabled: false
Boxcar width: 0
XAxis mode: Wavelengths
Number of Pixels in Spectrum: 2048
>>>>>Begin Spectral Data<<<<<
189.047	52.9
189.435	52.9
189.823	52.9
190.211	270
190.599	43.59
190.987	1577.12
191.375	96.2
191.763	-260.11
192.151	84.87
192.538	-692.36
192.926	729.92
193.314	-68.5
193.702	-22.59
194.089	37.55
194.477	-49.02
194.864	-199.33
195.252	168.48
195.639	192.72
196.027	-378.6
196.414	111.73
196.801	428.43
197.189	68.34
197.576	-118.15
197.963	-10.18
198.351	20.31
198.738	-62.84
199.125	6.6
199.512	11.03
199.899	10.82
200.286	34.88
200.673	47.99
201.06	11.8
201.447	17
201.833	14.27
202.22	-0.15
202.607	16.01
202.994	-7.57
203.38	-20.32
203.767	4.51
204.154	10.66
204.54	48.69
204.927	14.4
205.313	-6.2
205.699	-0.22
206.086	-0.55
206.472	33.35
206.858	20.57
207.245	15.91
207.631	28.38
208.017	-9.33
208.403	16.36
208.789	-47.95
209.175	22.44
209.561	25.69
209.947	-14.1
210.333	10.73
210.719	12.42
211.105	22.21
211.491	-80.69
211.876	25.93
212.262	0.46
212.648	5.15
213.034	-17.06
213.419	30.1
213.805	-0.1
214.19	-14.39
214.576	29.68
214.961	-8.48
215.346	-42.96
215.732	-3.53
216.117	13.21
216.502	14.95
216.888	8.93
217.273	-2.24
217.658	-6.39
218.043	-10.69
218.428	-6.54
218.813	16.07
219.198	-21.91
219.583	-0.47
219.968	-3.13
220.353	-7.66
220.738	-15.19
221.122	-37.19
221.507	10.82
221.892	18.46
222.276	15.04
222.661	21.72
223.046	18.14
223.43	4.46
223.815	13.11
224.199	-0.01
224.583	5.47
224.968	17.22
225.352	3.25
225.736	8.51
226.121	2.53
226.505	9.02
226.889	4.97
227.273	3.69
227.657	3.58
228.041	5.76
228.425	7.92
228.809	7.15
229.193	2.55
229.577	5.54
229.961	4.19
230.344	4.68
230.728	4.75
231.112	4.46
231.495	4.39
231.879	5.62
232.263	2.93
232.646	3.91
233.03	3.02
233.413	4.44
233.797	4.69
234.18	3.62
234.563	5.99
234.946	2.06
235.33	5.49
235.713	3.31
236.096	2.77
236.479	3.8
236.862	3.61
237.245	4.47
237.628	5.2
238.011	4.81
238.394	5.4
238.777	4.35
239.16	4.62
239.543	5.65
239.925	5.03
240.308	3.8
240.691	4.04
241.073	4.08
241.456	1.75
241.838	5.5
242.221	4.95
242.603	3.73
242.986	4.69
243.368	4.21
243.75	4.54
244.133	4.04
244.515	4.36
244.897	3.72
245.279	3.56
245.661	3.51
246.043	3.79
246.425	4.24
246.807	4
247.189	4.01
247.571	3.23
247.953	4.03
248.335	4.31
248.717	4.23
249.098	4.07
249.48	4.15
249.862	3.96
250.243	4.34
250.625	4.33
251.006	4.88
251.388	4.09
251.769	5.09
252.151	4.11
252.532	4.35
252.913	4.17
253.295	4.26
253.676	4.31
254.057	4.16
254.438	3.97
254.819	4.72
255.2	4.1
255.581	5.37
255.962	4.48
256.343	4.33
256.724	3.82
257.105	3.81
257.486	5.14
257.867	4.31
258.247	4.98
258.628	3.99
259.009	4.46
259.389	4.96
259.77	4.79
260.15	4.43
260.531	3.7
260.911	4.05
261.292	3.96
261.672	3.94
262.052	3.81
262.432	4.37
262.813	3.62
263.193	3.93
263.573	4.64
263.953	4.23
264.333	4.33
264.713	3.39
265.093	4.97
265.473	4.91
265.853	3.29
266.233	3.67
266.612	3.87
266.992	3.69
267.372	4.1
267.752	4.46
268.131	3.76
268.511	4.08
268.89	4.43
269.27	4.05
269.649	3.83
270.029	3.42
270.408	3.34
270.787	4.01
271.167	3.95
271.546	4.2
271.925	4.32
272.304	4.51
272.683	3.96
273.062	3.96
273.441	4
273.82	3.79
274.199	4.01
274.578	4.14
274.957	3.58
275.336	4.06
275.715	3.76
276.093	4.11
276.472	4.17
276.851	3.69
277.229	3.75
277.608	3.79
277.986	4.05
278.365	4.65
278.743	3.79
279.122	3.39
279.5	3.36
279.878	3.73
280.257	4.18
280.635	4.25
281.013	4.18
281.391	3.49
281.769	4.32
282.147	4.04
282.525	3.8
282.903	4.14
283.281	3.9
283.659	3.6
284.037	4.04
284.415	3.67
284.792	4.25
285.17	3.24
285.548	3.6
285.925	3.85
286.303	3.62
286.68	4.38
287.058	3.7
287.435	4.19
287.813	3.67
288.19	4.01
288.567	3.9
288.945	3.38
289.322	3.89
289.699	4.21
290.076	3.7
290.453	4.06
290.83	3.83
291.207	3.9
291.584	3.81
291.961	3.63
292.338	3.82
292.715	4.07
293.092	3.63
293.469	4.2
293.845	4.13
294.222	4.5
294.599	4
294.975	3.69
295.352	3.88
295.728	4.29
296.105	3.82
296.481	3.58
296.858	4.31
297.234	4.2
297.61	4.15
297.986	3.47
298.363	3.75
298.739	4.22
299.115	3.76
299.491	4.15
299.867	4.02
300.243	3.57
300.619	4.19
300.995	4.07
301.371	3.55
301.746	3.86
302.122	4.09
302.498	3.72
302.874	4.03
303.249	4.2
303.625	4.02
304	4.06
304.376	4.31
304.751	4.71
305.127	4.18
305.502	4.57
305.878	4.3
306.253	4.11
306.628	4.3
307.003	4.07
307.378	4.79
307.754	4.36
308.129	4.22
308.504	3.91
308.879	3.98
309.254	3.62
309.629	4.21
310.003	4.24
310.378	3.59
310.753	4
311.128	4.14
311.502	3.75
311.877	4.37
312.252	4.01
312.626	4.03
313.001	4.03
313.375	4.35
313.75	4.13
314.124	4.11
314.498	4.15
314.873	4.13
315.247	4.17
315.621	3.7
315.995	3.61
316.369	4.59
316.743	4.23
317.117	4.23
317.491	4.15
317.865	3.93
318.239	4.14
318.613	4.56
318.987	4.26
319.361	4.05
319.734	3.98
320.108	4.21
320.482	3.25
320.855	4.31
321.229	4.62
321.602	4.27
321.976	3.32
322.349	4.05
322.723	4
323.096	4.47
323.469	4.4
323.843	4.51
324.216	4.09
324.589	4.47
324.962	3.94
325.335	4.45
325.708	4.08
326.081	4.1
326.454	4.24
326.827	4.58
327.2	3.74
327.573	4.75
327.945	4.15
328.318	4.35
328.691	4.72
329.063	4.79
329.436	4.29
329.809	4.28
330.181	4.37
330.553	4.13
330.926	3.61
331.298	3.87
331.671	4.62
332.043	4.36
332.415	4.61
332.787	4.97
333.159	4.62
333.532	3.94
333.904	4.03
334.276	4.49
334.648	4.07
335.02	4.6
335.391	4.59
335.763	4.18
336.135	4.27
336.507	4.55
336.879	3.84
337.25	4.03
337.622	4.74
337.993	4.21
338.365	4.54
338.736	4.46
339.108	4.23
339.479	4.08
339.851	4.05
340.222	4.5
340.593	4.34
340.964	4.04
341.336	3.97
341.707	4.24
342.078	4.41
342.449	4.28
342.82	4.48
343.191	4.81
343.562	4.59
343.933	3.97
344.303	4.67
344.674	4.61
345.045	4.46
345.416	4.67
345.786	4.63
346.157	4.17
346.527	4.52
346.898	4.01
347.268	4.26
347.639	4.65
348.009	4.11
348.38	4.5
348.75	4.87
349.12	4.55
349.49	4.37
349.861	4.43
350.231	4.35
350.601	4.93
350.971	4.32
351.341	4.47
351.711	4.28
352.081	3.96
352.45	4.14
352.82	4.65
353.19	4.48
353.56	4.74
353.929	4.73
354.299	4.41
354.669	4.7
355.038	4.4
355.408	4.11
355.777	4.79
356.147	4.08
356.516	4.81
356.885	4.19
357.254	4.21
357.624	4.3
357.993	4.73
358.362	4.53
358.731	4.36
359.1	4.28
359.469	4.47
359.838	4.56
360.207	4.78
360.576	4.67
360.945	4.56
361.314	4.59
361.682	4.49
362.051	4.53
362.42	4.43
362.788	4.56
363.157	4.73
363.525	4.57
363.894	4.34
364.262	4.32
364.631	4.29
364.999	4.68
365.367	4.74
365.735	4.57
366.104	4.39
366.472	4.43
366.84	4.54
367.208	4.65
367.576	4.74
367.944	4.88
368.312	4.61
368.68	4.7
369.048	4.26
369.416	4.37
369.783	4.23
370.151	4.64
370.519	4.68
370.886	4.81
371.254	4.51
371.621	4.83
371.989	4.22
372.356	4.52
372.724	4.98
373.091	4.71
373.458	4.6
373.826	4.71
374.193	4.61
374.56	4.8
374.927	4.76
375.294	4.77
375.661	5.15
376.028	4.57
376.395	4.8
376.762	4.67
377.129	4.69
377.496	4.62
377.863	4.62
378.229	4.74
378.596	4.85
378.963	4.78
379.329	4.77
379.696	4.64
380.062	4.58
380.429	4.63
380.795	4.56
381.161	4.96
381.528	5.21
381.894	4.8
382.26	4.74
382.626	4.85
382.993	4.81
383.359	4.89
383.725	4.87
384.091	4.51
384.457	4.72
384.823	4.78
385.188	4.93
385.554	4.65
385.92	4.75
386.286	4.66
386.651	4.66
387.017	4.73
387.383	4.82
387.748	4.5
388.114	4.74
388.479	4.78
388.845	4.67
389.21	5.08
389.575	4.7
389.94	4.69
390.306	4.94
390.671	4.74
391.036	4.88
391.401	4.64
391.766	4.54
392.131	4.58
392.496	5.03
392.861	4.86
393.226	4.82
393.591	4.67
393.956	4.85
394.32	4.89
394.685	4.96
395.05	5.13
395.414	5.08
395.779	4.75
396.143	4.82
396.508	4.94
396.872	4.77
397.236	4.75
397.601	4.96
397.965	4.8
398.329	5.04
398.694	4.63
399.058	4.77
399.422	4.69
399.786	5.17
400.15	4.86
400.514	4.83
400.878	4.93
401.242	5.13
401.605	4.9
401.969	4.88
402.333	4.96
402.697	5.1
403.06	4.91
403.424	4.77
403.787	5.12
404.151	4.84
404.514	4.87
404.878	4.77
405.241	5
405.604	4.72
405.968	4.89
406.331	4.82
406.694	4.98
407.057	4.84
407.42	5.03
407.783	4.98
408.146	4.94
408.509	4.92
408.872	5.17
409.235	5.01
409.598	4.82
409.961	5.09
410.323	4.99
410.686	5.07
411.049	5.06
411.411	4.85
411.774	4.94
412.136	5.11
412.499	5.08
412.861	5.1
413.223	5.17
413.586	4.74
413.948	4.94
414.31	5.16
414.672	5.07
415.035	5.1
415.397	5.16
415.759	5.21
416.121	5.29
416.483	5.21
416.845	5.07
417.206	5.27
417.568	5.05
417.93	5
418.292	4.78
418.653	4.94
419.015	5.02
419.377	5.01
419.738	5.05
420.1	5.09
420.461	5
420.822	4.8
421.184	4.96
421.545	4.89
421.906	4.99
422.267	5.08
422.629	5.03
422.99	5
423.351	4.86
423.712	4.94
424.073	4.99
424.434	4.98
424.795	5.16
425.155	5.08
425.516	4.95
425.877	4.86
426.238	4.95
426.598	5.04
426.959	5
427.32	5
427.68	4.97
428.041	5
428.401	4.86
428.761	4.96
429.122	5.23
429.482	5.08
429.842	5.2
430.202	5.09
430.563	5.04
430.923	5.14
431.283	5.25
431.643	5.24
432.003	5.3
432.363	5.26
432.722	5.12
433.082	5.19
433.442	5.13
433.802	5.29
434.161	5.1
434.521	5.24
434.881	4.94
435.24	5.28
435.6	5.04
435.959	5.12
436.319	5.09
436.678	5.05
437.037	5.13
437.396	5.12
437.756	5.24
438.115	4.99
438.474	5.07
438.833	5.2
439.192	5.27
439.551	5.06
439.91	5.22
440.269	5.28
440.628	5.13
440.987	5.24
441.345	5.19
441.704	5.22
442.063	5.37
442.421	5.15
442.78	5.19
443.138	5.07
443.497	5.09
443.855	5.3
444.214	5.19
444.572	5.28
444.93	5.22
445.288	5.38
445.647	5.06
446.005	5.26
446.363	5.23
446.721	5.1
447.079	5.05
447.437	5.19
447.795	5.17
448.153	5.13
448.51	5.08
448.868	5.12
449.226	5.17
449.584	5.22
449.941	5.1
450.299	5.19
450.656	5.25
451.014	5.25
451.371	5.19
451.729	5.31
452.086	5.25
452.443	5.32
452.801	5.19
453.158	5.23
453.515	5.31
453.872	5.33
454.229	5.25
454.586	5.19
454.943	5.31
455.3	5.14
455.657	5.43
456.014	5.19
456.371	5.28
456.727	5.29
457.084	5.35
457.441	5.4
457.797	5.26
458.154	5.4
458.51	5.39
458.867	5.34
459.223	5.33
459.58	5.29
459.936	5.42
460.292	5.31
460.648	5.33
461.005	5.39
461.361	5.35
461.717	5.23
462.073	5.26
462.429	5.28
462.785	5.22
463.141	5.35
463.496	5.37
463.852	5.32
464.208	5.41
464.564	5.29
464.919	5.46
465.275	5.34
465.631	5.35
465.986	5.34
466.342	5.6
466.697	5.63
467.052	5.46
467.408	5.37
467.763	5.44
468.118	5.45
468.473	5.41
468.829	5.61
469.184	5.43
469.539	5.69
469.894	5.44
470.249	5.37
470.603	5.38
470.958	5.67
471.313	5.53
471.668	5.56
472.023	5.58
472.377	5.61
472.732	5.56
473.086	5.63
473.441	5.4
473.795	5.47
474.15	5.66
474.504	5.76
474.859	5.66
475.213	5.56
475.567	5.68
475.921	5.63
476.275	5.63
476.63	5.62
476.984	5.75
477.338	5.65
477.692	5.56
478.045	5.55
478.399	5.55
478.753	5.63
479.107	5.52
479.461	5.63
479.814	5.58
480.168	5.74
480.521	5.61
480.875	5.66
481.228	5.6
481.582	5.67
481.935	5.76
482.289	5.74
482.642	5.55
482.995	5.6
483.348	5.52
483.701	5.6
484.055	5.55
484.408	5.58
484.761	5.35
485.114	5.38
485.466	5.31
485.819	5.32
486.172	5.32
486.525	5.33
486.878	5.32
487.23	5.4
487.583	5.44
487.936	5.58
488.288	5.52
488.641	5.56
488.993	5.46
489.345	5.38
489.698	5.42
490.05	5.42
490.402	5.45
490.754	5.55
491.107	5.53
491.459	5.62
491.811	5.65
492.163	5.6
492.515	5.61
492.866	5.58
493.218	5.52
493.57	5.52
493.922	5.51
494.274	5.6
494.625	5.57
494.977	5.69
495.328	5.64
495.68	5.75
496.031	5.79
496.383	5.82
496.734	5.84
497.086	5.85
497.437	5.81
497.788	5.81
498.139	5.84
498.49	5.83
498.842	5.8
499.193	5.82
499.544	5.86
499.894	5.99
500.245	5.81
500.596	5.89
500.947	5.9
501.298	5.95
501.648	5.99
501.999	5.84
502.35	5.98
502.7	6.02
503.051	6.03
503.401	6.08
503.752	5.89
504.102	6.02
504.452	6
504.803	6.11
505.153	5.97
505.503	6
505.853	6.09
506.203	6.08
506.553	6.03
506.903	6.06
507.253	5.99
507.603	6.05
507.953	6.11
508.303	6.06
508.652	5.99
509.002	6.14
509.352	6.22
509.701	6.04
510.051	6.06
510.4	5.98
510.75	6.04
511.099	6.05
511.449	5.94
511.798	6.06
512.147	6.21
512.496	6.15
512.846	6.01
513.195	6.04
513.544	6.22
513.893	6.08
514.242	6.21
514.591	6
514.939	6.18
515.288	6.19
515.637	6.21
515.986	6.3
516.334	6.3
516.683	6.33
517.032	6.07
517.38	6.25
517.729	6.4
518.077	6.23
518.426	6.45
518.774	6.25
519.122	6.34
519.47	6.1
519.819	6.21
520.167	6.27
520.515	6.25
520.863	6.33
521.211	6.24
521.559	6.21
521.907	6.34
522.255	6.4
522.602	6.43
522.95	6.32
523.298	6.43
523.645	6.38
523.993	6.5
524.341	6.6
524.688	6.41
525.036	6.5
525.383	6.52
525.73	6.4
526.078	6.59
526.425	6.5
526.772	6.55
527.119	6.43
527.466	6.45
527.814	6.41
528.161	6.37
528.508	6.36
528.854	6.46
529.201	6.46
529.548	6.51
529.895	6.38
530.242	6.36
530.588	6.33
530.935	6.29
531.282	6.38
531.628	6.32
531.975	6.36
532.321	6.38
532.667	6.51
533.014	6.58
533.36	6.68
533.706	6.63
534.052	6.68
534.399	6.57
534.745	6.54
535.091	6.5
535.437	6.52
535.783	6.57
536.129	6.62
536.474	6.62
536.82	6.66
537.166	6.74
537.512	6.81
537.857	6.83
538.203	6.79
538.549	6.75
538.894	6.79
539.239	6.82
539.585	6.77
539.93	6.93
540.276	6.93
540.621	6.92
540.966	7.04
541.311	7
541.656	6.85
542.001	6.92
542.346	6.97
542.691	6.85
543.036	6.84
543.381	6.81
543.726	6.8
544.071	6.83
544.415	6.92
544.76	6.93
545.105	7.08
545.449	7.09
545.794	7.09
546.138	7.14
546.483	7.22
546.827	7.08
547.171	7.28
547.516	7.22
547.86	7.1
548.204	7.17
548.548	7.14
548.892	7.24
549.236	7.3
549.58	7.38
549.924	7.36
550.268	7.51
550.612	7.47
550.956	7.49
551.3	7.63
551.643	7.65
551.987	7.58
552.33	7.58
552.674	7.44
553.017	7.49
553.361	7.64
553.704	7.58
554.048	7.57
554.391	7.68
554.734	7.57
555.077	7.81
555.42	7.68
555.764	7.83
556.107	7.77
556.45	7.72
556.793	7.75
557.135	7.93
557.478	7.79
557.821	7.89
558.164	7.83
558.507	7.99
558.849	7.97
559.192	8.04
559.534	8
559.877	8.25
560.219	8.05
560.562	7.92
560.904	7.9
561.246	7.97
561.589	8.37
561.931	8.24
562.273	8.13
562.615	8.21
562.957	8.21
563.299	8.31
563.641	8.29
563.983	8.09
564.325	8.25
564.667	8.43
565.008	8.19
565.35	8.41
565.692	8.31
566.033	8.43
566.375	8.49
566.716	8.48
567.058	8.46
567.399	8.49
567.741	8.52
568.082	8.55
568.423	8.52
568.764	8.51
569.105	8.44
569.447	8.65
569.788	8.63
570.129	8.62
570.47	8.46
570.811	8.77
571.151	8.76
571.492	8.79
571.833	8.8
572.174	8.89
572.514	8.81
572.855	8.78
573.195	8.93
573.536	8.95
573.876	8.92
574.217	8.85
574.557	8.85
574.898	8.87
575.238	9.04
575.578	9.1
575.918	8.96
576.258	9.21
576.598	9.18
576.938	9.05
577.278	9.14
577.618	9.22
577.958	9.18
578.298	9.36
578.638	9.23
578.977	9.28
579.317	9.24
579.657	9.5
579.996	9.53
580.336	9.4
580.675	9.46
581.014	9.64
581.354	9.54
581.693	9.36
582.032	9.67
582.372	9.83
582.711	9.67
583.05	9.53
583.389	9.96
583.728	9.7
584.067	9.84
584.406	9.78
584.745	10.04
585.083	9.92
585.422	9.91
585.761	10.1
586.1	9.73
586.438	9.85
586.777	9.8
587.115	10.14
587.454	10.34
587.792	10
588.13	10.08
588.469	10.21
588.807	10.04
589.145	10.39
589.483	10.4
589.821	10.17
590.159	10.34
590.497	10.43
590.835	10.15
591.173	10.32
591.511	10.45
591.849	10.25
592.187	10.49
592.524	10.5
592.862	10.8
593.2	10.71
593.537	10.42
593.875	10.89
594.212	10.7
594.55	10.89
594.887	10.92
595.224	10.75
595.561	10.82
595.899	10.89
596.236	10.8
596.573	10.67
596.91	10.87
597.247	10.69
597.584	10.74
597.921	10.84
598.258	10.81
598.594	10.95
598.931	10.94
599.268	11.06
599.604	11.1
599.941	11.07
600.277	10.92
600.614	11.27
600.95	11.08
601.287	11.36
601.623	11.11
601.959	11.02
602.296	11.23
602.632	11.4
602.968	11.4
603.304	11.62
603.64	11.34
603.976	11.71
604.312	11.27
604.648	11.43
604.984	11.73
605.319	11.45
605.655	11.71
605.991	11.5
606.326	11.61
606.662	11.6
606.998	11.69
607.333	11.81
607.668	11.72
608.004	11.95
608.339	11.88
608.674	11.88
609.01	11.82
609.345	11.92
609.68	12.17
610.015	12.28
610.35	12.16
610.685	12.08
611.02	12.22
611.355	12.04
611.689	12.28
612.024	12.22
612.359	12.09
612.694	12.14
613.028	12.52
613.363	12.62
613.697	12.47
614.032	12.5
614.366	12.5
614.7	12.32
615.035	12.81
615.369	13.01
615.703	12.63
616.037	12.61
616.371	12.64
616.705	12.94
617.039	12.86
617.373	12.74
617.707	13.07
618.041	12.67
618.375	12.98
618.709	12.83
619.042	13.05
619.376	13.31
619.71	13.04
620.043	13.17
620.377	13.25
620.71	12.95
621.043	13.5
621.377	13.03
621.71	13.68
622.043	13.32
622.376	13.39
622.709	13.42
623.043	13.32
623.376	13.3
623.709	13.62
624.041	13.75
624.374	13.73
624.707	13.55
625.04	13.56
625.373	13.73
625.705	13.95
626.038	13.75
626.37	13.79
626.703	13.79
627.035	13.51
627.368	13.8
627.7	13.9
628.032	13.82
628.365	14.21
628.697	14.06
629.029	14.14
629.361	14.03
629.693	13.85
630.025	14.04
630.357	13.84
630.689	13.98
631.021	14.12
631.353	14.07
631.684	14.62
632.016	14.22
632.348	14.47
632.679	14.49
633.011	14.41
633.342	14.38
633.674	14.37
634.005	14.54
634.336	14.47
634.668	14.63
634.999	14.56
635.33	14.52
635.661	14.63
635.992	14.75
636.323	14.99
636.654	15.25
636.985	14.89
637.316	15.02
637.647	14.6
637.977	14.85
638.308	14.81
638.639	15.07
638.969	15.21
639.3	14.89
639.63	15.29
639.961	15.02
640.291	15.3
640.622	15.25
640.952	15.22
641.282	15.6
641.612	15.82
641.943	15.43
642.273	15.75
642.603	15.4
642.933	15.44
643.263	15.56
643.592	15.78
643.922	15.69
644.252	15.8
644.582	15.64
644.911	15.78
645.241	16.1
645.571	15.36
645.9	15.95
646.23	16.15
646.559	15.68
646.888	15.93
647.218	15.89
647.547	16.2
647.876	15.87
648.205	16.03
648.534	15.93
648.863	16.19
649.192	16.43
649.521	16.61
649.85	16.42
650.179	16.68
650.508	16.6
650.837	16.64
651.165	16.3
651.494	16.69
651.822	16.13
652.151	16.82
652.479	16.65
652.808	16.41
653.136	16.78
653.465	16.77
653.793	16.75
654.121	16.65
654.449	16.61
654.777	16.38
655.105	16.83
655.433	16.51
655.761	16.72
656.089	17.03
656.417	17.15
656.745	16.59
657.073	16.76
657.4	16.79
657.728	16.71
658.056	17.37
658.383	17.6
658.711	17.27
659.038	17.38
659.365	17.38
659.693	17.42
660.02	17.46
660.347	17.35
660.674	17.41
661.001	17.35
661.329	16.9
661.656	17.19
661.982	17.66
662.309	17.55
662.636	17.66
662.963	17.32
663.29	17.89
663.616	17.96
663.943	18.03
664.27	17.86
664.596	17.97
664.923	18.05
665.249	18.06
665.576	17.76
665.902	17.91
666.228	17.75
666.554	18.02
666.881	17.93
667.207	18.26
667.533	18.56
667.859	18.09
668.185	18.59
668.511	17.96
668.837	18.12
669.162	17.68
669.488	17.49
669.814	17.88
670.139	18.36
670.465	18.46
670.791	18.2
671.116	18.3
671.442	18.35
671.767	18.92
672.092	18.52
672.418	18.87
672.743	18.36
673.068	18.39
673.393	18.42
673.718	18.43
674.043	18.76
674.368	18.62
674.693	18.55
675.018	18.98
675.343	18.77
675.667	19.14
675.992	19.4
676.317	18.81
676.641	19.62
676.966	18.4
677.29	18.53
677.615	19.79
677.939	19.68
678.264	19.45
678.588	19.44
678.912	19.3
679.236	19.45
679.56	19.58
679.885	19.82
680.209	19.85
680.532	19.51
680.856	20.33
681.18	19.36
681.504	19.34
681.828	19.5
682.152	20.01
682.475	19.49
682.799	19.57
683.122	20.07
683.446	19.5
683.769	19.87
684.093	19.79
684.416	20.35
684.739	20.14
685.062	19.96
685.386	19.97
685.709	20.02
686.032	19.65
686.355	19.18
