Data from 001-16_forehead_Reflection__3__77.txt Node

Date: Fri Nov 11 16:43:05 CST 2022
User: ToomeyLab
Spectrometer: FLMS14357
Trigger mode: 0
Integration Time (sec): 1.000000E-2
Scans to average: 100
Electric dark correction enabled: true
Nonlinearity correction enabled: false
Boxcar width: 0
XAxis mode: Wavelengths
Number of Pixels in Spectrum: 2048
>>>>>Begin Spectral Data<<<<<
189.047	19.07
189.435	19.07
189.823	19.07
190.211	-294.47
190.599	10.92
190.987	5769.49
191.375	11.07
191.763	120.72
192.151	163.19
192.538	191.13
192.926	-220.85
193.314	-133.33
193.702	-99.16
194.089	-179.33
194.477	37.25
194.864	1402.67
195.252	35.33
195.639	163.66
196.027	-143.61
196.414	17.4
196.801	1278.43
197.189	-38.99
197.576	-163.51
197.963	-4.07
198.351	17.92
198.738	-165.98
199.125	27.57
199.512	50.94
199.899	21.88
200.286	27.64
200.673	23.21
201.06	4.13
201.447	33.6
201.833	14.84
202.22	54.33
202.607	27.5
202.994	16.92
203.38	-12.78
203.767	10.8
204.154	-19.38
204.54	37.53
204.927	29.41
205.313	28.12
205.699	-1.2
206.086	48.16
206.472	17.35
206.858	-3.68
207.245	24.83
207.631	17.15
208.017	25.56
208.403	44.85
208.789	37.61
209.175	3.54
209.561	54.42
209.947	13.61
210.333	20.58
210.719	45.13
211.105	11.01
211.491	-56.68
211.876	33.65
212.262	-33.2
212.648	5.04
213.034	15.45
213.419	15.78
213.805	18.9
214.19	-3.85
214.576	16.64
214.961	-0.29
215.346	-48.13
215.732	-18.57
216.117	27.97
216.502	19.7
216.888	25.9
217.273	10.34
217.658	-9.3
218.043	22.37
218.428	-15.63
218.813	11.18
219.198	3.46
219.583	18.79
219.968	6.01
220.353	13.93
220.738	-22.82
221.122	-19.56
221.507	18.12
221.892	18.98
222.276	16.84
222.661	0.5
223.046	13.99
223.43	4.2
223.815	8.32
224.199	15.36
224.583	8.15
224.968	19.75
225.352	-6.11
225.736	8.51
226.121	-0.2
226.505	8.96
226.889	4.53
227.273	10.61
227.657	-1.93
228.041	2.53
228.425	5.25
228.809	4.91
229.193	-1.62
229.577	2.6
229.961	1.85
230.344	2.36
230.728	2.12
231.112	1.92
231.495	1.96
231.879	1.75
232.263	0.94
232.646	0.75
233.03	2.4
233.413	0.3
233.797	-0.01
234.18	3.34
234.563	0.58
234.946	1.07
235.33	2.14
235.713	1.32
236.096	-0.13
236.479	1.65
236.862	0.83
237.245	2.96
237.628	3.13
238.011	2.38
238.394	4.57
238.777	2.68
239.16	2.27
239.543	1.28
239.925	2.77
240.308	0.8
240.691	2.69
241.073	2.65
241.456	0.52
241.838	1.24
242.221	1.96
242.603	1.18
242.986	2.22
243.368	1.56
243.75	1.76
244.133	1.83
244.515	1.84
244.897	1.66
245.279	1.75
245.661	1.55
246.043	2.38
246.425	2.47
246.807	1.93
247.189	0.58
247.571	1.23
247.953	1.87
248.335	1.98
248.717	1.79
249.098	1.8
249.48	1.76
249.862	1.88
250.243	1.71
250.625	1.51
251.006	2.33
251.388	1.61
251.769	1.9
252.151	2.47
252.532	2.81
252.913	0.31
253.295	1.32
253.676	1.82
254.057	1.64
254.438	2.22
254.819	1.62
255.2	2.45
255.581	2.5
255.962	1.97
256.343	3.52
256.724	2.71
257.105	2
257.486	2.69
257.867	1.86
258.247	1.94
258.628	1.75
259.009	2.26
259.389	1.93
259.77	2.18
260.15	2.39
260.531	1.52
260.911	2.05
261.292	1.94
261.672	1.59
262.052	1.98
262.432	2.45
262.813	1.87
263.193	1.58
263.573	2.22
263.953	2.54
264.333	2.08
264.713	1.83
265.093	1.77
265.473	2.92
265.853	1.63
266.233	2.4
266.612	1.99
266.992	2.31
267.372	2.29
267.752	2.1
268.131	1.86
268.511	2.41
268.89	2.11
269.27	1.78
269.649	1.71
270.029	1.61
270.408	1.7
270.787	2.54
271.167	2.24
271.546	2.43
271.925	2.33
272.304	1.93
272.683	1.65
273.062	2.11
273.441	1.91
273.82	1.53
274.199	2.22
274.578	2.37
274.957	1.65
275.336	1.85
275.715	1.98
276.093	2.69
276.472	2.07
276.851	2.15
277.229	1.86
277.608	2.04
277.986	1.8
278.365	2.21
278.743	1.53
279.122	2.14
279.5	2.18
279.878	1.83
280.257	2.21
280.635	1.56
281.013	1.8
281.391	1.94
281.769	2.52
282.147	1.78
282.525	2.06
282.903	2.45
283.281	1.94
283.659	1.8
284.037	1.64
284.415	2.02
284.792	2.37
285.17	1.79
285.548	1.89
285.925	1.83
286.303	1.55
286.68	1.9
287.058	2.28
287.435	1.95
287.813	1.78
288.19	2.23
288.567	2.06
288.945	1.38
289.322	2.28
289.699	2.32
290.076	1.81
290.453	2.01
290.83	2.54
291.207	2.33
291.584	1.77
291.961	2.08
292.338	2.37
292.715	2.11
293.092	1.98
293.469	2.7
293.845	2.28
294.222	2.3
294.599	2.16
294.975	2.12
295.352	2.09
295.728	2.66
296.105	2.48
296.481	2.21
296.858	2.42
297.234	2.3
297.61	2.32
297.986	1.69
298.363	2.36
298.739	2.61
299.115	2.37
299.491	2.43
299.867	2.14
300.243	2.08
300.619	2.58
300.995	2.49
301.371	2.28
301.746	2.98
302.122	2.97
302.498	2.38
302.874	2.82
303.249	2.63
303.625	2.49
304	2.52
304.376	3.05
304.751	3.16
305.127	2.81
305.502	3.2
305.878	3.45
306.253	3.27
306.628	2.88
307.003	3.08
307.378	3.48
307.754	3.72
308.129	3.18
308.504	3.19
308.879	3.26
309.254	2.68
309.629	2.46
310.003	3.4
310.378	3
310.753	3.33
311.128	3.49
311.502	3.09
311.877	3.46
312.252	3.29
312.626	3.35
313.001	3.42
313.375	3.32
313.75	3.99
314.124	3.48
314.498	3.81
314.873	3.52
315.247	3.54
315.621	3.23
315.995	4.03
316.369	4.43
316.743	3.74
317.117	4.22
317.491	4.34
317.865	3.6
318.239	3.74
318.613	3.66
318.987	4.63
319.361	4.09
319.734	3.86
320.108	4.51
320.482	4.03
320.855	4.57
321.229	4.55
321.602	4.94
321.976	4.08
322.349	4.66
322.723	4.23
323.096	4.79
323.469	4.35
323.843	4.74
324.216	4.48
324.589	5.39
324.962	4.31
325.335	4.59
325.708	4.39
326.081	4.25
326.454	4.86
326.827	4.91
327.2	4.37
327.573	5.11
327.945	4.42
328.318	5.28
328.691	5.34
329.063	4.9
329.436	5.15
329.809	4.78
330.181	5.33
330.553	5.35
330.926	4.38
331.298	5.09
331.671	5.02
332.043	5.38
332.415	5.26
332.787	5.24
333.159	5.3
333.532	4.92
333.904	4.74
334.276	5.38
334.648	4.96
335.02	5.48
335.391	5.84
335.763	5.11
336.135	5.2
336.507	5.44
336.879	5.19
337.25	5.24
337.622	5.69
337.993	5.37
338.365	5.48
338.736	5.63
339.108	5.75
339.479	5.6
339.851	5.37
340.222	5.57
340.593	5.42
340.964	5.63
341.336	5.13
341.707	5.92
342.078	5.38
342.449	5.85
342.82	5.66
343.191	6.36
343.562	5.59
343.933	5.37
344.303	6.13
344.674	5.99
345.045	5.94
345.416	5.86
345.786	5.9
346.157	5.67
346.527	6.17
346.898	6.04
347.268	5.81
347.639	6.4
348.009	6.12
348.38	6.11
348.75	6.4
349.12	6.09
349.49	6.25
349.861	6.05
350.231	6.31
350.601	7.06
350.971	6.51
351.341	6.26
351.711	6.39
352.081	6.09
352.45	6.45
352.82	6.97
353.19	6.43
353.56	7.03
353.929	6.79
354.299	6.66
354.669	6.78
355.038	6.82
355.408	6.46
355.777	6.87
356.147	6.81
356.516	6.94
356.885	6.81
357.254	6.96
357.624	6.98
357.993	6.99
358.362	6.94
358.731	6.74
359.1	6.78
359.469	7.09
359.838	6.97
360.207	7.14
360.576	7.16
360.945	7.55
361.314	7.13
361.682	7.34
362.051	7.2
362.42	7.29
362.788	7.21
363.157	7.42
363.525	7.5
363.894	7.15
364.262	7.19
364.631	7.14
364.999	7.33
365.367	7.6
365.735	7.46
366.104	7.5
366.472	7.51
366.84	7.64
367.208	7.64
367.576	7.98
367.944	8.15
368.312	8
368.68	7.89
369.048	7.75
369.416	7.68
369.783	7.86
370.151	7.82
370.519	8.18
370.886	8.06
371.254	7.78
371.621	8.29
371.989	7.77
372.356	8.08
372.724	8.49
373.091	8.37
373.458	7.94
373.826	8.34
374.193	8.27
374.56	8.39
374.927	8.32
375.294	8.47
375.661	8.71
376.028	8.56
376.395	8.44
376.762	8.27
377.129	8.63
377.496	8.43
377.863	8.61
378.229	8.79
378.596	8.34
378.963	8.41
379.329	8.68
379.696	8.69
380.062	8.75
380.429	8.64
380.795	8.58
381.161	8.79
381.528	9.12
381.894	9.1
382.26	9.19
382.626	8.75
382.993	8.92
383.359	8.92
383.725	8.87
384.091	8.91
384.457	9.15
384.823	8.79
385.188	9.13
385.554	9.04
385.92	9.27
386.286	9.09
386.651	9.19
387.017	8.96
387.383	9.21
387.748	9.19
388.114	9.3
388.479	9.3
388.845	9.67
389.21	9.55
389.575	9.42
389.94	9.68
390.306	9.53
390.671	9.57
391.036	9.36
391.401	9.49
391.766	9.49
392.131	9.29
392.496	9.68
392.861	9.74
393.226	9.65
393.591	9.72
393.956	9.92
394.32	10.01
394.685	9.87
395.05	10.05
395.414	10.18
395.779	9.77
396.143	10.06
396.508	10.02
396.872	10.11
397.236	10.22
397.601	10.2
397.965	10.34
398.329	10.27
398.694	10.05
399.058	10.08
399.422	10.59
399.786	10.58
400.15	10.41
400.514	10.2
400.878	10.44
401.242	10.56
401.605	10.77
401.969	10.66
402.333	10.46
402.697	10.49
403.06	10.5
403.424	10.53
403.787	10.73
404.151	10.66
404.514	10.77
404.878	10.97
405.241	10.72
405.604	10.78
405.968	10.9
406.331	10.66
406.694	10.72
407.057	10.54
407.42	10.86
407.783	10.76
408.146	11.01
408.509	10.98
408.872	11.22
409.235	11.03
409.598	11.07
409.961	11.23
410.323	11.34
410.686	11.23
411.049	11.27
411.411	11.33
411.774	11.3
412.136	11.16
412.499	11.17
412.861	11.12
413.223	11.44
413.586	11.18
413.948	11.29
414.31	11.4
414.672	11.47
415.035	11.59
415.397	11.67
415.759	11.56
416.121	11.76
416.483	11.63
416.845	11.52
417.206	11.58
417.568	11.53
417.93	11.53
418.292	11.63
418.653	11.61
419.015	11.48
419.377	11.73
419.738	11.76
420.1	11.64
420.461	11.7
420.822	11.62
421.184	11.72
421.545	11.63
421.906	11.69
422.267	11.78
422.629	11.62
422.99	11.63
423.351	11.74
423.712	11.84
424.073	11.89
424.434	11.93
424.795	11.98
425.155	12.06
425.516	11.95
425.877	11.97
426.238	11.96
426.598	12.03
426.959	12.15
427.32	12.17
427.68	12.13
428.041	12.45
428.401	12.32
428.761	12.48
429.122	12.4
429.482	12.58
429.842	12.7
430.202	12.75
430.563	12.61
430.923	12.59
431.283	12.71
431.643	12.85
432.003	12.87
432.363	12.81
432.722	12.84
433.082	12.86
433.442	12.96
433.802	13.03
434.161	12.87
434.521	13
434.881	12.71
435.24	12.84
435.6	12.84
435.959	12.99
436.319	12.97
436.678	12.98
437.037	13.03
437.396	13.09
437.756	13.22
438.115	12.97
438.474	13.29
438.833	13.31
439.192	13.41
439.551	13.18
439.91	13.42
440.269	13.39
440.628	13.4
440.987	13.49
441.345	13.36
441.704	13.33
442.063	13.46
442.421	13.34
442.78	13.42
443.138	13.45
443.497	13.54
443.855	13.64
444.214	13.62
444.572	13.75
444.93	13.61
445.288	14.04
445.647	13.75
446.005	13.72
446.363	13.8
446.721	13.73
447.079	13.87
447.437	13.72
447.795	13.59
448.153	13.72
448.51	13.77
448.868	13.79
449.226	13.86
449.584	14.04
449.941	13.91
450.299	14.1
450.656	14.02
451.014	14.21
451.371	14.25
451.729	14.42
452.086	14.35
452.443	14.47
452.801	14.43
453.158	14.5
453.515	14.62
453.872	14.72
454.229	14.52
454.586	14.66
454.943	14.61
455.3	14.68
455.657	14.62
456.014	14.64
456.371	14.69
456.727	14.85
457.084	14.75
457.441	14.92
457.797	15
458.154	14.99
458.51	15.09
458.867	15.12
459.223	14.99
459.58	15.17
459.936	15.16
460.292	14.99
460.648	14.94
461.005	15.14
461.361	14.85
461.717	14.82
462.073	14.97
462.429	15.06
462.785	15.12
463.141	15.16
463.496	15.42
463.852	15.4
464.208	15.44
464.564	15.67
464.919	15.48
465.275	15.7
465.631	15.68
465.986	15.48
466.342	15.81
466.697	15.71
467.052	15.73
467.408	15.78
467.763	15.99
468.118	15.84
468.473	16
468.829	16.01
469.184	15.93
469.539	15.99
469.894	15.95
470.249	15.87
470.603	16.07
470.958	16.28
471.313	16.29
471.668	16.2
472.023	16.43
472.377	16.28
472.732	16.4
473.086	16.32
473.441	16.23
473.795	16.5
474.15	16.48
474.504	16.58
474.859	16.66
475.213	16.47
475.567	16.56
475.921	16.7
476.275	16.73
476.63	16.82
476.984	16.9
477.338	16.86
477.692	16.81
478.045	16.65
478.399	16.73
478.753	16.8
479.107	16.86
479.461	16.95
479.814	16.98
480.168	16.97
480.521	17.05
480.875	16.96
481.228	17.03
481.582	17.15
481.935	17.12
482.289	17.16
482.642	17.15
482.995	17.04
483.348	17.01
483.701	16.96
484.055	17.06
484.408	16.89
484.761	16.69
485.114	16.47
485.466	16.25
485.819	16.41
486.172	16.49
486.525	16.62
486.878	16.77
487.23	16.92
487.583	17.04
487.936	17.23
488.288	17.04
488.641	16.96
488.993	16.89
489.345	16.82
489.698	16.9
490.05	16.9
490.402	17.08
490.754	17.38
491.107	17.34
491.459	17.56
491.811	17.71
492.163	17.67
492.515	17.73
492.866	17.41
493.218	17.27
493.57	17.25
493.922	17.48
494.274	17.62
494.625	17.77
494.977	18
495.328	18.13
495.68	18.14
496.031	18.37
496.383	18.43
496.734	18.53
497.086	18.73
497.437	18.64
497.788	18.62
498.139	18.6
498.49	18.49
498.842	18.53
499.193	18.45
499.544	18.62
499.894	18.68
500.245	18.75
500.596	18.82
500.947	18.79
501.298	19.11
501.648	18.98
501.999	19.11
502.35	19.19
502.7	19.32
503.051	19.33
503.401	19.32
503.752	19.17
504.102	19.49
504.452	19.42
504.803	19.56
505.153	19.53
505.503	19.53
505.853	19.65
506.203	19.67
506.553	19.68
506.903	19.63
507.253	19.66
507.603	19.64
507.953	19.73
508.303	19.81
508.652	19.7
509.002	19.73
509.352	19.89
509.701	19.87
510.051	19.87
510.4	19.76
510.75	19.84
511.099	19.74
511.449	19.81
511.798	19.94
512.147	19.99
512.496	19.99
512.846	20.04
513.195	20.17
513.544	20.12
513.893	20.09
514.242	20.13
514.591	20.16
514.939	20.46
515.288	20.5
515.637	20.43
515.986	20.43
516.334	20.65
516.683	20.62
517.032	20.65
517.38	20.65
517.729	20.85
518.077	20.65
518.426	20.94
518.774	20.71
519.122	20.65
519.47	20.7
519.819	20.57
520.167	20.51
520.515	20.45
520.863	20.66
521.211	20.67
521.559	20.79
521.907	20.99
522.255	20.85
522.602	21.04
522.95	21.09
523.298	21.17
523.645	21.36
523.993	21.4
524.341	21.4
524.688	21.47
525.036	21.55
525.383	21.59
525.73	21.45
526.078	21.58
526.425	21.44
526.772	21.35
527.119	21.25
527.466	21.23
527.814	21.19
528.161	21.25
528.508	21.34
528.854	21.37
529.201	21.34
529.548	21.33
529.895	20.94
530.242	20.89
530.588	20.91
530.935	21.03
531.282	21.24
531.628	21.26
531.975	21.39
532.321	21.52
532.667	21.78
533.014	21.92
533.36	22.02
533.706	21.84
534.052	21.91
534.399	21.91
534.745	21.74
535.091	21.49
535.437	21.66
535.783	21.85
536.129	21.97
536.474	22.18
536.82	22.34
537.166	22.4
537.512	22.59
537.857	22.57
538.203	22.32
538.549	22.25
538.894	22.37
539.239	22.58
539.585	22.6
539.93	22.71
540.276	22.88
540.621	22.94
540.966	23.17
541.311	23.3
541.656	23.04
542.001	22.92
542.346	22.86
542.691	22.53
543.036	22.32
543.381	22.37
543.726	22.48
544.071	22.67
544.415	22.75
544.76	22.91
545.105	23.03
545.449	23.09
545.794	23.3
546.138	23.33
546.483	23.49
546.827	23.55
547.171	23.66
547.516	23.5
547.86	23.68
548.204	23.58
548.548	23.55
548.892	23.68
549.236	23.7
549.58	23.8
549.924	24.11
550.268	24.24
550.612	24.13
550.956	24.35
551.3	24.56
551.643	24.6
551.987	24.43
552.33	24.51
552.674	24.49
553.017	24.75
553.361	24.8
553.704	24.67
554.048	24.84
554.391	24.68
554.734	24.56
555.077	24.71
555.42	24.59
555.764	24.75
556.107	24.81
556.45	24.84
556.793	25.12
557.135	25.02
557.478	25.16
557.821	25.16
558.164	25.41
558.507	25.09
558.849	25.18
559.192	25.31
559.534	25.33
559.877	25.53
560.219	25.45
560.562	25.64
560.904	25.68
561.246	25.7
561.589	25.7
561.931	25.68
562.273	25.57
562.615	25.95
562.957	25.64
563.299	25.69
563.641	25.61
563.983	25.95
564.325	25.95
564.667	25.83
565.008	25.84
565.35	26.01
565.692	26.06
566.033	26.26
566.375	26.21
566.716	26.31
567.058	26.12
567.399	26.15
567.741	26.1
568.082	25.97
568.423	25.95
568.764	26.28
569.105	26.54
569.447	26.22
569.788	26.26
570.129	26.38
570.47	26.43
570.811	26.53
571.151	26.66
571.492	26.66
571.833	26.76
572.174	26.75
572.514	26.76
572.855	26.73
573.195	26.61
573.536	26.79
573.876	26.71
574.217	26.75
574.557	26.67
574.898	26.83
575.238	26.81
575.578	26.95
575.918	26.85
576.258	26.91
576.598	27.19
576.938	27.04
577.278	27.07
577.618	27.29
577.958	27.31
578.298	27.23
578.638	27.43
578.977	27.42
579.317	27.6
579.657	27.68
579.996	27.92
580.336	27.71
580.675	27.81
581.014	27.83
581.354	27.85
581.693	27.73
582.032	28.09
582.372	27.98
582.711	28.33
583.05	28.52
583.389	28.28
583.728	28.28
584.067	28.08
584.406	28.27
584.745	28.42
585.083	28.4
585.422	28.36
585.761	28.62
586.1	28.6
586.438	28.56
586.777	28.42
587.115	28.6
587.454	28.81
587.792	28.64
588.13	28.98
588.469	29.06
588.807	28.71
589.145	28.82
589.483	28.92
589.821	28.83
590.159	28.97
590.497	28.96
590.835	28.77
591.173	28.81
591.511	28.9
591.849	28.9
592.187	29.2
592.524	29.14
592.862	29.36
593.2	29.33
593.537	29.05
593.875	29.12
594.212	29.4
594.55	29.66
594.887	29.59
595.224	29.21
595.561	29.49
595.899	29.48
596.236	29.41
596.573	29.47
596.91	29.73
597.247	29.41
597.584	29.66
597.921	29.38
598.258	29.55
598.594	29.43
598.931	29.5
599.268	29.57
599.604	29.59
599.941	29.74
600.277	29.74
600.614	30.1
600.95	29.7
601.287	29.98
601.623	30.04
601.959	30.04
602.296	30.19
602.632	30.42
602.968	30.31
603.304	30.32
603.64	30.3
603.976	30.3
604.312	30.32
604.648	30.03
604.984	30.32
605.319	30.3
605.655	30.26
605.991	30.3
606.326	30.16
606.662	30.14
606.998	30.38
607.333	30.53
607.668	30.65
608.004	30.62
608.339	30.59
608.674	30.8
609.01	30.86
609.345	30.77
609.68	31
610.015	30.86
610.35	31.11
610.685	31.02
611.02	31.04
611.355	30.81
611.689	30.86
612.024	31.15
612.359	30.92
612.694	31.27
613.028	31.39
613.363	31.42
613.697	31.3
614.032	31.38
614.366	31.18
614.7	31.09
615.035	31.73
615.369	31.63
615.703	31.64
616.037	31.89
616.371	31.34
616.705	31.77
617.039	31.59
617.373	32.03
617.707	31.8
618.041	31.71
618.375	32.19
618.709	31.8
619.042	32.26
619.376	31.65
619.71	32.12
620.043	31.82
620.377	32.17
620.71	32.32
621.043	32.51
621.377	32.18
621.71	32.87
622.043	32.08
622.376	32.32
622.709	32.59
623.043	31.85
623.376	32.48
623.709	32.42
624.041	32.78
624.374	33.04
624.707	32.72
625.04	32.53
625.373	33.2
625.705	32.99
626.038	32.94
626.37	32.31
626.703	32.72
627.035	32.64
627.368	32.71
627.7	33
628.032	32.54
628.365	33
628.697	33.29
629.029	33.12
629.361	32.84
629.693	33.04
630.025	32.67
630.357	32.8
630.689	33.44
631.021	33.14
631.353	33.36
631.684	33.44
632.016	33.45
632.348	33.77
632.679	33.26
633.011	33.34
633.342	33.34
633.674	33.45
634.005	33.82
634.336	33.57
634.668	33.69
634.999	33.24
635.33	33.37
635.661	33.73
635.992	33.37
636.323	33.76
636.654	34.1
636.985	33.89
637.316	33.92
637.647	33.69
637.977	34.12
638.308	33.93
638.639	34.26
638.969	34.03
639.3	34
639.63	34.3
639.961	34.35
640.291	34.04
640.622	34.35
640.952	34.07
641.282	34.16
641.612	34.68
641.943	34.77
642.273	34.49
642.603	34.42
642.933	34.29
643.263	34.34
643.592	34.84
643.922	34.58
644.252	34.56
644.582	34.7
644.911	34.99
645.241	35.26
645.571	35.05
645.9	34.95
646.23	35.06
646.559	35.1
646.888	35.18
647.218	34.61
647.547	35.01
647.876	35.29
648.205	34.72
648.534	34.9
648.863	35.2
649.192	35.37
649.521	35.25
649.85	34.97
650.179	35.32
650.508	35.23
650.837	35.27
651.165	35.68
651.494	35.2
651.822	35.7
652.151	35.52
652.479	35.65
652.808	35.82
653.136	35.13
653.465	35.81
653.793	35.39
654.121	35.5
654.449	35.57
654.777	35.36
655.105	35.52
655.433	35.64
655.761	35.21
656.089	36.01
656.417	35.93
656.745	35.62
657.073	35.76
657.4	36.11
657.728	36.34
658.056	35.79
658.383	35.85
658.711	35.45
659.038	36.06
659.365	35.61
659.693	36.29
660.02	36.25
660.347	36.4
660.674	35.74
661.001	35.94
661.329	35.33
661.656	35.98
661.982	36.15
662.309	36.21
662.636	36.23
662.963	36.72
663.29	36.5
663.616	36.86
663.943	37.12
664.27	36.95
664.596	36.51
664.923	36.69
665.249	36.36
665.576	37
665.902	36.29
666.228	36.73
666.554	36.99
666.881	37.19
667.207	36.98
667.533	37.33
667.859	36.83
668.185	36.83
668.511	37.74
668.837	37.01
669.162	36.74
669.488	37.23
669.814	37.19
670.139	37.1
670.465	37.09
670.791	36.84
671.116	36.89
671.442	36.94
671.767	37.63
672.092	37.45
672.418	37.26
672.743	37.3
673.068	37.37
673.393	37.24
