Data from 001-16_crown_Reflection__2__71.txt Node

Date: Fri Nov 11 16:41:14 CST 2022
User: ToomeyLab
Spectrometer: FLMS14357
Trigger mode: 0
Integration Time (sec): 1.000000E-2
Scans to average: 100
Electric dark correction enabled: true
Nonlinearity correction enabled: false
Boxcar width: 0
XAxis mode: Wavelengths
Number of Pixels in Spectrum: 2048
>>>>>Begin Spectral Data<<<<<
189.047	41.52
189.435	41.52
189.823	41.52
190.211	-44.68
190.599	73.63
190.987	-218.64
191.375	136.02
191.763	68.03
192.151	154.18
192.538	-504.93
192.926	-346.33
193.314	8.77
193.702	-134.65
194.089	28.07
194.477	17.11
194.864	5342.67
195.252	221.11
195.639	156.54
196.027	-209.13
196.414	35.16
196.801	641.18
197.189	77.37
197.576	85.51
197.963	-18.46
198.351	11.19
198.738	-148.14
199.125	17.02
199.512	-31.37
199.899	-19.9
200.286	23.82
200.673	19.43
201.06	-41.59
201.447	20.46
201.833	8.58
202.22	0.96
202.607	18.47
202.994	5.95
203.38	50.72
203.767	11.36
204.154	-6.54
204.54	22.47
204.927	4.19
205.313	23.02
205.699	9.92
206.086	-2.68
206.472	13.43
206.858	3.11
207.245	-0.8
207.631	18.1
208.017	-12.61
208.403	17.52
208.789	-102.26
209.175	-16.4
209.561	21.23
209.947	7.43
210.333	10
210.719	9.51
211.105	-45.28
211.491	-119.52
211.876	1.51
212.262	-19.49
212.648	24.75
213.034	0.42
213.419	12.49
213.805	-6.08
214.19	-30.9
214.576	12.66
214.961	-7.53
215.346	-71.22
215.732	-42.03
216.117	21.2
216.502	-7.23
216.888	-2.79
217.273	-10.97
217.658	12.82
218.043	-30.38
218.428	-39.95
218.813	5.41
219.198	-14.84
219.583	-30.47
219.968	-6.03
220.353	-41.65
220.738	-25.76
221.122	-22.88
221.507	-0.1
221.892	-9.68
222.276	0.23
222.661	5.2
223.046	3.38
223.43	-12.52
223.815	-12.33
224.199	-5.06
224.583	-11.49
224.968	9.98
225.352	-7.85
225.736	-4.36
226.121	-6.4
226.505	-1.07
226.889	3.77
227.273	5.82
227.657	-2.11
228.041	-4.88
228.425	-0.1
228.809	2.77
229.193	0.12
229.577	1.75
229.961	1.18
230.344	0.98
230.728	0.59
231.112	1
231.495	0.83
231.879	-0.07
232.263	-0.1
232.646	1.13
233.03	0.37
233.413	0.04
233.797	0.48
234.18	-0.59
234.563	0.66
234.946	-0.25
235.33	-0.48
235.713	0.05
236.096	-1.82
236.479	1.78
236.862	1.93
237.245	1.19
237.628	-0.14
238.011	0.24
238.394	0.79
238.777	-0.34
239.16	1.27
239.543	0.83
239.925	2.56
240.308	-0.46
240.691	0.25
241.073	0.88
241.456	-0.79
241.838	1.42
242.221	0.48
242.603	0.33
242.986	0.95
243.368	0.74
243.75	1.25
244.133	1.16
244.515	0.76
244.897	0.64
245.279	0.38
245.661	1.57
246.043	1.42
246.425	1.53
246.807	0.86
247.189	0.63
247.571	0.32
247.953	0.86
248.335	1.47
248.717	1.09
249.098	1.25
249.48	1.29
249.862	0.95
250.243	0.89
250.625	1.01
251.006	0.87
251.388	0.67
251.769	1.1
252.151	0.25
252.532	1.15
252.913	0.54
253.295	0.75
253.676	1.03
254.057	0.73
254.438	1.24
254.819	0.62
255.2	0.95
255.581	0.65
255.962	1.39
256.343	1.5
256.724	1.14
257.105	0.36
257.486	1.42
257.867	0.86
258.247	0.95
258.628	0.59
259.009	0.63
259.389	0.44
259.77	2
260.15	1.51
260.531	0.8
260.911	1.37
261.292	1.11
261.672	0.96
262.052	1.24
262.432	1.4
262.813	1.24
263.193	0.79
263.573	1.62
263.953	0.72
264.333	1.16
264.713	0.84
265.093	1.61
265.473	1.41
265.853	0.93
266.233	1.09
266.612	0.69
266.992	0.77
267.372	1.13
267.752	1.73
268.131	0.9
268.511	1.27
268.89	1.55
269.27	0.41
269.649	0.68
270.029	0.62
270.408	1.21
270.787	1.66
271.167	1.04
271.546	1.68
271.925	1.22
272.304	1.63
272.683	1.2
273.062	1.35
273.441	0.95
273.82	0.82
274.199	1.25
274.578	1.41
274.957	0.69
275.336	0.91
275.715	1.1
276.093	1.05
276.472	0.48
276.851	1.45
277.229	1.19
277.608	1.34
277.986	1.42
278.365	1.62
278.743	1.14
279.122	0.76
279.5	1.07
279.878	1.28
280.257	1.87
280.635	1.17
281.013	1.23
281.391	0.85
281.769	2.05
282.147	1.27
282.525	0.99
282.903	1.47
283.281	1.03
283.659	0.76
284.037	1.1
284.415	0.97
284.792	1.09
285.17	1.32
285.548	1.46
285.925	1.3
286.303	1.25
286.68	1.38
287.058	1.23
287.435	1.28
287.813	1.16
288.19	1.72
288.567	1.18
288.945	0.9
289.322	1.28
289.699	1.17
290.076	1.41
290.453	1.14
290.83	1.58
291.207	1.29
291.584	1.08
291.961	1.08
292.338	1.47
292.715	1.47
293.092	1.12
293.469	1.4
293.845	1.55
294.222	1.71
294.599	1.43
294.975	1.07
295.352	1.17
295.728	1.33
296.105	1.21
296.481	0.99
296.858	1.64
297.234	1.31
297.61	1.06
297.986	0.64
298.363	1.29
298.739	1.41
299.115	1.6
299.491	1.59
299.867	1.26
300.243	0.95
300.619	1.26
300.995	1.18
301.371	0.81
301.746	1.45
302.122	1.24
302.498	1.02
302.874	1.34
303.249	1.31
303.625	1.34
304	1.37
304.376	1.4
304.751	2.12
305.127	1.82
305.502	1.45
305.878	1.71
306.253	1.35
306.628	1.7
307.003	1.45
307.378	1.53
307.754	1.74
308.129	1.72
308.504	1.8
308.879	1.08
309.254	1.12
309.629	1.1
310.003	1.27
310.378	1.39
310.753	1.33
311.128	1.57
311.502	0.97
311.877	1.66
312.252	1.38
312.626	1.44
313.001	1.59
313.375	1.69
313.75	1.83
314.124	1.76
314.498	1.71
314.873	1.68
315.247	1.72
315.621	1.29
315.995	1.52
316.369	1.92
316.743	1.66
317.117	1.91
317.491	1.41
317.865	1.54
318.239	1.61
318.613	1.61
318.987	2.16
319.361	1.71
319.734	1.25
320.108	1.75
320.482	1.43
320.855	1.07
321.229	1.96
321.602	1.76
321.976	0.92
322.349	1.69
322.723	1.67
323.096	1.62
323.469	1.66
323.843	2.04
324.216	1.5
324.589	1.54
324.962	1.23
325.335	2.07
325.708	2.02
326.081	1.89
326.454	1.68
326.827	2.14
327.2	1.86
327.573	1.81
327.945	1.46
328.318	1.86
328.691	1.78
329.063	2.03
329.436	1.43
329.809	1.52
330.181	1.98
330.553	1.36
330.926	1.3
331.298	1.76
331.671	1.64
332.043	1.89
332.415	1.71
332.787	2.14
333.159	1.79
333.532	1.74
333.904	1.46
334.276	1.79
334.648	1.64
335.02	1.76
335.391	2.05
335.763	2.09
336.135	1.81
336.507	1.61
336.879	1.83
337.25	1.24
337.622	2.22
337.993	1.99
338.365	1.57
338.736	1.96
339.108	1.69
339.479	1.74
339.851	1.64
340.222	1.66
340.593	1.56
340.964	2
341.336	1.6
341.707	1.69
342.078	1.81
342.449	1.96
342.82	2.08
343.191	2.2
343.562	1.79
343.933	1.43
344.303	2.18
344.674	1.84
345.045	1.77
345.416	2.1
345.786	2.13
346.157	1.63
346.527	1.87
346.898	1.82
347.268	1.88
347.639	2.07
348.009	1.66
348.38	1.93
348.75	2.36
349.12	1.4
349.49	2.3
349.861	1.52
350.231	1.65
350.601	2.36
350.971	1.86
351.341	1.86
351.711	1.66
352.081	1.16
352.45	1.91
352.82	2.26
353.19	2.01
353.56	2.1
353.929	2.07
354.299	1.91
354.669	1.44
355.038	1.84
355.408	1.52
355.777	2.17
356.147	2
356.516	1.99
356.885	1.79
357.254	1.67
357.624	2.01
357.993	2.15
358.362	1.89
358.731	1.92
359.1	1.8
359.469	1.72
359.838	2.16
360.207	2.02
360.576	2.1
360.945	2.03
361.314	1.88
361.682	1.91
362.051	1.77
362.42	1.71
362.788	1.71
363.157	1.87
363.525	2.1
363.894	1.89
364.262	1.79
364.631	1.89
364.999	2.1
365.367	2.09
365.735	1.98
366.104	1.85
366.472	1.97
366.84	2.18
367.208	1.78
367.576	2.19
367.944	2.13
368.312	1.86
368.68	2.08
369.048	1.94
369.416	2.04
369.783	1.59
370.151	1.89
370.519	2.24
370.886	1.94
371.254	1.89
371.621	1.99
371.989	1.66
372.356	1.53
372.724	2.26
373.091	1.88
373.458	2.01
373.826	2.18
374.193	2.39
374.56	1.81
374.927	1.86
375.294	2.05
375.661	2.51
376.028	2.17
376.395	2.12
376.762	2
377.129	2.24
377.496	2.22
377.863	1.91
378.229	2.19
378.596	1.95
378.963	2.03
379.329	2.02
379.696	2.04
380.062	1.87
380.429	1.86
380.795	1.97
381.161	2.19
381.528	2.07
381.894	2.07
382.26	2
382.626	2.14
382.993	1.91
383.359	2.23
383.725	2.29
384.091	2.13
384.457	2.12
384.823	1.82
385.188	2.07
385.554	2.1
385.92	2.05
386.286	1.74
386.651	2.33
387.017	1.94
387.383	2.06
387.748	2.05
388.114	2.02
388.479	2.05
388.845	2.13
389.21	2.19
389.575	1.93
389.94	2.2
390.306	2.14
390.671	1.95
391.036	1.96
391.401	2.17
391.766	2.23
392.131	1.87
392.496	2.15
392.861	1.71
393.226	2.17
393.591	2.06
393.956	2.32
394.32	2.19
394.685	2.28
395.05	2.31
395.414	2.21
395.779	2.16
396.143	2.14
396.508	2.08
396.872	2.02
397.236	2.12
397.601	2.05
397.965	2.16
398.329	1.99
398.694	2.24
399.058	2.16
399.422	2.34
399.786	2.11
400.15	2
400.514	2.09
400.878	2.11
401.242	2.27
401.605	2.15
401.969	2.11
402.333	2.28
402.697	1.88
403.06	2.23
403.424	1.98
403.787	2.25
404.151	2.01
404.514	2.06
404.878	2.3
405.241	1.93
405.604	2.32
405.968	2.38
406.331	2.08
406.694	2.23
407.057	2.08
407.42	2.28
407.783	2.24
408.146	2.32
408.509	2.18
408.872	2.3
409.235	2.23
409.598	2.09
409.961	2.12
410.323	2.22
410.686	1.98
411.049	2.07
411.411	2.13
411.774	2.02
412.136	2.07
412.499	2.15
412.861	2.14
413.223	2.24
413.586	2.18
413.948	2
414.31	2.35
414.672	2.11
415.035	2.36
415.397	2.36
415.759	2.38
416.121	2.13
416.483	2.07
416.845	2.24
417.206	2.3
417.568	2.08
417.93	2.15
418.292	2.1
418.653	2.12
419.015	1.97
419.377	2.18
419.738	2.33
420.1	2.18
420.461	2.16
420.822	2.19
421.184	2.18
421.545	2.05
421.906	2.16
422.267	2.2
422.629	2.19
422.99	2.12
423.351	2.17
423.712	2.12
424.073	2.14
424.434	2.19
424.795	2.33
425.155	2.19
425.516	2.28
425.877	2.18
426.238	2.14
426.598	2.24
426.959	2.12
427.32	2.24
427.68	2.17
428.041	2.22
428.401	2.15
428.761	2.2
429.122	2.26
429.482	2.25
429.842	2.27
430.202	2.2
430.563	2.15
430.923	2.13
431.283	2.33
431.643	2.46
432.003	2.39
432.363	2.35
432.722	2.16
433.082	2.26
433.442	2.28
433.802	2.4
434.161	2.26
434.521	2.41
434.881	2.18
435.24	2.22
435.6	2.26
435.959	2.17
436.319	2.15
436.678	2.24
437.037	2.14
437.396	2.11
437.756	2.26
438.115	2.05
438.474	2.25
438.833	2.3
439.192	2.25
439.551	2.25
439.91	2.18
440.269	2.37
440.628	2.31
440.987	2.35
441.345	2.25
441.704	2.23
442.063	2.28
442.421	2.17
442.78	2.24
443.138	2.34
443.497	2.23
443.855	2.21
444.214	2.17
444.572	2.39
444.93	2.2
445.288	2.38
445.647	2.07
446.005	2.26
446.363	2.21
446.721	2.15
447.079	2.21
447.437	2.31
447.795	2.13
448.153	2.2
448.51	2.19
448.868	2.19
449.226	2.23
449.584	2.28
449.941	2.3
450.299	2.31
450.656	2.33
451.014	2.27
451.371	2.13
451.729	2.32
452.086	2.31
452.443	2.43
452.801	2.36
453.158	2.29
453.515	2.27
453.872	2.33
454.229	2.33
454.586	2.37
454.943	2.29
455.3	2.15
455.657	2.33
456.014	2.25
456.371	2.15
456.727	2.25
457.084	2.21
457.441	2.44
457.797	2.3
458.154	2.28
458.51	2.24
458.867	2.41
459.223	2.28
459.58	2.38
459.936	2.33
460.292	2.21
460.648	2.22
461.005	2.34
461.361	2.31
461.717	2.27
462.073	2.37
462.429	2.38
462.785	2.29
463.141	2.47
463.496	2.45
463.852	2.42
464.208	2.41
464.564	2.28
464.919	2.38
465.275	2.4
465.631	2.24
465.986	2.26
466.342	2.44
466.697	2.47
467.052	2.48
467.408	2.38
467.763	2.28
468.118	2.29
468.473	2.32
468.829	2.27
469.184	2.57
469.539	2.5
469.894	2.32
470.249	2.26
470.603	2.44
470.958	2.46
471.313	2.3
471.668	2.37
472.023	2.56
472.377	2.42
472.732	2.42
473.086	2.52
473.441	2.39
473.795	2.36
474.15	2.44
474.504	2.52
474.859	2.42
475.213	2.49
475.567	2.63
475.921	2.37
476.275	2.44
476.63	2.5
476.984	2.5
477.338	2.42
477.692	2.45
478.045	2.47
478.399	2.38
478.753	2.47
479.107	2.33
479.461	2.42
479.814	2.45
480.168	2.42
480.521	2.42
480.875	2.52
481.228	2.49
481.582	2.47
481.935	2.5
482.289	2.53
482.642	2.29
482.995	2.55
483.348	2.28
483.701	2.47
484.055	2.41
484.408	2.39
484.761	2.31
485.114	2.31
485.466	2.26
485.819	2.29
486.172	2.27
486.525	2.32
486.878	2.3
487.23	2.4
487.583	2.41
487.936	2.38
488.288	2.37
488.641	2.34
488.993	2.32
489.345	2.29
489.698	2.35
490.05	2.28
490.402	2.37
490.754	2.46
491.107	2.37
491.459	2.43
491.811	2.47
492.163	2.38
492.515	2.37
492.866	2.39
493.218	2.29
493.57	2.33
493.922	2.35
494.274	2.42
494.625	2.36
494.977	2.46
495.328	2.48
495.68	2.5
496.031	2.43
496.383	2.64
496.734	2.58
497.086	2.57
497.437	2.44
497.788	2.61
498.139	2.5
498.49	2.45
498.842	2.5
499.193	2.55
499.544	2.45
499.894	2.57
500.245	2.56
500.596	2.57
500.947	2.5
501.298	2.59
501.648	2.57
501.999	2.56
502.35	2.47
502.7	2.54
503.051	2.48
503.401	2.48
503.752	2.42
504.102	2.55
504.452	2.58
504.803	2.64
505.153	2.68
505.503	2.55
505.853	2.6
506.203	2.61
506.553	2.68
506.903	2.53
507.253	2.61
507.603	2.51
507.953	2.64
508.303	2.57
508.652	2.4
509.002	2.47
509.352	2.53
509.701	2.56
510.051	2.55
510.4	2.47
510.75	2.54
511.099	2.58
511.449	2.52
511.798	2.51
512.147	2.57
512.496	2.64
512.846	2.56
513.195	2.39
513.544	2.54
513.893	2.58
514.242	2.64
514.591	2.54
514.939	2.63
515.288	2.63
515.637	2.67
515.986	2.72
516.334	2.52
516.683	2.68
517.032	2.6
517.38	2.63
517.729	2.67
518.077	2.53
518.426	2.72
518.774	2.51
519.122	2.57
519.47	2.51
519.819	2.58
520.167	2.5
520.515	2.59
520.863	2.61
521.211	2.56
521.559	2.63
521.907	2.62
522.255	2.78
522.602	2.71
522.95	2.71
523.298	2.68
523.645	2.65
523.993	2.68
524.341	2.67
524.688	2.63
525.036	2.66
525.383	2.65
525.73	2.59
526.078	2.64
526.425	2.55
526.772	2.64
527.119	2.62
527.466	2.52
527.814	2.52
528.161	2.56
528.508	2.55
528.854	2.5
529.201	2.59
529.548	2.6
529.895	2.44
530.242	2.48
530.588	2.49
530.935	2.5
531.282	2.59
531.628	2.54
531.975	2.54
532.321	2.51
532.667	2.63
533.014	2.62
533.36	2.59
533.706	2.64
534.052	2.65
534.399	2.59
534.745	2.58
535.091	2.55
535.437	2.59
535.783	2.59
536.129	2.65
536.474	2.71
536.82	2.62
537.166	2.64
537.512	2.72
537.857	2.68
538.203	2.62
538.549	2.59
538.894	2.57
539.239	2.63
539.585	2.69
539.93	2.72
540.276	2.6
540.621	2.67
540.966	2.64
541.311	2.74
541.656	2.58
542.001	2.7
542.346	2.68
542.691	2.58
543.036	2.55
543.381	2.58
543.726	2.56
544.071	2.57
544.415	2.6
544.76	2.59
545.105	2.68
545.449	2.64
545.794	2.62
546.138	2.72
546.483	2.65
546.827	2.76
547.171	2.78
547.516	2.61
547.86	2.69
548.204	2.63
548.548	2.65
548.892	2.7
549.236	2.73
549.58	2.7
549.924	2.76
550.268	2.79
550.612	2.84
550.956	2.79
551.3	2.87
551.643	2.92
551.987	2.66
552.33	2.7
552.674	2.69
553.017	2.7
553.361	2.87
553.704	2.77
554.048	2.77
554.391	2.74
554.734	2.73
555.077	2.87
555.42	2.83
555.764	2.69
556.107	2.76
556.45	2.75
556.793	2.84
557.135	2.8
557.478	2.85
557.821	2.9
558.164	2.83
558.507	2.9
558.849	2.68
559.192	2.79
559.534	2.84
559.877	2.83
560.219	2.8
560.562	2.86
560.904	2.63
561.246	2.68
561.589	3.1
561.931	2.88
562.273	2.67
562.615	2.84
562.957	2.68
563.299	2.86
563.641	2.9
563.983	2.77
564.325	2.83
564.667	2.87
565.008	2.76
565.35	2.86
565.692	2.9
566.033	2.84
566.375	2.81
566.716	2.93
567.058	2.76
567.399	2.76
567.741	2.81
568.082	2.72
568.423	2.77
568.764	2.8
569.105	2.89
569.447	2.92
569.788	2.93
570.129	2.94
570.47	2.76
570.811	2.86
571.151	2.93
571.492	2.78
571.833	2.83
572.174	2.96
572.514	2.77
572.855	2.85
573.195	2.91
573.536	2.75
573.876	2.88
574.217	2.76
574.557	2.78
574.898	2.73
575.238	2.91
575.578	2.92
575.918	2.82
576.258	2.94
576.598	3.03
576.938	2.86
577.278	3
577.618	2.95
577.958	2.81
578.298	3.08
578.638	2.93
578.977	2.81
579.317	2.91
579.657	2.97
579.996	3.03
580.336	3.06
580.675	2.78
581.014	2.96
581.354	2.92
581.693	2.91
582.032	3.07
582.372	3.03
582.711	2.99
583.05	3.06
583.389	2.84
583.728	2.76
584.067	2.82
584.406	2.82
584.745	3.07
585.083	2.98
585.422	2.96
585.761	3.16
586.1	2.93
586.438	2.82
586.777	2.93
587.115	2.89
587.454	3.22
587.792	3.12
588.13	2.87
588.469	2.85
588.807	3.07
589.145	3.2
589.483	2.98
589.821	2.96
590.159	2.86
590.497	3.11
590.835	2.91
591.173	2.83
591.511	3.06
591.849	2.97
592.187	2.96
592.524	2.87
592.862	3.18
593.2	3.08
593.537	2.85
593.875	3.03
594.212	3.12
594.55	3.06
594.887	2.96
595.224	2.98
595.561	2.91
595.899	2.89
596.236	3.08
596.573	2.96
596.91	2.98
597.247	2.86
597.584	2.95
597.921	2.97
598.258	2.92
598.594	3.05
598.931	3.15
599.268	2.81
599.604	3.15
599.941	2.95
600.277	2.9
600.614	3.15
600.95	2.98
601.287	3.18
601.623	3.03
601.959	2.84
602.296	3
602.632	3.12
602.968	3.04
603.304	3.2
603.64	3.09
603.976	3.19
604.312	3.07
604.648	2.82
604.984	3.28
605.319	2.9
605.655	2.94
605.991	2.93
606.326	3
606.662	2.93
606.998	3
607.333	3.13
607.668	3.12
608.004	3
608.339	3.15
608.674	3.05
609.01	2.77
609.345	2.94
609.68	3.24
610.015	3.23
610.35	3.04
610.685	3.09
611.02	3.33
611.355	3.1
611.689	3.18
612.024	3.14
612.359	2.91
612.694	3.1
613.028	2.97
613.363	3.02
613.697	3.01
614.032	3.18
614.366	3.02
614.7	2.96
615.035	3.43
615.369	3.18
615.703	3.23
616.037	3.34
616.371	3.05
616.705	3.26
617.039	2.92
617.373	3.24
617.707	3.41
618.041	2.9
618.375	3.43
618.709	3.3
619.042	3.15
619.376	3.14
619.71	3.47
620.043	3.34
620.377	3.12
620.71	2.91
621.043	3.27
621.377	3.01
621.71	3.33
622.043	3.06
622.376	3.02
622.709	3.05
623.043	3.17
623.376	3.28
623.709	3.3
624.041	2.91
624.374	3.13
624.707	2.76
625.04	3.35
625.373	3.34
625.705	3.07
626.038	3.37
626.37	2.99
626.703	3.07
627.035	3.33
627.368	3.31
627.7	3.04
628.032	3.51
628.365	3.35
628.697	3.43
629.029	3.38
629.361	3.07
629.693	3.29
630.025	3.04
630.357	3.01
630.689	3.43
631.021	3.19
631.353	3.24
631.684	3.28
632.016	3.05
632.348	2.99
632.679	3.3
633.011	2.86
633.342	2.9
633.674	3.46
634.005	3.3
634.336	3.12
634.668	3.26
634.999	3.26
635.33	3.17
635.661	3.5
635.992	3.54
636.323	3.46
636.654	3.32
636.985	3.52
637.316	3.49
637.647	3.24
637.977	3.03
638.308	3.11
638.639	3.52
638.969	3.42
639.3	3.6
639.63	3.4
639.961	3.43
640.291	3.44
640.622	3.54
640.952	3.32
641.282	3.58
641.612	3.18
641.943	3.47
642.273	3.42
642.603	3.03
642.933	3.3
643.263	3.17
643.592	3.92
643.922	3.1
644.252	3.5
644.582	3.64
644.911	3.97
645.241	3.81
645.571	3.6
645.9	3.01
646.23	3.77
646.559	3.2
646.888	3.87
647.218	3.08
647.547	3.75
647.876	3.21
648.205	3.15
648.534	3.37
648.863	3.32
649.192	3.77
649.521	3.48
649.85	3.26
650.179	3.57
650.508	3.52
650.837	3.63
651.165	3.23
651.494	3.65
651.822	3.35
652.151	3.4
652.479	3.49
652.808	3.57
653.136	3.47
653.465	3.39
653.793	3.32
654.121	3.75
654.449	3.45
654.777	3.33
655.105	3.33
655.433	3.08
655.761	3.08
656.089	3.27
656.417	3.74
656.745	3.53
657.073	3.47
657.4	3.21
657.728	3.62
658.056	3.08
658.383	3.81
658.711	3.88
659.038	3.76
659.365	3.58
659.693	3.22
660.02	4
660.347	3.15
660.674	3.33
661.001	3.5
661.329	3.19
661.656	3.35
661.982	3.46
662.309	3.56
662.636	3.41
662.963	3.46
663.29	3.97
663.616	4.15
663.943	3.7
664.27	3.66
664.596	3.74
664.923	3.75
665.249	3.23
665.576	3.37
665.902	3.59
666.228	3.78
666.554	3.57
666.881	3.64
667.207	2.97
667.533	3.74
667.859	3.27
668.185	3.26
668.511	3.35
668.837	4.11
669.162	3.23
669.488	3.5
669.814	3.49
670.139	3.96
670.465	3.71
670.791	3.21
671.116	3.63
671.442	3.57
671.767	4.08
672.092	3.43
672.418	3.68
672.743	3.69
673.068	3.51
673.393	3.36
673.718	3.24
674.043	3.69
674.368	3.42
674.693	3.95
675.018	3.57
675.343	3.97
675.667	3.63
675.992	3.53
676.317	3.02
676.641	3.71
676.966	3.65
677.29	3.36
677.615	3.79
677.939	3.49
678.264	3.75
678.588	4.03
678.912	3.91
679.236	3.76
679.56	4
679.885	4.08
680.209	3.89
680.532	3.57
680.856	4.17
681.18	3.69
681.504	3.52
681.828	3.03
682.152	3.73
682.475	3.66
682.799	3.81
683.122	3.97
683.446	3.77
683.769	4.17
684.093	3.53
684.416	3.59
684.739	3.68
685.062	3.58
685.386	3.51
685.709	4.02
686.032	3.51
686.355	3.43
686.678	3.74
687.001	4.14
687.324	3.55
687.646	3.39
687.969	4.2
688.292	3.62
688.614	3.33
688.937	3.51
689.26	3.51
689.582	3.96
689.904	3.69
690.227	4.26
690.549	3.72
690.871	3.75
691.194	3.9
691.516	4.56
691.838	3.63
692.16	4.03
