Data from 001-16_crown_Reflection__1__70.txt Node

Date: Fri Nov 11 16:41:01 CST 2022
User: ToomeyLab
Spectrometer: FLMS14357
Trigger mode: 0
Integration Time (sec): 1.000000E-2
Scans to average: 100
Electric dark correction enabled: true
Nonlinearity correction enabled: false
Boxcar width: 0
XAxis mode: Wavelengths
Number of Pixels in Spectrum: 2048
>>>>>Begin Spectral Data<<<<<
189.047	23.44
189.435	23.44
189.823	23.44
190.211	-1017.87
190.599	143.02
190.987	4840.68
191.375	-7.06
191.763	-78.3
192.151	109.02
192.538	161.58
192.926	-688.8
193.314	148.01
193.702	-68.19
194.089	-0.65
194.477	-22.62
194.864	224
195.252	156.98
195.639	158.98
196.027	-74.65
196.414	52.68
196.801	3215.69
197.189	272.12
197.576	-74.25
197.963	-16.27
198.351	-28.98
198.738	-142.69
199.125	-0.4
199.512	5.47
199.899	-10.74
200.286	4.46
200.673	-11.2
201.06	-24.31
201.447	11.04
201.833	40.7
202.22	6.84
202.607	13.14
202.994	20.74
203.38	21.63
203.767	-4.14
204.154	-41.39
204.54	43.97
204.927	7.96
205.313	23.55
205.699	6.25
206.086	40.24
206.472	0.26
206.858	-16.55
207.245	3.96
207.631	9.09
208.017	-0.09
208.403	-2.89
208.789	-5.47
209.175	6.26
209.561	14.67
209.947	-29.39
210.333	2.58
210.719	15.3
211.105	3.11
211.491	-110.16
211.876	8.09
212.262	-69.03
212.648	-12.42
213.034	-11.76
213.419	27.6
213.805	2.13
214.19	-10.44
214.576	9.26
214.961	-11.19
215.346	-59.64
215.732	-73.66
216.117	21.92
216.502	-6.91
216.888	5.61
217.273	-2.64
217.658	0.37
218.043	-9.27
218.428	-14.47
218.813	22.19
219.198	-53.78
219.583	-1.88
219.968	11.21
220.353	-56.52
220.738	-28.01
221.122	-32.62
221.507	15.61
221.892	-6.57
222.276	6
222.661	9.49
223.046	15.76
223.43	-0.08
223.815	0.47
224.199	7.28
224.583	-6.09
224.968	14.18
225.352	-6.31
225.736	5.29
226.121	0.92
226.505	3.84
226.889	0.7
227.273	-0.29
227.657	-11.32
228.041	-1.94
228.425	3.02
228.809	3.49
229.193	-0.16
229.577	3.1
229.961	1.14
230.344	2.01
230.728	2.27
231.112	2.46
231.495	2.58
231.879	1.53
232.263	0.47
232.646	1.93
233.03	1.64
233.413	2.56
233.797	2.22
234.18	2.13
234.563	2.1
234.946	-1.13
235.33	0.69
235.713	1.54
236.096	0.78
236.479	2.79
236.862	2.85
237.245	3.5
237.628	1.8
238.011	2.94
238.394	2.75
238.777	2.42
239.16	2.83
239.543	2.21
239.925	3.2
240.308	0.72
240.691	1.2
241.073	2.12
241.456	0.53
241.838	2.72
242.221	1.32
242.603	1.23
242.986	1.82
243.368	2.17
243.75	2.76
244.133	2.47
244.515	2.41
244.897	2.29
245.279	0.99
245.661	2.19
246.043	2.74
246.425	2.19
246.807	1.96
247.189	0.87
247.571	1.39
247.953	1.72
248.335	2.54
248.717	2.18
249.098	2.24
249.48	2.47
249.862	2.18
250.243	2.08
250.625	2.42
251.006	2.55
251.388	2.37
251.769	1.74
252.151	2.09
252.532	2.7
252.913	1.03
253.295	1.9
253.676	1.98
254.057	2.08
254.438	2.13
254.819	1.4
255.2	2.9
255.581	2.88
255.962	0.94
256.343	3.29
256.724	1.77
257.105	1.62
257.486	3.13
257.867	1.71
258.247	2.33
258.628	1.19
259.009	1.92
259.389	1.76
259.77	3.19
260.15	2.7
260.531	1.68
260.911	1.89
261.292	2.17
261.672	1.95
262.052	2.24
262.432	2.71
262.813	2.17
263.193	2.53
263.573	2.64
263.953	2.4
264.333	2.05
264.713	1.4
265.093	2.43
265.473	2.69
265.853	1.72
266.233	2.76
266.612	1.7
266.992	1.24
267.372	2.03
267.752	2.73
268.131	2.3
268.511	1.9
268.89	2.41
269.27	1.61
269.649	1.76
270.029	1.78
270.408	2.11
270.787	2.35
271.167	1.73
271.546	2.09
271.925	2.19
272.304	2.02
272.683	2.2
273.062	2.26
273.441	2.04
273.82	1.66
274.199	2.12
274.578	2.32
274.957	1.67
275.336	2.11
275.715	2.21
276.093	2.23
276.472	2.9
276.851	1.9
277.229	2.29
277.608	2.05
277.986	1.91
278.365	2.7
278.743	1.66
279.122	2.05
279.5	2.32
279.878	1.39
280.257	2.27
280.635	2
281.013	2.2
281.391	2.25
281.769	2.73
282.147	1.87
282.525	2.28
282.903	2.16
283.281	1.83
283.659	1.7
284.037	1.88
284.415	1.85
284.792	2.26
285.17	2.08
285.548	2.18
285.925	2.15
286.303	1.98
286.68	1.83
287.058	2.06
287.435	2.36
287.813	2.39
288.19	2.01
288.567	2.15
288.945	1.47
289.322	1.83
289.699	2.44
290.076	2.11
290.453	1.73
290.83	2.51
291.207	2.28
291.584	2.03
291.961	1.99
292.338	2.18
292.715	1.94
293.092	1.85
293.469	2.15
293.845	2.24
294.222	2.32
294.599	2.4
294.975	1.69
295.352	1.84
295.728	2.04
296.105	2.15
296.481	1.57
296.858	2.11
297.234	1.97
297.61	2
297.986	1.36
298.363	2.29
298.739	2.37
299.115	2.01
299.491	2.07
299.867	2.01
300.243	1.92
300.619	2.16
300.995	1.63
301.371	1.64
301.746	2.11
302.122	1.7
302.498	1.91
302.874	2.41
303.249	2.09
303.625	1.59
304	1.69
304.376	2.4
304.751	2.52
305.127	2.35
305.502	2.12
305.878	2.22
306.253	2.49
306.628	2.18
307.003	1.84
307.378	2.51
307.754	2.35
308.129	2.35
308.504	1.83
308.879	1.67
309.254	1.43
309.629	2.17
310.003	1.72
310.378	1.5
310.753	1.96
311.128	2.42
311.502	1.89
311.877	1.96
312.252	1.93
312.626	2.24
313.001	1.92
313.375	2.09
313.75	2.44
314.124	1.97
314.498	2.11
314.873	1.85
315.247	1.66
315.621	1.49
315.995	1.56
316.369	2.14
316.743	2.26
317.117	2.28
317.491	2.21
317.865	2.3
318.239	2.41
318.613	1.93
318.987	2.15
319.361	2
319.734	1.71
320.108	2.38
320.482	1.41
320.855	1.99
321.229	2.77
321.602	2.3
321.976	1.77
322.349	1.79
322.723	2.09
323.096	2.22
323.469	1.67
323.843	2.52
324.216	1.67
324.589	2.29
324.962	1.95
325.335	2.2
325.708	2.22
326.081	2.09
326.454	2.32
326.827	2.35
327.2	1.94
327.573	1.86
327.945	1.77
328.318	2.41
328.691	2.67
329.063	2.41
329.436	2.11
329.809	1.99
330.181	2.39
330.553	1.93
330.926	2.03
331.298	1.93
331.671	1.95
332.043	2.47
332.415	2.16
332.787	2.17
333.159	2.24
333.532	1.7
333.904	2.03
334.276	2.01
334.648	1.62
335.02	2.43
335.391	2.17
335.763	2.03
336.135	1.84
336.507	2.06
336.879	1.71
337.25	1.45
337.622	2.2
337.993	1.97
338.365	2.21
338.736	1.95
339.108	1.94
339.479	2.32
339.851	1.72
340.222	1.54
340.593	1.96
340.964	2.26
341.336	2.24
341.707	1.98
342.078	1.9
342.449	1.92
342.82	2
343.191	2.36
343.562	2.38
343.933	1.92
344.303	2.56
344.674	2.2
345.045	2.34
345.416	2.03
345.786	2.25
346.157	1.77
346.527	1.98
346.898	1.9
347.268	2.11
347.639	2.46
348.009	1.77
348.38	1.65
348.75	2.55
349.12	1.93
349.49	1.9
349.861	1.67
350.231	2.22
350.601	2.57
350.971	2.29
351.341	2.21
351.711	1.83
352.081	1.89
352.45	1.96
352.82	2.3
353.19	2.09
353.56	2.15
353.929	2.13
354.299	2.17
354.669	2.18
355.038	2.2
355.408	1.97
355.777	2.34
356.147	2.49
356.516	2.13
356.885	2.25
357.254	1.98
357.624	2.24
357.993	2.3
358.362	2.06
358.731	1.93
359.1	2.14
359.469	2.15
359.838	2.26
360.207	2.35
360.576	2.17
360.945	2.48
361.314	2.11
361.682	2.13
362.051	1.92
362.42	1.97
362.788	1.98
363.157	2.33
363.525	2.29
363.894	2.15
364.262	1.98
364.631	1.93
364.999	2.07
365.367	2.27
365.735	2.27
366.104	2.08
366.472	2.22
366.84	2.39
367.208	2.28
367.576	2.2
367.944	2.53
368.312	2.3
368.68	2.53
369.048	2.16
369.416	1.81
369.783	1.96
370.151	2.19
370.519	2.43
370.886	2.49
371.254	2.42
371.621	2.13
371.989	2.05
372.356	1.99
372.724	2.5
373.091	2.15
373.458	1.96
373.826	2.44
374.193	2.28
374.56	2.13
374.927	2.02
375.294	2.1
375.661	2.58
376.028	2.37
376.395	2.47
376.762	2.39
377.129	2.67
377.496	2.21
377.863	1.96
378.229	2.36
378.596	2.26
378.963	2.17
379.329	2.27
379.696	2.23
380.062	2.1
380.429	2.39
380.795	2.39
381.161	2.4
381.528	2.37
381.894	2.46
382.26	2.12
382.626	2.26
382.993	2.49
383.359	2.34
383.725	2.44
384.091	2.35
384.457	2.11
384.823	2.28
385.188	2.57
385.554	2.42
385.92	2.23
386.286	2.3
386.651	2.25
387.017	2.12
387.383	2.01
387.748	2.33
388.114	2.47
388.479	2.35
388.845	2.35
389.21	2.13
389.575	2.4
389.94	2.27
390.306	2.21
390.671	2.35
391.036	2.41
391.401	2.48
391.766	2.13
392.131	2.03
392.496	2.39
392.861	2.2
393.226	2.26
393.591	2.19
393.956	2.46
394.32	2.49
394.685	2.31
395.05	2.58
395.414	2.43
395.779	2.29
396.143	2.51
396.508	2.36
396.872	2.59
397.236	2.64
397.601	2.34
397.965	2.35
398.329	2.26
398.694	2.29
399.058	2.56
399.422	2.49
399.786	2.67
400.15	2.17
400.514	2.47
400.878	2.49
401.242	2.41
401.605	2.54
401.969	2.61
402.333	2.6
402.697	2.37
403.06	2.3
403.424	2.34
403.787	2.45
404.151	2.37
404.514	2.33
404.878	2.59
405.241	2.43
405.604	2.21
405.968	2.45
406.331	2.13
406.694	2.69
407.057	2.32
407.42	2.56
407.783	2.45
408.146	2.55
408.509	2.65
408.872	2.8
409.235	2.41
409.598	2.49
409.961	2.51
410.323	2.52
410.686	2.47
411.049	2.45
411.411	2.29
411.774	2.49
412.136	2.52
412.499	2.73
412.861	2.36
413.223	2.19
413.586	2.37
413.948	2.48
414.31	2.6
414.672	2.45
415.035	2.59
415.397	2.66
415.759	2.53
416.121	2.62
416.483	2.44
416.845	2.63
417.206	2.49
417.568	2.4
417.93	2.4
418.292	2.42
418.653	2.49
419.015	2.34
419.377	2.49
419.738	2.43
420.1	2.51
420.461	2.31
420.822	2.47
421.184	2.52
421.545	2.38
421.906	2.41
422.267	2.49
422.629	2.45
422.99	2.36
423.351	2.42
423.712	2.42
424.073	2.48
424.434	2.54
424.795	2.55
425.155	2.53
425.516	2.48
425.877	2.4
426.238	2.33
426.598	2.43
426.959	2.4
427.32	2.5
427.68	2.61
428.041	2.58
428.401	2.42
428.761	2.52
429.122	2.46
429.482	2.52
429.842	2.57
430.202	2.59
430.563	2.49
430.923	2.51
431.283	2.61
431.643	2.53
432.003	2.71
432.363	2.62
432.722	2.57
433.082	2.53
433.442	2.58
433.802	2.71
434.161	2.67
434.521	2.64
434.881	2.32
435.24	2.62
435.6	2.48
435.959	2.57
436.319	2.54
436.678	2.41
437.037	2.46
437.396	2.56
437.756	2.52
438.115	2.41
438.474	2.52
438.833	2.51
439.192	2.83
439.551	2.47
439.91	2.47
440.269	2.62
440.628	2.6
440.987	2.63
441.345	2.54
441.704	2.51
442.063	2.57
442.421	2.45
442.78	2.59
443.138	2.51
443.497	2.52
443.855	2.58
444.214	2.54
444.572	2.6
444.93	2.65
445.288	2.69
445.647	2.52
446.005	2.73
446.363	2.53
446.721	2.51
447.079	2.6
447.437	2.56
447.795	2.43
448.153	2.6
448.51	2.59
448.868	2.51
449.226	2.53
449.584	2.53
449.941	2.55
450.299	2.67
450.656	2.61
451.014	2.79
451.371	2.52
451.729	2.68
452.086	2.65
452.443	2.73
452.801	2.5
453.158	2.63
453.515	2.51
453.872	2.64
454.229	2.55
454.586	2.52
454.943	2.63
455.3	2.62
455.657	2.77
456.014	2.53
456.371	2.64
456.727	2.73
457.084	2.57
457.441	2.67
457.797	2.67
458.154	2.61
458.51	2.6
458.867	2.71
459.223	2.59
459.58	2.65
459.936	2.77
460.292	2.66
460.648	2.54
461.005	2.64
461.361	2.57
461.717	2.6
462.073	2.71
462.429	2.69
462.785	2.64
463.141	2.78
463.496	2.67
463.852	2.72
464.208	2.85
464.564	2.64
464.919	2.69
465.275	2.63
465.631	2.65
465.986	2.59
466.342	2.72
466.697	2.67
467.052	2.59
467.408	2.84
467.763	2.69
468.118	2.6
468.473	2.6
468.829	2.65
469.184	2.75
469.539	2.75
469.894	2.66
470.249	2.59
470.603	2.66
470.958	2.76
471.313	2.75
471.668	2.71
472.023	2.88
472.377	2.83
472.732	2.71
473.086	2.68
473.441	2.64
473.795	2.63
474.15	2.71
474.504	2.81
474.859	2.84
475.213	2.73
475.567	2.83
475.921	2.98
476.275	2.83
476.63	2.82
476.984	2.95
477.338	2.8
477.692	2.79
478.045	2.65
478.399	2.68
478.753	2.8
479.107	2.83
479.461	2.76
479.814	2.81
480.168	2.85
480.521	2.73
480.875	2.86
481.228	2.88
481.582	2.75
481.935	2.77
482.289	2.83
482.642	2.76
482.995	2.74
483.348	2.65
483.701	2.77
484.055	2.68
484.408	2.72
484.761	2.54
485.114	2.54
485.466	2.45
485.819	2.53
486.172	2.57
486.525	2.68
486.878	2.7
487.23	2.7
487.583	2.67
487.936	2.75
488.288	2.7
488.641	2.68
488.993	2.58
489.345	2.56
489.698	2.63
490.05	2.59
490.402	2.67
490.754	2.77
491.107	2.77
491.459	2.79
491.811	2.78
492.163	2.81
492.515	2.72
492.866	2.6
493.218	2.56
493.57	2.6
493.922	2.7
494.274	2.7
494.625	2.75
494.977	2.82
495.328	2.81
495.68	2.84
496.031	2.81
496.383	2.92
496.734	2.81
497.086	2.84
497.437	2.81
497.788	2.82
498.139	2.77
498.49	2.84
498.842	2.77
499.193	2.76
499.544	2.82
499.894	2.85
500.245	2.69
500.596	2.95
500.947	2.78
501.298	2.96
501.648	2.9
501.999	2.93
502.35	2.79
502.7	2.91
503.051	2.86
503.401	2.87
503.752	2.82
504.102	2.85
504.452	2.74
504.803	2.95
505.153	2.92
505.503	2.76
505.853	2.92
506.203	2.89
506.553	2.9
506.903	2.77
507.253	2.94
507.603	2.9
507.953	2.83
508.303	3.01
508.652	2.76
509.002	2.92
509.352	2.98
509.701	2.88
510.051	2.74
510.4	2.81
510.75	2.84
511.099	2.77
511.449	2.78
511.798	2.81
512.147	2.91
512.496	2.92
512.846	2.75
513.195	2.71
513.544	2.86
513.893	2.88
514.242	3.01
514.591	2.86
514.939	2.92
515.288	2.92
515.637	2.87
515.986	2.96
516.334	2.95
516.683	2.91
517.032	2.83
517.38	2.9
517.729	2.95
518.077	2.83
518.426	2.88
518.774	2.85
519.122	2.9
519.47	2.83
519.819	2.87
520.167	2.77
520.515	2.82
520.863	2.88
521.211	2.96
521.559	2.87
521.907	2.88
522.255	3.03
522.602	2.94
522.95	2.91
523.298	2.95
523.645	3
523.993	3.01
524.341	2.98
524.688	2.94
525.036	2.93
525.383	2.93
525.73	2.94
526.078	2.93
526.425	2.86
526.772	2.84
527.119	2.79
527.466	2.79
527.814	2.78
528.161	2.82
528.508	2.86
528.854	2.82
529.201	2.84
529.548	2.84
529.895	2.7
530.242	2.63
530.588	2.67
530.935	2.72
531.282	2.86
531.628	2.81
531.975	2.93
532.321	2.86
532.667	2.89
533.014	2.89
533.36	2.86
533.706	2.88
534.052	2.83
534.399	2.83
534.745	2.78
535.091	2.67
535.437	2.81
535.783	2.82
536.129	2.9
536.474	2.92
536.82	2.92
537.166	2.94
537.512	3
537.857	2.96
538.203	2.84
538.549	2.81
538.894	2.92
539.239	2.9
539.585	2.9
539.93	2.99
540.276	2.91
540.621	3.02
540.966	3.02
541.311	3
541.656	2.84
542.001	2.83
542.346	2.9
542.691	2.8
543.036	2.76
543.381	2.78
543.726	2.84
544.071	2.84
544.415	2.97
544.76	2.89
545.105	2.97
545.449	2.98
545.794	2.91
546.138	2.98
546.483	2.93
546.827	2.97
547.171	2.84
547.516	2.79
547.86	2.96
548.204	2.87
548.548	2.94
548.892	3
549.236	2.92
549.58	3.02
549.924	3.03
550.268	3.11
550.612	3.03
550.956	3.12
551.3	3.27
551.643	3
551.987	2.99
552.33	2.86
552.674	2.97
553.017	3.08
553.361	3.08
553.704	2.97
554.048	3.01
554.391	2.91
554.734	3.02
555.077	3.03
555.42	3.09
555.764	3.07
556.107	3
556.45	2.89
556.793	3.14
557.135	3.1
557.478	3.03
557.821	2.87
558.164	3.09
558.507	3.11
558.849	2.96
559.192	3.08
559.534	3.09
559.877	3.06
560.219	3.04
560.562	2.96
560.904	3.05
561.246	2.89
561.589	3.01
561.931	3.02
562.273	2.98
562.615	2.97
562.957	2.99
563.299	3.02
563.641	3.02
563.983	2.97
564.325	3.08
564.667	3.07
565.008	2.99
565.35	3.06
565.692	3.13
566.033	3.14
566.375	3.12
566.716	3.06
567.058	2.99
567.399	2.94
567.741	3.07
568.082	3.04
568.423	3.04
568.764	3.13
569.105	3.04
569.447	3.1
569.788	3.13
570.129	3.05
570.47	3.08
570.811	3.19
571.151	3.01
571.492	3.02
571.833	3.05
572.174	3.12
572.514	3.08
572.855	3.03
573.195	2.93
573.536	2.98
573.876	2.94
574.217	2.9
574.557	2.83
574.898	3.05
575.238	3.05
575.578	3.04
575.918	2.95
576.258	3.14
576.598	3.14
576.938	2.87
577.278	2.96
577.618	3.04
577.958	3.25
578.298	3.19
578.638	3.1
578.977	3.2
579.317	3.07
579.657	2.99
579.996	3.17
580.336	3.21
580.675	3.08
581.014	3.15
581.354	3.02
581.693	2.87
582.032	3.28
582.372	3.26
582.711	3.21
583.05	3.11
583.389	3.23
583.728	3.05
584.067	3.22
584.406	3.03
584.745	3.17
585.083	3.29
585.422	3.17
585.761	3.45
586.1	3.08
586.438	3.04
586.777	3.18
587.115	3.26
587.454	3.29
587.792	3.37
588.13	3.16
588.469	3.24
588.807	3.12
589.145	3.11
589.483	3.14
589.821	3.01
590.159	3.23
590.497	3.2
590.835	2.99
591.173	3.21
591.511	3.23
591.849	2.94
592.187	2.87
592.524	3.17
592.862	3.28
593.2	3.21
593.537	3.01
593.875	3.2
594.212	3.23
594.55	3.39
594.887	3.23
595.224	3.02
595.561	3.31
595.899	3.07
596.236	3
596.573	3.02
596.91	3.19
597.247	2.89
597.584	3.1
597.921	3.2
598.258	3.11
598.594	3.08
598.931	3.18
599.268	3.11
599.604	3.36
599.941	3.09
600.277	3.05
600.614	3.3
600.95	3.19
601.287	3.3
601.623	3.34
601.959	3.06
602.296	3.14
602.632	2.89
602.968	3.07
603.304	3.28
603.64	3.2
603.976	3.32
604.312	3.12
604.648	2.94
604.984	3.17
605.319	3.22
605.655	3.09
605.991	3.13
606.326	3.13
606.662	2.88
606.998	3.26
607.333	3.16
607.668	3.32
608.004	3.25
608.339	3.1
608.674	3.2
609.01	3.09
609.345	3.26
609.68	3.37
610.015	3.3
610.35	3.24
610.685	3.19
611.02	3.23
611.355	3.01
611.689	3.24
612.024	3.19
612.359	3.17
612.694	3.04
613.028	3.25
613.363	3.3
613.697	3.38
614.032	3.32
614.366	2.76
614.7	3.06
615.035	3.22
615.369	3.23
615.703	3.4
616.037	3.39
616.371	3.14
616.705	3.3
617.039	3.17
617.373	3.42
617.707	3.44
618.041	3.19
618.375	3.56
618.709	3.22
619.042	3.4
619.376	3.2
619.71	3.21
620.043	3.69
620.377	3.36
620.71	3.18
621.043	3.48
621.377	2.7
621.71	3.61
622.043	3.02
622.376	3.32
622.709	3.46
623.043	3.3
623.376	3.35
623.709	3.17
624.041	3.28
624.374	3.57
624.707	3.07
625.04	2.91
625.373	3.51
625.705	3.25
626.038	3.16
626.37	3.17
626.703	3.24
627.035	3.23
627.368	3.29
627.7	3.03
628.032	3.09
628.365	3.51
628.697	3.19
629.029	3.32
629.361	3.11
629.693	3.22
630.025	3.16
630.357	3.2
630.689	3.48
631.021	3.25
631.353	3.25
631.684	3.52
632.016	3.3
632.348	3.26
632.679	3.52
633.011	3.22
633.342	3.23
633.674	3.14
634.005	3.05
634.336	3.18
634.668	3.12
634.999	3.12
635.33	3.57
635.661	3.65
635.992	3.23
636.323	3.32
636.654	3.62
636.985	3.6
637.316	3.3
637.647	3.2
637.977	3.18
638.308	3.09
638.639	3.22
638.969	3.38
639.3	3.06
639.63	3.68
639.961	3.32
640.291	3.33
640.622	3.22
640.952	3.14
641.282	3.74
641.612	4.01
641.943	3.16
642.273	3.33
642.603	3.1
642.933	2.99
643.263	3.28
643.592	3.63
643.922	2.99
644.252	3.63
644.582	3.33
644.911	3.39
645.241	4.05
645.571	3.65
645.9	3.24
646.23	3.5
646.559	3.65
646.888	3.26
647.218	3.09
647.547	3.4
647.876	3.14
648.205	3.28
648.534	3.09
648.863	3.28
649.192	4.09
649.521	3.03
649.85	3.19
650.179	3.62
650.508	3.19
650.837	3.69
651.165	3.86
651.494	3.4
651.822	3.35
652.151	3.13
652.479	3.64
652.808	3.61
653.136	3.79
653.465	3.75
653.793	3.36
654.121	3.45
654.449	3.26
654.777	3.4
655.105	3.51
655.433	3.07
655.761	3.43
656.089	3.43
656.417	3.72
656.745	3.41
657.073	3.53
657.4	3.63
657.728	3.63
658.056	3.18
658.383	3.63
658.711	3.44
659.038	3.2
659.365	3.33
659.693	3.51
660.02	3.7
660.347	3.33
660.674	3.16
661.001	3.43
661.329	3.32
661.656	3.31
661.982	3.52
662.309	3.75
662.636	3.86
662.963	3.47
663.29	3.83
663.616	3.86
663.943	3.89
664.27	3.71
664.596	3.81
664.923	3.61
665.249	3.32
665.576	3.91
665.902	3.46
666.228	3.5
666.554	3.54
666.881	3.36
667.207	3.09
667.533	3.68
667.859	3.29
668.185	3.49
668.511	3.27
668.837	3.25
669.162	3.59
669.488	3.15
669.814	2.93
670.139	4.07
670.465	3.46
670.791	2.89
671.116	3.43
671.442	3.36
671.767	3.62
672.092	3.56
672.418	2.97
672.743	3.48
673.068	3.17
673.393	3.42
673.718	3.28
674.043	3.47
674.368	3.42
674.693	3.56
675.018	4.08
675.343	3.9
675.667	3.39
675.992	3.71
676.317	3.8
676.641	3.64
676.966	2.72
677.29	2.63
677.615	3.67
677.939	4.33
678.264	3.31
678.588	4.08
678.912	4.08
679.236	3.72
679.56	4.23
679.885	3.46
680.209	2.82
680.532	3.39
680.856	3.91
681.18	3.2
681.504	3.71
681.828	3.12
682.152	3.86
682.475	3.15
682.799	3.58
683.122	3.72
683.446	4.03
683.769	4.05
684.093	3.45
684.416	3.93
684.739	3.62
685.062	3.28
685.386	3.75
685.709	3.62
686.032	3.56
686.355	3.33
686.678	3.89
687.001	4.03
687.324	3.65
687.646	3.93
687.969	3.99
688.292	3.87
688.614	3.79
688.937	3.21
689.26	3.47
689.582	3.88
689.904	3.65
690.227	4.32
690.549	3.8
690.871	3.84
691.194	3.99
691.516	4.22
691.838	3.19
692.16	3.73
692.482	3.66
