Data from 001-16_crown_Reflection__0__69.txt Node

Date: Fri Nov 11 16:40:46 CST 2022
User: ToomeyLab
Spectrometer: FLMS14357
Trigger mode: 0
Integration Time (sec): 1.000000E-2
Scans to average: 100
Electric dark correction enabled: true
Nonlinearity correction enabled: false
Boxcar width: 0
XAxis mode: Wavelengths
Number of Pixels in Spectrum: 2048
>>>>>Begin Spectral Data<<<<<
189.047	53.57
189.435	53.57
189.823	53.57
190.211	96.81
190.599	63.68
190.987	968.64
191.375	68.48
191.763	103.83
192.151	44.98
192.538	-1093.84
192.926	582.05
193.314	0.56
193.702	-29.67
194.089	94.1
194.477	49.71
194.864	1519.33
195.252	101.65
195.639	269.98
196.027	-221.4
196.414	17.73
196.801	1246.08
197.189	313.26
197.576	-157.88
197.963	-19.09
198.351	-26.92
198.738	-85.26
199.125	-33.67
199.512	-15.62
199.899	-15.49
200.286	17.23
200.673	12.26
201.06	-35.91
201.447	7.44
201.833	11.44
202.22	30.86
202.607	41.33
202.994	15.04
203.38	28.6
203.767	-10.5
204.154	-128.43
204.54	21.3
204.927	12.2
205.313	8.54
205.699	14.29
206.086	26.96
206.472	-11.6
206.858	-7.95
207.245	6.96
207.631	5.28
208.017	-6.03
208.403	5.27
208.789	-52.36
209.175	-38.11
209.561	5.53
209.947	-9.89
210.333	-10.37
210.719	3.74
211.105	33.6
211.491	-147.82
211.876	31.19
212.262	-32.7
212.648	-1.31
213.034	-26.48
213.419	4.42
213.805	8.41
214.19	-43.49
214.576	-1.78
214.961	-14.29
215.346	-2.06
215.732	-77.37
216.117	0.21
216.502	7.2
216.888	-23.95
217.273	-2
217.658	-19.21
218.043	-20.07
218.428	-13.17
218.813	3.92
219.198	-43.29
219.583	-25.26
219.968	4.08
220.353	-29.28
220.738	-24.09
221.122	-39.02
221.507	6.72
221.892	-7.97
222.276	15.88
222.661	3.26
223.046	6.39
223.43	-3.44
223.815	-10.04
224.199	4.31
224.583	-5.69
224.968	2.21
225.352	-6.8
225.736	-2.32
226.121	-3.9
226.505	6.83
226.889	-4.31
227.273	-5.11
227.657	-6.24
228.041	-3.41
228.425	0.03
228.809	1.45
229.193	0.63
229.577	1.06
229.961	-0.14
230.344	0.52
230.728	0.51
231.112	1.15
231.495	0.34
231.879	0.32
232.263	-1.06
232.646	1.19
233.03	-1.02
233.413	-0.85
233.797	-0.95
234.18	1.35
234.563	1.66
234.946	-1.69
235.33	-0.46
235.713	-0.61
236.096	-2.31
236.479	0.51
236.862	1.2
237.245	0.37
237.628	0.15
238.011	0.95
238.394	0.18
238.777	-0.91
239.16	-0.14
239.543	-0.15
239.925	2.39
240.308	-1.09
240.691	0.45
241.073	-0.63
241.456	-0.64
241.838	0.7
242.221	0.97
242.603	0.66
242.986	0.26
243.368	0.33
243.75	0.62
244.133	0.8
244.515	0.9
244.897	0.57
245.279	0.51
245.661	0.92
246.043	0.36
246.425	0.91
246.807	-0.42
247.189	0.64
247.571	-0.56
247.953	0.61
248.335	0.9
248.717	0.99
249.098	1.03
249.48	1.15
249.862	1.01
250.243	0.84
250.625	0.9
251.006	1.13
251.388	1.18
251.769	1.84
252.151	0.06
252.532	1.45
252.913	0.1
253.295	0.7
253.676	1.15
254.057	1
254.438	0.83
254.819	0.48
255.2	0.83
255.581	0.72
255.962	-0.34
256.343	1.13
256.724	0.9
257.105	0.14
257.486	0.94
257.867	0.85
258.247	0.96
258.628	0.19
259.009	0.58
259.389	1.23
259.77	1.44
260.15	0.93
260.531	0.56
260.911	1.16
261.292	1.09
261.672	1
262.052	0.83
262.432	1.34
262.813	0.58
263.193	0.7
263.573	0.91
263.953	0.95
264.333	1.02
264.713	0.39
265.093	1.46
265.473	1.95
265.853	0.09
266.233	1
266.612	-0.21
266.992	0.65
267.372	0.59
267.752	1.23
268.131	0.49
268.511	1.14
268.89	1.4
269.27	0.69
269.649	0.5
270.029	0.51
270.408	0.48
270.787	1.35
271.167	0.95
271.546	1.04
271.925	0.91
272.304	1.16
272.683	1.15
273.062	1.17
273.441	1.01
273.82	0.49
274.199	1.16
274.578	1.45
274.957	0.44
275.336	1.06
275.715	1.12
276.093	1.66
276.472	0.97
276.851	0.81
277.229	0.98
277.608	1.1
277.986	0.85
278.365	1.09
278.743	0.55
279.122	0.81
279.5	0.72
279.878	0.7
280.257	1.3
280.635	0.99
281.013	0.51
281.391	0.22
281.769	1.28
282.147	0.88
282.525	0.76
282.903	0.71
283.281	0.83
283.659	1.04
284.037	0.76
284.415	0.91
284.792	1.07
285.17	0.64
285.548	0.86
285.925	1.01
286.303	1.07
286.68	0.81
287.058	0.98
287.435	1.22
287.813	0.92
288.19	1.11
288.567	0.79
288.945	0.39
289.322	1.13
289.699	1.31
290.076	1.13
290.453	0.95
290.83	1.43
291.207	0.93
291.584	1.1
291.961	1.14
292.338	1.13
292.715	1.1
293.092	0.8
293.469	1.3
293.845	1.31
294.222	1.53
294.599	1.11
294.975	1.01
295.352	0.93
295.728	0.92
296.105	0.88
296.481	1.15
296.858	1.09
297.234	1.28
297.61	0.83
297.986	0.74
298.363	0.96
298.739	1.22
299.115	0.94
299.491	1.3
299.867	1.04
300.243	0.84
300.619	1.21
300.995	0.91
301.371	0.99
301.746	1.14
302.122	0.79
302.498	0.69
302.874	0.58
303.249	0.89
303.625	1.21
304	0.92
304.376	1.27
304.751	1.77
305.127	1.48
305.502	1.46
305.878	1.45
306.253	1.38
306.628	1.51
307.003	1.11
307.378	1.38
307.754	1.13
308.129	1.34
308.504	1.12
308.879	0.91
309.254	0.75
309.629	1.07
310.003	1.23
310.378	0.57
310.753	0.88
311.128	1.18
311.502	0.55
311.877	1.12
312.252	1.15
312.626	0.77
313.001	0.98
313.375	1.47
313.75	1.23
314.124	1.27
314.498	1.45
314.873	1.16
315.247	1.51
315.621	1.16
315.995	1.32
316.369	1.16
316.743	1.08
317.117	1.34
317.491	1.26
317.865	1.07
318.239	1.34
318.613	1.23
318.987	1.13
319.361	1.19
319.734	0.58
320.108	1.44
320.482	0.77
320.855	0.92
321.229	1.56
321.602	1.22
321.976	0.8
322.349	1.35
322.723	1.51
323.096	1.82
323.469	1.12
323.843	1.86
324.216	1.51
324.589	1.03
324.962	1.44
325.335	1.54
325.708	0.94
326.081	1.43
326.454	1.15
326.827	1.27
327.2	1.26
327.573	1.61
327.945	1.52
328.318	1.58
328.691	1.33
329.063	1.4
329.436	1.48
329.809	0.84
330.181	1.5
330.553	1.1
330.926	1.1
331.298	0.92
331.671	1.64
332.043	1.65
332.415	0.93
332.787	1.58
333.159	1.66
333.532	1.12
333.904	1.16
334.276	1.46
334.648	1.1
335.02	2.2
335.391	1.56
335.763	1.75
336.135	1.27
336.507	1.68
336.879	1.16
337.25	0.99
337.622	1.31
337.993	1.2
338.365	1.23
338.736	1.58
339.108	1.43
339.479	1.31
339.851	1.07
340.222	1.13
340.593	1.16
340.964	1.35
341.336	1.18
341.707	1.7
342.078	1.35
342.449	1.47
342.82	1.25
343.191	1.92
343.562	1.64
343.933	1.37
344.303	1.5
344.674	1.46
345.045	1.31
345.416	1.5
345.786	1.47
346.157	1.47
346.527	1.49
346.898	1.11
347.268	1.35
347.639	1.68
348.009	1.23
348.38	1.33
348.75	2.11
349.12	1.54
349.49	1.25
349.861	1.36
350.231	1.25
350.601	1.79
350.971	1.8
351.341	1.5
351.711	1.21
352.081	0.96
352.45	1.21
352.82	1.29
353.19	1.22
353.56	1.8
353.929	1.4
354.299	1.5
354.669	1.54
355.038	1.39
355.408	1.1
355.777	1.53
356.147	1.34
356.516	1.49
356.885	1.2
357.254	1.33
357.624	1.31
357.993	1.52
358.362	1.49
358.731	1.13
359.1	1.2
359.469	1.37
359.838	1.68
360.207	1.7
360.576	1.81
360.945	1.85
361.314	1.74
361.682	1.61
362.051	1.41
362.42	1.33
362.788	1.45
363.157	1.69
363.525	1.67
363.894	1.55
364.262	1.44
364.631	1.35
364.999	1.26
365.367	1.77
365.735	1.6
366.104	1.33
366.472	1.58
366.84	1.69
367.208	1.68
367.576	1.39
367.944	1.91
368.312	1.54
368.68	1.68
369.048	1.6
369.416	1.34
369.783	1.33
370.151	1.7
370.519	1.96
370.886	1.58
371.254	1.51
371.621	1.47
371.989	1.59
372.356	1.19
372.724	1.65
373.091	1.46
373.458	1.44
373.826	1.75
374.193	1.56
374.56	1.6
374.927	1.5
375.294	1.54
375.661	1.82
376.028	1.49
376.395	1.48
376.762	1.21
377.129	1.84
377.496	1.59
377.863	1.68
378.229	1.62
378.596	1.7
378.963	1.52
379.329	1.4
379.696	1.56
380.062	1.46
380.429	1.48
380.795	1.49
381.161	1.84
381.528	1.8
381.894	1.72
382.26	1.39
382.626	1.67
382.993	1.69
383.359	1.54
383.725	1.66
384.091	1.49
384.457	1.63
384.823	1.62
385.188	1.53
385.554	1.67
385.92	1.55
386.286	1.5
386.651	1.42
387.017	1.3
387.383	1.64
387.748	1.57
388.114	1.46
388.479	1.74
388.845	1.71
389.21	1.64
389.575	1.7
389.94	1.74
390.306	1.5
390.671	1.68
391.036	1.69
391.401	1.45
391.766	1.71
392.131	1.3
392.496	1.65
392.861	1.65
393.226	1.58
393.591	1.58
393.956	1.72
394.32	1.79
394.685	1.71
395.05	1.69
395.414	1.74
395.779	1.75
396.143	1.69
396.508	1.51
396.872	1.72
397.236	1.52
397.601	1.59
397.965	1.6
398.329	1.57
398.694	1.33
399.058	1.64
399.422	1.71
399.786	1.68
400.15	1.85
400.514	1.67
400.878	1.71
401.242	1.96
401.605	1.64
401.969	1.75
402.333	1.81
402.697	1.61
403.06	1.84
403.424	1.5
403.787	1.76
404.151	1.49
404.514	1.56
404.878	1.83
405.241	1.54
405.604	1.67
405.968	1.93
406.331	1.55
406.694	1.7
407.057	1.49
407.42	1.62
407.783	1.72
408.146	1.84
408.509	1.67
408.872	1.98
409.235	1.55
409.598	1.49
409.961	1.72
410.323	1.52
410.686	1.78
411.049	1.79
411.411	1.55
411.774	1.61
412.136	1.65
412.499	1.63
412.861	1.55
413.223	1.7
413.586	1.54
413.948	1.56
414.31	1.71
414.672	1.6
415.035	1.6
415.397	1.89
415.759	1.68
416.121	1.76
416.483	1.63
416.845	1.68
417.206	1.71
417.568	1.74
417.93	1.66
418.292	1.56
418.653	1.65
419.015	1.59
419.377	1.7
419.738	1.81
420.1	1.74
420.461	1.63
420.822	1.56
421.184	1.58
421.545	1.66
421.906	1.64
422.267	1.76
422.629	1.68
422.99	1.67
423.351	1.74
423.712	1.71
424.073	1.73
424.434	1.63
424.795	1.85
425.155	1.76
425.516	1.77
425.877	1.68
426.238	1.66
426.598	1.77
426.959	1.67
427.32	1.71
427.68	1.8
428.041	1.84
428.401	1.62
428.761	1.7
429.122	1.74
429.482	1.79
429.842	1.74
430.202	1.77
430.563	1.72
430.923	1.79
431.283	1.73
431.643	1.86
432.003	1.88
432.363	1.76
432.722	1.92
433.082	1.93
433.442	1.85
433.802	2.03
434.161	1.88
434.521	1.91
434.881	1.68
435.24	1.87
435.6	1.64
435.959	1.8
436.319	1.73
436.678	1.62
437.037	1.73
437.396	1.6
437.756	1.62
438.115	1.66
438.474	1.63
438.833	1.7
439.192	1.8
439.551	1.63
439.91	1.89
440.269	1.83
440.628	1.91
440.987	1.81
441.345	1.81
441.704	1.7
442.063	1.81
442.421	1.67
442.78	1.78
443.138	1.75
443.497	1.74
443.855	1.78
444.214	1.88
444.572	1.85
444.93	1.81
445.288	1.85
445.647	1.68
446.005	1.81
446.363	1.7
446.721	1.64
447.079	1.76
447.437	1.72
447.795	1.63
448.153	1.75
448.51	1.74
448.868	1.75
449.226	1.79
449.584	1.82
449.941	1.65
450.299	1.76
450.656	1.73
451.014	1.83
451.371	1.7
451.729	1.83
452.086	1.75
452.443	1.84
452.801	1.87
453.158	1.72
453.515	1.82
453.872	1.78
454.229	1.75
454.586	1.86
454.943	1.87
455.3	1.81
455.657	1.9
456.014	1.71
456.371	1.68
456.727	1.83
457.084	1.86
457.441	1.85
457.797	1.77
458.154	1.74
458.51	1.75
458.867	1.83
459.223	1.73
459.58	1.74
459.936	1.75
460.292	1.67
460.648	1.76
461.005	1.85
461.361	1.82
461.717	1.73
462.073	1.86
462.429	1.8
462.785	1.71
463.141	1.83
463.496	1.78
463.852	1.75
464.208	1.83
464.564	1.89
464.919	1.86
465.275	1.79
465.631	1.88
465.986	1.66
466.342	1.91
466.697	1.76
467.052	1.87
467.408	1.76
467.763	1.9
468.118	1.77
468.473	1.85
468.829	1.87
469.184	1.93
469.539	1.94
469.894	1.78
470.249	1.71
470.603	1.8
470.958	1.89
471.313	1.95
471.668	1.85
472.023	1.99
472.377	1.93
472.732	1.98
473.086	1.8
473.441	1.79
473.795	1.88
474.15	1.91
474.504	1.92
474.859	1.95
475.213	1.87
475.567	1.97
475.921	1.93
476.275	1.99
476.63	1.88
476.984	1.84
477.338	1.96
477.692	1.78
478.045	1.73
478.399	1.77
478.753	1.97
479.107	1.88
479.461	1.85
479.814	1.82
480.168	1.92
480.521	1.87
480.875	1.91
481.228	1.88
481.582	1.85
481.935	1.85
482.289	1.91
482.642	1.9
482.995	1.93
483.348	1.84
483.701	1.86
484.055	1.8
484.408	1.86
484.761	1.76
485.114	1.75
485.466	1.67
485.819	1.73
486.172	1.72
486.525	1.75
486.878	1.78
487.23	1.76
487.583	1.85
487.936	1.81
488.288	1.79
488.641	1.85
488.993	1.75
489.345	1.74
489.698	1.81
490.05	1.73
490.402	1.84
490.754	1.86
491.107	1.86
491.459	1.92
491.811	1.88
492.163	1.85
492.515	1.88
492.866	1.81
493.218	1.78
493.57	1.78
493.922	1.83
494.274	1.85
494.625	1.85
494.977	1.85
495.328	1.89
495.68	1.83
496.031	1.89
496.383	1.88
496.734	1.79
497.086	1.84
497.437	1.89
497.788	1.89
498.139	1.84
498.49	1.89
498.842	2
499.193	1.85
499.544	1.87
499.894	1.99
500.245	1.96
500.596	1.96
500.947	1.88
501.298	1.96
501.648	2.04
501.999	1.98
502.35	1.91
502.7	1.96
503.051	1.9
503.401	1.9
503.752	1.9
504.102	1.97
504.452	1.97
504.803	2
505.153	1.94
505.503	1.88
505.853	2.06
506.203	2.09
506.553	2.01
506.903	1.92
507.253	2.05
507.603	1.91
507.953	1.9
508.303	2
508.652	1.79
509.002	1.89
509.352	2.02
509.701	1.97
510.051	1.95
510.4	1.91
510.75	1.95
511.099	1.9
511.449	1.99
511.798	1.95
512.147	2
512.496	1.99
512.846	1.92
513.195	1.9
513.544	2.05
513.893	2.02
514.242	1.96
514.591	1.93
514.939	1.97
515.288	1.99
515.637	1.91
515.986	2.02
516.334	1.95
516.683	1.98
517.032	1.89
517.38	1.97
517.729	2.04
518.077	1.97
518.426	2.07
518.774	1.84
519.122	1.86
519.47	1.85
519.819	1.85
520.167	1.85
520.515	1.93
520.863	1.9
521.211	1.94
521.559	1.98
521.907	1.97
522.255	2.02
522.602	2.02
522.95	2
523.298	1.86
523.645	2.03
523.993	2.04
524.341	2.03
524.688	1.96
525.036	2.03
525.383	1.88
525.73	1.98
526.078	1.92
526.425	1.9
526.772	1.96
527.119	1.86
527.466	1.83
527.814	1.85
528.161	1.89
528.508	1.91
528.854	1.9
529.201	1.95
529.548	1.94
529.895	1.81
530.242	1.84
530.588	1.81
530.935	1.83
531.282	1.93
531.628	1.88
531.975	1.91
532.321	1.93
532.667	1.94
533.014	1.95
533.36	1.93
533.706	1.89
534.052	1.9
534.399	1.9
534.745	1.91
535.091	1.85
535.437	1.92
535.783	1.88
536.129	1.93
536.474	1.95
536.82	1.96
537.166	1.9
537.512	1.96
537.857	2.01
538.203	1.97
538.549	1.96
538.894	1.99
539.239	1.93
539.585	1.94
539.93	1.96
540.276	1.94
540.621	2.01
540.966	2.06
541.311	2.03
541.656	1.89
542.001	1.98
542.346	1.97
542.691	1.86
543.036	1.86
543.381	1.88
543.726	1.92
544.071	1.87
544.415	1.93
544.76	1.93
545.105	2.02
545.449	1.93
545.794	1.87
546.138	2
546.483	2.08
546.827	1.98
547.171	1.93
547.516	1.79
547.86	1.95
548.204	1.93
548.548	1.92
548.892	2
549.236	2.02
549.58	2.08
549.924	1.99
550.268	2.13
550.612	2.02
550.956	2.04
551.3	2.13
551.643	2.1
551.987	2.04
552.33	2.08
552.674	1.91
553.017	1.96
553.361	2.1
553.704	2.07
554.048	2.05
554.391	2.11
554.734	1.96
555.077	2.02
555.42	1.99
555.764	2.07
556.107	2.13
556.45	1.99
556.793	2.12
557.135	2.05
557.478	1.94
557.821	2.12
558.164	1.99
558.507	2.09
558.849	1.95
559.192	2.09
559.534	2.09
559.877	2.05
560.219	2.13
560.562	2.02
560.904	1.95
561.246	1.97
561.589	2.2
561.931	2.02
562.273	2.14
562.615	1.97
562.957	2.16
563.299	2.28
563.641	1.97
563.983	2.01
564.325	1.97
564.667	2.16
565.008	2.19
565.35	2.19
565.692	1.91
566.033	2.16
566.375	2
566.716	2.05
567.058	2
567.399	2.06
567.741	2.2
568.082	2.03
568.423	2.08
568.764	2.01
569.105	2.12
569.447	2.01
569.788	2.01
570.129	2.07
570.47	1.96
570.811	2.02
571.151	2.05
571.492	2
571.833	2.11
572.174	2.19
572.514	2.06
572.855	2.09
573.195	2.03
573.536	1.95
573.876	2.07
574.217	2
574.557	2.05
574.898	2.1
575.238	2
575.578	1.99
575.918	1.97
576.258	2.07
576.598	2.22
576.938	2.01
577.278	2.21
577.618	2.12
577.958	2.11
578.298	2.08
578.638	2.05
578.977	2.09
579.317	2.06
579.657	2.21
579.996	2.16
580.336	2.14
580.675	2.1
581.014	2.11
581.354	2.04
581.693	2.02
582.032	2.24
582.372	2.3
582.711	2.16
583.05	2.19
583.389	2.16
583.728	2.07
584.067	2.12
584.406	2.11
584.745	2.25
585.083	2.19
585.422	2.24
585.761	2.32
586.1	2.06
586.438	2.21
586.777	2.17
587.115	2.06
587.454	2.12
587.792	2.11
588.13	2.22
588.469	2.13
588.807	2.27
589.145	2.14
589.483	2.06
589.821	1.96
590.159	2.09
590.497	2.22
590.835	2.03
591.173	2.06
591.511	2.16
591.849	2
592.187	2.33
592.524	1.96
592.862	2.39
593.2	2.03
593.537	2
593.875	2.2
594.212	2.1
594.55	2.22
594.887	2.34
595.224	2.12
595.561	2.38
595.899	2.06
596.236	2.07
596.573	1.9
596.91	2.02
597.247	1.9
597.584	2.08
597.921	2.02
598.258	2.06
598.594	1.84
598.931	2.2
599.268	1.97
599.604	2.14
599.941	2.02
600.277	1.82
600.614	2.22
600.95	2.24
601.287	2.25
601.623	2.18
601.959	2.02
602.296	2.01
602.632	2.35
602.968	1.99
603.304	2.3
603.64	2.14
603.976	2.04
604.312	2.07
604.648	1.89
604.984	2.18
605.319	2.18
605.655	2.07
605.991	2.07
606.326	2.08
606.662	1.93
606.998	2.05
607.333	2.16
607.668	2.19
608.004	2.1
608.339	2.5
608.674	2.11
609.01	2.07
609.345	1.98
609.68	2.34
610.015	2.24
610.35	2.26
610.685	2.18
611.02	2.21
611.355	2.15
611.689	2.14
612.024	2.16
612.359	2.03
612.694	2.04
613.028	2.23
613.363	2.18
613.697	2.09
614.032	2.4
614.366	2.05
614.7	2.14
615.035	2.25
615.369	2.38
615.703	2.22
616.037	2.14
616.371	2.17
616.705	2.66
617.039	1.94
617.373	2.22
617.707	2.49
618.041	2
618.375	2.18
618.709	1.91
619.042	2.2
619.376	2.17
619.71	2.29
620.043	2.57
620.377	2.18
620.71	2.07
621.043	2.14
621.377	1.94
621.71	2.37
622.043	1.97
622.376	2.16
622.709	2.16
623.043	2.09
623.376	2.19
623.709	2.29
624.041	2.22
624.374	2.08
624.707	1.94
625.04	2.28
625.373	2.06
625.705	2.1
626.038	2.15
626.37	2.02
626.703	2.13
627.035	2.25
627.368	2.09
627.7	2.08
628.032	2.19
628.365	2.47
628.697	2.39
629.029	2.36
629.361	2.2
629.693	2.31
630.025	2
630.357	2.12
630.689	2.44
631.021	2.29
631.353	2.37
631.684	2.53
632.016	1.87
632.348	2.11
632.679	2.27
633.011	2.12
633.342	1.75
633.674	2.19
634.005	2.5
634.336	2.19
634.668	2.03
634.999	2.11
635.33	2.34
635.661	2.16
635.992	2.43
636.323	2.27
636.654	2.4
636.985	2.38
637.316	2.36
637.647	1.96
637.977	1.97
638.308	2.06
638.639	2.21
638.969	2.5
639.3	2.25
639.63	2.5
639.961	1.97
640.291	2.06
640.622	2.17
640.952	2.33
641.282	2.2
641.612	2.42
641.943	2.23
642.273	2.31
642.603	2
642.933	1.96
643.263	2.02
643.592	2.43
643.922	1.96
644.252	2.07
644.582	2.17
644.911	2.54
645.241	2.42
645.571	2.13
645.9	2.22
646.23	2.5
646.559	1.98
646.888	2.49
647.218	1.73
647.547	2.52
647.876	2.25
648.205	2.24
648.534	1.86
648.863	1.97
649.192	2.55
649.521	2.22
649.85	2.13
650.179	2.25
650.508	2.52
650.837	2.1
651.165	2.33
651.494	2.34
651.822	1.83
652.151	2.24
652.479	2.39
652.808	2.47
653.136	2.16
653.465	2.52
653.793	2.08
654.121	2.6
654.449	2.11
654.777	2.78
655.105	2.62
655.433	1.53
655.761	2.27
656.089	1.94
656.417	2.35
656.745	2.13
657.073	2.52
657.4	2.28
657.728	2.19
658.056	1.65
658.383	2.58
658.711	2.48
659.038	2.57
659.365	2.11
659.693	2.48
660.02	2.48
660.347	2.3
660.674	1.84
661.001	2.39
661.329	1.98
661.656	2.62
661.982	2.46
662.309	2.58
662.636	2.35
662.963	2.32
663.29	2.23
663.616	2.19
663.943	2.48
664.27	2.72
664.596	2.58
664.923	2.59
665.249	2.4
665.576	2.38
665.902	2.21
666.228	2.27
666.554	2.13
666.881	1.94
667.207	2.23
667.533	2.77
667.859	1.9
668.185	2.28
668.511	2.1
668.837	2.35
669.162	2.7
669.488	2.31
669.814	2.16
670.139	2.79
670.465	2.18
670.791	2.14
671.116	1.99
671.442	2.1
671.767	2.6
672.092	1.85
672.418	2.47
672.743	1.99
673.068	2.68
673.393	2.1
673.718	2.05
674.043	2.21
674.368	2.48
674.693	2
675.018	2.51
675.343	2.54
675.667	2.69
675.992	2.5
676.317	2.29
676.641	1.92
676.966	2.08
677.29	2.45
677.615	2.13
677.939	2.9
678.264	2.41
678.588	2.99
678.912	2.5
679.236	2.22
679.56	2.96
679.885	2.76
680.209	2.58
680.532	2.28
680.856	2.14
681.18	2.54
681.504	2.27
681.828	1.72
682.152	2.76
682.475	2.1
682.799	2.21
683.122	3.29
683.446	2.67
683.769	2.64
684.093	2.56
684.416	2.66
684.739	2.16
685.062	2.16
685.386	2.25
685.709	2.89
686.032	2.32
686.355	1.79
686.678	2.3
687.001	2.7
687.324	2.54
687.646	2.14
687.969	2.34
688.292	2.49
688.614	2.45
688.937	1.98
689.26	2.65
689.582	2.35
689.904	2.05
690.227	2.74
690.549	2.4
690.871	2.66
691.194	2.31
691.516	3.27
691.838	2.25
692.16	2.84
692.482	2.16
692.804	2.4
693.126	2.28
