Data from 001-16_chest_Reflection__3__67.txt Node

Date: Fri Nov 11 16:39:31 CST 2022
User: ToomeyLab
Spectrometer: FLMS14357
Trigger mode: 0
Integration Time (sec): 1.000000E-2
Scans to average: 100
Electric dark correction enabled: true
Nonlinearity correction enabled: false
Boxcar width: 0
XAxis mode: Wavelengths
Number of Pixels in Spectrum: 2048
>>>>>Begin Spectral Data<<<<<
189.047	25.67
189.435	25.67
189.823	25.67
190.211	-348.94
190.599	29.56
190.987	-562.71
191.375	96.29
191.763	4.57
192.151	82.83
192.538	222.66
192.926	668.73
193.314	149.92
193.702	-130.81
194.089	167.62
194.477	66.11
194.864	1573.33
195.252	141.6
195.639	49.73
196.027	36.51
196.414	127.38
196.801	2627.45
197.189	147.51
197.576	-160.97
197.963	24.53
198.351	10.28
198.738	-28.06
199.125	17.21
199.512	15.06
199.899	10.91
200.286	9.79
200.673	3.3
201.06	-19.87
201.447	17.79
201.833	-3.11
202.22	6.67
202.607	31.56
202.994	-8.06
203.38	25.35
203.767	-7.05
204.154	-3.39
204.54	24.06
204.927	-16.87
205.313	34.17
205.699	-11.78
206.086	30.47
206.472	29.27
206.858	-23.54
207.245	25.85
207.631	28.53
208.017	-2.07
208.403	32.83
208.789	-81.91
209.175	42.02
209.561	18.53
209.947	-31.75
210.333	-1.18
210.719	17.01
211.105	-31.06
211.491	-65.62
211.876	22.3
212.262	10.07
212.648	7.48
213.034	3.69
213.419	-16.79
213.805	35.26
214.19	-78.07
214.576	14.53
214.961	-22.58
215.346	-42.66
215.732	-41.65
216.117	40.72
216.502	3.5
216.888	2.84
217.273	-13.41
217.658	-6.5
218.043	0.75
218.428	-29.49
218.813	18.15
219.198	-29.55
219.583	11.48
219.968	20.21
220.353	-2.79
220.738	-1.01
221.122	-0.59
221.507	8.74
221.892	7.33
222.276	17.01
222.661	-1.56
223.046	-3.22
223.43	6.91
223.815	4.68
224.199	15.92
224.583	11.59
224.968	14.7
225.352	-3.36
225.736	2.32
226.121	4.5
226.505	11.52
226.889	12.38
227.273	8.79
227.657	5.68
228.041	2.92
228.425	6.69
228.809	8.34
229.193	3.27
229.577	5.84
229.961	4.84
230.344	6.12
230.728	5.03
231.112	5.36
231.495	5.26
231.879	5.42
232.263	4.03
232.646	3.72
233.03	4.69
233.413	3.78
233.797	3.9
234.18	6.08
234.563	4.08
234.946	1.42
235.33	6.77
235.713	5.13
236.096	2.94
236.479	4.66
236.862	6.18
237.245	5.35
237.628	4.7
238.011	3.7
238.394	5.51
238.777	4.8
239.16	4.72
239.543	5.08
239.925	5.72
240.308	4.13
240.691	3.71
241.073	4.63
241.456	3.24
241.838	5.54
242.221	4.47
242.603	4.16
242.986	4.5
243.368	4.24
243.75	5.38
244.133	5.16
244.515	5.06
244.897	4.81
245.279	4.76
245.661	5.03
246.043	5.16
246.425	4.32
246.807	4.89
247.189	4.15
247.571	4.49
247.953	4.64
248.335	5.09
248.717	4.91
249.098	4.82
249.48	5.06
249.862	5.01
250.243	4.66
250.625	4.64
251.006	4.94
251.388	5.4
251.769	5.72
252.151	5.16
252.532	5.3
252.913	4.39
253.295	4.43
253.676	4.57
254.057	4.69
254.438	4.57
254.819	4.79
255.2	5.11
255.581	6.1
255.962	4.5
256.343	5.75
256.724	5.11
257.105	4.3
257.486	5.13
257.867	4.23
258.247	5.72
258.628	4.94
259.009	4.95
259.389	4.79
259.77	5.55
260.15	4.65
260.531	4.72
260.911	4.3
261.292	4.8
261.672	4.58
262.052	4.59
262.432	4.84
262.813	4.52
263.193	4.42
263.573	5.32
263.953	4.86
264.333	4.79
264.713	4.05
265.093	4.43
265.473	4.82
265.853	4.51
266.233	4.67
266.612	4.23
266.992	4.24
267.372	4.36
267.752	5.08
268.131	4.79
268.511	4.6
268.89	5.17
269.27	4.51
269.649	4.17
270.029	3.97
270.408	4.16
270.787	4.92
271.167	4.45
271.546	4.95
271.925	4.88
272.304	5.05
272.683	4.53
273.062	4.53
273.441	4.24
273.82	4.14
274.199	4.64
274.578	4.96
274.957	3.99
275.336	4.54
275.715	4.22
276.093	5.25
276.472	4.4
276.851	4.52
277.229	3.97
277.608	4.67
277.986	4.65
278.365	4.8
278.743	4.42
279.122	4.38
279.5	4.23
279.878	4.05
280.257	4.71
280.635	4.42
281.013	4.38
281.391	4.55
281.769	4.98
282.147	4.77
282.525	4.32
282.903	4.74
283.281	3.98
283.659	4.25
284.037	4.39
284.415	4.1
284.792	4.26
285.17	4.38
285.548	4.86
285.925	4.21
286.303	4.15
286.68	4.38
287.058	4.36
287.435	4.53
287.813	4.27
288.19	4.4
288.567	4.34
288.945	4.08
289.322	4.35
289.699	4.71
290.076	4.12
290.453	4.41
290.83	4.59
291.207	4.66
291.584	4.41
291.961	4.24
292.338	4.44
292.715	4.55
293.092	4.02
293.469	4.52
293.845	4.53
294.222	4.89
294.599	4.62
294.975	4.22
295.352	4.26
295.728	4.03
296.105	4.42
296.481	4
296.858	4.19
297.234	4.22
297.61	4.33
297.986	4.23
298.363	4.06
298.739	4.57
299.115	4.29
299.491	4.3
299.867	3.98
300.243	3.87
300.619	4.38
300.995	4.53
301.371	4.1
301.746	4.55
302.122	4.35
302.498	4.19
302.874	4.38
303.249	4.37
303.625	3.92
304	4.06
304.376	4.33
304.751	4.83
305.127	4.67
305.502	4.58
305.878	4.8
306.253	4.27
306.628	4.53
307.003	4.22
307.378	4.5
307.754	4.43
308.129	4.69
308.504	4.62
308.879	4.58
309.254	3.92
309.629	3.92
310.003	4.16
310.378	3.88
310.753	4.36
311.128	4.52
311.502	4.1
311.877	4.65
312.252	4.27
312.626	3.94
313.001	4.43
313.375	4.54
313.75	4.45
314.124	4.17
314.498	4.48
314.873	4.42
315.247	4.13
315.621	4.08
315.995	3.95
316.369	4.03
316.743	4.23
317.117	4.03
317.491	4.28
317.865	4.13
318.239	4.52
318.613	4.62
318.987	4.25
319.361	4.28
319.734	4.46
320.108	4.2
320.482	4.27
320.855	4.37
321.229	4.47
321.602	4.06
321.976	3.83
322.349	4.08
322.723	4.6
323.096	4.63
323.469	4.45
323.843	4.95
324.216	4.18
324.589	4.32
324.962	4.25
325.335	4.67
325.708	4.17
326.081	4.52
326.454	4.22
326.827	4.11
327.2	3.75
327.573	4.59
327.945	4.03
328.318	4.81
328.691	4.79
329.063	4.52
329.436	4.47
329.809	4
330.181	4.25
330.553	4.51
330.926	4.42
331.298	4.55
331.671	4.24
332.043	5
332.415	4.81
332.787	4.57
333.159	4.93
333.532	4.29
333.904	4.27
334.276	4.37
334.648	3.98
335.02	4.87
335.391	4.13
335.763	4.03
336.135	4.26
336.507	4.47
336.879	4.66
337.25	4.36
337.622	4.87
337.993	4.16
338.365	4.27
338.736	4.36
339.108	4.6
339.479	4.71
339.851	4.34
340.222	3.96
340.593	4.17
340.964	4.46
341.336	4.28
341.707	4.16
342.078	4.44
342.449	4.6
342.82	4.56
343.191	4.71
343.562	4.41
343.933	4.24
344.303	5.04
344.674	4.56
345.045	4.31
345.416	4.47
345.786	4.34
346.157	4.22
346.527	4.66
346.898	4.12
347.268	4.31
347.639	4.72
348.009	4.44
348.38	4.69
348.75	5.01
349.12	3.98
349.49	4.22
349.861	4.12
350.231	4.65
350.601	5.05
350.971	5.11
351.341	4.5
351.711	4.55
352.081	3.54
352.45	4.63
352.82	4.59
353.19	4.64
353.56	4.6
353.929	4.76
354.299	4.35
354.669	4.56
355.038	4.47
355.408	4.24
355.777	4.32
356.147	4.52
356.516	4.79
356.885	4.33
357.254	4.7
357.624	4.83
357.993	4.77
358.362	4.38
358.731	4.33
359.1	4.2
359.469	4.73
359.838	4.74
360.207	4.59
360.576	4.57
360.945	4.78
361.314	4.67
361.682	4.46
362.051	4.5
362.42	4.43
362.788	4.42
363.157	4.54
363.525	4.77
363.894	4.5
364.262	4.5
364.631	4.32
364.999	4.63
365.367	4.69
365.735	4.53
366.104	4.43
366.472	4.8
366.84	4.58
367.208	4.39
367.576	4.74
367.944	4.81
368.312	4.67
368.68	4.6
369.048	4.58
369.416	4.28
369.783	4.5
370.151	4.56
370.519	4.75
370.886	4.78
371.254	4.35
371.621	4.45
371.989	4.48
372.356	4.28
372.724	4.92
373.091	4.71
373.458	4.62
373.826	4.88
374.193	4.95
374.56	4.64
374.927	4.72
375.294	4.75
375.661	4.91
376.028	4.67
376.395	4.83
376.762	4.84
377.129	4.55
377.496	4.62
377.863	4.5
378.229	4.54
378.596	4.52
378.963	4.57
379.329	4.57
379.696	4.62
380.062	4.68
380.429	4.5
380.795	4.64
381.161	4.8
381.528	4.85
381.894	4.54
382.26	4.54
382.626	4.53
382.993	4.61
383.359	4.64
383.725	4.86
384.091	4.76
384.457	4.91
384.823	4.71
385.188	4.74
385.554	4.67
385.92	4.53
386.286	4.55
386.651	4.58
387.017	4.65
387.383	4.63
387.748	4.61
388.114	4.85
388.479	4.66
388.845	4.85
389.21	4.89
389.575	4.31
389.94	4.96
390.306	4.41
390.671	4.91
391.036	4.75
391.401	4.57
391.766	4.33
392.131	4.43
392.496	4.73
392.861	4.47
393.226	4.86
393.591	4.72
393.956	4.59
394.32	4.93
394.685	4.99
395.05	4.83
395.414	4.86
395.779	4.84
396.143	4.8
396.508	4.72
396.872	4.92
397.236	4.75
397.601	4.69
397.965	4.77
398.329	4.72
398.694	4.52
399.058	4.53
399.422	4.78
399.786	4.96
400.15	4.56
400.514	4.78
400.878	4.96
401.242	4.83
401.605	4.85
401.969	4.9
402.333	4.75
402.697	4.83
403.06	4.83
403.424	4.58
403.787	4.88
404.151	4.61
404.514	4.75
404.878	5.01
405.241	4.74
405.604	4.69
405.968	4.86
406.331	4.56
406.694	4.88
407.057	4.7
407.42	4.86
407.783	4.8
408.146	5.01
408.509	4.96
408.872	4.99
409.235	5.02
409.598	4.65
409.961	4.63
410.323	4.94
410.686	4.76
411.049	4.99
411.411	4.71
411.774	4.86
412.136	4.96
412.499	5.04
412.861	4.81
413.223	4.77
413.586	4.89
413.948	4.85
414.31	4.58
414.672	5.02
415.035	4.9
415.397	4.85
415.759	4.93
416.121	5.01
416.483	4.99
416.845	4.95
417.206	5.03
417.568	4.74
417.93	4.72
418.292	4.72
418.653	4.83
419.015	4.87
419.377	4.92
419.738	4.9
420.1	4.85
420.461	4.78
420.822	4.8
421.184	4.79
421.545	4.79
421.906	4.9
422.267	4.9
422.629	4.88
422.99	4.75
423.351	4.77
423.712	4.77
424.073	4.81
424.434	4.73
424.795	4.94
425.155	4.9
425.516	4.89
425.877	4.82
426.238	4.8
426.598	4.83
426.959	4.76
427.32	4.75
427.68	4.81
428.041	4.91
428.401	4.76
428.761	4.9
429.122	5.05
429.482	4.96
429.842	5
430.202	4.76
430.563	4.94
430.923	4.8
431.283	5.05
431.643	4.94
432.003	5.14
432.363	5.04
432.722	4.92
433.082	4.84
433.442	4.98
433.802	5.06
434.161	4.89
434.521	5.06
434.881	4.8
435.24	4.95
435.6	4.89
435.959	5.04
436.319	4.83
436.678	4.87
437.037	4.97
437.396	4.87
437.756	4.88
438.115	4.72
438.474	4.87
438.833	4.76
439.192	4.92
439.551	4.85
439.91	4.85
440.269	5
440.628	5
440.987	5.11
441.345	4.94
441.704	4.97
442.063	4.97
442.421	4.95
442.78	4.92
443.138	4.91
443.497	4.84
443.855	4.96
444.214	4.91
444.572	4.94
444.93	4.92
445.288	4.99
445.647	4.87
446.005	4.92
446.363	4.86
446.721	4.91
447.079	4.99
447.437	4.98
447.795	4.83
448.153	4.98
448.51	4.93
448.868	4.83
449.226	4.89
449.584	4.97
449.941	4.8
450.299	4.9
450.656	4.97
451.014	5.05
451.371	4.94
451.729	5.06
452.086	5.09
452.443	5.17
452.801	4.98
453.158	4.92
453.515	5.08
453.872	4.97
454.229	4.98
454.586	5.06
454.943	5.05
455.3	4.9
455.657	5.02
456.014	4.92
456.371	5.09
456.727	5.04
457.084	5
457.441	5.15
457.797	5.02
458.154	5.17
458.51	4.92
458.867	5.19
459.223	4.92
459.58	5.17
459.936	5.17
460.292	5.06
460.648	5.07
461.005	5.14
461.361	5.02
461.717	5.05
462.073	5.01
462.429	4.97
462.785	4.92
463.141	5.02
463.496	4.99
463.852	5.03
464.208	5.06
464.564	5.17
464.919	4.96
465.275	5.07
465.631	5.1
465.986	5.16
466.342	5.2
466.697	5.04
467.052	5.22
467.408	5.03
467.763	5.05
468.118	5.07
468.473	5.07
468.829	5.05
469.184	5.04
469.539	5.25
469.894	4.97
470.249	4.87
470.603	5
470.958	5.18
471.313	5.13
471.668	5.2
472.023	5.16
472.377	5.18
472.732	5.1
473.086	5.17
473.441	5.19
473.795	5.17
474.15	5.15
474.504	5.23
474.859	5.19
475.213	5.13
475.567	5.15
475.921	5.25
476.275	5.21
476.63	5.26
476.984	5.18
477.338	5.27
477.692	5.25
478.045	5.29
478.399	5.23
478.753	5.33
479.107	5.22
479.461	5.13
479.814	5.17
480.168	5.32
480.521	5.22
480.875	5.24
481.228	5.31
481.582	5.2
481.935	5.22
482.289	5.3
482.642	5.14
482.995	5.27
483.348	5.14
483.701	5.19
484.055	5.1
484.408	5.14
484.761	4.99
485.114	5.04
485.466	4.96
485.819	4.92
486.172	4.89
486.525	4.91
486.878	4.92
487.23	4.96
487.583	5.07
487.936	5.08
488.288	5.04
488.641	5.1
488.993	5.07
489.345	4.98
489.698	4.97
490.05	4.93
490.402	4.95
490.754	5.06
491.107	5.06
491.459	5.12
491.811	5.16
492.163	5.1
492.515	5.14
492.866	5.09
493.218	5.07
493.57	5.04
493.922	5.06
494.274	5.07
494.625	5.04
494.977	5.12
495.328	5.11
495.68	5.35
496.031	5.26
496.383	5.29
496.734	5.2
497.086	5.31
497.437	5.23
497.788	5.29
498.139	5.24
498.49	5.24
498.842	5.22
499.193	5.31
499.544	5.31
499.894	5.32
500.245	5.22
500.596	5.26
500.947	5.16
501.298	5.36
501.648	5.35
501.999	5.25
502.35	5.35
502.7	5.43
503.051	5.34
503.401	5.47
503.752	5.31
504.102	5.33
504.452	5.42
504.803	5.37
505.153	5.35
505.503	5.48
505.853	5.5
506.203	5.4
506.553	5.44
506.903	5.43
507.253	5.48
507.603	5.61
507.953	5.49
508.303	5.41
508.652	5.35
509.002	5.32
509.352	5.56
509.701	5.47
510.051	5.35
510.4	5.33
510.75	5.4
511.099	5.41
511.449	5.35
511.798	5.38
512.147	5.35
512.496	5.45
512.846	5.3
513.195	5.43
513.544	5.51
513.893	5.39
514.242	5.53
514.591	5.4
514.939	5.56
515.288	5.43
515.637	5.47
515.986	5.4
516.334	5.43
516.683	5.54
517.032	5.54
517.38	5.42
517.729	5.65
518.077	5.41
518.426	5.51
518.774	5.4
519.122	5.51
519.47	5.49
519.819	5.43
520.167	5.42
520.515	5.52
520.863	5.52
521.211	5.5
521.559	5.47
521.907	5.5
522.255	5.69
522.602	5.6
522.95	5.74
523.298	5.49
523.645	5.7
523.993	5.76
524.341	5.66
524.688	5.58
525.036	5.6
525.383	5.76
525.73	5.63
526.078	5.55
526.425	5.49
526.772	5.61
527.119	5.63
527.466	5.52
527.814	5.51
528.161	5.53
528.508	5.57
528.854	5.62
529.201	5.55
529.548	5.58
529.895	5.42
530.242	5.48
530.588	5.43
530.935	5.43
531.282	5.52
531.628	5.48
531.975	5.48
532.321	5.52
532.667	5.57
533.014	5.71
533.36	5.72
533.706	5.71
534.052	5.66
534.399	5.67
534.745	5.6
535.091	5.6
535.437	5.63
535.783	5.64
536.129	5.69
536.474	5.7
536.82	5.7
537.166	5.72
537.512	5.8
537.857	5.89
538.203	5.77
538.549	5.81
538.894	5.82
539.239	5.82
539.585	5.77
539.93	5.9
540.276	5.83
540.621	5.93
540.966	5.93
541.311	5.93
541.656	5.86
542.001	5.93
542.346	5.98
542.691	5.8
543.036	5.81
543.381	5.76
543.726	5.75
544.071	5.81
544.415	5.84
544.76	5.95
545.105	5.94
545.449	5.91
545.794	5.98
546.138	6.03
546.483	5.92
546.827	6.11
547.171	6
547.516	5.98
547.86	5.93
548.204	5.97
548.548	6.07
548.892	6.12
549.236	6.15
549.58	6.17
549.924	6.22
550.268	6.26
550.612	6.19
550.956	6.26
551.3	6.38
551.643	6.32
551.987	6.23
552.33	6.22
552.674	6.27
553.017	6.24
553.361	6.4
553.704	6.51
554.048	6.25
554.391	6.39
554.734	6.34
555.077	6.48
555.42	6.41
555.764	6.32
556.107	6.43
556.45	6.37
556.793	6.41
557.135	6.54
557.478	6.5
557.821	6.62
558.164	6.63
558.507	6.68
558.849	6.47
559.192	6.68
559.534	6.7
559.877	6.6
560.219	6.81
560.562	6.63
560.904	6.8
561.246	6.51
561.589	6.79
561.931	6.75
562.273	6.78
562.615	6.65
562.957	6.68
563.299	6.83
563.641	6.78
563.983	6.59
564.325	6.69
564.667	6.55
565.008	6.75
565.35	7.02
565.692	6.75
566.033	6.89
566.375	6.85
566.716	6.77
567.058	6.81
567.399	7.05
567.741	6.9
568.082	6.94
568.423	7.04
568.764	7.03
569.105	6.85
569.447	7.04
569.788	7.06
570.129	7.08
570.47	6.89
570.811	7.01
571.151	7.07
571.492	7.03
571.833	7.13
572.174	7.22
572.514	7.26
572.855	7.07
573.195	7.14
573.536	7.15
573.876	7.19
574.217	7.18
574.557	7.17
574.898	7.27
575.238	7.18
575.578	7.21
575.918	7.25
576.258	7.51
576.598	7.37
576.938	7.28
577.278	7.37
577.618	7.38
577.958	7.46
578.298	7.59
578.638	7.42
578.977	7.45
579.317	7.46
579.657	7.58
579.996	7.49
580.336	7.61
580.675	7.5
581.014	7.62
581.354	7.6
581.693	7.62
582.032	7.81
582.372	7.8
582.711	7.97
583.05	7.7
583.389	7.98
583.728	7.85
584.067	7.93
584.406	8.01
584.745	7.83
585.083	7.98
585.422	7.87
585.761	8.41
586.1	7.93
586.438	7.91
586.777	8.05
587.115	7.92
587.454	8.39
587.792	8.11
588.13	8.35
588.469	8.23
588.807	8.33
589.145	8.19
589.483	8.19
589.821	8.16
590.159	8.06
590.497	8.39
590.835	8.22
591.173	8.28
591.511	8.39
591.849	8.3
592.187	8.33
592.524	8.4
592.862	8.59
593.2	8.58
593.537	8.21
593.875	8.48
594.212	8.58
594.55	8.53
594.887	8.69
595.224	8.46
595.561	8.54
595.899	8.76
596.236	8.7
596.573	8.5
596.91	8.72
597.247	8.53
597.584	8.59
597.921	8.76
598.258	8.83
598.594	8.82
598.931	8.79
599.268	8.73
599.604	8.84
599.941	8.89
600.277	8.55
600.614	9.16
600.95	9
601.287	8.85
601.623	8.78
601.959	8.75
602.296	9.01
602.632	9.13
602.968	9.08
603.304	9.24
603.64	9.03
603.976	9.27
604.312	9.02
604.648	8.98
604.984	9.47
605.319	9.32
605.655	9.2
605.991	9.25
606.326	9.38
606.662	9.32
606.998	9.5
607.333	9.41
607.668	9.38
608.004	9.37
608.339	9.64
608.674	9.47
609.01	9.43
609.345	9.47
609.68	9.64
610.015	9.78
610.35	9.68
610.685	9.72
611.02	9.78
611.355	9.8
611.689	9.89
612.024	9.8
612.359	9.51
612.694	9.84
613.028	9.79
613.363	10.05
613.697	10.1
614.032	9.9
614.366	9.74
614.7	9.93
615.035	10.19
615.369	10.26
615.703	10.19
616.037	10.26
616.371	10.32
616.705	10.39
617.039	10.33
617.373	10.34
617.707	10.63
618.041	10.21
618.375	10.6
618.709	10.25
619.042	10.34
619.376	10.15
619.71	10.12
620.043	10.64
620.377	10.6
620.71	10.59
621.043	10.95
621.377	10.44
621.71	10.83
622.043	10.37
622.376	10.55
622.709	10.76
623.043	10.6
623.376	10.79
623.709	10.69
624.041	10.89
624.374	10.87
624.707	10.8
625.04	10.84
625.373	10.86
625.705	11.05
626.038	10.64
626.37	11.2
626.703	10.78
627.035	10.95
627.368	11.14
627.7	11.08
628.032	11.11
628.365	11.54
628.697	11.42
629.029	11.37
629.361	11.3
629.693	11.18
630.025	11.24
630.357	11.25
630.689	11.59
631.021	11.33
631.353	11.34
631.684	11.37
632.016	11.38
632.348	11.3
632.679	11.59
633.011	11.08
633.342	11.29
633.674	11.54
634.005	11.56
634.336	11.84
634.668	11.61
634.999	11.55
635.33	11.88
635.661	11.84
635.992	11.65
636.323	12.15
636.654	12.57
636.985	11.73
637.316	12.25
637.647	11.93
637.977	12.11
638.308	12.02
638.639	12.2
638.969	12.17
639.3	12.1
639.63	12.17
639.961	12.01
640.291	12.08
640.622	11.95
640.952	12.3
641.282	12.34
641.612	12.37
641.943	12.34
642.273	12.67
642.603	12.35
642.933	12.4
643.263	12.21
643.592	13.38
643.922	12.64
644.252	12.53
644.582	12.91
644.911	12.73
645.241	13.31
645.571	12.99
645.9	12.86
646.23	13.23
646.559	12.71
646.888	12.93
647.218	13.3
647.547	12.73
647.876	12.84
648.205	12.9
648.534	12.98
648.863	13.02
649.192	13.17
649.521	13.21
649.85	12.53
650.179	13.27
650.508	13.46
650.837	13.55
651.165	13.55
651.494	13.24
651.822	13.05
652.151	13.3
652.479	13.76
652.808	13.31
653.136	13.16
653.465	13.61
653.793	14.02
654.121	13.89
654.449	13.68
654.777	13.86
655.105	14
655.433	13.09
655.761	13.68
656.089	13.66
656.417	13.86
656.745	13.26
657.073	13.94
657.4	13.82
657.728	13.95
658.056	13.97
658.383	14.25
658.711	13.93
659.038	13.96
659.365	13.98
659.693	14.19
660.02	14.88
660.347	13.94
660.674	13.88
661.001	14.19
661.329	14.01
661.656	14.38
661.982	14.16
662.309	14.22
662.636	14.15
662.963	14.22
663.29	14.68
663.616	14.56
663.943	14.83
664.27	14.89
664.596	14.93
664.923	14.97
665.249	14.67
665.576	14.65
665.902	14.5
666.228	14.28
666.554	14.41
666.881	14.7
667.207	14.63
667.533	14.79
667.859	14.83
668.185	15.36
668.511	14.94
668.837	14.83
669.162	15.38
669.488	15.13
669.814	14.92
670.139	15.66
670.465	14.66
670.791	14.73
671.116	15.31
671.442	14.92
671.767	15.62
672.092	15.34
672.418	14.85
672.743	15.15
673.068	15.69
673.393	15.43
673.718	15.54
674.043	15.86
674.368	14.87
674.693	15.67
675.018	15.52
675.343	15.62
675.667	15.29
675.992	16.63
676.317	16.11
676.641	16.03
676.966	15.34
677.29	15.09
677.615	16.39
677.939	16.08
678.264	15.45
678.588	16.58
678.912	15.97
679.236	16.02
679.56	15.81
679.885	16.42
680.209	16.07
680.532	16.01
680.856	16.4
681.18	16.16
681.504	16.44
681.828	16.21
682.152	16.43
682.475	16.85
682.799	16.33
683.122	16.51
683.446	16.34
683.769	16.6
684.093	15.97
684.416	16.4
684.739	16.19
685.062	16.68
685.386	17.15
685.709	16.78
686.032	16.7
686.355	16.39
686.678	17.12
687.001	17.77
687.324	17.02
