Data from 001-16_chest_Reflection__4__68.txt Node

Date: Fri Nov 11 16:39:42 CST 2022
User: ToomeyLab
Spectrometer: FLMS14357
Trigger mode: 0
Integration Time (sec): 1.000000E-2
Scans to average: 100
Electric dark correction enabled: true
Nonlinearity correction enabled: false
Boxcar width: 0
XAxis mode: Wavelengths
Number of Pixels in Spectrum: 2048
>>>>>Begin Spectral Data<<<<<
189.047	30.51
189.435	30.51
189.823	30.51
190.211	-537.23
190.599	141.75
190.987	4165.25
191.375	0.56
191.763	-10.69
192.151	23.32
192.538	430.3
192.926	-126.06
193.314	-46.97
193.702	-163.93
194.089	155.45
194.477	7.48
194.864	3202
195.252	193.76
195.639	177.52
196.027	80.83
196.414	51.39
196.801	1195.1
197.189	92.26
197.576	-127.75
197.963	116.81
198.351	10.93
198.738	-56.56
199.125	37.84
199.512	54.62
199.899	-2.04
200.286	20.7
200.673	25.98
201.06	-2.06
201.447	57.77
201.833	25.43
202.22	5.88
202.607	26.37
202.994	11.2
203.38	29.04
203.767	7.58
204.154	33.03
204.54	35.83
204.927	-19.43
205.313	1.52
205.699	34.8
206.086	20.98
206.472	30.27
206.858	-4.08
207.245	11.97
207.631	15.37
208.017	9.1
208.403	30.25
208.789	33.04
209.175	-12.54
209.561	6.83
209.947	-17.15
210.333	28.8
210.719	22.48
211.105	2.51
211.491	-100.13
211.876	40.63
212.262	-5.15
212.648	19.83
213.034	-3.99
213.419	19.16
213.805	17.75
214.19	-22.72
214.576	-12.58
214.961	-4.16
215.346	-73.42
215.732	-14.89
216.117	20.61
216.502	20.06
216.888	4.97
217.273	-9.21
217.658	-15.72
218.043	26.68
218.428	6.84
218.813	30.54
219.198	15.73
219.583	-9.78
219.968	32.19
220.353	-6.77
220.738	-2.11
221.122	-16.32
221.507	11.09
221.892	8.73
222.276	7.12
222.661	23.21
223.046	7.38
223.43	4.79
223.815	0.38
224.199	8.44
224.583	7.14
224.968	9.97
225.352	1.35
225.736	1.34
226.121	2.34
226.505	7.79
226.889	4.59
227.273	2.82
227.657	0.65
228.041	4.89
228.425	6.29
228.809	7.28
229.193	2.63
229.577	4.91
229.961	3.46
230.344	2.9
230.728	3.02
231.112	2.96
231.495	2.72
231.879	2.85
232.263	2.86
232.646	3.57
233.03	2.86
233.413	2.91
233.797	2.39
234.18	3.1
234.563	3.46
234.946	0.25
235.33	2.47
235.713	2.57
236.096	1.42
236.479	4.38
236.862	3.25
237.245	4.9
237.628	3.16
238.011	3.64
238.394	3.36
238.777	2.23
239.16	4.25
239.543	4.07
239.925	4.7
240.308	1.3
240.691	3.63
241.073	4.39
241.456	3.12
241.838	3.69
242.221	3.01
242.603	3
242.986	3.7
243.368	3.09
243.75	3.21
244.133	3.93
244.515	3.88
244.897	3.17
245.279	3.22
245.661	3.77
246.043	4.54
246.425	4.32
246.807	3.44
247.189	2.76
247.571	2.87
247.953	3.5
248.335	4.16
248.717	3.86
249.098	3.68
249.48	3.78
249.862	3.64
250.243	3.7
250.625	4.17
251.006	4.13
251.388	3.61
251.769	4.1
252.151	4.35
252.532	3.92
252.913	2.9
253.295	3.65
253.676	4.07
254.057	3.64
254.438	3.85
254.819	4.26
255.2	4.62
255.581	3.74
255.962	3.51
256.343	4.49
256.724	4.44
257.105	4.43
257.486	4.09
257.867	3.09
258.247	4.27
258.628	3.91
259.009	3.42
259.389	3.53
259.77	4.82
260.15	3.9
260.531	3.51
260.911	3.66
261.292	3.64
261.672	3.76
262.052	3.7
262.432	3.61
262.813	3.44
263.193	3.74
263.573	4.2
263.953	3.59
264.333	3.79
264.713	3.09
265.093	4.08
265.473	4.83
265.853	3.39
266.233	3.42
266.612	3.85
266.992	4.09
267.372	3.84
267.752	3.98
268.131	3.71
268.511	3.31
268.89	3.95
269.27	3.37
269.649	3.31
270.029	3.1
270.408	3.5
270.787	4.27
271.167	3.58
271.546	4.16
271.925	4.15
272.304	3.65
272.683	3.53
273.062	3.63
273.441	3.33
273.82	3.32
274.199	3.76
274.578	3.95
274.957	3.31
275.336	3.54
275.715	3.54
276.093	3.82
276.472	3.46
276.851	3.06
277.229	3.48
277.608	3.76
277.986	3.46
278.365	4.08
278.743	3.3
279.122	3.51
279.5	3.56
279.878	3.63
280.257	3.83
280.635	4.01
281.013	3.46
281.391	3.52
281.769	3.51
282.147	3.26
282.525	3.01
282.903	3.78
283.281	3.61
283.659	3.44
284.037	3.16
284.415	3.08
284.792	3.69
285.17	3.73
285.548	3.48
285.925	3.63
286.303	3.71
286.68	3.6
287.058	3.52
287.435	3.78
287.813	3.59
288.19	3.65
288.567	3.53
288.945	3.23
289.322	3.4
289.699	3.9
290.076	3.57
290.453	3.18
290.83	3.88
291.207	4.16
291.584	3.81
291.961	3.85
292.338	4.15
292.715	3.77
293.092	3.82
293.469	4.22
293.845	4.5
294.222	4.94
294.599	4.5
294.975	4.42
295.352	4.45
295.728	4.32
296.105	4.46
296.481	3.94
296.858	4.6
297.234	4.43
297.61	4.8
297.986	4.46
298.363	4.58
298.739	4.63
299.115	4.29
299.491	4.69
299.867	4.67
300.243	4.54
300.619	4.82
300.995	4.72
301.371	4.23
301.746	4.79
302.122	4.98
302.498	4.8
302.874	4.82
303.249	4.81
303.625	4.78
304	4.99
304.376	5.07
304.751	5.66
305.127	5.38
305.502	5.26
305.878	5.58
306.253	5.66
306.628	5.38
307.003	4.93
307.378	5.53
307.754	5.38
308.129	5.08
308.504	5.22
308.879	5.09
309.254	4.75
309.629	5.19
310.003	5.43
310.378	4.85
310.753	5.36
311.128	5.26
311.502	5.19
311.877	5.79
312.252	5.26
312.626	5.32
313.001	5.08
313.375	5.47
313.75	5.65
314.124	5.34
314.498	5.32
314.873	5.35
315.247	5.51
315.621	5.42
315.995	5.56
316.369	5.74
316.743	5.54
317.117	5.47
317.491	5.81
317.865	5.84
318.239	6.29
318.613	5.85
318.987	5.99
319.361	5.68
319.734	5.56
320.108	6.08
320.482	5.44
320.855	5.59
321.229	6.3
321.602	5.98
321.976	5.18
322.349	6.46
322.723	5.99
323.096	6.16
323.469	6.14
323.843	6.92
324.216	6.13
324.589	6.01
324.962	6.03
325.335	6.41
325.708	5.7
326.081	5.54
326.454	6.05
326.827	6.29
327.2	5.95
327.573	6.33
327.945	5.88
328.318	6.21
328.691	6.59
329.063	6.33
329.436	6.07
329.809	6.01
330.181	6.73
330.553	6.42
330.926	5.7
331.298	5.83
331.671	6.49
332.043	6.22
332.415	5.89
332.787	6.35
333.159	6.1
333.532	6.01
333.904	6.26
334.276	6.38
334.648	6.21
335.02	6.58
335.391	6.08
335.763	6.13
336.135	5.92
336.507	6.84
336.879	6.29
337.25	5.88
337.622	6.7
337.993	6.4
338.365	6.68
338.736	6.81
339.108	6.04
339.479	6.78
339.851	5.7
340.222	6.17
340.593	5.91
340.964	6.08
341.336	6.1
341.707	6.44
342.078	6.52
342.449	6.69
342.82	6.75
343.191	7.18
343.562	6.42
343.933	6.17
344.303	6.84
344.674	6.23
345.045	6.52
345.416	6.54
345.786	6.53
346.157	6.32
346.527	6.41
346.898	6.36
347.268	6.64
347.639	6.64
348.009	6.57
348.38	6.35
348.75	6.84
349.12	6.39
349.49	6.73
349.861	6.42
350.231	6.48
350.601	6.83
350.971	7.16
351.341	6.66
351.711	6.27
352.081	6.24
352.45	6.56
352.82	6.55
353.19	6.87
353.56	6.71
353.929	7.03
354.299	6.65
354.669	6.63
355.038	6.73
355.408	6.12
355.777	6.56
356.147	6.79
356.516	6.83
356.885	6.76
357.254	6.76
357.624	6.73
357.993	6.86
358.362	6.79
358.731	6.52
359.1	6.4
359.469	6.66
359.838	6.73
360.207	6.59
360.576	6.89
360.945	6.81
361.314	6.79
361.682	6.78
362.051	6.79
362.42	6.58
362.788	6.63
363.157	6.7
363.525	6.9
363.894	6.59
364.262	6.81
364.631	6.61
364.999	6.66
365.367	6.93
365.735	7
366.104	6.71
366.472	6.8
366.84	7.02
367.208	6.61
367.576	6.99
367.944	7.12
368.312	6.88
368.68	7.13
369.048	6.82
369.416	6.81
369.783	6.54
370.151	7.04
370.519	7.11
370.886	6.87
371.254	6.76
371.621	7.28
371.989	6.8
372.356	6.81
372.724	7.24
373.091	6.89
373.458	6.85
373.826	7.17
374.193	7.18
374.56	7.14
374.927	6.96
375.294	7
375.661	7.26
376.028	6.95
376.395	7.25
376.762	6.82
377.129	6.96
377.496	6.98
377.863	6.98
378.229	7.31
378.596	7.05
378.963	6.94
379.329	7.05
379.696	6.97
380.062	6.91
380.429	6.93
380.795	7.37
381.161	7.16
381.528	7.32
381.894	7.11
382.26	6.95
382.626	7.07
382.993	7.29
383.359	7.28
383.725	7.32
384.091	7.14
384.457	7.24
384.823	7.22
385.188	7.25
385.554	7.31
385.92	6.83
386.286	7.16
386.651	6.95
387.017	7.2
387.383	7.18
387.748	7.29
388.114	7.45
388.479	7.56
388.845	7.37
389.21	7.42
389.575	7.08
389.94	7.43
390.306	7.12
390.671	7.33
391.036	7.21
391.401	7.25
391.766	7.38
392.131	7
392.496	7.28
392.861	7.23
393.226	7.31
393.591	7.29
393.956	7.47
394.32	7.45
394.685	7.52
395.05	7.56
395.414	7.74
395.779	7.26
396.143	7.54
396.508	7.31
396.872	7.44
397.236	7.37
397.601	7.1
397.965	7.5
398.329	7.62
398.694	7.21
399.058	7.37
399.422	7.75
399.786	7.83
400.15	7.46
400.514	7.48
400.878	7.52
401.242	7.56
401.605	7.45
401.969	7.53
402.333	7.56
402.697	7.57
403.06	7.35
403.424	7.29
403.787	7.42
404.151	7.37
404.514	7.44
404.878	7.79
405.241	7.55
405.604	7.43
405.968	7.62
406.331	7.44
406.694	7.73
407.057	7.61
407.42	7.69
407.783	7.48
408.146	7.83
408.509	7.73
408.872	7.98
409.235	7.56
409.598	7.49
409.961	7.5
410.323	7.65
410.686	7.89
411.049	7.73
411.411	7.69
411.774	7.77
412.136	7.72
412.499	7.71
412.861	7.73
413.223	7.61
413.586	7.71
413.948	7.58
414.31	7.92
414.672	7.73
415.035	8.01
415.397	7.73
415.759	7.77
416.121	7.93
416.483	7.89
416.845	7.73
417.206	7.76
417.568	7.68
417.93	7.9
418.292	7.52
418.653	7.75
419.015	7.64
419.377	7.72
419.738	7.79
420.1	7.63
420.461	7.66
420.822	7.63
421.184	7.62
421.545	7.69
421.906	7.82
422.267	7.68
422.629	7.7
422.99	7.68
423.351	7.67
423.712	7.72
424.073	7.7
424.434	7.68
424.795	7.84
425.155	7.84
425.516	7.76
425.877	7.65
426.238	7.67
426.598	7.71
426.959	7.72
427.32	7.83
427.68	7.81
428.041	7.91
428.401	7.84
428.761	7.66
429.122	7.9
429.482	8.09
429.842	7.94
430.202	8.07
430.563	7.85
430.923	8.22
431.283	8.11
431.643	8.25
432.003	8.33
432.363	8.04
432.722	7.94
433.082	8.16
433.442	8
433.802	8.28
434.161	8.01
434.521	8.2
434.881	7.86
435.24	8.06
435.6	7.87
435.959	8.01
436.319	8.01
436.678	7.92
437.037	8.09
437.396	8.04
437.756	8
438.115	7.91
438.474	8.01
438.833	8.11
439.192	8.22
439.551	8.11
439.91	8.19
440.269	8.1
440.628	8.17
440.987	8.35
441.345	8.15
441.704	8.05
442.063	8.12
442.421	8.07
442.78	8.13
443.138	8.02
443.497	8.16
443.855	8.16
444.214	8.15
444.572	8.24
444.93	8.38
445.288	8.41
445.647	8.18
446.005	8.33
446.363	8.24
446.721	8.22
447.079	8.26
447.437	8.2
447.795	8.01
448.153	8.18
448.51	8.07
448.868	8.18
449.226	8.2
449.584	8.29
449.941	8.26
450.299	8.31
450.656	8.34
451.014	8.48
451.371	8.38
451.729	8.49
452.086	8.34
452.443	8.51
452.801	8.38
453.158	8.42
453.515	8.49
453.872	8.57
454.229	8.38
454.586	8.38
454.943	8.45
455.3	8.31
455.657	8.4
456.014	8.34
456.371	8.44
456.727	8.44
457.084	8.47
457.441	8.7
457.797	8.51
458.154	8.57
458.51	8.52
458.867	8.65
459.223	8.47
459.58	8.66
459.936	8.53
460.292	8.55
460.648	8.55
461.005	8.54
461.361	8.4
461.717	8.42
462.073	8.58
462.429	8.54
462.785	8.44
463.141	8.56
463.496	8.55
463.852	8.65
464.208	8.73
464.564	8.64
464.919	8.47
465.275	8.83
465.631	8.8
465.986	8.8
466.342	8.86
466.697	8.62
467.052	8.91
467.408	8.71
467.763	8.79
468.118	8.76
468.473	8.9
468.829	8.93
469.184	8.91
469.539	8.91
469.894	8.84
470.249	8.86
470.603	8.81
470.958	8.92
471.313	8.73
471.668	8.9
472.023	9.05
472.377	9.01
472.732	8.91
473.086	8.96
473.441	8.92
473.795	9.04
474.15	8.81
474.504	9.1
474.859	8.99
475.213	9.02
475.567	9.03
475.921	9.2
476.275	9.03
476.63	9.15
476.984	8.89
477.338	8.94
477.692	9.08
478.045	8.95
478.399	9
478.753	9.05
479.107	9.05
479.461	9.09
479.814	9.14
480.168	9.13
480.521	9.04
480.875	9.11
481.228	9.08
481.582	9.09
481.935	9.09
482.289	9.26
482.642	9.07
482.995	9.18
483.348	8.88
483.701	9.11
484.055	9.11
484.408	9.04
484.761	8.85
485.114	8.82
485.466	8.66
485.819	8.64
486.172	8.6
486.525	8.68
486.878	8.7
487.23	8.89
487.583	8.88
487.936	8.98
488.288	8.98
488.641	8.95
488.993	8.87
489.345	8.83
489.698	8.84
490.05	8.8
490.402	8.8
490.754	9
491.107	8.93
491.459	9.11
491.811	9.18
492.163	9.14
492.515	9.09
492.866	9.08
493.218	9.01
493.57	9
493.922	9.04
494.274	9.01
494.625	9.05
494.977	9.14
495.328	9.31
495.68	9.36
496.031	9.45
496.383	9.48
496.734	9.52
497.086	9.46
497.437	9.53
497.788	9.57
498.139	9.49
498.49	9.41
498.842	9.43
499.193	9.53
499.544	9.48
499.894	9.48
500.245	9.66
500.596	9.62
500.947	9.58
501.298	9.74
501.648	9.67
501.999	9.63
502.35	9.63
502.7	9.75
503.051	9.76
503.401	9.65
503.752	9.64
504.102	9.8
504.452	9.75
504.803	9.85
505.153	9.8
505.503	9.86
505.853	9.82
506.203	9.92
506.553	9.88
506.903	9.71
507.253	9.85
507.603	9.94
507.953	9.97
508.303	9.98
508.652	9.76
509.002	9.81
509.352	9.97
509.701	10
510.051	9.99
510.4	9.82
510.75	9.91
511.099	9.78
511.449	9.93
511.798	9.83
512.147	9.94
512.496	9.9
512.846	9.9
513.195	9.91
513.544	10.05
513.893	10.04
514.242	9.97
514.591	9.96
514.939	10.1
515.288	10.05
515.637	10.06
515.986	10.18
516.334	10.2
516.683	10.21
517.032	10.15
517.38	10.21
517.729	10.26
518.077	10.03
518.426	10.26
518.774	10.15
519.122	10.26
519.47	10.19
519.819	10.1
520.167	10.2
520.515	10.1
520.863	10.18
521.211	10.1
521.559	10.19
521.907	10.28
522.255	10.33
522.602	10.34
522.95	10.36
523.298	10.44
523.645	10.32
523.993	10.45
524.341	10.48
524.688	10.46
525.036	10.58
525.383	10.47
525.73	10.5
526.078	10.57
526.425	10.54
526.772	10.44
527.119	10.5
527.466	10.3
527.814	10.43
528.161	10.33
528.508	10.38
528.854	10.47
529.201	10.46
529.548	10.43
529.895	10.23
530.242	10.27
530.588	10.19
530.935	10.2
531.282	10.32
531.628	10.24
531.975	10.27
532.321	10.38
532.667	10.44
533.014	10.53
533.36	10.65
533.706	10.62
534.052	10.65
534.399	10.63
534.745	10.59
535.091	10.53
535.437	10.56
535.783	10.53
536.129	10.66
536.474	10.74
536.82	10.69
537.166	10.84
537.512	10.91
537.857	11.05
538.203	10.93
538.549	10.81
538.894	10.9
539.239	10.82
539.585	10.83
539.93	11
540.276	11.16
540.621	11.12
540.966	11.28
541.311	11.36
541.656	11.02
542.001	11.27
542.346	11.19
542.691	10.98
543.036	10.89
543.381	10.81
543.726	10.92
544.071	10.86
544.415	11
544.76	11.04
545.105	11.2
545.449	11.17
545.794	11.17
546.138	11.18
546.483	11.32
546.827	11.38
547.171	11.45
547.516	11.27
547.86	11.37
548.204	11.32
548.548	11.52
548.892	11.51
549.236	11.51
549.58	11.47
549.924	11.56
550.268	11.67
550.612	11.67
550.956	11.63
551.3	11.84
551.643	11.85
551.987	11.76
552.33	11.79
552.674	11.87
553.017	11.94
553.361	11.95
553.704	11.92
554.048	12.01
554.391	12.05
554.734	11.83
555.077	12.07
555.42	11.98
555.764	11.96
556.107	12.02
556.45	12.08
556.793	11.95
557.135	11.98
557.478	12.03
557.821	12.2
558.164	12.11
558.507	12.13
558.849	12.04
559.192	12.13
559.534	12.38
559.877	12.49
560.219	12.49
560.562	12.23
560.904	12.37
561.246	12.06
561.589	12.38
561.931	12.39
562.273	12.49
562.615	12.38
562.957	12.4
563.299	12.5
563.641	12.53
563.983	12.44
564.325	12.52
564.667	12.57
565.008	12.35
565.35	12.6
565.692	12.6
566.033	12.71
566.375	12.65
566.716	12.51
567.058	12.52
567.399	12.67
567.741	12.62
568.082	12.91
568.423	12.72
568.764	12.69
569.105	12.65
569.447	12.74
569.788	12.67
570.129	12.75
570.47	12.81
570.811	12.81
571.151	12.92
571.492	12.79
571.833	13.04
572.174	13.14
572.514	13.04
572.855	12.95
573.195	13.02
573.536	13.09
573.876	12.95
574.217	12.95
574.557	12.79
574.898	13.04
575.238	13.09
575.578	13.1
575.918	13
576.258	13.08
576.598	13.29
576.938	13.1
577.278	13.24
577.618	13.26
577.958	13.21
578.298	13.25
578.638	13.23
578.977	13.43
579.317	13.24
579.657	13.35
579.996	13.44
580.336	13.49
580.675	13.45
581.014	13.39
581.354	13.63
581.693	13.51
582.032	13.78
582.372	13.78
582.711	13.96
583.05	13.69
583.389	13.7
583.728	13.56
584.067	13.86
584.406	13.71
584.745	13.85
585.083	13.88
585.422	13.86
585.761	14.14
586.1	14.06
586.438	13.84
586.777	13.97
587.115	13.97
587.454	14.18
587.792	14.03
588.13	14.1
588.469	14.1
588.807	14.02
589.145	14.38
589.483	14.03
589.821	13.99
590.159	14.22
590.497	14.18
590.835	14.02
591.173	14.23
591.511	14.28
591.849	14.16
592.187	14.2
592.524	14.12
592.862	14.37
593.2	14.43
593.537	14.11
593.875	14.37
594.212	14.52
594.55	14.56
594.887	14.59
595.224	14.23
595.561	14.34
595.899	14.55
596.236	14.37
596.573	14.13
596.91	14.61
597.247	14.29
597.584	14.21
597.921	14.68
598.258	14.45
598.594	14.5
598.931	14.47
599.268	14.39
599.604	14.63
599.941	14.66
600.277	14.36
600.614	14.85
600.95	14.71
601.287	14.84
601.623	14.85
601.959	14.74
602.296	14.86
602.632	14.88
602.968	14.94
603.304	14.98
603.64	14.87
603.976	15.07
604.312	14.9
604.648	14.53
604.984	15.04
605.319	14.97
605.655	14.99
605.991	14.65
606.326	15.06
606.662	14.93
606.998	14.88
607.333	14.95
607.668	14.89
608.004	15.11
608.339	15.41
608.674	15.22
609.01	14.93
609.345	15.17
609.68	15.45
610.015	15.41
610.35	15.06
610.685	15.39
611.02	15.17
611.355	15.12
611.689	15.17
612.024	15.43
612.359	14.9
612.694	15.34
613.028	15.36
613.363	15.35
613.697	15.68
614.032	15.27
614.366	15.32
614.7	15.24
615.035	15.31
615.369	15.48
615.703	15.77
616.037	15.52
616.371	15.65
616.705	15.67
617.039	15.54
617.373	15.82
617.707	15.89
618.041	15.6
618.375	16.1
618.709	15.73
619.042	15.69
619.376	15.65
619.71	15.93
620.043	15.85
620.377	15.94
620.71	15.66
621.043	16.22
621.377	15.75
621.71	16.22
622.043	15.68
622.376	15.89
622.709	16.08
623.043	16
623.376	16.06
623.709	16.14
624.041	15.93
624.374	16.41
624.707	16.16
625.04	16.1
625.373	16.22
625.705	16.24
626.038	15.9
626.37	15.86
626.703	16
627.035	16.07
627.368	16.44
627.7	16.19
628.032	16.51
628.365	16.52
628.697	16.63
629.029	16.2
629.361	16.19
629.693	16.11
630.025	16.44
630.357	16.33
630.689	16.47
631.021	16.25
631.353	16.33
631.684	16.5
632.016	16.32
632.348	16.42
632.679	16.54
633.011	16.39
633.342	16.39
633.674	16.54
634.005	16.56
634.336	16.25
634.668	16.37
634.999	16.51
635.33	16.6
635.661	16.74
635.992	16.77
636.323	16.96
636.654	16.8
636.985	16.9
637.316	17.16
637.647	16.56
637.977	16.56
638.308	16.53
638.639	16.94
638.969	16.95
639.3	16.7
639.63	16.89
639.961	17
640.291	17.18
640.622	16.8
640.952	16.75
641.282	17.45
641.612	17.33
641.943	17.06
642.273	16.97
642.603	16.66
642.933	17.17
643.263	16.96
643.592	17.03
643.922	17.24
644.252	17.21
644.582	17.05
644.911	17.34
645.241	17.38
645.571	17.37
645.9	17.12
646.23	17.25
646.559	16.86
646.888	17.14
647.218	17.4
647.547	17.71
647.876	17.1
648.205	17
648.534	17.31
648.863	17.29
649.192	17.19
649.521	17.4
649.85	17.6
650.179	17.53
650.508	17.62
650.837	17.71
651.165	18.02
651.494	17.74
651.822	17.33
652.151	17.33
652.479	17.62
652.808	17.52
653.136	17.21
653.465	17.72
653.793	17.98
654.121	17.32
654.449	17.61
654.777	17.24
655.105	17.7
655.433	17.14
655.761	17.19
656.089	18.12
656.417	17.98
656.745	18.05
657.073	17.81
657.4	17.82
657.728	18.05
658.056	17.72
658.383	17.27
658.711	18.04
659.038	17.94
659.365	17.45
659.693	17.41
660.02	18.56
660.347	17.95
660.674	17.57
661.001	17.76
661.329	17.55
661.656	18.03
661.982	18.14
662.309	17.64
662.636	17.91
662.963	17.97
663.29	17.89
663.616	18.26
663.943	18.18
664.27	18.14
664.596	18.53
664.923	18.33
665.249	18.01
665.576	17.89
665.902	17.94
666.228	18.23
666.554	18.1
666.881	18.34
667.207	18.11
667.533	18.63
667.859	18.13
668.185	18.27
668.511	18.17
668.837	17.87
669.162	18.13
669.488	18.18
669.814	18.54
670.139	18.67
670.465	18.7
670.791	18.2
671.116	18.8
671.442	18.03
671.767	18.24
672.092	18.53
672.418	18.88
672.743	17.85
673.068	18.1
673.393	17.8
673.718	18.33
674.043	18.92
674.368	18.66
674.693	18.81
675.018	18.32
675.343	18.89
675.667	18.37
675.992	18.94
676.317	18.72
676.641	18.35
676.966	18.29
677.29	18.56
677.615	19.27
677.939	19.31
678.264	18.98
678.588	18.63
678.912	18.89
679.236	18.42
679.56	18.77
679.885	19.2
680.209	18.62
680.532	18.66
680.856	18.92
681.18	18.65
681.504	18.92
