Data from 001-16_forehead_Reflection__1__75.txt Node

Date: Fri Nov 11 16:42:44 CST 2022
User: ToomeyLab
Spectrometer: FLMS14357
Trigger mode: 0
Integration Time (sec): 1.000000E-2
Scans to average: 100
Electric dark correction enabled: true
Nonlinearity correction enabled: false
Boxcar width: 0
XAxis mode: Wavelengths
Number of Pixels in Spectrum: 2048
>>>>>Begin Spectral Data<<<<<
189.047	48.08
189.435	48.08
189.823	48.08
190.211	-72.55
190.599	110.96
190.987	3914.41
191.375	196.67
191.763	-98.78
192.151	13.61
192.538	-1033.74
192.926	-1251.93
193.314	-384.45
193.702	-59.86
194.089	-60.33
194.477	-26.65
194.864	-760.67
195.252	179.47
195.639	-51.59
196.027	47.57
196.414	71.87
196.801	4371.57
197.189	50
197.576	-160.04
197.963	81.19
198.351	-33.62
198.738	-65.54
199.125	46.15
199.512	19.1
199.899	2.38
200.286	27.51
200.673	24.43
201.06	-16.78
201.447	64.79
201.833	28.19
202.22	10.42
202.607	52.8
202.994	57.07
203.38	23.97
203.767	-0.96
204.154	40.58
204.54	38.55
204.927	27.11
205.313	69.15
205.699	6.67
206.086	55.48
206.472	13.8
206.858	49.15
207.245	45.94
207.631	19.67
208.017	15.69
208.403	18.1
208.789	3.64
209.175	21.58
209.561	24.77
209.947	6.3
210.333	43.33
210.719	32.48
211.105	13.98
211.491	-42.3
211.876	34.6
212.262	-49.98
212.648	10
213.034	2.86
213.419	22.56
213.805	15.36
214.19	-37.66
214.576	19.47
214.961	10.47
215.346	-64.06
215.732	-1.85
216.117	8.31
216.502	21.08
216.888	12.8
217.273	9.82
217.658	19.48
218.043	-4.05
218.428	-3.64
218.813	23.02
219.198	-11.51
219.583	-8.39
219.968	4.07
220.353	-15.52
220.738	-6.92
221.122	-12.65
221.507	3.02
221.892	-2.31
222.276	11.51
222.661	9.13
223.046	6.85
223.43	-0.86
223.815	-4.14
224.199	8.31
224.583	1.45
224.968	8.58
225.352	-8.21
225.736	6.2
226.121	7.08
226.505	14.27
226.889	4.16
227.273	9.33
227.657	-6.52
228.041	1.13
228.425	6.94
228.809	9.32
229.193	-1.9
229.577	3.99
229.961	2.85
230.344	2.46
230.728	2.69
231.112	2.39
231.495	3.51
231.879	3.81
232.263	2.11
232.646	2.99
233.03	2.1
233.413	1.59
233.797	0.56
234.18	3.53
234.563	5.57
234.946	0.3
235.33	2.25
235.713	1.73
236.096	0.27
236.479	2.92
236.862	3.09
237.245	3.33
237.628	3.27
238.011	4.03
238.394	3.55
238.777	0.89
239.16	4.06
239.543	2.72
239.925	6.15
240.308	1.9
240.691	2.22
241.073	2.58
241.456	3.97
241.838	3.23
242.221	3.24
242.603	2.35
242.986	2.6
243.368	1.68
243.75	2.74
244.133	2.37
244.515	2.92
244.897	2.33
245.279	2.53
245.661	2.91
246.043	2.86
246.425	3.28
246.807	2.68
247.189	2.3
247.571	1.98
247.953	2.47
248.335	2.67
248.717	2.66
249.098	2.69
249.48	2.82
249.862	2.45
250.243	2.67
250.625	2.79
251.006	2.78
251.388	2.55
251.769	3.16
252.151	2.51
252.532	3.48
252.913	2.49
253.295	2.74
253.676	3.57
254.057	2.43
254.438	3.06
254.819	2.64
255.2	3.25
255.581	2.28
255.962	3.09
256.343	3.29
256.724	2.7
257.105	3.3
257.486	3.3
257.867	1.77
258.247	2.97
258.628	2.56
259.009	2.73
259.389	2.79
259.77	3.32
260.15	3.15
260.531	2.76
260.911	2.63
261.292	2.87
261.672	2.68
262.052	2.78
262.432	3.11
262.813	2.61
263.193	2.69
263.573	2.71
263.953	2.79
264.333	2.75
264.713	2.41
265.093	2.91
265.473	4.05
265.853	1.87
266.233	2.39
266.612	2.52
266.992	2.83
267.372	2.67
267.752	3.21
268.131	2.63
268.511	3.07
268.89	3.27
269.27	2.34
269.649	2.64
270.029	2.52
270.408	2.66
270.787	2.99
271.167	2.42
271.546	3
271.925	2.82
272.304	2.77
272.683	2.86
273.062	3.06
273.441	2.33
273.82	2.57
274.199	2.76
274.578	2.85
274.957	2.21
275.336	2.91
275.715	2.45
276.093	3.15
276.472	2.5
276.851	2.79
277.229	2.49
277.608	2.77
277.986	2.82
278.365	2.67
278.743	2.58
279.122	2.18
279.5	2.5
279.878	2.24
280.257	2.68
280.635	2.74
281.013	2.54
281.391	2.67
281.769	3.69
282.147	2.95
282.525	2.54
282.903	2.51
283.281	2.65
283.659	2.39
284.037	2.51
284.415	2.59
284.792	3.24
285.17	2.86
285.548	2.74
285.925	2.89
286.303	2.77
286.68	2.66
287.058	2.69
287.435	2.87
287.813	2.49
288.19	3.12
288.567	2.88
288.945	2.49
289.322	2.89
289.699	3.03
290.076	2.49
290.453	2.42
290.83	3.23
291.207	2.91
291.584	2.84
291.961	2.75
292.338	3.02
292.715	3.01
293.092	2.9
293.469	3.23
293.845	3.28
294.222	3.76
294.599	3.11
294.975	3.37
295.352	3.26
295.728	3.2
296.105	3.17
296.481	2.68
296.858	3.32
297.234	3.37
297.61	2.85
297.986	2.73
298.363	3.12
298.739	3.22
299.115	3.16
299.491	3.16
299.867	3.06
300.243	2.88
300.619	3.61
300.995	3.37
301.371	3.04
301.746	3.58
302.122	3.15
302.498	3.34
302.874	3.61
303.249	3.21
303.625	3.32
304	2.88
304.376	3.59
304.751	4.21
305.127	3.66
305.502	3.82
305.878	4.22
306.253	3.66
306.628	4.12
307.003	3.98
307.378	4.2
307.754	4.22
308.129	4.41
308.504	4.03
308.879	4.01
309.254	3.66
309.629	4.31
310.003	4.22
310.378	3.14
310.753	3.79
311.128	4.09
311.502	3.99
311.877	4.24
312.252	3.58
312.626	4.13
313.001	4.45
313.375	4.08
313.75	4.66
314.124	4.44
314.498	4.83
314.873	4.22
315.247	4.98
315.621	4.72
315.995	4.26
316.369	4.51
316.743	4.13
317.117	4.84
317.491	5.16
317.865	4.66
318.239	4.7
318.613	4.96
318.987	5.45
319.361	4.65
319.734	4.58
320.108	5.38
320.482	5.1
320.855	4.7
321.229	5.52
321.602	5.05
321.976	4.55
322.349	5.25
322.723	5.24
323.096	5.05
323.469	5.19
323.843	5.17
324.216	4.82
324.589	4.78
324.962	5.57
325.335	5.53
325.708	5.39
326.081	5.1
326.454	5.4
326.827	5.69
327.2	5.37
327.573	5.85
327.945	5.06
328.318	5.55
328.691	5.9
329.063	5.65
329.436	5.57
329.809	5.78
330.181	6.42
330.553	6.07
330.926	5.45
331.298	6.03
331.671	6.08
332.043	5.95
332.415	5.61
332.787	5.8
333.159	6.23
333.532	5.23
333.904	6.02
334.276	5.53
334.648	5.51
335.02	6.46
335.391	5.98
335.763	6.28
336.135	6.3
336.507	6.69
336.879	6.15
337.25	5.98
337.622	6.35
337.993	6.48
338.365	6.29
338.736	6.52
339.108	6.75
339.479	6.19
339.851	5.78
340.222	6.72
340.593	6.18
340.964	6.04
341.336	6.4
341.707	6.4
342.078	6.59
342.449	6.72
342.82	6.63
343.191	6.85
343.562	6.93
343.933	6.41
344.303	6.96
344.674	6.86
345.045	6.76
345.416	6.87
345.786	6.82
346.157	6.47
346.527	6.71
346.898	6.63
347.268	6.95
347.639	6.71
348.009	7.04
348.38	7.08
348.75	7.4
349.12	7.27
349.49	7.17
349.861	7.14
350.231	6.98
350.601	7.13
350.971	7.48
351.341	7.38
351.711	7.14
352.081	6.78
352.45	7
352.82	7.55
353.19	7.29
353.56	7.56
353.929	7.48
354.299	7.59
354.669	7.37
355.038	7.51
355.408	7.26
355.777	7.66
356.147	7.28
356.516	7.82
356.885	7.46
357.254	7.64
357.624	7.83
357.993	7.68
358.362	7.7
358.731	7.44
359.1	7.29
359.469	7.72
359.838	7.91
360.207	7.83
360.576	8.15
360.945	7.83
361.314	8.14
361.682	8.05
362.051	7.79
362.42	7.81
362.788	8
363.157	8.04
363.525	8.15
363.894	8
364.262	8.1
364.631	8.13
364.999	7.91
365.367	8.39
365.735	8.41
366.104	8.14
366.472	8.46
366.84	8.44
367.208	8.2
367.576	8.25
367.944	8.92
368.312	8.56
368.68	8.47
369.048	8.44
369.416	8.13
369.783	8.59
370.151	8.57
370.519	9.15
370.886	8.81
371.254	8.75
371.621	8.78
371.989	8.74
372.356	8.51
372.724	9.01
373.091	8.83
373.458	8.73
373.826	8.88
374.193	8.88
374.56	8.86
374.927	9.14
375.294	9.04
375.661	9.51
376.028	9.3
376.395	9.22
376.762	9.1
377.129	9.25
377.496	9.03
377.863	9.31
378.229	9.19
378.596	9.33
378.963	9.09
379.329	9.37
379.696	9.56
380.062	9.55
380.429	9.78
380.795	9.69
381.161	9.51
381.528	9.73
381.894	9.8
382.26	9.73
382.626	9.73
382.993	9.74
383.359	9.5
383.725	10.01
384.091	9.62
384.457	9.92
384.823	9.48
385.188	9.78
385.554	9.9
385.92	9.78
386.286	9.72
386.651	9.99
387.017	9.85
387.383	10.02
387.748	9.68
388.114	10.14
388.479	10.02
388.845	10.11
389.21	10.36
389.575	10.26
389.94	10.34
390.306	10.38
390.671	10.38
391.036	10.2
391.401	10.3
391.766	10.52
392.131	10.36
392.496	10.36
392.861	10.17
393.226	10.47
393.591	10.35
393.956	10.73
394.32	10.65
394.685	10.93
395.05	10.98
395.414	10.89
395.779	10.51
396.143	10.73
396.508	10.7
396.872	10.85
397.236	10.82
397.601	10.9
397.965	11.16
398.329	10.98
398.694	10.99
399.058	11.16
399.422	11.12
399.786	11.26
400.15	11.16
400.514	11.02
400.878	11.22
401.242	11.28
401.605	11.48
401.969	11.25
402.333	11.28
402.697	11.23
403.06	11.43
403.424	11.39
403.787	11.49
404.151	11.26
404.514	11.39
404.878	11.82
405.241	11.54
405.604	11.55
405.968	11.67
406.331	11.5
406.694	11.6
407.057	11.69
407.42	11.79
407.783	11.61
408.146	11.75
408.509	11.84
408.872	11.92
409.235	12.18
409.598	11.8
409.961	11.92
410.323	12.04
410.686	12.28
411.049	12.26
411.411	11.9
411.774	12.12
412.136	11.96
412.499	12.22
412.861	12.23
413.223	12.26
413.586	12.04
413.948	12.13
414.31	12.4
414.672	12.25
415.035	12.54
415.397	12.39
415.759	12.48
416.121	12.59
416.483	12.37
416.845	12.55
417.206	12.53
417.568	12.56
417.93	12.47
418.292	12.41
418.653	12.37
419.015	12.38
419.377	12.67
419.738	12.53
420.1	12.54
420.461	12.65
420.822	12.48
421.184	12.5
421.545	12.58
421.906	12.57
422.267	12.66
422.629	12.64
422.99	12.56
423.351	12.57
423.712	12.68
424.073	12.86
424.434	12.97
424.795	12.99
425.155	12.93
425.516	12.88
425.877	12.8
426.238	12.86
426.598	12.91
426.959	12.94
427.32	13.1
427.68	13.06
428.041	13.26
428.401	13.2
428.761	13.43
429.122	13.45
429.482	13.63
429.842	13.46
430.202	13.64
430.563	13.76
430.923	13.89
431.283	13.63
431.643	13.94
432.003	13.98
432.363	13.8
432.722	13.77
433.082	13.94
433.442	13.87
433.802	14.07
434.161	13.98
434.521	14
434.881	13.66
435.24	14.04
435.6	13.9
435.959	13.99
436.319	14.07
436.678	14.01
437.037	14.15
437.396	13.98
437.756	14.12
438.115	14.04
438.474	14.31
438.833	14.42
439.192	14.41
439.551	14.2
439.91	14.53
440.269	14.4
440.628	14.53
440.987	14.43
441.345	14.42
441.704	14.36
442.063	14.49
442.421	14.47
442.78	14.53
443.138	14.6
443.497	14.56
443.855	14.66
444.214	14.81
444.572	14.96
444.93	15.04
445.288	15.06
445.647	14.79
446.005	14.97
446.363	14.95
446.721	14.93
447.079	14.93
447.437	14.86
447.795	14.67
448.153	14.8
448.51	14.95
448.868	14.87
449.226	15.03
449.584	15.13
449.941	15.12
450.299	15.14
450.656	15.29
451.014	15.41
451.371	15.39
451.729	15.48
452.086	15.67
452.443	15.78
452.801	15.77
453.158	15.63
453.515	15.7
453.872	15.93
454.229	15.59
454.586	15.72
454.943	15.9
455.3	15.9
455.657	15.89
456.014	15.75
456.371	15.95
456.727	16.02
457.084	16.13
457.441	16.13
457.797	16.32
458.154	16.2
458.51	16.13
458.867	16.53
459.223	16.18
459.58	16.21
459.936	16.33
460.292	16.29
460.648	16.29
461.005	16.41
461.361	16.14
461.717	15.93
462.073	16.27
462.429	16.29
462.785	16.47
463.141	16.53
463.496	16.73
463.852	16.78
464.208	17.02
464.564	16.93
464.919	16.9
465.275	16.92
465.631	16.98
465.986	16.94
466.342	17.02
466.697	16.86
467.052	17.08
467.408	17.15
467.763	17.41
468.118	17.24
468.473	17.2
468.829	17.34
469.184	17.37
469.539	17.31
469.894	17.42
470.249	17.46
470.603	17.47
470.958	17.57
471.313	17.54
471.668	17.82
472.023	17.86
472.377	17.85
472.732	17.99
473.086	17.97
473.441	17.85
473.795	17.94
474.15	17.78
474.504	18
474.859	18.05
475.213	18
475.567	18.05
475.921	18.19
476.275	18.25
476.63	18.28
476.984	18.25
477.338	18.16
477.692	18.3
478.045	18.1
478.399	18.12
478.753	18.28
479.107	18.24
479.461	18.2
479.814	18.38
480.168	18.51
480.521	18.56
480.875	18.56
481.228	18.72
481.582	18.52
481.935	18.63
482.289	18.65
482.642	18.63
482.995	18.61
483.348	18.43
483.701	18.64
484.055	18.42
484.408	18.22
484.761	18.05
485.114	17.71
485.466	17.55
485.819	17.68
486.172	17.93
486.525	18.15
486.878	18.31
487.23	18.46
487.583	18.64
487.936	18.61
488.288	18.52
488.641	18.33
488.993	18.23
489.345	18.16
489.698	18.29
490.05	18.4
490.402	18.55
490.754	18.88
491.107	18.93
491.459	19.18
491.811	19.2
492.163	19.19
492.515	19.13
492.866	18.9
493.218	18.63
493.57	18.64
493.922	18.91
494.274	19.21
494.625	19.39
494.977	19.61
495.328	19.67
495.68	19.99
496.031	20.01
496.383	20.14
496.734	20.16
497.086	20.25
497.437	20.31
497.788	20.18
498.139	20.01
498.49	20.01
498.842	20.11
499.193	20.19
499.544	20.15
499.894	20.29
500.245	20.35
500.596	20.45
500.947	20.52
501.298	20.64
501.648	20.82
501.999	20.62
502.35	20.92
502.7	20.86
503.051	21.04
503.401	21.06
503.752	20.93
504.102	21
504.452	20.96
504.803	21.11
505.153	21
505.503	21.2
505.853	21.1
506.203	21.28
506.553	21.15
506.903	21.04
507.253	21.28
507.603	21.46
507.953	21.39
508.303	21.53
508.652	21.38
509.002	21.42
509.352	21.71
509.701	21.49
510.051	21.39
510.4	21.39
510.75	21.42
511.099	21.37
511.449	21.54
511.798	21.53
512.147	21.63
512.496	21.66
512.846	21.65
513.195	21.69
513.544	21.87
513.893	21.76
514.242	21.81
514.591	21.9
514.939	21.95
515.288	22.14
515.637	22.12
515.986	22.17
516.334	22.31
516.683	22.23
517.032	22.42
517.38	22.42
517.729	22.4
518.077	22.44
518.426	22.4
518.774	22.32
519.122	22.31
519.47	22.02
519.819	22.11
520.167	22.07
520.515	22.12
520.863	22.17
521.211	22.37
521.559	22.44
521.907	22.55
522.255	22.75
522.602	22.78
522.95	22.84
523.298	22.87
523.645	23.1
523.993	23.09
524.341	23.13
524.688	23.17
525.036	23.26
525.383	23.11
525.73	23.02
526.078	23.27
526.425	22.98
526.772	22.72
527.119	22.69
527.466	22.7
527.814	22.69
528.161	22.93
528.508	22.99
528.854	23.09
529.201	22.91
529.548	22.78
529.895	22.38
530.242	22.27
530.588	22.43
530.935	22.66
531.282	22.97
531.628	23.06
531.975	23.13
532.321	23.28
532.667	23.38
533.014	23.57
533.36	23.63
533.706	23.45
534.052	23.58
534.399	23.41
534.745	23.1
535.091	23.07
535.437	23.25
535.783	23.53
536.129	23.69
536.474	23.9
536.82	24.03
537.166	24.25
537.512	24.34
537.857	24.21
538.203	23.91
538.549	23.99
538.894	24.07
539.239	24.31
539.585	24.35
539.93	24.56
540.276	24.77
540.621	24.69
540.966	25
541.311	24.71
541.656	24.74
542.001	24.63
542.346	24.51
542.691	23.99
543.036	23.93
543.381	23.91
543.726	24.19
544.071	24.3
544.415	24.53
544.76	24.59
545.105	24.79
545.449	24.73
545.794	25
546.138	25.13
546.483	25.08
546.827	25.44
547.171	25.43
547.516	25.13
547.86	25.35
548.204	25.26
548.548	25.27
548.892	25.37
549.236	25.48
549.58	25.79
549.924	25.86
550.268	25.96
550.612	25.99
550.956	26.22
551.3	26.29
551.643	26.44
551.987	26.14
552.33	26.31
552.674	26.42
553.017	26.46
553.361	26.58
553.704	26.47
554.048	26.46
554.391	26.39
554.734	26.22
555.077	26.57
555.42	26.57
555.764	26.58
556.107	26.81
556.45	26.77
556.793	26.99
557.135	26.96
557.478	27
557.821	27.14
558.164	26.95
558.507	27.07
558.849	27.14
559.192	27.27
559.534	27.26
559.877	27.33
560.219	27.29
560.562	27.43
560.904	27.58
561.246	27.43
561.589	27.37
561.931	27.53
562.273	27.62
562.615	27.61
562.957	27.45
563.299	27.6
563.641	27.56
563.983	27.61
564.325	27.8
564.667	27.85
565.008	27.81
565.35	27.84
565.692	27.85
566.033	27.8
566.375	27.96
566.716	28.04
567.058	27.91
567.399	27.91
567.741	27.96
568.082	27.85
568.423	27.86
568.764	27.95
569.105	28.11
569.447	28.26
569.788	28.3
570.129	28.4
570.47	28.34
570.811	28.54
571.151	28.58
571.492	28.47
571.833	28.47
572.174	28.51
572.514	28.54
572.855	28.54
573.195	28.53
573.536	28.41
573.876	28.44
574.217	28.37
574.557	28.44
574.898	28.48
575.238	28.83
575.578	28.85
575.918	28.69
576.258	28.98
576.598	29
576.938	28.88
577.278	28.92
577.618	29.07
577.958	29.27
578.298	29.32
578.638	29.19
578.977	29.19
579.317	29.44
579.657	29.67
579.996	29.76
580.336	29.72
580.675	29.66
581.014	29.72
581.354	29.87
581.693	29.8
582.032	29.97
582.372	29.9
582.711	29.99
583.05	30.09
583.389	30.16
583.728	30.29
584.067	30.11
584.406	30.31
584.745	30.38
585.083	30.26
585.422	30.53
585.761	30.79
586.1	30.49
586.438	30.3
586.777	30.18
587.115	30.66
587.454	30.73
587.792	30.7
588.13	30.69
588.469	30.81
588.807	30.58
589.145	30.94
589.483	30.7
589.821	30.55
590.159	30.67
590.497	30.73
590.835	30.68
591.173	30.78
591.511	30.8
591.849	30.69
592.187	30.91
592.524	30.7
592.862	31.33
593.2	31.22
593.537	30.99
593.875	31.32
594.212	31.1
594.55	31.39
594.887	31.63
595.224	31.48
595.561	31.48
595.899	31.26
596.236	31.28
596.573	31.04
596.91	31.17
597.247	31.3
597.584	30.98
597.921	31.15
598.258	31.23
598.594	31.18
598.931	31.18
599.268	31.46
599.604	31.34
599.941	31.48
600.277	31.5
600.614	31.82
600.95	31.8
601.287	31.9
601.623	31.87
601.959	31.99
602.296	32.07
602.632	31.93
602.968	32.16
603.304	32.25
603.64	32.03
603.976	32.03
604.312	32.07
604.648	32.15
604.984	31.93
605.319	32.03
605.655	31.96
605.991	31.98
606.326	31.89
606.662	31.71
606.998	31.83
607.333	32.22
607.668	32.1
608.004	32.37
608.339	32.85
608.674	32.77
609.01	32.7
609.345	32.72
609.68	32.74
610.015	32.79
610.35	32.83
610.685	32.48
611.02	32.47
611.355	32.45
611.689	32.81
612.024	32.96
612.359	32.68
612.694	32.58
613.028	33.35
613.363	33.15
613.697	33.33
614.032	33.39
614.366	33.18
614.7	33.17
615.035	33.29
615.369	33.4
615.703	33.33
616.037	33.66
616.371	33.38
616.705	33.76
617.039	33.76
617.373	33.32
617.707	33.76
618.041	33.68
618.375	34.13
618.709	33.67
619.042	33.73
619.376	33.56
619.71	33.93
620.043	34.03
620.377	33.84
620.71	33.8
621.043	34.41
621.377	34.12
621.71	34.27
622.043	34.12
622.376	34.35
622.709	34.55
623.043	33.79
623.376	34.4
623.709	34.58
624.041	34.64
624.374	34.49
624.707	34.55
625.04	34.33
625.373	34.68
625.705	34.67
626.038	34.48
626.37	34.02
626.703	34.23
627.035	34.43
627.368	34.49
627.7	34.71
628.032	34.5
628.365	34.65
628.697	34.41
629.029	34.49
629.361	34.72
629.693	34.34
630.025	34.24
630.357	34.97
630.689	34.98
631.021	35.04
631.353	34.86
631.684	35.07
632.016	35.05
632.348	35.1
632.679	35.16
633.011	35.4
633.342	35.01
633.674	35.37
634.005	35.41
634.336	34.88
634.668	35.3
634.999	34.97
635.33	35.21
635.661	35.34
635.992	35.41
636.323	35.37
636.654	35.81
636.985	35.85
637.316	35.57
637.647	35.49
637.977	36.02
638.308	35.7
638.639	35.93
638.969	35.82
639.3	35.67
639.63	35.79
639.961	35.81
640.291	35.98
640.622	35.81
640.952	36.37
641.282	36.1
641.612	36.42
641.943	36.2
642.273	36.45
642.603	35.89
642.933	36.2
643.263	36.05
643.592	36.9
643.922	36.42
644.252	36.21
644.582	36.63
644.911	36.69
645.241	36.81
645.571	36.25
645.9	36.82
646.23	36.73
646.559	36.66
646.888	37.26
647.218	37.09
647.547	37.84
647.876	37
648.205	36.76
648.534	36.85
648.863	37.21
649.192	36.69
649.521	37.07
649.85	36.71
650.179	37.11
650.508	37.15
650.837	36.82
651.165	37.41
651.494	37.51
651.822	36.97
652.151	36.68
652.479	37.3
652.808	37.07
653.136	37.15
653.465	37.16
653.793	37.45
654.121	37.37
654.449	37.52
654.777	37.34
655.105	37.23
655.433	36.72
655.761	37.09
656.089	37.91
656.417	37.58
656.745	37.88
657.073	37.9
657.4	38.08
657.728	37.67
658.056	38.02
658.383	38.01
658.711	38.17
659.038	37.55
659.365	37.74
659.693	37.26
660.02	38.05
660.347	37.33
660.674	37.25
661.001	37.5
661.329	37.15
661.656	38.14
661.982	37.68
662.309	38.08
662.636	37.88
662.963	37.95
663.29	38.21
663.616	38.21
663.943	38.12
664.27	38.45
664.596	39.07
664.923	38.59
665.249	38.56
665.576	38.54
665.902	38.28
666.228	38.57
666.554	38.63
666.881	38.7
667.207	38.45
667.533	38.75
667.859	37.91
668.185	39.26
668.511	38.49
668.837	38.64
669.162	38.46
669.488	38.15
669.814	38.98
670.139	39.21
670.465	38.93
670.791	38.36
671.116	38.44
671.442	38.69
671.767	38.89
672.092	39.07
672.418	38.87
672.743	38.59
673.068	38.98
673.393	38.85
