Data from 001-16_forehead_Reflection__0__74.txt Node

Date: Fri Nov 11 16:42:33 CST 2022
User: ToomeyLab
Spectrometer: FLMS14357
Trigger mode: 0
Integration Time (sec): 1.000000E-2
Scans to average: 100
Electric dark correction enabled: true
Nonlinearity correction enabled: false
Boxcar width: 0
XAxis mode: Wavelengths
Number of Pixels in Spectrum: 2048
>>>>>Begin Spectral Data<<<<<
189.047	-25.35
189.435	-25.35
189.823	-25.35
190.211	-1000.85
190.599	150.38
190.987	5667.8
191.375	59.8
191.763	-61.34
192.151	119.56
192.538	-780.3
192.926	-327.41
193.314	215.63
193.702	-23.18
194.089	-26.69
194.477	-58.9
194.864	1301.33
195.252	139.72
195.639	85.87
196.027	-277.48
196.414	117.67
196.801	-15.69
197.189	-13.09
197.576	53.91
197.963	70.02
198.351	71.68
198.738	53.55
199.125	41.99
199.512	57.73
199.899	3.8
200.286	29.42
200.673	10.7
201.06	-13.09
201.447	65.16
201.833	58.06
202.22	52.26
202.607	27.26
202.994	40.07
203.38	49.62
203.767	34.83
204.154	15.99
204.54	28.51
204.927	46.39
205.313	36.65
205.699	29.43
206.086	18.72
206.472	42.03
206.858	25.09
207.245	49.66
207.631	42.81
208.017	8.57
208.403	30.08
208.789	14.77
209.175	49.76
209.561	29.24
209.947	9.2
210.333	41.27
210.719	28.95
211.105	29.85
211.491	-49.7
211.876	49.36
212.262	-2.25
212.648	10.27
213.034	13.14
213.419	17.45
213.805	13.43
214.19	-14.48
214.576	35.03
214.961	2.49
215.346	13.25
215.732	-24.82
216.117	31.34
216.502	-10.12
216.888	10.98
217.273	15.83
217.658	3.27
218.043	16.44
218.428	16.55
218.813	25.91
219.198	-9.03
219.583	11.65
219.968	2.24
220.353	19.56
220.738	19.27
221.122	14.21
221.507	10.47
221.892	19.75
222.276	14.89
222.661	7.53
223.046	10.89
223.43	14.78
223.815	-3.84
224.199	8.09
224.583	-0.94
224.968	23.03
225.352	5.17
225.736	19.83
226.121	6.18
226.505	9.9
226.889	10.84
227.273	7.11
227.657	1.92
228.041	3.43
228.425	5.48
228.809	7.57
229.193	0.36
229.577	3.03
229.961	3.54
230.344	3.05
230.728	2.52
231.112	3.44
231.495	2.33
231.879	1.58
232.263	2.78
232.646	2.6
233.03	3.22
233.413	2.27
233.797	2.81
234.18	4.13
234.563	1.6
234.946	1.36
235.33	3.43
235.713	3.08
236.096	2.14
236.479	2.71
236.862	3.57
237.245	3.73
237.628	2.76
238.011	2.32
238.394	3.92
238.777	3.41
239.16	3.25
239.543	3.95
239.925	5.45
240.308	3.48
240.691	2.4
241.073	2.77
241.456	2.79
241.838	3.38
242.221	3.56
242.603	2.98
242.986	2.76
243.368	2.94
243.75	2.75
244.133	2.95
244.515	2.9
244.897	2.76
245.279	2.61
245.661	3.08
246.043	2.72
246.425	4.07
246.807	3.03
247.189	2.47
247.571	2.33
247.953	2.99
248.335	3.02
248.717	2.57
249.098	2.9
249.48	2.99
249.862	2.56
250.243	3.09
250.625	3.09
251.006	3.48
251.388	3.57
251.769	3.96
252.151	3.85
252.532	3.18
252.913	2.46
253.295	2.71
253.676	2.92
254.057	2.78
254.438	3.16
254.819	3.22
255.2	3.9
255.581	3.65
255.962	2.89
256.343	3.81
256.724	2.7
257.105	3.8
257.486	3.68
257.867	3.1
258.247	2.9
258.628	3.2
259.009	3.29
259.389	3.03
259.77	4.16
260.15	3.17
260.531	2.83
260.911	2.82
261.292	2.89
261.672	2.73
262.052	2.71
262.432	3.31
262.813	2.89
263.193	2.81
263.573	3.66
263.953	2.69
264.333	3.03
264.713	2.45
265.093	3.13
265.473	3.54
265.853	3.12
266.233	3.46
266.612	2.8
266.992	3.1
267.372	3.57
267.752	3.02
268.131	3.21
268.511	3.03
268.89	3.58
269.27	2.64
269.649	2.94
270.029	2.34
270.408	2.82
270.787	3.29
271.167	2.61
271.546	3.24
271.925	3.04
272.304	2.97
272.683	2.82
273.062	2.95
273.441	2.54
273.82	2.7
274.199	2.85
274.578	3.33
274.957	2.54
275.336	3.08
275.715	3.17
276.093	3.24
276.472	3.09
276.851	3.22
277.229	2.93
277.608	3.11
277.986	2.71
278.365	3.56
278.743	2.99
279.122	2.56
279.5	2.47
279.878	2.71
280.257	3.43
280.635	3.18
281.013	3.41
281.391	3.23
281.769	4.01
282.147	2.91
282.525	2.87
282.903	3.49
283.281	2.73
283.659	2.78
284.037	2.98
284.415	2.96
284.792	2.68
285.17	2.73
285.548	3.37
285.925	3.06
286.303	2.91
286.68	3.01
287.058	2.99
287.435	2.94
287.813	2.8
288.19	3.16
288.567	3.07
288.945	2.46
289.322	3.26
289.699	2.92
290.076	2.87
290.453	3.02
290.83	3.48
291.207	3.2
291.584	3.06
291.961	3.04
292.338	3.31
292.715	3.41
293.092	3.12
293.469	3.72
293.845	3.54
294.222	3.8
294.599	3.69
294.975	3.39
295.352	3.22
295.728	3.64
296.105	3.54
296.481	3.08
296.858	3.4
297.234	3.61
297.61	3.33
297.986	3.05
298.363	3.51
298.739	3.39
299.115	3.39
299.491	3.51
299.867	3.12
300.243	3.65
300.619	3.96
300.995	3.6
301.371	3.1
301.746	3.78
302.122	3.66
302.498	3.64
302.874	3.97
303.249	3.62
303.625	4
304	3.97
304.376	4.05
304.751	4.38
305.127	4.27
305.502	3.92
305.878	4.7
306.253	3.89
306.628	4.47
307.003	4.1
307.378	4.03
307.754	4.37
308.129	4.66
308.504	3.64
308.879	4.31
309.254	4.04
309.629	4.17
310.003	4.67
310.378	3.78
310.753	4.08
311.128	4.6
311.502	4.15
311.877	4.98
312.252	4.25
312.626	4.38
313.001	4.56
313.375	4.64
313.75	5.02
314.124	4.93
314.498	5.27
314.873	4.98
315.247	4.55
315.621	4.79
315.995	4.75
316.369	5.28
316.743	5.08
317.117	4.74
317.491	5.4
317.865	4.98
318.239	5.23
318.613	5.42
318.987	5.23
319.361	5.25
319.734	5.02
320.108	5.67
320.482	4.88
320.855	5.04
321.229	5.72
321.602	5.44
321.976	4.45
322.349	5.48
322.723	5.28
323.096	5.68
323.469	5.94
323.843	5.87
324.216	5.67
324.589	6.31
324.962	5.93
325.335	6.06
325.708	5.59
326.081	5.72
326.454	5.77
326.827	6.05
327.2	5.62
327.573	6.06
327.945	5.86
328.318	6.05
328.691	6.47
329.063	6.29
329.436	6.2
329.809	5.79
330.181	6.5
330.553	6.26
330.926	5.76
331.298	6.26
331.671	5.85
332.043	6.71
332.415	6.05
332.787	6.45
333.159	6.76
333.532	5.64
333.904	6.15
334.276	6.17
334.648	6.08
335.02	6.43
335.391	6.7
335.763	6.02
336.135	6.67
336.507	6.54
336.879	6.52
337.25	6.02
337.622	6.83
337.993	6.37
338.365	6.48
338.736	6.8
339.108	6.7
339.479	6.71
339.851	6.32
340.222	6.23
340.593	6.96
340.964	6.86
341.336	6.44
341.707	6.71
342.078	6.27
342.449	7.29
342.82	7.12
343.191	7.41
343.562	7.42
343.933	6.7
344.303	7.65
344.674	6.96
345.045	6.95
345.416	6.81
345.786	6.72
346.157	6.68
346.527	7.11
346.898	7.21
347.268	7.02
347.639	6.87
348.009	6.98
348.38	7.41
348.75	7.62
349.12	7.26
349.49	7.11
349.861	7.36
350.231	7.62
350.601	7.86
350.971	7.76
351.341	7.16
351.711	7.22
352.081	7
352.45	7.18
352.82	7.76
353.19	7.79
353.56	8.02
353.929	7.94
354.299	7.78
354.669	7.61
355.038	7.82
355.408	7.43
355.777	7.69
356.147	8.11
356.516	7.91
356.885	7.95
357.254	7.86
357.624	7.64
357.993	7.95
358.362	8.05
358.731	8.1
359.1	8.04
359.469	8.09
359.838	8.55
360.207	8.16
360.576	8.32
360.945	8.57
361.314	8.22
361.682	8.06
362.051	8.04
362.42	7.7
362.788	8.02
363.157	8.33
363.525	8.25
363.894	8.18
364.262	8.05
364.631	8.31
364.999	8.3
365.367	8.49
365.735	8.39
366.104	8.26
366.472	8.38
366.84	8.74
367.208	8.36
367.576	8.42
367.944	9.06
368.312	8.58
368.68	8.97
369.048	8.49
369.416	8.78
369.783	8.96
370.151	8.79
370.519	9.16
370.886	8.84
371.254	8.88
371.621	8.85
371.989	8.89
372.356	8.6
372.724	9.34
373.091	9.14
373.458	9.02
373.826	9.28
374.193	9.04
374.56	9.06
374.927	9.34
375.294	9.26
375.661	9.71
376.028	9.18
376.395	9.36
376.762	9.21
377.129	9.4
377.496	9.09
377.863	9.33
378.229	9.39
378.596	9.61
378.963	9.34
379.329	9.6
379.696	9.52
380.062	9.39
380.429	9.63
380.795	9.4
381.161	9.73
381.528	9.49
381.894	9.92
382.26	9.57
382.626	9.62
382.993	9.85
383.359	9.44
383.725	9.9
384.091	9.9
384.457	9.87
384.823	9.96
385.188	9.98
385.554	10.16
385.92	10.08
386.286	9.77
386.651	9.63
387.017	9.92
387.383	10.02
387.748	10.2
388.114	10.35
388.479	10.27
388.845	10.05
389.21	10.31
389.575	10.12
389.94	10.57
390.306	10.36
390.671	10.28
391.036	10.55
391.401	10.34
391.766	10.17
392.131	10.11
392.496	10.62
392.861	10.48
393.226	10.37
393.591	10.56
393.956	10.67
394.32	10.98
394.685	10.72
395.05	10.92
395.414	10.93
395.779	10.75
396.143	10.72
396.508	10.56
396.872	10.77
397.236	10.71
397.601	10.78
397.965	11.09
398.329	10.82
398.694	10.79
399.058	10.91
399.422	11.07
399.786	11.28
400.15	10.89
400.514	10.98
400.878	11.23
401.242	11.4
401.605	11.26
401.969	11.3
402.333	11.38
402.697	11.3
403.06	11.4
403.424	11.13
403.787	11.36
404.151	11.25
404.514	11.15
404.878	11.64
405.241	11.33
405.604	11.44
405.968	11.58
406.331	11.37
406.694	11.68
407.057	11.32
407.42	11.73
407.783	11.52
408.146	11.82
408.509	11.54
408.872	12
409.235	11.86
409.598	11.75
409.961	11.85
410.323	11.92
410.686	11.98
411.049	11.9
411.411	11.74
411.774	11.88
412.136	11.86
412.499	12.07
412.861	12.04
413.223	12.11
413.586	12.01
413.948	12.19
414.31	12.3
414.672	12.12
415.035	12.05
415.397	12.3
415.759	12.41
416.121	12.31
416.483	12.38
416.845	12.46
417.206	12.24
417.568	12.41
417.93	12.35
418.292	12.23
418.653	12.38
419.015	12.28
419.377	12.37
419.738	12.42
420.1	12.31
420.461	12.2
420.822	12.24
421.184	12.31
421.545	12.39
421.906	12.32
422.267	12.53
422.629	12.44
422.99	12.25
423.351	12.37
423.712	12.53
424.073	12.59
424.434	12.62
424.795	12.72
425.155	12.54
425.516	12.65
425.877	12.62
426.238	12.49
426.598	12.76
426.959	12.71
427.32	12.87
427.68	12.96
428.041	13.01
428.401	12.96
428.761	13.1
429.122	13.48
429.482	13.49
429.842	13.38
430.202	13.24
430.563	13.4
430.923	13.5
431.283	13.42
431.643	13.55
432.003	13.68
432.363	13.65
432.722	13.67
433.082	13.46
433.442	13.53
433.802	13.61
434.161	13.71
434.521	13.83
434.881	13.54
435.24	13.84
435.6	13.5
435.959	13.81
436.319	13.72
436.678	13.89
437.037	13.8
437.396	13.8
437.756	13.92
438.115	13.84
438.474	14.04
438.833	13.95
439.192	14.04
439.551	14.16
439.91	14.06
440.269	14.16
440.628	14.2
440.987	14.23
441.345	14.15
441.704	14.08
442.063	14.33
442.421	14.1
442.78	14.28
443.138	14.16
443.497	14.29
443.855	14.39
444.214	14.33
444.572	14.38
444.93	14.58
445.288	14.6
445.647	14.37
446.005	14.56
446.363	14.54
446.721	14.57
447.079	14.64
447.437	14.54
447.795	14.42
448.153	14.51
448.51	14.54
448.868	14.56
449.226	14.68
449.584	14.72
449.941	14.77
450.299	15
450.656	15.03
451.014	15.11
451.371	15.01
451.729	15.06
452.086	15.26
452.443	15.37
452.801	15.28
453.158	15.37
453.515	15.36
453.872	15.29
454.229	15.32
454.586	15.3
454.943	15.37
455.3	15.52
455.657	15.59
456.014	15.3
456.371	15.53
456.727	15.72
457.084	15.47
457.441	15.75
457.797	15.74
458.154	15.88
458.51	15.91
458.867	15.97
459.223	15.86
459.58	15.91
459.936	16.1
460.292	15.84
460.648	15.86
461.005	15.85
461.361	15.65
461.717	15.55
462.073	15.82
462.429	15.98
462.785	15.92
463.141	16.19
463.496	16.18
463.852	16.34
464.208	16.34
464.564	16.39
464.919	16.54
465.275	16.33
465.631	16.49
465.986	16.54
466.342	16.66
466.697	16.72
467.052	16.7
467.408	16.9
467.763	16.7
468.118	16.74
468.473	16.75
468.829	16.91
469.184	16.91
469.539	17.16
469.894	16.97
470.249	16.88
470.603	17
470.958	17.19
471.313	17.18
471.668	17.14
472.023	17.27
472.377	17.19
472.732	17.28
473.086	17.35
473.441	17.27
473.795	17.41
474.15	17.38
474.504	17.46
474.859	17.5
475.213	17.45
475.567	17.6
475.921	17.93
476.275	17.66
476.63	17.88
476.984	17.96
477.338	17.68
477.692	17.9
478.045	17.77
478.399	17.63
478.753	17.81
479.107	17.64
479.461	17.85
479.814	17.92
480.168	17.94
480.521	17.96
480.875	17.98
481.228	18.25
481.582	18.06
481.935	18.12
482.289	18
482.642	18.04
482.995	18.19
483.348	18.04
483.701	18
484.055	17.95
484.408	17.89
484.761	17.6
485.114	17.45
485.466	17.3
485.819	17.37
486.172	17.4
486.525	17.57
486.878	17.66
487.23	17.85
487.583	17.99
487.936	18.13
488.288	18.02
488.641	17.99
488.993	17.84
489.345	17.88
489.698	17.92
490.05	17.86
490.402	18.07
490.754	18.31
491.107	18.43
491.459	18.55
491.811	18.72
492.163	18.79
492.515	18.74
492.866	18.46
493.218	18.25
493.57	18.35
493.922	18.48
494.274	18.66
494.625	18.82
494.977	18.98
495.328	19.16
495.68	19.36
496.031	19.5
496.383	19.66
496.734	19.58
497.086	19.56
497.437	19.62
497.788	19.91
498.139	19.66
498.49	19.51
498.842	19.54
499.193	19.73
499.544	19.76
499.894	19.78
500.245	19.85
500.596	20.05
500.947	19.94
501.298	20.09
501.648	20.13
501.999	20.16
502.35	20.26
502.7	20.41
503.051	20.35
503.401	20.39
503.752	20.36
504.102	20.56
504.452	20.53
504.803	20.66
505.153	20.68
505.503	20.72
505.853	20.7
506.203	20.65
506.553	20.78
506.903	20.67
507.253	20.81
507.603	20.76
507.953	20.84
508.303	20.89
508.652	20.95
509.002	20.84
509.352	21.06
509.701	20.99
510.051	20.95
510.4	20.91
510.75	20.89
511.099	20.91
511.449	21
511.798	20.95
512.147	21.03
512.496	21.22
512.846	21.12
513.195	21.2
513.544	21.17
513.893	21.24
514.242	21.34
514.591	21.34
514.939	21.51
515.288	21.56
515.637	21.55
515.986	21.84
516.334	21.83
516.683	21.77
517.032	21.88
517.38	21.85
517.729	22
518.077	21.88
518.426	21.98
518.774	21.88
519.122	21.98
519.47	21.78
519.819	21.78
520.167	21.77
520.515	21.81
520.863	21.83
521.211	21.89
521.559	21.89
521.907	22.13
522.255	22.25
522.602	22.47
522.95	22.44
523.298	22.37
523.645	22.47
523.993	22.71
524.341	22.71
524.688	22.61
525.036	22.8
525.383	22.77
525.73	22.81
526.078	22.73
526.425	22.67
526.772	22.55
527.119	22.49
527.466	22.44
527.814	22.49
528.161	22.57
528.508	22.56
528.854	22.77
529.201	22.61
529.548	22.55
529.895	22.26
530.242	22.21
530.588	22.23
530.935	22.34
531.282	22.56
531.628	22.58
531.975	22.68
532.321	22.91
532.667	23.09
533.014	23.13
533.36	23.21
533.706	23.31
534.052	23.27
534.399	23.11
534.745	23.06
535.091	22.94
535.437	23.08
535.783	23.08
536.129	23.28
536.474	23.61
536.82	23.52
537.166	23.8
537.512	23.81
537.857	23.82
538.203	23.72
538.549	23.8
538.894	23.8
539.239	23.94
539.585	24.04
539.93	24.31
540.276	24.32
540.621	24.48
540.966	24.48
541.311	24.68
541.656	24.44
542.001	24.4
542.346	24.28
542.691	24.05
543.036	23.88
543.381	23.77
543.726	23.95
544.071	24.05
544.415	24.22
544.76	24.32
545.105	24.51
545.449	24.47
545.794	24.65
546.138	24.88
546.483	25.02
546.827	25.03
547.171	25.07
547.516	24.99
547.86	25.2
548.204	25.04
548.548	25.06
548.892	25.17
549.236	25.27
549.58	25.45
549.924	25.66
550.268	25.8
550.612	25.79
550.956	25.94
551.3	25.95
551.643	26.09
551.987	25.99
552.33	26.21
552.674	26.15
553.017	26.12
553.361	26.33
553.704	26.19
554.048	26.26
554.391	26.27
554.734	26.23
555.077	26.43
555.42	26.4
555.764	26.67
556.107	26.7
556.45	26.49
556.793	26.61
557.135	26.76
557.478	26.62
557.821	26.89
558.164	26.96
558.507	27.02
558.849	27.05
559.192	26.95
559.534	27.09
559.877	27.26
560.219	27.27
560.562	27.31
560.904	27.46
561.246	27.29
561.589	27.42
561.931	27.26
562.273	27.6
562.615	27.43
562.957	27.52
563.299	27.62
563.641	27.68
563.983	27.67
564.325	27.63
564.667	27.88
565.008	27.55
565.35	27.75
565.692	27.9
566.033	28.04
566.375	27.88
566.716	28.22
567.058	28.09
567.399	27.94
567.741	28.08
568.082	28.05
568.423	27.87
568.764	28.03
569.105	28.07
569.447	28.2
569.788	28.29
570.129	28.45
570.47	28.26
570.811	28.2
571.151	28.51
571.492	28.53
571.833	28.64
572.174	28.59
572.514	28.65
572.855	28.69
573.195	28.57
573.536	28.61
573.876	28.72
574.217	28.64
574.557	28.56
574.898	28.79
575.238	28.88
575.578	28.8
575.918	28.82
576.258	29
576.598	29.01
576.938	29.09
577.278	29.07
577.618	29.24
577.958	29.4
578.298	29.33
578.638	29.34
578.977	29.54
579.317	29.41
579.657	29.78
579.996	29.81
580.336	29.71
580.675	29.9
581.014	29.88
581.354	29.91
581.693	29.96
582.032	30.32
582.372	30.25
582.711	30.53
583.05	30.3
583.389	30.2
583.728	30.34
584.067	30.2
584.406	30.44
584.745	30.61
585.083	30.68
585.422	30.41
585.761	30.87
586.1	30.49
586.438	30.82
586.777	30.7
587.115	30.9
587.454	30.81
587.792	30.88
588.13	31.11
588.469	31.1
588.807	30.9
589.145	31.23
589.483	31.12
589.821	30.99
590.159	31.23
590.497	31.29
590.835	31.05
591.173	31.17
591.511	31.31
591.849	31.26
592.187	31.31
592.524	31.06
592.862	31.49
593.2	31.52
593.537	31.26
593.875	31.59
594.212	31.7
594.55	31.76
594.887	32.2
595.224	32.04
595.561	31.81
595.899	31.69
596.236	31.79
596.573	31.77
596.91	31.64
597.247	31.65
597.584	31.8
597.921	31.92
598.258	31.78
598.594	31.54
598.931	31.82
599.268	31.87
599.604	32.25
599.941	32.07
600.277	31.94
600.614	32.26
600.95	32.27
601.287	32.43
601.623	32.73
601.959	32.59
602.296	32.48
602.632	32.81
602.968	32.83
603.304	32.86
603.64	32.97
603.976	32.79
604.312	32.97
604.648	32.7
604.984	32.8
605.319	32.89
605.655	32.94
605.991	32.79
606.326	32.77
606.662	32.63
606.998	32.57
607.333	33
607.668	32.87
608.004	33.12
608.339	33.24
608.674	33.25
609.01	33.79
609.345	33.52
609.68	33.5
610.015	33.63
610.35	33.44
610.685	33.72
611.02	33.6
611.355	33.38
611.689	33.6
612.024	33.55
612.359	33.55
612.694	33.58
613.028	33.7
613.363	34.03
613.697	34.19
614.032	34.18
614.366	33.88
614.7	34.16
615.035	34.56
615.369	34.47
615.703	34.29
616.037	34.53
616.371	34.3
616.705	34.67
617.039	34.61
617.373	34.83
617.707	34.53
618.041	34.75
618.375	34.72
618.709	34.38
619.042	34.88
619.376	34.8
619.71	34.91
620.043	35.12
620.377	34.94
620.71	35.11
621.043	35.14
621.377	34.92
621.71	35.17
622.043	35.21
622.376	35.2
622.709	35.25
623.043	35.17
623.376	35.31
623.709	35.35
624.041	35.39
624.374	35.46
624.707	35.68
625.04	35.6
625.373	35.73
625.705	35.19
626.038	35.9
626.37	35.44
626.703	35.54
627.035	35.33
627.368	35.76
627.7	36.2
628.032	36.11
628.365	35.78
628.697	36.05
629.029	35.77
629.361	36.16
629.693	35.86
630.025	35.67
630.357	36.06
630.689	36.31
631.021	36.01
631.353	36.15
631.684	36.22
632.016	36.48
632.348	36.48
632.679	36.51
633.011	36.42
633.342	35.99
633.674	36.73
634.005	36.85
634.336	36.71
634.668	36.74
634.999	36.63
635.33	36.42
635.661	36.43
635.992	36.41
636.323	37.09
636.654	37.04
636.985	36.96
637.316	37.15
637.647	37.15
637.977	36.83
638.308	36.87
638.639	37.29
638.969	36.97
639.3	37.1
639.63	37.36
639.961	37.27
640.291	37.67
640.622	37.33
640.952	37.02
641.282	37.41
641.612	37.67
641.943	37.66
642.273	37.68
642.603	37.31
642.933	38.18
643.263	37.46
643.592	37.79
643.922	37.81
644.252	37.85
644.582	38.2
644.911	37.9
645.241	38.79
645.571	38.18
645.9	38.01
646.23	38.09
646.559	37.6
646.888	38.37
647.218	38.36
647.547	38.85
647.876	38.42
648.205	38.29
648.534	38.37
648.863	38.49
649.192	38.4
649.521	38.79
649.85	38.25
650.179	38.19
650.508	38.82
650.837	39.16
651.165	39
651.494	39.16
651.822	38.14
652.151	38.87
652.479	38.66
652.808	39.21
653.136	38.68
653.465	39.13
653.793	38.88
654.121	38.92
654.449	39.2
654.777	39.41
655.105	39.14
655.433	39.04
655.761	39.06
656.089	39.41
656.417	39.5
656.745	39.13
657.073	39.1
657.4	39.73
657.728	39.11
658.056	39.33
658.383	39.93
658.711	39.84
659.038	40.04
659.365	39.81
659.693	39.81
660.02	39.54
660.347	39.28
660.674	39.5
661.001	39.48
661.329	39.26
661.656	39.55
661.982	40.04
662.309	40.07
662.636	40.02
662.963	40
663.29	39.93
663.616	39.95
663.943	40.26
664.27	40.37
664.596	40.15
664.923	40.73
665.249	40.36
665.576	39.99
665.902	40.25
666.228	40.22
666.554	40.5
666.881	40.56
667.207	40
667.533	40.8
667.859	40.33
668.185	41.66
668.511	41.02
668.837	41.11
669.162	40.4
669.488	40.76
669.814	40.47
670.139	41.48
670.465	40.68
670.791	40.61
671.116	41.19
671.442	40.74
671.767	40.82
672.092	41.24
672.418	40.86
672.743	40.71
673.068	41.01
673.393	41.19
