Data from 001-16_crown_Reflection__4__73.txt Node

Date: Fri Nov 11 16:41:56 CST 2022
User: ToomeyLab
Spectrometer: FLMS14357
Trigger mode: 0
Integration Time (sec): 1.000000E-2
Scans to average: 100
Electric dark correction enabled: true
Nonlinearity correction enabled: false
Boxcar width: 0
XAxis mode: Wavelengths
Number of Pixels in Spectrum: 2048
>>>>>Begin Spectral Data<<<<<
189.047	16.98
189.435	16.98
189.823	16.98
190.211	39.79
190.599	119.3
190.987	-2078.81
191.375	157.59
191.763	-67.46
192.151	141.4
192.538	-186.45
192.926	286.29
193.314	40.43
193.702	-112.01
194.089	44.47
194.477	-37.57
194.864	2748.67
195.252	94.23
195.639	15.57
196.027	-416.53
196.414	79.57
196.801	1924.51
197.189	3.65
197.576	-28.83
197.963	71.57
198.351	28.65
198.738	-109.19
199.125	1.1
199.512	22.18
199.899	4.62
200.286	14.69
200.673	-2.45
201.06	-0.89
201.447	29.89
201.833	49.41
202.22	17.73
202.607	35.31
202.994	2.86
203.38	15.86
203.767	3.09
204.154	-75.7
204.54	19.64
204.927	-1.66
205.313	44.17
205.699	19.08
206.086	2.83
206.472	41.08
206.858	6.76
207.245	-24.24
207.631	8.05
208.017	15.69
208.403	18.56
208.789	-95.64
209.175	-1.2
209.561	32.98
209.947	11.92
210.333	3.29
210.719	15.89
211.105	6.95
211.491	-62.45
211.876	13.31
212.262	-25.22
212.648	5.12
213.034	13.33
213.419	-13.97
213.805	20.2
214.19	-31.4
214.576	12.13
214.961	-15.22
215.346	-26.62
215.732	-22.4
216.117	23.98
216.502	-15.69
216.888	-12.91
217.273	-2.7
217.658	-35.5
218.043	-16.51
218.428	0.16
218.813	8.79
219.198	-19.94
219.583	10.57
219.968	0.14
220.353	-8.48
220.738	-3.56
221.122	-10.97
221.507	16.76
221.892	16.96
222.276	-9.66
222.661	7.49
223.046	11.37
223.43	4.98
223.815	0.8
224.199	13.59
224.583	-14.39
224.968	19.47
225.352	-10.04
225.736	7.4
226.121	2.57
226.505	-4.56
226.889	5.18
227.273	-0.39
227.657	-3.1
228.041	-2.42
228.425	6.63
228.809	4.22
229.193	-0.53
229.577	2.66
229.961	0.01
230.344	0.69
230.728	1.4
231.112	0.77
231.495	0.87
231.879	-0.38
232.263	-0.01
232.646	-0.13
233.03	-0.11
233.413	-0.35
233.797	1.2
234.18	0.28
234.563	2.44
234.946	1.12
235.33	2.09
235.713	1.43
236.096	-1.58
236.479	0.15
236.862	1.48
237.245	1.58
237.628	1.61
238.011	0.66
238.394	3.01
238.777	1.67
239.16	3.09
239.543	1.82
239.925	2.9
240.308	0.09
240.691	0.56
241.073	0.57
241.456	-0.75
241.838	2.1
242.221	1.02
242.603	-0.09
242.986	0.68
243.368	0.73
243.75	1.26
244.133	0.74
244.515	1.07
244.897	0.58
245.279	1.24
245.661	0.55
246.043	1.59
246.425	1.74
246.807	1.19
247.189	0.76
247.571	-0.19
247.953	1.03
248.335	1.27
248.717	1.12
249.098	0.92
249.48	1.16
249.862	1.11
250.243	1.04
250.625	0.82
251.006	1.34
251.388	1.84
251.769	1.15
252.151	0.93
252.532	1.6
252.913	0.64
253.295	0.58
253.676	1.08
254.057	0.71
254.438	1.47
254.819	1.1
255.2	1.93
255.581	0.86
255.962	1.17
256.343	1.44
256.724	-0.11
257.105	1.06
257.486	0.92
257.867	1.02
258.247	1.83
258.628	0.99
259.009	0.8
259.389	1.55
259.77	1.67
260.15	1.42
260.531	0.68
260.911	0.79
261.292	0.99
261.672	1.06
262.052	1.11
262.432	1.71
262.813	0.97
263.193	0.69
263.573	1.27
263.953	1.28
264.333	1.29
264.713	0.74
265.093	1.83
265.473	2.05
265.853	0.81
266.233	1.25
266.612	0.37
266.992	0.33
267.372	0.52
267.752	1.14
268.131	1.14
268.511	1.19
268.89	1.23
269.27	1.08
269.649	1.04
270.029	1.03
270.408	0.75
270.787	1.39
271.167	0.91
271.546	0.72
271.925	1.35
272.304	1.6
272.683	0.95
273.062	1.16
273.441	0.73
273.82	0.99
274.199	1.31
274.578	1.18
274.957	0.69
275.336	1.39
275.715	0.86
276.093	1.55
276.472	1.61
276.851	0.7
277.229	0.99
277.608	1.41
277.986	1.1
278.365	1.4
278.743	0.84
279.122	0.75
279.5	0.41
279.878	1.01
280.257	1.64
280.635	0.83
281.013	1.28
281.391	0.92
281.769	1.52
282.147	1.11
282.525	0.92
282.903	1.38
283.281	0.64
283.659	0.81
284.037	0.91
284.415	1.47
284.792	1.37
285.17	0.93
285.548	1.07
285.925	1.1
286.303	0.91
286.68	0.95
287.058	1.32
287.435	1.05
287.813	1.18
288.19	1.46
288.567	1.22
288.945	0.72
289.322	0.74
289.699	1.49
290.076	0.81
290.453	0.98
290.83	1.48
291.207	1.22
291.584	1.05
291.961	0.8
292.338	1.15
292.715	0.71
293.092	0.67
293.469	1.16
293.845	1.78
294.222	1.98
294.599	1.39
294.975	0.93
295.352	0.9
295.728	1.39
296.105	1.24
296.481	0.85
296.858	1.42
297.234	0.84
297.61	0.84
297.986	0.82
298.363	1.42
298.739	1.36
299.115	1.11
299.491	1.22
299.867	1.06
300.243	0.93
300.619	1.47
300.995	0.97
301.371	0.73
301.746	1.48
302.122	1.27
302.498	0.73
302.874	1.22
303.249	1.3
303.625	1.16
304	1.53
304.376	1.24
304.751	1.81
305.127	1.28
305.502	1.39
305.878	1.56
306.253	1.64
306.628	1.33
307.003	1.5
307.378	1.59
307.754	1.63
308.129	1.64
308.504	1.16
308.879	1.42
309.254	0.98
309.629	0.95
310.003	1.11
310.378	1.14
310.753	0.95
311.128	1.57
311.502	0.76
311.877	1.3
312.252	1.28
312.626	1.18
313.001	1.39
313.375	1.31
313.75	1.45
314.124	1.36
314.498	1.67
314.873	1.22
315.247	1.61
315.621	1.34
315.995	1.38
316.369	1.32
316.743	1.7
317.117	1.4
317.491	1.88
317.865	1.54
318.239	1.67
318.613	1.43
318.987	1.63
319.361	1.52
319.734	1.24
320.108	1.55
320.482	1.04
320.855	1.27
321.229	2.03
321.602	1.32
321.976	0.87
322.349	1.29
322.723	1.34
323.096	1.88
323.469	1.31
323.843	2.01
324.216	1.17
324.589	1.51
324.962	1.45
325.335	1.64
325.708	1.7
326.081	1.14
326.454	1.76
326.827	1.69
327.2	1.42
327.573	2.19
327.945	1.56
328.318	1.52
328.691	2.01
329.063	1.73
329.436	1.81
329.809	1.31
330.181	2.39
330.553	1.87
330.926	1.32
331.298	1.1
331.671	1.58
332.043	1.41
332.415	1.28
332.787	1.51
333.159	1.54
333.532	1.41
333.904	1.39
334.276	1.32
334.648	1.46
335.02	2
335.391	1.59
335.763	1.92
336.135	1.74
336.507	1.81
336.879	1.48
337.25	1.01
337.622	1.61
337.993	1.56
338.365	1.93
338.736	1.77
339.108	1.62
339.479	1.8
339.851	1.17
340.222	1.66
340.593	0.91
340.964	1.23
341.336	1.57
341.707	1.44
342.078	1.39
342.449	2.08
342.82	1.41
343.191	1.82
343.562	1.75
343.933	1.21
344.303	2.12
344.674	1.91
345.045	1.32
345.416	1.34
345.786	1.65
346.157	1.28
346.527	1.56
346.898	1.48
347.268	1.76
347.639	1.79
348.009	1.44
348.38	1.91
348.75	1.96
349.12	1.61
349.49	1.54
349.861	1.61
350.231	1.66
350.601	2.01
350.971	1.78
351.341	1.74
351.711	1.5
352.081	1.07
352.45	1.12
352.82	1.5
353.19	1.32
353.56	1.71
353.929	1.36
354.299	1.44
354.669	1.8
355.038	1.65
355.408	1.38
355.777	1.8
356.147	1.38
356.516	1.93
356.885	1.5
357.254	1.35
357.624	1.66
357.993	1.7
358.362	2.07
358.731	1.49
359.1	1.32
359.469	1.75
359.838	1.68
360.207	1.89
360.576	1.79
360.945	2.02
361.314	2.01
361.682	1.67
362.051	1.6
362.42	1.31
362.788	1.45
363.157	1.54
363.525	1.76
363.894	1.64
364.262	1.34
364.631	1.57
364.999	1.39
365.367	1.58
365.735	1.76
366.104	1.62
366.472	1.59
366.84	1.92
367.208	1.66
367.576	1.73
367.944	2.01
368.312	1.77
368.68	1.94
369.048	1.78
369.416	1.59
369.783	1.36
370.151	1.76
370.519	2.05
370.886	1.78
371.254	1.46
371.621	1.92
371.989	1.26
372.356	1.58
372.724	1.79
373.091	1.67
373.458	1.63
373.826	2.02
374.193	1.95
374.56	1.63
374.927	1.47
375.294	1.39
375.661	2.03
376.028	1.57
376.395	2.09
376.762	1.57
377.129	1.75
377.496	1.76
377.863	1.7
378.229	1.84
378.596	1.7
378.963	1.53
379.329	1.47
379.696	1.71
380.062	1.81
380.429	1.83
380.795	1.52
381.161	1.94
381.528	1.83
381.894	2.1
382.26	1.89
382.626	1.69
382.993	2.09
383.359	1.8
383.725	1.91
384.091	1.58
384.457	1.81
384.823	1.48
385.188	1.66
385.554	1.77
385.92	1.47
386.286	1.66
386.651	1.74
387.017	1.82
387.383	1.82
387.748	1.75
388.114	1.89
388.479	1.92
388.845	1.9
389.21	1.83
389.575	1.69
389.94	1.94
390.306	1.37
390.671	1.66
391.036	1.53
391.401	1.65
391.766	1.88
392.131	1.61
392.496	1.8
392.861	1.64
393.226	1.68
393.591	1.72
393.956	1.89
394.32	1.89
394.685	1.92
395.05	1.85
395.414	1.73
395.779	1.78
396.143	1.84
396.508	1.82
396.872	1.81
397.236	1.72
397.601	1.56
397.965	1.81
398.329	1.87
398.694	1.74
399.058	1.73
399.422	2.04
399.786	1.98
400.15	1.8
400.514	1.59
400.878	1.89
401.242	1.56
401.605	1.75
401.969	2.1
402.333	2.06
402.697	1.57
403.06	1.87
403.424	1.72
403.787	1.95
404.151	1.68
404.514	1.59
404.878	1.97
405.241	1.79
405.604	1.8
405.968	1.83
406.331	1.69
406.694	1.78
407.057	1.98
407.42	1.97
407.783	1.98
408.146	1.99
408.509	1.8
408.872	1.93
409.235	1.97
409.598	1.85
409.961	1.76
410.323	1.69
410.686	1.98
411.049	2.12
411.411	1.93
411.774	1.74
412.136	1.9
412.499	1.85
412.861	1.7
413.223	1.87
413.586	1.79
413.948	1.86
414.31	1.92
414.672	2.02
415.035	1.94
415.397	1.93
415.759	1.91
416.121	1.93
416.483	1.96
416.845	1.69
417.206	1.88
417.568	2.08
417.93	1.82
418.292	1.74
418.653	1.77
419.015	1.89
419.377	1.96
419.738	1.9
420.1	1.89
420.461	1.76
420.822	1.74
421.184	1.72
421.545	1.73
421.906	1.75
422.267	1.82
422.629	1.88
422.99	1.83
423.351	1.79
423.712	1.82
424.073	1.9
424.434	1.79
424.795	1.93
425.155	1.83
425.516	1.84
425.877	1.84
426.238	1.79
426.598	1.85
426.959	1.8
427.32	1.84
427.68	1.93
428.041	1.93
428.401	1.81
428.761	1.82
429.122	1.99
429.482	1.89
429.842	1.9
430.202	1.7
430.563	1.87
430.923	1.96
431.283	2.01
431.643	2.02
432.003	2.03
432.363	2.01
432.722	1.97
433.082	1.8
433.442	1.91
433.802	1.98
434.161	1.87
434.521	2.01
434.881	1.9
435.24	1.99
435.6	1.83
435.959	1.92
436.319	1.84
436.678	1.87
437.037	1.8
437.396	1.76
437.756	1.91
438.115	1.89
438.474	1.76
438.833	1.79
439.192	1.97
439.551	1.81
439.91	1.96
440.269	1.96
440.628	1.99
440.987	1.91
441.345	1.88
441.704	1.81
442.063	1.86
442.421	1.82
442.78	1.8
443.138	1.87
443.497	1.89
443.855	1.85
444.214	1.77
444.572	2.06
444.93	1.93
445.288	1.94
445.647	1.8
446.005	1.96
446.363	1.98
446.721	1.75
447.079	1.95
447.437	1.88
447.795	1.74
448.153	1.87
448.51	1.88
448.868	1.83
449.226	1.85
449.584	1.91
449.941	1.84
450.299	1.92
450.656	1.87
451.014	2.02
451.371	1.79
451.729	1.83
452.086	1.94
452.443	2.05
452.801	1.86
453.158	1.88
453.515	1.75
453.872	1.98
454.229	1.86
454.586	2.04
454.943	1.93
455.3	1.89
455.657	2.04
456.014	1.74
456.371	1.82
456.727	1.93
457.084	1.9
457.441	1.96
457.797	1.87
458.154	1.74
458.51	1.94
458.867	2.03
459.223	1.94
459.58	1.86
459.936	1.92
460.292	1.9
460.648	1.88
461.005	1.99
461.361	1.95
461.717	1.85
462.073	1.91
462.429	1.9
462.785	1.9
463.141	2.02
463.496	1.96
463.852	1.92
464.208	1.99
464.564	1.96
464.919	1.87
465.275	1.81
465.631	2.04
465.986	2.02
466.342	1.99
466.697	1.96
467.052	1.95
467.408	1.96
467.763	1.99
468.118	1.95
468.473	1.93
468.829	1.98
469.184	2.05
469.539	2.04
469.894	1.85
470.249	2
470.603	1.84
470.958	2.16
471.313	1.98
471.668	1.9
472.023	2.03
472.377	2.15
472.732	2.08
473.086	1.92
473.441	2.02
473.795	1.97
474.15	1.96
474.504	2.05
474.859	1.98
475.213	1.93
475.567	2.1
475.921	2.05
476.275	1.96
476.63	1.96
476.984	2.09
477.338	2.04
477.692	2.05
478.045	1.99
478.399	1.99
478.753	2.04
479.107	1.97
479.461	1.99
479.814	1.88
480.168	2.09
480.521	1.98
480.875	2.02
481.228	1.86
481.582	2.03
481.935	2.09
482.289	2.09
482.642	1.88
482.995	1.98
483.348	1.85
483.701	1.98
484.055	1.93
484.408	1.93
484.761	1.9
485.114	1.86
485.466	1.78
485.819	1.83
486.172	1.83
486.525	1.87
486.878	1.87
487.23	1.91
487.583	1.93
487.936	1.91
488.288	1.93
488.641	1.95
488.993	1.9
489.345	1.83
489.698	1.86
490.05	1.81
490.402	1.9
490.754	1.93
491.107	1.95
491.459	1.97
491.811	1.86
492.163	1.98
492.515	1.91
492.866	1.82
493.218	1.85
493.57	1.85
493.922	1.88
494.274	1.93
494.625	1.91
494.977	1.95
495.328	1.85
495.68	1.94
496.031	2.07
496.383	2.03
496.734	2.02
497.086	2.03
497.437	1.94
497.788	2.11
498.139	2.04
498.49	1.99
498.842	1.98
499.193	1.95
499.544	1.99
499.894	2.08
500.245	1.96
500.596	2.05
500.947	2.01
501.298	2.14
501.648	2.02
501.999	2.11
502.35	1.97
502.7	2.01
503.051	1.99
503.401	2.03
503.752	2.02
504.102	1.99
504.452	1.95
504.803	2.09
505.153	2.04
505.503	2.08
505.853	2.11
506.203	2.17
506.553	2.11
506.903	2.01
507.253	2.13
507.603	2.12
507.953	2.12
508.303	1.94
508.652	2
509.002	2.06
509.352	2.09
509.701	2.12
510.051	2.03
510.4	2.05
510.75	1.98
511.099	1.94
511.449	2
511.798	2.07
512.147	2.11
512.496	2.13
512.846	2
513.195	2.04
513.544	2.13
513.893	2.04
514.242	2.12
514.591	2.01
514.939	2.06
515.288	2.15
515.637	2.04
515.986	2.12
516.334	2.14
516.683	2.17
517.032	2.03
517.38	2.04
517.729	2.05
518.077	1.97
518.426	2.25
518.774	2
519.122	2.06
519.47	1.95
519.819	2.02
520.167	1.96
520.515	2
520.863	2.07
521.211	2.06
521.559	2.07
521.907	2.12
522.255	2.11
522.602	2.07
522.95	2.08
523.298	2.05
523.645	2.06
523.993	2.09
524.341	2.1
524.688	2.09
525.036	2.08
525.383	2.16
525.73	1.97
526.078	2.03
526.425	2.05
526.772	2.01
527.119	2.01
527.466	1.99
527.814	1.94
528.161	1.97
528.508	2.01
528.854	2.01
529.201	2.01
529.548	2.04
529.895	1.95
530.242	1.91
530.588	1.92
530.935	1.91
531.282	1.99
531.628	1.96
531.975	1.97
532.321	1.96
532.667	2.03
533.014	2.07
533.36	2.05
533.706	2.04
534.052	2.01
534.399	1.97
534.745	1.99
535.091	1.97
535.437	1.98
535.783	1.98
536.129	2
536.474	2.04
536.82	1.97
537.166	2.03
537.512	2.05
537.857	2
538.203	1.99
538.549	1.95
538.894	2.07
539.239	2.06
539.585	2.01
539.93	2.07
540.276	1.99
540.621	2.02
540.966	2.18
541.311	2.2
541.656	1.98
542.001	2.12
542.346	2.03
542.691	1.98
543.036	2
543.381	1.96
543.726	2
544.071	1.99
544.415	2.04
544.76	1.97
545.105	2.17
545.449	2.06
545.794	2.05
546.138	2.09
546.483	2.11
546.827	2.07
547.171	2.09
547.516	1.93
547.86	2.03
548.204	2.05
548.548	2.02
548.892	2.1
549.236	2.1
549.58	2.15
549.924	2.07
550.268	2.21
550.612	2.09
550.956	2.1
551.3	2.19
551.643	2.26
551.987	2.1
552.33	2.07
552.674	2.09
553.017	2.11
553.361	2.21
553.704	2.12
554.048	2.18
554.391	2.12
554.734	2.16
555.077	2.22
555.42	2.06
555.764	2.12
556.107	2.1
556.45	1.92
556.793	2.24
557.135	2.25
557.478	2.04
557.821	2.26
558.164	2.13
558.507	2.2
558.849	2.16
559.192	2.35
559.534	2.14
559.877	2.29
560.219	2.1
560.562	2.04
560.904	2.17
561.246	2.11
561.589	2.21
561.931	2.28
562.273	2.06
562.615	2.04
562.957	2.14
563.299	2.24
563.641	2
563.983	2.09
564.325	2.02
564.667	2.21
565.008	2.02
565.35	2.13
565.692	2.07
566.033	2.23
566.375	2.14
566.716	2.27
567.058	1.92
567.399	2.18
567.741	2.22
568.082	2.14
568.423	2.22
568.764	2.15
569.105	2.3
569.447	2.1
569.788	2.04
570.129	2.22
570.47	2.09
570.811	2.26
571.151	2.19
571.492	2.24
571.833	2.3
572.174	2.22
572.514	2.33
572.855	1.99
573.195	2.09
573.536	2.15
573.876	2.18
574.217	2.19
574.557	2.01
574.898	2.21
575.238	2.18
575.578	2.09
575.918	2.28
576.258	2.21
576.598	2.15
576.938	2.13
577.278	2.33
577.618	2.22
577.958	2.28
578.298	2.32
578.638	2.23
578.977	2.16
579.317	2.15
579.657	2.24
579.996	2.2
580.336	2.19
580.675	2
581.014	2.32
581.354	2.15
581.693	2.2
582.032	2.49
582.372	2.41
582.711	2.27
583.05	2.38
583.389	2.26
583.728	2.1
584.067	2.21
584.406	2.2
584.745	2.3
585.083	2.25
585.422	2.26
585.761	2.44
586.1	2.15
586.438	2.27
586.777	2.35
587.115	2.35
587.454	2.35
587.792	2.51
588.13	2.34
588.469	2.3
588.807	2.2
589.145	2.32
589.483	2.27
589.821	2.11
590.159	2.35
590.497	2.32
590.835	2.08
591.173	2.24
591.511	2.37
591.849	2.35
592.187	2.24
592.524	2.2
592.862	2.54
593.2	2.35
593.537	2.01
593.875	2.26
594.212	2.25
594.55	2.43
594.887	2.38
595.224	2.07
595.561	2.23
595.899	2.31
596.236	2.36
596.573	2.09
596.91	2.34
597.247	2.13
597.584	2.15
597.921	2.14
598.258	2.13
598.594	2.29
598.931	2.3
599.268	2.21
599.604	2.37
599.941	2.25
600.277	2.06
600.614	2.35
600.95	2.29
601.287	2.45
601.623	2.25
601.959	2.18
602.296	2.16
602.632	2.31
602.968	2.16
603.304	2.37
603.64	2.2
603.976	2.22
604.312	2.2
604.648	2.07
604.984	2.5
605.319	2.22
605.655	2.22
605.991	2.16
606.326	2.19
606.662	2.22
606.998	2.39
607.333	2.37
607.668	2.31
608.004	2.36
608.339	2.54
608.674	2.47
609.01	1.98
609.345	2.25
609.68	2.44
610.015	2.23
610.35	2.59
610.685	2.22
611.02	2.58
611.355	2.14
611.689	2.42
612.024	2.26
612.359	2.08
612.694	2.3
613.028	2.22
613.363	2.27
613.697	2.44
614.032	2.36
614.366	2.05
614.7	2.36
615.035	2.27
615.369	2.56
615.703	2.28
616.037	2.38
616.371	2.39
616.705	2.28
617.039	2.4
617.373	2.53
617.707	2.38
618.041	1.98
618.375	2.65
618.709	2.41
619.042	2.58
619.376	2.37
619.71	2.31
620.043	2.57
620.377	2.34
620.71	2.34
621.043	2.43
621.377	2.4
621.71	2.62
622.043	2.11
622.376	2.5
622.709	2.53
623.043	2.1
623.376	2.44
623.709	2.46
624.041	2.23
624.374	2.65
624.707	2.57
625.04	2.45
625.373	2.42
625.705	2.31
626.038	2.14
626.37	2.39
626.703	2.23
627.035	2.36
627.368	2.34
627.7	2.24
628.032	2.25
628.365	2.7
628.697	2.63
629.029	2.56
629.361	2.31
629.693	2.24
630.025	2.08
630.357	2.2
630.689	2.33
631.021	2.18
631.353	2.16
631.684	2.41
632.016	2.5
632.348	2.15
632.679	2.21
633.011	2.3
633.342	2.45
633.674	2.34
634.005	2.65
634.336	2.28
634.668	2.43
634.999	2.03
635.33	2.26
635.661	2.74
635.992	2.3
636.323	2.68
636.654	2.8
636.985	2.88
637.316	2.73
637.647	2.38
637.977	2.36
638.308	2.28
638.639	2.49
638.969	2.98
639.3	2.41
639.63	2.62
639.961	2.23
640.291	2.4
640.622	2.55
640.952	2.53
641.282	2.67
641.612	2.66
641.943	2.19
642.273	2.62
642.603	2.48
642.933	2.42
643.263	2.02
643.592	2.79
643.922	1.98
644.252	2.29
644.582	2.48
644.911	2.22
645.241	2.97
645.571	2.67
645.9	2.67
646.23	2.27
646.559	2.58
646.888	2.73
647.218	2.05
647.547	2.58
647.876	1.99
648.205	2.74
648.534	2.55
648.863	2.55
649.192	2.71
649.521	2.5
649.85	2.47
650.179	2.37
650.508	2.75
650.837	2.88
651.165	2.69
651.494	2.7
651.822	2.52
652.151	2.42
652.479	2.41
652.808	2.67
653.136	2.64
653.465	2.59
653.793	2.83
654.121	2.84
654.449	2.65
654.777	2.67
655.105	2.49
655.433	2.04
655.761	2.41
656.089	2.49
656.417	2.7
656.745	2.43
657.073	2.51
657.4	2.3
657.728	2.93
658.056	2.06
658.383	2.49
658.711	2.76
659.038	2.54
659.365	2.22
659.693	2.3
660.02	2.77
660.347	2.79
660.674	2.29
661.001	2.35
661.329	2.47
661.656	2.58
661.982	2.86
662.309	2.71
662.636	2.54
662.963	2.19
663.29	2.9
663.616	2.85
663.943	2.7
664.27	2.63
664.596	3.1
664.923	2.93
665.249	2.55
665.576	2.53
665.902	2.27
666.228	3.1
666.554	2.18
666.881	3
667.207	2.2
667.533	3.09
667.859	2.33
668.185	3.01
668.511	3.09
668.837	3
669.162	2.82
669.488	2.36
669.814	2.58
670.139	3.02
670.465	2.89
670.791	2.24
671.116	2.35
671.442	2.55
671.767	2.49
672.092	2.69
672.418	2.37
672.743	2.92
673.068	2.78
673.393	2.33
673.718	2.63
674.043	2.63
674.368	2.38
674.693	3.17
675.018	2.5
675.343	2.92
675.667	2.47
675.992	2.36
676.317	3.03
676.641	2.76
676.966	2.39
677.29	2.24
677.615	3.06
677.939	2.86
678.264	2.72
678.588	3.37
678.912	3.24
679.236	2.59
679.56	2.69
679.885	3.15
680.209	2.82
680.532	2.43
680.856	2.94
681.18	3.06
681.504	2.97
681.828	2.15
682.152	2.9
682.475	2.43
682.799	2.49
683.122	2.55
683.446	2.55
683.769	3.15
684.093	2.46
684.416	2.96
684.739	2.94
685.062	2.51
685.386	2.54
685.709	3
686.032	2.93
686.355	2.18
686.678	3.17
687.001	3.47
687.324	2.9
687.646	2.72
687.969	2.34
688.292	2.72
688.614	2.72
688.937	2.48
689.26	2.61
689.582	2.91
689.904	2.65
690.227	3.06
690.549	2.56
690.871	2.94
691.194	2.69
691.516	3.59
691.838	2.71
692.16	2.46
692.482	2.65
