Data from 0415_crown_Reflection__4__24.txt Node

Date: Fri Dec 15 16:36:55 CST 2023
User: ToomeyLab
Spectrometer: FLMS14357
Trigger mode: 0
Integration Time (sec): 1.000000E-2
Scans to average: 100
Electric dark correction enabled: true
Nonlinearity correction enabled: false
Boxcar width: 0
XAxis mode: Wavelengths
Number of Pixels in Spectrum: 2048
>>>>>Begin Spectral Data<<<<<
189.047	-899.73
189.435	-899.73
189.823	-899.73
190.211	119.87
190.599	219.7
190.987	82.12
191.375	91.1
191.763	-93.3
192.151	-85.31
192.538	85.52
192.926	-195.67
193.314	-731.18
193.702	70.36
194.089	167.25
194.477	-42.57
194.864	-106.08
195.252	42.52
195.639	159.41
196.027	-198.65
196.414	192.09
196.801	45.58
197.189	-267.34
197.576	105.42
197.963	-79.68
198.351	10.92
198.738	5.68
199.125	7.93
199.512	3.28
199.899	7.82
200.286	5.32
200.673	33.19
201.06	15.38
201.447	31.15
201.833	-3.83
202.22	50.96
202.607	32.63
202.994	25.97
203.38	31.93
203.767	44.89
204.154	36.07
204.54	34.27
204.927	-43.31
205.313	-6.35
205.699	33.1
206.086	53.18
206.472	30.33
206.858	86.58
207.245	-0.63
207.631	43.54
208.017	-0.57
208.403	22.23
208.789	58.54
209.175	41.26
209.561	-9.89
209.947	15.42
210.333	-65.36
210.719	39.13
211.105	9.96
211.491	-7.79
211.876	12.12
212.262	21.83
212.648	48.14
213.034	19.43
213.419	28.09
213.805	-9.14
214.19	10.69
214.576	37.98
214.961	-20.69
215.346	-40.26
215.732	-15.58
216.117	33.38
216.502	-18.87
216.888	17.89
217.273	20.28
217.658	-11.45
218.043	16.69
218.428	-35.72
218.813	-9.55
219.198	12.11
219.583	25.76
219.968	39.82
220.353	-11.11
220.738	32.1
221.122	13.65
221.507	-14.02
221.892	-38.91
222.276	-0.86
222.661	4.3
223.046	18.52
223.43	6.69
223.815	24.25
224.199	-0.2
224.583	5.84
224.968	6.4
225.352	11.57
225.736	-6.62
226.121	-3.37
226.505	10.12
226.889	10.51
227.273	6.94
227.657	3.48
228.041	2.55
228.425	6.71
228.809	5.84
229.193	5.49
229.577	4.05
229.961	3.79
230.344	3.76
230.728	2.51
231.112	3.61
231.495	3.21
231.879	2.03
232.263	3.59
232.646	3.21
233.03	3.08
233.413	3.33
233.797	4.65
234.18	2.88
234.563	2.75
234.946	2.89
235.33	1.75
235.713	3.53
236.096	5.94
236.479	3.97
236.862	1.63
237.245	4.99
237.628	5.2
238.011	2.54
238.394	5.22
238.777	2.59
239.16	2.07
239.543	4.81
239.925	5.39
240.308	2.65
240.691	5.69
241.073	2.15
241.456	2.8
241.838	2.96
242.221	2.47
242.603	4.39
242.986	2.33
243.368	2.87
243.75	3.49
244.133	2.96
244.515	3.52
244.897	3.46
245.279	3.23
245.661	2.69
246.043	2.25
246.425	1.98
246.807	3.73
247.189	4.06
247.571	2.9
247.953	2.83
248.335	2.64
248.717	3.13
249.098	2.82
249.48	2.89
249.862	2.85
250.243	2.86
250.625	3.15
251.006	3.86
251.388	2.32
251.769	3.56
252.151	3.27
252.532	3.17
252.913	2.54
253.295	1.99
253.676	2.68
254.057	2.77
254.438	2.55
254.819	1.69
255.2	1.7
255.581	2.94
255.962	1.96
256.343	3.6
256.724	1.71
257.105	2.21
257.486	3.2
257.867	4.63
258.247	3.71
258.628	2.95
259.009	2.7
259.389	2.95
259.77	3.19
260.15	2.18
260.531	2.2
260.911	3.43
261.292	2.69
261.672	2.83
262.052	2.62
262.432	2.97
262.813	2.74
263.193	1.99
263.573	2.55
263.953	2.2
264.333	3.38
264.713	2.91
265.093	2.61
265.473	2.61
265.853	1.63
266.233	4.25
266.612	1.29
266.992	1.45
267.372	3
267.752	3.23
268.131	2.85
268.511	3.08
268.89	2.9
269.27	2.92
269.649	2.56
270.029	2.71
270.408	4.18
270.787	3.29
271.167	4.45
271.546	3.27
271.925	2.36
272.304	2.82
272.683	2.47
273.062	2.58
273.441	2.85
273.82	2.05
274.199	2.65
274.578	2.79
274.957	2.71
275.336	3.28
275.715	2.69
276.093	2.68
276.472	3.09
276.851	2.16
277.229	2.42
277.608	2.27
277.986	3.36
278.365	3.15
278.743	2.87
279.122	2.13
279.5	2.55
279.878	3.37
280.257	2.92
280.635	2.57
281.013	2.76
281.391	3.76
281.769	3.17
282.147	2.94
282.525	3.19
282.903	2.56
283.281	3.6
283.659	3.79
284.037	3.74
284.415	2.89
284.792	3.06
285.17	1.72
285.548	2.38
285.925	2.61
286.303	2.93
286.68	2.56
287.058	2.44
287.435	2.82
287.813	3.06
288.19	2.56
288.567	2.47
288.945	3.6
289.322	2.39
289.699	2.67
290.076	2.63
290.453	3.04
290.83	2.59
291.207	2.3
291.584	3.16
291.961	2.93
292.338	3
292.715	3.29
293.092	2.85
293.469	2.78
293.845	3.33
294.222	2.44
294.599	2.11
294.975	2.18
295.352	3.24
295.728	2.62
296.105	2.22
296.481	3.08
296.858	2.98
297.234	2.91
297.61	2.71
297.986	2.84
298.363	2.96
298.739	3.33
299.115	2.71
299.491	2.66
299.867	2.87
300.243	3.01
300.619	2.34
300.995	2.94
301.371	3.07
301.746	2.4
302.122	3.01
302.498	2.52
302.874	3.32
303.249	2.84
303.625	2.71
304	3.2
304.376	2.79
304.751	1.9
305.127	3.22
305.502	2.37
305.878	2.24
306.253	2.59
306.628	3.8
307.003	2.87
307.378	3.32
307.754	3.1
308.129	2.65
308.504	2.88
308.879	2.49
309.254	4.06
309.629	2.75
310.003	2.73
310.378	3.42
310.753	3.45
311.128	2.77
311.502	3.18
311.877	3.45
312.252	2.36
312.626	2.67
313.001	2.9
313.375	3.23
313.75	2.27
314.124	3.45
314.498	3.13
314.873	3.08
315.247	2.76
315.621	3.01
315.995	2.26
316.369	2.78
316.743	2.84
317.117	3.26
317.491	2.51
317.865	2.58
318.239	2.29
318.613	2.82
318.987	3.02
319.361	2.68
319.734	3.47
320.108	2.49
320.482	2.31
320.855	3.28
321.229	2.64
321.602	2.63
321.976	3.3
322.349	2.99
322.723	2.99
323.096	3.05
323.469	2.21
323.843	2.68
324.216	3.72
324.589	3.08
324.962	2.98
325.335	2.83
325.708	2.26
326.081	3.01
326.454	2.85
326.827	2.81
327.2	2.54
327.573	3.34
327.945	2.78
328.318	2.15
328.691	2.43
329.063	2.45
329.436	2.9
329.809	3.2
330.181	2.32
330.553	3.6
330.926	2.68
331.298	3.11
331.671	2.64
332.043	4.01
332.415	3.56
332.787	2.77
333.159	3.32
333.532	3.01
333.904	3.4
334.276	3.28
334.648	2.58
335.02	2.82
335.391	2.8
335.763	2.23
336.135	2.93
336.507	3.32
336.879	2.23
337.25	2.4
337.622	2.89
337.993	2.78
338.365	2.81
338.736	3.08
339.108	2.85
339.479	2.81
339.851	2.2
340.222	2.31
340.593	2.5
340.964	2.56
341.336	3.43
341.707	2.39
342.078	3.39
342.449	2.84
342.82	2.69
343.191	2.97
343.562	3.38
343.933	3.12
344.303	3.1
344.674	2.5
345.045	2.79
345.416	2.92
345.786	2.33
346.157	3.07
346.527	2.56
346.898	2.89
347.268	2.94
347.639	3.08
348.009	2.71
348.38	2.61
348.75	2.73
349.12	2.76
349.49	3.29
349.861	3.21
350.231	3.12
350.601	3.15
350.971	3.11
351.341	2.83
351.711	2.91
352.081	2.81
352.45	2.8
352.82	3.23
353.19	2.59
353.56	2.91
353.929	2.92
354.299	2.97
354.669	2.96
355.038	2.77
355.408	3.03
355.777	2.56
356.147	2.64
356.516	2.93
356.885	3.13
357.254	3.28
357.624	3.39
357.993	3.05
358.362	2.43
358.731	2.89
359.1	2.83
359.469	3.15
359.838	3.05
360.207	2.48
360.576	2.6
360.945	2.88
361.314	3.24
361.682	2.84
362.051	2.65
362.42	2.91
362.788	2.5
363.157	2.94
363.525	2.99
363.894	2.93
364.262	2.94
364.631	2.63
364.999	3.19
365.367	2.43
365.735	3.93
366.104	3.19
366.472	3.06
366.84	2.8
367.208	3.17
367.576	3.15
367.944	3.36
368.312	2.8
368.68	3.16
369.048	2.97
369.416	3.1
369.783	2.76
370.151	3.16
370.519	3.2
370.886	3.4
371.254	2.73
371.621	3.25
371.989	3.44
372.356	2.74
372.724	3.15
373.091	2.84
373.458	3.11
373.826	2.85
374.193	2.83
374.56	2.9
374.927	3.49
375.294	3.02
375.661	3.04
376.028	2.83
376.395	2.53
376.762	3.07
377.129	3.07
377.496	3.03
377.863	3.33
378.229	2.3
378.596	3.24
378.963	2.81
379.329	2.78
379.696	3.28
380.062	3.12
380.429	3.08
380.795	2.74
381.161	2.98
381.528	3.33
381.894	2.91
382.26	2.95
382.626	3.02
382.993	2.88
383.359	3.02
383.725	3.1
384.091	3.12
384.457	3.44
384.823	3.11
385.188	2.97
385.554	3.13
385.92	3.16
386.286	3.31
386.651	3.31
387.017	3.24
387.383	3.18
387.748	2.99
388.114	3.1
388.479	2.72
388.845	3.35
389.21	3.39
389.575	3.06
389.94	3.18
390.306	2.88
390.671	3.32
391.036	2.92
391.401	2.74
391.766	3.1
392.131	2.9
392.496	3.13
392.861	2.83
393.226	3.28
393.591	3.19
393.956	2.99
394.32	3
394.685	2.91
395.05	2.8
395.414	3.03
395.779	2.98
396.143	2.83
396.508	3.02
396.872	3.34
397.236	3.09
397.601	3.03
397.965	3.16
398.329	2.96
398.694	3.22
399.058	3.11
399.422	3.09
399.786	3.26
400.15	3.3
400.514	3.09
400.878	3.26
401.242	3.33
401.605	3.09
401.969	3.08
402.333	2.86
402.697	2.94
403.06	3.16
403.424	2.97
403.787	2.89
404.151	3.08
404.514	3.05
404.878	3.29
405.241	3.48
405.604	3.21
405.968	3.1
406.331	3.18
406.694	3.32
407.057	2.96
407.42	3.06
407.783	2.81
408.146	3.12
408.509	2.83
408.872	2.81
409.235	3.12
409.598	3.59
409.961	2.94
410.323	3.28
410.686	3.04
411.049	2.97
411.411	2.94
411.774	3.15
412.136	3.14
412.499	3.25
412.861	3.07
413.223	2.84
413.586	3.24
413.948	3.32
414.31	2.92
414.672	2.83
415.035	3.05
415.397	3.41
415.759	3.14
416.121	3.11
416.483	3.1
416.845	3.12
417.206	2.96
417.568	3.14
417.93	2.83
418.292	3.09
418.653	2.97
419.015	3.03
419.377	3.12
419.738	3.12
420.1	2.98
420.461	3.14
420.822	3.04
421.184	3.1
421.545	3.02
421.906	2.96
422.267	3.07
422.629	3.05
422.99	3.02
423.351	2.91
423.712	3.09
424.073	2.95
424.434	3.01
424.795	2.96
425.155	3.07
425.516	3.08
425.877	3.04
426.238	2.99
426.598	3.14
426.959	3.05
427.32	3.09
427.68	2.83
428.041	3.01
428.401	3.26
428.761	3
429.122	3.28
429.482	2.92
429.842	3.16
430.202	2.99
430.563	3.04
430.923	3.05
431.283	3.28
431.643	2.94
432.003	2.94
432.363	3.35
432.722	2.89
433.082	3.13
433.442	3.27
433.802	3.05
434.161	3.14
434.521	3.35
434.881	3.28
435.24	3.03
435.6	3.11
435.959	3.08
436.319	3.07
436.678	3.04
437.037	3.02
437.396	3.09
437.756	3.18
438.115	3.13
438.474	3.33
438.833	2.97
439.192	3.12
439.551	3.06
439.91	3.03
440.269	3.06
440.628	3.07
440.987	3.21
441.345	2.94
441.704	3.06
442.063	2.89
442.421	2.95
442.78	3.07
443.138	3.08
443.497	3.1
443.855	3.03
444.214	3.24
444.572	3.15
444.93	3.1
445.288	3.09
445.647	3.33
446.005	3.07
446.363	3.2
446.721	3.25
447.079	3.05
447.437	3.18
447.795	3.2
448.153	2.95
448.51	2.95
448.868	3.03
449.226	3.1
449.584	3.01
449.941	3.13
450.299	3.07
450.656	3.15
451.014	2.99
451.371	3.09
451.729	3.05
452.086	3.23
452.443	3.09
452.801	3.33
453.158	3.07
453.515	3.12
453.872	3.18
454.229	3.04
454.586	3.03
454.943	3.18
455.3	3.2
455.657	3.11
456.014	3.06
456.371	3.03
456.727	3.13
457.084	3.12
457.441	3.17
457.797	3.06
458.154	3.27
458.51	3.21
458.867	3.27
459.223	3.04
459.58	3.05
459.936	3.05
460.292	3.23
460.648	3.14
461.005	3.17
461.361	3.19
461.717	3.08
462.073	3.03
462.429	3.1
462.785	3.17
463.141	3.19
463.496	3.13
463.852	3.28
464.208	3.14
464.564	3.03
464.919	3.3
465.275	3.2
465.631	3.34
465.986	3.14
466.342	3.17
466.697	3.19
467.052	3.4
467.408	3.36
467.763	3.11
468.118	3.21
468.473	3.02
468.829	3.21
469.184	3.25
469.539	3.18
469.894	2.98
470.249	3.27
470.603	3.21
470.958	3.38
471.313	3.26
471.668	3.27
472.023	3.12
472.377	3.12
472.732	3.14
473.086	3.17
473.441	3.18
473.795	3.57
474.15	3.25
474.504	3.13
474.859	3.39
475.213	3.02
475.567	3.26
475.921	2.97
476.275	3.28
476.63	3.21
476.984	3.33
477.338	3.49
477.692	3.07
478.045	3.03
478.399	3.17
478.753	3.23
479.107	3.22
479.461	3.18
479.814	3.24
480.168	3.23
480.521	3.21
480.875	3.31
481.228	3.22
481.582	3.23
481.935	3.26
482.289	3.14
482.642	3.2
482.995	3.06
483.348	3.06
483.701	3.13
484.055	3.29
484.408	3.17
484.761	3.09
485.114	3.02
485.466	2.94
485.819	2.91
486.172	2.93
486.525	2.97
486.878	3.06
487.23	3.12
487.583	3.15
487.936	3.08
488.288	3.09
488.641	3.15
488.993	3.02
489.345	2.94
489.698	2.98
490.05	3.02
490.402	3.14
490.754	3.07
491.107	3.21
491.459	3.15
491.811	3.16
492.163	3.3
492.515	3.06
492.866	3.11
493.218	3.09
493.57	3.04
493.922	3.06
494.274	3.14
494.625	3.2
494.977	3.28
495.328	3.31
495.68	3.21
496.031	3.48
496.383	3.19
496.734	3.46
497.086	3.31
497.437	3.24
497.788	3.16
498.139	3.23
498.49	3.29
498.842	3.15
499.193	3.19
499.544	3.21
499.894	3.29
500.245	3.23
500.596	3.31
500.947	3.31
501.298	3.3
501.648	3.39
501.999	3.33
502.35	3.32
502.7	3.28
503.051	3.2
503.401	3.11
503.752	3.27
504.102	3.38
504.452	3.36
504.803	3.31
505.153	3.3
505.503	3.35
505.853	3.3
506.203	3.26
506.553	3.24
506.903	3.24
507.253	3.08
507.603	3.18
507.953	3.41
508.303	3.46
508.652	3.14
509.002	3.38
509.352	3.39
509.701	3.24
510.051	3.25
510.4	3.21
510.75	3.34
511.099	3.25
511.449	3.26
511.798	3.23
512.147	3.32
512.496	3.16
512.846	3.25
513.195	3.14
513.544	3.23
513.893	3.32
514.242	3.36
514.591	3.32
514.939	3.23
515.288	3.15
515.637	3.3
515.986	3.32
516.334	3.38
516.683	3.34
517.032	3.4
517.38	3.37
517.729	3.47
518.077	3.1
518.426	3.34
518.774	3.37
519.122	3.21
519.47	3.25
519.819	3.15
520.167	3.26
520.515	3.25
520.863	3.25
521.211	3.31
521.559	3.31
521.907	3.24
522.255	3.33
522.602	3.27
522.95	3.27
523.298	3.34
523.645	3.42
523.993	3.29
524.341	3.53
524.688	3.51
525.036	3.3
525.383	3.46
525.73	3.5
526.078	3.24
526.425	3.33
526.772	3.31
527.119	3.21
527.466	3.22
527.814	3.29
528.161	3.23
528.508	3.27
528.854	3.27
529.201	3.22
529.548	3.21
529.895	3.17
530.242	3.07
530.588	3.1
530.935	3.16
531.282	3.17
531.628	3.17
531.975	3.28
532.321	3.23
532.667	3.28
533.014	3.31
533.36	3.27
533.706	3.3
534.052	3.32
534.399	3.22
534.745	3.2
535.091	3.22
535.437	3.28
535.783	3.21
536.129	3.29
536.474	3.3
536.82	3.36
537.166	3.4
537.512	3.46
537.857	3.2
538.203	3.37
538.549	3.31
538.894	3.28
539.239	3.3
539.585	3.35
539.93	3.3
540.276	3.47
540.621	3.53
540.966	3.43
541.311	3.38
541.656	3.28
542.001	3.28
542.346	3.4
542.691	3.18
543.036	3.23
543.381	3.17
543.726	3.27
544.071	3.37
544.415	3.4
544.76	3.27
545.105	3.34
545.449	3.35
545.794	3.46
546.138	3.39
546.483	3.42
546.827	3.43
547.171	3.34
547.516	3.44
547.86	3.38
548.204	3.37
548.548	3.32
548.892	3.33
549.236	3.33
549.58	3.43
549.924	3.49
550.268	3.53
550.612	3.55
550.956	3.73
551.3	3.65
551.643	3.6
551.987	3.66
552.33	3.45
552.674	3.62
553.017	3.47
553.361	3.37
553.704	3.76
554.048	3.36
554.391	3.33
554.734	3.4
555.077	3.46
555.42	3.42
555.764	3.57
556.107	3.42
556.45	3.41
556.793	3.48
557.135	3.5
557.478	3.71
557.821	3.63
558.164	3.46
558.507	3.68
558.849	3.58
559.192	3.41
559.534	3.61
559.877	3.84
560.219	3.55
560.562	3.62
560.904	3.71
561.246	3.69
561.589	3.54
561.931	3.44
562.273	3.34
562.615	3.71
562.957	3.43
563.299	3.43
563.641	3.46
563.983	3.5
564.325	3.44
564.667	3.48
565.008	3.55
565.35	3.69
565.692	3.43
566.033	3.45
566.375	3.62
566.716	3.71
567.058	3.35
567.399	3.45
567.741	3.44
568.082	3.52
568.423	3.57
568.764	3.53
569.105	3.58
569.447	3.59
569.788	3.59
570.129	3.72
570.47	3.69
570.811	3.47
571.151	3.63
571.492	3.7
571.833	3.52
572.174	3.68
572.514	3.56
572.855	3.41
573.195	3.67
573.536	3.51
573.876	3.45
574.217	3.5
574.557	3.66
574.898	3.68
575.238	3.54
575.578	3.46
575.918	3.68
576.258	3.65
576.598	3.76
576.938	3.55
577.278	3.55
577.618	3.35
577.958	3.49
578.298	3.69
578.638	3.49
578.977	3.59
579.317	3.51
579.657	3.68
579.996	3.69
580.336	3.68
580.675	3.53
581.014	3.6
581.354	3.79
581.693	3.83
582.032	3.56
582.372	3.45
582.711	3.62
583.05	3.63
583.389	3.79
583.728	3.45
584.067	3.76
584.406	3.76
584.745	3.51
585.083	3.75
585.422	3.7
585.761	3.62
586.1	3.77
586.438	3.67
586.777	3.77
587.115	3.89
587.454	3.71
587.792	3.7
588.13	3.98
588.469	3.51
588.807	3.64
589.145	3.49
589.483	3.78
589.821	3.86
590.159	3.65
590.497	3.99
590.835	3.92
591.173	3.67
591.511	4.07
591.849	3.93
592.187	3.93
592.524	3.91
592.862	3.81
593.2	3.72
593.537	3.64
593.875	3.65
594.212	3.68
594.55	3.79
594.887	3.96
595.224	3.73
595.561	3.72
595.899	3.65
596.236	3.85
596.573	3.87
596.91	3.4
597.247	3.66
597.584	3.79
597.921	3.47
598.258	3.55
598.594	3.63
598.931	3.42
599.268	3.75
599.604	3.77
599.941	4.02
600.277	3.86
600.614	3.76
600.95	3.5
601.287	3.77
601.623	3.54
601.959	3.72
602.296	4.03
602.632	3.83
602.968	3.84
603.304	3.7
603.64	3.66
603.976	3.6
604.312	3.71
604.648	3.74
604.984	4.07
605.319	3.76
605.655	3.64
605.991	3.77
606.326	3.95
606.662	3.81
606.998	3.54
607.333	3.82
607.668	3.88
608.004	3.88
608.339	3.99
608.674	3.96
609.01	3.68
609.345	3.73
609.68	4
610.015	3.78
610.35	3.61
610.685	3.77
611.02	3.74
611.355	3.98
611.689	3.71
612.024	3.8
612.359	3.79
612.694	3.85
613.028	3.61
613.363	4.11
613.697	4.03
614.032	3.93
614.366	3.78
614.7	4.29
615.035	3.8
615.369	3.84
615.703	3.67
616.037	4.03
616.371	3.67
616.705	3.71
617.039	3.97
617.373	3.8
617.707	4.16
618.041	3.62
618.375	3.92
618.709	4
619.042	3.77
619.376	4.09
619.71	3.81
620.043	4.03
620.377	4.17
620.71	4.2
621.043	3.56
621.377	4.01
621.71	4.25
622.043	3.61
622.376	3.71
622.709	4.32
623.043	3.88
623.376	3.92
623.709	4.09
624.041	4.35
624.374	4.03
624.707	4.01
625.04	4.25
625.373	3.48
625.705	3.75
626.038	3.49
626.37	3.62
626.703	4.04
627.035	3.85
627.368	4.33
627.7	3.89
628.032	3.8
628.365	4.08
628.697	4.2
629.029	3.77
629.361	3.64
629.693	4.08
630.025	3.87
630.357	4.19
630.689	3.88
631.021	3.87
631.353	3.83
631.684	3.65
632.016	3.53
632.348	3.98
632.679	3.83
633.011	4.33
633.342	4.5
633.674	3.84
634.005	4.46
634.336	3.83
634.668	4.51
634.999	4.07
635.33	4.16
635.661	4.21
635.992	3.77
636.323	4.11
636.654	4.13
636.985	3.87
637.316	4.23
637.647	3.6
637.977	4.32
638.308	4.43
638.639	3.83
638.969	3.76
639.3	3.99
639.63	3.7
639.961	3.84
640.291	4.22
640.622	4.06
640.952	3.93
641.282	4.78
641.612	4.4
641.943	4.06
642.273	4.33
642.603	4.41
642.933	4.15
643.263	3.99
643.592	4.16
643.922	3.7
644.252	3.71
644.582	4.32
644.911	3.92
645.241	3.9
645.571	3.98
645.9	3.91
646.23	4.41
646.559	3.84
646.888	3.96
647.218	3.7
647.547	4.5
647.876	3.8
648.205	4.18
648.534	4.02
648.863	4.21
649.192	4.31
649.521	3.91
649.85	4.09
650.179	4.1
650.508	3.58
650.837	3.58
651.165	3.76
651.494	4.12
651.822	4.26
652.151	3.8
652.479	4.59
652.808	4.12
653.136	4.01
653.465	3.39
653.793	3.89
654.121	3.74
654.449	4.53
654.777	4.1
655.105	4.19
655.433	3.81
655.761	3.85
656.089	4.2
656.417	4.36
656.745	3.86
657.073	4.12
657.4	5.21
657.728	4.22
658.056	4.14
658.383	4.38
658.711	4.39
659.038	4.29
659.365	4.75
659.693	4.17
660.02	4.55
660.347	4.69
660.674	4.39
661.001	4.56
661.329	3.62
661.656	4.18
661.982	4.5
662.309	4.37
662.636	3.8
662.963	4.81
663.29	4.27
663.616	4.62
663.943	4.04
664.27	3.95
664.596	4.59
664.923	4.33
665.249	4.07
665.576	3.68
665.902	4.96
666.228	4.48
666.554	4.6
666.881	3.67
667.207	4.07
667.533	4.08
667.859	4.82
668.185	4.78
668.511	3.46
668.837	3.18
669.162	4.29
669.488	3.4
669.814	4.05
670.139	4.53
670.465	4.98
670.791	4.35
671.116	4.74
671.442	3.9
671.767	4.13
672.092	4.7
672.418	4.16
672.743	4.52
673.068	3.42
673.393	4.31
673.718	3.99
674.043	4.28
674.368	4.87
674.693	5.4
675.018	3.96
675.343	4.8
675.667	4.13
675.992	4.26
676.317	4.51
676.641	4.85
676.966	4.51
677.29	3.96
677.615	4.6
677.939	4.67
678.264	5.18
678.588	5.12
678.912	4.85
679.236	4.22
679.56	4.07
679.885	4.71
680.209	4.3
680.532	4.31
680.856	5.01
681.18	4.85
681.504	4.16
681.828	4.25
682.152	4.26
682.475	4.31
682.799	4.44
683.122	4.56
683.446	3.94
683.769	4.86
684.093	4.43
684.416	5.06
684.739	4.82
685.062	4.4
685.386	5.52
685.709	3.92
686.032	4.37
686.355	4.44
686.678	4.03
687.001	4.94
687.324	5.27
687.646	3.79
687.969	3.82
688.292	3.85
688.614	4.41
688.937	4.9
689.26	4.81
689.582	4.77
689.904	4.34
690.227	5.05
690.549	4.44
690.871	5.3
691.194	4.82
691.516	4.28
691.838	4.62
692.16	4.49
