Data from 0415_forehead_Reflection__1__26.txt Node

Date: Fri Dec 15 16:37:31 CST 2023
User: ToomeyLab
Spectrometer: FLMS14357
Trigger mode: 0
Integration Time (sec): 1.000000E-2
Scans to average: 100
Electric dark correction enabled: true
Nonlinearity correction enabled: false
Boxcar width: 0
XAxis mode: Wavelengths
Number of Pixels in Spectrum: 2048
>>>>>Begin Spectral Data<<<<<
189.047	-1212.3
189.435	-1212.3
189.823	-1212.3
190.211	-74.95
190.599	-22.42
190.987	92.71
191.375	137.93
191.763	13.81
192.151	-36.02
192.538	94.9
192.926	-149.13
193.314	-410.59
193.702	-5.47
194.089	323.01
194.477	60.78
194.864	-76.74
195.252	18.99
195.639	152.32
196.027	-337.84
196.414	254.26
196.801	-86.33
197.189	-59.66
197.576	84.37
197.963	132.71
198.351	42.74
198.738	-23.65
199.125	21.31
199.512	4.37
199.899	62.16
200.286	59.37
200.673	3.15
201.06	25.06
201.447	40.12
201.833	32.84
202.22	74.44
202.607	75.81
202.994	68.6
203.38	84.63
203.767	70.85
204.154	60.87
204.54	44.1
204.927	0.45
205.313	-0.45
205.699	50.01
206.086	60.72
206.472	46.86
206.858	100.6
207.245	53.76
207.631	34.71
208.017	37.68
208.403	22.24
208.789	54.23
209.175	48.28
209.561	35.07
209.947	38.34
210.333	37.6
210.719	53.99
211.105	49.18
211.491	-3.03
211.876	38.48
212.262	63.19
212.648	17.1
213.034	31.31
213.419	25.54
213.805	61.53
214.19	22.59
214.576	26
214.961	33.18
215.346	49.47
215.732	31.16
216.117	31.57
216.502	-19.62
216.888	37.45
217.273	35.44
217.658	62.87
218.043	32.47
218.428	-21.64
218.813	-9.54
219.198	26.87
219.583	46.9
219.968	21.97
220.353	32.51
220.738	49.06
221.122	26.23
221.507	17.16
221.892	34.79
222.276	-2.33
222.661	23.03
223.046	46.58
223.43	28.72
223.815	16.15
224.199	-0.58
224.583	16.66
224.968	23.73
225.352	28.86
225.736	17.29
226.121	7.99
226.505	14.76
226.889	16.71
227.273	9.96
227.657	17.16
228.041	4.02
228.425	10.53
228.809	6.51
229.193	6.36
229.577	4.78
229.961	8.32
230.344	6.55
230.728	4.77
231.112	5.58
231.495	5.43
231.879	4.66
232.263	8.72
232.646	7.47
233.03	6.55
233.413	4.52
233.797	5.09
234.18	5.61
234.563	9.46
234.946	7.31
235.33	7.57
235.713	7.46
236.096	4.19
236.479	6.52
236.862	6.43
237.245	8.88
237.628	6.97
238.011	7.67
238.394	7.28
238.777	6.96
239.16	5.33
239.543	6.18
239.925	8.87
240.308	8.09
240.691	7.19
241.073	8.88
241.456	6.16
241.838	5.31
242.221	5.27
242.603	6.18
242.986	5.53
243.368	6.26
243.75	5.96
244.133	4.95
244.515	5.98
244.897	5.48
245.279	5.99
245.661	5.94
246.043	4.76
246.425	4.84
246.807	6.51
247.189	6.21
247.571	5.9
247.953	5.91
248.335	5.37
248.717	5.52
249.098	5.21
249.48	5.35
249.862	5.27
250.243	5.53
250.625	5.56
251.006	5.82
251.388	4.81
251.769	6.61
252.151	6
252.532	6.72
252.913	5.4
253.295	5.25
253.676	5.11
254.057	5.71
254.438	5.71
254.819	5.22
255.2	5.54
255.581	6.88
255.962	6.5
256.343	7.21
256.724	5.72
257.105	6.51
257.486	5.62
257.867	6.04
258.247	6.36
258.628	6.63
259.009	5.48
259.389	5.97
259.77	5.65
260.15	5.75
260.531	4.79
260.911	5.94
261.292	5.33
261.672	5.31
262.052	5.33
262.432	5.36
262.813	5.65
263.193	5.87
263.573	5.27
263.953	5.12
264.333	5.89
264.713	5.65
265.093	5.2
265.473	6.03
265.853	4.87
266.233	5.71
266.612	4.05
266.992	4.13
267.372	6.48
267.752	5.63
268.131	5.36
268.511	5.56
268.89	6.16
269.27	5.51
269.649	4.71
270.029	5.04
270.408	6.62
270.787	6.97
271.167	6.42
271.546	6.23
271.925	5.52
272.304	5.1
272.683	5.43
273.062	5.3
273.441	5.65
273.82	4.93
274.199	6.04
274.578	5.53
274.957	5.55
275.336	5.83
275.715	5.09
276.093	5.63
276.472	5.99
276.851	5.23
277.229	5.64
277.608	5.19
277.986	5.98
278.365	5.45
278.743	5.52
279.122	5.29
279.5	5.89
279.878	6.32
280.257	5.6
280.635	5.85
281.013	4.93
281.391	5.99
281.769	6.44
282.147	5.41
282.525	6.11
282.903	5.46
283.281	6.09
283.659	6.24
284.037	5.78
284.415	5.94
284.792	5.78
285.17	4.95
285.548	5.47
285.925	5.59
286.303	5.97
286.68	5.19
287.058	5.74
287.435	5.41
287.813	5.45
288.19	5.46
288.567	5.56
288.945	5.88
289.322	5.71
289.699	5.72
290.076	5.97
290.453	4.96
290.83	5.62
291.207	6.17
291.584	5.95
291.961	6.13
292.338	5.71
292.715	6.78
293.092	6.04
293.469	6.08
293.845	6.45
294.222	5.45
294.599	6.18
294.975	6.39
295.352	6.53
295.728	6.26
296.105	5.65
296.481	6.93
296.858	6.42
297.234	5.97
297.61	6.41
297.986	6.14
298.363	6.81
298.739	7.05
299.115	6.27
299.491	6.2
299.867	6.42
300.243	6.83
300.619	6.74
300.995	6.89
301.371	7.3
301.746	7.08
302.122	7.13
302.498	7.06
302.874	7.35
303.249	7.22
303.625	7.2
304	7.57
304.376	7.27
304.751	6.97
305.127	8.48
305.502	7.39
305.878	7.24
306.253	7.63
306.628	8.24
307.003	8.05
307.378	8.89
307.754	8.12
308.129	7.35
308.504	8.61
308.879	8.24
309.254	8.63
309.629	8.89
310.003	8.84
310.378	9.08
310.753	8.67
311.128	8.64
311.502	8.46
311.877	9.03
312.252	8.75
312.626	8.71
313.001	8.76
313.375	9.45
313.75	8.8
314.124	9.15
314.498	9.11
314.873	9.55
315.247	9.16
315.621	10.07
315.995	9.01
316.369	9.76
316.743	9.48
317.117	10.02
317.491	9.87
317.865	9.85
318.239	10.09
318.613	10.33
318.987	10.77
319.361	10.36
319.734	10.67
320.108	11.23
320.482	10.04
320.855	11.16
321.229	10.52
321.602	10.48
321.976	11.27
322.349	11.31
322.723	10.81
323.096	10.67
323.469	11.21
323.843	11.86
324.216	12.07
324.589	11.11
324.962	11.34
325.335	11.77
325.708	11.49
326.081	11.09
326.454	11.77
326.827	11.03
327.2	12.28
327.573	11.9
327.945	11.53
328.318	11.85
328.691	11.54
329.063	12.38
329.436	12.07
329.809	13.22
330.181	12.01
330.553	12.19
330.926	12.43
331.298	12.34
331.671	12.93
332.043	13.42
332.415	13.09
332.787	12.66
333.159	13.27
333.532	12.81
333.904	12.87
334.276	12.75
334.648	12.87
335.02	13.42
335.391	13.14
335.763	13.21
336.135	13.68
336.507	14.12
336.879	13.13
337.25	12.87
337.622	13.58
337.993	13.49
338.365	14.47
338.736	13.66
339.108	14.2
339.479	14.03
339.851	14.4
340.222	13.96
340.593	14.46
340.964	14.46
341.336	15.15
341.707	14.32
342.078	15.25
342.449	15.03
342.82	14.56
343.191	14.59
343.562	14.92
343.933	14.79
344.303	14.93
344.674	15.3
345.045	15.53
345.416	15.15
345.786	15.03
346.157	15.93
346.527	15.21
346.898	15.28
347.268	15.45
347.639	15.64
348.009	15.65
348.38	15.21
348.75	15.47
349.12	15.7
349.49	16.56
349.861	15.87
350.231	15.51
350.601	16.32
350.971	16.43
351.341	16.22
351.711	16.42
352.081	16.71
352.45	16.69
352.82	17.05
353.19	16.92
353.56	16.53
353.929	16.6
354.299	16.76
354.669	16.84
355.038	17.21
355.408	16.85
355.777	16.99
356.147	16.83
356.516	17.19
356.885	17.24
357.254	17.2
357.624	17.69
357.993	18.01
358.362	17.14
358.731	17.23
359.1	17.58
359.469	17.74
359.838	17.78
360.207	17.32
360.576	17.98
360.945	17.51
361.314	18.26
361.682	17.92
362.051	17.98
362.42	18.35
362.788	18.23
363.157	18.9
363.525	18.48
363.894	18.52
364.262	18.4
364.631	18.55
364.999	19.29
365.367	18.7
365.735	19.21
366.104	18.99
366.472	18.95
366.84	18.68
367.208	19.31
367.576	19.61
367.944	19.65
368.312	19.49
368.68	19.37
369.048	19.42
369.416	19.61
369.783	19.54
370.151	19.75
370.519	20.24
370.886	20.44
371.254	19.79
371.621	19.96
371.989	20.09
372.356	20.08
372.724	20.26
373.091	20.04
373.458	20.66
373.826	20.25
374.193	20.36
374.56	20.89
374.927	20.83
375.294	21.35
375.661	20.83
376.028	20.98
376.395	21.06
376.762	21.5
377.129	21.1
377.496	21.33
377.863	21.24
378.229	21.23
378.596	21.51
378.963	21.67
379.329	21.25
379.696	21.46
380.062	21.87
380.429	21.97
380.795	21.67
381.161	22.03
381.528	22.18
381.894	22.15
382.26	22.09
382.626	22.55
382.993	22.23
383.359	23.09
383.725	22.55
384.091	22.92
384.457	23.09
384.823	22.56
385.188	22.41
385.554	23.03
385.92	23.05
386.286	23.05
386.651	23.21
387.017	23.55
387.383	22.96
387.748	23.12
388.114	23.46
388.479	23.32
388.845	23.57
389.21	23.58
389.575	23.75
389.94	23.67
390.306	23.73
390.671	23.83
391.036	23.71
391.401	23.72
391.766	24.12
392.131	24.24
392.496	24.27
392.861	24.37
393.226	24.31
393.591	24.1
393.956	24.1
394.32	24.32
394.685	24.37
395.05	24.47
395.414	24.68
395.779	24.61
396.143	24.79
396.508	25
396.872	24.99
397.236	25.2
397.601	25.04
397.965	25.3
398.329	25.21
398.694	25.35
399.058	25.62
399.422	25.35
399.786	25.59
400.15	25.51
400.514	25.51
400.878	25.59
401.242	25.74
401.605	26.16
401.969	25.92
402.333	26.05
402.697	26.14
403.06	26.5
403.424	26.33
403.787	26.22
404.151	26.47
404.514	26.17
404.878	26.63
405.241	26.47
405.604	26.72
405.968	26.62
406.331	26.57
406.694	26.85
407.057	26.8
407.42	27.15
407.783	26.97
408.146	27.24
408.509	26.93
408.872	26.93
409.235	27.56
409.598	27.42
409.961	27.25
410.323	27.64
410.686	27.55
411.049	27.55
411.411	27.54
411.774	27.67
412.136	27.9
412.499	27.79
412.861	27.77
413.223	27.94
413.586	27.95
413.948	28.2
414.31	28.31
414.672	28.14
415.035	28.17
415.397	28.7
415.759	28.58
416.121	28.64
416.483	28.56
416.845	28.57
417.206	28.31
417.568	28.79
417.93	28.6
418.292	28.94
418.653	28.93
419.015	29.01
419.377	28.62
419.738	28.93
420.1	28.83
420.461	28.86
420.822	28.96
421.184	28.92
421.545	28.83
421.906	28.92
422.267	29.03
422.629	29.02
422.99	29.06
423.351	29.08
423.712	29.32
424.073	29.18
424.434	29.32
424.795	29.42
425.155	29.51
425.516	29.39
425.877	29.6
426.238	29.7
426.598	29.78
426.959	29.68
427.32	29.81
427.68	29.96
428.041	30.29
428.401	30.23
428.761	30.21
429.122	30.39
429.482	30.38
429.842	30.72
430.202	30.64
430.563	30.92
430.923	31.04
431.283	30.89
431.643	30.87
432.003	30.78
432.363	30.8
432.722	30.96
433.082	31.17
433.442	31.49
433.802	31.31
434.161	31.25
434.521	31.54
434.881	31.53
435.24	31.48
435.6	31.54
435.959	31.63
436.319	31.56
436.678	31.74
437.037	31.81
437.396	31.81
437.756	31.86
438.115	32.05
438.474	32.07
438.833	31.96
439.192	32.39
439.551	32.67
439.91	32.54
440.269	32.13
440.628	32.21
440.987	32.42
441.345	32.14
441.704	32.76
442.063	32.54
442.421	32.69
442.78	32.71
443.138	32.79
443.497	32.61
443.855	32.67
444.214	32.74
444.572	33.33
444.93	33.03
445.288	33.11
445.647	33.34
446.005	33.29
446.363	33.35
446.721	33.32
447.079	33.29
447.437	33.5
447.795	33.46
448.153	33.33
448.51	33.27
448.868	33.38
449.226	33.57
449.584	33.62
449.941	33.55
450.299	33.79
450.656	33.78
451.014	33.95
451.371	34.1
451.729	34.26
452.086	34.45
452.443	34.29
452.801	34.43
453.158	34.75
453.515	34.58
453.872	34.83
454.229	34.54
454.586	34.84
454.943	34.96
455.3	34.72
455.657	35.04
456.014	34.87
456.371	35.19
456.727	35.28
457.084	35.58
457.441	35.36
457.797	35.37
458.154	35.51
458.51	35.84
458.867	35.79
459.223	35.97
459.58	35.87
459.936	35.73
460.292	35.82
460.648	35.81
461.005	35.59
461.361	35.8
461.717	35.74
462.073	35.67
462.429	35.8
462.785	35.89
463.141	36.07
463.496	36.13
463.852	36.43
464.208	36.47
464.564	36.55
464.919	36.35
465.275	36.64
465.631	37
465.986	36.76
466.342	36.83
466.697	36.8
467.052	36.98
467.408	37.27
467.763	37.09
468.118	37.3
468.473	37.3
468.829	37.65
469.184	37.47
469.539	37.41
469.894	37.35
470.249	37.56
470.603	37.79
470.958	37.48
471.313	38.12
471.668	37.83
472.023	37.72
472.377	37.78
472.732	37.88
473.086	37.91
473.441	37.77
473.795	38.33
474.15	38.1
474.504	38.61
474.859	38.18
475.213	38.5
475.567	38.53
475.921	38.39
476.275	38.56
476.63	38.52
476.984	38.78
477.338	39.02
477.692	38.66
478.045	38.76
478.399	39.03
478.753	39.02
479.107	39.09
479.461	38.97
479.814	39.12
480.168	38.96
480.521	39.11
480.875	39.17
481.228	39.26
481.582	39.26
481.935	39.17
482.289	39.36
482.642	39.44
482.995	39.44
483.348	39.22
483.701	39.42
484.055	39.42
484.408	39.24
484.761	38.81
485.114	38.89
485.466	38.55
485.819	38.83
486.172	38.8
486.525	38.6
486.878	38.47
487.23	38.83
487.583	39.22
487.936	39.31
488.288	39.55
488.641	39.46
488.993	39.32
489.345	39.3
489.698	39.18
490.05	39.3
490.402	39.51
490.754	39.56
491.107	39.91
491.459	39.95
491.811	40.12
492.163	40.34
492.515	40.55
492.866	40.24
493.218	40.27
493.57	40.28
493.922	40.07
494.274	40.1
494.625	40.32
494.977	40.62
495.328	41.05
495.68	41.07
496.031	41.62
496.383	41.48
496.734	41.6
497.086	41.85
497.437	41.7
497.788	41.83
498.139	41.77
498.49	41.99
498.842	41.85
499.193	41.95
499.544	41.76
499.894	41.94
500.245	41.91
500.596	42.1
500.947	42.23
501.298	42.26
501.648	42.41
501.999	42.54
502.35	42.71
502.7	42.68
503.051	42.47
503.401	42.94
503.752	43.1
504.102	42.89
504.452	43.19
504.803	43.29
505.153	43.13
505.503	43.08
505.853	43.2
506.203	43.27
506.553	43.23
506.903	43.52
507.253	43.17
507.603	43.42
507.953	43.6
508.303	43.84
508.652	43.66
509.002	43.88
509.352	43.79
509.701	43.64
510.051	43.7
510.4	43.77
510.75	43.83
511.099	43.88
511.449	43.84
511.798	43.79
512.147	43.74
512.496	43.97
512.846	44.19
513.195	44
513.544	44.03
513.893	44.45
514.242	44.41
514.591	44.23
514.939	44.3
515.288	44.46
515.637	44.47
515.986	44.4
516.334	44.75
516.683	44.81
517.032	44.96
517.38	44.76
517.729	44.92
518.077	44.84
518.426	45.09
518.774	45.1
519.122	45.11
519.47	44.91
519.819	44.87
520.167	44.88
520.515	44.87
520.863	44.88
521.211	44.83
521.559	44.9
521.907	45.04
522.255	45.19
522.602	45.31
522.95	45.46
523.298	45.67
523.645	45.75
523.993	45.63
524.341	45.83
524.688	46.28
525.036	46.09
525.383	45.94
525.73	46.24
526.078	46.14
526.425	46.12
526.772	46.15
527.119	46.01
527.466	45.8
527.814	45.83
528.161	45.76
528.508	45.86
528.854	45.6
529.201	45.65
529.548	45.96
529.895	45.65
530.242	45.62
530.588	45.75
530.935	45.75
531.282	45.32
531.628	45.41
531.975	45.69
532.321	45.96
532.667	46.32
533.014	46.47
533.36	46.55
533.706	46.62
534.052	46.85
534.399	46.64
534.745	46.61
535.091	46.42
535.437	46.62
535.783	46.5
536.129	46.59
536.474	46.79
536.82	47.24
537.166	47.04
537.512	47.18
537.857	47.41
538.203	47.58
538.549	47.4
538.894	47.51
539.239	47.55
539.585	47.57
539.93	47.59
540.276	47.8
540.621	47.97
540.966	48.28
541.311	48.17
541.656	47.78
542.001	48.28
542.346	48.15
542.691	47.94
543.036	47.6
543.381	47.73
543.726	47.63
544.071	47.61
544.415	47.72
544.76	47.92
545.105	48.02
545.449	48.25
545.794	48.31
546.138	48.58
546.483	48.67
546.827	48.68
547.171	48.66
547.516	48.93
547.86	48.95
548.204	49.36
548.548	49.07
548.892	49.12
549.236	48.98
549.58	49.07
549.924	49.18
550.268	49.25
550.612	49.83
550.956	49.71
551.3	49.76
551.643	50.13
551.987	50.07
552.33	50.16
552.674	50.61
553.017	50.36
553.361	49.93
553.704	50.34
554.048	50.58
554.391	50.44
554.734	50.35
555.077	50.06
555.42	50.14
555.764	50.39
556.107	50.32
556.45	50.17
556.793	50.55
557.135	50.66
557.478	50.91
557.821	50.76
558.164	50.9
558.507	51.04
558.849	50.84
559.192	51.25
559.534	51.4
559.877	51.23
560.219	51.24
560.562	51.7
560.904	51.79
561.246	51.71
561.589	51.82
561.931	51.95
562.273	51.36
562.615	51.64
562.957	51.63
563.299	51.42
563.641	51.57
563.983	51.75
564.325	51.75
564.667	51.88
565.008	52.02
565.35	51.76
565.692	51.75
566.033	52.01
566.375	52.15
566.716	52.11
567.058	51.92
567.399	51.94
567.741	51.87
568.082	51.96
568.423	52.15
568.764	52.27
569.105	52.06
569.447	52.18
569.788	52.07
570.129	52.2
570.47	52.18
570.811	52.41
571.151	52.41
571.492	52.68
571.833	52.77
572.174	52.56
572.514	52.69
572.855	52.48
573.195	52.83
573.536	52.68
573.876	52.57
574.217	52.58
574.557	52.71
574.898	52.75
575.238	53.03
575.578	52.97
575.918	52.8
576.258	53
576.598	52.98
576.938	53.1
577.278	53.19
577.618	53.21
577.958	53.02
578.298	53
578.638	53.35
578.977	53.36
579.317	53.65
579.657	53.73
579.996	53.77
580.336	53.8
580.675	54.2
581.014	53.77
581.354	53.82
581.693	53.88
582.032	54.19
582.372	54.2
582.711	54.4
583.05	54.14
583.389	54.32
583.728	54.5
584.067	54.16
584.406	54.31
584.745	54.61
585.083	54.33
585.422	54.64
585.761	54.2
586.1	54.7
586.438	54.28
586.777	54.74
587.115	54.73
587.454	54.64
587.792	54.71
588.13	54.87
588.469	54.84
588.807	54.76
589.145	54.98
589.483	54.92
589.821	54.88
590.159	54.95
590.497	55.17
590.835	55.28
591.173	54.99
591.511	55.35
591.849	55
592.187	55.12
592.524	55.69
592.862	55.45
593.2	55.26
593.537	55.54
593.875	55.42
594.212	55.18
594.55	55.63
594.887	55.66
595.224	55.13
595.561	55.39
595.899	55.33
596.236	55.89
596.573	55.74
596.91	55.57
597.247	55.92
597.584	55.75
597.921	55.94
598.258	55.52
598.594	55.81
598.931	55.44
599.268	55.57
599.604	55.88
599.941	55.52
600.277	55.38
600.614	56.16
600.95	55.94
601.287	56.46
601.623	56.18
601.959	56.03
602.296	56.31
602.632	56.99
602.968	56.16
603.304	56.21
603.64	56.47
603.976	56.49
604.312	56.61
604.648	56.5
604.984	56.14
605.319	56.22
605.655	56.58
605.991	56.8
606.326	56.75
606.662	56.49
606.998	56.55
607.333	56.77
607.668	56.78
608.004	56.65
608.339	56.43
608.674	56.95
609.01	56.79
609.345	56.56
609.68	57.25
610.015	57.31
610.35	57.33
610.685	57.16
611.02	57.48
611.355	57.35
611.689	57.18
612.024	56.99
612.359	57.28
612.694	56.94
613.028	57.33
613.363	56.98
613.697	57.56
614.032	57.9
614.366	57.38
614.7	57.61
615.035	57.84
615.369	57.82
615.703	58.25
616.037	58.06
616.371	57.96
616.705	57.93
617.039	58.23
617.373	58.29
617.707	57.92
618.041	58.18
618.375	57.96
618.709	58.17
619.042	58.61
619.376	58.65
619.71	58.74
620.043	58.59
620.377	58.5
620.71	58.39
621.043	58.36
621.377	58.26
621.71	58.68
622.043	58.92
622.376	58.16
622.709	58.87
623.043	58.33
623.376	58.3
623.709	58.53
624.041	58.95
624.374	59.1
624.707	59.12
625.04	58.6
625.373	58.74
625.705	59.08
626.038	58.9
626.37	59.16
626.703	59.26
627.035	59.63
627.368	58.97
627.7	58.85
628.032	59.21
628.365	59.04
628.697	59.03
629.029	59.4
629.361	59.33
629.693	59.36
630.025	59.1
630.357	59.26
630.689	59.04
631.021	59.47
631.353	60.05
631.684	59.42
632.016	59.65
632.348	59.6
632.679	59.72
633.011	59.79
633.342	60.04
633.674	59.73
634.005	59.79
634.336	59.8
634.668	60.29
634.999	60.21
635.33	60.22
635.661	60.48
635.992	60.13
636.323	60.12
636.654	59.79
636.985	60.53
637.316	60.35
637.647	60.03
637.977	60.19
638.308	60.56
638.639	60.46
638.969	60.1
639.3	59.85
639.63	60.38
639.961	60.14
640.291	60.3
640.622	60.3
640.952	61.19
641.282	60.99
641.612	60.64
641.943	60.59
642.273	60.37
642.603	60.65
642.933	61.22
643.263	60.73
643.592	61.05
643.922	60.97
644.252	61.17
644.582	61.27
644.911	61.2
645.241	61.1
645.571	61.39
645.9	60.79
646.23	61.8
646.559	61.81
646.888	61.75
647.218	61.05
647.547	61.74
647.876	61.06
648.205	61.2
648.534	61.41
648.863	61.1
649.192	61.83
649.521	61.2
649.85	61.58
650.179	61.25
650.508	61.9
650.837	61.53
651.165	61.68
651.494	62.22
651.822	61.68
652.151	61.5
652.479	61.63
652.808	61.49
653.136	61.65
653.465	60.96
653.793	61.93
654.121	61.38
654.449	61.97
654.777	62.29
655.105	62.69
655.433	61.88
655.761	61.84
656.089	62.64
656.417	62.29
656.745	62.35
657.073	61.96
657.4	62.62
657.728	62.18
658.056	62.51
658.383	62.69
658.711	62.49
659.038	62.48
659.365	62.13
659.693	62.16
660.02	62.83
660.347	62.68
660.674	62.83
661.001	62.76
661.329	61.72
661.656	62.39
661.982	62.6
662.309	62.57
662.636	62.38
662.963	63.01
663.29	62.47
663.616	62.58
663.943	62.83
664.27	62.72
664.596	62.85
664.923	62.8
665.249	62.85
665.576	62.89
665.902	63
666.228	62.64
666.554	62.72
666.881	63.28
667.207	63.14
667.533	63.71
667.859	63.25
668.185	63.01
668.511	62.08
