Data from 0415_forehead_Reflection__4__29.txt Node

Date: Fri Dec 15 16:38:01 CST 2023
User: ToomeyLab
Spectrometer: FLMS14357
Trigger mode: 0
Integration Time (sec): 1.000000E-2
Scans to average: 100
Electric dark correction enabled: true
Nonlinearity correction enabled: false
Boxcar width: 0
XAxis mode: Wavelengths
Number of Pixels in Spectrum: 2048
>>>>>Begin Spectral Data<<<<<
189.047	-87.7
189.435	-87.7
189.823	-87.7
190.211	-94.36
190.599	-705.45
190.987	-81.77
191.375	51.13
191.763	-12.05
192.151	25.76
192.538	83.89
192.926	-116.54
193.314	738.82
193.702	-10.18
194.089	-538.03
194.477	8.28
194.864	-78.65
195.252	20.04
195.639	205.76
196.027	-503.3
196.414	37.96
196.801	-67.94
197.189	-487.58
197.576	-55.42
197.963	-97.55
198.351	23.54
198.738	14.56
199.125	20.69
199.512	9.32
199.899	37.87
200.286	35.38
200.673	36.21
201.06	-2.6
201.447	17.49
201.833	18.91
202.22	78.28
202.607	78.46
202.994	54.07
203.38	40.77
203.767	25.39
204.154	27.79
204.54	70.41
204.927	-16.8
205.313	-9.78
205.699	51.4
206.086	46.84
206.472	33.59
206.858	77.1
207.245	-22.59
207.631	70.78
208.017	30.9
208.403	16.84
208.789	47.17
209.175	24.88
209.561	25.17
209.947	26.89
210.333	32.98
210.719	53.29
211.105	51.92
211.491	21.62
211.876	68.69
212.262	45.03
212.648	26.4
213.034	43.18
213.419	47.85
213.805	24.63
214.19	-19.53
214.576	30.86
214.961	15.93
215.346	41.5
215.732	21.64
216.117	44.28
216.502	2.21
216.888	19.13
217.273	55.8
217.658	31.56
218.043	54.92
218.428	-0.44
218.813	18.45
219.198	62.76
219.583	12.91
219.968	35.95
220.353	31.43
220.738	39.4
221.122	18.21
221.507	-7.35
221.892	21.63
222.276	11.96
222.661	12.81
223.046	10.72
223.43	23.31
223.815	19.66
224.199	13.21
224.583	12.65
224.968	-1.23
225.352	18.42
225.736	12.82
226.121	2.71
226.505	4.72
226.889	14.02
227.273	5.57
227.657	14.31
228.041	12.75
228.425	9.17
228.809	10.06
229.193	7.7
229.577	7.39
229.961	7.56
230.344	5.49
230.728	5.02
231.112	6.55
231.495	4.59
231.879	5.55
232.263	6.11
232.646	6.32
233.03	5.56
233.413	5.52
233.797	5.57
234.18	7.16
234.563	7.16
234.946	4.35
235.33	6.97
235.713	5.64
236.096	5.52
236.479	6.02
236.862	4.81
237.245	7.14
237.628	6.35
238.011	7.62
238.394	8.07
238.777	8
239.16	6.26
239.543	7.9
239.925	7.6
240.308	6.72
240.691	7.39
241.073	5.6
241.456	6.33
241.838	5.08
242.221	3.42
242.603	5.59
242.986	5.23
243.368	5.89
243.75	5.23
244.133	5.17
244.515	4.98
244.897	5.16
245.279	5.11
245.661	4.88
246.043	3.96
246.425	3.74
246.807	5.9
247.189	5.69
247.571	6.52
247.953	5.51
248.335	4.6
248.717	5.06
249.098	4.77
249.48	5.1
249.862	4.7
250.243	4.9
250.625	5.05
251.006	5.5
251.388	4.3
251.769	5.43
252.151	5.51
252.532	6.03
252.913	4.67
253.295	4.56
253.676	4.93
254.057	5.21
254.438	5.13
254.819	4.39
255.2	4.12
255.581	5.74
255.962	5.66
256.343	5.96
256.724	6.24
257.105	5.74
257.486	5.36
257.867	6.17
258.247	5.56
258.628	5.73
259.009	4.82
259.389	5.21
259.77	4.93
260.15	4.78
260.531	4.92
260.911	5.4
261.292	5.44
261.672	5.21
262.052	4.86
262.432	5.16
262.813	4.88
263.193	5.61
263.573	4.88
263.953	5.32
264.333	5.81
264.713	6.24
265.093	4.59
265.473	5.17
265.853	4.47
266.233	5.82
266.612	4.1
266.992	3.45
267.372	5.45
267.752	4.77
268.131	4.7
268.511	5.69
268.89	5.31
269.27	5.08
269.649	4.16
270.029	5.27
270.408	6.02
270.787	6.24
271.167	5.65
271.546	5.64
271.925	4.51
272.304	4.92
272.683	5.63
273.062	5.18
273.441	4.92
273.82	4.76
274.199	4.74
274.578	5.27
274.957	5.11
275.336	5.04
275.715	5.09
276.093	5.33
276.472	5.35
276.851	4.75
277.229	4.55
277.608	4.47
277.986	5.35
278.365	5.59
278.743	4.98
279.122	5.2
279.5	4.96
279.878	5.42
280.257	4.5
280.635	5.44
281.013	4.88
281.391	5.66
281.769	5.85
282.147	5.67
282.525	5.71
282.903	5.16
283.281	5.46
283.659	6.31
284.037	5.42
284.415	5.3
284.792	5.61
285.17	4.22
285.548	4.77
285.925	5.43
286.303	5.66
286.68	4.78
287.058	5.22
287.435	5.14
287.813	5.45
288.19	4.87
288.567	5
288.945	5.43
289.322	5.13
289.699	5.74
290.076	5.36
290.453	5.12
290.83	5
291.207	5.41
291.584	5.4
291.961	5.98
292.338	5.13
292.715	5.97
293.092	5.6
293.469	5.63
293.845	5.97
294.222	5.82
294.599	5.91
294.975	5.55
295.352	6.3
295.728	6.18
296.105	5.48
296.481	6.7
296.858	5.9
297.234	5.97
297.61	5.98
297.986	5.57
298.363	6.73
298.739	6.2
299.115	6.35
299.491	5.91
299.867	6.32
300.243	6.54
300.619	5.99
300.995	6.07
301.371	6.78
301.746	6.18
302.122	6.83
302.498	6.72
302.874	6.55
303.249	6.75
303.625	6.7
304	7.22
304.376	7.16
304.751	6.15
305.127	8.1
305.502	6.64
305.878	6.59
306.253	7.41
306.628	8.61
307.003	7.6
307.378	7.16
307.754	8.02
308.129	6.69
308.504	7.41
308.879	7.18
309.254	8.63
309.629	8.27
310.003	8.26
310.378	8.98
310.753	8.68
311.128	8.11
311.502	7.7
311.877	8.57
312.252	8.17
312.626	8.27
313.001	8.16
313.375	8.84
313.75	8.19
314.124	8.72
314.498	8.24
314.873	8.87
315.247	8.06
315.621	8.88
315.995	8.76
316.369	9.17
316.743	9.28
317.117	9.87
317.491	9.26
317.865	9.25
318.239	9.31
318.613	9.44
318.987	9.38
319.361	8.99
319.734	10.07
320.108	10.54
320.482	9.53
320.855	10.32
321.229	10.09
321.602	9.29
321.976	10.47
322.349	9.94
322.723	10.18
323.096	11.33
323.469	9.5
323.843	10.28
324.216	10.78
324.589	10.78
324.962	10.33
325.335	10.56
325.708	10.64
326.081	10.95
326.454	11.46
326.827	10.67
327.2	10.56
327.573	11.37
327.945	11.19
328.318	11.09
328.691	10.63
329.063	11.51
329.436	11.32
329.809	11.84
330.181	11.64
330.553	11.52
330.926	11.93
331.298	12.03
331.671	11.95
332.043	12.53
332.415	12.13
332.787	12.41
333.159	12.6
333.532	12.18
333.904	12.86
334.276	12.22
334.648	12.36
335.02	12.39
335.391	12.6
335.763	12.23
336.135	12.02
336.507	13.27
336.879	12.94
337.25	11.99
337.622	12.59
337.993	12.45
338.365	13.24
338.736	13.2
339.108	13.38
339.479	13.01
339.851	13.3
340.222	13.23
340.593	13.48
340.964	13.29
341.336	13.98
341.707	13.65
342.078	13.82
342.449	14.42
342.82	13.59
343.191	13.35
343.562	13.52
343.933	13.85
344.303	13.67
344.674	14.56
345.045	14.42
345.416	14.15
345.786	13.76
346.157	13.91
346.527	14.07
346.898	13.73
347.268	14.53
347.639	14.02
348.009	14.61
348.38	14.67
348.75	14.28
349.12	14.71
349.49	14.84
349.861	14.74
350.231	14.72
350.601	15.27
350.971	15.4
351.341	15.18
351.711	15.3
352.081	15.38
352.45	15.19
352.82	15.66
353.19	15.82
353.56	15.19
353.929	15.74
354.299	15.6
354.669	15.64
355.038	15.72
355.408	15.4
355.777	15.78
356.147	15.83
356.516	16.11
356.885	16.14
357.254	16.3
357.624	16.48
357.993	16.67
358.362	16.44
358.731	16.02
359.1	16.67
359.469	16.43
359.838	16.67
360.207	16.16
360.576	16.48
360.945	16.78
361.314	16.72
361.682	16.48
362.051	16.97
362.42	16.75
362.788	16.62
363.157	16.95
363.525	17.06
363.894	17.01
364.262	16.98
364.631	16.79
364.999	17.13
365.367	16.88
365.735	17.88
366.104	17.7
366.472	17.47
366.84	17.54
367.208	17.56
367.576	17.89
367.944	18.06
368.312	17.87
368.68	18.02
369.048	17.82
369.416	18.25
369.783	18.02
370.151	18.43
370.519	18.25
370.886	18.37
371.254	18.28
371.621	18.69
371.989	18.55
372.356	18.08
372.724	18.91
373.091	18.48
373.458	18.52
373.826	18.64
374.193	18.57
374.56	19.11
374.927	19.26
375.294	19.34
375.661	18.84
376.028	19.22
376.395	19.23
376.762	19.27
377.129	19.58
377.496	19.46
377.863	19.34
378.229	19.38
378.596	19.44
378.963	19.51
379.329	19.56
379.696	19.62
380.062	19.87
380.429	20.01
380.795	19.89
381.161	19.91
381.528	20.17
381.894	19.99
382.26	20.21
382.626	20.8
382.993	20
383.359	20.91
383.725	20.36
384.091	20.22
384.457	20.94
384.823	21.03
385.188	20.63
385.554	20.81
385.92	20.86
386.286	20.79
386.651	21.18
387.017	20.95
387.383	20.98
387.748	20.88
388.114	21.33
388.479	21.23
388.845	21.33
389.21	21.28
389.575	21.41
389.94	21.3
390.306	21.41
390.671	21.75
391.036	21.64
391.401	21.25
391.766	21.81
392.131	21.59
392.496	22.07
392.861	21.89
393.226	22.14
393.591	22.33
393.956	21.84
394.32	22.24
394.685	21.57
395.05	22.22
395.414	22.72
395.779	22.04
396.143	22.38
396.508	22.33
396.872	22.48
397.236	22.53
397.601	22.38
397.965	22.62
398.329	22.65
398.694	22.7
399.058	23.17
399.422	22.89
399.786	23.29
400.15	22.96
400.514	23.17
400.878	23.2
401.242	23.32
401.605	23.41
401.969	23.42
402.333	23.41
402.697	23.58
403.06	23.83
403.424	23.37
403.787	23.92
404.151	23.68
404.514	23.57
404.878	23.9
405.241	23.95
405.604	23.97
405.968	24.1
406.331	24.07
406.694	24.34
407.057	24.02
407.42	23.96
407.783	24.04
408.146	24.42
408.509	24.28
408.872	24.51
409.235	24.51
409.598	24.62
409.961	24.85
410.323	24.61
410.686	24.63
411.049	24.59
411.411	24.89
411.774	24.64
412.136	24.8
412.499	24.96
412.861	24.95
413.223	25.18
413.586	25.17
413.948	24.98
414.31	25.13
414.672	25.01
415.035	25.29
415.397	25.59
415.759	25.39
416.121	25.56
416.483	25.63
416.845	25.63
417.206	25.25
417.568	25.77
417.93	25.79
418.292	25.91
418.653	25.88
419.015	26
419.377	25.62
419.738	25.68
420.1	25.82
420.461	25.77
420.822	25.99
421.184	25.91
421.545	25.9
421.906	25.88
422.267	25.92
422.629	25.92
422.99	25.9
423.351	25.89
423.712	26.06
424.073	26.02
424.434	26.04
424.795	26.22
425.155	26.36
425.516	26.38
425.877	26.42
426.238	26.28
426.598	26.53
426.959	26.48
427.32	26.49
427.68	26.73
428.041	26.73
428.401	26.85
428.761	26.59
429.122	26.91
429.482	27.2
429.842	27.19
430.202	27.19
430.563	27.38
430.923	27.46
431.283	27.85
431.643	27.51
432.003	27.44
432.363	27.77
432.722	27.58
433.082	27.97
433.442	28.02
433.802	27.78
434.161	27.95
434.521	28.14
434.881	28.14
435.24	28.15
435.6	28.05
435.959	28.12
436.319	28.12
436.678	28.12
437.037	28.31
437.396	28.27
437.756	28.58
438.115	28.69
438.474	28.45
438.833	28.64
439.192	28.63
439.551	28.74
439.91	28.78
440.269	28.85
440.628	28.76
440.987	28.74
441.345	28.81
441.704	29.03
442.063	28.86
442.421	28.7
442.78	29.06
443.138	28.89
443.497	29
443.855	28.99
444.214	29.02
444.572	29.28
444.93	29.36
445.288	29.66
445.647	29.65
446.005	29.5
446.363	29.39
446.721	29.79
447.079	29.44
447.437	29.75
447.795	29.54
448.153	29.62
448.51	29.51
448.868	29.71
449.226	29.71
449.584	29.67
449.941	29.78
450.299	29.87
450.656	30.15
451.014	30.24
451.371	30.2
451.729	30.22
452.086	30.54
452.443	30.73
452.801	30.52
453.158	30.59
453.515	30.5
453.872	30.81
454.229	30.51
454.586	30.82
454.943	30.64
455.3	31.07
455.657	30.96
456.014	31.08
456.371	31.09
456.727	31.14
457.084	31.39
457.441	31.42
457.797	31.29
458.154	31.54
458.51	31.73
458.867	31.43
459.223	31.76
459.58	31.58
459.936	31.73
460.292	31.84
460.648	31.84
461.005	31.59
461.361	31.56
461.717	31.43
462.073	31.45
462.429	31.49
462.785	31.48
463.141	31.78
463.496	31.75
463.852	32.04
464.208	32.1
464.564	32.31
464.919	32.18
465.275	32.16
465.631	32.71
465.986	32.49
466.342	32.31
466.697	32.59
467.052	32.73
467.408	32.74
467.763	32.73
468.118	32.93
468.473	33.01
468.829	33.07
469.184	32.87
469.539	33.18
469.894	33.12
470.249	33.14
470.603	33.12
470.958	33.41
471.313	33.39
471.668	33.62
472.023	33.45
472.377	33.75
472.732	33.39
473.086	33.52
473.441	33.08
473.795	33.86
474.15	33.78
474.504	33.68
474.859	33.9
475.213	33.55
475.567	33.83
475.921	33.74
476.275	34.12
476.63	33.95
476.984	34.23
477.338	34.31
477.692	34.1
478.045	34.26
478.399	34.22
478.753	34.33
479.107	34.11
479.461	34.17
479.814	34.25
480.168	34.38
480.521	34.29
480.875	34.58
481.228	34.52
481.582	34.5
481.935	34.55
482.289	34.71
482.642	34.53
482.995	34.6
483.348	34.44
483.701	34.41
484.055	34.57
484.408	34.53
484.761	34.51
485.114	34.21
485.466	33.8
485.819	33.95
486.172	33.86
486.525	33.76
486.878	33.8
487.23	34.11
487.583	34.33
487.936	34.44
488.288	34.65
488.641	34.68
488.993	34.58
489.345	34.5
489.698	34.37
490.05	34.44
490.402	34.49
490.754	34.62
491.107	34.88
491.459	35.08
491.811	35.24
492.163	35.54
492.515	35.44
492.866	35.31
493.218	35.27
493.57	35.13
493.922	35
494.274	35.22
494.625	35.34
494.977	35.65
495.328	35.94
495.68	36.08
496.031	36.55
496.383	36.5
496.734	36.55
497.086	36.66
497.437	36.68
497.788	36.93
498.139	36.63
498.49	36.74
498.842	36.78
499.193	36.59
499.544	36.97
499.894	37.07
500.245	36.89
500.596	36.88
500.947	36.88
501.298	37.07
501.648	37.28
501.999	37.01
502.35	37.39
502.7	37.44
503.051	37.43
503.401	37.55
503.752	37.73
504.102	37.71
504.452	37.83
504.803	37.79
505.153	38
505.503	37.87
505.853	37.86
506.203	37.73
506.553	37.92
506.903	38.2
507.253	38.13
507.603	38.02
507.953	38.2
508.303	38.43
508.652	38.03
509.002	38.41
509.352	38.37
509.701	38.24
510.051	38.13
510.4	38.41
510.75	38.54
511.099	38.35
511.449	38.36
511.798	38.38
512.147	38.49
512.496	38.57
512.846	38.81
513.195	38.59
513.544	38.73
513.893	38.77
514.242	38.89
514.591	38.8
514.939	38.74
515.288	38.81
515.637	39.08
515.986	39.14
516.334	39.16
516.683	39.2
517.032	39.48
517.38	39.43
517.729	39.44
518.077	39.36
518.426	39.64
518.774	39.44
519.122	39.44
519.47	39.47
519.819	39.29
520.167	39.24
520.515	39.34
520.863	39.35
521.211	39.25
521.559	39.54
521.907	39.46
522.255	39.6
522.602	39.72
522.95	39.73
523.298	39.92
523.645	40.14
523.993	40.01
524.341	40.31
524.688	40.52
525.036	40.25
525.383	40.21
525.73	40.5
526.078	40.26
526.425	40.15
526.772	40.31
527.119	40.12
527.466	40
527.814	39.98
528.161	39.76
528.508	40.05
528.854	39.88
529.201	40.11
529.548	40.22
529.895	39.87
530.242	39.75
530.588	39.67
530.935	39.73
531.282	39.67
531.628	39.71
531.975	40.16
532.321	40.19
532.667	40.34
533.014	40.42
533.36	40.65
533.706	40.79
534.052	40.99
534.399	40.62
534.745	40.59
535.091	40.58
535.437	40.72
535.783	40.65
536.129	40.65
536.474	40.74
536.82	41.26
537.166	41.17
537.512	41.22
537.857	41.58
538.203	41.69
538.549	41.44
538.894	41.35
539.239	41.46
539.585	41.58
539.93	41.81
540.276	42.06
540.621	42
540.966	42.21
541.311	41.95
541.656	41.98
542.001	42.06
542.346	42.09
542.691	41.84
543.036	41.45
543.381	41.6
543.726	41.53
544.071	41.71
544.415	41.73
544.76	41.8
545.105	41.99
545.449	42
545.794	42.18
546.138	42.54
546.483	42.59
546.827	42.63
547.171	42.72
547.516	42.79
547.86	42.82
548.204	42.98
548.548	42.77
548.892	42.79
549.236	43
549.58	42.96
549.924	43.25
550.268	43.22
550.612	43.53
550.956	43.45
551.3	43.39
551.643	43.67
551.987	43.79
552.33	43.94
552.674	44.45
553.017	44.07
553.361	43.94
553.704	44.07
554.048	44.2
554.391	44.13
554.734	44.07
555.077	43.88
555.42	43.76
555.764	44.07
556.107	43.93
556.45	44.24
556.793	44.47
557.135	44.2
557.478	44.62
557.821	44.51
558.164	44.46
558.507	44.6
558.849	44.58
559.192	44.91
559.534	44.66
559.877	44.99
560.219	44.86
560.562	45.6
560.904	45.18
561.246	45.43
561.589	45.12
561.931	45.4
562.273	45.03
562.615	45.51
562.957	45.19
563.299	44.93
563.641	45.44
563.983	45.23
564.325	45.45
564.667	45.27
565.008	45.49
565.35	45.49
565.692	45.26
566.033	45.52
566.375	45.76
566.716	45.74
567.058	45.53
567.399	45.77
567.741	45.49
568.082	45.49
568.423	45.46
568.764	45.82
569.105	45.54
569.447	45.67
569.788	45.72
570.129	46.06
570.47	45.73
570.811	46.14
571.151	45.97
571.492	46.1
571.833	46.02
572.174	45.84
572.514	46.04
572.855	46.29
573.195	46.14
573.536	46.3
573.876	46.32
574.217	46.11
574.557	46.12
574.898	46.36
575.238	46.4
575.578	46.43
575.918	46.41
576.258	46.6
576.598	46.56
576.938	46.62
577.278	46.58
577.618	46.37
577.958	46.53
578.298	46.85
578.638	46.81
578.977	47.11
579.317	47.37
579.657	46.92
579.996	47.2
580.336	47.23
580.675	46.91
581.014	47.04
581.354	47.24
581.693	47.31
582.032	47.54
582.372	47.93
582.711	47.66
583.05	47.5
583.389	47.99
583.728	47.74
584.067	47.81
584.406	47.81
584.745	47.7
585.083	47.4
585.422	48.09
585.761	47.97
586.1	47.83
586.438	47.67
586.777	48.14
587.115	48.13
587.454	47.79
587.792	48.25
588.13	48.15
588.469	48.21
588.807	48.24
589.145	48.15
589.483	48.28
589.821	48.57
590.159	48.22
590.497	48.34
590.835	48.21
591.173	48.42
591.511	48.53
591.849	48.19
592.187	48.28
592.524	48.53
592.862	48.5
593.2	48.42
593.537	48.54
593.875	48.28
594.212	48.56
594.55	48.54
594.887	49.25
595.224	48.69
595.561	48.83
595.899	48.68
596.236	49.06
596.573	49.07
596.91	48.61
597.247	49.29
597.584	48.71
597.921	49
598.258	48.77
598.594	49.12
598.931	49.12
599.268	48.94
599.604	48.7
599.941	49.4
600.277	49.23
600.614	49.07
600.95	49.42
601.287	49.82
601.623	49.6
601.959	49.06
602.296	49.45
602.632	50.05
602.968	49.46
603.304	49.64
603.64	49.53
603.976	49.66
604.312	49.39
604.648	49.68
604.984	49.59
605.319	49.59
605.655	49.55
605.991	49.67
606.326	49.6
606.662	49.29
606.998	49.77
607.333	49.8
607.668	49.6
608.004	49.64
608.339	50.12
608.674	50.3
609.01	50.05
609.345	49.9
609.68	50.19
610.015	50.19
610.35	50.3
610.685	49.9
611.02	50.29
611.355	50.62
611.689	50.08
612.024	50.04
612.359	50.51
612.694	50.26
613.028	50.25
613.363	50.53
613.697	50.39
614.032	50.67
614.366	50.44
614.7	50.93
615.035	50.94
615.369	50.49
615.703	51.11
616.037	51.13
616.371	51.11
616.705	51.41
617.039	51.19
617.373	50.83
617.707	51.3
618.041	51.35
618.375	51.25
618.709	51.68
619.042	50.96
619.376	51.2
619.71	52.09
620.043	51.69
620.377	51.73
620.71	51.15
621.043	51.6
621.377	51.43
621.71	51.51
622.043	51.98
622.376	51.49
622.709	51.72
623.043	51.87
623.376	51.77
623.709	51.75
624.041	51.88
624.374	51.61
624.707	51.53
625.04	52.09
625.373	51.85
625.705	52.11
626.038	51.77
626.37	51.79
626.703	52.28
627.035	52.17
627.368	51.64
627.7	52.18
628.032	52.1
628.365	52.49
628.697	52.15
629.029	52.13
629.361	52.54
629.693	51.86
630.025	52.47
630.357	52.08
630.689	51.97
631.021	51.88
631.353	52.99
631.684	52.12
632.016	52.74
632.348	52.29
632.679	52.66
633.011	52.65
633.342	53.06
633.674	52.89
634.005	52.99
634.336	52.8
634.668	52.72
634.999	53.13
635.33	53.09
635.661	53.17
635.992	52.82
636.323	53.11
636.654	52.71
636.985	53.38
637.316	53.3
637.647	52.87
637.977	53.13
638.308	53.19
638.639	52.6
638.969	52.77
639.3	53.74
639.63	53.35
639.961	52.76
640.291	52.66
640.622	52.85
640.952	53.08
641.282	53.35
641.612	53.99
641.943	53.23
642.273	53.49
642.603	53.41
642.933	53.56
643.263	53.01
643.592	54.02
643.922	53.4
644.252	53.94
644.582	53.35
644.911	53.67
645.241	53.79
645.571	53.97
645.9	54.47
646.23	53.45
646.559	53.86
646.888	53.86
647.218	53.35
647.547	54.36
647.876	54.15
648.205	54.16
648.534	54.09
648.863	53.78
649.192	54.07
649.521	53.79
649.85	53.97
650.179	53.89
650.508	54.34
650.837	53.94
651.165	54.43
651.494	55
651.822	53.84
652.151	54.28
652.479	54.59
652.808	54.64
653.136	54.17
653.465	54.48
653.793	54.73
654.121	54.39
654.449	55.11
654.777	55.41
655.105	54.65
655.433	54.44
655.761	54.53
656.089	54.75
656.417	54.27
656.745	54.34
657.073	54.42
657.4	54.97
657.728	54.36
658.056	54.54
658.383	56.06
658.711	54.64
659.038	55.06
659.365	54.62
659.693	55.19
660.02	55.29
660.347	55.25
660.674	54.88
661.001	54.66
661.329	54.27
661.656	55.12
661.982	55.25
662.309	55.03
662.636	54.91
662.963	54.77
663.29	55.01
663.616	55.3
663.943	54.85
664.27	55.46
664.596	54.91
664.923	55.92
665.249	55.43
665.576	55.34
665.902	55.46
666.228	55.33
666.554	55.79
666.881	56.17
667.207	55.3
667.533	55.57
667.859	56.3
668.185	55.82
668.511	55.09
668.837	55.24
669.162	56.22
