Data from 0415_crown_Reflection__2__22.txt Node

Date: Fri Dec 15 16:36:38 CST 2023
User: ToomeyLab
Spectrometer: FLMS14357
Trigger mode: 0
Integration Time (sec): 1.000000E-2
Scans to average: 100
Electric dark correction enabled: true
Nonlinearity correction enabled: false
Boxcar width: 0
XAxis mode: Wavelengths
Number of Pixels in Spectrum: 2048
>>>>>Begin Spectral Data<<<<<
189.047	-197.86
189.435	-197.86
189.823	-197.86
190.211	29.65
190.599	1344.24
190.987	72.79
191.375	-13.87
191.763	-64.17
192.151	73.18
192.538	81.91
192.926	106.77
193.314	3578.82
193.702	24.33
194.089	195.55
194.477	72.35
194.864	-193.57
195.252	95.08
195.639	176.03
196.027	99.1
196.414	556.2
196.801	-8.24
197.189	-309.72
197.576	13.53
197.963	232.13
198.351	19.29
198.738	-33.16
199.125	26.98
199.512	32.41
199.899	29.08
200.286	39.12
200.673	26.51
201.06	34.47
201.447	39.76
201.833	17.59
202.22	22.56
202.607	29.23
202.994	-26.91
203.38	-9.07
203.767	9.53
204.154	18.43
204.54	35.36
204.927	-21.54
205.313	-23.85
205.699	22.9
206.086	53.18
206.472	25.65
206.858	6.81
207.245	-7.97
207.631	39.86
208.017	14.6
208.403	-2.9
208.789	43.18
209.175	51.18
209.561	-0.08
209.947	-3.69
210.333	9.12
210.719	12.27
211.105	35.06
211.491	-8.08
211.876	63.99
212.262	43.33
212.648	23.86
213.034	39.66
213.419	9.64
213.805	33.12
214.19	-8.79
214.576	-5.37
214.961	-19.16
215.346	-28.65
215.732	-5.47
216.117	-7.53
216.502	-24.82
216.888	18.64
217.273	50.09
217.658	28.21
218.043	13.55
218.428	-22.03
218.813	10.96
219.198	3.72
219.583	36.32
219.968	31.67
220.353	8.27
220.738	24.18
221.122	36.43
221.507	12.52
221.892	-24.27
222.276	-19.93
222.661	0.64
223.046	16.14
223.43	-0.08
223.815	12.07
224.199	-5.53
224.583	13.1
224.968	10.22
225.352	20.35
225.736	9.24
226.121	-6.23
226.505	13.1
226.889	14.67
227.273	-0.8
227.657	11.34
228.041	7.75
228.425	2.14
228.809	7.35
229.193	5.02
229.577	2.07
229.961	5.14
230.344	3.63
230.728	2.64
231.112	3.86
231.495	3.52
231.879	2.85
232.263	5.72
232.646	4.08
233.03	3.75
233.413	1.85
233.797	1.96
234.18	2.93
234.563	5.11
234.946	4.08
235.33	3.76
235.713	2.92
236.096	2.99
236.479	4.23
236.862	4.62
237.245	5.06
237.628	3.58
238.011	5.29
238.394	5.27
238.777	4.53
239.16	1.6
239.543	4.41
239.925	6.95
240.308	2.54
240.691	4.58
241.073	5.58
241.456	3.47
241.838	2.95
242.221	3.57
242.603	3.81
242.986	3.14
243.368	2.73
243.75	3.52
244.133	2.77
244.515	3.79
244.897	3.03
245.279	3.43
245.661	3.6
246.043	3.35
246.425	1.73
246.807	4.56
247.189	3.75
247.571	3.44
247.953	3.4
248.335	2.82
248.717	3.33
249.098	2.78
249.48	3.24
249.862	3.11
250.243	3.29
250.625	3.16
251.006	3.43
251.388	1.27
251.769	3.03
252.151	3.49
252.532	3.74
252.913	3.01
253.295	3.28
253.676	2.6
254.057	3.28
254.438	3.02
254.819	2.86
255.2	2.55
255.581	3.55
255.962	2.03
256.343	3
256.724	3.24
257.105	5.32
257.486	3.71
257.867	3.02
258.247	3.78
258.628	2.61
259.009	3.07
259.389	2.97
259.77	2.88
260.15	3.17
260.531	2.14
260.911	3.56
261.292	2.37
261.672	2.82
262.052	2.78
262.432	3.22
262.813	3.37
263.193	2.85
263.573	2.72
263.953	2.95
264.333	3.86
264.713	2.86
265.093	2.67
265.473	3.8
265.853	1.52
266.233	3.14
266.612	1
266.992	1.89
267.372	2.98
267.752	2.97
268.131	3.19
268.511	3.42
268.89	3.09
269.27	2.52
269.649	2.75
270.029	2.59
270.408	3.67
270.787	2.92
271.167	3.78
271.546	3.47
271.925	2.32
272.304	2.65
272.683	3.06
273.062	2.72
273.441	2.83
273.82	2.15
274.199	3
274.578	2.97
274.957	3.19
275.336	2.87
275.715	2.36
276.093	2.92
276.472	3.16
276.851	2.77
277.229	3.22
277.608	2.11
277.986	2.74
278.365	2.3
278.743	2.46
279.122	2.97
279.5	2.53
279.878	3.17
280.257	2.64
280.635	2.15
281.013	2.18
281.391	3.43
281.769	3.02
282.147	2.92
282.525	3.38
282.903	2.48
283.281	3.34
283.659	3.18
284.037	2.75
284.415	2.79
284.792	3.36
285.17	2.02
285.548	2.59
285.925	2.9
286.303	2.97
286.68	2.63
287.058	2.3
287.435	2.86
287.813	2.75
288.19	2.86
288.567	2.78
288.945	3.07
289.322	3.1
289.699	2.92
290.076	2.91
290.453	3.23
290.83	2.94
291.207	2.71
291.584	3.32
291.961	2.94
292.338	3.02
292.715	3.28
293.092	3.04
293.469	2.98
293.845	3.38
294.222	2.47
294.599	2.62
294.975	2.31
295.352	3.05
295.728	2.09
296.105	2.65
296.481	2.95
296.858	2.82
297.234	2.64
297.61	2.58
297.986	2.56
298.363	3
298.739	3.05
299.115	2.41
299.491	2.5
299.867	2.72
300.243	2.87
300.619	2.68
300.995	2.79
301.371	3.02
301.746	2.55
302.122	3.18
302.498	3.11
302.874	2.88
303.249	2.9
303.625	2.8
304	3.12
304.376	2.65
304.751	2.35
305.127	3.1
305.502	2.45
305.878	2.01
306.253	2.74
306.628	3.54
307.003	3.22
307.378	2.51
307.754	2.77
308.129	2.09
308.504	2.77
308.879	2.7
309.254	4.48
309.629	3.48
310.003	2.92
310.378	3.48
310.753	3.27
311.128	3
311.502	3.24
311.877	3.55
312.252	2.38
312.626	2.99
313.001	2.69
313.375	3.3
313.75	2.64
314.124	3.19
314.498	2.91
314.873	2.43
315.247	2.59
315.621	2.61
315.995	2.15
316.369	2.56
316.743	2.85
317.117	2.73
317.491	2.63
317.865	2.97
318.239	2.52
318.613	3.17
318.987	2.92
319.361	2.09
319.734	3.15
320.108	2.74
320.482	2.52
320.855	2.83
321.229	3.13
321.602	2.68
321.976	2.93
322.349	2.7
322.723	3.01
323.096	3.48
323.469	2.37
323.843	2.78
324.216	3.02
324.589	2.89
324.962	2.83
325.335	2.56
325.708	3.07
326.081	2.63
326.454	3.65
326.827	2.58
327.2	2.57
327.573	2.9
327.945	3.02
328.318	3.03
328.691	2.18
329.063	2.72
329.436	2.27
329.809	3.29
330.181	2.64
330.553	2.7
330.926	3.29
331.298	3.35
331.671	1.91
332.043	3.82
332.415	2.95
332.787	2.71
333.159	2.96
333.532	3.04
333.904	2.88
334.276	2.84
334.648	3.11
335.02	3.32
335.391	2.59
335.763	2.34
336.135	2.68
336.507	3.47
336.879	2.76
337.25	3.21
337.622	3.4
337.993	3.29
338.365	3.14
338.736	2.73
339.108	3.17
339.479	2.91
339.851	2.95
340.222	3.22
340.593	2.44
340.964	2.84
341.336	3.95
341.707	2.53
342.078	2.9
342.449	2.73
342.82	2.95
343.191	3.17
343.562	2.85
343.933	2.85
344.303	2.84
344.674	3.14
345.045	2.53
345.416	3.47
345.786	2.73
346.157	3.22
346.527	2.69
346.898	2.78
347.268	3.35
347.639	2.88
348.009	3.01
348.38	2.91
348.75	2.84
349.12	2.74
349.49	3.93
349.861	3.21
350.231	3.09
350.601	3.11
350.971	2.74
351.341	2.57
351.711	2.68
352.081	3.03
352.45	2.82
352.82	3.16
353.19	2.9
353.56	2.74
353.929	2.89
354.299	2.88
354.669	2.98
355.038	3.34
355.408	3.1
355.777	2.61
356.147	2.79
356.516	3.19
356.885	3.35
357.254	3.33
357.624	3.36
357.993	3.02
358.362	2.83
358.731	2.85
359.1	3.09
359.469	3.01
359.838	3.38
360.207	2.96
360.576	2.72
360.945	2.89
361.314	2.98
361.682	2.97
362.051	2.78
362.42	3.14
362.788	2.92
363.157	3.19
363.525	3.11
363.894	2.95
364.262	2.89
364.631	3.13
364.999	3.01
365.367	2.51
365.735	3.46
366.104	3.27
366.472	3.04
366.84	3.22
367.208	2.87
367.576	3.06
367.944	3.09
368.312	3.11
368.68	2.58
369.048	3.02
369.416	2.96
369.783	2.83
370.151	2.93
370.519	3.78
370.886	3.33
371.254	2.98
371.621	3.31
371.989	3.59
372.356	3.05
372.724	2.46
373.091	2.74
373.458	3.13
373.826	3.13
374.193	3.08
374.56	3.26
374.927	3.3
375.294	3.1
375.661	3.11
376.028	3.45
376.395	3.01
376.762	3.39
377.129	3.12
377.496	2.93
377.863	3.44
378.229	2.73
378.596	3.19
378.963	2.9
379.329	2.84
379.696	3.48
380.062	3.13
380.429	3.1
380.795	3.1
381.161	3.07
381.528	3.41
381.894	3.04
382.26	2.85
382.626	3.31
382.993	3.05
383.359	3.41
383.725	3.22
384.091	3.4
384.457	3.47
384.823	3.14
385.188	3.22
385.554	2.9
385.92	3.19
386.286	3.41
386.651	3.24
387.017	3.44
387.383	3.23
387.748	3.17
388.114	3.41
388.479	3.13
388.845	3.46
389.21	3.3
389.575	3.24
389.94	3.3
390.306	3.26
390.671	3.31
391.036	2.78
391.401	2.83
391.766	3.3
392.131	3.23
392.496	3.44
392.861	3.32
393.226	3.28
393.591	3.09
393.956	3.06
394.32	3.4
394.685	2.95
395.05	3.17
395.414	3.33
395.779	3.03
396.143	3.03
396.508	3.22
396.872	3.09
397.236	3.1
397.601	3.04
397.965	3.52
398.329	3.21
398.694	3.46
399.058	3.18
399.422	3.17
399.786	3.33
400.15	3.04
400.514	3.17
400.878	3.39
401.242	3.47
401.605	3.42
401.969	3.36
402.333	3.3
402.697	3.21
403.06	2.91
403.424	3.07
403.787	3.27
404.151	3.28
404.514	3.42
404.878	3.21
405.241	3.48
405.604	3.09
405.968	3.38
406.331	3.27
406.694	3.37
407.057	3.25
407.42	3.51
407.783	3.03
408.146	3.29
408.509	3.11
408.872	3.29
409.235	3.47
409.598	3.48
409.961	3.13
410.323	3.4
410.686	3.17
411.049	3
411.411	3.19
411.774	3.22
412.136	3.11
412.499	3.38
412.861	3.32
413.223	3.22
413.586	3.54
413.948	3.18
414.31	3.5
414.672	3.09
415.035	3.15
415.397	3.61
415.759	2.96
416.121	3.54
416.483	3.21
416.845	3.3
417.206	3.22
417.568	3.41
417.93	3.1
418.292	3.23
418.653	3.35
419.015	3.04
419.377	3.15
419.738	3.35
420.1	3.18
420.461	3.34
420.822	3.27
421.184	3.21
421.545	3.26
421.906	3.09
422.267	3.23
422.629	3.16
422.99	3.24
423.351	3.21
423.712	3.24
424.073	3.2
424.434	3.11
424.795	3.29
425.155	3.18
425.516	3.1
425.877	3.14
426.238	3.15
426.598	3.2
426.959	3.28
427.32	3.2
427.68	3.16
428.041	3.31
428.401	3.29
428.761	3.28
429.122	3.28
429.482	3.05
429.842	3.39
430.202	3.26
430.563	3.28
430.923	3.36
431.283	3.37
431.643	3.25
432.003	3.33
432.363	3.53
432.722	3.34
433.082	3.3
433.442	3.26
433.802	3.02
434.161	3.28
434.521	3.52
434.881	3.25
435.24	3.15
435.6	3.28
435.959	3.19
436.319	3.27
436.678	3.25
437.037	3.3
437.396	3.52
437.756	3.31
438.115	3.23
438.474	3.4
438.833	2.99
439.192	3.3
439.551	3.55
439.91	3.19
440.269	3.31
440.628	3.11
440.987	3.28
441.345	3.06
441.704	3.36
442.063	3.24
442.421	3.14
442.78	3.3
443.138	3.14
443.497	3.28
443.855	3.22
444.214	3.24
444.572	3.44
444.93	3.4
445.288	3.24
445.647	3.38
446.005	3.31
446.363	3.42
446.721	3.36
447.079	3.16
447.437	3.19
447.795	3.29
448.153	3.18
448.51	3.25
448.868	3.27
449.226	3.23
449.584	3.37
449.941	3.27
450.299	3.24
450.656	3.19
451.014	3.35
451.371	3.24
451.729	3.24
452.086	3.52
452.443	3.36
452.801	3.41
453.158	3.26
453.515	3.12
453.872	3.38
454.229	3.31
454.586	3.21
454.943	3.28
455.3	3.55
455.657	3.29
456.014	3.2
456.371	3.29
456.727	3.22
457.084	3.48
457.441	3.34
457.797	3.4
458.154	3.44
458.51	3.34
458.867	3.45
459.223	3.33
459.58	3.43
459.936	3.38
460.292	3.37
460.648	3.39
461.005	3.16
461.361	3.36
461.717	3.23
462.073	3.19
462.429	3.27
462.785	3.32
463.141	3.33
463.496	3.36
463.852	3.28
464.208	3.38
464.564	3.32
464.919	3.28
465.275	3.42
465.631	3.54
465.986	3.48
466.342	3.43
466.697	3.06
467.052	3.27
467.408	3.45
467.763	3.42
468.118	3.43
468.473	3.2
468.829	3.28
469.184	3.17
469.539	3.46
469.894	3.34
470.249	3.42
470.603	3.49
470.958	3.5
471.313	3.41
471.668	3.42
472.023	3.33
472.377	3.27
472.732	3.32
473.086	3.15
473.441	3.28
473.795	3.39
474.15	3.62
474.504	3.26
474.859	3.52
475.213	3.29
475.567	3.33
475.921	3.2
476.275	3.38
476.63	3.51
476.984	3.61
477.338	3.49
477.692	3.34
478.045	3.17
478.399	3.4
478.753	3.43
479.107	3.22
479.461	3.24
479.814	3.39
480.168	3.32
480.521	3.23
480.875	3.31
481.228	3.3
481.582	3.27
481.935	3.38
482.289	3.41
482.642	3.19
482.995	3.37
483.348	3.13
483.701	3.29
484.055	3.32
484.408	3.28
484.761	3.24
485.114	3.07
485.466	3.03
485.819	3
486.172	3.01
486.525	3.18
486.878	3.22
487.23	3.31
487.583	3.24
487.936	3.29
488.288	3.23
488.641	3.25
488.993	3.08
489.345	3.07
489.698	3.05
490.05	3.13
490.402	3.24
490.754	3.19
491.107	3.31
491.459	3.33
491.811	3.3
492.163	3.33
492.515	3.37
492.866	3.23
493.218	3.15
493.57	3.06
493.922	3.15
494.274	3.27
494.625	3.36
494.977	3.38
495.328	3.4
495.68	3.34
496.031	3.39
496.383	3.28
496.734	3.55
497.086	3.44
497.437	3.43
497.788	3.36
498.139	3.32
498.49	3.46
498.842	3.12
499.193	3.3
499.544	3.37
499.894	3.22
500.245	3.4
500.596	3.33
500.947	3.41
501.298	3.35
501.648	3.42
501.999	3.51
502.35	3.37
502.7	3.41
503.051	3.17
503.401	3.34
503.752	3.54
504.102	3.45
504.452	3.41
504.803	3.47
505.153	3.29
505.503	3.36
505.853	3.4
506.203	3.32
506.553	3.23
506.903	3.25
507.253	3.3
507.603	3.48
507.953	3.35
508.303	3.54
508.652	3.13
509.002	3.51
509.352	3.5
509.701	3.31
510.051	3.3
510.4	3.35
510.75	3.28
511.099	3.45
511.449	3.24
511.798	3.29
512.147	3.36
512.496	3.44
512.846	3.32
513.195	3.38
513.544	3.26
513.893	3.4
514.242	3.31
514.591	3.51
514.939	3.3
515.288	3.31
515.637	3.45
515.986	3.49
516.334	3.45
516.683	3.43
517.032	3.58
517.38	3.49
517.729	3.35
518.077	3.42
518.426	3.48
518.774	3.41
519.122	3.35
519.47	3.31
519.819	3.16
520.167	3.22
520.515	3.32
520.863	3.25
521.211	3.37
521.559	3.43
521.907	3.29
522.255	3.38
522.602	3.3
522.95	3.35
523.298	3.31
523.645	3.52
523.993	3.41
524.341	3.43
524.688	3.46
525.036	3.28
525.383	3.19
525.73	3.41
526.078	3.39
526.425	3.28
526.772	3.34
527.119	3.2
527.466	3.27
527.814	3.3
528.161	3.3
528.508	3.36
528.854	3.36
529.201	3.27
529.548	3.21
529.895	3.15
530.242	3.04
530.588	3.08
530.935	3.1
531.282	3.25
531.628	3.26
531.975	3.35
532.321	3.38
532.667	3.38
533.014	3.37
533.36	3.41
533.706	3.35
534.052	3.28
534.399	3.18
534.745	3.15
535.091	3.16
535.437	3.24
535.783	3.24
536.129	3.38
536.474	3.35
536.82	3.46
537.166	3.33
537.512	3.27
537.857	3.35
538.203	3.29
538.549	3.22
538.894	3.29
539.239	3.38
539.585	3.31
539.93	3.43
540.276	3.51
540.621	3.53
540.966	3.44
541.311	3.22
541.656	3.24
542.001	3.41
542.346	3.45
542.691	3.19
543.036	3.19
543.381	3.07
543.726	3.2
544.071	3.32
544.415	3.41
544.76	3.3
545.105	3.26
545.449	3.36
545.794	3.44
546.138	3.36
546.483	3.42
546.827	3.45
547.171	3.45
547.516	3.5
547.86	3.32
548.204	3.34
548.548	3.28
548.892	3.34
549.236	3.37
549.58	3.29
549.924	3.41
550.268	3.51
550.612	3.55
550.956	3.6
551.3	3.46
551.643	3.73
551.987	3.59
552.33	3.51
552.674	3.53
553.017	3.3
553.361	3.52
553.704	3.72
554.048	3.22
554.391	3.41
554.734	3.45
555.077	3.58
555.42	3.15
555.764	3.24
556.107	3.2
556.45	3.27
556.793	3.49
557.135	3.6
557.478	3.57
557.821	3.5
558.164	3.5
558.507	3.39
558.849	3.31
559.192	3.34
559.534	3.48
559.877	3.53
560.219	3.46
560.562	3.63
560.904	3.67
561.246	3.63
561.589	3.63
561.931	3.56
562.273	3.22
562.615	3.49
562.957	3.44
563.299	3.21
563.641	3.42
563.983	3.52
564.325	3.34
564.667	3.39
565.008	3.46
565.35	3.42
565.692	3.37
566.033	3.56
566.375	3.56
566.716	3.56
567.058	3.53
567.399	3.36
567.741	3.26
568.082	3.46
568.423	3.37
568.764	3.23
569.105	3.65
569.447	3.59
569.788	3.35
570.129	3.6
570.47	3.41
570.811	3.64
571.151	3.4
571.492	3.44
571.833	3.34
572.174	3.51
572.514	3.5
572.855	3.17
573.195	3.36
573.536	3.47
573.876	3.31
574.217	3.32
574.557	3.4
574.898	3.52
575.238	3.44
575.578	3.3
575.918	3.65
576.258	3.64
576.598	3.44
576.938	3.52
577.278	3.5
577.618	3.47
577.958	3.36
578.298	3.45
578.638	3.42
578.977	3.52
579.317	3.23
579.657	3.4
579.996	3.39
580.336	3.67
580.675	3.53
581.014	3.52
581.354	3.5
581.693	3.54
582.032	3.48
582.372	3.36
582.711	3.42
583.05	3.43
583.389	3.4
583.728	3.22
584.067	3.48
584.406	3.76
584.745	3.49
585.083	3.54
585.422	3.69
585.761	3.5
586.1	3.62
586.438	3.44
586.777	3.48
587.115	3.57
587.454	3.47
587.792	3.37
588.13	3.5
588.469	3.39
588.807	3.59
589.145	3.22
589.483	3.48
589.821	3.36
590.159	3.54
590.497	3.78
590.835	3.75
591.173	3.41
591.511	3.82
591.849	3.58
592.187	3.47
592.524	3.35
592.862	3.7
593.2	3.8
593.537	3.5
593.875	3.4
594.212	3.35
594.55	3.39
594.887	3.81
595.224	3.43
595.561	3.6
595.899	3.37
596.236	3.51
596.573	3.64
596.91	3.06
597.247	3.08
597.584	3.85
597.921	3.46
598.258	3.34
598.594	3.5
598.931	3.53
599.268	3.4
599.604	3.27
599.941	3.65
600.277	3.43
600.614	3.55
600.95	3.28
601.287	3.51
601.623	3.53
601.959	3.36
602.296	3.37
602.632	3.42
602.968	3.57
603.304	3.42
603.64	3.44
603.976	3.74
604.312	3.61
604.648	3.61
604.984	3.53
605.319	3.61
605.655	3.39
605.991	3.45
606.326	3.61
606.662	3.4
606.998	3.32
607.333	3.43
607.668	3.52
608.004	3.42
608.339	3.88
608.674	3.73
609.01	3.37
609.345	3.41
609.68	3.65
610.015	3.27
610.35	3.44
610.685	3.28
611.02	3.41
611.355	3.62
611.689	3.32
612.024	3.56
612.359	3.41
612.694	3.62
613.028	3.35
613.363	3.82
613.697	3.84
614.032	3.86
614.366	3.56
614.7	3.82
615.035	3.66
615.369	3.55
615.703	3.33
616.037	3.6
616.371	3.43
616.705	3.47
617.039	3.5
617.373	3.24
617.707	3.43
618.041	3.58
618.375	3.83
618.709	3.66
619.042	3.29
619.376	3.65
619.71	3.93
620.043	3.79
620.377	3.57
620.71	3.47
621.043	3.64
621.377	3.54
621.71	3.69
622.043	3.63
622.376	3.34
622.709	3.74
623.043	3.63
623.376	3.61
623.709	3.67
624.041	3.8
624.374	3.74
624.707	3.4
625.04	3.86
625.373	3.16
625.705	3.66
626.038	3.41
626.37	3.69
626.703	3.67
627.035	3.5
627.368	3.72
627.7	3.46
628.032	3.35
628.365	3.75
628.697	3.8
629.029	3.33
629.361	3.46
629.693	3.96
630.025	3.79
630.357	3.82
630.689	3.75
631.021	3.45
631.353	3.84
631.684	3.45
632.016	3.28
632.348	3.8
632.679	3.91
633.011	3.53
633.342	4.13
633.674	3.7
634.005	4.14
634.336	3.76
634.668	4.21
634.999	3.62
635.33	4.12
635.661	3.81
635.992	3.47
636.323	3.6
636.654	3.99
636.985	3.71
637.316	3.33
637.647	3.7
637.977	3.86
638.308	3.82
638.639	3.53
638.969	3.65
639.3	3.38
639.63	3.42
639.961	4.13
640.291	3.55
640.622	4
640.952	3.3
641.282	3.96
641.612	3.61
641.943	3.66
642.273	3.67
642.603	3.87
642.933	4
643.263	3.85
643.592	3.36
643.922	3.73
644.252	3.4
644.582	4.03
644.911	3.01
645.241	3.9
645.571	3.7
645.9	3.15
646.23	3.37
646.559	3.98
646.888	3.71
647.218	3.79
647.547	4.13
647.876	3.64
648.205	3.67
648.534	3.44
648.863	3.4
649.192	4.23
649.521	3.35
649.85	3.59
650.179	4.07
650.508	3.38
650.837	3.21
651.165	3.3
651.494	4.06
651.822	3.96
652.151	3.44
652.479	3.7
652.808	3.63
653.136	3.75
653.465	3.14
653.793	3.52
654.121	3.21
654.449	3.85
654.777	3.82
655.105	3.75
655.433	3.41
655.761	3.45
656.089	4.09
656.417	3.7
656.745	3.35
657.073	3.46
657.4	4.17
657.728	3.66
658.056	3.78
658.383	3.08
658.711	4.01
659.038	4.1
659.365	4.35
659.693	3.54
660.02	3.8
660.347	4.04
660.674	4.07
661.001	3.88
661.329	3.28
661.656	3.93
661.982	3.96
662.309	3.92
662.636	3.46
662.963	3.8
663.29	4.52
663.616	4.17
663.943	3.05
664.27	4.03
664.596	4
664.923	4.46
665.249	4.18
665.576	3.67
665.902	4.39
666.228	3.46
666.554	3.9
666.881	3.21
667.207	3.52
667.533	4.02
667.859	4.24
668.185	3.97
668.511	3.53
668.837	3.13
669.162	3.88
669.488	3.91
669.814	3.78
670.139	4.35
670.465	4.53
670.791	4.13
671.116	4.44
671.442	3.79
671.767	4.51
672.092	4.41
672.418	4.09
672.743	4
673.068	3.35
673.393	3.89
673.718	4.26
674.043	4.62
674.368	3.81
674.693	4.95
675.018	3.76
675.343	3.8
675.667	4.11
675.992	4.8
676.317	4.27
676.641	4.65
676.966	4.73
677.29	4.04
677.615	4.83
677.939	4.93
678.264	4.07
678.588	4.42
678.912	4.06
679.236	4.67
679.56	3.68
679.885	4.25
680.209	4.19
680.532	4.25
680.856	4
681.18	3.98
681.504	4.2
681.828	3.82
682.152	3.68
682.475	3.87
682.799	3.77
683.122	4.39
683.446	3.74
683.769	4.6
684.093	3.74
684.416	4.46
684.739	4.28
685.062	3.86
685.386	4.74
685.709	3.42
686.032	3.42
686.355	3.75
686.678	4.46
687.001	3.67
687.324	4.99
687.646	3.44
687.969	3.52
688.292	3.67
688.614	3.51
688.937	4.82
689.26	3.25
689.582	4.57
689.904	4.12
690.227	3.76
690.549	4.74
690.871	4.72
691.194	4.1
691.516	3.57
691.838	4.84
692.16	3.79
692.482	3.88
692.804	4.22
