Data from 0415_forehead_Reflection__2__27.txt Node

Date: Fri Dec 15 16:37:42 CST 2023
User: ToomeyLab
Spectrometer: FLMS14357
Trigger mode: 0
Integration Time (sec): 1.000000E-2
Scans to average: 100
Electric dark correction enabled: true
Nonlinearity correction enabled: false
Boxcar width: 0
XAxis mode: Wavelengths
Number of Pixels in Spectrum: 2048
>>>>>Begin Spectral Data<<<<<
189.047	982.09
189.435	982.09
189.823	982.09
190.211	138.31
190.599	273.64
190.987	183.17
191.375	-22.43
191.763	-65.16
192.151	55.17
192.538	62.99
192.926	-97.56
193.314	2554.71
193.702	-13.82
194.089	193.78
194.477	173.87
194.864	-154.51
195.252	78.12
195.639	167.36
196.027	-609.16
196.414	285.28
196.801	43.87
197.189	-115.68
197.576	2.4
197.963	93.58
198.351	-43.53
198.738	57.04
199.125	23.32
199.512	72.1
199.899	45.76
200.286	93.82
200.673	44.95
201.06	62.4
201.447	52.98
201.833	39.56
202.22	71.04
202.607	63.23
202.994	18.14
203.38	52.3
203.767	36.63
204.154	75.83
204.54	54.83
204.927	0.46
205.313	37.82
205.699	34.58
206.086	67.19
206.472	45.84
206.858	52.76
207.245	-17.48
207.631	45.34
208.017	70.63
208.403	34.3
208.789	35.17
209.175	50.77
209.561	35.08
209.947	34.31
210.333	40.46
210.719	50.91
211.105	17.46
211.491	23.15
211.876	51.66
212.262	52.79
212.648	38.31
213.034	29
213.419	30.54
213.805	28.33
214.19	-4.47
214.576	43.38
214.961	72.47
215.346	10.43
215.732	27.12
216.117	50.42
216.502	39.72
216.888	27.96
217.273	41.83
217.658	29.37
218.043	35.9
218.428	37.08
218.813	31.5
219.198	-3.08
219.583	47.07
219.968	34.19
220.353	35.66
220.738	59.64
221.122	31.97
221.507	10.75
221.892	46.83
222.276	20.45
222.661	38.23
223.046	39.97
223.43	14.98
223.815	22.66
224.199	2.39
224.583	15.07
224.968	12.92
225.352	25.7
225.736	2.69
226.121	5.84
226.505	18.01
226.889	22.37
227.273	10.19
227.657	16.74
228.041	8.11
228.425	5.72
228.809	13.01
229.193	8.72
229.577	6.2
229.961	7.39
230.344	6.08
230.728	6.09
231.112	5.81
231.495	5.42
231.879	6.38
232.263	7.72
232.646	7.1
233.03	6.9
233.413	3.46
233.797	6.14
234.18	8.06
234.563	8.73
234.946	8.29
235.33	8.31
235.713	7.57
236.096	7.17
236.479	6.07
236.862	6.37
237.245	8.27
237.628	4.62
238.011	8.5
238.394	7.64
238.777	8.65
239.16	5.77
239.543	7.13
239.925	9.19
240.308	7.46
240.691	7.09
241.073	7.14
241.456	6.09
241.838	4.75
242.221	6.03
242.603	5.59
242.986	5.86
243.368	5.48
243.75	5.99
244.133	5.34
244.515	5.83
244.897	6.42
245.279	5.92
245.661	5.94
246.043	4.91
246.425	4.46
246.807	7.52
247.189	6.58
247.571	6.55
247.953	5.85
248.335	5.58
248.717	5.31
249.098	5.34
249.48	5.56
249.862	5.38
250.243	5.44
250.625	6.13
251.006	6.08
251.388	5.03
251.769	5.53
252.151	6.36
252.532	5.12
252.913	5.4
253.295	5.59
253.676	5.01
254.057	5.24
254.438	5.61
254.819	5.62
255.2	6.14
255.581	6.85
255.962	6.38
256.343	7.48
256.724	6.21
257.105	6.37
257.486	6
257.867	6.43
258.247	5.52
258.628	5.86
259.009	5.27
259.389	5.41
259.77	6.14
260.15	5.46
260.531	5.11
260.911	5.99
261.292	5.9
261.672	5.62
262.052	5.58
262.432	5.72
262.813	5.5
263.193	5.76
263.573	5.05
263.953	5.02
264.333	6.62
264.713	6.42
265.093	5.61
265.473	6.34
265.853	5.21
266.233	6.34
266.612	4.17
266.992	4.8
267.372	6.32
267.752	5.58
268.131	6.01
268.511	6.5
268.89	6.16
269.27	5.33
269.649	5.79
270.029	5.6
270.408	6.94
270.787	6.24
271.167	6.43
271.546	5.94
271.925	5.22
272.304	6.04
272.683	6.18
273.062	5.58
273.441	5.71
273.82	5.25
274.199	5.46
274.578	5.47
274.957	5.59
275.336	5.74
275.715	5.32
276.093	5.7
276.472	5.83
276.851	5.61
277.229	4.92
277.608	5.43
277.986	5.83
278.365	5.79
278.743	5.38
279.122	5.67
279.5	5.88
279.878	5.9
280.257	5.49
280.635	5.45
281.013	5.25
281.391	5.91
281.769	6.47
282.147	6.02
282.525	7.17
282.903	5.52
283.281	6.25
283.659	5.73
284.037	5.78
284.415	5.78
284.792	6.12
285.17	4.99
285.548	5.58
285.925	6.05
286.303	5.6
286.68	5.66
287.058	5.98
287.435	5.85
287.813	5.75
288.19	5.43
288.567	5.54
288.945	6.59
289.322	6.02
289.699	5.79
290.076	5.94
290.453	6.23
290.83	6.15
291.207	5.57
291.584	6.2
291.961	6.7
292.338	6.05
292.715	6.43
293.092	5.84
293.469	5.96
293.845	6.82
294.222	6.12
294.599	6.71
294.975	6.17
295.352	7.03
295.728	6.51
296.105	6.35
296.481	6.76
296.858	6.86
297.234	6.43
297.61	6.8
297.986	6.93
298.363	7.1
298.739	7.09
299.115	6.48
299.491	6.45
299.867	6.62
300.243	6.87
300.619	7.17
300.995	7.07
301.371	7.59
301.746	7.03
302.122	7.43
302.498	7.93
302.874	7.58
303.249	8.15
303.625	7.13
304	8.08
304.376	7.74
304.751	7.94
305.127	8.78
305.502	7.73
305.878	7.46
306.253	7.73
306.628	8.71
307.003	8.02
307.378	8.42
307.754	8.52
308.129	7.79
308.504	8.62
308.879	8.69
309.254	9.95
309.629	9.03
310.003	9.08
310.378	9.23
310.753	9.21
311.128	9.06
311.502	9.14
311.877	9.65
312.252	8.98
312.626	9.08
313.001	9.07
313.375	9.87
313.75	9.54
314.124	10
314.498	9.32
314.873	10.42
315.247	9.92
315.621	10.46
315.995	9.96
316.369	10.18
316.743	10.39
317.117	11.12
317.491	10.57
317.865	10.43
318.239	10.49
318.613	11.47
318.987	11.12
319.361	10.9
319.734	11.45
320.108	11.8
320.482	11.35
320.855	11.79
321.229	11.41
321.602	10.7
321.976	11.59
322.349	11.44
322.723	11.95
323.096	12.65
323.469	11.63
323.843	13.11
324.216	12.78
324.589	12.65
324.962	12.47
325.335	12.52
325.708	12.1
326.081	12.4
326.454	12.32
326.827	12.55
327.2	12.67
327.573	12.96
327.945	13.33
328.318	12.74
328.691	12.33
329.063	13.24
329.436	12.71
329.809	13.11
330.181	13.2
330.553	13.45
330.926	14.26
331.298	13.84
331.671	14.19
332.043	14.34
332.415	14.25
332.787	14.33
333.159	14.76
333.532	14.06
333.904	14.43
334.276	14.09
334.648	14.56
335.02	14.45
335.391	14.83
335.763	14.29
336.135	14.72
336.507	15.51
336.879	14.78
337.25	14.72
337.622	14.96
337.993	15.22
338.365	15.81
338.736	15.24
339.108	15.3
339.479	15.32
339.851	15.47
340.222	15.52
340.593	15.72
340.964	15.53
341.336	16.53
341.707	15.91
342.078	16.31
342.449	16.33
342.82	16.13
343.191	15.78
343.562	16.1
343.933	15.87
344.303	16.37
344.674	16.65
345.045	16.53
345.416	16.91
345.786	16.67
346.157	16.92
346.527	16.31
346.898	16.43
347.268	17.07
347.639	16.47
348.009	17.14
348.38	16.66
348.75	16.98
349.12	17.04
349.49	17.59
349.861	17.6
350.231	17.51
350.601	17.52
350.971	17.86
351.341	17.77
351.711	17.9
352.081	17.92
352.45	17.6
352.82	18.72
353.19	17.86
353.56	18.11
353.929	18.61
354.299	18.01
354.669	18.19
355.038	18.47
355.408	18.44
355.777	18.73
356.147	18.37
356.516	18.24
356.885	18.9
357.254	18.81
357.624	19.36
357.993	19.09
358.362	18.65
358.731	18.83
359.1	18.9
359.469	19.3
359.838	19.54
360.207	19.24
360.576	19.43
360.945	19.63
361.314	19.87
361.682	19.7
362.051	19.98
362.42	20
362.788	19.69
363.157	19.89
363.525	19.95
363.894	20.01
364.262	20.08
364.631	20.14
364.999	20.4
365.367	20.07
365.735	20.79
366.104	20.57
366.472	20.88
366.84	20.65
367.208	20.88
367.576	21.37
367.944	21.14
368.312	20.68
368.68	20.77
369.048	21.34
369.416	21.51
369.783	21.1
370.151	21.87
370.519	21.89
370.886	21.97
371.254	21.79
371.621	22.01
371.989	22.05
372.356	21.84
372.724	22.15
373.091	21.78
373.458	21.47
373.826	22.38
374.193	22.5
374.56	22.38
374.927	22.67
375.294	22.69
375.661	22.23
376.028	22.48
376.395	22.67
376.762	22.63
377.129	22.57
377.496	22.65
377.863	23.08
378.229	22.46
378.596	23.21
378.963	23.08
379.329	23.03
379.696	23.53
380.062	23.23
380.429	23.36
380.795	23.54
381.161	23.76
381.528	23.63
381.894	23.55
382.26	23.5
382.626	24.17
382.993	23.66
383.359	24.36
383.725	24.12
384.091	24.55
384.457	24.57
384.823	24.68
385.188	24.69
385.554	24.36
385.92	24.3
386.286	24.84
386.651	24.91
387.017	25.11
387.383	25.01
387.748	25.24
388.114	25.33
388.479	25.18
388.845	25.09
389.21	25.36
389.575	25.28
389.94	25.24
390.306	25.75
390.671	25.91
391.036	25.44
391.401	25.57
391.766	25.89
392.131	25.42
392.496	26.13
392.861	25.9
393.226	25.57
393.591	25.94
393.956	25.73
394.32	26.14
394.685	25.94
395.05	26.6
395.414	26.09
395.779	26.58
396.143	26.52
396.508	26.5
396.872	26.43
397.236	26.9
397.601	26.69
397.965	26.85
398.329	27.41
398.694	27.01
399.058	27.07
399.422	26.93
399.786	27.5
400.15	27.43
400.514	27.54
400.878	27.67
401.242	27.46
401.605	27.71
401.969	27.86
402.333	27.79
402.697	27.95
403.06	28.32
403.424	27.8
403.787	27.97
404.151	28.22
404.514	27.92
404.878	28.17
405.241	28.15
405.604	28.62
405.968	28.31
406.331	28.65
406.694	28.8
407.057	28.61
407.42	28.77
407.783	28.56
408.146	28.97
408.509	28.81
408.872	28.86
409.235	29.06
409.598	29.44
409.961	29.02
410.323	29.34
410.686	28.91
411.049	29.48
411.411	29.6
411.774	29.57
412.136	29.71
412.499	29.65
412.861	29.88
413.223	29.77
413.586	29.87
413.948	30.06
414.31	29.92
414.672	29.89
415.035	29.73
415.397	30.66
415.759	30.15
416.121	30.29
416.483	30.41
416.845	30.17
417.206	30.46
417.568	30.4
417.93	30.4
418.292	30.55
418.653	30.75
419.015	30.76
419.377	30.55
419.738	30.34
420.1	30.52
420.461	30.44
420.822	30.53
421.184	30.47
421.545	30.56
421.906	30.54
422.267	30.65
422.629	30.83
422.99	30.81
423.351	30.73
423.712	30.7
424.073	30.93
424.434	31.02
424.795	31.02
425.155	31.17
425.516	31.31
425.877	31.32
426.238	31.21
426.598	31.43
426.959	31.45
427.32	31.59
427.68	31.73
428.041	31.93
428.401	32.1
428.761	31.87
429.122	32.02
429.482	31.95
429.842	32.3
430.202	32.49
430.563	32.47
430.923	32.57
431.283	32.67
431.643	32.66
432.003	32.8
432.363	32.83
432.722	33.04
433.082	33.26
433.442	33.17
433.802	32.92
434.161	33.02
434.521	33.24
434.881	33.27
435.24	33.16
435.6	33.26
435.959	33.42
436.319	33.39
436.678	33.42
437.037	33.62
437.396	33.51
437.756	34
438.115	33.75
438.474	33.73
438.833	33.84
439.192	33.91
439.551	33.92
439.91	34.03
440.269	33.69
440.628	33.87
440.987	34
441.345	34.1
441.704	34.37
442.063	34.03
442.421	34.34
442.78	34.38
443.138	34.43
443.497	34.46
443.855	34.58
444.214	34.74
444.572	34.76
444.93	34.76
445.288	34.85
445.647	35.05
446.005	35.02
446.363	34.96
446.721	34.98
447.079	35.06
447.437	35.28
447.795	35.08
448.153	34.79
448.51	34.82
448.868	35.18
449.226	35.23
449.584	35.34
449.941	35.47
450.299	35.22
450.656	35.69
451.014	35.74
451.371	35.66
451.729	35.95
452.086	36.32
452.443	36.18
452.801	36.12
453.158	35.99
453.515	36.01
453.872	36.42
454.229	36.16
454.586	36.51
454.943	36.38
455.3	36.49
455.657	36.39
456.014	36.62
456.371	36.65
456.727	36.9
457.084	37.13
457.441	37.01
457.797	36.95
458.154	37.14
458.51	37.3
458.867	37.44
459.223	37.53
459.58	37.39
459.936	37.47
460.292	37.48
460.648	37.3
461.005	37.41
461.361	37.17
461.717	37.02
462.073	37.17
462.429	37.17
462.785	37.63
463.141	37.74
463.496	37.77
463.852	37.86
464.208	37.98
464.564	38.24
464.919	38.13
465.275	38.3
465.631	38.45
465.986	38.45
466.342	38.56
466.697	38.28
467.052	38.74
467.408	38.63
467.763	38.55
468.118	38.56
468.473	38.84
468.829	38.78
469.184	38.94
469.539	39.14
469.894	39.11
470.249	38.98
470.603	39.05
470.958	39.08
471.313	39.47
471.668	39.24
472.023	39.58
472.377	39.61
472.732	39.46
473.086	39.44
473.441	39.4
473.795	39.95
474.15	40.02
474.504	39.81
474.859	39.46
475.213	39.48
475.567	40.14
475.921	40.2
476.275	40.21
476.63	40.15
476.984	40.36
477.338	40.72
477.692	40.25
478.045	40.43
478.399	40.25
478.753	40.42
479.107	40.33
479.461	40.73
479.814	40.4
480.168	40.35
480.521	40.71
480.875	40.64
481.228	40.7
481.582	40.62
481.935	40.82
482.289	40.97
482.642	40.78
482.995	40.86
483.348	40.69
483.701	40.64
484.055	40.67
484.408	40.67
484.761	40.21
485.114	40.13
485.466	39.78
485.819	40.04
486.172	40.12
486.525	40.18
486.878	40.16
487.23	40.46
487.583	40.63
487.936	40.79
488.288	41.06
488.641	40.97
488.993	40.62
489.345	40.64
489.698	40.64
490.05	40.75
490.402	40.9
490.754	40.99
491.107	41.29
491.459	41.57
491.811	41.75
492.163	42.13
492.515	41.94
492.866	41.58
493.218	41.44
493.57	41.41
493.922	41.38
494.274	41.63
494.625	41.91
494.977	42.17
495.328	42.41
495.68	42.61
496.031	42.87
496.383	42.83
496.734	42.94
497.086	43.17
497.437	43.22
497.788	43.21
498.139	43.11
498.49	43.26
498.842	43.12
499.193	43.35
499.544	43.36
499.894	43.41
500.245	43.36
500.596	43.43
500.947	43.51
501.298	43.65
501.648	43.84
501.999	43.96
502.35	44.3
502.7	43.99
503.051	44.04
503.401	43.95
503.752	44.27
504.102	44.28
504.452	44.53
504.803	44.59
505.153	44.71
505.503	44.38
505.853	44.49
506.203	44.42
506.553	44.67
506.903	44.79
507.253	44.74
507.603	44.72
507.953	44.93
508.303	44.94
508.652	44.87
509.002	45.06
509.352	45.1
509.701	44.95
510.051	45.01
510.4	45.11
510.75	45.07
511.099	44.99
511.449	44.98
511.798	45.3
512.147	45.07
512.496	45.17
512.846	45.48
513.195	45.52
513.544	45.39
513.893	45.53
514.242	45.44
514.591	45.29
514.939	45.53
515.288	45.64
515.637	45.71
515.986	45.66
516.334	45.99
516.683	45.95
517.032	46.29
517.38	46.16
517.729	46.25
518.077	46.16
518.426	46.29
518.774	46.24
519.122	46.26
519.47	46.33
519.819	46.16
520.167	45.79
520.515	46.1
520.863	46.07
521.211	46.28
521.559	46.38
521.907	46.35
522.255	46.44
522.602	46.51
522.95	46.51
523.298	46.89
523.645	47.11
523.993	46.93
524.341	47.21
524.688	47.45
525.036	47.19
525.383	47.38
525.73	47.3
526.078	47.35
526.425	47.08
526.772	47.09
527.119	47
527.466	46.87
527.814	46.71
528.161	46.87
528.508	47.11
528.854	46.93
529.201	46.88
529.548	46.99
529.895	46.53
530.242	46.42
530.588	46.55
530.935	46.7
531.282	46.6
531.628	46.64
531.975	47.06
532.321	47.15
532.667	47.28
533.014	47.69
533.36	47.67
533.706	47.76
534.052	47.94
534.399	47.75
534.745	47.5
535.091	47.35
535.437	47.51
535.783	47.51
536.129	47.68
536.474	47.92
536.82	48.36
537.166	48.2
537.512	48.3
537.857	48.38
538.203	48.39
538.549	48.18
538.894	48.44
539.239	48.56
539.585	48.79
539.93	48.78
540.276	48.99
540.621	48.95
540.966	49.16
541.311	49.17
541.656	48.78
542.001	49.11
542.346	49.09
542.691	48.64
543.036	48.34
543.381	48.44
543.726	48.48
544.071	48.78
544.415	49.04
544.76	48.84
545.105	48.98
545.449	49.17
545.794	49.23
546.138	49.57
546.483	49.7
546.827	49.86
547.171	49.54
547.516	49.9
547.86	49.95
548.204	50.05
548.548	49.76
548.892	49.91
549.236	50
549.58	50.18
549.924	50.2
550.268	50.54
550.612	50.81
550.956	50.56
551.3	50.75
551.643	51.1
551.987	50.92
552.33	51.44
552.674	51.27
553.017	51.01
553.361	51.18
553.704	51.14
554.048	51.31
554.391	50.93
554.734	51.17
555.077	51.29
555.42	51.29
555.764	51.38
556.107	51.19
556.45	51.3
556.793	51.76
557.135	51.63
557.478	51.7
557.821	51.6
558.164	51.48
558.507	52.08
558.849	51.7
559.192	51.99
559.534	52.04
559.877	52.28
560.219	52.1
560.562	52.56
560.904	52.56
561.246	52.55
561.589	52.39
561.931	52.77
562.273	52.22
562.615	52.58
562.957	52.22
563.299	52.27
563.641	52.62
563.983	52.44
564.325	52.71
564.667	52.86
565.008	52.62
565.35	52.71
565.692	52.93
566.033	52.95
566.375	53.05
566.716	52.89
567.058	52.95
567.399	52.84
567.741	52.41
568.082	52.62
568.423	52.79
568.764	52.58
569.105	53.1
569.447	52.98
569.788	52.98
570.129	52.98
570.47	52.84
570.811	53.61
571.151	53.37
571.492	53.3
571.833	53.29
572.174	53.41
572.514	53.28
572.855	53.45
573.195	53.49
573.536	53.29
573.876	53.24
574.217	53.44
574.557	53.43
574.898	53.53
575.238	53.81
575.578	53.53
575.918	53.5
576.258	53.84
576.598	53.62
576.938	53.71
577.278	53.86
577.618	53.53
577.958	53.66
578.298	53.73
578.638	54.12
578.977	54.2
579.317	54.34
579.657	54.26
579.996	54.59
580.336	54.42
580.675	54.5
581.014	54.69
581.354	54.88
581.693	54.99
582.032	55.02
582.372	55.41
582.711	55.28
583.05	55.12
583.389	55.03
583.728	55.24
584.067	55.37
584.406	55.26
584.745	54.77
585.083	55.09
585.422	55.37
585.761	55.67
586.1	55.42
586.438	55.11
586.777	55.25
587.115	55.22
587.454	55.08
587.792	55.41
588.13	55.51
588.469	55.53
588.807	55.81
589.145	55.48
589.483	55.6
589.821	55.95
590.159	55.79
590.497	55.96
590.835	55.69
591.173	55.68
591.511	55.71
591.849	55.47
592.187	55.68
592.524	55.86
592.862	55.79
593.2	56.06
593.537	55.84
593.875	55.82
594.212	56.12
594.55	56.21
594.887	56.26
595.224	56.49
595.561	56.01
595.899	56.18
596.236	56.16
596.573	56.5
596.91	56.21
597.247	56.46
597.584	56.28
597.921	56.2
598.258	56.13
598.594	56.37
598.931	56.14
599.268	56.39
599.604	56.35
599.941	56.35
600.277	56.39
600.614	56.7
600.95	56.7
601.287	57.01
601.623	57.03
601.959	56.89
602.296	56.95
602.632	56.95
602.968	56.53
603.304	57.11
603.64	56.58
603.976	56.91
604.312	57.23
604.648	57.29
604.984	57.11
605.319	56.86
605.655	57.2
605.991	57.25
606.326	56.99
606.662	57.04
606.998	56.87
607.333	57.24
607.668	57.16
608.004	56.92
608.339	57.56
608.674	57.91
609.01	57.7
609.345	57.33
609.68	57.64
610.015	57.53
610.35	57.58
610.685	57.19
611.02	57.95
611.355	57.86
611.689	57.38
612.024	57.55
612.359	57.94
612.694	57.87
613.028	57.95
613.363	57.91
613.697	58.12
614.032	58.25
614.366	57.99
614.7	58.07
615.035	58.03
615.369	58.31
615.703	58.33
616.037	58.54
616.371	58.75
616.705	58.07
617.039	58.41
617.373	58.7
617.707	58.77
618.041	58.59
618.375	58.87
618.709	58.36
619.042	58.71
619.376	59
619.71	58.93
620.043	58.6
620.377	59.01
620.71	59.14
621.043	59.04
621.377	58.66
621.71	59.01
622.043	59.38
622.376	58.57
622.709	59.1
623.043	58.54
623.376	59.04
623.709	58.81
624.041	59.52
624.374	59.99
624.707	59.28
625.04	59.06
625.373	58.76
625.705	59.52
626.038	59.22
626.37	59.22
626.703	59.49
627.035	59.76
627.368	59.34
627.7	59.25
628.032	59.3
628.365	59.1
628.697	59.92
629.029	59.39
629.361	59.29
629.693	59.65
630.025	59.56
630.357	59.75
630.689	59.56
631.021	59.51
631.353	60.25
631.684	59.73
632.016	59.79
632.348	59.62
632.679	60.01
633.011	60.05
633.342	60.21
633.674	59.92
634.005	60.86
634.336	60.11
634.668	60.41
634.999	60.46
635.33	60.15
635.661	60.18
635.992	59.54
636.323	60.72
636.654	60.51
636.985	60.68
637.316	60.52
637.647	60.18
637.977	60.59
638.308	60.65
638.639	60.61
638.969	60.61
639.3	60.83
639.63	60.82
639.961	60.48
640.291	60.63
640.622	60.57
640.952	61.1
641.282	60.9
641.612	60.8
641.943	60.68
642.273	60.73
642.603	60.92
642.933	61.21
643.263	61.26
643.592	61.27
643.922	60.83
644.252	61.44
644.582	61.52
644.911	61.25
645.241	61.59
645.571	61.56
645.9	61.24
646.23	61.59
646.559	62.06
646.888	61.54
647.218	60.95
647.547	61.81
647.876	61.51
648.205	61.35
648.534	61.79
648.863	61.37
649.192	61.25
649.521	61.64
649.85	61.65
650.179	61.87
650.508	61.63
650.837	61.56
651.165	62.12
651.494	62.34
651.822	61.26
652.151	61.56
652.479	62.09
652.808	61.54
653.136	61.74
653.465	61.79
653.793	62.14
654.121	61.41
654.449	61.5
654.777	62.66
655.105	62.41
655.433	62.19
655.761	61.9
656.089	63.27
656.417	62.4
656.745	61.61
657.073	62.17
657.4	62.45
657.728	61.74
658.056	62.21
658.383	62.2
658.711	62.69
659.038	62.87
659.365	62.42
659.693	62.05
660.02	62.19
660.347	62.29
660.674	62.18
661.001	62.42
661.329	61.79
661.656	62.5
661.982	62.58
662.309	62.63
662.636	63.14
662.963	62.86
663.29	62.07
663.616	62.52
663.943	62.27
664.27	62.62
664.596	61.82
664.923	62.63
665.249	63.04
665.576	63.3
665.902	63.41
666.228	63.33
666.554	62.42
666.881	63.7
667.207	63.27
667.533	63.67
667.859	63.81
668.185	63.52
668.511	62.29
