Data from 0415_forehead_Reflection__3__28.txt Node

Date: Fri Dec 15 16:37:52 CST 2023
User: ToomeyLab
Spectrometer: FLMS14357
Trigger mode: 0
Integration Time (sec): 1.000000E-2
Scans to average: 100
Electric dark correction enabled: true
Nonlinearity correction enabled: false
Boxcar width: 0
XAxis mode: Wavelengths
Number of Pixels in Spectrum: 2048
>>>>>Begin Spectral Data<<<<<
189.047	101.6
189.435	101.6
189.823	101.6
190.211	20.18
190.599	-1293.33
190.987	33.49
191.375	-102.09
191.763	-10.18
192.151	322.29
192.538	105.91
192.926	-496.69
193.314	3748.24
193.702	8.16
194.089	-33.02
194.477	43.12
194.864	31.68
195.252	89.2
195.639	125.62
196.027	-640.84
196.414	639.9
196.801	225.73
197.189	-81.43
197.576	212.08
197.963	105.97
198.351	52.57
198.738	42.11
199.125	51.73
199.512	45.06
199.899	77.34
200.286	47.04
200.673	39.98
201.06	-7.1
201.447	37.06
201.833	7.78
202.22	10
202.607	17.27
202.994	38.86
203.38	65.93
203.767	45.6
204.154	64.69
204.54	45.68
204.927	33.65
205.313	22.72
205.699	43.84
206.086	85.57
206.472	26.33
206.858	45.32
207.245	16.41
207.631	47.21
208.017	18.59
208.403	4.31
208.789	73.56
209.175	47.3
209.561	15.01
209.947	32.06
210.333	37.31
210.719	90.45
211.105	29.7
211.491	36.7
211.876	86.77
212.262	17.24
212.648	63.44
213.034	43.54
213.419	45.64
213.805	36.51
214.19	37.75
214.576	20.51
214.961	11.16
215.346	-8.49
215.732	19.78
216.117	34.98
216.502	65.93
216.888	41.3
217.273	83.61
217.658	35.8
218.043	44.8
218.428	-20.13
218.813	-2.5
219.198	21.71
219.583	27.63
219.968	45.27
220.353	28.86
220.738	39.94
221.122	23.79
221.507	18.53
221.892	20.13
222.276	0.08
222.661	18.25
223.046	39.11
223.43	15.71
223.815	33.8
224.199	12.87
224.583	15.93
224.968	11.58
225.352	17.47
225.736	6.53
226.121	-1.48
226.505	21.18
226.889	21.76
227.273	1.24
227.657	12.75
228.041	6.34
228.425	4.25
228.809	10.62
229.193	9.52
229.577	7.47
229.961	5.88
230.344	5.61
230.728	5.85
231.112	6.48
231.495	6.54
231.879	7.78
232.263	8.05
232.646	8.99
233.03	5.68
233.413	7.41
233.797	8.47
234.18	7.06
234.563	9.73
234.946	7.85
235.33	9.69
235.713	5.91
236.096	7.99
236.479	8.8
236.862	7.89
237.245	4.79
237.628	7.06
238.011	8.08
238.394	8.93
238.777	7.21
239.16	6.15
239.543	9.14
239.925	6.36
240.308	7.49
240.691	10.19
241.073	9.3
241.456	6.71
241.838	6.6
242.221	7.87
242.603	6.86
242.986	7.32
243.368	7.04
243.75	6.46
244.133	5.76
244.515	6.41
244.897	6.21
245.279	6.66
245.661	6.39
246.043	5.9
246.425	5.46
246.807	7.62
247.189	7.03
247.571	6.59
247.953	6.21
248.335	5.87
248.717	6.14
249.098	5.75
249.48	6.29
249.862	6.26
250.243	6.37
250.625	5.94
251.006	6.55
251.388	6.13
251.769	6.36
252.151	7.81
252.532	7.03
252.913	6.68
253.295	6.25
253.676	5.45
254.057	6.98
254.438	6.63
254.819	6.09
255.2	5.68
255.581	7.11
255.962	6.53
256.343	6.38
256.724	5.25
257.105	5.63
257.486	5.79
257.867	8.47
258.247	5.18
258.628	7.12
259.009	6.81
259.389	6.01
259.77	6.2
260.15	6.03
260.531	6.15
260.911	6.87
261.292	6.13
261.672	6.17
262.052	6.2
262.432	6.29
262.813	5.96
263.193	6.56
263.573	6.49
263.953	6.39
264.333	6.42
264.713	6.62
265.093	5.45
265.473	6.81
265.853	5.96
266.233	7.53
266.612	5.12
266.992	5.32
267.372	7.49
267.752	6.86
268.131	6.34
268.511	6.64
268.89	6.7
269.27	5.88
269.649	5.26
270.029	6
270.408	7.21
270.787	6.88
271.167	7.01
271.546	6.91
271.925	6.22
272.304	6.67
272.683	6.82
273.062	6.29
273.441	6.31
273.82	5.93
274.199	6.1
274.578	6.27
274.957	6.44
275.336	6.01
275.715	6.14
276.093	5.89
276.472	6.67
276.851	5.49
277.229	5.79
277.608	6.65
277.986	5.49
278.365	6.42
278.743	6.37
279.122	6.95
279.5	5.67
279.878	6.7
280.257	6.92
280.635	6.06
281.013	6.63
281.391	6.39
281.769	6.37
282.147	6.54
282.525	6.81
282.903	6.04
283.281	6.55
283.659	6.29
284.037	6.31
284.415	6.47
284.792	6.52
285.17	5.97
285.548	5.94
285.925	6.71
286.303	6.36
286.68	5.83
287.058	6.19
287.435	6.09
287.813	6.45
288.19	6.14
288.567	6.15
288.945	6.64
289.322	6.57
289.699	6.21
290.076	6.45
290.453	6.61
290.83	6.2
291.207	6.82
291.584	6.41
291.961	6.97
292.338	6.88
292.715	7.45
293.092	6.18
293.469	7.12
293.845	7.35
294.222	7.21
294.599	7.53
294.975	6.79
295.352	7.7
295.728	6.93
296.105	7.15
296.481	7.64
296.858	7.24
297.234	7.62
297.61	7.16
297.986	7.61
298.363	7.77
298.739	7.79
299.115	7.03
299.491	7.55
299.867	7.67
300.243	8.07
300.619	7.89
300.995	7.84
301.371	8.43
301.746	8.28
302.122	8.75
302.498	8.31
302.874	8.51
303.249	8.49
303.625	8.18
304	8.91
304.376	8.76
304.751	8.02
305.127	9.7
305.502	8.81
305.878	7.77
306.253	8.49
306.628	9.52
307.003	9.06
307.378	9.4
307.754	8.81
308.129	8.74
308.504	9.49
308.879	8.91
309.254	10.06
309.629	10.13
310.003	9.63
310.378	10.34
310.753	9.58
311.128	10.11
311.502	9.77
311.877	10.55
312.252	9.4
312.626	10.12
313.001	10.16
313.375	10.96
313.75	10.63
314.124	11.09
314.498	10.47
314.873	10.71
315.247	11.14
315.621	11.39
315.995	10.65
316.369	10.95
316.743	11.37
317.117	11.97
317.491	11.15
317.865	11.94
318.239	11.89
318.613	12.12
318.987	11.54
319.361	11.17
319.734	12.66
320.108	12.6
320.482	12.2
320.855	12.59
321.229	11.89
321.602	12.31
321.976	13.17
322.349	13.41
322.723	13.33
323.096	13.45
323.469	12.35
323.843	13.17
324.216	13.2
324.589	13.18
324.962	13.31
325.335	12.85
325.708	12.95
326.081	13.55
326.454	13.32
326.827	13.34
327.2	13.74
327.573	13.74
327.945	14.01
328.318	13.99
328.691	13.33
329.063	14.11
329.436	14.15
329.809	15
330.181	14.14
330.553	14.72
330.926	14.88
331.298	14.8
331.671	14.67
332.043	14.99
332.415	15.69
332.787	15
333.159	15.67
333.532	15.28
333.904	15.29
334.276	15.55
334.648	15.18
335.02	15.74
335.391	15.69
335.763	15.79
336.135	15.54
336.507	16.45
336.879	15.94
337.25	15.39
337.622	15.31
337.993	15.94
338.365	16.44
338.736	15.88
339.108	16.23
339.479	15.9
339.851	16.79
340.222	16.06
340.593	16.6
340.964	15.97
341.336	17.98
341.707	16.06
342.078	16.85
342.449	16.8
342.82	16.62
343.191	17.34
343.562	17.37
343.933	17.51
344.303	16.99
344.674	16.8
345.045	17.53
345.416	18.04
345.786	17.09
346.157	17.66
346.527	17.13
346.898	17.38
347.268	18.07
347.639	17.59
348.009	18.24
348.38	17.95
348.75	17.88
349.12	18.07
349.49	18.75
349.861	18.36
350.231	18.15
350.601	18.8
350.971	18.65
351.341	18.88
351.711	18.65
352.081	18.81
352.45	18.61
352.82	18.99
353.19	19.36
353.56	19.22
353.929	19.45
354.299	19.15
354.669	19.38
355.038	19.48
355.408	19.21
355.777	19.78
356.147	19.64
356.516	19.39
356.885	19.89
357.254	19.87
357.624	20.61
357.993	20.09
358.362	19.55
358.731	19.71
359.1	20.05
359.469	20.66
359.838	20.62
360.207	19.95
360.576	20.17
360.945	20.5
361.314	20.66
361.682	20.25
362.051	20.55
362.42	20.71
362.788	20.83
363.157	20.89
363.525	20.75
363.894	20.95
364.262	21.15
364.631	20.92
364.999	21.63
365.367	20.9
365.735	21.87
366.104	21.97
366.472	21.75
366.84	21.65
367.208	21.53
367.576	22.39
367.944	22.21
368.312	21.93
368.68	21.7
369.048	21.99
369.416	22.55
369.783	22.34
370.151	22.49
370.519	22.57
370.886	22.73
371.254	22.55
371.621	22.66
371.989	22.49
372.356	22.48
372.724	23.54
373.091	23.16
373.458	23.24
373.826	22.9
374.193	23.14
374.56	23.66
374.927	23.75
375.294	23.9
375.661	23.2
376.028	23.73
376.395	23.68
376.762	23.69
377.129	24
377.496	24.01
377.863	24.58
378.229	23.82
378.596	23.87
378.963	23.7
379.329	24
379.696	24.35
380.062	24.77
380.429	24.61
380.795	24.55
381.161	24.44
381.528	25
381.894	24.54
382.26	25.23
382.626	25.3
382.993	24.54
383.359	25.52
383.725	25.07
384.091	25.42
384.457	25.73
384.823	25.71
385.188	25.51
385.554	25.56
385.92	25.4
386.286	25.91
386.651	25.81
387.017	26.18
387.383	25.8
387.748	26.08
388.114	26.25
388.479	26.33
388.845	26.18
389.21	26.29
389.575	26.59
389.94	26.44
390.306	26.69
390.671	26.61
391.036	26.41
391.401	26.54
391.766	26.65
392.131	26.57
392.496	27.18
392.861	26.69
393.226	26.93
393.591	26.94
393.956	26.82
394.32	27.31
394.685	26.99
395.05	27.07
395.414	27.21
395.779	27.08
396.143	27.56
396.508	27.57
396.872	27.68
397.236	27.93
397.601	27.89
397.965	27.87
398.329	28.02
398.694	27.73
399.058	28.45
399.422	27.96
399.786	28.48
400.15	28.06
400.514	28.43
400.878	28.58
401.242	28.76
401.605	28.96
401.969	28.94
402.333	28.84
402.697	28.75
403.06	29.05
403.424	28.94
403.787	29.26
404.151	28.95
404.514	29.13
404.878	29.02
405.241	29.2
405.604	29.46
405.968	29.12
406.331	29.39
406.694	29.65
407.057	29.67
407.42	29.71
407.783	29.71
408.146	29.87
408.509	29.8
408.872	30.1
409.235	30.36
409.598	30.1
409.961	30.57
410.323	30.22
410.686	30.1
411.049	30.39
411.411	30.37
411.774	30.52
412.136	30.4
412.499	30.26
412.861	30.44
413.223	30.71
413.586	30.53
413.948	30.69
414.31	30.92
414.672	30.72
415.035	31.26
415.397	31.61
415.759	31.21
416.121	31.53
416.483	31.4
416.845	31.52
417.206	31.37
417.568	31.32
417.93	31.49
418.292	31.46
418.653	31.65
419.015	31.74
419.377	31.31
419.738	31.43
420.1	31.55
420.461	31.64
420.822	31.53
421.184	31.76
421.545	31.38
421.906	31.54
422.267	31.57
422.629	31.52
422.99	31.57
423.351	31.68
423.712	31.79
424.073	31.89
424.434	32.02
424.795	31.94
425.155	32.19
425.516	31.92
425.877	32.33
426.238	32.21
426.598	32.43
426.959	32.39
427.32	32.53
427.68	32.74
428.041	32.88
428.401	32.95
428.761	32.94
429.122	32.95
429.482	33.32
429.842	33.5
430.202	33.4
430.563	33.23
430.923	33.66
431.283	33.78
431.643	33.84
432.003	33.73
432.363	33.69
432.722	33.98
433.082	34.11
433.442	33.77
433.802	33.74
434.161	33.86
434.521	33.99
434.881	34
435.24	34.11
435.6	34.27
435.959	34.18
436.319	34.38
436.678	34.6
437.037	34.61
437.396	34.77
437.756	34.84
438.115	34.78
438.474	34.81
438.833	34.71
439.192	34.77
439.551	35.18
439.91	35.17
440.269	34.92
440.628	35.07
440.987	34.89
441.345	34.96
441.704	35.26
442.063	35.12
442.421	35.11
442.78	35.23
443.138	35.22
443.497	35.22
443.855	35.42
444.214	35.56
444.572	35.87
444.93	35.6
445.288	35.88
445.647	36.14
446.005	36.16
446.363	35.86
446.721	36.04
447.079	35.69
447.437	36.04
447.795	35.89
448.153	35.9
448.51	35.86
448.868	36.17
449.226	36.28
449.584	36.39
449.941	36.72
450.299	36.44
450.656	36.64
451.014	36.79
451.371	36.84
451.729	36.8
452.086	37.14
452.443	37.12
452.801	37.33
453.158	37.12
453.515	37.15
453.872	37.36
454.229	37.12
454.586	37.33
454.943	37.41
455.3	37.66
455.657	37.54
456.014	37.67
456.371	37.8
456.727	37.82
457.084	38.02
457.441	38.13
457.797	37.88
458.154	38.11
458.51	38.26
458.867	38.22
459.223	38.72
459.58	38.32
459.936	38.59
460.292	38.31
460.648	38.27
461.005	38.22
461.361	38.06
461.717	38.03
462.073	38.17
462.429	38.4
462.785	38.48
463.141	38.88
463.496	38.97
463.852	39.1
464.208	39.03
464.564	39.06
464.919	39.3
465.275	39.09
465.631	39.44
465.986	39.55
466.342	39.33
466.697	39.16
467.052	39.69
467.408	39.7
467.763	39.84
468.118	39.95
468.473	39.6
468.829	39.85
469.184	39.68
469.539	39.96
469.894	39.99
470.249	40.05
470.603	40.2
470.958	40.31
471.313	40.47
471.668	40.39
472.023	40.34
472.377	40.28
472.732	40.38
473.086	40.24
473.441	40.31
473.795	40.92
474.15	40.62
474.504	40.83
474.859	40.73
475.213	40.83
475.567	40.98
475.921	40.96
476.275	41.07
476.63	41.41
476.984	41.28
477.338	41.43
477.692	41.31
478.045	41.22
478.399	41.31
478.753	41.37
479.107	41.24
479.461	41.63
479.814	41.51
480.168	41.47
480.521	41.5
480.875	41.62
481.228	41.8
481.582	41.82
481.935	42.02
482.289	41.95
482.642	41.87
482.995	41.86
483.348	41.94
483.701	41.66
484.055	41.81
484.408	41.63
484.761	41.35
485.114	40.99
485.466	40.64
485.819	40.97
486.172	41.19
486.525	41.46
486.878	41.41
487.23	41.64
487.583	42.03
487.936	41.97
488.288	41.97
488.641	41.79
488.993	41.58
489.345	41.54
489.698	41.73
490.05	41.84
490.402	42.02
490.754	42.26
491.107	42.59
491.459	42.69
491.811	42.59
492.163	43.09
492.515	43.04
492.866	42.51
493.218	42.41
493.57	42.41
493.922	42.4
494.274	42.92
494.625	43.11
494.977	43.43
495.328	43.68
495.68	43.8
496.031	44
496.383	44.11
496.734	44.24
497.086	44.07
497.437	44.29
497.788	44.39
498.139	44.19
498.49	44.23
498.842	44.16
499.193	44.31
499.544	44.58
499.894	44.38
500.245	44.39
500.596	44.54
500.947	44.68
501.298	44.94
501.648	44.96
501.999	44.99
502.35	45.33
502.7	45.18
503.051	45.06
503.401	45.22
503.752	45.38
504.102	45.43
504.452	45.28
504.803	45.5
505.153	45.49
505.503	45.49
505.853	45.57
506.203	45.65
506.553	45.73
506.903	45.9
507.253	45.76
507.603	45.84
507.953	46.23
508.303	46.12
508.652	45.96
509.002	46.11
509.352	46.21
509.701	45.99
510.051	46
510.4	46.2
510.75	45.91
511.099	45.96
511.449	46.22
511.798	46.02
512.147	46.22
512.496	46.45
512.846	46.47
513.195	46.62
513.544	46.44
513.893	46.59
514.242	46.56
514.591	46.54
514.939	46.88
515.288	46.84
515.637	47
515.986	46.98
516.334	47.19
516.683	47.2
517.032	47.37
517.38	47.44
517.729	47.45
518.077	47.49
518.426	47.45
518.774	47.35
519.122	47.32
519.47	47.41
519.819	47.11
520.167	47.08
520.515	47.24
520.863	47.31
521.211	47.37
521.559	47.51
521.907	47.65
522.255	47.57
522.602	47.65
522.95	47.96
523.298	48.01
523.645	48.21
523.993	48.07
524.341	48.16
524.688	48.4
525.036	48.49
525.383	48.25
525.73	48.39
526.078	48.29
526.425	48.13
526.772	48.33
527.119	48.05
527.466	48.02
527.814	48.07
528.161	48.14
528.508	48.37
528.854	48.25
529.201	48.29
529.548	48.13
529.895	47.74
530.242	47.51
530.588	47.73
530.935	47.9
531.282	48.13
531.628	48.08
531.975	48.4
532.321	48.51
532.667	48.8
533.014	48.96
533.36	48.77
533.706	49.2
534.052	49.39
534.399	48.69
534.745	48.69
535.091	48.58
535.437	48.8
535.783	48.91
536.129	49
536.474	49.26
536.82	49.86
537.166	49.55
537.512	49.53
537.857	49.75
538.203	49.5
538.549	49.47
538.894	49.6
539.239	49.71
539.585	50.17
539.93	50.13
540.276	50.47
540.621	50.17
540.966	50.33
541.311	50.31
541.656	50.22
542.001	50.52
542.346	50.14
542.691	49.68
543.036	49.46
543.381	49.66
543.726	49.86
544.071	50.03
544.415	50.48
544.76	50.27
545.105	50.53
545.449	50.54
545.794	50.78
546.138	50.87
546.483	51.17
546.827	51.08
547.171	51.02
547.516	51.36
547.86	51.11
548.204	51.27
548.548	51.22
548.892	51.41
549.236	51.28
549.58	51.6
549.924	51.55
550.268	51.72
550.612	52.12
550.956	51.85
551.3	52.25
551.643	52.32
551.987	52.26
552.33	52.48
552.674	52.78
553.017	52.78
553.361	52.29
553.704	52.43
554.048	52.24
554.391	52.65
554.734	52.35
555.077	52.6
555.42	52.59
555.764	52.88
556.107	52.71
556.45	52.95
556.793	52.98
557.135	52.9
557.478	53
557.821	53.06
558.164	53.2
558.507	53.15
558.849	53.47
559.192	53.44
559.534	53.22
559.877	53.66
560.219	53.39
560.562	53.93
560.904	53.87
561.246	54.11
561.589	53.59
561.931	53.74
562.273	53.98
562.615	53.95
562.957	53.65
563.299	53.37
563.641	53.95
563.983	53.75
564.325	54.09
564.667	54.12
565.008	54.08
565.35	54.22
565.692	54.2
566.033	54.28
566.375	54.43
566.716	54.16
567.058	54.21
567.399	54.14
567.741	54.08
568.082	54.02
568.423	54.21
568.764	54.11
569.105	54.39
569.447	54.28
569.788	54.3
570.129	54.69
570.47	54.61
570.811	54.73
571.151	54.79
571.492	55.03
571.833	54.94
572.174	55.05
572.514	54.77
572.855	55.02
573.195	54.97
573.536	55.03
573.876	54.86
574.217	54.88
574.557	55.02
574.898	55.08
575.238	55.16
575.578	54.81
575.918	54.93
576.258	54.94
576.598	55.08
576.938	55.3
577.278	55.29
577.618	55.13
577.958	55.39
578.298	55.33
578.638	55.81
578.977	55.6
579.317	56.08
579.657	55.97
579.996	55.93
580.336	55.93
580.675	55.86
581.014	56.14
581.354	56.25
581.693	56.34
582.032	56.05
582.372	56.5
582.711	56.64
583.05	56.12
583.389	56.38
583.728	57.05
584.067	56.56
584.406	56.82
584.745	56.57
585.083	56.1
585.422	57.08
585.761	56.99
586.1	56.71
586.438	56.63
586.777	56.85
587.115	56.91
587.454	56.8
587.792	56.66
588.13	56.62
588.469	57.09
588.807	57.19
589.145	56.96
589.483	57.09
589.821	57.22
590.159	57.32
590.497	57.39
590.835	56.78
591.173	57.21
591.511	57.22
591.849	56.97
592.187	57.2
592.524	57.49
592.862	57.75
593.2	57.47
593.537	57.62
593.875	57.24
594.212	57.22
594.55	57.64
594.887	57.69
595.224	57.74
595.561	57.69
595.899	57.68
596.236	57.8
596.573	58.1
596.91	57.92
597.247	58.31
597.584	58.06
597.921	57.96
598.258	57.62
598.594	57.69
598.931	57.69
599.268	57.69
599.604	57.85
599.941	57.9
600.277	57.95
600.614	57.98
600.95	58.31
601.287	58.56
601.623	58.46
601.959	58.68
602.296	58.7
602.632	58.83
602.968	58.34
603.304	58.9
603.64	58.85
603.976	58.54
604.312	58.02
604.648	58.5
604.984	58.4
605.319	58.28
605.655	58.77
605.991	58.62
606.326	58.55
606.662	58.39
606.998	58.65
607.333	58.68
607.668	58.92
608.004	58.67
608.339	58.68
608.674	58.99
609.01	58.86
609.345	59.14
609.68	59.3
610.015	59.01
610.35	59.45
610.685	58.77
611.02	59.1
611.355	59.54
611.689	59.18
612.024	59.38
612.359	59.4
612.694	59.58
613.028	59.13
613.363	59.52
613.697	59.56
614.032	59.78
614.366	59.47
614.7	59.6
615.035	59.84
615.369	59.65
615.703	59.77
616.037	59.56
616.371	59.91
616.705	60.03
617.039	60.4
617.373	59.91
617.707	60.29
618.041	60.16
618.375	60.51
618.709	59.88
619.042	60.66
619.376	60.8
619.71	60.58
620.043	60.52
620.377	60.23
620.71	60.49
621.043	60.7
621.377	60.8
621.71	60.84
622.043	60.97
622.376	59.93
622.709	61.04
623.043	60.54
623.376	60.73
623.709	60.74
624.041	60.59
624.374	60.91
624.707	60.85
625.04	60.83
625.373	60.85
625.705	60.99
626.038	61.19
626.37	61.05
626.703	61.17
627.035	61.09
627.368	61.12
627.7	61.03
628.032	61.01
628.365	61.14
628.697	61.15
629.029	61.2
629.361	61.51
629.693	60.81
630.025	61.43
630.357	61.23
630.689	61.56
631.021	61.82
631.353	61.3
631.684	61.69
632.016	61.91
632.348	60.97
632.679	61.76
633.011	61.68
633.342	61.69
633.674	61.77
634.005	61.69
634.336	61.86
634.668	62.08
634.999	62.35
635.33	61.7
635.661	61.92
635.992	61.7
636.323	62.08
636.654	62.2
636.985	62.54
637.316	62.21
637.647	62.54
637.977	61.54
638.308	62.06
638.639	62.21
638.969	62.71
639.3	62.57
639.63	62.09
639.961	62.39
640.291	62.22
640.622	61.81
640.952	62.47
641.282	62.67
641.612	63.23
641.943	62.46
642.273	62.09
642.603	62.63
642.933	62.88
643.263	62.95
643.592	62.71
643.922	62.52
644.252	62.82
644.582	62.56
644.911	63.15
645.241	62.66
645.571	63.47
645.9	63.26
646.23	63.13
646.559	63.11
646.888	63.46
647.218	63.68
647.547	63.52
647.876	63.3
648.205	62.67
648.534	63.26
648.863	63.22
649.192	63.56
649.521	63.58
649.85	63.07
650.179	63.35
650.508	63.73
650.837	63.46
651.165	62.84
651.494	63.8
651.822	62.97
652.151	63.47
652.479	63.22
652.808	63.26
653.136	62.9
653.465	63.52
653.793	63.95
654.121	63.51
654.449	64.16
654.777	64.21
655.105	63.98
655.433	63.97
655.761	63.53
656.089	64.58
656.417	63.98
656.745	63.54
657.073	63.1
657.4	64.7
657.728	63.53
658.056	63.7
658.383	64.19
658.711	63.84
659.038	64.07
659.365	63.95
659.693	63.89
660.02	63.79
660.347	64.12
660.674	64.59
661.001	63.88
661.329	63.27
661.656	64.46
661.982	64.56
662.309	64.39
662.636	64.51
662.963	64.49
663.29	64.21
663.616	64.49
663.943	64.05
664.27	64.7
664.596	63.92
664.923	64.85
665.249	64.4
665.576	64.6
665.902	64.99
666.228	65.09
666.554	63.85
666.881	64.4
667.207	64.68
667.533	64.86
667.859	65.09
668.185	64.43
668.511	64.03
668.837	64.96
