Data from 0415_forehead_Reflection__0__25.txt Node

Date: Fri Dec 15 16:37:19 CST 2023
User: ToomeyLab
Spectrometer: FLMS14357
Trigger mode: 0
Integration Time (sec): 1.000000E-2
Scans to average: 100
Electric dark correction enabled: true
Nonlinearity correction enabled: false
Boxcar width: 0
XAxis mode: Wavelengths
Number of Pixels in Spectrum: 2048
>>>>>Begin Spectral Data<<<<<
189.047	-86.36
189.435	-86.36
189.823	-86.36
190.211	-75.05
190.599	-1225.76
190.987	188.56
191.375	83
191.763	-74.92
192.151	90.13
192.538	52.61
192.926	-201.81
193.314	886.47
193.702	139.47
194.089	373.75
194.477	-1.77
194.864	-99.89
195.252	84.58
195.639	103.21
196.027	-566.52
196.414	562.17
196.801	295.73
197.189	-20.48
197.576	-22.69
197.963	19.74
198.351	-14.75
198.738	19.67
199.125	19.82
199.512	16.97
199.899	-8.36
200.286	33.58
200.673	48.49
201.06	50.17
201.447	2.06
201.833	17.97
202.22	51.48
202.607	25.19
202.994	44.8
203.38	34.19
203.767	48.76
204.154	31.97
204.54	54.7
204.927	-1.47
205.313	35
205.699	50.63
206.086	57.57
206.472	27.68
206.858	65.61
207.245	-2.7
207.631	48.2
208.017	36.46
208.403	41.03
208.789	28.07
209.175	64.77
209.561	0.65
209.947	-2.63
210.333	116.96
210.719	80.82
211.105	38.75
211.491	15
211.876	54.92
212.262	63.44
212.648	30.63
213.034	30.32
213.419	13.73
213.805	-5.44
214.19	39.99
214.576	23.79
214.961	45.19
215.346	-15.95
215.732	32.98
216.117	25.61
216.502	41.82
216.888	32.55
217.273	64.85
217.658	17.2
218.043	23.93
218.428	-31.68
218.813	14.15
219.198	19.47
219.583	45.6
219.968	51.75
220.353	24.49
220.738	22.08
221.122	29.32
221.507	-0.96
221.892	-4.52
222.276	6.08
222.661	10.31
223.046	31.63
223.43	20.29
223.815	15.08
224.199	-2.41
224.583	19.64
224.968	6.36
225.352	20.21
225.736	1.32
226.121	4.84
226.505	13.06
226.889	13.21
227.273	4.05
227.657	13.15
228.041	1.34
228.425	7.69
228.809	9.76
229.193	9.45
229.577	6.74
229.961	4.12
230.344	5.03
230.728	4.35
231.112	4.25
231.495	4.49
231.879	5.22
232.263	8.5
232.646	6.43
233.03	6.68
233.413	3.63
233.797	7.41
234.18	6.97
234.563	8.48
234.946	5.66
235.33	6.76
235.713	6.73
236.096	5.68
236.479	6.44
236.862	3.66
237.245	7.21
237.628	4.69
238.011	8.17
238.394	7.56
238.777	6.6
239.16	4.32
239.543	6.86
239.925	6.76
240.308	4.67
240.691	7.11
241.073	6.33
241.456	4.96
241.838	4.64
242.221	4.55
242.603	6.33
242.986	5.45
243.368	4.97
243.75	4.84
244.133	4.73
244.515	4.84
244.897	4.89
245.279	5.01
245.661	5.06
246.043	5.32
246.425	4.43
246.807	6.03
247.189	6.22
247.571	5.26
247.953	5.12
248.335	4.68
248.717	4.43
249.098	4.63
249.48	4.93
249.862	4.73
250.243	4.77
250.625	5.03
251.006	5.29
251.388	4.47
251.769	4.73
252.151	5.99
252.532	5.17
252.913	5
253.295	4.87
253.676	4.99
254.057	5.33
254.438	4.68
254.819	4.4
255.2	4.98
255.581	4.69
255.962	4.94
256.343	7.37
256.724	5.79
257.105	5.71
257.486	5.02
257.867	5.98
258.247	5.56
258.628	4.74
259.009	5.06
259.389	5.29
259.77	4.97
260.15	4.26
260.531	3.98
260.911	5.12
261.292	4.81
261.672	4.75
262.052	4.72
262.432	5.17
262.813	5.14
263.193	4.84
263.573	4.94
263.953	5.39
264.333	5.13
264.713	4.97
265.093	4.53
265.473	5.4
265.853	3.93
266.233	5.69
266.612	3.52
266.992	3.82
267.372	5.09
267.752	5.63
268.131	4.75
268.511	5.36
268.89	5.51
269.27	4.41
269.649	5.57
270.029	4.73
270.408	6.05
270.787	5.24
271.167	5.54
271.546	4.6
271.925	4.77
272.304	4.95
272.683	5.09
273.062	4.73
273.441	5.11
273.82	5.1
274.199	4.86
274.578	4.95
274.957	4.75
275.336	4.71
275.715	4.75
276.093	4.82
276.472	5.74
276.851	5.2
277.229	4.83
277.608	4.05
277.986	4.96
278.365	5.15
278.743	4.85
279.122	4.81
279.5	4.93
279.878	6.11
280.257	5.03
280.635	4.09
281.013	4.96
281.391	5.49
281.769	4.67
282.147	5.37
282.525	5.43
282.903	4.91
283.281	5.52
283.659	4.95
284.037	5.41
284.415	4.88
284.792	5.06
285.17	4.31
285.548	4.37
285.925	5.55
286.303	5.21
286.68	4.74
287.058	5.18
287.435	4.89
287.813	4.88
288.19	4.94
288.567	5.03
288.945	5.44
289.322	4.83
289.699	5.4
290.076	4.95
290.453	4.96
290.83	4.8
291.207	5.05
291.584	5.58
291.961	5.77
292.338	5.27
292.715	5.63
293.092	5.7
293.469	4.82
293.845	6.27
294.222	5.21
294.599	5.36
294.975	5.53
295.352	5.97
295.728	6.23
296.105	5.43
296.481	5.67
296.858	5.74
297.234	5.83
297.61	6.05
297.986	5.75
298.363	5.65
298.739	5.8
299.115	5.54
299.491	5.81
299.867	6.03
300.243	6.46
300.619	5.98
300.995	6.33
301.371	6.91
301.746	6.02
302.122	6.94
302.498	6.18
302.874	6.93
303.249	7.23
303.625	7.01
304	7.05
304.376	7.3
304.751	6.68
305.127	8.1
305.502	6.42
305.878	6.77
306.253	7.21
306.628	7.96
307.003	7.51
307.378	7.44
307.754	7.32
308.129	6.41
308.504	7.63
308.879	7.54
309.254	8.58
309.629	7.73
310.003	7.61
310.378	8.48
310.753	8.11
311.128	7.62
311.502	8.3
311.877	8.59
312.252	7.98
312.626	7.79
313.001	8.24
313.375	8.84
313.75	8.23
314.124	8.6
314.498	8.62
314.873	8.61
315.247	8.98
315.621	9.01
315.995	8.2
316.369	9.21
316.743	9.12
317.117	9.51
317.491	9.42
317.865	9.25
318.239	9.08
318.613	10.17
318.987	10.4
319.361	8.6
319.734	10.21
320.108	9.72
320.482	10.16
320.855	10.32
321.229	9.55
321.602	9.46
321.976	10.04
322.349	10.18
322.723	10.41
323.096	10.46
323.469	9.15
323.843	9.86
324.216	10.59
324.589	9.84
324.962	10.91
325.335	10.21
325.708	10.78
326.081	10.63
326.454	11.19
326.827	10.43
327.2	10.85
327.573	11.27
327.945	10.59
328.318	10.78
328.691	10.65
329.063	10.9
329.436	10.82
329.809	11.67
330.181	11.36
330.553	11.67
330.926	11.89
331.298	11.29
331.671	10.96
332.043	12.2
332.415	11.85
332.787	11.66
333.159	12.66
333.532	11.68
333.904	12.12
334.276	12.05
334.648	11.77
335.02	11.89
335.391	12.18
335.763	12.13
336.135	11.94
336.507	11.72
336.879	12.18
337.25	12.18
337.622	12.04
337.993	12.13
338.365	13.24
338.736	12.92
339.108	12.45
339.479	12.55
339.851	13.07
340.222	12.48
340.593	13
340.964	12.67
341.336	13.78
341.707	12.76
342.078	13.5
342.449	13.57
342.82	12.76
343.191	13.36
343.562	13.29
343.933	13.49
344.303	13.51
344.674	13.26
345.045	12.85
345.416	14.17
345.786	13.2
346.157	13.99
346.527	13.3
346.898	13.44
347.268	13.95
347.639	13.64
348.009	13.72
348.38	13.81
348.75	13.6
349.12	13.81
349.49	14.63
349.861	14.67
350.231	14.04
350.601	14.25
350.971	14.67
351.341	14.61
351.711	14.27
352.081	14.82
352.45	14.58
352.82	15.13
353.19	14.74
353.56	14.9
353.929	15.08
354.299	14.91
354.669	14.41
355.038	15.32
355.408	15.06
355.777	15.26
356.147	15.26
356.516	15.7
356.885	15.47
357.254	15.44
357.624	16.06
357.993	15.55
358.362	15.03
358.731	15.41
359.1	15.67
359.469	15.54
359.838	15.65
360.207	15.39
360.576	15.62
360.945	15.97
361.314	16.2
361.682	16.05
362.051	16.03
362.42	15.97
362.788	16
363.157	16.13
363.525	16.24
363.894	16.12
364.262	16.07
364.631	16.17
364.999	16.57
365.367	16.51
365.735	17.3
366.104	16.97
366.472	16.7
366.84	16.67
367.208	16.71
367.576	17.25
367.944	17.21
368.312	17.25
368.68	16.82
369.048	17.59
369.416	17.18
369.783	17.18
370.151	17.27
370.519	17.9
370.886	17.83
371.254	17.33
371.621	17.74
371.989	17.86
372.356	17.42
372.724	17.99
373.091	17.76
373.458	17.6
373.826	18.08
374.193	17.74
374.56	18.25
374.927	18.39
375.294	18.6
375.661	18.3
376.028	17.96
376.395	17.93
376.762	18.59
377.129	18.28
377.496	18.41
377.863	18.46
378.229	18.92
378.596	18.59
378.963	18.53
379.329	18.51
379.696	18.99
380.062	18.93
380.429	18.89
380.795	19.17
381.161	19.24
381.528	19.25
381.894	18.97
382.26	19.38
382.626	19.65
382.993	19.17
383.359	19.56
383.725	18.91
384.091	19.54
384.457	19.71
384.823	19.55
385.188	19.82
385.554	20.02
385.92	19.84
386.286	19.8
386.651	19.87
387.017	20.2
387.383	20.01
387.748	20.36
388.114	20.26
388.479	20.35
388.845	20.2
389.21	20.22
389.575	20.2
389.94	20.57
390.306	20.63
390.671	20.7
391.036	20.43
391.401	20.82
391.766	20.66
392.131	20.95
392.496	20.79
392.861	20.73
393.226	20.88
393.591	21.3
393.956	20.99
394.32	21.35
394.685	20.89
395.05	21.03
395.414	21.27
395.779	21.32
396.143	21.79
396.508	21.23
396.872	21.55
397.236	21.62
397.601	21.43
397.965	21.76
398.329	22.08
398.694	21.98
399.058	21.99
399.422	21.7
399.786	22.45
400.15	22.07
400.514	22.2
400.878	22.38
401.242	22.6
401.605	22.14
401.969	22.33
402.333	22.21
402.697	22.23
403.06	22.49
403.424	22.36
403.787	22.64
404.151	22.76
404.514	22.52
404.878	22.77
405.241	22.63
405.604	22.77
405.968	23.03
406.331	22.96
406.694	22.86
407.057	22.97
407.42	23.49
407.783	23.07
408.146	23.26
408.509	23.27
408.872	22.99
409.235	23.36
409.598	23.4
409.961	23.37
410.323	23.64
410.686	23.64
411.049	23.86
411.411	23.3
411.774	23.67
412.136	24.01
412.499	23.68
412.861	23.6
413.223	23.85
413.586	24.17
413.948	24.16
414.31	24.32
414.672	23.56
415.035	24.09
415.397	24.45
415.759	24.21
416.121	24.39
416.483	24.2
416.845	24.45
417.206	24.1
417.568	24.43
417.93	24.42
418.292	24.54
418.653	24.57
419.015	24.52
419.377	24.57
419.738	24.55
420.1	24.56
420.461	24.63
420.822	24.73
421.184	24.46
421.545	24.59
421.906	24.63
422.267	24.77
422.629	24.63
422.99	24.75
423.351	24.66
423.712	24.74
424.073	24.68
424.434	24.98
424.795	25.07
425.155	25.14
425.516	24.9
425.877	25.12
426.238	25.11
426.598	25.2
426.959	25.29
427.32	25.37
427.68	25.34
428.041	25.61
428.401	25.64
428.761	25.75
429.122	25.75
429.482	25.89
429.842	25.98
430.202	25.99
430.563	25.92
430.923	26.06
431.283	26.51
431.643	26.13
432.003	26.24
432.363	26.7
432.722	26.41
433.082	26.63
433.442	26.8
433.802	26.66
434.161	26.62
434.521	26.82
434.881	26.66
435.24	26.75
435.6	26.81
435.959	26.71
436.319	26.96
436.678	27.08
437.037	27.03
437.396	27.15
437.756	27.32
438.115	27.14
438.474	27.21
438.833	27.17
439.192	27.25
439.551	27.41
439.91	27.34
440.269	27.5
440.628	27.46
440.987	27.38
441.345	27.47
441.704	27.51
442.063	27.48
442.421	27.44
442.78	27.34
443.138	27.51
443.497	27.82
443.855	27.57
444.214	27.93
444.572	28.27
444.93	27.91
445.288	28.17
445.647	28.36
446.005	28.15
446.363	28.32
446.721	28.28
447.079	28.17
447.437	28.24
447.795	28.18
448.153	28.17
448.51	28.17
448.868	28.35
449.226	28.4
449.584	28.53
449.941	28.43
450.299	28.56
450.656	28.73
451.014	28.84
451.371	28.72
451.729	28.94
452.086	29.08
452.443	29.13
452.801	29.13
453.158	29.16
453.515	28.86
453.872	29.27
454.229	29.31
454.586	29.37
454.943	29.34
455.3	29.55
455.657	29.51
456.014	29.44
456.371	29.59
456.727	29.66
457.084	30.06
457.441	29.85
457.797	29.88
458.154	30.16
458.51	30.19
458.867	30.29
459.223	30.37
459.58	30.42
459.936	30.34
460.292	30.21
460.648	30.28
461.005	30.1
461.361	30.09
461.717	29.84
462.073	29.96
462.429	30.16
462.785	30.19
463.141	30.55
463.496	30.55
463.852	30.64
464.208	30.74
464.564	30.86
464.919	31.08
465.275	30.93
465.631	31.17
465.986	31.09
466.342	31.09
466.697	31.09
467.052	31.45
467.408	31.23
467.763	31.53
468.118	31.38
468.473	31.37
468.829	31.52
469.184	31.56
469.539	31.66
469.894	31.67
470.249	31.97
470.603	32.03
470.958	31.98
471.313	32.1
471.668	31.93
472.023	31.89
472.377	31.88
472.732	31.9
473.086	31.94
473.441	31.76
473.795	32.43
474.15	32.28
474.504	32.35
474.859	32.33
475.213	32.35
475.567	32.13
475.921	32.22
476.275	32.4
476.63	32.59
476.984	32.82
477.338	33.04
477.692	32.74
478.045	32.76
478.399	32.59
478.753	32.68
479.107	32.64
479.461	32.64
479.814	32.87
480.168	32.87
480.521	33.07
480.875	32.94
481.228	32.89
481.582	32.99
481.935	33.18
482.289	33.12
482.642	33.11
482.995	33.24
483.348	33.06
483.701	33.05
484.055	33.02
484.408	32.99
484.761	32.7
485.114	32.49
485.466	32.27
485.819	32.3
486.172	32.36
486.525	32.45
486.878	32.41
487.23	32.76
487.583	32.92
487.936	33.12
488.288	33.27
488.641	33.13
488.993	32.98
489.345	32.95
489.698	32.9
490.05	33.02
490.402	33.06
490.754	33.3
491.107	33.47
491.459	33.54
491.811	33.91
492.163	33.99
492.515	34.06
492.866	33.82
493.218	33.64
493.57	33.61
493.922	33.64
494.274	33.71
494.625	33.99
494.977	34.2
495.328	34.67
495.68	34.81
496.031	34.9
496.383	35.02
496.734	35.03
497.086	34.92
497.437	35
497.788	35.13
498.139	35.22
498.49	35.22
498.842	35.13
499.193	35.09
499.544	35.36
499.894	35.24
500.245	35.26
500.596	35.55
500.947	35.58
501.298	35.63
501.648	35.81
501.999	35.71
502.35	35.96
502.7	35.85
503.051	36.03
503.401	36.16
503.752	36.3
504.102	36.22
504.452	36.38
504.803	36.19
505.153	36.46
505.503	36.37
505.853	36.31
506.203	36.41
506.553	36.32
506.903	36.55
507.253	36.5
507.603	36.53
507.953	37
508.303	36.9
508.652	36.71
509.002	36.92
509.352	36.97
509.701	36.74
510.051	36.66
510.4	36.81
510.75	36.93
511.099	36.83
511.449	36.68
511.798	37.01
512.147	37.05
512.496	36.97
512.846	37.15
513.195	37.11
513.544	36.94
513.893	37.11
514.242	37.15
514.591	37.49
514.939	37.31
515.288	37.35
515.637	37.46
515.986	37.53
516.334	37.62
516.683	37.85
517.032	37.9
517.38	38.1
517.729	38.07
518.077	38.04
518.426	38.12
518.774	37.98
519.122	38.12
519.47	38.02
519.819	37.77
520.167	37.74
520.515	37.67
520.863	37.87
521.211	37.91
521.559	38.1
521.907	38.24
522.255	38.19
522.602	38.25
522.95	38.39
523.298	38.41
523.645	38.64
523.993	38.87
524.341	38.78
524.688	38.84
525.036	38.74
525.383	38.8
525.73	38.92
526.078	38.78
526.425	38.86
526.772	38.98
527.119	38.73
527.466	38.6
527.814	38.47
528.161	38.6
528.508	38.68
528.854	38.52
529.201	38.66
529.548	38.54
529.895	38.43
530.242	38.17
530.588	38.17
530.935	38.36
531.282	38.23
531.628	38.44
531.975	38.72
532.321	38.87
532.667	39.07
533.014	39.16
533.36	39.04
533.706	39.45
534.052	39.48
534.399	39.35
534.745	39.19
535.091	39
535.437	39.32
535.783	39.23
536.129	39.46
536.474	39.54
536.82	39.94
537.166	39.8
537.512	39.79
537.857	40.13
538.203	39.92
538.549	39.8
538.894	40.05
539.239	40.15
539.585	40.35
539.93	40.3
540.276	40.71
540.621	40.7
540.966	40.71
541.311	40.79
541.656	40.41
542.001	40.65
542.346	40.39
542.691	40.31
543.036	40.14
543.381	40.14
543.726	40.07
544.071	40.31
544.415	40.57
544.76	40.41
545.105	40.55
545.449	40.89
545.794	40.88
546.138	41.1
546.483	41.3
546.827	41.21
547.171	41.2
547.516	41.78
547.86	41.51
548.204	41.59
548.548	41.22
548.892	41.45
549.236	41.48
549.58	41.55
549.924	41.75
550.268	41.96
550.612	42.16
550.956	42.19
551.3	42.3
551.643	42.61
551.987	42.4
552.33	42.71
552.674	42.83
553.017	42.58
553.361	42.49
553.704	42.84
554.048	42.82
554.391	42.77
554.734	42.88
555.077	42.55
555.42	42.54
555.764	42.77
556.107	42.49
556.45	42.96
556.793	43.21
557.135	42.94
557.478	43.58
557.821	43.2
558.164	43.29
558.507	43.78
558.849	43.33
559.192	43.82
559.534	43.6
559.877	43.8
560.219	44.01
560.562	44.09
560.904	44.05
561.246	44.23
561.589	43.98
561.931	43.9
562.273	43.75
562.615	43.94
562.957	43.85
563.299	43.79
563.641	44.16
563.983	43.99
564.325	44.28
564.667	44.01
565.008	44.23
565.35	44.4
565.692	44.3
566.033	44.46
566.375	44.78
566.716	44.56
567.058	44.64
567.399	44.5
567.741	44.34
568.082	44.32
568.423	44.4
568.764	44.67
569.105	44.72
569.447	44.49
569.788	44.66
570.129	44.63
570.47	44.77
570.811	44.87
571.151	45.41
571.492	45.23
571.833	44.86
572.174	44.86
572.514	45.29
572.855	45.21
573.195	45.21
573.536	44.97
573.876	45.06
574.217	45
574.557	45.12
574.898	45.15
575.238	45.2
575.578	45.3
575.918	45.12
576.258	45.56
576.598	45.35
576.938	45.52
577.278	45.23
577.618	45.35
577.958	45.2
578.298	45.51
578.638	45.29
578.977	45.72
579.317	45.97
579.657	46.02
579.996	45.99
580.336	46.41
580.675	46.23
581.014	46.23
581.354	46.5
581.693	46.56
582.032	46.22
582.372	46.68
582.711	47.07
583.05	46.36
583.389	46.62
583.728	46.67
584.067	46.65
584.406	46.88
584.745	46.86
585.083	46.6
585.422	47.01
585.761	47.12
586.1	47.18
586.438	46.66
586.777	47.03
587.115	46.86
587.454	46.78
587.792	47.04
588.13	47.2
588.469	47.4
588.807	47
589.145	47.35
589.483	47.55
589.821	47.34
590.159	47.43
590.497	47.58
590.835	47.69
591.173	47.37
591.511	47.62
591.849	47.42
592.187	47.22
592.524	47.8
592.862	47.6
593.2	47.75
593.537	47.77
593.875	47.54
594.212	47.69
594.55	47.69
594.887	48.38
595.224	48.08
595.561	48.13
595.899	47.81
596.236	48.33
596.573	48.22
596.91	48.09
597.247	48.2
597.584	48.14
597.921	48.03
598.258	47.97
598.594	48.25
598.931	47.95
599.268	47.94
599.604	47.97
599.941	48.04
600.277	47.85
600.614	48.43
600.95	48.34
601.287	48.43
601.623	48.43
601.959	48.38
602.296	49.18
602.632	48.95
602.968	48.76
603.304	48.81
603.64	48.8
603.976	48.99
604.312	48.68
604.648	49.01
604.984	48.92
605.319	48.59
605.655	48.8
605.991	48.94
606.326	48.75
606.662	48.39
606.998	48.74
607.333	48.74
607.668	49.2
608.004	49.13
608.339	48.9
608.674	49.52
609.01	49.24
609.345	49.25
609.68	49.49
610.015	49.09
610.35	49.3
610.685	49.66
611.02	49.97
611.355	49.69
611.689	49.38
612.024	49.57
612.359	49.41
612.694	49.39
613.028	49.48
613.363	49.68
613.697	49.66
614.032	50.05
614.366	49.8
614.7	50.32
615.035	50.3
615.369	50.23
615.703	50.58
616.037	50.17
616.371	50.39
616.705	50.79
617.039	50.47
617.373	50.35
617.707	50.85
618.041	50.3
618.375	50.66
618.709	50.48
619.042	50.99
619.376	50.74
619.71	51.04
620.043	50.8
620.377	50.96
620.71	50.56
621.043	51.1
621.377	50.71
621.71	51.04
622.043	50.86
622.376	50.66
622.709	51.31
623.043	50.51
623.376	50.78
623.709	51.14
624.041	51.19
624.374	51.44
624.707	51.22
625.04	51.63
625.373	50.94
625.705	51.43
626.038	51.6
626.37	51.51
626.703	51.44
627.035	51.28
627.368	51.47
627.7	51.49
628.032	51.59
628.365	51.74
628.697	51.6
629.029	51.61
629.361	51.47
629.693	51.71
630.025	51.92
630.357	51.73
630.689	51.89
631.021	51.56
631.353	52.32
631.684	51.23
632.016	51.94
632.348	52.01
632.679	51.61
633.011	52.25
633.342	51.94
633.674	52.13
634.005	52.33
634.336	52.29
634.668	52.15
634.999	53.1
635.33	52.52
635.661	52.63
635.992	52.01
636.323	52.79
636.654	52.11
636.985	52.62
637.316	52.89
637.647	52.23
637.977	53.03
638.308	52.77
638.639	52.53
638.969	53.04
639.3	52.56
639.63	52.92
639.961	52.99
640.291	53.18
640.622	52.54
640.952	53.11
641.282	53.23
641.612	53.59
641.943	53.43
642.273	53.06
642.603	53.08
642.933	53.73
643.263	52.9
643.592	53.41
643.922	53.2
644.252	53.33
644.582	53.45
644.911	53.4
645.241	53.62
645.571	53.62
645.9	53.39
646.23	53.69
646.559	53.72
646.888	53.51
647.218	53.4
647.547	53.98
647.876	53.92
648.205	53.82
648.534	54.01
648.863	53.83
649.192	53.72
649.521	53.83
649.85	53.79
650.179	54.08
650.508	53.38
650.837	53.86
651.165	53.94
651.494	53.92
651.822	54.04
652.151	53.85
652.479	54.34
652.808	53.77
653.136	54.06
653.465	53.89
653.793	54.47
654.121	54.36
654.449	54.52
654.777	54.5
655.105	55.18
655.433	54.85
655.761	54.2
656.089	54.87
656.417	54.58
656.745	54.21
657.073	54.09
657.4	54.91
657.728	54.35
658.056	54.2
658.383	55.21
658.711	54.57
659.038	54.9
659.365	54.98
659.693	54.82
660.02	54.5
660.347	54.38
660.674	54.66
661.001	54.83
661.329	54.01
661.656	54.69
661.982	54.7
662.309	54.98
662.636	54.84
662.963	54.95
663.29	55.17
663.616	55.39
663.943	54.54
664.27	55.21
664.596	55.92
664.923	55.02
665.249	55.59
665.576	55.4
665.902	55.3
666.228	55.16
666.554	55.18
666.881	55.66
667.207	55.1
667.533	55.29
667.859	56.07
668.185	55.71
668.511	54.71
668.837	54.34
669.162	55.63
669.488	55.68
