Data from 0415_chest_Reflection__3__18.txt Node

Date: Fri Dec 15 16:35:01 CST 2023
User: ToomeyLab
Spectrometer: FLMS14357
Trigger mode: 0
Integration Time (sec): 1.000000E-2
Scans to average: 100
Electric dark correction enabled: true
Nonlinearity correction enabled: false
Boxcar width: 0
XAxis mode: Wavelengths
Number of Pixels in Spectrum: 2048
>>>>>Begin Spectral Data<<<<<
189.047	-171.12
189.435	-171.12
189.823	-171.12
190.211	46.21
190.599	-252.12
190.987	66.35
191.375	28.07
191.763	-54.83
192.151	16.42
192.538	110.17
192.926	-448.5
193.314	3538.82
193.702	27.61
194.089	43.04
194.477	-35.08
194.864	104.67
195.252	94.95
195.639	217.9
196.027	124.92
196.414	502.19
196.801	-80.4
197.189	-308
197.576	81.94
197.963	4.7
198.351	-116.12
198.738	-3.88
199.125	17.8
199.512	-49.5
199.899	4.13
200.286	87.35
200.673	-10.48
201.06	-2.42
201.447	-13.35
201.833	-6.97
202.22	43.27
202.607	35.24
202.994	11
203.38	44.49
203.767	36.07
204.154	47.79
204.54	60.14
204.927	-25.16
205.313	-9
205.699	18.92
206.086	34.16
206.472	32.44
206.858	50.76
207.245	28.13
207.631	19.87
208.017	19.07
208.403	-0.11
208.789	20.97
209.175	59.03
209.561	-3.48
209.947	1.38
210.333	-43.97
210.719	26.14
211.105	8.76
211.491	-39.74
211.876	33.9
212.262	58.56
212.648	24.71
213.034	15.68
213.419	6.15
213.805	-3.39
214.19	-7.07
214.576	12.44
214.961	-8.44
215.346	-38.14
215.732	-3.57
216.117	28.81
216.502	-38.89
216.888	28.11
217.273	30.92
217.658	-5.98
218.043	33.21
218.428	-24.73
218.813	-29.84
219.198	-8.72
219.583	0.51
219.968	25.82
220.353	7.27
220.738	33.27
221.122	9.55
221.507	-7.79
221.892	-1.93
222.276	-9.57
222.661	20.46
223.046	29.59
223.43	4.71
223.815	18.8
224.199	-5.38
224.583	7.53
224.968	0.98
225.352	18.43
225.736	-2.53
226.121	0.21
226.505	4.27
226.889	9.81
227.273	-1.01
227.657	6.06
228.041	5.84
228.425	3.58
228.809	4.36
229.193	4.14
229.577	1.87
229.961	4.85
230.344	4.5
230.728	4.48
231.112	5.04
231.495	4.98
231.879	4.08
232.263	6.74
232.646	6.78
233.03	6.76
233.413	3.94
233.797	5.17
234.18	4.94
234.563	6.3
234.946	4.03
235.33	4.43
235.713	5.58
236.096	4.79
236.479	4.83
236.862	4.37
237.245	6.54
237.628	4.69
238.011	5.23
238.394	7.22
238.777	4.94
239.16	2.95
239.543	5.63
239.925	7.24
240.308	4.79
240.691	6.42
241.073	5.93
241.456	6.16
241.838	4.78
242.221	4.72
242.603	5.18
242.986	4.43
243.368	5.13
243.75	5.38
244.133	4.57
244.515	5.28
244.897	5.02
245.279	4.98
245.661	4.9
246.043	3.57
246.425	3.38
246.807	6.43
247.189	6.66
247.571	5.46
247.953	4.95
248.335	4.64
248.717	4.51
249.098	4.26
249.48	4.45
249.862	4.3
250.243	4.53
250.625	4.44
251.006	4.81
251.388	3.71
251.769	4.39
252.151	5.48
252.532	4.35
252.913	2.46
253.295	3.05
253.676	4.2
254.057	4.28
254.438	4.49
254.819	3.51
255.2	2.86
255.581	4.63
255.962	4.97
256.343	3.39
256.724	2.85
257.105	4.25
257.486	3.39
257.867	4.44
258.247	4.17
258.628	3.87
259.009	4.1
259.389	4.35
259.77	4.74
260.15	4.25
260.531	3.49
260.911	4.31
261.292	3.85
261.672	4.39
262.052	4.23
262.432	4.48
262.813	4.32
263.193	3.96
263.573	3.08
263.953	4.45
264.333	5.11
264.713	3.95
265.093	3.47
265.473	4.81
265.853	3.42
266.233	4.16
266.612	2.59
266.992	2.89
267.372	3.74
267.752	3.11
268.131	4.69
268.511	4.07
268.89	4.67
269.27	3.8
269.649	3.61
270.029	3.81
270.408	4.95
270.787	4.26
271.167	4.94
271.546	4.13
271.925	3.96
272.304	3.97
272.683	4.47
273.062	3.59
273.441	4.17
273.82	3.94
274.199	4.23
274.578	4.47
274.957	4.02
275.336	3.94
275.715	3.57
276.093	3.57
276.472	4.3
276.851	3.25
277.229	3.79
277.608	3.57
277.986	4.16
278.365	4.09
278.743	3.73
279.122	4.72
279.5	4.23
279.878	3.84
280.257	4.05
280.635	3.68
281.013	4.09
281.391	4.77
281.769	4
282.147	4.16
282.525	5.03
282.903	3.67
283.281	3.89
283.659	4.18
284.037	4.08
284.415	3.44
284.792	4.42
285.17	3.1
285.548	3.46
285.925	4.04
286.303	3.98
286.68	3.38
287.058	3.82
287.435	3.99
287.813	4.03
288.19	3.74
288.567	3.66
288.945	4.19
289.322	4.12
289.699	4.09
290.076	3.61
290.453	3.27
290.83	3.79
291.207	3.61
291.584	3.98
291.961	3.91
292.338	3.75
292.715	4.28
293.092	4.05
293.469	3.48
293.845	3.58
294.222	3.77
294.599	3.79
294.975	4.1
295.352	3.96
295.728	3.11
296.105	3.95
296.481	4.18
296.858	3.35
297.234	3.12
297.61	3.7
297.986	3.44
298.363	4.08
298.739	4.12
299.115	3.72
299.491	3.49
299.867	3.73
300.243	3.62
300.619	3.42
300.995	3.73
301.371	3.67
301.746	3.68
302.122	3.95
302.498	3.73
302.874	3.48
303.249	3.76
303.625	3.64
304	3.95
304.376	3.55
304.751	2.91
305.127	4.26
305.502	3.6
305.878	3.25
306.253	3.87
306.628	3.87
307.003	3.72
307.378	4.03
307.754	3.69
308.129	2.88
308.504	3.99
308.879	3.58
309.254	4.11
309.629	4.54
310.003	3.62
310.378	3.96
310.753	4.03
311.128	3.94
311.502	3.83
311.877	3.94
312.252	3.03
312.626	3.9
313.001	3.46
313.375	4.14
313.75	3.04
314.124	4
314.498	3.64
314.873	3.56
315.247	3.55
315.621	3.85
315.995	3.83
316.369	3.41
316.743	3.23
317.117	3.98
317.491	3.94
317.865	3.45
318.239	3.67
318.613	3.67
318.987	4.17
319.361	3.54
319.734	3.66
320.108	3.28
320.482	4.09
320.855	3.9
321.229	3.08
321.602	3.68
321.976	3.75
322.349	3.73
322.723	3.55
323.096	4.38
323.469	3.08
323.843	3.97
324.216	4.21
324.589	3.74
324.962	3.95
325.335	3.38
325.708	3.05
326.081	3.95
326.454	3.56
326.827	3.36
327.2	3.51
327.573	3.99
327.945	3.77
328.318	3.71
328.691	3.05
329.063	3.73
329.436	3.46
329.809	3.37
330.181	3.29
330.553	4.27
330.926	3.82
331.298	3.69
331.671	3.61
332.043	4.33
332.415	3.95
332.787	4.33
333.159	4.17
333.532	3.54
333.904	3.59
334.276	3.82
334.648	3.59
335.02	3.65
335.391	3.58
335.763	3.1
336.135	3.59
336.507	3.94
336.879	4.05
337.25	3.43
337.622	3.54
337.993	3.57
338.365	3.54
338.736	3.73
339.108	3.97
339.479	3.01
339.851	3.68
340.222	3.61
340.593	3.17
340.964	3.42
341.336	4.31
341.707	2.95
342.078	3.83
342.449	3.9
342.82	3.54
343.191	3.48
343.562	3.56
343.933	3.68
344.303	3.67
344.674	3.32
345.045	3.52
345.416	3.81
345.786	3.03
346.157	3.95
346.527	3.35
346.898	3.21
347.268	3.67
347.639	3.63
348.009	3.62
348.38	3.9
348.75	3.45
349.12	3.68
349.49	4.17
349.861	3.78
350.231	3.79
350.601	3.67
350.971	3.75
351.341	3.97
351.711	3.51
352.081	3.66
352.45	3.52
352.82	3.86
353.19	3.81
353.56	3.4
353.929	3.52
354.299	3.51
354.669	3.41
355.038	4.33
355.408	3.78
355.777	3.82
356.147	3.94
356.516	3.63
356.885	3.61
357.254	3.71
357.624	4.18
357.993	4.04
358.362	3.62
358.731	3.45
359.1	4.03
359.469	3.55
359.838	4.15
360.207	3.39
360.576	3.6
360.945	3.52
361.314	4.28
361.682	3.23
362.051	3.72
362.42	3.71
362.788	3.86
363.157	3.83
363.525	3.85
363.894	3.68
364.262	3.69
364.631	3.97
364.999	3.75
365.367	3.19
365.735	4.14
366.104	3.82
366.472	3.95
366.84	3.38
367.208	4
367.576	3.92
367.944	4.18
368.312	3.73
368.68	3.33
369.048	4.03
369.416	4.05
369.783	4
370.151	4.07
370.519	4.09
370.886	3.88
371.254	3.52
371.621	4.18
371.989	4.11
372.356	3.52
372.724	3.76
373.091	3.98
373.458	3.6
373.826	3.92
374.193	3.78
374.56	4.16
374.927	3.83
375.294	4.09
375.661	3.95
376.028	3.64
376.395	3.71
376.762	4.18
377.129	3.98
377.496	3.59
377.863	4.05
378.229	3.47
378.596	3.68
378.963	3.72
379.329	3.65
379.696	4.06
380.062	3.97
380.429	3.62
380.795	3.66
381.161	3.59
381.528	4.02
381.894	3.99
382.26	3.51
382.626	4.14
382.993	3.75
383.359	3.83
383.725	3.5
384.091	4.24
384.457	4.28
384.823	3.93
385.188	3.98
385.554	3.97
385.92	4.08
386.286	4.23
386.651	3.65
387.017	3.88
387.383	4.08
387.748	4.05
388.114	3.9
388.479	3.88
388.845	4.04
389.21	4.09
389.575	4.27
389.94	3.99
390.306	3.94
390.671	4.47
391.036	3.63
391.401	3.5
391.766	3.79
392.131	3.54
392.496	3.78
392.861	4.08
393.226	4.04
393.591	3.9
393.956	3.78
394.32	4.1
394.685	3.7
395.05	3.85
395.414	4.02
395.779	3.78
396.143	3.95
396.508	4.09
396.872	4.04
397.236	4
397.601	3.55
397.965	4.19
398.329	4.04
398.694	4.03
399.058	4.09
399.422	3.53
399.786	3.87
400.15	3.93
400.514	4
400.878	4.08
401.242	4.08
401.605	4.07
401.969	4.11
402.333	3.92
402.697	3.94
403.06	4.25
403.424	4.12
403.787	4.16
404.151	3.93
404.514	3.97
404.878	4.07
405.241	3.87
405.604	3.91
405.968	4.1
406.331	4.11
406.694	4.1
407.057	4.09
407.42	4.38
407.783	4.03
408.146	4.12
408.509	3.87
408.872	3.95
409.235	4.27
409.598	4.22
409.961	4
410.323	3.96
410.686	4
411.049	3.88
411.411	4.25
411.774	4.14
412.136	3.96
412.499	3.85
412.861	4.01
413.223	4.12
413.586	4.18
413.948	3.99
414.31	4.03
414.672	3.9
415.035	4
415.397	4.14
415.759	3.95
416.121	4.2
416.483	3.96
416.845	3.84
417.206	4.12
417.568	3.94
417.93	3.94
418.292	3.98
418.653	3.92
419.015	4.15
419.377	3.98
419.738	4.12
420.1	3.96
420.461	3.99
420.822	4.16
421.184	4.09
421.545	4.01
421.906	3.88
422.267	3.96
422.629	3.94
422.99	4.02
423.351	4.01
423.712	4.04
424.073	4.06
424.434	3.9
424.795	3.9
425.155	4
425.516	3.85
425.877	3.99
426.238	3.94
426.598	4.04
426.959	4.01
427.32	3.86
427.68	3.9
428.041	4.05
428.401	4.16
428.761	4.07
429.122	4.04
429.482	4.03
429.842	4.08
430.202	4.22
430.563	4.13
430.923	3.93
431.283	4.17
431.643	4.05
432.003	4.03
432.363	4.32
432.722	4.23
433.082	4.04
433.442	3.99
433.802	3.93
434.161	4.02
434.521	4.26
434.881	4.04
435.24	4.06
435.6	4.1
435.959	3.94
436.319	4.09
436.678	3.95
437.037	4.2
437.396	4.21
437.756	4.25
438.115	4.11
438.474	4.28
438.833	3.85
439.192	4
439.551	4.08
439.91	4.05
440.269	4.08
440.628	3.92
440.987	4.07
441.345	3.91
441.704	3.88
442.063	4.02
442.421	4.03
442.78	3.99
443.138	4.07
443.497	3.93
443.855	4.08
444.214	4
444.572	4.31
444.93	4.07
445.288	4.29
445.647	4.36
446.005	4.14
446.363	4.26
446.721	4.26
447.079	3.95
447.437	3.93
447.795	4.09
448.153	3.94
448.51	4.03
448.868	4.03
449.226	4.18
449.584	4.07
449.941	4.12
450.299	4.13
450.656	4.16
451.014	4.22
451.371	4.02
451.729	4.08
452.086	4.26
452.443	4.13
452.801	4.39
453.158	4.15
453.515	4.2
453.872	4.33
454.229	4.06
454.586	3.98
454.943	4.14
455.3	4.25
455.657	4.01
456.014	4.05
456.371	4.2
456.727	4.04
457.084	4.31
457.441	4.07
457.797	4.08
458.154	4.22
458.51	4.14
458.867	4.12
459.223	4.34
459.58	4.31
459.936	4.1
460.292	4.24
460.648	4.07
461.005	4.05
461.361	4.15
461.717	4.09
462.073	4.07
462.429	4.15
462.785	4.21
463.141	4.19
463.496	4.24
463.852	4.25
464.208	4.2
464.564	4.41
464.919	4.27
465.275	4.2
465.631	4.3
465.986	4.31
466.342	4.29
466.697	4.05
467.052	4.17
467.408	4.31
467.763	4.06
468.118	4.18
468.473	4.21
468.829	4.27
469.184	4.03
469.539	4.15
469.894	4.07
470.249	4.23
470.603	4.32
470.958	4.43
471.313	4.39
471.668	4.27
472.023	4.34
472.377	4.25
472.732	4.24
473.086	4.13
473.441	4.09
473.795	4.4
474.15	4.27
474.504	4.37
474.859	4.28
475.213	4.16
475.567	4.22
475.921	4.19
476.275	4.29
476.63	4.33
476.984	4.45
477.338	4.45
477.692	4.17
478.045	3.98
478.399	4.2
478.753	4.34
479.107	4.17
479.461	4.23
479.814	4.25
480.168	4.27
480.521	4.22
480.875	4.17
481.228	4.16
481.582	4.25
481.935	4.22
482.289	4.4
482.642	4.27
482.995	4.29
483.348	4.15
483.701	4.17
484.055	4.2
484.408	4.28
484.761	4.13
485.114	4.09
485.466	3.98
485.819	3.94
486.172	3.96
486.525	4
486.878	4.1
487.23	4.09
487.583	4.2
487.936	4.18
488.288	4.12
488.641	4.16
488.993	4.02
489.345	4.06
489.698	4.04
490.05	4.02
490.402	4.18
490.754	4.08
491.107	4.25
491.459	4.17
491.811	4.27
492.163	4.14
492.515	4.1
492.866	4.24
493.218	4.16
493.57	4.11
493.922	4.07
494.274	4.19
494.625	4.3
494.977	4.27
495.328	4.29
495.68	4.31
496.031	4.5
496.383	4.29
496.734	4.48
497.086	4.34
497.437	4.3
497.788	4.27
498.139	4.24
498.49	4.38
498.842	4.16
499.193	4.29
499.544	4.25
499.894	4.27
500.245	4.29
500.596	4.27
500.947	4.36
501.298	4.38
501.648	4.44
501.999	4.56
502.35	4.36
502.7	4.26
503.051	4.16
503.401	4.15
503.752	4.43
504.102	4.48
504.452	4.42
504.803	4.27
505.153	4.35
505.503	4.45
505.853	4.42
506.203	4.3
506.553	4.42
506.903	4.38
507.253	4.33
507.603	4.29
507.953	4.48
508.303	4.57
508.652	4.19
509.002	4.58
509.352	4.43
509.701	4.41
510.051	4.38
510.4	4.34
510.75	4.46
511.099	4.48
511.449	4.37
511.798	4.45
512.147	4.33
512.496	4.36
512.846	4.49
513.195	4.43
513.544	4.28
513.893	4.54
514.242	4.52
514.591	4.6
514.939	4.36
515.288	4.38
515.637	4.49
515.986	4.43
516.334	4.54
516.683	4.42
517.032	4.49
517.38	4.55
517.729	4.51
518.077	4.45
518.426	4.4
518.774	4.71
519.122	4.51
519.47	4.42
519.819	4.35
520.167	4.37
520.515	4.38
520.863	4.44
521.211	4.5
521.559	4.51
521.907	4.43
522.255	4.51
522.602	4.56
522.95	4.51
523.298	4.61
523.645	4.68
523.993	4.44
524.341	4.66
524.688	4.55
525.036	4.52
525.383	4.58
525.73	4.74
526.078	4.61
526.425	4.54
526.772	4.63
527.119	4.49
527.466	4.43
527.814	4.49
528.161	4.5
528.508	4.56
528.854	4.55
529.201	4.48
529.548	4.47
529.895	4.45
530.242	4.35
530.588	4.31
530.935	4.39
531.282	4.43
531.628	4.42
531.975	4.52
532.321	4.54
532.667	4.69
533.014	4.68
533.36	4.7
533.706	4.65
534.052	4.6
534.399	4.61
534.745	4.49
535.091	4.49
535.437	4.51
535.783	4.64
536.129	4.59
536.474	4.68
536.82	4.74
537.166	4.81
537.512	4.74
537.857	4.7
538.203	4.74
538.549	4.68
538.894	4.64
539.239	4.74
539.585	4.94
539.93	4.72
540.276	4.87
540.621	4.78
540.966	4.7
541.311	4.69
541.656	4.65
542.001	4.77
542.346	4.84
542.691	4.7
543.036	4.58
543.381	4.59
543.726	4.67
544.071	4.75
544.415	4.8
544.76	4.74
545.105	4.8
545.449	4.81
545.794	5
546.138	5
546.483	5.06
546.827	4.95
547.171	4.84
547.516	5.08
547.86	4.98
548.204	4.85
548.548	4.86
548.892	4.95
549.236	4.95
549.58	4.93
549.924	5.12
550.268	5.08
550.612	5.28
550.956	5.34
551.3	5.07
551.643	5.2
551.987	5.37
552.33	5.15
552.674	5.21
553.017	5.06
553.361	5.1
553.704	5.33
554.048	5
554.391	5.05
554.734	5.01
555.077	5.12
555.42	5.05
555.764	5.22
556.107	5.02
556.45	5.07
556.793	5.34
557.135	5.15
557.478	5.32
557.821	5.36
558.164	5.21
558.507	5.27
558.849	5.19
559.192	5.36
559.534	5.35
559.877	5.44
560.219	5.3
560.562	5.71
560.904	5.52
561.246	5.55
561.589	5.49
561.931	5.42
562.273	5.47
562.615	5.58
562.957	5.34
563.299	5.3
563.641	5.57
563.983	5.38
564.325	5.46
564.667	5.26
565.008	5.37
565.35	5.33
565.692	5.41
566.033	5.52
566.375	5.81
566.716	5.64
567.058	5.56
567.399	5.56
567.741	5.51
568.082	5.58
568.423	5.61
568.764	5.55
569.105	5.76
569.447	5.79
569.788	5.6
570.129	5.81
570.47	5.72
570.811	5.8
571.151	5.74
571.492	5.83
571.833	5.93
572.174	5.71
572.514	5.68
572.855	5.82
573.195	5.63
573.536	5.77
573.876	5.64
574.217	5.7
574.557	5.83
574.898	5.9
575.238	5.92
575.578	5.8
575.918	6.08
576.258	6.01
576.598	5.92
576.938	5.97
577.278	5.92
577.618	5.86
577.958	5.94
578.298	5.95
578.638	5.97
578.977	6.02
579.317	6.21
579.657	6.29
579.996	5.86
580.336	6.04
580.675	6.31
581.014	6.08
581.354	6.15
581.693	6.28
582.032	5.91
582.372	6.04
582.711	6.32
583.05	6.28
583.389	6.35
583.728	6.14
584.067	6.49
584.406	6.36
584.745	6.31
585.083	6.55
585.422	6.52
585.761	6.55
586.1	6.44
586.438	6.48
586.777	6.58
587.115	6.76
587.454	6.5
587.792	6.43
588.13	6.94
588.469	6.35
588.807	6.52
589.145	6.42
589.483	6.66
589.821	6.56
590.159	6.55
590.497	6.9
590.835	6.7
591.173	6.63
591.511	6.91
591.849	6.55
592.187	6.7
592.524	6.89
592.862	6.6
593.2	6.62
593.537	6.62
593.875	6.53
594.212	6.71
594.55	6.73
594.887	6.9
595.224	6.63
595.561	6.83
595.899	6.64
596.236	6.82
596.573	7.16
596.91	6.56
597.247	6.89
597.584	7.22
597.921	7.33
598.258	6.91
598.594	6.86
598.931	6.83
599.268	7.06
599.604	6.92
599.941	7.09
600.277	6.97
600.614	7.06
600.95	6.94
601.287	7.44
601.623	6.98
601.959	6.92
602.296	7.36
602.632	7.11
602.968	7.27
603.304	7.22
603.64	7.42
603.976	7.69
604.312	7.4
604.648	7.31
604.984	7.37
605.319	7.37
605.655	7.24
605.991	7.38
606.326	7.25
606.662	7.4
606.998	7.15
607.333	7.43
607.668	7.55
608.004	7.56
608.339	7.68
608.674	7.86
609.01	7.5
609.345	7.41
609.68	7.75
610.015	7.5
610.35	7.59
610.685	7.59
611.02	7.68
611.355	7.75
611.689	7.7
612.024	7.69
612.359	7.8
612.694	7.79
613.028	7.57
613.363	7.91
613.697	7.98
614.032	7.94
614.366	8.04
614.7	7.99
615.035	8.29
615.369	7.91
615.703	8.37
616.037	7.82
616.371	7.79
616.705	7.86
617.039	8.04
617.373	7.99
617.707	8.04
618.041	8.08
618.375	8.08
618.709	8.27
619.042	8.24
619.376	8.54
619.71	8.79
620.043	8.65
620.377	8.17
620.71	8.68
621.043	8.31
621.377	8.51
621.71	8.51
622.043	8.04
622.376	8.22
622.709	8.57
623.043	8.19
623.376	8.32
623.709	8.09
624.041	8.99
624.374	8.81
624.707	8.61
625.04	8.72
625.373	8.3
625.705	8.78
626.038	8.43
626.37	8.43
626.703	8.94
627.035	8.78
627.368	9.04
627.7	8.89
628.032	8.99
628.365	9.25
628.697	8.73
629.029	8.93
629.361	8.88
629.693	8.96
630.025	8.95
630.357	9.03
630.689	9.1
631.021	9.06
631.353	9.32
631.684	9.01
632.016	9.13
632.348	9.28
632.679	8.92
633.011	9.14
633.342	9.63
633.674	9.23
634.005	9.73
634.336	9.01
634.668	10.14
634.999	9.16
635.33	9.39
635.661	9.51
635.992	9.74
636.323	9.33
636.654	9.72
636.985	9.31
637.316	9.32
637.647	9.24
637.977	9.66
638.308	9.75
638.639	9.4
638.969	9.67
639.3	9.24
639.63	9.21
639.961	9.73
640.291	9.73
640.622	10.16
640.952	9.25
641.282	10.35
641.612	9.82
641.943	9.62
642.273	9.78
642.603	9.98
642.933	9.77
643.263	9.74
643.592	9.53
643.922	9.57
644.252	10.27
644.582	9.71
644.911	9.77
645.241	9.72
645.571	10.14
645.9	10.1
646.23	9.93
646.559	10.39
646.888	9.7
647.218	10.28
647.547	10.47
647.876	9.68
648.205	9.92
648.534	10.57
648.863	10.03
649.192	10.48
649.521	10.6
649.85	10.13
650.179	10.27
650.508	9.96
650.837	10.66
651.165	10.39
651.494	10.77
651.822	10.57
652.151	10.74
652.479	10.32
652.808	10.41
653.136	10.66
653.465	9.97
653.793	10.11
654.121	10.34
654.449	11.11
654.777	10.83
655.105	11.33
655.433	10.67
655.761	10.54
656.089	11
656.417	11.29
656.745	10.92
657.073	10.8
657.4	11.66
657.728	11.12
658.056	10.9
658.383	11.04
658.711	11.24
659.038	11.75
659.365	11.63
659.693	10.92
660.02	11.18
660.347	11.1
660.674	11.29
661.001	11.14
661.329	10.76
661.656	11.23
661.982	11.61
662.309	11.6
662.636	10.94
662.963	11.65
663.29	11.55
663.616	11.78
663.943	10.64
664.27	11.53
664.596	11.78
664.923	12.02
665.249	11.41
665.576	11.55
665.902	12.37
666.228	11.99
666.554	12.03
666.881	11.24
667.207	11.6
667.533	12.32
667.859	12.03
668.185	12.14
668.511	11.49
668.837	10.99
669.162	11.58
669.488	11.37
669.814	12.27
670.139	12.38
670.465	12.75
670.791	12.12
671.116	12.86
671.442	11.95
671.767	12.02
672.092	12.45
672.418	12.5
672.743	12.55
673.068	11.78
673.393	11.71
673.718	11.91
674.043	12.15
674.368	12.05
674.693	12.79
675.018	12.91
675.343	12.45
675.667	12.71
675.992	13.23
676.317	13.08
676.641	12.72
676.966	12.96
677.29	12.6
677.615	12.68
677.939	12.99
678.264	12.82
678.588	13.26
678.912	13.3
679.236	13.33
679.56	12.63
679.885	13.3
680.209	12.71
680.532	12.64
680.856	13.69
681.18	12.57
681.504	12.14
681.828	12.91
682.152	12.62
682.475	12.99
682.799	13.27
683.122	13.35
683.446	12.67
683.769	13.68
684.093	12.77
684.416	13.1
684.739	14.16
685.062	13.17
685.386	12.92
685.709	13.81
686.032	13.44
686.355	14.03
686.678	13.21
687.001	14.15
687.324	13.3
687.646	13.16
687.969	12.95
688.292	12.72
688.614	13.21
688.937	14.63
689.26	13.43
689.582	13.43
