Data from 0415_crown_Reflection__0__20.txt Node

Date: Fri Dec 15 16:36:19 CST 2023
User: ToomeyLab
Spectrometer: FLMS14357
Trigger mode: 0
Integration Time (sec): 1.000000E-2
Scans to average: 100
Electric dark correction enabled: true
Nonlinearity correction enabled: false
Boxcar width: 0
XAxis mode: Wavelengths
Number of Pixels in Spectrum: 2048
>>>>>Begin Spectral Data<<<<<
189.047	24.6
189.435	24.6
189.823	24.6
190.211	-17.12
190.599	170.91
190.987	180.56
191.375	-60.65
191.763	29.7
192.151	-126.68
192.538	136.39
192.926	-169.13
193.314	783.53
193.702	29.35
194.089	305.38
194.477	158.1
194.864	-15.46
195.252	85.99
195.639	53.4
196.027	-196.4
196.414	240.88
196.801	70.55
197.189	-307.75
197.576	15.63
197.963	57.39
198.351	-47.52
198.738	39.74
199.125	50.89
199.512	-62.52
199.899	27.38
200.286	9.08
200.673	3.02
201.06	-0.45
201.447	24.89
201.833	2.61
202.22	42.62
202.607	25.07
202.994	1.3
203.38	-13.48
203.767	44.17
204.154	30.83
204.54	9.95
204.927	-12.34
205.313	42.11
205.699	36.95
206.086	65.7
206.472	11.26
206.858	17.6
207.245	-3.2
207.631	29.93
208.017	4.62
208.403	-28.36
208.789	12.28
209.175	34.24
209.561	9.1
209.947	11.91
210.333	-17.78
210.719	22.49
211.105	40.41
211.491	-6.82
211.876	34.89
212.262	25.01
212.648	-0.19
213.034	31.07
213.419	10.41
213.805	16.96
214.19	3.41
214.576	-1.07
214.961	4.13
215.346	-68.24
215.732	-3.16
216.117	43.75
216.502	8.27
216.888	5.1
217.273	32.34
217.658	1.92
218.043	-0.27
218.428	-42.95
218.813	-17.15
219.198	-20.32
219.583	48.08
219.968	17.88
220.353	13.11
220.738	25.23
221.122	15.56
221.507	-7.86
221.892	-17.23
222.276	-14
222.661	-3.58
223.046	6.46
223.43	2.28
223.815	15.16
224.199	-14.05
224.583	1.11
224.968	6.02
225.352	5.29
225.736	-4.33
226.121	-8.87
226.505	9.35
226.889	1.67
227.273	-0.09
227.657	6.03
228.041	-1.47
228.425	5.17
228.809	4.11
229.193	5.92
229.577	2.93
229.961	5.12
230.344	2.87
230.728	3.9
231.112	3.59
231.495	4.58
231.879	2.93
232.263	4.51
232.646	2.21
233.03	4.3
233.413	3.44
233.797	2.87
234.18	4.65
234.563	5.62
234.946	4.11
235.33	4.32
235.713	4.11
236.096	4.19
236.479	3.55
236.862	1.35
237.245	6.98
237.628	2.15
238.011	2.75
238.394	4.36
238.777	4.19
239.16	3.38
239.543	4.15
239.925	5
240.308	4.67
240.691	6.77
241.073	5.15
241.456	3.2
241.838	2.66
242.221	2.69
242.603	4.61
242.986	3.44
243.368	3.54
243.75	3.38
244.133	2.83
244.515	3.2
244.897	3.81
245.279	3.62
245.661	3.36
246.043	2.81
246.425	2.22
246.807	4.45
247.189	5.24
247.571	3.82
247.953	3.65
248.335	3.67
248.717	3.27
249.098	3.25
249.48	3.51
249.862	3.27
250.243	2.86
250.625	2.69
251.006	3.52
251.388	2.04
251.769	3.5
252.151	4.17
252.532	3.15
252.913	2.95
253.295	2.67
253.676	2.93
254.057	3.69
254.438	3.48
254.819	2.45
255.2	3.4
255.581	2.32
255.962	3.15
256.343	4.04
256.724	3.07
257.105	3.74
257.486	3.9
257.867	4.21
258.247	2.7
258.628	3.22
259.009	2.73
259.389	3.06
259.77	3.58
260.15	2.39
260.531	2.02
260.911	3.47
261.292	3.07
261.672	2.97
262.052	2.95
262.432	2.89
262.813	3.32
263.193	3.41
263.573	2.69
263.953	3.35
264.333	3.38
264.713	3.12
265.093	2.38
265.473	2.97
265.853	2.69
266.233	3.28
266.612	1.47
266.992	1.61
267.372	3.41
267.752	2.66
268.131	3.16
268.511	3.83
268.89	3.56
269.27	2.76
269.649	2.63
270.029	2.52
270.408	4
270.787	3.28
271.167	3.74
271.546	3.45
271.925	1.73
272.304	3.11
272.683	3.37
273.062	2.27
273.441	2.93
273.82	1.92
274.199	3.09
274.578	3.61
274.957	2.81
275.336	2.9
275.715	2.77
276.093	2.96
276.472	3.22
276.851	2.44
277.229	3.13
277.608	1.97
277.986	2.62
278.365	3.73
278.743	2.36
279.122	3.13
279.5	3.29
279.878	3.06
280.257	3.77
280.635	2.99
281.013	2.54
281.391	3.62
281.769	2.94
282.147	3.1
282.525	2.59
282.903	2.64
283.281	3.42
283.659	3.64
284.037	3.04
284.415	3.34
284.792	3.21
285.17	2.44
285.548	2.43
285.925	3.32
286.303	2.9
286.68	3.08
287.058	2.82
287.435	2.83
287.813	2.81
288.19	2.71
288.567	2.88
288.945	3.29
289.322	3.24
289.699	3.06
290.076	3.13
290.453	3.19
290.83	2.39
291.207	1.94
291.584	3.32
291.961	3.06
292.338	2.81
292.715	3.16
293.092	3.07
293.469	2.71
293.845	3.02
294.222	2.64
294.599	2.91
294.975	2.85
295.352	2.97
295.728	2.67
296.105	3.02
296.481	3.1
296.858	3.12
297.234	2.94
297.61	2.68
297.986	2.96
298.363	3.07
298.739	3.16
299.115	2.88
299.491	2.53
299.867	2.57
300.243	3.14
300.619	2.69
300.995	2.95
301.371	2.99
301.746	2.49
302.122	2.93
302.498	2.58
302.874	2.7
303.249	2.8
303.625	2.51
304	3.15
304.376	2.53
304.751	2.63
305.127	3.98
305.502	2.33
305.878	2.25
306.253	3.22
306.628	3.85
307.003	2.77
307.378	3.29
307.754	2.75
308.129	2.35
308.504	2.53
308.879	2.53
309.254	3.46
309.629	3.46
310.003	2.62
310.378	3.45
310.753	3.23
311.128	2.88
311.502	2.5
311.877	3.04
312.252	2.33
312.626	3
313.001	2.37
313.375	3.06
313.75	2.67
314.124	3.26
314.498	2.81
314.873	2.41
315.247	2.66
315.621	3.48
315.995	2.8
316.369	3.49
316.743	2.15
317.117	3.24
317.491	3.11
317.865	2.62
318.239	2.58
318.613	2.6
318.987	3.15
319.361	2.52
319.734	3.64
320.108	2.97
320.482	2.65
320.855	3.42
321.229	2.8
321.602	2.98
321.976	3.36
322.349	2.88
322.723	3.34
323.096	3.61
323.469	1.96
323.843	3.16
324.216	3.22
324.589	2.15
324.962	3.04
325.335	2.76
325.708	3.14
326.081	3.11
326.454	3.08
326.827	3.04
327.2	3.2
327.573	3.18
327.945	3.01
328.318	2.52
328.691	1.9
329.063	3.15
329.436	2.92
329.809	3.43
330.181	3.03
330.553	2.61
330.926	2.89
331.298	3.36
331.671	2.24
332.043	3.7
332.415	3.26
332.787	3.18
333.159	3.84
333.532	3.04
333.904	2.81
334.276	2.13
334.648	2.58
335.02	2.88
335.391	2.9
335.763	2.69
336.135	3.09
336.507	2.73
336.879	2.79
337.25	2.71
337.622	2.79
337.993	2.61
338.365	3
338.736	3.41
339.108	3.06
339.479	2.62
339.851	3.41
340.222	2.89
340.593	2.74
340.964	2.64
341.336	3.98
341.707	2.3
342.078	2.89
342.449	3.07
342.82	3.02
343.191	3.09
343.562	2.73
343.933	3.34
344.303	3.03
344.674	2.61
345.045	3.21
345.416	3.05
345.786	2.86
346.157	3.25
346.527	2.43
346.898	2.49
347.268	3.1
347.639	2.75
348.009	2.75
348.38	2.55
348.75	2.64
349.12	2.51
349.49	3.2
349.861	3.08
350.231	2.48
350.601	2.83
350.971	3.28
351.341	3.15
351.711	2.93
352.081	3.01
352.45	2.65
352.82	3.54
353.19	2.77
353.56	2.74
353.929	2.82
354.299	2.67
354.669	2.54
355.038	3.4
355.408	2.89
355.777	2.91
356.147	2.83
356.516	2.93
356.885	2.94
357.254	3.02
357.624	3.05
357.993	3
358.362	2.72
358.731	2.6
359.1	2.97
359.469	3.28
359.838	2.94
360.207	3.13
360.576	2.98
360.945	2.93
361.314	3.16
361.682	3.02
362.051	3.04
362.42	3.13
362.788	3.12
363.157	2.78
363.525	3.2
363.894	3.09
364.262	2.96
364.631	2.73
364.999	3.15
365.367	2.79
365.735	3.47
366.104	3.04
366.472	3.2
366.84	2.75
367.208	2.72
367.576	3.34
367.944	3.25
368.312	2.75
368.68	3.02
369.048	2.97
369.416	2.89
369.783	2.94
370.151	3
370.519	3.39
370.886	3.33
371.254	3.28
371.621	3.07
371.989	3.13
372.356	2.89
372.724	3.15
373.091	2.81
373.458	3.18
373.826	3.25
374.193	3.06
374.56	2.77
374.927	3.49
375.294	3.16
375.661	2.92
376.028	2.77
376.395	2.94
376.762	3.16
377.129	2.97
377.496	3.15
377.863	2.92
378.229	2.52
378.596	3.23
378.963	2.8
379.329	2.92
379.696	3.38
380.062	3.17
380.429	2.95
380.795	3.06
381.161	3.09
381.528	3.62
381.894	3.14
382.26	2.86
382.626	3.14
382.993	3.04
383.359	3.23
383.725	3.19
384.091	3.45
384.457	3.48
384.823	3.12
385.188	3.05
385.554	3.12
385.92	3.14
386.286	3.45
386.651	3.21
387.017	3.53
387.383	3.25
387.748	3.23
388.114	3.32
388.479	2.94
388.845	3.45
389.21	3.28
389.575	3.39
389.94	2.96
390.306	3.14
390.671	3.47
391.036	2.83
391.401	3.12
391.766	3.25
392.131	3.06
392.496	3.19
392.861	3.02
393.226	3.39
393.591	3.37
393.956	3.06
394.32	3.23
394.685	2.9
395.05	2.99
395.414	3.36
395.779	3.12
396.143	3.21
396.508	3.11
396.872	3.18
397.236	3.32
397.601	2.82
397.965	3.14
398.329	3.18
398.694	3.36
399.058	3.27
399.422	2.76
399.786	3.31
400.15	3.29
400.514	2.99
400.878	3.21
401.242	3.72
401.605	3.44
401.969	3.31
402.333	3.5
402.697	3.42
403.06	3.18
403.424	3.07
403.787	3.08
404.151	3.45
404.514	3.36
404.878	3.1
405.241	3.26
405.604	3.32
405.968	3.14
406.331	3.25
406.694	3.46
407.057	2.92
407.42	3.43
407.783	3.06
408.146	3.31
408.509	3.19
408.872	3.19
409.235	3.17
409.598	3.51
409.961	3.19
410.323	3.43
410.686	3.21
411.049	3.13
411.411	3.46
411.774	3.3
412.136	3.14
412.499	3.16
412.861	3.23
413.223	3.44
413.586	3.4
413.948	3.26
414.31	3.21
414.672	3.06
415.035	3.01
415.397	3.61
415.759	3.19
416.121	3.39
416.483	3.31
416.845	3.23
417.206	3.18
417.568	3.29
417.93	2.91
418.292	3.17
418.653	3.09
419.015	3.14
419.377	3.21
419.738	3.25
420.1	3.16
420.461	3.16
420.822	3.15
421.184	3.13
421.545	3.14
421.906	3.2
422.267	3.18
422.629	3.22
422.99	3.24
423.351	3.05
423.712	3.2
424.073	3.2
424.434	3.02
424.795	3.14
425.155	3.19
425.516	3.04
425.877	3.08
426.238	3.11
426.598	3.16
426.959	3.01
427.32	2.93
427.68	3.06
428.041	3.11
428.401	3.16
428.761	3.3
429.122	3.17
429.482	3.12
429.842	3.31
430.202	3.2
430.563	3.12
430.923	3.07
431.283	3.21
431.643	3.23
432.003	3.23
432.363	3.29
432.722	3.2
433.082	3.29
433.442	3.16
433.802	3.16
434.161	3.26
434.521	3.48
434.881	3.38
435.24	3.08
435.6	3.21
435.959	3.29
436.319	3.18
436.678	3.32
437.037	3.2
437.396	3.3
437.756	3.17
438.115	3.1
438.474	3.41
438.833	3.1
439.192	3.16
439.551	3.37
439.91	3.23
440.269	3.15
440.628	3.07
440.987	3.14
441.345	3
441.704	3.08
442.063	3.19
442.421	3.2
442.78	3.11
443.138	3.17
443.497	3.24
443.855	3.07
444.214	3.16
444.572	3.36
444.93	3.2
445.288	3.36
445.647	3.28
446.005	3.16
446.363	3.28
446.721	3.38
447.079	3.09
447.437	3.2
447.795	3.22
448.153	3.19
448.51	3.14
448.868	3.16
449.226	3.18
449.584	3.16
449.941	3.33
450.299	3.16
450.656	3.34
451.014	3.18
451.371	3.06
451.729	3.11
452.086	3.46
452.443	3.13
452.801	3.24
453.158	3.15
453.515	3.13
453.872	3.37
454.229	3.04
454.586	3.31
454.943	3.23
455.3	3.39
455.657	3.17
456.014	3.2
456.371	3.27
456.727	3.24
457.084	3.46
457.441	3.09
457.797	3.27
458.154	3.63
458.51	3.38
458.867	3.42
459.223	3.15
459.58	3.42
459.936	3.29
460.292	3.24
460.648	3.27
461.005	3.23
461.361	3.27
461.717	3.23
462.073	3.07
462.429	3.26
462.785	3.29
463.141	3.35
463.496	3.17
463.852	3.47
464.208	3.22
464.564	3.43
464.919	3.34
465.275	3.3
465.631	3.54
465.986	3.36
466.342	3.25
466.697	3.16
467.052	3.37
467.408	3.29
467.763	3.38
468.118	3.47
468.473	3.36
468.829	3.45
469.184	3.2
469.539	3.33
469.894	3.13
470.249	3.37
470.603	3.55
470.958	3.37
471.313	3.24
471.668	3.35
472.023	3.35
472.377	3.11
472.732	3.29
473.086	3.13
473.441	3.31
473.795	3.52
474.15	3.4
474.504	3.45
474.859	3.25
475.213	3.16
475.567	3.33
475.921	3.22
476.275	3.42
476.63	3.3
476.984	3.49
477.338	3.35
477.692	3.11
478.045	3.21
478.399	3.29
478.753	3.29
479.107	3.33
479.461	3.25
479.814	3.24
480.168	3.28
480.521	3.24
480.875	3.24
481.228	3.38
481.582	3.36
481.935	3.2
482.289	3.42
482.642	3.36
482.995	3.27
483.348	3.23
483.701	3.37
484.055	3.27
484.408	3.32
484.761	3.21
485.114	3.16
485.466	3.04
485.819	3.05
486.172	3.05
486.525	3.12
486.878	3.18
487.23	3.18
487.583	3.29
487.936	3.21
488.288	3.28
488.641	3.32
488.993	3.17
489.345	3.08
489.698	3.1
490.05	3.12
490.402	3.25
490.754	3.22
491.107	3.3
491.459	3.27
491.811	3.3
492.163	3.33
492.515	3.28
492.866	3.24
493.218	3.22
493.57	3.1
493.922	3.17
494.274	3.31
494.625	3.29
494.977	3.31
495.328	3.4
495.68	3.34
496.031	3.55
496.383	3.48
496.734	3.53
497.086	3.43
497.437	3.33
497.788	3.36
498.139	3.19
498.49	3.44
498.842	3.23
499.193	3.36
499.544	3.25
499.894	3.43
500.245	3.36
500.596	3.4
500.947	3.42
501.298	3.26
501.648	3.33
501.999	3.53
502.35	3.37
502.7	3.47
503.051	3.3
503.401	3.26
503.752	3.5
504.102	3.38
504.452	3.45
504.803	3.29
505.153	3.47
505.503	3.31
505.853	3.47
506.203	3.25
506.553	3.42
506.903	3.38
507.253	3.4
507.603	3.27
507.953	3.46
508.303	3.67
508.652	3.31
509.002	3.52
509.352	3.45
509.701	3.37
510.051	3.4
510.4	3.26
510.75	3.34
511.099	3.33
511.449	3.32
511.798	3.4
512.147	3.37
512.496	3.4
512.846	3.46
513.195	3.39
513.544	3.4
513.893	3.46
514.242	3.29
514.591	3.57
514.939	3.35
515.288	3.27
515.637	3.48
515.986	3.42
516.334	3.42
516.683	3.55
517.032	3.5
517.38	3.51
517.729	3.46
518.077	3.32
518.426	3.47
518.774	3.57
519.122	3.4
519.47	3.48
519.819	3.28
520.167	3.41
520.515	3.3
520.863	3.32
521.211	3.42
521.559	3.46
521.907	3.28
522.255	3.35
522.602	3.42
522.95	3.34
523.298	3.36
523.645	3.49
523.993	3.44
524.341	3.57
524.688	3.46
525.036	3.37
525.383	3.49
525.73	3.63
526.078	3.47
526.425	3.34
526.772	3.48
527.119	3.28
527.466	3.34
527.814	3.42
528.161	3.32
528.508	3.34
528.854	3.38
529.201	3.3
529.548	3.31
529.895	3.29
530.242	3.15
530.588	3.18
530.935	3.2
531.282	3.26
531.628	3.29
531.975	3.33
532.321	3.41
532.667	3.43
533.014	3.43
533.36	3.39
533.706	3.31
534.052	3.43
534.399	3.29
534.745	3.24
535.091	3.23
535.437	3.37
535.783	3.36
536.129	3.33
536.474	3.41
536.82	3.46
537.166	3.49
537.512	3.47
537.857	3.39
538.203	3.52
538.549	3.34
538.894	3.38
539.239	3.45
539.585	3.37
539.93	3.39
540.276	3.51
540.621	3.5
540.966	3.47
541.311	3.26
541.656	3.35
542.001	3.41
542.346	3.48
542.691	3.2
543.036	3.24
543.381	3.23
543.726	3.31
544.071	3.32
544.415	3.44
544.76	3.39
545.105	3.42
545.449	3.38
545.794	3.43
546.138	3.39
546.483	3.54
546.827	3.5
547.171	3.34
547.516	3.49
547.86	3.33
548.204	3.35
548.548	3.41
548.892	3.47
549.236	3.42
549.58	3.41
549.924	3.6
550.268	3.62
550.612	3.61
550.956	3.75
551.3	3.61
551.643	3.8
551.987	3.68
552.33	3.67
552.674	3.48
553.017	3.55
553.361	3.36
553.704	3.63
554.048	3.6
554.391	3.43
554.734	3.41
555.077	3.68
555.42	3.5
555.764	3.48
556.107	3.53
556.45	3.54
556.793	3.55
557.135	3.62
557.478	3.65
557.821	3.75
558.164	3.72
558.507	3.53
558.849	3.5
559.192	3.69
559.534	3.46
559.877	3.69
560.219	3.61
560.562	3.99
560.904	3.5
561.246	3.62
561.589	3.7
561.931	3.56
562.273	3.44
562.615	3.67
562.957	3.73
563.299	3.47
563.641	3.6
563.983	3.51
564.325	3.52
564.667	3.53
565.008	3.6
565.35	3.6
565.692	3.37
566.033	3.46
566.375	3.66
566.716	3.88
567.058	3.46
567.399	3.48
567.741	3.37
568.082	3.37
568.423	3.48
568.764	3.58
569.105	3.68
569.447	3.79
569.788	3.59
570.129	3.77
570.47	3.51
570.811	3.58
571.151	3.67
571.492	3.8
571.833	3.62
572.174	3.76
572.514	3.5
572.855	3.59
573.195	3.61
573.536	3.49
573.876	3.46
574.217	3.49
574.557	3.72
574.898	3.71
575.238	3.59
575.578	3.57
575.918	3.94
576.258	3.69
576.598	3.85
576.938	3.44
577.278	3.6
577.618	3.57
577.958	3.61
578.298	3.67
578.638	3.81
578.977	3.83
579.317	3.77
579.657	3.67
579.996	3.59
580.336	3.8
580.675	3.51
581.014	3.64
581.354	3.79
581.693	3.63
582.032	3.63
582.372	3.61
582.711	3.64
583.05	3.42
583.389	3.79
583.728	3.46
584.067	3.93
584.406	3.75
584.745	3.59
585.083	3.88
585.422	3.88
585.761	3.88
586.1	3.65
586.438	3.87
586.777	3.79
587.115	3.71
587.454	3.69
587.792	3.69
588.13	3.75
588.469	3.62
588.807	3.67
589.145	3.5
589.483	3.73
589.821	3.49
590.159	3.59
590.497	4.06
590.835	4.11
591.173	3.53
591.511	4.02
591.849	3.61
592.187	3.8
592.524	3.96
592.862	3.65
593.2	3.78
593.537	3.82
593.875	3.73
594.212	3.89
594.55	3.86
594.887	3.83
595.224	3.36
595.561	3.56
595.899	3.82
596.236	3.63
596.573	3.82
596.91	3.36
597.247	3.57
597.584	4.08
597.921	3.59
598.258	3.51
598.594	3.51
598.931	3.64
599.268	3.82
599.604	3.72
599.941	3.75
600.277	3.73
600.614	3.58
600.95	3.74
601.287	3.93
601.623	3.73
601.959	3.49
602.296	4
602.632	3.48
602.968	3.87
603.304	3.64
603.64	3.85
603.976	3.79
604.312	3.79
604.648	3.67
604.984	3.83
605.319	3.64
605.655	3.54
605.991	3.72
606.326	3.84
606.662	3.62
606.998	3.5
607.333	3.71
607.668	3.84
608.004	3.9
608.339	3.94
608.674	3.74
609.01	3.78
609.345	3.64
609.68	4.07
610.015	3.93
610.35	3.76
610.685	3.66
611.02	3.86
611.355	3.78
611.689	3.52
612.024	3.78
612.359	3.87
612.694	3.83
613.028	3.71
613.363	3.84
613.697	3.67
614.032	3.87
614.366	3.97
614.7	4.16
615.035	4
615.369	3.42
615.703	3.83
616.037	4.08
616.371	3.44
616.705	3.58
617.039	3.74
617.373	3.7
617.707	3.53
618.041	3.74
618.375	3.92
618.709	3.69
619.042	3.42
619.376	4
619.71	4.23
620.043	3.73
620.377	3.96
620.71	3.69
621.043	3.97
621.377	3.7
621.71	3.83
622.043	3.41
622.376	3.77
622.709	3.91
623.043	3.85
623.376	3.97
623.709	3.58
624.041	4.11
624.374	4.13
624.707	3.6
625.04	4.26
625.373	3.43
625.705	3.58
626.038	3.93
626.37	3.8
626.703	3.56
627.035	4.15
627.368	3.99
627.7	3.91
628.032	3.57
628.365	4.07
628.697	4.07
629.029	3.52
629.361	3.81
629.693	3.77
630.025	3.71
630.357	3.85
630.689	4.09
631.021	3.7
631.353	3.94
631.684	3.65
632.016	3.89
632.348	3.92
632.679	4.11
633.011	3.94
633.342	4.33
633.674	3.91
634.005	4.28
634.336	3.68
634.668	4.26
634.999	3.4
635.33	4.29
635.661	4.05
635.992	3.81
636.323	3.95
636.654	4.04
636.985	3.87
637.316	4.07
637.647	3.91
637.977	4.27
638.308	4.32
638.639	3.6
638.969	3.48
639.3	3.85
639.63	3.48
639.961	3.89
640.291	3.77
640.622	4.5
640.952	3.68
641.282	4.26
641.612	4.03
641.943	3.85
642.273	4.51
642.603	4.34
642.933	4.24
643.263	3.87
643.592	3.53
643.922	4.18
644.252	3.89
644.582	4.14
644.911	3.97
645.241	3.97
645.571	3.76
645.9	3.37
646.23	4.15
646.559	3.98
646.888	3.65
647.218	4
647.547	4.47
647.876	3.82
648.205	3.8
648.534	3.77
648.863	3.39
649.192	4.79
649.521	3.75
649.85	3.84
650.179	3.93
650.508	4.15
650.837	3.67
651.165	3.53
651.494	4.05
651.822	4.23
652.151	3.81
652.479	4.11
652.808	3.94
653.136	3.88
653.465	3.33
653.793	4.12
654.121	3.59
654.449	4.03
654.777	4.53
655.105	4.38
655.433	3.68
655.761	3.8
656.089	4.32
656.417	4.59
656.745	3.68
657.073	3.6
657.4	4.42
657.728	3.73
658.056	4.41
658.383	4.29
658.711	3.94
659.038	4
659.365	4.12
659.693	4.04
660.02	3.84
660.347	3.58
660.674	4.2
661.001	4.03
661.329	3.59
661.656	4.27
661.982	3.86
662.309	4.18
662.636	4.06
662.963	4.29
663.29	4.07
663.616	4.38
663.943	3.79
664.27	4.59
664.596	3.89
664.923	4.27
665.249	4.23
665.576	4.23
665.902	4.94
666.228	4.33
666.554	4.04
666.881	4.1
667.207	3.91
667.533	4.07
667.859	4.63
668.185	4.54
668.511	3.56
668.837	2.51
669.162	4.07
669.488	3.91
669.814	4.57
670.139	4.44
670.465	4.55
670.791	3.86
671.116	4.88
671.442	3.88
671.767	4.72
672.092	4.13
672.418	4.72
672.743	4.51
673.068	4.03
673.393	3.8
673.718	3.58
674.043	4.17
674.368	3.84
674.693	4.86
675.018	4
675.343	4.14
675.667	4.42
675.992	4.4
676.317	4.79
676.641	4.53
676.966	4.26
677.29	4.02
677.615	4.55
677.939	4.8
678.264	5.17
678.588	4.31
678.912	4.49
679.236	5.16
679.56	4.05
679.885	4.46
680.209	4.17
680.532	4.65
680.856	4.69
681.18	4.35
681.504	3.98
681.828	4.12
682.152	3.8
682.475	4.27
682.799	4.34
683.122	4.42
683.446	3.76
683.769	4.49
684.093	3.9
684.416	5.26
684.739	4.7
685.062	4.41
685.386	5.02
685.709	4.39
686.032	4
686.355	5.16
686.678	4.15
687.001	4.32
687.324	4.93
687.646	4.65
687.969	3.73
688.292	4.32
688.614	3.81
688.937	4.83
689.26	4.11
689.582	3.97
689.904	4.69
690.227	4.55
690.549	4.23
690.871	4.69
691.194	4.02
691.516	3.92
691.838	4.4
692.16	4.28
692.482	4.49
692.804	4.29
693.126	4.29
