Data from 0415_crown_Reflection__1__21.txt Node

Date: Fri Dec 15 16:36:29 CST 2023
User: ToomeyLab
Spectrometer: FLMS14357
Trigger mode: 0
Integration Time (sec): 1.000000E-2
Scans to average: 100
Electric dark correction enabled: true
Nonlinearity correction enabled: false
Boxcar width: 0
XAxis mode: Wavelengths
Number of Pixels in Spectrum: 2048
>>>>>Begin Spectral Data<<<<<
189.047	725.94
189.435	725.94
189.823	725.94
190.211	102.05
190.599	-997.27
190.987	93.53
191.375	56.35
191.763	67.86
192.151	107.18
192.538	128.01
192.926	-165.43
193.314	2798.24
193.702	10.13
194.089	213.27
194.477	-51.34
194.864	69.59
195.252	38.07
195.639	198.75
196.027	-35.29
196.414	184.31
196.801	105.88
197.189	152.83
197.576	208.9
197.963	-182.32
198.351	-36.9
198.738	20.13
199.125	25.94
199.512	-34.65
199.899	-11.27
200.286	57.86
200.673	3.72
201.06	4.99
201.447	-24.79
201.833	23.79
202.22	45.22
202.607	12.25
202.994	2.06
203.38	48.33
203.767	14.95
204.154	60.61
204.54	62.65
204.927	4
205.313	-52.06
205.699	21.71
206.086	44.57
206.472	20.71
206.858	11.81
207.245	-7.62
207.631	23.97
208.017	20.6
208.403	-7.4
208.789	23.68
209.175	-13.78
209.561	-35
209.947	-13.65
210.333	-18.54
210.719	-0.2
211.105	15.21
211.491	-46.13
211.876	24.61
212.262	22.39
212.648	28.02
213.034	21.9
213.419	-8.29
213.805	11.94
214.19	-15.86
214.576	9.72
214.961	-3.29
215.346	-20.1
215.732	18.34
216.117	24.61
216.502	-25.73
216.888	38.48
217.273	43.22
217.658	2.88
218.043	17.67
218.428	-4.65
218.813	5.64
219.198	-33.5
219.583	6.25
219.968	10.39
220.353	-26.97
220.738	30.49
221.122	38.61
221.507	1.65
221.892	-17.91
222.276	8.72
222.661	12.92
223.046	18.63
223.43	12.88
223.815	5.04
224.199	0.9
224.583	9.92
224.968	0.24
225.352	8.79
225.736	-2.17
226.121	-12.42
226.505	5.54
226.889	11.49
227.273	-2.3
227.657	1.07
228.041	0.72
228.425	0.14
228.809	4.74
229.193	4.89
229.577	3.39
229.961	3.05
230.344	2.46
230.728	1.34
231.112	2.48
231.495	1.95
231.879	1.78
232.263	1.93
232.646	2.36
233.03	1.33
233.413	0.07
233.797	1.71
234.18	-1.24
234.563	3.28
234.946	-1.24
235.33	3.95
235.713	2.4
236.096	1
236.479	3.45
236.862	2.35
237.245	4.89
237.628	2.99
238.011	4.19
238.394	3.64
238.777	2.5
239.16	0.52
239.543	4.15
239.925	3.4
240.308	1.34
240.691	5.01
241.073	4.68
241.456	2.6
241.838	1.14
242.221	1.26
242.603	2.36
242.986	2.97
243.368	2.46
243.75	2.5
244.133	1.93
244.515	2.76
244.897	1.84
245.279	2.27
245.661	2.34
246.043	1.14
246.425	1.1
246.807	3.57
247.189	2.88
247.571	2.21
247.953	1.89
248.335	2.01
248.717	2.32
249.098	2.12
249.48	2.15
249.862	2.14
250.243	2.29
250.625	1.89
251.006	2.66
251.388	1.04
251.769	3.78
252.151	2.94
252.532	2.73
252.913	0.75
253.295	1.76
253.676	2.29
254.057	2.18
254.438	2.09
254.819	1.55
255.2	1.53
255.581	1.39
255.962	2.4
256.343	4.31
256.724	1.69
257.105	3.03
257.486	1.58
257.867	3.55
258.247	1.44
258.628	1.5
259.009	1.52
259.389	2.24
259.77	2.08
260.15	1.34
260.531	1.43
260.911	2.27
261.292	2.18
261.672	1.86
262.052	1.85
262.432	2.34
262.813	1.96
263.193	2
263.573	1.56
263.953	1.32
264.333	2.29
264.713	1.84
265.093	2.19
265.473	2.86
265.853	0.37
266.233	3.27
266.612	-0.09
266.992	1.51
267.372	2.41
267.752	1.58
268.131	1.11
268.511	2.46
268.89	2.8
269.27	1.59
269.649	1.31
270.029	1.47
270.408	2.68
270.787	1.75
271.167	3.38
271.546	2.23
271.925	1.63
272.304	2.11
272.683	2.11
273.062	1.6
273.441	2.49
273.82	1.01
274.199	2.16
274.578	1.96
274.957	1.9
275.336	2.19
275.715	1.45
276.093	2.03
276.472	2.02
276.851	2.03
277.229	1.33
277.608	0.97
277.986	2.23
278.365	1.67
278.743	1.72
279.122	2.27
279.5	1.93
279.878	2.35
280.257	1
280.635	1.34
281.013	1.72
281.391	2.54
281.769	2.18
282.147	2.35
282.525	2.43
282.903	1.23
283.281	2.49
283.659	2.57
284.037	2.34
284.415	2.26
284.792	2.36
285.17	1.16
285.548	1.94
285.925	1.93
286.303	1.74
286.68	1.6
287.058	1.7
287.435	1.58
287.813	2.09
288.19	1.45
288.567	2
288.945	2.08
289.322	1.84
289.699	2
290.076	1.55
290.453	1.88
290.83	1.72
291.207	1.87
291.584	2.1
291.961	2.17
292.338	2.28
292.715	2.34
293.092	1.71
293.469	2.18
293.845	2.72
294.222	1.98
294.599	1.53
294.975	2
295.352	2.41
295.728	2
296.105	1.77
296.481	1.55
296.858	2.47
297.234	1.8
297.61	1.84
297.986	2.06
298.363	2.23
298.739	1.78
299.115	2.24
299.491	1.63
299.867	1.75
300.243	2.47
300.619	1.71
300.995	1.5
301.371	2.72
301.746	1.98
302.122	2.4
302.498	2.06
302.874	1.64
303.249	2.55
303.625	1.82
304	2.16
304.376	2.32
304.751	1.16
305.127	2.93
305.502	1.46
305.878	1.51
306.253	2.31
306.628	2.25
307.003	2.06
307.378	2.58
307.754	2.19
308.129	1.68
308.504	2.3
308.879	1.57
309.254	2.7
309.629	3.18
310.003	2.75
310.378	2.34
310.753	2.34
311.128	2.37
311.502	2.46
311.877	2.56
312.252	1.69
312.626	2.37
313.001	1.77
313.375	2.43
313.75	1.84
314.124	1.84
314.498	1.99
314.873	2.18
315.247	2
315.621	2.18
315.995	1.26
316.369	2.1
316.743	2.1
317.117	2.3
317.491	1.85
317.865	2.43
318.239	2.17
318.613	1.76
318.987	2.33
319.361	2.05
319.734	2.22
320.108	2.58
320.482	2.13
320.855	2.92
321.229	2.2
321.602	2.1
321.976	2.23
322.349	1.62
322.723	2.44
323.096	2.51
323.469	1.85
323.843	1.82
324.216	1.72
324.589	2.43
324.962	2.43
325.335	1.37
325.708	1.71
326.081	1.88
326.454	2.1
326.827	1.75
327.2	2.36
327.573	2.3
327.945	2.25
328.318	2.12
328.691	1.72
329.063	2.06
329.436	1.77
329.809	2.76
330.181	2.61
330.553	1.81
330.926	2.42
331.298	2.41
331.671	1.61
332.043	2.84
332.415	2.26
332.787	2.68
333.159	2.86
333.532	2.85
333.904	3.02
334.276	2.12
334.648	2.72
335.02	2.24
335.391	2.31
335.763	2.17
336.135	1.95
336.507	2.39
336.879	2.48
337.25	2.07
337.622	2.44
337.993	1.94
338.365	2.56
338.736	2.22
339.108	2.22
339.479	2.31
339.851	2.27
340.222	2.06
340.593	1.69
340.964	2.22
341.336	2.83
341.707	1.52
342.078	2.64
342.449	2.48
342.82	2.12
343.191	2.24
343.562	2.25
343.933	2.45
344.303	2.43
344.674	2
345.045	2.08
345.416	2.27
345.786	1.88
346.157	2.49
346.527	1.35
346.898	1.48
347.268	2.01
347.639	1.97
348.009	2.42
348.38	2.27
348.75	2.29
349.12	1.93
349.49	2.91
349.861	2.28
350.231	2.14
350.601	2.22
350.971	2.46
351.341	2.34
351.711	2.7
352.081	2.35
352.45	1.94
352.82	2.64
353.19	2.82
353.56	2.42
353.929	2.18
354.299	2.16
354.669	2.15
355.038	2.32
355.408	2.45
355.777	2.34
356.147	1.82
356.516	2.49
356.885	2.14
357.254	2.3
357.624	2.62
357.993	2.44
358.362	2.18
358.731	2.18
359.1	2.46
359.469	2.04
359.838	2.39
360.207	2.23
360.576	1.73
360.945	2.4
361.314	2.33
361.682	1.82
362.051	2.04
362.42	2.42
362.788	2.2
363.157	2.23
363.525	2.34
363.894	2.19
364.262	2.26
364.631	2.24
364.999	2.54
365.367	2
365.735	2.79
366.104	2.38
366.472	2.41
366.84	2.42
367.208	1.86
367.576	2.37
367.944	2.44
368.312	2.06
368.68	1.97
369.048	2.5
369.416	2.57
369.783	1.98
370.151	2.67
370.519	2.79
370.886	2.6
371.254	2.29
371.621	2.39
371.989	2.53
372.356	2
372.724	2.68
373.091	2.35
373.458	2.59
373.826	2.27
374.193	2
374.56	2.59
374.927	2.57
375.294	2.54
375.661	2.23
376.028	2.1
376.395	2.07
376.762	2.23
377.129	2.17
377.496	1.85
377.863	2.55
378.229	1.63
378.596	2.44
378.963	2.21
379.329	2.09
379.696	2.6
380.062	2.27
380.429	2.5
380.795	2.56
381.161	2.35
381.528	2.49
381.894	2.21
382.26	2.25
382.626	2.52
382.993	1.82
383.359	3.07
383.725	2.34
384.091	2.28
384.457	2.78
384.823	2.64
385.188	2.31
385.554	2.09
385.92	2.36
386.286	2.55
386.651	2.63
387.017	2.36
387.383	2.22
387.748	2.33
388.114	2.52
388.479	2.28
388.845	2.47
389.21	2.3
389.575	2.4
389.94	2.28
390.306	2.61
390.671	2.37
391.036	2.09
391.401	1.93
391.766	2.33
392.131	2
392.496	2.26
392.861	2.24
393.226	2.42
393.591	2.45
393.956	2.19
394.32	2.4
394.685	2.2
395.05	2.2
395.414	2.35
395.779	2.19
396.143	2.23
396.508	2.43
396.872	2.41
397.236	2.35
397.601	2.14
397.965	2.37
398.329	2.37
398.694	2.41
399.058	2.4
399.422	2.38
399.786	2.61
400.15	2.52
400.514	2.43
400.878	2.37
401.242	2.57
401.605	2.34
401.969	2.4
402.333	2.55
402.697	2.25
403.06	2.63
403.424	2.42
403.787	2.14
404.151	2.51
404.514	2.41
404.878	2.29
405.241	2.62
405.604	2.68
405.968	2.47
406.331	2.45
406.694	2.63
407.057	2.41
407.42	2.53
407.783	2.42
408.146	2.59
408.509	2.54
408.872	2.26
409.235	2.55
409.598	2.85
409.961	2.36
410.323	2.92
410.686	2.55
411.049	2.19
411.411	2.27
411.774	2.33
412.136	2.37
412.499	2.32
412.861	2.37
413.223	2.55
413.586	2.34
413.948	2.5
414.31	2.45
414.672	2.49
415.035	2.29
415.397	2.87
415.759	2.4
416.121	2.51
416.483	2.48
416.845	2.61
417.206	2.46
417.568	2.53
417.93	2.33
418.292	2.35
418.653	2.6
419.015	2.42
419.377	2.29
419.738	2.52
420.1	2.47
420.461	2.62
420.822	2.5
421.184	2.29
421.545	2.4
421.906	2.35
422.267	2.4
422.629	2.37
422.99	2.38
423.351	2.4
423.712	2.49
424.073	2.37
424.434	2.39
424.795	2.34
425.155	2.36
425.516	2.29
425.877	2.38
426.238	2.28
426.598	2.41
426.959	2.37
427.32	2.29
427.68	2.45
428.041	2.4
428.401	2.68
428.761	2.41
429.122	2.43
429.482	2.47
429.842	2.59
430.202	2.52
430.563	2.38
430.923	2.07
431.283	2.54
431.643	2.42
432.003	2.52
432.363	2.62
432.722	2.45
433.082	2.49
433.442	2.33
433.802	2.4
434.161	2.42
434.521	2.62
434.881	2.47
435.24	2.41
435.6	2.4
435.959	2.39
436.319	2.49
436.678	2.53
437.037	2.42
437.396	2.57
437.756	2.47
438.115	2.44
438.474	2.6
438.833	2.39
439.192	2.4
439.551	2.49
439.91	2.56
440.269	2.62
440.628	2.52
440.987	2.35
441.345	2.54
441.704	2.38
442.063	2.39
442.421	2.54
442.78	2.32
443.138	2.35
443.497	2.47
443.855	2.57
444.214	2.53
444.572	2.65
444.93	2.47
445.288	2.52
445.647	2.58
446.005	2.43
446.363	2.56
446.721	2.56
447.079	2.3
447.437	2.47
447.795	2.42
448.153	2.42
448.51	2.45
448.868	2.49
449.226	2.51
449.584	2.38
449.941	2.56
450.299	2.58
450.656	2.52
451.014	2.5
451.371	2.31
451.729	2.5
452.086	2.78
452.443	2.44
452.801	2.64
453.158	2.55
453.515	2.41
453.872	2.64
454.229	2.3
454.586	2.51
454.943	2.63
455.3	2.61
455.657	2.41
456.014	2.44
456.371	2.61
456.727	2.5
457.084	2.76
457.441	2.36
457.797	2.57
458.154	2.76
458.51	2.46
458.867	2.73
459.223	2.55
459.58	2.54
459.936	2.5
460.292	2.51
460.648	2.49
461.005	2.51
461.361	2.47
461.717	2.47
462.073	2.33
462.429	2.55
462.785	2.7
463.141	2.57
463.496	2.54
463.852	2.65
464.208	2.76
464.564	2.62
464.919	2.58
465.275	2.69
465.631	2.69
465.986	2.63
466.342	2.49
466.697	2.52
467.052	2.6
467.408	2.77
467.763	2.63
468.118	2.78
468.473	2.52
468.829	2.6
469.184	2.61
469.539	2.73
469.894	2.52
470.249	2.75
470.603	2.64
470.958	2.66
471.313	2.74
471.668	2.77
472.023	2.65
472.377	2.56
472.732	2.62
473.086	2.68
473.441	2.45
473.795	2.65
474.15	2.81
474.504	2.71
474.859	2.63
475.213	2.49
475.567	2.55
475.921	2.43
476.275	2.67
476.63	2.73
476.984	2.83
477.338	2.58
477.692	2.47
478.045	2.67
478.399	2.54
478.753	2.64
479.107	2.63
479.461	2.74
479.814	2.68
480.168	2.58
480.521	2.52
480.875	2.63
481.228	2.67
481.582	2.76
481.935	2.57
482.289	2.62
482.642	2.7
482.995	2.5
483.348	2.46
483.701	2.63
484.055	2.61
484.408	2.57
484.761	2.5
485.114	2.41
485.466	2.34
485.819	2.38
486.172	2.42
486.525	2.5
486.878	2.5
487.23	2.55
487.583	2.58
487.936	2.65
488.288	2.6
488.641	2.53
488.993	2.38
489.345	2.38
489.698	2.46
490.05	2.45
490.402	2.53
490.754	2.47
491.107	2.56
491.459	2.62
491.811	2.67
492.163	2.58
492.515	2.54
492.866	2.55
493.218	2.53
493.57	2.47
493.922	2.5
494.274	2.63
494.625	2.68
494.977	2.65
495.328	2.76
495.68	2.66
496.031	2.8
496.383	2.53
496.734	2.88
497.086	2.79
497.437	2.66
497.788	2.75
498.139	2.61
498.49	2.63
498.842	2.51
499.193	2.58
499.544	2.7
499.894	2.72
500.245	2.67
500.596	2.64
500.947	2.74
501.298	2.74
501.648	2.8
501.999	2.88
502.35	2.69
502.7	2.78
503.051	2.67
503.401	2.59
503.752	2.94
504.102	2.81
504.452	2.72
504.803	2.59
505.153	2.57
505.503	2.7
505.853	2.74
506.203	2.6
506.553	2.58
506.903	2.71
507.253	2.63
507.603	2.68
507.953	2.85
508.303	2.84
508.652	2.56
509.002	2.86
509.352	2.88
509.701	2.65
510.051	2.7
510.4	2.65
510.75	2.67
511.099	2.71
511.449	2.81
511.798	2.68
512.147	2.77
512.496	2.69
512.846	2.72
513.195	2.69
513.544	2.71
513.893	2.73
514.242	2.79
514.591	2.86
514.939	2.84
515.288	2.65
515.637	2.8
515.986	2.79
516.334	2.83
516.683	2.8
517.032	2.86
517.38	2.85
517.729	2.83
518.077	2.68
518.426	2.87
518.774	2.74
519.122	2.61
519.47	2.64
519.819	2.64
520.167	2.57
520.515	2.64
520.863	2.7
521.211	2.72
521.559	2.89
521.907	2.68
522.255	2.79
522.602	2.78
522.95	2.74
523.298	2.66
523.645	2.82
523.993	2.72
524.341	2.95
524.688	2.86
525.036	2.74
525.383	2.67
525.73	2.96
526.078	2.87
526.425	2.64
526.772	2.88
527.119	2.63
527.466	2.69
527.814	2.68
528.161	2.64
528.508	2.88
528.854	2.68
529.201	2.72
529.548	2.59
529.895	2.61
530.242	2.54
530.588	2.57
530.935	2.67
531.282	2.73
531.628	2.72
531.975	2.73
532.321	2.81
532.667	2.83
533.014	2.86
533.36	2.75
533.706	2.86
534.052	2.71
534.399	2.69
534.745	2.68
535.091	2.62
535.437	2.68
535.783	2.75
536.129	2.79
536.474	2.76
536.82	2.83
537.166	2.95
537.512	2.84
537.857	2.81
538.203	2.81
538.549	2.76
538.894	2.73
539.239	2.88
539.585	2.88
539.93	2.8
540.276	2.94
540.621	2.88
540.966	2.92
541.311	2.79
541.656	2.74
542.001	2.79
542.346	2.84
542.691	2.73
543.036	2.67
543.381	2.59
543.726	2.66
544.071	2.84
544.415	2.88
544.76	2.82
545.105	2.83
545.449	2.87
545.794	2.9
546.138	2.9
546.483	2.86
546.827	2.85
547.171	2.87
547.516	2.95
547.86	2.83
548.204	2.73
548.548	2.82
548.892	2.98
549.236	2.86
549.58	2.8
549.924	2.87
550.268	2.96
550.612	3.03
550.956	3.1
551.3	2.96
551.643	3.1
551.987	3.06
552.33	2.87
552.674	3.07
553.017	3.1
553.361	2.73
553.704	3
554.048	2.87
554.391	2.79
554.734	2.94
555.077	2.94
555.42	2.95
555.764	2.92
556.107	2.86
556.45	2.92
556.793	2.91
557.135	2.91
557.478	3.22
557.821	2.95
558.164	2.92
558.507	3
558.849	2.89
559.192	3.11
559.534	3.04
559.877	3.07
560.219	2.87
560.562	3.3
560.904	2.92
561.246	3.01
561.589	3.08
561.931	3.07
562.273	2.64
562.615	3.02
562.957	3.09
563.299	2.89
563.641	3.1
563.983	3.18
564.325	2.81
564.667	2.99
565.008	3
565.35	3.03
565.692	2.84
566.033	3.02
566.375	3.36
566.716	3.19
567.058	2.96
567.399	2.77
567.741	2.82
568.082	3.01
568.423	2.99
568.764	2.84
569.105	3.15
569.447	3
569.788	3.06
570.129	3.17
570.47	2.96
570.811	3.12
571.151	3.07
571.492	3.14
571.833	3.08
572.174	3.07
572.514	2.99
572.855	3.04
573.195	2.98
573.536	3.05
573.876	2.76
574.217	2.83
574.557	3
574.898	3.13
575.238	3.15
575.578	2.96
575.918	3.44
576.258	3.21
576.598	3.23
576.938	3.12
577.278	3.28
577.618	2.79
577.958	3.08
578.298	3.11
578.638	3.09
578.977	3.08
579.317	2.95
579.657	3.38
579.996	3.15
580.336	2.95
580.675	3.21
581.014	3.25
581.354	3.17
581.693	3.41
582.032	3
582.372	3.02
582.711	3.17
583.05	2.91
583.389	3.26
583.728	2.94
584.067	3.34
584.406	3.33
584.745	3.29
585.083	3.19
585.422	3.32
585.761	3.35
586.1	3.28
586.438	2.99
586.777	3.33
587.115	3.2
587.454	3.21
587.792	3.15
588.13	3.4
588.469	3.16
588.807	3.17
589.145	3.09
589.483	3.19
589.821	3.04
590.159	3.09
590.497	3.37
590.835	3.63
591.173	3.24
591.511	3.35
591.849	3.16
592.187	3.19
592.524	3.32
592.862	3.17
593.2	3.44
593.537	3.34
593.875	3.3
594.212	3.26
594.55	3.1
594.887	3.31
595.224	3.13
595.561	3.36
595.899	3.24
596.236	2.86
596.573	3.27
596.91	2.88
597.247	3.21
597.584	3.57
597.921	3.18
598.258	3.09
598.594	3.2
598.931	3.04
599.268	3.11
599.604	3.04
599.941	3.28
600.277	3.13
600.614	3.28
600.95	3.03
601.287	3.23
601.623	3.22
601.959	3.14
602.296	2.98
602.632	3.37
602.968	3.21
603.304	3.17
603.64	3.09
603.976	3.29
604.312	3.11
604.648	3.21
604.984	3.38
605.319	3.25
605.655	3.27
605.991	3.24
606.326	3.28
606.662	3.26
606.998	2.89
607.333	3.3
607.668	3.49
608.004	3.46
608.339	3.61
608.674	3.33
609.01	3.24
609.345	3.05
609.68	3.37
610.015	3.37
610.35	3.23
610.685	3.28
611.02	3.04
611.355	3.23
611.689	3.28
612.024	3.4
612.359	3.27
612.694	3.32
613.028	3.03
613.363	3.43
613.697	3.52
614.032	3.48
614.366	3.3
614.7	3.59
615.035	3.38
615.369	2.99
615.703	3.33
616.037	3.37
616.371	3.19
616.705	3.09
617.039	3.47
617.373	3.38
617.707	3.43
618.041	3.41
618.375	3.66
618.709	3.58
619.042	3.14
619.376	3.33
619.71	3.63
620.043	3.66
620.377	3.37
620.71	3.58
621.043	3.74
621.377	3.3
621.71	3.35
622.043	3.19
622.376	3.1
622.709	3.37
623.043	3.27
623.376	3.66
623.709	3.48
624.041	3.82
624.374	3.67
624.707	3.63
625.04	3.71
625.373	2.91
625.705	3.53
626.038	3.09
626.37	3.09
626.703	3.44
627.035	3.62
627.368	3.7
627.7	3.26
628.032	3.2
628.365	3.56
628.697	3.74
629.029	2.99
629.361	3.49
629.693	3.65
630.025	3.28
630.357	3.78
630.689	3.49
631.021	3.46
631.353	3.87
631.684	3.6
632.016	3.28
632.348	3.9
632.679	3.48
633.011	3.55
633.342	3.82
633.674	3.46
634.005	4.08
634.336	3.45
634.668	3.68
634.999	3.29
635.33	3.68
635.661	3.6
635.992	3.58
636.323	3.64
636.654	4.13
636.985	3.44
637.316	3.93
637.647	3.27
637.977	3.91
638.308	3.86
638.639	2.76
638.969	3.39
639.3	3.82
639.63	3.48
639.961	3.73
640.291	3.38
640.622	3.85
640.952	3.08
641.282	4.19
641.612	3.58
641.943	3.7
642.273	3.66
642.603	3.79
642.933	4.07
643.263	3.44
643.592	3.28
643.922	3.5
644.252	3.46
644.582	3.62
644.911	3.33
645.241	3.43
645.571	3.79
645.9	3.37
646.23	3.52
646.559	4.08
646.888	3.5
647.218	3.58
647.547	3.92
647.876	3.48
648.205	3.63
648.534	3.7
648.863	3.33
649.192	3.91
649.521	3.39
649.85	3.97
650.179	3.95
650.508	3.35
650.837	3.3
651.165	3.83
651.494	3.63
651.822	3.61
652.151	3.18
652.479	4.08
652.808	3.09
653.136	3.47
653.465	2.68
653.793	3.47
654.121	3.65
654.449	4.05
654.777	4.2
655.105	4.09
655.433	3.56
655.761	3.87
656.089	4.06
656.417	4.13
656.745	3.25
657.073	3.74
657.4	4.29
657.728	3.48
658.056	3.76
658.383	3.94
658.711	4.29
659.038	3.85
659.365	4.05
659.693	4.05
660.02	3.49
660.347	4.28
660.674	3.86
661.001	3.95
661.329	3.44
661.656	3.86
661.982	3.89
662.309	3.8
662.636	3.22
662.963	3.43
663.29	3.88
663.616	4.15
663.943	3.57
664.27	3.66
664.596	3.86
664.923	4.31
665.249	3.96
665.576	4.09
665.902	4.58
666.228	4.13
666.554	4.1
666.881	3.61
667.207	3.9
667.533	3.44
667.859	3.94
668.185	3.97
668.511	3.17
668.837	3.05
669.162	3.15
669.488	3.15
669.814	4.19
670.139	4.38
670.465	4.35
670.791	4.19
671.116	4.55
671.442	3.55
671.767	4.36
672.092	4.15
672.418	3.74
672.743	4.56
673.068	3.61
673.393	3.25
673.718	3.71
674.043	3.78
674.368	3.78
674.693	3.98
675.018	3.9
675.343	4.19
675.667	3.26
675.992	4.55
676.317	4.13
676.641	4.53
676.966	4.49
677.29	3.87
677.615	4.85
677.939	4.82
678.264	4.5
678.588	3.54
678.912	4.24
679.236	4.77
679.56	3.04
679.885	5.03
680.209	3.69
680.532	4.29
680.856	4.48
681.18	4.62
681.504	4.16
681.828	4.28
682.152	3.55
682.475	4.03
682.799	3.88
683.122	4.43
683.446	3.79
683.769	4.65
684.093	4.1
684.416	4.75
684.739	4.09
685.062	4.36
685.386	4.22
685.709	4.57
686.032	4.45
686.355	4
686.678	3.85
687.001	4.44
687.324	4.92
687.646	4.1
687.969	3.76
688.292	3.73
688.614	3.51
688.937	4.55
689.26	4.39
689.582	4.53
689.904	3.85
690.227	4.62
690.549	4.96
690.871	5.59
691.194	4.02
691.516	3.46
691.838	4.46
692.16	3.81
692.482	3.78
692.804	4.43
693.126	4.34
