Data from 0415_crown_Reflection__3__23.txt Node

Date: Fri Dec 15 16:36:47 CST 2023
User: ToomeyLab
Spectrometer: FLMS14357
Trigger mode: 0
Integration Time (sec): 1.000000E-2
Scans to average: 100
Electric dark correction enabled: true
Nonlinearity correction enabled: false
Boxcar width: 0
XAxis mode: Wavelengths
Number of Pixels in Spectrum: 2048
>>>>>Begin Spectral Data<<<<<
189.047	-1343.05
189.435	-1343.05
189.823	-1343.05
190.211	-75.75
190.599	484.55
190.987	92.53
191.375	47.41
191.763	104.72
192.151	126.79
192.538	90.23
192.926	-61.65
193.314	3717.06
193.702	28.7
194.089	-163.17
194.477	-80.94
194.864	-89.33
195.252	68.41
195.639	157.38
196.027	-370.12
196.414	482.85
196.801	148.79
197.189	106.21
197.576	138.18
197.963	75.95
198.351	-12.34
198.738	6.46
199.125	34.64
199.512	17.56
199.899	21.75
200.286	12.56
200.673	27.97
201.06	26.21
201.447	1.85
201.833	3.48
202.22	29.88
202.607	24.78
202.994	25.04
203.38	30.81
203.767	13.89
204.154	11.11
204.54	25.4
204.927	49.18
205.313	-33.08
205.699	43.17
206.086	37.29
206.472	43.41
206.858	61.22
207.245	-33.25
207.631	35.16
208.017	1.59
208.403	30.52
208.789	33.74
209.175	47.37
209.561	13.71
209.947	14.53
210.333	-83.3
210.719	31.6
211.105	41.45
211.491	16.92
211.876	45.01
212.262	38.99
212.648	47.55
213.034	44.56
213.419	-2.83
213.805	37.56
214.19	-0.62
214.576	10.33
214.961	-6.79
215.346	-33.79
215.732	12.72
216.117	39.08
216.502	9.75
216.888	8.46
217.273	31.01
217.658	22.11
218.043	21.65
218.428	10.39
218.813	11.58
219.198	-17.44
219.583	11.16
219.968	38.58
220.353	21.55
220.738	18.7
221.122	16.72
221.507	-15.84
221.892	3.74
222.276	6.4
222.661	13.82
223.046	25.51
223.43	21.59
223.815	6.39
224.199	-3.24
224.583	-3.52
224.968	12.1
225.352	20.06
225.736	7.53
226.121	4
226.505	11.17
226.889	16.27
227.273	6.13
227.657	11.31
228.041	7.44
228.425	2.32
228.809	8.85
229.193	2.51
229.577	7.15
229.961	5.1
230.344	3.83
230.728	3.61
231.112	4.39
231.495	4.39
231.879	2.72
232.263	4.69
232.646	6.28
233.03	5.43
233.413	2.95
233.797	5.41
234.18	5.22
234.563	2.8
234.946	5.9
235.33	6.83
235.713	5.64
236.096	4.08
236.479	5.94
236.862	2.34
237.245	7.85
237.628	4.23
238.011	4.28
238.394	7.36
238.777	5.28
239.16	3.16
239.543	3.44
239.925	4.94
240.308	5.26
240.691	7.55
241.073	7.57
241.456	4.89
241.838	4.28
242.221	2.1
242.603	4.17
242.986	4.63
243.368	4.71
243.75	5
244.133	4.11
244.515	4.52
244.897	4.07
245.279	4.47
245.661	3.72
246.043	2.68
246.425	4.29
246.807	6.06
247.189	4.25
247.571	4.71
247.953	4.72
248.335	4.06
248.717	4.3
249.098	3.99
249.48	4.29
249.862	4.41
250.243	4.31
250.625	3.46
251.006	4.7
251.388	2.92
251.769	4.53
252.151	4.51
252.532	4.35
252.913	4.05
253.295	3.22
253.676	3.91
254.057	4.42
254.438	4.03
254.819	3.4
255.2	4.71
255.581	4.79
255.962	4.07
256.343	4.52
256.724	4.13
257.105	4.12
257.486	4.27
257.867	4.17
258.247	4.36
258.628	3.79
259.009	3.34
259.389	3.82
259.77	3.54
260.15	3.26
260.531	3.26
260.911	3.99
261.292	3.71
261.672	3.98
262.052	3.7
262.432	4.15
262.813	3.69
263.193	3.71
263.573	3.63
263.953	3.85
264.333	5.52
264.713	4.23
265.093	2.73
265.473	3.83
265.853	3.33
266.233	4.54
266.612	2.31
266.992	3.26
267.372	4.65
267.752	3.22
268.131	3.19
268.511	4.89
268.89	4.11
269.27	4
269.649	3.95
270.029	3.29
270.408	4.44
270.787	4.55
271.167	4.26
271.546	4.33
271.925	3.3
272.304	3.99
272.683	3.96
273.062	3.35
273.441	3.34
273.82	2.99
274.199	3.81
274.578	3.87
274.957	3.63
275.336	3.63
275.715	3.29
276.093	3.26
276.472	3.3
276.851	2.89
277.229	3.46
277.608	2.86
277.986	4.25
278.365	3.06
278.743	3.77
279.122	3.83
279.5	3.81
279.878	4.31
280.257	3.61
280.635	3.06
281.013	3.58
281.391	3.51
281.769	3.96
282.147	4.21
282.525	4.13
282.903	2.92
283.281	3.75
283.659	3.95
284.037	3.57
284.415	3.2
284.792	3.8
285.17	3.61
285.548	3.57
285.925	3.58
286.303	4.09
286.68	3.52
287.058	3.65
287.435	3.24
287.813	3.65
288.19	3.43
288.567	3.36
288.945	4
289.322	3.63
289.699	3.61
290.076	3.63
290.453	3.54
290.83	2.9
291.207	3.4
291.584	3.67
291.961	3.92
292.338	3.61
292.715	3.76
293.092	4.14
293.469	3.52
293.845	3.74
294.222	3.74
294.599	3.35
294.975	3.41
295.352	4.24
295.728	3.67
296.105	3.57
296.481	4.44
296.858	4.06
297.234	3.69
297.61	3.44
297.986	2.86
298.363	3.92
298.739	3.97
299.115	3.33
299.491	3.77
299.867	3.62
300.243	3.76
300.619	3.55
300.995	3.84
301.371	3.84
301.746	3.29
302.122	3.93
302.498	3.98
302.874	3.72
303.249	3.34
303.625	3.92
304	3.62
304.376	3.38
304.751	2.96
305.127	4.59
305.502	2.68
305.878	3.19
306.253	3.61
306.628	4.11
307.003	3.1
307.378	3.61
307.754	3.97
308.129	3.02
308.504	3.4
308.879	3.74
309.254	5
309.629	4.37
310.003	4.15
310.378	4.05
310.753	4.13
311.128	4.31
311.502	3.4
311.877	4.27
312.252	2.81
312.626	3.7
313.001	3.75
313.375	4
313.75	3.08
314.124	3.84
314.498	3.9
314.873	3.37
315.247	3.08
315.621	3.75
315.995	3.24
316.369	3.42
316.743	3.36
317.117	4.21
317.491	3.45
317.865	3.27
318.239	3.75
318.613	3.79
318.987	3.75
319.361	3.19
319.734	4.49
320.108	4.2
320.482	4.25
320.855	3.85
321.229	3.49
321.602	3.2
321.976	4.03
322.349	3.98
322.723	3.84
323.096	3.55
323.469	3.4
323.843	4.09
324.216	4.55
324.589	3.52
324.962	3.67
325.335	3.73
325.708	3.5
326.081	3.41
326.454	4.04
326.827	3.53
327.2	3.68
327.573	3.98
327.945	3.51
328.318	3.78
328.691	3.46
329.063	3.92
329.436	3.75
329.809	3.71
330.181	3.4
330.553	3.08
330.926	4.02
331.298	3.91
331.671	3.86
332.043	5.07
332.415	4.24
332.787	3.73
333.159	4.21
333.532	4.42
333.904	3.54
334.276	3.83
334.648	3.81
335.02	4.21
335.391	3.87
335.763	3.68
336.135	3.92
336.507	4.57
336.879	3.61
337.25	3.87
337.622	3.77
337.993	3.41
338.365	4.08
338.736	4.07
339.108	4.13
339.479	2.78
339.851	3.41
340.222	3.35
340.593	3.42
340.964	3.84
341.336	4.5
341.707	3.4
342.078	3.8
342.449	3.83
342.82	3.99
343.191	3.66
343.562	4.01
343.933	3.74
344.303	3.95
344.674	4.03
345.045	3.76
345.416	4.01
345.786	3.32
346.157	4.12
346.527	3.46
346.898	3.54
347.268	4.11
347.639	3.68
348.009	3.83
348.38	3.7
348.75	3.55
349.12	3.85
349.49	3.65
349.861	4.02
350.231	4.07
350.601	4.12
350.971	3.83
351.341	3.94
351.711	3.93
352.081	3.94
352.45	3.8
352.82	4.02
353.19	3.99
353.56	3.65
353.929	4.51
354.299	4.01
354.669	3.33
355.038	4.1
355.408	3.76
355.777	3.63
356.147	3.46
356.516	3.8
356.885	3.82
357.254	3.76
357.624	4.21
357.993	3.75
358.362	3.33
358.731	3.65
359.1	3.72
359.469	4.02
359.838	4.05
360.207	3.59
360.576	3.41
360.945	3.68
361.314	4.55
361.682	3.44
362.051	3.47
362.42	4.22
362.788	3.92
363.157	3.8
363.525	3.82
363.894	3.78
364.262	4.01
364.631	3.82
364.999	4.35
365.367	3.51
365.735	4.48
366.104	3.87
366.472	4.22
366.84	3.9
367.208	3.88
367.576	4.16
367.944	3.91
368.312	3.87
368.68	4.08
369.048	4.12
369.416	3.88
369.783	3.79
370.151	4.06
370.519	4.32
370.886	4.23
371.254	3.97
371.621	4.33
371.989	4.08
372.356	3.8
372.724	4.26
373.091	3.79
373.458	4.05
373.826	3.77
374.193	4.02
374.56	4.37
374.927	4.02
375.294	4.1
375.661	3.65
376.028	3.85
376.395	3.54
376.762	3.81
377.129	3.83
377.496	3.69
377.863	4.04
378.229	3.62
378.596	4.22
378.963	3.78
379.329	3.95
379.696	4.13
380.062	4.17
380.429	4.04
380.795	3.71
381.161	4.05
381.528	4.13
381.894	4.12
382.26	3.93
382.626	4.13
382.993	3.77
383.359	4.4
383.725	4.24
384.091	3.84
384.457	4.23
384.823	3.93
385.188	4
385.554	4.12
385.92	4.4
386.286	4.01
386.651	3.96
387.017	4.62
387.383	4.1
387.748	4.05
388.114	4.27
388.479	3.96
388.845	4
389.21	4.2
389.575	4.18
389.94	3.74
390.306	4.18
390.671	4.38
391.036	3.93
391.401	4.03
391.766	4.16
392.131	3.9
392.496	4.6
392.861	3.89
393.226	4.24
393.591	4.34
393.956	3.9
394.32	4.19
394.685	3.95
395.05	4.12
395.414	4.11
395.779	3.91
396.143	4.2
396.508	4.27
396.872	4.38
397.236	4.13
397.601	4.21
397.965	4.19
398.329	4.15
398.694	4.26
399.058	4.07
399.422	3.93
399.786	4.36
400.15	4.26
400.514	4.22
400.878	4.08
401.242	4.59
401.605	4.2
401.969	4.29
402.333	4.02
402.697	4.34
403.06	4.29
403.424	4.09
403.787	4.23
404.151	4.06
404.514	4.2
404.878	4.23
405.241	4.32
405.604	4.01
405.968	4.24
406.331	4.12
406.694	4.48
407.057	4.04
407.42	4.17
407.783	4.11
408.146	4.3
408.509	4.41
408.872	4.26
409.235	4.45
409.598	4.45
409.961	4.23
410.323	4.3
410.686	4.3
411.049	4.11
411.411	4.12
411.774	4.27
412.136	4.03
412.499	4.05
412.861	4.18
413.223	4.08
413.586	4.37
413.948	4.4
414.31	4.3
414.672	4.3
415.035	4.05
415.397	4.42
415.759	4.16
416.121	4.59
416.483	4.16
416.845	4.25
417.206	4.19
417.568	4.42
417.93	4.16
418.292	4.43
418.653	4.2
419.015	4.21
419.377	4.19
419.738	4.25
420.1	4.26
420.461	4.37
420.822	4.17
421.184	4.21
421.545	4.41
421.906	4.1
422.267	3.99
422.629	4.09
422.99	4.09
423.351	4.12
423.712	4.13
424.073	4.22
424.434	4.07
424.795	4.13
425.155	4.26
425.516	4.03
425.877	4.06
426.238	4.02
426.598	4.2
426.959	4.18
427.32	4.05
427.68	4.17
428.041	4.28
428.401	4.29
428.761	4.17
429.122	4.38
429.482	4.32
429.842	4.34
430.202	4.12
430.563	4.33
430.923	4.18
431.283	4.37
431.643	4.13
432.003	4.22
432.363	4.42
432.722	4.24
433.082	4.19
433.442	4.34
433.802	4.19
434.161	4.12
434.521	4.48
434.881	4.37
435.24	4.23
435.6	4.25
435.959	4.2
436.319	4.39
436.678	4.23
437.037	4.24
437.396	4.46
437.756	4.37
438.115	4.11
438.474	4.29
438.833	4.16
439.192	4.29
439.551	4.38
439.91	4.34
440.269	4.25
440.628	4.16
440.987	4.39
441.345	4.17
441.704	4.24
442.063	4.32
442.421	4.22
442.78	4.22
443.138	4.25
443.497	4.18
443.855	4.19
444.214	4.33
444.572	4.36
444.93	4.08
445.288	4.38
445.647	4.45
446.005	4.31
446.363	4.47
446.721	4.47
447.079	4.18
447.437	4.09
447.795	4.25
448.153	4.2
448.51	4.18
448.868	4.24
449.226	4.31
449.584	4.27
449.941	4.35
450.299	4.29
450.656	4.37
451.014	4.4
451.371	4.33
451.729	4.26
452.086	4.51
452.443	4.38
452.801	4.46
453.158	4.48
453.515	4.33
453.872	4.41
454.229	4.28
454.586	4.37
454.943	4.32
455.3	4.53
455.657	4.19
456.014	4.42
456.371	4.46
456.727	4.49
457.084	4.49
457.441	4.42
457.797	4.34
458.154	4.53
458.51	4.29
458.867	4.54
459.223	4.46
459.58	4.42
459.936	4.43
460.292	4.53
460.648	4.38
461.005	4.27
461.361	4.46
461.717	4.38
462.073	4.31
462.429	4.35
462.785	4.26
463.141	4.4
463.496	4.37
463.852	4.51
464.208	4.54
464.564	4.51
464.919	4.57
465.275	4.52
465.631	4.59
465.986	4.39
466.342	4.37
466.697	4.5
467.052	4.59
467.408	4.58
467.763	4.52
468.118	4.64
468.473	4.4
468.829	4.53
469.184	4.56
469.539	4.37
469.894	4.25
470.249	4.53
470.603	4.59
470.958	4.58
471.313	4.46
471.668	4.71
472.023	4.55
472.377	4.48
472.732	4.6
473.086	4.62
473.441	4.3
473.795	4.66
474.15	4.55
474.504	4.6
474.859	4.61
475.213	4.51
475.567	4.4
475.921	4.31
476.275	4.45
476.63	4.64
476.984	4.64
477.338	4.64
477.692	4.34
478.045	4.33
478.399	4.44
478.753	4.5
479.107	4.46
479.461	4.49
479.814	4.59
480.168	4.63
480.521	4.58
480.875	4.58
481.228	4.46
481.582	4.48
481.935	4.39
482.289	4.48
482.642	4.49
482.995	4.39
483.348	4.28
483.701	4.46
484.055	4.54
484.408	4.5
484.761	4.33
485.114	4.3
485.466	4.12
485.819	4.16
486.172	4.2
486.525	4.26
486.878	4.36
487.23	4.33
487.583	4.48
487.936	4.36
488.288	4.38
488.641	4.39
488.993	4.29
489.345	4.22
489.698	4.27
490.05	4.24
490.402	4.39
490.754	4.35
491.107	4.42
491.459	4.49
491.811	4.5
492.163	4.48
492.515	4.38
492.866	4.46
493.218	4.37
493.57	4.3
493.922	4.37
494.274	4.5
494.625	4.51
494.977	4.59
495.328	4.57
495.68	4.59
496.031	4.63
496.383	4.66
496.734	4.86
497.086	4.6
497.437	4.51
497.788	4.65
498.139	4.55
498.49	4.54
498.842	4.44
499.193	4.68
499.544	4.51
499.894	4.59
500.245	4.6
500.596	4.57
500.947	4.75
501.298	4.47
501.648	4.71
501.999	4.74
502.35	4.75
502.7	4.66
503.051	4.56
503.401	4.51
503.752	4.77
504.102	4.6
504.452	4.69
504.803	4.6
505.153	4.67
505.503	4.68
505.853	4.71
506.203	4.61
506.553	4.73
506.903	4.68
507.253	4.6
507.603	4.67
507.953	4.75
508.303	4.83
508.652	4.55
509.002	4.81
509.352	4.75
509.701	4.5
510.051	4.65
510.4	4.59
510.75	4.55
511.099	4.66
511.449	4.5
511.798	4.63
512.147	4.66
512.496	4.65
512.846	4.77
513.195	4.67
513.544	4.64
513.893	4.73
514.242	4.68
514.591	4.73
514.939	4.58
515.288	4.57
515.637	4.86
515.986	4.76
516.334	4.73
516.683	4.77
517.032	4.7
517.38	4.85
517.729	4.64
518.077	4.72
518.426	4.79
518.774	4.69
519.122	4.7
519.47	4.59
519.819	4.49
520.167	4.64
520.515	4.62
520.863	4.67
521.211	4.73
521.559	4.77
521.907	4.67
522.255	4.72
522.602	4.72
522.95	4.73
523.298	4.73
523.645	4.95
523.993	4.75
524.341	4.88
524.688	4.8
525.036	4.72
525.383	4.8
525.73	4.87
526.078	4.83
526.425	4.78
526.772	4.74
527.119	4.69
527.466	4.68
527.814	4.75
528.161	4.69
528.508	4.67
528.854	4.6
529.201	4.58
529.548	4.5
529.895	4.57
530.242	4.41
530.588	4.38
530.935	4.47
531.282	4.58
531.628	4.59
531.975	4.67
532.321	4.64
532.667	4.68
533.014	4.77
533.36	4.73
533.706	4.71
534.052	4.65
534.399	4.57
534.745	4.58
535.091	4.57
535.437	4.7
535.783	4.72
536.129	4.65
536.474	4.74
536.82	4.89
537.166	4.74
537.512	4.82
537.857	4.75
538.203	4.78
538.549	4.71
538.894	4.72
539.239	4.68
539.585	4.8
539.93	4.78
540.276	4.92
540.621	4.93
540.966	4.92
541.311	4.66
541.656	4.69
542.001	4.86
542.346	4.88
542.691	4.63
543.036	4.64
543.381	4.62
543.726	4.7
544.071	4.77
544.415	4.77
544.76	4.7
545.105	4.75
545.449	4.83
545.794	4.87
546.138	4.85
546.483	4.94
546.827	4.83
547.171	4.73
547.516	4.95
547.86	4.71
548.204	4.85
548.548	4.69
548.892	4.88
549.236	4.88
549.58	4.78
549.924	4.91
550.268	5.1
550.612	5.05
550.956	5.09
551.3	5.12
551.643	5.13
551.987	5.08
552.33	5.02
552.674	5.13
553.017	4.94
553.361	4.87
553.704	5.14
554.048	5.09
554.391	4.91
554.734	5.05
555.077	4.92
555.42	4.74
555.764	4.93
556.107	4.87
556.45	5.01
556.793	5.1
557.135	5
557.478	5.21
557.821	5.15
558.164	5.02
558.507	5.02
558.849	5.06
559.192	5.19
559.534	5.02
559.877	5.34
560.219	5.07
560.562	5.25
560.904	5.07
561.246	5.14
561.589	5.27
561.931	5.16
562.273	5.07
562.615	5.21
562.957	5
563.299	4.94
563.641	4.93
563.983	5.19
564.325	4.93
564.667	4.92
565.008	5.11
565.35	5.05
565.692	4.9
566.033	4.87
566.375	5.18
566.716	5.38
567.058	5.02
567.399	5.06
567.741	4.8
568.082	4.97
568.423	5.11
568.764	5.2
569.105	5.07
569.447	5.21
569.788	5.17
570.129	5.26
570.47	5.14
570.811	5.35
571.151	5.24
571.492	5.29
571.833	5.18
572.174	5.12
572.514	5.06
572.855	5.03
573.195	5.18
573.536	5.08
573.876	4.93
574.217	5.06
574.557	5.13
574.898	5.24
575.238	5.33
575.578	4.98
575.918	5.33
576.258	5.33
576.598	5.28
576.938	5.25
577.278	5.15
577.618	5.07
577.958	5.28
578.298	5.17
578.638	5.28
578.977	5.13
579.317	5.09
579.657	5.06
579.996	5.25
580.336	5.41
580.675	5.19
581.014	5.44
581.354	5.24
581.693	5.27
582.032	5.04
582.372	5.07
582.711	5.36
583.05	5.13
583.389	5.12
583.728	5.12
584.067	5.55
584.406	5.26
584.745	5.24
585.083	5.44
585.422	5.43
585.761	5.44
586.1	5.19
586.438	5.43
586.777	5.62
587.115	5.63
587.454	5.27
587.792	5.42
588.13	5.64
588.469	5.34
588.807	5.17
589.145	5.17
589.483	5.05
589.821	5.37
590.159	5.52
590.497	5.59
590.835	5.61
591.173	5.36
591.511	5.65
591.849	5.32
592.187	5.17
592.524	5.47
592.862	5.43
593.2	5.41
593.537	5.4
593.875	5.25
594.212	5.18
594.55	5.36
594.887	5.28
595.224	5.44
595.561	5.53
595.899	5.32
596.236	5.42
596.573	5.37
596.91	4.99
597.247	5.19
597.584	5.39
597.921	5.36
598.258	5.17
598.594	5.53
598.931	5.41
599.268	5.42
599.604	5.37
599.941	5.38
600.277	5.33
600.614	5.17
600.95	5.1
601.287	5.65
601.623	5.28
601.959	5.26
602.296	5.54
602.632	5.53
602.968	5.3
603.304	5.62
603.64	5.43
603.976	5.4
604.312	5.34
604.648	5.39
604.984	5.44
605.319	5.35
605.655	5.38
605.991	5.32
606.326	5.37
606.662	5.4
606.998	5.29
607.333	5.44
607.668	5.48
608.004	5.8
608.339	5.55
608.674	5.64
609.01	5.37
609.345	5.35
609.68	5.55
610.015	5.33
610.35	5.4
610.685	5.54
611.02	5.42
611.355	5.4
611.689	5.27
612.024	5.53
612.359	5.41
612.694	5.56
613.028	5.15
613.363	5.53
613.697	5.9
614.032	5.54
614.366	5.68
614.7	5.58
615.035	5.84
615.369	5.82
615.703	5.58
616.037	5.83
616.371	5.45
616.705	5.39
617.039	6.03
617.373	5.6
617.707	5.53
618.041	5.28
618.375	5.34
618.709	5.86
619.042	5.41
619.376	6.26
619.71	5.9
620.043	5.7
620.377	5.79
620.71	5.95
621.043	5.44
621.377	5.63
621.71	6.08
622.043	5.74
622.376	5.48
622.709	6.16
623.043	5.79
623.376	5.97
623.709	5.47
624.041	5.84
624.374	5.39
624.707	5.54
625.04	6.08
625.373	5.28
625.705	5.44
626.038	5.67
626.37	5.69
626.703	5.88
627.035	5.98
627.368	5.81
627.7	5.85
628.032	5.56
628.365	5.9
628.697	5.61
629.029	5.37
629.361	5.61
629.693	5.77
630.025	5.76
630.357	5.79
630.689	5.71
631.021	5.81
631.353	5.76
631.684	5.54
632.016	5.75
632.348	5.85
632.679	5.92
633.011	6.32
633.342	6.24
633.674	5.61
634.005	6.08
634.336	5.95
634.668	6.09
634.999	5.25
635.33	5.83
635.661	6.07
635.992	5.35
636.323	5.95
636.654	6.07
636.985	5.87
637.316	5.72
637.647	5.72
637.977	5.95
638.308	5.68
638.639	5.25
638.969	5.81
639.3	5.59
639.63	5.67
639.961	6.05
640.291	5.79
640.622	6.19
640.952	6.06
641.282	6.25
641.612	5.93
641.943	5.55
642.273	5.92
642.603	6.02
642.933	6.22
643.263	6.07
643.592	5.71
643.922	5.8
644.252	6.2
644.582	5.89
644.911	5.68
645.241	5.94
645.571	5.93
645.9	5.83
646.23	6.03
646.559	6.54
646.888	5.7
647.218	5.87
647.547	6.47
647.876	5.56
648.205	6.16
648.534	5.8
648.863	6.06
649.192	6.32
649.521	5.65
649.85	5.64
650.179	6.3
650.508	5.94
650.837	5.89
651.165	5.95
651.494	5.98
651.822	6.15
652.151	6.3
652.479	6.38
652.808	5.73
653.136	6.43
653.465	5.3
653.793	5.57
654.121	5.65
654.449	6.43
654.777	5.77
655.105	6.25
655.433	5.62
655.761	5.3
656.089	6.23
656.417	6.14
656.745	5.53
657.073	5.62
657.4	7.11
657.728	5.97
658.056	6.2
658.383	6.52
658.711	6.27
659.038	6.47
659.365	7.12
659.693	5.97
660.02	6.01
660.347	6.26
660.674	6.13
661.001	6.26
661.329	5.68
661.656	6.26
661.982	6.36
662.309	6.2
662.636	5.54
662.963	6.41
663.29	6.68
663.616	6
663.943	5.51
664.27	5.96
664.596	6.8
664.923	6.34
665.249	6.78
665.576	6.29
665.902	7.06
666.228	6.59
666.554	6.13
666.881	5.54
667.207	6.52
667.533	6.63
667.859	6.16
668.185	6.44
668.511	5.88
668.837	6.02
669.162	6.49
669.488	6.05
669.814	7.11
670.139	6.54
670.465	7.4
670.791	6.78
671.116	6.76
671.442	6.01
671.767	6.53
672.092	6.14
672.418	6.52
672.743	6.77
673.068	6.46
673.393	6.6
673.718	6.33
674.043	6.08
674.368	6.34
674.693	7.19
675.018	5.95
675.343	6.31
675.667	6.47
675.992	6.75
676.317	6.31
676.641	6.72
676.966	6.71
677.29	6.7
677.615	6.81
677.939	6.83
678.264	7.24
678.588	7.02
678.912	6.63
679.236	6.52
679.56	6.05
679.885	7.43
680.209	6.55
680.532	6.19
680.856	7.37
681.18	6.88
681.504	6.59
681.828	7.09
682.152	6.35
682.475	6.34
682.799	6.6
683.122	6.57
683.446	5.85
683.769	7.31
684.093	6.43
684.416	7.62
684.739	6.24
685.062	6.48
685.386	6.71
685.709	6.18
686.032	6.63
686.355	6.83
686.678	6.31
687.001	6.72
687.324	7.53
687.646	6.66
687.969	6.06
688.292	6.25
688.614	6.16
688.937	7.66
689.26	6.73
689.582	6.65
689.904	6.15
690.227	6.87
690.549	6.86
690.871	7.01
691.194	6.52
691.516	6.6
691.838	7.51
692.16	6.05
692.482	6.64
