Data from 0415_chest_Reflection__4__19.txt Node

Date: Fri Dec 15 16:35:31 CST 2023
User: ToomeyLab
Spectrometer: FLMS14357
Trigger mode: 0
Integration Time (sec): 1.000000E-2
Scans to average: 100
Electric dark correction enabled: true
Nonlinearity correction enabled: false
Boxcar width: 0
XAxis mode: Wavelengths
Number of Pixels in Spectrum: 2048
>>>>>Begin Spectral Data<<<<<
189.047	-708.56
189.435	-708.56
189.823	-708.56
190.211	77.73
190.599	56.36
190.987	221.71
191.375	169.51
191.763	21.08
192.151	237.58
192.538	71.68
192.926	141.57
193.314	3460
193.702	-45.83
194.089	70.32
194.477	95.13
194.864	-42.62
195.252	63.13
195.639	150.71
196.027	-700
196.414	425.06
196.801	263.22
197.189	-110.58
197.576	-31.32
197.963	-104.51
198.351	-19.08
198.738	42.19
199.125	12.49
199.512	11.28
199.899	13.81
200.286	42.56
200.673	-12.82
201.06	0.08
201.447	-27.95
201.833	2.28
202.22	33.39
202.607	49.16
202.994	20.44
203.38	6.32
203.767	26.22
204.154	44.42
204.54	45.91
204.927	4.44
205.313	-36.59
205.699	50.95
206.086	37.35
206.472	5.42
206.858	40.38
207.245	25.85
207.631	16.65
208.017	33.31
208.403	-1.39
208.789	17.57
209.175	52.19
209.561	25.81
209.947	31.79
210.333	-24.67
210.719	39.88
211.105	24.29
211.491	21.22
211.876	10.52
212.262	42.97
212.648	45.66
213.034	33.34
213.419	18.78
213.805	22.13
214.19	8.16
214.576	14.41
214.961	9.8
215.346	-46.92
215.732	0.16
216.117	42.68
216.502	9.25
216.888	27.23
217.273	52.42
217.658	12.68
218.043	14.37
218.428	-23.63
218.813	-19.37
219.198	-15.13
219.583	23.66
219.968	11.16
220.353	-14.46
220.738	19.59
221.122	28.03
221.507	-5.88
221.892	-36.72
222.276	2.2
222.661	-10.75
223.046	27.64
223.43	16.38
223.815	7.9
224.199	5.58
224.583	1.39
224.968	-0.43
225.352	9.15
225.736	5.68
226.121	-6.25
226.505	-5.22
226.889	6.59
227.273	2.18
227.657	14.29
228.041	3.01
228.425	-0.01
228.809	-0.79
229.193	4.67
229.577	5.52
229.961	3.39
230.344	2.82
230.728	1.5
231.112	2.34
231.495	0.92
231.879	1.3
232.263	3.3
232.646	4.01
233.03	3.41
233.413	2.24
233.797	1.72
234.18	2.11
234.563	1.77
234.946	4.87
235.33	3.71
235.713	2
236.096	2.27
236.479	3.67
236.862	3.44
237.245	5.74
237.628	1.42
238.011	2.53
238.394	4.14
238.777	3.78
239.16	1.46
239.543	1.34
239.925	5.69
240.308	2.65
240.691	4.31
241.073	2.36
241.456	2.87
241.838	2.32
242.221	2.34
242.603	1.49
242.986	2.46
243.368	2.24
243.75	2.57
244.133	1.72
244.515	2.12
244.897	2.55
245.279	2.87
245.661	1.3
246.043	1.95
246.425	0.61
246.807	3.23
247.189	2.14
247.571	2.7
247.953	2.96
248.335	1.88
248.717	2.36
249.098	1.95
249.48	2.05
249.862	1.93
250.243	2.13
250.625	2.11
251.006	2.23
251.388	1.08
251.769	1.34
252.151	2.91
252.532	1.46
252.913	2.3
253.295	1.83
253.676	1.82
254.057	2.09
254.438	1.67
254.819	0.91
255.2	1.96
255.581	3.09
255.962	2.19
256.343	2.99
256.724	1.57
257.105	3.08
257.486	1.53
257.867	3.03
258.247	2.5
258.628	1.52
259.009	2.77
259.389	2.46
259.77	1.11
260.15	0.93
260.531	1.16
260.911	2.14
261.292	1.88
261.672	2.2
262.052	2.1
262.432	2.21
262.813	1.83
263.193	2.3
263.573	2.01
263.953	2.14
264.333	2.82
264.713	2.07
265.093	1.09
265.473	1.86
265.853	1.64
266.233	2.05
266.612	0.86
266.992	1.39
267.372	2.2
267.752	1.5
268.131	1.82
268.511	2.3
268.89	2.03
269.27	2.27
269.649	1.9
270.029	1.59
270.408	3.38
270.787	2.31
271.167	2.78
271.546	3.25
271.925	1.36
272.304	1.8
272.683	2.71
273.062	1.33
273.441	2.49
273.82	1.71
274.199	2.53
274.578	2.29
274.957	2
275.336	2.23
275.715	1.18
276.093	1.5
276.472	2.67
276.851	1.66
277.229	2.09
277.608	2.02
277.986	2.05
278.365	1.85
278.743	1.29
279.122	2.09
279.5	2.04
279.878	2.45
280.257	2.53
280.635	1.68
281.013	2.04
281.391	2.32
281.769	1.73
282.147	2.13
282.525	3.01
282.903	1.54
283.281	2.44
283.659	1.96
284.037	1.82
284.415	2.33
284.792	2.08
285.17	1.36
285.548	1.35
285.925	1.94
286.303	1.89
286.68	1.55
287.058	2.03
287.435	2.12
287.813	1.97
288.19	1.44
288.567	1.96
288.945	2.39
289.322	2.04
289.699	2.14
290.076	1.61
290.453	1.71
290.83	1.69
291.207	1.74
291.584	2.01
291.961	2.08
292.338	1.93
292.715	2.33
293.092	2.05
293.469	1.76
293.845	2.7
294.222	1.6
294.599	1.86
294.975	1.71
295.352	2.48
295.728	1.64
296.105	1.96
296.481	2.48
296.858	1.78
297.234	1.66
297.61	1.82
297.986	2.05
298.363	2
298.739	2.02
299.115	1.77
299.491	1.39
299.867	1.89
300.243	2.04
300.619	1.51
300.995	1.68
301.371	2.43
301.746	2.06
302.122	2.41
302.498	2.21
302.874	1.6
303.249	2.61
303.625	1.63
304	2.26
304.376	2.19
304.751	1.3
305.127	2.84
305.502	1.26
305.878	1.83
306.253	1.74
306.628	1.97
307.003	1.85
307.378	2.22
307.754	2.34
308.129	1.46
308.504	2.58
308.879	1.77
309.254	3.45
309.629	2.6
310.003	1.71
310.378	2.63
310.753	2.03
311.128	2.27
311.502	2.28
311.877	2.35
312.252	1.84
312.626	2.11
313.001	1.27
313.375	2.62
313.75	2
314.124	2.04
314.498	1.59
314.873	1.63
315.247	1.47
315.621	2.33
315.995	1.53
316.369	1.9
316.743	1.55
317.117	2.31
317.491	1.93
317.865	2.36
318.239	2.69
318.613	2.01
318.987	2.46
319.361	1.2
319.734	2.49
320.108	2.13
320.482	1.8
320.855	1.95
321.229	2.2
321.602	1.84
321.976	2.45
322.349	1.99
322.723	2.2
323.096	2.21
323.469	1.72
323.843	1.76
324.216	2.21
324.589	1.31
324.962	2.47
325.335	1.77
325.708	1.7
326.081	2.25
326.454	1.42
326.827	1.96
327.2	1.86
327.573	2.5
327.945	2.07
328.318	1.54
328.691	1.66
329.063	2.06
329.436	1.71
329.809	2.47
330.181	1.35
330.553	1.97
330.926	2.93
331.298	2.22
331.671	2.25
332.043	3.18
332.415	1.99
332.787	2.02
333.159	2.7
333.532	2.66
333.904	2.09
334.276	1.65
334.648	2.35
335.02	2.62
335.391	1.8
335.763	1.74
336.135	2.08
336.507	2.48
336.879	1.98
337.25	2.13
337.622	2.04
337.993	2.27
338.365	2.09
338.736	2.37
339.108	2.23
339.479	2.19
339.851	2.52
340.222	2.1
340.593	1.91
340.964	2.16
341.336	2.94
341.707	1.78
342.078	2.37
342.449	2.54
342.82	2.36
343.191	2.26
343.562	2.38
343.933	2.32
344.303	2.62
344.674	2.34
345.045	2.17
345.416	2.37
345.786	1.99
346.157	2.45
346.527	1.57
346.898	1.7
347.268	1.87
347.639	2.21
348.009	2.57
348.38	2.24
348.75	2.32
349.12	2.2
349.49	2.72
349.861	2.44
350.231	1.93
350.601	2.5
350.971	2.42
351.341	2.7
351.711	2.27
352.081	2.56
352.45	2.01
352.82	2.19
353.19	2.42
353.56	2.2
353.929	2.26
354.299	1.9
354.669	1.93
355.038	2.3
355.408	2.67
355.777	2.58
356.147	2.15
356.516	2.1
356.885	2.22
357.254	1.86
357.624	2.55
357.993	1.95
358.362	2.32
358.731	1.86
359.1	2.63
359.469	2.31
359.838	2.63
360.207	1.47
360.576	2.04
360.945	2.1
361.314	2.77
361.682	2.15
362.051	1.87
362.42	2.27
362.788	1.94
363.157	2.16
363.525	2.33
363.894	2.15
364.262	2.11
364.631	2.24
364.999	2.32
365.367	2.01
365.735	2.78
366.104	2.55
366.472	2.43
366.84	1.88
367.208	2.14
367.576	2.25
367.944	2.3
368.312	1.81
368.68	1.84
369.048	2.51
369.416	2.2
369.783	2.06
370.151	2.64
370.519	2.59
370.886	2.56
371.254	2.25
371.621	2.61
371.989	2.48
372.356	1.78
372.724	2.64
373.091	2.06
373.458	2.04
373.826	2.58
374.193	1.79
374.56	2.52
374.927	2.51
375.294	2.02
375.661	2.4
376.028	2.51
376.395	2.42
376.762	2.17
377.129	2.11
377.496	2.09
377.863	2.42
378.229	2.15
378.596	2.3
378.963	2.14
379.329	2.26
379.696	2.4
380.062	2.36
380.429	2.38
380.795	2.26
381.161	2.31
381.528	2.66
381.894	2.02
382.26	2.33
382.626	2.49
382.993	1.82
383.359	2.56
383.725	2.32
384.091	1.88
384.457	2.67
384.823	2.18
385.188	2.53
385.554	2.47
385.92	2.56
386.286	2.3
386.651	2.53
387.017	2.59
387.383	2.4
387.748	2.4
388.114	2.49
388.479	2.29
388.845	2.71
389.21	2.68
389.575	2.27
389.94	2.43
390.306	2.63
390.671	2.55
391.036	2.23
391.401	2.04
391.766	2.51
392.131	2.05
392.496	2.41
392.861	2.24
393.226	2.69
393.591	2.21
393.956	2.1
394.32	2.21
394.685	2.12
395.05	2.51
395.414	2.52
395.779	1.89
396.143	2.4
396.508	2.19
396.872	2.37
397.236	2.53
397.601	2.33
397.965	2.3
398.329	2.26
398.694	2.36
399.058	2.39
399.422	2.36
399.786	2.36
400.15	2.48
400.514	2.6
400.878	2.5
401.242	2.38
401.605	2.61
401.969	2.42
402.333	2.67
402.697	2.31
403.06	2.51
403.424	2.36
403.787	2.38
404.151	2.65
404.514	2.3
404.878	2.47
405.241	2.65
405.604	2.39
405.968	2.5
406.331	2.62
406.694	2.62
407.057	2.53
407.42	2.52
407.783	2.51
408.146	2.61
408.509	2.35
408.872	2.3
409.235	2.53
409.598	2.54
409.961	2.53
410.323	2.35
410.686	2.45
411.049	2.39
411.411	2.5
411.774	2.52
412.136	2.54
412.499	2.47
412.861	2.35
413.223	2.46
413.586	2.56
413.948	2.43
414.31	2.65
414.672	2.59
415.035	2.01
415.397	2.62
415.759	2.16
416.121	2.73
416.483	2.77
416.845	2.6
417.206	2.63
417.568	2.65
417.93	2.37
418.292	2.46
418.653	2.53
419.015	2.74
419.377	2.46
419.738	2.54
420.1	2.35
420.461	2.45
420.822	2.43
421.184	2.44
421.545	2.38
421.906	2.35
422.267	2.41
422.629	2.36
422.99	2.39
423.351	2.39
423.712	2.52
424.073	2.53
424.434	2.37
424.795	2.38
425.155	2.43
425.516	2.42
425.877	2.43
426.238	2.43
426.598	2.5
426.959	2.43
427.32	2.31
427.68	2.49
428.041	2.35
428.401	2.68
428.761	2.46
429.122	2.66
429.482	2.39
429.842	2.49
430.202	2.57
430.563	2.44
430.923	2.55
431.283	2.44
431.643	2.26
432.003	2.58
432.363	2.48
432.722	2.47
433.082	2.58
433.442	2.58
433.802	2.52
434.161	2.47
434.521	2.75
434.881	2.55
435.24	2.47
435.6	2.51
435.959	2.49
436.319	2.64
436.678	2.38
437.037	2.53
437.396	2.51
437.756	2.71
438.115	2.45
438.474	2.74
438.833	2.45
439.192	2.52
439.551	2.6
439.91	2.68
440.269	2.46
440.628	2.5
440.987	2.5
441.345	2.5
441.704	2.46
442.063	2.48
442.421	2.48
442.78	2.58
443.138	2.47
443.497	2.56
443.855	2.45
444.214	2.54
444.572	2.6
444.93	2.54
445.288	2.58
445.647	2.69
446.005	2.55
446.363	2.55
446.721	2.58
447.079	2.36
447.437	2.48
447.795	2.55
448.153	2.46
448.51	2.38
448.868	2.63
449.226	2.58
449.584	2.59
449.941	2.61
450.299	2.56
450.656	2.61
451.014	2.62
451.371	2.46
451.729	2.53
452.086	2.88
452.443	2.77
452.801	2.69
453.158	2.49
453.515	2.55
453.872	2.84
454.229	2.58
454.586	2.65
454.943	2.56
455.3	2.58
455.657	2.57
456.014	2.47
456.371	2.56
456.727	2.68
457.084	2.92
457.441	2.7
457.797	2.6
458.154	2.9
458.51	2.85
458.867	2.9
459.223	2.79
459.58	2.57
459.936	2.79
460.292	2.63
460.648	2.71
461.005	2.55
461.361	2.72
461.717	2.67
462.073	2.56
462.429	2.63
462.785	2.62
463.141	2.56
463.496	2.6
463.852	2.71
464.208	2.64
464.564	2.77
464.919	2.73
465.275	2.54
465.631	2.71
465.986	2.75
466.342	2.8
466.697	2.48
467.052	2.65
467.408	2.76
467.763	2.59
468.118	2.75
468.473	2.56
468.829	2.59
469.184	2.82
469.539	2.83
469.894	2.56
470.249	2.86
470.603	2.84
470.958	2.98
471.313	2.9
471.668	2.75
472.023	2.61
472.377	2.86
472.732	2.74
473.086	2.69
473.441	2.68
473.795	2.96
474.15	2.78
474.504	2.72
474.859	2.82
475.213	2.68
475.567	2.6
475.921	2.57
476.275	2.88
476.63	2.97
476.984	3
477.338	2.99
477.692	2.73
478.045	2.86
478.399	2.9
478.753	2.75
479.107	2.79
479.461	2.69
479.814	2.72
480.168	2.85
480.521	2.68
480.875	2.74
481.228	2.75
481.582	2.74
481.935	2.79
482.289	2.77
482.642	2.85
482.995	2.76
483.348	2.74
483.701	2.8
484.055	2.87
484.408	2.84
484.761	2.68
485.114	2.69
485.466	2.57
485.819	2.55
486.172	2.57
486.525	2.58
486.878	2.59
487.23	2.65
487.583	2.72
487.936	2.73
488.288	2.67
488.641	2.69
488.993	2.7
489.345	2.58
489.698	2.58
490.05	2.64
490.402	2.72
490.754	2.63
491.107	2.76
491.459	2.74
491.811	2.78
492.163	2.76
492.515	2.8
492.866	2.77
493.218	2.74
493.57	2.61
493.922	2.68
494.274	2.81
494.625	2.79
494.977	2.84
495.328	2.94
495.68	2.87
496.031	2.98
496.383	2.89
496.734	2.92
497.086	2.94
497.437	2.99
497.788	2.94
498.139	2.81
498.49	2.82
498.842	2.72
499.193	2.86
499.544	2.81
499.894	2.9
500.245	2.78
500.596	2.87
500.947	2.88
501.298	2.85
501.648	2.91
501.999	3.07
502.35	2.86
502.7	3.05
503.051	2.81
503.401	2.8
503.752	3.09
504.102	2.89
504.452	3
504.803	2.88
505.153	2.96
505.503	3.14
505.853	2.84
506.203	2.96
506.553	2.8
506.903	2.99
507.253	2.94
507.603	2.97
507.953	2.99
508.303	3.27
508.652	2.87
509.002	2.96
509.352	3
509.701	2.99
510.051	2.9
510.4	2.89
510.75	3.05
511.099	2.93
511.449	3.03
511.798	3.04
512.147	2.98
512.496	2.99
512.846	2.93
513.195	3
513.544	3.03
513.893	3.01
514.242	2.95
514.591	3.13
514.939	3.1
515.288	2.99
515.637	3.16
515.986	3.03
516.334	3.07
516.683	3.15
517.032	3.06
517.38	3.12
517.729	3.07
518.077	3
518.426	3.16
518.774	3.15
519.122	3.16
519.47	3.11
519.819	3.01
520.167	3.03
520.515	3.07
520.863	3.01
521.211	3.11
521.559	3.21
521.907	3.12
522.255	3.03
522.602	3.13
522.95	3.2
523.298	3.11
523.645	3.16
523.993	3.1
524.341	3.28
524.688	3.27
525.036	3.17
525.383	3.17
525.73	3.38
526.078	3.26
526.425	3.14
526.772	3.15
527.119	3.11
527.466	3.18
527.814	3.19
528.161	3.11
528.508	3.19
528.854	3.19
529.201	3.14
529.548	3.17
529.895	3.1
530.242	3.09
530.588	3.06
530.935	3.08
531.282	3.14
531.628	3.11
531.975	3.18
532.321	3.22
532.667	3.26
533.014	3.28
533.36	3.25
533.706	3.26
534.052	3.29
534.399	3.16
534.745	3.23
535.091	3.29
535.437	3.27
535.783	3.27
536.129	3.24
536.474	3.28
536.82	3.29
537.166	3.37
537.512	3.3
537.857	3.54
538.203	3.46
538.549	3.37
538.894	3.35
539.239	3.4
539.585	3.36
539.93	3.36
540.276	3.46
540.621	3.52
540.966	3.56
541.311	3.22
541.656	3.35
542.001	3.38
542.346	3.41
542.691	3.36
543.036	3.39
543.381	3.32
543.726	3.36
544.071	3.44
544.415	3.48
544.76	3.4
545.105	3.49
545.449	3.53
545.794	3.55
546.138	3.52
546.483	3.62
546.827	3.65
547.171	3.61
547.516	3.83
547.86	3.6
548.204	3.55
548.548	3.53
548.892	3.61
549.236	3.7
549.58	3.68
549.924	3.71
550.268	3.78
550.612	3.7
550.956	3.81
551.3	3.76
551.643	3.86
551.987	3.85
552.33	3.74
552.674	3.94
553.017	3.85
553.361	3.78
553.704	4.07
554.048	3.78
554.391	3.79
554.734	3.72
555.077	3.84
555.42	3.73
555.764	3.84
556.107	3.78
556.45	3.67
556.793	3.65
557.135	4.07
557.478	4.12
557.821	3.95
558.164	4.06
558.507	4.19
558.849	3.88
559.192	4.15
559.534	3.97
559.877	4.15
560.219	4.21
560.562	4.22
560.904	4.06
561.246	4.11
561.589	4.08
561.931	4.29
562.273	3.94
562.615	4.42
562.957	4.07
563.299	4.09
563.641	4.12
563.983	4.23
564.325	4.1
564.667	4.18
565.008	4.15
565.35	4.03
565.692	4.05
566.033	4.23
566.375	4.49
566.716	4.38
567.058	4.25
567.399	4.13
567.741	4.25
568.082	4.45
568.423	4.21
568.764	4.33
569.105	4.42
569.447	4.37
569.788	4.31
570.129	4.31
570.47	4.32
570.811	4.53
571.151	4.59
571.492	4.51
571.833	4.54
572.174	4.36
572.514	4.56
572.855	4.42
573.195	4.67
573.536	4.47
573.876	4.37
574.217	4.37
574.557	4.71
574.898	4.49
575.238	4.68
575.578	4.46
575.918	4.84
576.258	4.84
576.598	4.65
576.938	4.7
577.278	4.5
577.618	4.63
577.958	4.7
578.298	4.69
578.638	4.75
578.977	4.71
579.317	4.74
579.657	4.78
579.996	4.8
580.336	5.02
580.675	4.74
581.014	4.95
581.354	4.71
581.693	4.94
582.032	4.79
582.372	4.77
582.711	5.09
583.05	4.74
583.389	5.06
583.728	4.88
584.067	5.32
584.406	4.98
584.745	4.77
585.083	5.29
585.422	5.35
585.761	5.13
586.1	5.35
586.438	4.93
586.777	5.51
587.115	5.25
587.454	4.98
587.792	5.15
588.13	5.4
588.469	5.33
588.807	5.26
589.145	5.11
589.483	5.31
589.821	5.33
590.159	5.46
590.497	5.47
590.835	5.89
591.173	5.28
591.511	5.48
591.849	5.56
592.187	5.68
592.524	5.53
592.862	5.58
593.2	5.67
593.537	5.58
593.875	5.44
594.212	5.44
594.55	5.66
594.887	5.92
595.224	5.39
595.561	5.46
595.899	5.4
596.236	5.56
596.573	5.96
596.91	5.59
597.247	5.55
597.584	5.92
597.921	5.93
598.258	5.74
598.594	5.73
598.931	5.53
599.268	5.83
599.604	5.65
599.941	5.82
600.277	5.81
600.614	5.62
600.95	5.81
601.287	6.13
601.623	5.88
601.959	5.9
602.296	6.06
602.632	6.08
602.968	6
603.304	6.01
603.64	6
603.976	6.01
604.312	5.84
604.648	6.18
604.984	6.06
605.319	6.23
605.655	6.31
605.991	6.08
606.326	6.34
606.662	6.26
606.998	5.82
607.333	6.34
607.668	6.47
608.004	6.25
608.339	6.28
608.674	6.26
609.01	6.01
609.345	5.75
609.68	6.51
610.015	6.23
610.35	6.42
610.685	6.54
611.02	6.34
611.355	6.63
611.689	6.4
612.024	6.55
612.359	6.39
612.694	6.61
613.028	6.43
613.363	6.78
613.697	6.73
614.032	6.66
614.366	6.35
614.7	6.97
615.035	6.98
615.369	6.66
615.703	6.88
616.037	7.2
616.371	6.52
616.705	6.67
617.039	6.48
617.373	6.75
617.707	6.59
618.041	7
618.375	7.19
618.709	7.07
619.042	6.71
619.376	7.26
619.71	7.03
620.043	7.45
620.377	7.25
620.71	7.16
621.043	7.21
621.377	7.32
621.71	7
622.043	7.21
622.376	6.99
622.709	7.14
623.043	6.83
623.376	6.96
623.709	7.24
624.041	7.46
624.374	7.29
624.707	7.31
625.04	7.19
625.373	6.71
625.705	7.46
626.038	7.53
626.37	7.39
626.703	7.43
627.035	7.61
627.368	7.95
627.7	7.74
628.032	7.41
628.365	7.76
628.697	7.63
629.029	7.57
629.361	7.44
629.693	7.73
630.025	7.44
630.357	7.66
630.689	7.67
631.021	7.32
631.353	7.84
631.684	7.79
632.016	7.57
632.348	8.06
632.679	7.67
633.011	7.77
633.342	7.95
633.674	7.81
634.005	8.23
634.336	8.31
634.668	8.36
634.999	7.88
635.33	8.23
635.661	8.54
635.992	8.18
636.323	8.22
636.654	8.23
636.985	8.45
637.316	8.11
637.647	8.21
637.977	8.47
638.308	8.4
638.639	8.03
638.969	8.18
639.3	8.24
639.63	7.78
639.961	8.52
640.291	8.28
640.622	8.39
640.952	8.42
641.282	8.65
641.612	8.81
641.943	8.32
642.273	8.38
642.603	8.96
642.933	8.82
643.263	8.89
643.592	8.82
643.922	8.24
644.252	8.71
644.582	9.16
644.911	8.03
645.241	8.58
645.571	9.38
645.9	8.91
646.23	8.72
646.559	9.06
646.888	8.84
647.218	9.15
647.547	9.11
647.876	8.62
648.205	8.97
648.534	8.9
648.863	8.81
649.192	9.38
649.521	9.43
649.85	8.76
650.179	9.51
650.508	9.25
650.837	9.41
651.165	8.7
651.494	9.27
651.822	9.1
652.151	9.17
652.479	9.62
652.808	9.1
653.136	9.33
653.465	8.76
653.793	8.98
654.121	9.34
654.449	9.66
654.777	9.47
655.105	9.82
655.433	9.26
655.761	9.45
656.089	9.8
656.417	9.62
656.745	9.47
657.073	9.57
657.4	10.06
657.728	9.48
658.056	9.56
658.383	9.84
658.711	10.43
659.038	10
659.365	10.07
659.693	9.58
660.02	9.76
660.347	10.16
660.674	10.04
661.001	10.19
661.329	9.45
661.656	9.77
661.982	10.18
662.309	9.98
662.636	9.55
662.963	10.41
663.29	10.31
663.616	10.09
663.943	9.85
664.27	10.35
664.596	10.38
664.923	10.11
665.249	9.93
665.576	10.55
665.902	11.26
666.228	10.33
666.554	10.42
666.881	9.51
667.207	10.7
667.533	10.56
667.859	10.66
668.185	11.08
668.511	10.27
668.837	9.88
669.162	10.45
669.488	10.67
669.814	10.65
670.139	10.4
670.465	11.29
670.791	11.21
671.116	11.36
671.442	10.46
671.767	10.76
672.092	11.26
672.418	10.79
672.743	11.25
673.068	10.7
673.393	10.48
673.718	10.58
674.043	10.37
674.368	11.19
674.693	11.58
675.018	11.04
675.343	11
675.667	10.65
675.992	11.18
676.317	11.24
676.641	11.5
676.966	11.1
677.29	10.96
677.615	11.33
677.939	11.32
678.264	11.67
678.588	11.19
678.912	12.12
679.236	11.85
679.56	11.22
679.885	11.59
680.209	11.4
680.532	11.73
680.856	12.21
681.18	11.22
681.504	11.4
681.828	11.64
682.152	11.09
682.475	11.67
682.799	11.74
683.122	11.95
683.446	11.45
683.769	11.8
684.093	12.02
684.416	12.2
684.739	11.55
685.062	12.23
685.386	12.57
685.709	11.94
686.032	12.11
686.355	12.08
686.678	11.8
687.001	11.77
687.324	12.63
687.646	12.13
687.969	11.77
688.292	12.2
688.614	11.73
688.937	12.22
689.26	11.98
689.582	12.4
689.904	12.45
690.227	11.99
690.549	12.62
