Data from 0415_chest_Reflection__2__17.txt Node

Date: Fri Dec 15 16:34:48 CST 2023
User: ToomeyLab
Spectrometer: FLMS14357
Trigger mode: 0
Integration Time (sec): 1.000000E-2
Scans to average: 100
Electric dark correction enabled: true
Nonlinearity correction enabled: false
Boxcar width: 0
XAxis mode: Wavelengths
Number of Pixels in Spectrum: 2048
>>>>>Begin Spectral Data<<<<<
189.047	-1084.22
189.435	-1084.22
189.823	-1084.22
190.211	91.54
190.599	423.94
190.987	28.08
191.375	3.63
191.763	4.62
192.151	-23.53
192.538	120.6
192.926	121.65
193.314	3778.24
193.702	-16.89
194.089	223.47
194.477	6.27
194.864	-65.76
195.252	43.21
195.639	123.11
196.027	121.17
196.414	170.44
196.801	43.87
197.189	-348.89
197.576	-32.27
197.963	186.04
198.351	-19.12
198.738	18.43
199.125	47.33
199.512	-10.84
199.899	49.77
200.286	34.62
200.673	-4.32
201.06	41.98
201.447	12.75
201.833	40.46
202.22	79.91
202.607	52.16
202.994	10.81
203.38	37.72
203.767	16.6
204.154	38.26
204.54	47.38
204.927	-27.89
205.313	4.58
205.699	42.02
206.086	49.28
206.472	25.07
206.858	58.24
207.245	-32.66
207.631	17.92
208.017	-0.06
208.403	27.09
208.789	32.32
209.175	50.88
209.561	-7.97
209.947	20.2
210.333	8.65
210.719	72.29
211.105	43.35
211.491	-3.86
211.876	32.31
212.262	50.29
212.648	34.16
213.034	29.67
213.419	7.87
213.805	20.25
214.19	10.7
214.576	16.86
214.961	-12.48
215.346	7.34
215.732	44.09
216.117	24.83
216.502	59.86
216.888	42.54
217.273	37.94
217.658	30.98
218.043	16.7
218.428	10.45
218.813	-19.66
219.198	-1.29
219.583	-1.75
219.968	20.12
220.353	-27.93
220.738	20.13
221.122	14.91
221.507	12.21
221.892	-23.46
222.276	-1.79
222.661	1.95
223.046	13.89
223.43	7.83
223.815	16.99
224.199	-0.25
224.583	3.42
224.968	7.2
225.352	18.87
225.736	11.39
226.121	6.79
226.505	19.1
226.889	1.62
227.273	7.7
227.657	8.86
228.041	10.05
228.425	6.67
228.809	9.65
229.193	4.97
229.577	5.15
229.961	4.76
230.344	5
230.728	6.08
231.112	5.15
231.495	3.8
231.879	3.73
232.263	5.2
232.646	4.79
233.03	4.14
233.413	4.49
233.797	6.75
234.18	5.92
234.563	4.88
234.946	5.25
235.33	6.13
235.713	5.75
236.096	4.32
236.479	4.68
236.862	5.62
237.245	6.47
237.628	2.56
238.011	5.68
238.394	5.6
238.777	4.46
239.16	2.05
239.543	4.53
239.925	6.48
240.308	2.84
240.691	6.35
241.073	4.41
241.456	4.14
241.838	3.38
242.221	4.08
242.603	5.33
242.986	4.82
243.368	5.21
243.75	4.48
244.133	3.92
244.515	4.85
244.897	4.94
245.279	5.63
245.661	4.43
246.043	3.69
246.425	2.68
246.807	6.03
247.189	5.39
247.571	6.11
247.953	4.52
248.335	3.79
248.717	4.54
249.098	3.75
249.48	4.21
249.862	4.46
250.243	4.58
250.625	4.39
251.006	4.18
251.388	3.85
251.769	4.19
252.151	4.3
252.532	4.89
252.913	3.56
253.295	4.26
253.676	4.32
254.057	3.62
254.438	4.11
254.819	4.18
255.2	4.11
255.581	4.32
255.962	4.68
256.343	6.32
256.724	4.72
257.105	3.4
257.486	4.92
257.867	4.92
258.247	3.69
258.628	5.06
259.009	4.19
259.389	4.82
259.77	3.93
260.15	3.79
260.531	3.73
260.911	4.05
261.292	3.66
261.672	3.8
262.052	3.84
262.432	4.11
262.813	4
263.193	3.6
263.573	2.81
263.953	3.5
264.333	4.61
264.713	3.97
265.093	2.93
265.473	4.03
265.853	3.04
266.233	5.46
266.612	2.38
266.992	3.44
267.372	4.74
267.752	3.67
268.131	3.68
268.511	4.65
268.89	4.7
269.27	3.53
269.649	3.46
270.029	3.81
270.408	4.64
270.787	4.59
271.167	4.51
271.546	4.38
271.925	3.15
272.304	4.21
272.683	4.23
273.062	3.54
273.441	3.8
273.82	3.42
274.199	4.18
274.578	3.87
274.957	3.73
275.336	3.29
275.715	3.42
276.093	3.58
276.472	3.75
276.851	3.45
277.229	3.49
277.608	3.91
277.986	3.84
278.365	3.45
278.743	3.62
279.122	3.21
279.5	3.55
279.878	4.16
280.257	4.36
280.635	3.63
281.013	3.7
281.391	4.56
281.769	3.98
282.147	3.86
282.525	4.29
282.903	4
283.281	3.93
283.659	4.18
284.037	4.07
284.415	3.74
284.792	4.2
285.17	2.75
285.548	3.26
285.925	3.82
286.303	3.68
286.68	3.34
287.058	3.75
287.435	3.62
287.813	3.5
288.19	3.65
288.567	3.92
288.945	4.23
289.322	3.92
289.699	3.53
290.076	3.38
290.453	3.47
290.83	3.28
291.207	3.73
291.584	3.66
291.961	4.13
292.338	3.75
292.715	3.82
293.092	3.6
293.469	3.61
293.845	4.31
294.222	3.2
294.599	3.05
294.975	2.78
295.352	4.2
295.728	3.56
296.105	3.9
296.481	3.84
296.858	3.6
297.234	3.44
297.61	3.63
297.986	3.4
298.363	3.66
298.739	3.99
299.115	3.34
299.491	3.36
299.867	3.7
300.243	3.94
300.619	3.03
300.995	3.8
301.371	3.69
301.746	3.32
302.122	3.86
302.498	3.92
302.874	3.97
303.249	4.07
303.625	4.14
304	3.45
304.376	4.09
304.751	3.4
305.127	4.04
305.502	3.06
305.878	2.83
306.253	3.69
306.628	3.66
307.003	3.83
307.378	4.01
307.754	4.05
308.129	3.05
308.504	4.11
308.879	3.09
309.254	4.56
309.629	3.67
310.003	3.39
310.378	3.76
310.753	4.09
311.128	3.71
311.502	3.75
311.877	3.94
312.252	3.16
312.626	3.51
313.001	3.59
313.375	3.85
313.75	3.33
314.124	3.53
314.498	3.13
314.873	3.14
315.247	3.47
315.621	3.87
315.995	3.2
316.369	3.65
316.743	2.93
317.117	3.64
317.491	3.6
317.865	3.25
318.239	3.37
318.613	3.7
318.987	4.45
319.361	2.76
319.734	3.32
320.108	3.38
320.482	3.44
320.855	3.51
321.229	3.54
321.602	3.89
321.976	3.7
322.349	3.43
322.723	3.06
323.096	3.82
323.469	3.42
323.843	3.16
324.216	4.65
324.589	3.52
324.962	3.75
325.335	3.33
325.708	3.58
326.081	3.36
326.454	3.76
326.827	3.69
327.2	3.4
327.573	3.93
327.945	3.2
328.318	3.03
328.691	2.91
329.063	3.3
329.436	3.45
329.809	3.92
330.181	3.32
330.553	4.17
330.926	4.22
331.298	3.88
331.671	3.27
332.043	4.26
332.415	3.54
332.787	3.58
333.159	4.08
333.532	3.66
333.904	3.36
334.276	3.46
334.648	3.58
335.02	3.55
335.391	3.94
335.763	3.26
336.135	3.53
336.507	3.62
336.879	3.76
337.25	3.24
337.622	3.42
337.993	3.35
338.365	3.88
338.736	3.97
339.108	3.81
339.479	3.11
339.851	3.17
340.222	3.55
340.593	3.84
340.964	3.25
341.336	4.28
341.707	2.89
342.078	4.25
342.449	4.14
342.82	3.73
343.191	3.22
343.562	3.73
343.933	4
344.303	3.57
344.674	3.54
345.045	3.25
345.416	3.79
345.786	3.03
346.157	4.03
346.527	3.35
346.898	3.25
347.268	3.64
347.639	3.23
348.009	3.89
348.38	3.38
348.75	3.27
349.12	3.71
349.49	3.97
349.861	3.71
350.231	3.6
350.601	3.86
350.971	3.51
351.341	3.46
351.711	3.82
352.081	3.42
352.45	3.57
352.82	3.42
353.19	4.09
353.56	3.43
353.929	3.72
354.299	3.39
354.669	3.09
355.038	3.77
355.408	3.84
355.777	3.61
356.147	3.65
356.516	3.5
356.885	3.8
357.254	4.05
357.624	3.87
357.993	3.85
358.362	3.48
358.731	3.35
359.1	3.28
359.469	3.37
359.838	3.76
360.207	3.16
360.576	3.22
360.945	3.61
361.314	3.86
361.682	3.38
362.051	3.52
362.42	3.78
362.788	3.44
363.157	3.53
363.525	3.9
363.894	3.61
364.262	3.53
364.631	3.69
364.999	3.49
365.367	3.3
365.735	4.11
366.104	3.61
366.472	3.53
366.84	3
367.208	3.44
367.576	4.01
367.944	4
368.312	3.65
368.68	2.98
369.048	3.59
369.416	3.53
369.783	3.56
370.151	4.05
370.519	4.56
370.886	3.89
371.254	3.35
371.621	3.85
371.989	3.98
372.356	3.02
372.724	3.43
373.091	3.37
373.458	3.83
373.826	3.88
374.193	3.68
374.56	3.7
374.927	3.89
375.294	3.96
375.661	3.58
376.028	3.69
376.395	3.64
376.762	3.88
377.129	3.47
377.496	3.51
377.863	3.57
378.229	3.03
378.596	3.61
378.963	3.65
379.329	3.8
379.696	3.89
380.062	3.68
380.429	3.53
380.795	3.5
381.161	3.73
381.528	3.75
381.894	3.51
382.26	3.7
382.626	3.96
382.993	3.52
383.359	4.04
383.725	3.92
384.091	3.66
384.457	3.48
384.823	3.54
385.188	3.74
385.554	3.9
385.92	3.88
386.286	3.95
386.651	3.91
387.017	4.04
387.383	3.68
387.748	3.8
388.114	3.97
388.479	3.63
388.845	3.78
389.21	3.9
389.575	3.83
389.94	3.74
390.306	3.77
390.671	3.85
391.036	3.54
391.401	3.45
391.766	3.98
392.131	3.62
392.496	3.91
392.861	3.8
393.226	3.71
393.591	3.93
393.956	4.01
394.32	3.85
394.685	3.52
395.05	3.67
395.414	3.7
395.779	3.41
396.143	3.84
396.508	3.73
396.872	3.9
397.236	3.59
397.601	3.56
397.965	3.89
398.329	3.8
398.694	3.8
399.058	3.84
399.422	3.46
399.786	3.87
400.15	3.77
400.514	3.87
400.878	3.76
401.242	3.87
401.605	3.96
401.969	4.25
402.333	4.02
402.697	3.75
403.06	3.78
403.424	4.03
403.787	3.7
404.151	4.01
404.514	3.82
404.878	3.56
405.241	3.9
405.604	3.75
405.968	3.8
406.331	3.77
406.694	4.05
407.057	3.97
407.42	3.88
407.783	3.76
408.146	3.82
408.509	3.95
408.872	3.74
409.235	3.92
409.598	4.21
409.961	3.9
410.323	3.85
410.686	3.8
411.049	3.8
411.411	3.93
411.774	3.74
412.136	4
412.499	3.78
412.861	3.61
413.223	3.86
413.586	3.83
413.948	3.74
414.31	4.09
414.672	3.47
415.035	3.8
415.397	4.05
415.759	3.54
416.121	3.98
416.483	3.89
416.845	3.87
417.206	3.78
417.568	3.95
417.93	3.68
418.292	3.99
418.653	3.89
419.015	3.85
419.377	3.7
419.738	3.97
420.1	3.68
420.461	3.86
420.822	3.85
421.184	3.83
421.545	3.83
421.906	3.72
422.267	3.75
422.629	3.78
422.99	3.81
423.351	3.71
423.712	3.77
424.073	3.72
424.434	3.7
424.795	3.76
425.155	3.86
425.516	3.71
425.877	3.76
426.238	3.76
426.598	3.86
426.959	3.83
427.32	3.82
427.68	3.84
428.041	3.7
428.401	3.84
428.761	3.81
429.122	4.02
429.482	3.73
429.842	4.12
430.202	3.84
430.563	3.94
430.923	3.79
431.283	4.13
431.643	3.89
432.003	3.89
432.363	3.91
432.722	3.87
433.082	4.01
433.442	3.87
433.802	3.69
434.161	4.04
434.521	4.19
434.881	4.01
435.24	3.82
435.6	3.75
435.959	3.91
436.319	3.86
436.678	3.94
437.037	3.79
437.396	3.94
437.756	3.96
438.115	3.93
438.474	4.09
438.833	3.76
439.192	3.94
439.551	4.02
439.91	3.97
440.269	3.91
440.628	3.85
440.987	3.98
441.345	3.9
441.704	3.88
442.063	3.93
442.421	3.92
442.78	3.79
443.138	3.89
443.497	3.91
443.855	3.98
444.214	3.89
444.572	3.97
444.93	3.84
445.288	3.98
445.647	4.03
446.005	3.88
446.363	3.99
446.721	3.91
447.079	3.72
447.437	3.86
447.795	3.8
448.153	3.75
448.51	3.78
448.868	3.82
449.226	3.88
449.584	3.9
449.941	3.92
450.299	3.96
450.656	3.99
451.014	3.94
451.371	3.79
451.729	3.81
452.086	4.1
452.443	3.95
452.801	4.09
453.158	4.06
453.515	3.8
453.872	4.13
454.229	3.85
454.586	3.93
454.943	3.87
455.3	4.22
455.657	3.9
456.014	3.93
456.371	4
456.727	4.08
457.084	4.08
457.441	3.77
457.797	3.93
458.154	4.11
458.51	3.9
458.867	4.01
459.223	4.16
459.58	4.08
459.936	4.04
460.292	4.03
460.648	3.91
461.005	4.05
461.361	3.94
461.717	3.96
462.073	3.81
462.429	3.95
462.785	3.96
463.141	3.91
463.496	4.06
463.852	4.2
464.208	3.97
464.564	4.07
464.919	4.14
465.275	3.88
465.631	4.11
465.986	4.06
466.342	3.94
466.697	3.81
467.052	3.95
467.408	4.24
467.763	4.07
468.118	3.99
468.473	3.93
468.829	3.98
469.184	3.98
469.539	4.02
469.894	4.16
470.249	4.14
470.603	4.23
470.958	4.07
471.313	4.29
471.668	4.17
472.023	3.97
472.377	4.01
472.732	4.07
473.086	4.06
473.441	3.94
473.795	4.08
474.15	4.15
474.504	4.15
474.859	4.12
475.213	3.8
475.567	4.22
475.921	4.06
476.275	4.2
476.63	4.11
476.984	4.22
477.338	4.3
477.692	3.94
478.045	4.08
478.399	3.96
478.753	4.05
479.107	4.09
479.461	4.07
479.814	3.99
480.168	4.13
480.521	3.98
480.875	4.13
481.228	4.15
481.582	4.16
481.935	4.15
482.289	4.16
482.642	4.19
482.995	4.05
483.348	4.05
483.701	4.08
484.055	4.13
484.408	4.03
484.761	4.02
485.114	3.85
485.466	3.81
485.819	3.78
486.172	3.81
486.525	3.88
486.878	3.92
487.23	3.9
487.583	4.09
487.936	4.04
488.288	3.93
488.641	3.98
488.993	3.91
489.345	3.86
489.698	3.87
490.05	3.87
490.402	4
490.754	3.95
491.107	4.03
491.459	4.06
491.811	4.09
492.163	4.13
492.515	4.06
492.866	4.09
493.218	4.02
493.57	3.92
493.922	3.94
494.274	4.03
494.625	4.13
494.977	4.13
495.328	4.3
495.68	4.2
496.031	4.26
496.383	4.18
496.734	4.37
497.086	4.3
497.437	4.26
497.788	4.35
498.139	4.17
498.49	4.18
498.842	4.17
499.193	4.26
499.544	4.17
499.894	4.2
500.245	4.34
500.596	4.13
500.947	4.31
501.298	4.26
501.648	4.28
501.999	4.38
502.35	4.26
502.7	4.2
503.051	4.18
503.401	4.41
503.752	4.43
504.102	4.26
504.452	4.39
504.803	4.19
505.153	4.38
505.503	4.33
505.853	4.18
506.203	4.21
506.553	4.28
506.903	4.3
507.253	4.28
507.603	4.18
507.953	4.32
508.303	4.46
508.652	4.16
509.002	4.46
509.352	4.37
509.701	4.38
510.051	4.29
510.4	4.25
510.75	4.35
511.099	4.31
511.449	4.33
511.798	4.28
512.147	4.3
512.496	4.22
512.846	4.27
513.195	4.37
513.544	4.31
513.893	4.45
514.242	4.28
514.591	4.41
514.939	4.35
515.288	4.25
515.637	4.43
515.986	4.47
516.334	4.42
516.683	4.54
517.032	4.33
517.38	4.47
517.729	4.5
518.077	4.28
518.426	4.5
518.774	4.44
519.122	4.38
519.47	4.42
519.819	4.28
520.167	4.35
520.515	4.31
520.863	4.47
521.211	4.43
521.559	4.49
521.907	4.46
522.255	4.41
522.602	4.46
522.95	4.42
523.298	4.53
523.645	4.5
523.993	4.58
524.341	4.59
524.688	4.58
525.036	4.48
525.383	4.54
525.73	4.73
526.078	4.53
526.425	4.49
526.772	4.54
527.119	4.49
527.466	4.45
527.814	4.47
528.161	4.55
528.508	4.48
528.854	4.55
529.201	4.48
529.548	4.42
529.895	4.46
530.242	4.34
530.588	4.28
530.935	4.38
531.282	4.37
531.628	4.48
531.975	4.47
532.321	4.56
532.667	4.58
533.014	4.68
533.36	4.62
533.706	4.55
534.052	4.61
534.399	4.6
534.745	4.51
535.091	4.53
535.437	4.57
535.783	4.54
536.129	4.62
536.474	4.69
536.82	4.78
537.166	4.76
537.512	4.71
537.857	4.85
538.203	4.73
538.549	4.66
538.894	4.67
539.239	4.75
539.585	4.74
539.93	4.73
540.276	4.99
540.621	4.97
540.966	4.92
541.311	4.67
541.656	4.73
542.001	4.76
542.346	4.82
542.691	4.71
543.036	4.69
543.381	4.62
543.726	4.66
544.071	4.74
544.415	4.82
544.76	4.79
545.105	4.86
545.449	4.97
545.794	4.95
546.138	5.01
546.483	4.98
546.827	4.93
547.171	4.82
547.516	5.11
547.86	4.92
548.204	4.9
548.548	4.89
548.892	5
549.236	4.94
549.58	4.96
549.924	5.06
550.268	5.19
550.612	5.26
550.956	5.38
551.3	5.23
551.643	5.38
551.987	5.25
552.33	5.14
552.674	5.18
553.017	5.29
553.361	5.02
553.704	5.38
554.048	5.2
554.391	5.18
554.734	5.04
555.077	5.33
555.42	5.22
555.764	5.24
556.107	5.31
556.45	5.27
556.793	5.39
557.135	5.37
557.478	5.56
557.821	5.63
558.164	5.32
558.507	5.7
558.849	5.44
559.192	5.55
559.534	5.46
559.877	5.69
560.219	5.45
560.562	5.71
560.904	5.55
561.246	5.71
561.589	5.68
561.931	5.64
562.273	5.39
562.615	5.74
562.957	5.51
563.299	5.41
563.641	5.67
563.983	5.77
564.325	5.58
564.667	5.49
565.008	5.52
565.35	5.61
565.692	5.44
566.033	5.59
566.375	5.86
566.716	5.86
567.058	5.75
567.399	5.92
567.741	5.57
568.082	5.63
568.423	5.64
568.764	5.63
569.105	5.93
569.447	5.98
569.788	5.81
570.129	5.9
570.47	5.94
570.811	5.99
571.151	6.09
571.492	5.94
571.833	5.92
572.174	6.03
572.514	6.02
572.855	5.92
573.195	6.13
573.536	5.97
573.876	5.83
574.217	5.98
574.557	6.17
574.898	6.33
575.238	6.12
575.578	6.1
575.918	6.03
576.258	6.18
576.598	6.14
576.938	6.15
577.278	6.2
577.618	6.33
577.958	6.23
578.298	6.17
578.638	6.31
578.977	6.33
579.317	6.2
579.657	6.47
579.996	6.42
580.336	6.26
580.675	6.4
581.014	6.37
581.354	6.25
581.693	6.58
582.032	6.54
582.372	6.53
582.711	6.38
583.05	6.21
583.389	6.48
583.728	6.47
584.067	6.89
584.406	6.77
584.745	6.56
585.083	6.97
585.422	6.95
585.761	6.77
586.1	6.81
586.438	6.85
586.777	6.99
587.115	7.08
587.454	6.99
587.792	6.67
588.13	7.27
588.469	6.7
588.807	6.99
589.145	6.91
589.483	6.86
589.821	7.17
590.159	7
590.497	7.24
590.835	7.35
591.173	7.04
591.511	7.22
591.849	6.84
592.187	7.23
592.524	7.45
592.862	7.15
593.2	7.36
593.537	7.25
593.875	7.11
594.212	6.84
594.55	7.46
594.887	7.32
595.224	7.23
595.561	7.39
595.899	7.23
596.236	7.17
596.573	7.51
596.91	6.96
597.247	7.12
597.584	7.75
597.921	7.54
598.258	7.32
598.594	7.21
598.931	7.36
599.268	7.5
599.604	7.29
599.941	7.53
600.277	7.53
600.614	7.87
600.95	7.42
601.287	8.06
601.623	7.79
601.959	7.38
602.296	7.87
602.632	7.65
602.968	7.72
603.304	7.99
603.64	7.84
603.976	7.84
604.312	7.97
604.648	7.64
604.984	7.98
605.319	8.1
605.655	7.98
605.991	8.09
606.326	8.08
606.662	7.92
606.998	7.87
607.333	8.11
607.668	8.11
608.004	8.14
608.339	8.42
608.674	8.25
609.01	8.08
609.345	8.18
609.68	8.46
610.015	8.05
610.35	8.17
610.685	8.03
611.02	8.49
611.355	8.26
611.689	8.23
612.024	8.54
612.359	8.2
612.694	8.37
613.028	8.36
613.363	8.44
613.697	8.77
614.032	8.93
614.366	8.56
614.7	8.63
615.035	8.7
615.369	8.57
615.703	8.71
616.037	8.62
616.371	8.26
616.705	8.97
617.039	8.75
617.373	9.1
617.707	8.85
618.041	8.75
618.375	8.83
618.709	9.03
619.042	8.78
619.376	9.15
619.71	9.13
620.043	9.58
620.377	9.06
620.71	8.68
621.043	9.3
621.377	9.01
621.71	9.14
622.043	9.05
622.376	8.69
622.709	9.01
623.043	9.41
623.376	9.6
623.709	9.26
624.041	9.59
624.374	9.28
624.707	9.23
625.04	9.55
625.373	9.07
625.705	9.27
626.038	9.73
626.37	9.48
626.703	9.15
627.035	9.39
627.368	10.19
627.7	9.75
628.032	9.66
628.365	10.11
628.697	9.63
629.029	9.54
629.361	9.51
629.693	9.82
630.025	9.55
630.357	9.84
630.689	10.05
631.021	9.72
631.353	10.12
631.684	9.76
632.016	9.96
632.348	10.17
632.679	9.89
633.011	10.03
633.342	10.14
633.674	10.33
634.005	10.43
634.336	10.25
634.668	10.52
634.999	10.24
635.33	10.5
635.661	10.19
635.992	10
636.323	10.56
636.654	10.4
636.985	10.51
637.316	10.6
637.647	10.11
637.977	10.65
638.308	10.49
638.639	10.27
638.969	10.36
639.3	10.57
639.63	10.35
639.961	10.44
640.291	10.33
640.622	10.97
640.952	9.95
641.282	10.65
641.612	10.93
641.943	10.64
642.273	11.04
642.603	11.28
642.933	11.18
643.263	10.58
643.592	10.7
643.922	10.73
644.252	10.77
644.582	11.13
644.911	10.77
645.241	11.05
645.571	11.3
645.9	10.88
646.23	10.98
646.559	11.27
646.888	11.1
647.218	11.17
647.547	11.64
647.876	11.45
648.205	11.28
648.534	11.32
648.863	11.51
649.192	11.96
649.521	11.22
649.85	11.42
650.179	11.58
650.508	11.51
650.837	11.13
651.165	11.03
651.494	11.66
651.822	11.63
652.151	11.13
652.479	11.76
652.808	11.58
653.136	12.12
653.465	11.73
653.793	11.6
654.121	11.52
654.449	11.91
654.777	12.16
655.105	12.02
655.433	11.61
655.761	11.66
656.089	11.87
656.417	12.54
656.745	11.63
657.073	11.53
657.4	12.48
657.728	12.65
658.056	12.04
658.383	12.19
658.711	12.17
659.038	12.31
659.365	12.66
659.693	12.22
660.02	12.24
660.347	12.21
660.674	12.44
661.001	12.83
661.329	11.87
661.656	12.34
661.982	12.5
662.309	12.29
662.636	12.17
662.963	12.95
663.29	12.69
663.616	12.76
663.943	12.04
664.27	12.53
664.596	12.85
664.923	13.02
665.249	12.5
665.576	13.15
665.902	13.5
666.228	13.55
666.554	13.02
666.881	12.59
667.207	13.41
667.533	13.35
667.859	13.41
668.185	13.92
668.511	12.51
668.837	12.43
669.162	13.7
669.488	12.07
669.814	13.68
670.139	13.82
670.465	13.31
670.791	13.76
671.116	13.29
671.442	13.09
671.767	13.52
672.092	14.19
672.418	13.97
672.743	13.7
673.068	13.53
673.393	13.72
673.718	13.62
674.043	13.68
674.368	13.67
674.693	14.37
675.018	14.15
675.343	13.92
675.667	13.94
675.992	14.57
676.317	14.47
676.641	14.55
676.966	14.27
677.29	13.43
677.615	13.91
677.939	14.45
678.264	15.56
678.588	14.17
678.912	14.1
679.236	15.4
679.56	13.45
679.885	15.09
680.209	14.17
680.532	14.71
680.856	15.08
681.18	13.78
681.504	14.52
681.828	14.28
682.152	14.48
682.475	14.38
682.799	15.01
683.122	14.89
683.446	14.82
683.769	15.17
684.093	14.1
684.416	15.47
684.739	14.86
685.062	14.75
685.386	15.04
685.709	14.83
686.032	14.99
686.355	15.44
686.678	15.06
687.001	14.93
687.324	15.35
687.646	14.96
687.969	14.55
688.292	14.41
