Data from 0415_chest_Reflection__1__16.txt Node

Date: Fri Dec 15 16:34:39 CST 2023
User: ToomeyLab
Spectrometer: FLMS14357
Trigger mode: 0
Integration Time (sec): 1.000000E-2
Scans to average: 100
Electric dark correction enabled: true
Nonlinearity correction enabled: false
Boxcar width: 0
XAxis mode: Wavelengths
Number of Pixels in Spectrum: 2048
>>>>>Begin Spectral Data<<<<<
189.047	-9.09
189.435	-9.09
189.823	-9.09
190.211	67.43
190.599	0.61
190.987	171.21
191.375	210.61
191.763	-141.33
192.151	10.26
192.538	86.92
192.926	-58.11
193.314	217.65
193.702	15.65
194.089	258.07
194.477	-42.75
194.864	5.43
195.252	90.65
195.639	123.82
196.027	-319.22
196.414	182.73
196.801	24.82
197.189	-36.29
197.576	163.82
197.963	-32.03
198.351	-55.93
198.738	-3.21
199.125	45.5
199.512	34.32
199.899	57.39
200.286	39.98
200.673	22.23
201.06	4.49
201.447	-8.77
201.833	21.32
202.22	40.15
202.607	31.48
202.994	14.81
203.38	15.66
203.767	57.95
204.154	53.04
204.54	40.31
204.927	-53.11
205.313	30.84
205.699	32.53
206.086	28.99
206.472	30.15
206.858	0.34
207.245	-30.83
207.631	34.68
208.017	24.07
208.403	37.3
208.789	18.14
209.175	18.9
209.561	20.38
209.947	16.14
210.333	43.49
210.719	7.98
211.105	6.63
211.491	28.56
211.876	29.52
212.262	58.99
212.648	52.06
213.034	33.82
213.419	20.26
213.805	18.03
214.19	-1.22
214.576	2.85
214.961	-8.43
215.346	-45.02
215.732	22.27
216.117	16.43
216.502	5.66
216.888	5.65
217.273	24.45
217.658	28.48
218.043	-0.18
218.428	-27.12
218.813	-2.78
219.198	-6.92
219.583	4.95
219.968	-8.32
220.353	-21.3
220.738	32.58
221.122	3.7
221.507	-19.31
221.892	-49.61
222.276	-12.46
222.661	-4.27
223.046	18.39
223.43	27.35
223.815	6.25
224.199	-2.74
224.583	13.74
224.968	5.34
225.352	4.76
225.736	0.35
226.121	-12.18
226.505	8.36
226.889	9.39
227.273	5.31
227.657	7.17
228.041	2.26
228.425	-0.46
228.809	9.72
229.193	1.72
229.577	0.43
229.961	3.07
230.344	0.73
230.728	1.28
231.112	2.19
231.495	1.8
231.879	1.12
232.263	2.1
232.646	1.08
233.03	3.3
233.413	-0.25
233.797	2.14
234.18	2.1
234.563	1.15
234.946	0.13
235.33	2.3
235.713	2.93
236.096	2.19
236.479	5.18
236.862	2.21
237.245	4.24
237.628	1.64
238.011	1.21
238.394	4.45
238.777	1.46
239.16	1.7
239.543	3.56
239.925	3.38
240.308	2.31
240.691	3.83
241.073	3.11
241.456	1.4
241.838	1.04
242.221	1.67
242.603	2.14
242.986	2.8
243.368	2.82
243.75	1.51
244.133	0.94
244.515	1.4
244.897	1.9
245.279	1.65
245.661	1.42
246.043	1.01
246.425	1.37
246.807	2.83
247.189	2.15
247.571	2.07
247.953	1.73
248.335	1.43
248.717	1.7
249.098	1.58
249.48	1.8
249.862	1.54
250.243	1.92
250.625	1.49
251.006	1.96
251.388	0.27
251.769	1.75
252.151	1.85
252.532	1.99
252.913	1.66
253.295	1.51
253.676	2.02
254.057	2.13
254.438	1.56
254.819	0.85
255.2	0.81
255.581	2.29
255.962	1.11
256.343	2.01
256.724	0.92
257.105	1.66
257.486	0.83
257.867	2.88
258.247	1.3
258.628	1.28
259.009	1.48
259.389	1.99
259.77	1.72
260.15	1.06
260.531	0.93
260.911	2.19
261.292	1.63
261.672	1.9
262.052	1.66
262.432	1.89
262.813	1.68
263.193	1.92
263.573	1.72
263.953	1.67
264.333	2.09
264.713	1.75
265.093	1.62
265.473	1.79
265.853	1.53
266.233	2.1
266.612	0.06
266.992	0.71
267.372	1.65
267.752	2.08
268.131	1.95
268.511	2.5
268.89	2.12
269.27	1.23
269.649	1.37
270.029	1.41
270.408	3.24
270.787	2
271.167	1.95
271.546	2.08
271.925	1.24
272.304	1.58
272.683	1.35
273.062	1.68
273.441	1.52
273.82	1.16
274.199	2.16
274.578	2.35
274.957	1.79
275.336	1.96
275.715	1.02
276.093	1.02
276.472	1.74
276.851	2.01
277.229	1.73
277.608	1.17
277.986	1.71
278.365	2.2
278.743	0.79
279.122	1.08
279.5	1.79
279.878	1.94
280.257	1.11
280.635	1.32
281.013	1.37
281.391	2.05
281.769	2.02
282.147	1.17
282.525	2.04
282.903	1.06
283.281	1.93
283.659	2.2
284.037	1.82
284.415	1.45
284.792	2.05
285.17	1.53
285.548	1.53
285.925	1.54
286.303	1.92
286.68	1.71
287.058	1.62
287.435	1.24
287.813	1.56
288.19	1.5
288.567	1.61
288.945	2.4
289.322	1.59
289.699	1.53
290.076	1.63
290.453	1.23
290.83	1.15
291.207	1.3
291.584	2
291.961	2.07
292.338	1.42
292.715	2.49
293.092	1.22
293.469	1.93
293.845	1.87
294.222	1.42
294.599	1.41
294.975	1.92
295.352	1.7
295.728	1.87
296.105	1.62
296.481	1.93
296.858	1.69
297.234	1.88
297.61	2.21
297.986	1.26
298.363	1.98
298.739	1.98
299.115	1.8
299.491	1.29
299.867	1.51
300.243	1.71
300.619	1.43
300.995	1.63
301.371	1.99
301.746	1.83
302.122	1.9
302.498	1.56
302.874	1.69
303.249	1.96
303.625	1.85
304	2.2
304.376	1.55
304.751	1.06
305.127	2.7
305.502	1.37
305.878	1.5
306.253	1.3
306.628	2.58
307.003	1.35
307.378	2.01
307.754	1.67
308.129	1.19
308.504	1.62
308.879	1.75
309.254	2.84
309.629	2.35
310.003	2
310.378	1.84
310.753	2.1
311.128	1.67
311.502	2.17
311.877	2.02
312.252	1.38
312.626	1.58
313.001	1.5
313.375	1.97
313.75	1.19
314.124	1.68
314.498	1.55
314.873	1.92
315.247	1.3
315.621	1.7
315.995	0.77
316.369	1.39
316.743	1.51
317.117	1.82
317.491	1.12
317.865	1.78
318.239	0.99
318.613	2.02
318.987	1.98
319.361	1.54
319.734	2.45
320.108	1.73
320.482	1.79
320.855	1.98
321.229	1.54
321.602	1.47
321.976	1.88
322.349	2.02
322.723	1.21
323.096	2.69
323.469	1.57
323.843	1.48
324.216	2.6
324.589	1.8
324.962	1.76
325.335	2.05
325.708	2.2
326.081	1.89
326.454	1.74
326.827	1.83
327.2	1.95
327.573	2.05
327.945	2.04
328.318	1.24
328.691	1.25
329.063	1.86
329.436	1.63
329.809	2.22
330.181	1.51
330.553	1.72
330.926	2.25
331.298	1.88
331.671	1.35
332.043	2.38
332.415	2.51
332.787	2.03
333.159	2.52
333.532	1.99
333.904	2.39
334.276	2.34
334.648	2.39
335.02	1.6
335.391	2.08
335.763	1.37
336.135	1.72
336.507	2.7
336.879	2
337.25	1.23
337.622	1.63
337.993	1.84
338.365	2.55
338.736	2.23
339.108	1.85
339.479	1.55
339.851	2.18
340.222	1.22
340.593	1.84
340.964	1.25
341.336	2.43
341.707	1.52
342.078	2.27
342.449	2.28
342.82	2.03
343.191	1.7
343.562	1.78
343.933	2.45
344.303	1.79
344.674	1.41
345.045	2.19
345.416	2.43
345.786	1.53
346.157	2.12
346.527	0.83
346.898	1.52
347.268	1.65
347.639	1.91
348.009	1.87
348.38	1.66
348.75	1.7
349.12	1.81
349.49	2.58
349.861	1.66
350.231	2
350.601	1.54
350.971	2.42
351.341	1.58
351.711	2.16
352.081	2.32
352.45	2.17
352.82	2.28
353.19	2.04
353.56	1.88
353.929	1.97
354.299	1.86
354.669	1.68
355.038	2.11
355.408	2.05
355.777	2.38
356.147	1.4
356.516	1.59
356.885	2.05
357.254	2.33
357.624	2.21
357.993	2.14
358.362	1.59
358.731	1.84
359.1	1.83
359.469	1.78
359.838	2.17
360.207	1.86
360.576	1.99
360.945	2
361.314	2.54
361.682	1.86
362.051	1.62
362.42	2.03
362.788	2.01
363.157	2.16
363.525	2.15
363.894	2.06
364.262	1.96
364.631	1.83
364.999	1.98
365.367	1.58
365.735	2.4
366.104	2.12
366.472	2.21
366.84	1.88
367.208	1.83
367.576	2.26
367.944	2.54
368.312	2.31
368.68	1.69
369.048	2.13
369.416	1.97
369.783	1.68
370.151	1.74
370.519	2.45
370.886	2.46
371.254	1.95
371.621	2.44
371.989	2.57
372.356	1.95
372.724	2.4
373.091	1.72
373.458	2.16
373.826	2.26
374.193	1.81
374.56	2.17
374.927	2.24
375.294	2.46
375.661	1.89
376.028	2.15
376.395	2.08
376.762	1.96
377.129	1.78
377.496	1.9
377.863	2.5
378.229	1.7
378.596	2.26
378.963	1.94
379.329	1.76
379.696	2.38
380.062	2.32
380.429	1.93
380.795	2.09
381.161	2.5
381.528	2.51
381.894	1.94
382.26	1.96
382.626	2.18
382.993	1.73
383.359	2.4
383.725	2.51
384.091	1.88
384.457	2.34
384.823	2.19
385.188	2.13
385.554	2.04
385.92	2.27
386.286	2.34
386.651	2.58
387.017	2.27
387.383	2.22
387.748	2.15
388.114	2.4
388.479	2.34
388.845	2.5
389.21	2.16
389.575	2.13
389.94	2.36
390.306	1.95
390.671	2.25
391.036	1.88
391.401	1.69
391.766	2.29
392.131	2.12
392.496	2.54
392.861	2.23
393.226	2.2
393.591	2.36
393.956	2.21
394.32	2.24
394.685	2
395.05	1.98
395.414	2.14
395.779	2.1
396.143	2.18
396.508	1.94
396.872	2.18
397.236	2.35
397.601	2.13
397.965	2.43
398.329	2.31
398.694	2.13
399.058	2.29
399.422	1.9
399.786	2.3
400.15	2.34
400.514	2.49
400.878	2.47
401.242	2.47
401.605	2.63
401.969	2.34
402.333	2.15
402.697	2.12
403.06	2.3
403.424	2.34
403.787	2.31
404.151	2.27
404.514	2.25
404.878	2.23
405.241	2.57
405.604	2.19
405.968	2.26
406.331	2.25
406.694	2.44
407.057	2.5
407.42	2.37
407.783	2.35
408.146	2.46
408.509	2.09
408.872	2.18
409.235	2.53
409.598	2.53
409.961	2.47
410.323	2.61
410.686	2.32
411.049	2.29
411.411	2.3
411.774	2.29
412.136	2.24
412.499	2.5
412.861	2.26
413.223	2.21
413.586	2.36
413.948	2.35
414.31	2.43
414.672	2.14
415.035	2.12
415.397	2.6
415.759	2.25
416.121	2.51
416.483	2.24
416.845	2.05
417.206	2.39
417.568	2.51
417.93	2.23
418.292	2.38
418.653	2.26
419.015	2.33
419.377	2.31
419.738	2.31
420.1	2.21
420.461	2.45
420.822	2.46
421.184	2.4
421.545	2.34
421.906	2.22
422.267	2.31
422.629	2.42
422.99	2.34
423.351	2.3
423.712	2.25
424.073	2.3
424.434	2.25
424.795	2.34
425.155	2.31
425.516	2.19
425.877	2.26
426.238	2.28
426.598	2.33
426.959	2.31
427.32	2.14
427.68	2.29
428.041	2.32
428.401	2.43
428.761	2.33
429.122	2.61
429.482	2.2
429.842	2.48
430.202	2.44
430.563	2.51
430.923	2.33
431.283	2.5
431.643	2.46
432.003	2.31
432.363	2.55
432.722	2.49
433.082	2.42
433.442	2.31
433.802	2.17
434.161	2.35
434.521	2.5
434.881	2.54
435.24	2.34
435.6	2.55
435.959	2.32
436.319	2.46
436.678	2.39
437.037	2.44
437.396	2.53
437.756	2.48
438.115	2.51
438.474	2.48
438.833	2.5
439.192	2.4
439.551	2.59
439.91	2.51
440.269	2.54
440.628	2.54
440.987	2.31
441.345	2.29
441.704	2.5
442.063	2.51
442.421	2.39
442.78	2.37
443.138	2.36
443.497	2.48
443.855	2.3
444.214	2.41
444.572	2.46
444.93	2.52
445.288	2.4
445.647	2.6
446.005	2.55
446.363	2.46
446.721	2.47
447.079	2.41
447.437	2.47
447.795	2.49
448.153	2.34
448.51	2.43
448.868	2.46
449.226	2.41
449.584	2.4
449.941	2.55
450.299	2.5
450.656	2.4
451.014	2.49
451.371	2.36
451.729	2.37
452.086	2.75
452.443	2.4
452.801	2.45
453.158	2.59
453.515	2.41
453.872	2.51
454.229	2.46
454.586	2.36
454.943	2.38
455.3	2.53
455.657	2.35
456.014	2.45
456.371	2.49
456.727	2.61
457.084	2.54
457.441	2.51
457.797	2.43
458.154	2.72
458.51	2.47
458.867	2.46
459.223	2.67
459.58	2.52
459.936	2.52
460.292	2.65
460.648	2.67
461.005	2.5
461.361	2.44
461.717	2.48
462.073	2.37
462.429	2.46
462.785	2.49
463.141	2.53
463.496	2.53
463.852	2.68
464.208	2.61
464.564	2.71
464.919	2.6
465.275	2.51
465.631	2.72
465.986	2.6
466.342	2.47
466.697	2.53
467.052	2.69
467.408	2.68
467.763	2.58
468.118	2.6
468.473	2.44
468.829	2.76
469.184	2.37
469.539	2.67
469.894	2.47
470.249	2.69
470.603	2.76
470.958	2.62
471.313	2.76
471.668	2.75
472.023	2.62
472.377	2.77
472.732	2.64
473.086	2.47
473.441	2.47
473.795	2.64
474.15	2.73
474.504	2.69
474.859	2.71
475.213	2.47
475.567	2.55
475.921	2.66
476.275	2.63
476.63	2.67
476.984	2.77
477.338	2.85
477.692	2.65
478.045	2.72
478.399	2.79
478.753	2.78
479.107	2.67
479.461	2.72
479.814	2.81
480.168	2.64
480.521	2.59
480.875	2.64
481.228	2.68
481.582	2.72
481.935	2.59
482.289	2.72
482.642	2.72
482.995	2.83
483.348	2.55
483.701	2.62
484.055	2.67
484.408	2.67
484.761	2.57
485.114	2.53
485.466	2.46
485.819	2.46
486.172	2.45
486.525	2.53
486.878	2.57
487.23	2.61
487.583	2.64
487.936	2.58
488.288	2.65
488.641	2.65
488.993	2.5
489.345	2.56
489.698	2.52
490.05	2.51
490.402	2.65
490.754	2.62
491.107	2.64
491.459	2.74
491.811	2.71
492.163	2.67
492.515	2.64
492.866	2.75
493.218	2.68
493.57	2.64
493.922	2.58
494.274	2.71
494.625	2.75
494.977	2.75
495.328	2.79
495.68	2.84
496.031	2.93
496.383	2.8
496.734	2.97
497.086	2.89
497.437	2.85
497.788	2.77
498.139	2.7
498.49	2.84
498.842	2.75
499.193	2.74
499.544	2.72
499.894	2.81
500.245	2.87
500.596	2.8
500.947	2.94
501.298	2.7
501.648	2.86
501.999	3.01
502.35	2.88
502.7	2.88
503.051	2.66
503.401	2.89
503.752	2.88
504.102	2.88
504.452	2.92
504.803	2.79
505.153	2.86
505.503	2.77
505.853	2.84
506.203	2.93
506.553	2.91
506.903	2.81
507.253	2.79
507.603	2.85
507.953	3.05
508.303	2.99
508.652	2.79
509.002	3.07
509.352	2.87
509.701	2.9
510.051	2.89
510.4	2.89
510.75	2.81
511.099	2.98
511.449	2.79
511.798	2.84
512.147	2.9
512.496	2.83
512.846	2.93
513.195	2.9
513.544	2.92
513.893	2.97
514.242	2.92
514.591	3.07
514.939	2.92
515.288	2.92
515.637	3
515.986	2.95
516.334	3.06
516.683	2.97
517.032	3.09
517.38	3.2
517.729	3.19
518.077	2.92
518.426	3.08
518.774	2.99
519.122	3.04
519.47	2.97
519.819	2.86
520.167	3.01
520.515	2.97
520.863	3.01
521.211	3.07
521.559	3.07
521.907	2.98
522.255	3.05
522.602	2.97
522.95	3.08
523.298	3.1
523.645	3.14
523.993	3.04
524.341	3.22
524.688	3.1
525.036	3.15
525.383	3.22
525.73	3.34
526.078	3.03
526.425	2.95
526.772	3.12
527.119	3.09
527.466	3.08
527.814	3.12
528.161	2.99
528.508	3.15
528.854	3.14
529.201	3.04
529.548	2.97
529.895	3.01
530.242	2.93
530.588	2.91
530.935	2.96
531.282	3.07
531.628	3.03
531.975	3.15
532.321	3.15
532.667	3.11
533.014	3.24
533.36	3.24
533.706	3.2
534.052	3.22
534.399	3.16
534.745	3.12
535.091	3.14
535.437	3.19
535.783	3.17
536.129	3.19
536.474	3.17
536.82	3.28
537.166	3.29
537.512	3.31
537.857	3.33
538.203	3.25
538.549	3.27
538.894	3.18
539.239	3.34
539.585	3.34
539.93	3.27
540.276	3.47
540.621	3.43
540.966	3.39
541.311	3.33
541.656	3.24
542.001	3.23
542.346	3.4
542.691	3.24
543.036	3.24
543.381	3.21
543.726	3.24
544.071	3.35
544.415	3.33
544.76	3.33
545.105	3.39
545.449	3.37
545.794	3.44
546.138	3.38
546.483	3.45
546.827	3.5
547.171	3.46
547.516	3.61
547.86	3.47
548.204	3.5
548.548	3.47
548.892	3.58
549.236	3.52
549.58	3.47
549.924	3.42
550.268	3.64
550.612	3.7
550.956	3.88
551.3	3.64
551.643	3.65
551.987	3.93
552.33	3.73
552.674	3.72
553.017	3.71
553.361	3.67
553.704	3.82
554.048	3.61
554.391	3.65
554.734	3.59
555.077	3.73
555.42	3.59
555.764	3.73
556.107	3.43
556.45	3.62
556.793	3.79
557.135	3.86
557.478	3.82
557.821	4
558.164	3.83
558.507	4.05
558.849	3.79
559.192	3.86
559.534	3.94
559.877	4.02
560.219	3.76
560.562	4.11
560.904	3.89
561.246	4
561.589	3.92
561.931	3.84
562.273	3.82
562.615	4.19
562.957	3.99
563.299	3.63
563.641	4.04
563.983	3.99
564.325	3.75
564.667	4.04
565.008	3.9
565.35	4.11
565.692	3.93
566.033	3.91
566.375	4.37
566.716	4.16
567.058	4
567.399	3.99
567.741	3.85
568.082	3.89
568.423	4.02
568.764	4.25
569.105	4.12
569.447	4.16
569.788	4.14
570.129	4.12
570.47	4.31
570.811	4.36
571.151	4.41
571.492	4.19
571.833	4.23
572.174	4.29
572.514	4.2
572.855	4.39
573.195	4.33
573.536	4.26
573.876	4.18
574.217	4.16
574.557	4.37
574.898	4.67
575.238	4.46
575.578	4.24
575.918	4.59
576.258	4.56
576.598	4.36
576.938	4.32
577.278	4.47
577.618	4.28
577.958	4.39
578.298	4.48
578.638	4.52
578.977	4.56
579.317	4.35
579.657	4.55
579.996	4.45
580.336	4.48
580.675	4.66
581.014	4.45
581.354	4.61
581.693	4.67
582.032	4.45
582.372	4.55
582.711	4.77
583.05	4.7
583.389	4.78
583.728	4.56
584.067	4.86
584.406	4.89
584.745	4.91
585.083	4.78
585.422	4.96
585.761	4.94
586.1	4.9
586.438	4.84
586.777	5.12
587.115	4.89
587.454	4.73
587.792	4.83
588.13	5.23
588.469	4.75
588.807	4.84
589.145	4.67
589.483	4.98
589.821	4.68
590.159	5.12
590.497	5.31
590.835	5.32
591.173	5.12
591.511	5.43
591.849	4.97
592.187	5.09
592.524	5.3
592.862	5.02
593.2	5.1
593.537	5.25
593.875	4.97
594.212	5.06
594.55	5.18
594.887	5.41
595.224	5.36
595.561	5.15
595.899	5.43
596.236	5.32
596.573	5.38
596.91	5.03
597.247	5.39
597.584	5.41
597.921	5.5
598.258	5.26
598.594	5.38
598.931	5.24
599.268	5.47
599.604	5.33
599.941	5.44
600.277	5.48
600.614	5.48
600.95	5.36
601.287	5.66
601.623	5.67
601.959	5.46
602.296	5.65
602.632	5.41
602.968	5.74
603.304	5.62
603.64	5.71
603.976	5.55
604.312	5.48
604.648	5.76
604.984	5.59
605.319	5.57
605.655	5.76
605.991	5.84
606.326	5.77
606.662	5.71
606.998	5.45
607.333	5.74
607.668	5.99
608.004	5.97
608.339	5.95
608.674	5.95
609.01	5.83
609.345	5.62
609.68	6.05
610.015	5.89
610.35	5.83
610.685	5.92
611.02	6.39
611.355	6.01
611.689	6.01
612.024	5.96
612.359	6.21
612.694	5.99
613.028	5.98
613.363	6.03
613.697	6.44
614.032	6.15
614.366	6.19
614.7	6.07
615.035	6.37
615.369	6.14
615.703	6.02
616.037	6.31
616.371	5.93
616.705	5.96
617.039	6.24
617.373	6.1
617.707	6.27
618.041	6.21
618.375	6.5
618.709	6.53
619.042	6.25
619.376	6.78
619.71	7.11
620.043	6.78
620.377	6.45
620.71	6.42
621.043	6.64
621.377	6.57
621.71	6.6
622.043	6.2
622.376	6.18
622.709	6.61
623.043	6.71
623.376	6.71
623.709	6.63
624.041	6.72
624.374	7.21
624.707	6.68
625.04	7.19
625.373	6.42
625.705	7.14
626.038	6.56
626.37	6.79
626.703	6.63
627.035	6.77
627.368	7.52
627.7	7.23
628.032	6.67
628.365	7.11
628.697	6.89
629.029	6.81
629.361	6.75
629.693	6.95
630.025	7.12
630.357	7.35
630.689	7.36
631.021	6.93
631.353	7.19
631.684	7.06
632.016	6.85
632.348	7.51
632.679	7.05
633.011	7.49
633.342	7.6
633.674	7.09
634.005	7.64
634.336	6.81
634.668	7.65
634.999	7.42
635.33	7.8
635.661	7.37
635.992	7.17
636.323	7.64
636.654	7.35
636.985	7.41
637.316	6.97
637.647	7.36
637.977	7.67
638.308	7.75
638.639	7.22
638.969	7.47
639.3	7.36
639.63	7.3
639.961	7.87
640.291	7.33
640.622	7.59
640.952	7.89
641.282	7.92
641.612	8.03
641.943	7.68
642.273	8.24
642.603	7.93
642.933	7.96
643.263	8.21
643.592	7.43
643.922	8.08
644.252	8.1
644.582	8.21
644.911	7.68
645.241	7.96
645.571	8.24
645.9	7.54
646.23	7.77
646.559	8.13
646.888	7.94
647.218	8.16
647.547	8.2
647.876	7.92
648.205	7.76
648.534	8.1
648.863	7.65
649.192	8.17
649.521	7.96
649.85	7.73
650.179	8.21
650.508	7.88
650.837	8.09
651.165	8.34
651.494	7.33
651.822	8.14
652.151	8.03
652.479	8.27
652.808	8.17
653.136	8.24
653.465	7.38
653.793	8.49
654.121	8.13
654.449	8.65
654.777	8.8
655.105	8.82
655.433	7.98
655.761	8.03
656.089	8.68
656.417	9.02
656.745	8.45
657.073	8.49
657.4	9.04
657.728	8.66
658.056	8.63
658.383	8.45
658.711	8.62
659.038	8.96
659.365	9.33
659.693	9.04
660.02	8.7
660.347	8.47
660.674	8.99
661.001	8.78
661.329	8.22
661.656	9.08
661.982	8.97
662.309	8.91
662.636	8.32
662.963	9.51
663.29	9.27
663.616	8.98
663.943	8.3
664.27	9.35
664.596	9.01
664.923	9.04
665.249	9.36
665.576	8.91
665.902	9.95
666.228	9.57
666.554	9.61
666.881	8.9
667.207	9.13
667.533	8.96
667.859	9.57
668.185	9.39
668.511	8.52
668.837	8.31
669.162	9.21
669.488	9.15
669.814	10.01
670.139	9.88
670.465	9.57
670.791	10.01
671.116	10
671.442	8.87
671.767	9.33
672.092	9.9
672.418	9.98
672.743	9.81
673.068	9.26
673.393	9.78
673.718	9.58
674.043	8.93
674.368	9.95
674.693	10.73
675.018	10.24
675.343	9.27
675.667	9.58
675.992	9.87
676.317	10.11
676.641	10.26
676.966	10.1
677.29	9.57
677.615	10.37
677.939	10.76
678.264	10.54
678.588	10.12
678.912	10.17
679.236	10.87
679.56	9.36
679.885	10.9
680.209	10.07
680.532	10.01
680.856	10.89
681.18	10.32
681.504	10.25
681.828	10.52
682.152	9.82
682.475	10.38
682.799	10.13
683.122	10.36
683.446	10.4
683.769	10.65
684.093	10.1
684.416	11.26
684.739	9.72
685.062	9.91
685.386	11.06
685.709	10.21
686.032	10.29
686.355	11.32
686.678	10.08
687.001	10.62
687.324	11.07
687.646	10.79
687.969	10.25
688.292	10.45
688.614	10.07
688.937	11.15
689.26	10.84
689.582	11.87
689.904	10.68
690.227	11.49
690.549	10.56
690.871	11.54
691.194	10.55
691.516	10.5
691.838	11.1
