Data from 0211_chest_Reflection__4__255.txt Node

Date: Fri Sep 22 22:49:12 CDT 2023
User: ToomeyLab
Spectrometer: FLMS14357
Trigger mode: 0
Integration Time (sec): 1.000000E-2
Scans to average: 100
Electric dark correction enabled: true
Nonlinearity correction enabled: false
Boxcar width: 0
XAxis mode: Wavelengths
Number of Pixels in Spectrum: 2048
>>>>>Begin Spectral Data<<<<<
189.047	-191.5
189.435	-191.5
189.823	-191.5
190.211	204.74
190.599	158.69
190.987	44.01
191.375	-121.73
191.763	-218.16
192.151	100.94
192.538	-152.94
192.926	49.55
193.314	284.38
193.702	-4089.66
194.089	-1710.6
194.477	-1066.21
194.864	138.74
195.252	114.32
195.639	-4.41
196.027	66.88
196.414	-233.19
196.801	-26.62
197.189	996.8
197.576	191.19
197.963	219.53
198.351	28.83
198.738	-0.29
199.125	-28.16
199.512	-3.82
199.899	37.33
200.286	24.79
200.673	32.99
201.06	1.15
201.447	43.5
201.833	-4.82
202.22	23.08
202.607	32.26
202.994	61.93
203.38	37.53
203.767	17.66
204.154	38.06
204.54	22.67
204.927	20.7
205.313	38.21
205.699	39.58
206.086	28.37
206.472	42.13
206.858	36.35
207.245	-3.75
207.631	27.85
208.017	7.6
208.403	33.29
208.789	22.59
209.175	57.12
209.561	41.88
209.947	30.77
210.333	31.4
210.719	-31.22
211.105	35.31
211.491	1.32
211.876	27.79
212.262	35.93
212.648	42.85
213.034	12.38
213.419	23.87
213.805	7.09
214.19	-5.87
214.576	15.7
214.961	17.3
215.346	18.31
215.732	27.56
216.117	21.78
216.502	32.96
216.888	4.09
217.273	18.35
217.658	-1.99
218.043	27.95
218.428	24.92
218.813	-16.94
219.198	-10.34
219.583	-2.1
219.968	-1.61
220.353	27.94
220.738	-2.63
221.122	-3.81
221.507	-12.34
221.892	-7.16
222.276	13.06
222.661	-25.59
223.046	19.75
223.43	27.71
223.815	8.44
224.199	-3.73
224.583	5.21
224.968	14.14
225.352	10.85
225.736	9.53
226.121	15.74
226.505	2.99
226.889	-0.17
227.273	-2.02
227.657	13.35
228.041	4.64
228.425	9.54
228.809	4.04
229.193	3.16
229.577	3.54
229.961	3.94
230.344	4.75
230.728	2.71
231.112	4.49
231.495	3.63
231.879	3.77
232.263	4.39
232.646	3.24
233.03	3.22
233.413	4.98
233.797	3.85
234.18	3.59
234.563	6.39
234.946	5.82
235.33	3.26
235.713	2.83
236.096	3.95
236.479	3.15
236.862	5.05
237.245	4.68
237.628	3.47
238.011	5.12
238.394	5.06
238.777	5.59
239.16	3.25
239.543	7.11
239.925	3.3
240.308	5.29
240.691	5.09
241.073	4.77
241.456	4.32
241.838	4.79
242.221	3.11
242.603	4.07
242.986	3.97
243.368	2.63
243.75	4.08
244.133	3.89
244.515	3.39
244.897	3.35
245.279	3.39
245.661	3.36
246.043	3.76
246.425	3.79
246.807	3.4
247.189	2.98
247.571	3.61
247.953	3.85
248.335	3.41
248.717	3.95
249.098	3.47
249.48	3.33
249.862	3.28
250.243	3.34
250.625	3.27
251.006	3.39
251.388	3.2
251.769	3.93
252.151	2.84
252.532	3.12
252.913	4.01
253.295	4.99
253.676	3.35
254.057	3.46
254.438	3.4
254.819	3.03
255.2	3.59
255.581	2.6
255.962	4.14
256.343	4.27
256.724	2.43
257.105	3.57
257.486	3.15
257.867	2.7
258.247	4.32
258.628	3.88
259.009	3.63
259.389	3.13
259.77	4.07
260.15	4.27
260.531	2.15
260.911	3.47
261.292	3.1
261.672	2.85
262.052	3.14
262.432	3.2
262.813	3.27
263.193	3.07
263.573	3.68
263.953	3.31
264.333	3.83
264.713	3.17
265.093	3.15
265.473	3.46
265.853	2.82
266.233	3.09
266.612	3.52
266.992	3.4
267.372	4.43
267.752	3.91
268.131	3.6
268.511	2.52
268.89	3.04
269.27	2.9
269.649	3.45
270.029	3.09
270.408	3.51
270.787	3.01
271.167	3.55
271.546	3.08
271.925	3.51
272.304	2.82
272.683	3.14
273.062	3.25
273.441	3.67
273.82	3.65
274.199	3.18
274.578	3.14
274.957	2.76
275.336	3.41
275.715	3.06
276.093	2.5
276.472	2.74
276.851	3.55
277.229	2.8
277.608	3.32
277.986	2.72
278.365	3.15
278.743	2.94
279.122	2.99
279.5	3.62
279.878	2.75
280.257	3.4
280.635	2.8
281.013	3.64
281.391	2.43
281.769	3.62
282.147	3.42
282.525	3.09
282.903	3.26
283.281	3.13
283.659	3.03
284.037	2.65
284.415	3.06
284.792	3.06
285.17	3.19
285.548	3.62
285.925	3.28
286.303	3.02
286.68	2.65
287.058	3.03
287.435	2.98
287.813	3.1
288.19	2.69
288.567	3.02
288.945	3.11
289.322	3.07
289.699	3.24
290.076	3.25
290.453	2.77
290.83	2.51
291.207	2.74
291.584	2.36
291.961	2.66
292.338	3.12
292.715	3.34
293.092	3.02
293.469	2.9
293.845	2.93
294.222	3.15
294.599	3.23
294.975	3.59
295.352	3.88
295.728	3.03
296.105	3.28
296.481	3.32
296.858	3.28
297.234	3.02
297.61	2.96
297.986	3.08
298.363	2.85
298.739	2.96
299.115	3.15
299.491	3
299.867	3.3
300.243	3.01
300.619	3.3
300.995	3.37
301.371	3.23
301.746	3.18
302.122	3.27
302.498	2.88
302.874	2.94
303.249	2.83
303.625	2.64
304	3.18
304.376	3.47
304.751	3.39
305.127	3.18
305.502	3.38
305.878	3.2
306.253	3.36
306.628	3.18
307.003	3.18
307.378	3.39
307.754	2.85
308.129	3.16
308.504	3.44
308.879	3.03
309.254	3.46
309.629	3.59
310.003	3.59
310.378	3.73
310.753	3.26
311.128	3.55
311.502	3.51
311.877	2.58
312.252	2.98
312.626	3.15
313.001	3.42
313.375	3.61
313.75	3.67
314.124	3.42
314.498	2.66
314.873	3.21
315.247	3.63
315.621	3.24
315.995	3.42
316.369	3.47
316.743	3.61
317.117	3.51
317.491	3.89
317.865	2.84
318.239	3.2
318.613	3.63
318.987	3.96
319.361	2.94
319.734	3.06
320.108	3.87
320.482	3.46
320.855	3.29
321.229	4.02
321.602	3.55
321.976	3.33
322.349	3.38
322.723	3.71
323.096	3.55
323.469	3.33
323.843	2.57
324.216	3.38
324.589	2.94
324.962	2.9
325.335	2.73
325.708	3.06
326.081	3.55
326.454	3.1
326.827	3.31
327.2	3.05
327.573	3.69
327.945	3.68
328.318	3.47
328.691	3.41
329.063	3.27
329.436	3.5
329.809	3.33
330.181	3.27
330.553	3.44
330.926	3.36
331.298	3.66
331.671	3.26
332.043	2.85
332.415	3.2
332.787	3.76
333.159	3.04
333.532	2.74
333.904	3.22
334.276	3.17
334.648	2.97
335.02	3.45
335.391	3.48
335.763	3.83
336.135	3.36
336.507	3.47
336.879	3.02
337.25	3.61
337.622	3.56
337.993	3.47
338.365	3.69
338.736	3.82
339.108	3.42
339.479	3.27
339.851	2.9
340.222	2.99
340.593	2.97
340.964	3
341.336	3.35
341.707	3.45
342.078	3.62
342.449	3.28
342.82	3.02
343.191	3.1
343.562	3.22
343.933	3.28
344.303	3.15
344.674	3.22
345.045	3.16
345.416	3.23
345.786	3.16
346.157	3.27
346.527	3.38
346.898	3.27
347.268	3.2
347.639	3.12
348.009	3.11
348.38	3.04
348.75	3.52
349.12	3.21
349.49	3.56
349.861	2.99
350.231	3.24
350.601	3.17
350.971	3.52
351.341	3.39
351.711	2.95
352.081	2.97
352.45	3.41
352.82	3.36
353.19	3.77
353.56	2.8
353.929	3.25
354.299	3.45
354.669	3.18
355.038	3.28
355.408	3.31
355.777	3.7
356.147	3.49
356.516	3.6
356.885	3.11
357.254	3.47
357.624	3.05
357.993	3.29
358.362	3.26
358.731	3.02
359.1	3.4
359.469	3.42
359.838	3.05
360.207	3.13
360.576	3.47
360.945	3.35
361.314	3.35
361.682	3.67
362.051	3.35
362.42	2.98
362.788	3.29
363.157	3.39
363.525	3.27
363.894	3.22
364.262	3.25
364.631	3.26
364.999	3.14
365.367	3.57
365.735	3.31
366.104	3.01
366.472	3.66
366.84	3.17
367.208	3.53
367.576	3.49
367.944	3.13
368.312	3.26
368.68	3.47
369.048	3.4
369.416	3.33
369.783	3.34
370.151	3.18
370.519	3.7
370.886	3.31
371.254	3.49
371.621	3.32
371.989	3.35
372.356	3.11
372.724	3.62
373.091	3.3
373.458	3.4
373.826	3.68
374.193	3.49
374.56	3.41
374.927	3.32
375.294	3.44
375.661	3.51
376.028	3.27
376.395	3.56
376.762	3.04
377.129	3.59
377.496	3.7
377.863	3.84
378.229	3.4
378.596	3.09
378.963	3.68
379.329	3.37
379.696	3.79
380.062	3.25
380.429	3.36
380.795	3.66
381.161	3.48
381.528	3.19
381.894	3.01
382.26	3.25
382.626	3.27
382.993	3.24
383.359	3.31
383.725	3.43
384.091	3.45
384.457	3.52
384.823	3.27
385.188	3.5
385.554	3.63
385.92	3.43
386.286	3.19
386.651	3.38
387.017	3.68
387.383	3.24
387.748	3.25
388.114	3.31
388.479	3.93
388.845	3.27
389.21	3.29
389.575	3.66
389.94	3.35
390.306	3.82
390.671	3.61
391.036	3.39
391.401	3.62
391.766	3.39
392.131	3.36
392.496	3.3
392.861	3.5
393.226	3.72
393.591	3.56
393.956	3.16
394.32	3.3
394.685	3.4
395.05	3.64
395.414	3.5
395.779	3.49
396.143	3.44
396.508	3.33
396.872	3.37
397.236	3.69
397.601	3.3
397.965	3.69
398.329	3.34
398.694	3.22
399.058	3.48
399.422	3.66
399.786	3.35
400.15	3.64
400.514	3.61
400.878	3.39
401.242	3.73
401.605	3.63
401.969	3.41
402.333	3.56
402.697	3.29
403.06	3.33
403.424	3.44
403.787	3.46
404.151	3.62
404.514	3.91
404.878	3.8
405.241	3.65
405.604	3.6
405.968	3.57
406.331	3.49
406.694	3.4
407.057	3.38
407.42	3.56
407.783	3.56
408.146	3.55
408.509	3.65
408.872	3.44
409.235	3.6
409.598	3.46
409.961	3.71
410.323	3.76
410.686	3.71
411.049	3.54
411.411	3.59
411.774	3.51
412.136	3.47
412.499	3.66
412.861	3.53
413.223	3.57
413.586	3.46
413.948	3.71
414.31	3.54
414.672	3.46
415.035	3.51
415.397	3.64
415.759	3.96
416.121	3.43
416.483	3.37
416.845	3.58
417.206	3.58
417.568	3.74
417.93	3.53
418.292	3.66
418.653	3.64
419.015	3.58
419.377	3.46
419.738	3.54
420.1	3.36
420.461	3.59
420.822	3.57
421.184	3.55
421.545	3.49
421.906	3.51
422.267	3.44
422.629	3.62
422.99	3.46
423.351	3.49
423.712	3.54
424.073	3.47
424.434	3.55
424.795	3.46
425.155	3.6
425.516	3.46
425.877	3.56
426.238	3.31
426.598	3.46
426.959	3.57
427.32	3.46
427.68	3.37
428.041	3.55
428.401	3.57
428.761	3.54
429.122	3.51
429.482	3.67
429.842	3.54
430.202	3.46
430.563	3.67
430.923	3.71
431.283	3.65
431.643	3.56
432.003	3.68
432.363	3.8
432.722	3.69
433.082	3.67
433.442	3.66
433.802	3.7
434.161	3.78
434.521	3.54
434.881	3.64
435.24	3.58
435.6	3.57
435.959	3.67
436.319	3.56
436.678	3.76
437.037	3.58
437.396	3.54
437.756	3.68
438.115	3.7
438.474	3.54
438.833	3.9
439.192	3.62
439.551	3.5
439.91	3.7
440.269	3.76
440.628	3.51
440.987	3.86
441.345	3.71
441.704	3.72
442.063	3.6
442.421	3.57
442.78	3.77
443.138	3.65
443.497	3.59
443.855	3.65
444.214	3.53
444.572	3.76
444.93	3.64
445.288	3.65
445.647	3.85
446.005	3.76
446.363	3.52
446.721	3.62
447.079	3.68
447.437	3.75
447.795	3.65
448.153	3.64
448.51	3.62
448.868	3.67
449.226	3.65
449.584	3.59
449.941	3.57
450.299	3.71
450.656	3.69
451.014	3.77
451.371	3.76
451.729	3.87
452.086	3.8
452.443	3.8
452.801	3.75
453.158	3.75
453.515	3.68
453.872	3.77
454.229	3.79
454.586	3.9
454.943	3.67
455.3	3.68
455.657	3.72
456.014	3.69
456.371	3.81
456.727	3.9
457.084	3.91
457.441	3.77
457.797	3.78
458.154	3.77
458.51	3.52
458.867	3.75
459.223	3.85
459.58	3.83
459.936	3.9
460.292	3.96
460.648	3.9
461.005	3.8
461.361	3.8
461.717	3.62
462.073	3.78
462.429	3.61
462.785	3.73
463.141	3.71
463.496	3.96
463.852	3.8
464.208	3.8
464.564	3.88
464.919	3.81
465.275	4.03
465.631	3.93
465.986	3.88
466.342	4.04
466.697	3.98
467.052	3.83
467.408	4.02
467.763	3.83
468.118	4.08
468.473	3.94
468.829	3.82
469.184	3.78
469.539	3.86
469.894	3.93
470.249	3.92
470.603	3.85
470.958	4.04
471.313	3.95
471.668	3.96
472.023	3.97
472.377	3.93
472.732	3.75
473.086	4.04
473.441	3.74
473.795	4.11
474.15	3.81
474.504	3.83
474.859	3.94
475.213	3.73
475.567	3.84
475.921	3.8
476.275	3.87
476.63	3.85
476.984	3.9
477.338	4.04
477.692	4.05
478.045	4.18
478.399	3.97
478.753	3.97
479.107	3.93
479.461	4.01
479.814	4.03
480.168	4.04
480.521	3.99
480.875	4.08
481.228	3.93
481.582	3.77
481.935	3.94
482.289	3.96
482.642	3.81
482.995	4.05
483.348	3.93
483.701	3.95
484.055	3.89
484.408	3.96
484.761	3.98
485.114	3.8
485.466	3.77
485.819	3.73
486.172	3.71
486.525	3.71
486.878	3.74
487.23	3.79
487.583	3.84
487.936	3.89
488.288	3.91
488.641	3.88
488.993	3.86
489.345	3.81
489.698	3.81
490.05	3.83
490.402	3.87
490.754	3.79
491.107	3.85
491.459	3.95
491.811	3.93
492.163	3.93
492.515	4
492.866	4.01
493.218	3.94
493.57	3.95
493.922	3.84
494.274	3.94
494.625	3.89
494.977	4.08
495.328	4.05
495.68	4.06
496.031	4.07
496.383	4.15
496.734	4.14
497.086	4.03
497.437	4.22
497.788	4.08
498.139	4.13
498.49	4.21
498.842	4.01
499.193	4.09
499.544	4.19
499.894	4.1
500.245	4.22
500.596	4.25
500.947	4.15
501.298	4.21
501.648	4.22
501.999	4.29
502.35	4.23
502.7	4.35
503.051	4.27
503.401	4.17
503.752	4.2
504.102	4.26
504.452	4.34
504.803	4.27
505.153	4.23
505.503	4.26
505.853	4.33
506.203	4.28
506.553	4.36
506.903	4.29
507.253	4.38
507.603	4.32
507.953	4.27
508.303	4.43
508.652	4.37
509.002	4.31
509.352	4.31
509.701	4.33
510.051	4.31
510.4	4.4
510.75	4.34
511.099	4.2
511.449	4.36
511.798	4.44
512.147	4.38
512.496	4.37
512.846	4.28
513.195	4.46
513.544	4.34
513.893	4.46
514.242	4.36
514.591	4.46
514.939	4.45
515.288	4.34
515.637	4.35
515.986	4.43
516.334	4.47
516.683	4.48
517.032	4.64
517.38	4.5
517.729	4.44
518.077	4.44
518.426	4.65
518.774	4.55
519.122	4.44
519.47	4.42
519.819	4.45
520.167	4.58
520.515	4.49
520.863	4.43
521.211	4.43
521.559	4.46
521.907	4.55
522.255	4.59
522.602	4.67
522.95	4.58
523.298	4.67
523.645	4.7
523.993	4.65
524.341	4.52
524.688	4.59
525.036	4.61
525.383	4.66
525.73	4.78
526.078	4.68
526.425	4.68
526.772	4.76
527.119	4.57
527.466	4.52
527.814	4.58
528.161	4.59
528.508	4.6
528.854	4.63
529.201	4.72
529.548	4.64
529.895	4.73
530.242	4.57
530.588	4.53
530.935	4.47
531.282	4.46
531.628	4.59
531.975	4.59
532.321	4.59
532.667	4.69
533.014	4.79
533.36	4.78
533.706	4.84
534.052	4.84
534.399	4.77
534.745	4.87
535.091	4.74
535.437	4.67
535.783	4.64
536.129	4.77
536.474	4.86
536.82	4.8
537.166	4.99
537.512	4.9
537.857	4.91
538.203	5.04
538.549	5.01
538.894	4.93
539.239	4.89
539.585	4.89
539.93	5.05
540.276	5
540.621	5.06
540.966	5.1
541.311	5.14
541.656	5.19
542.001	5.21
542.346	5.13
542.691	5.14
543.036	5.06
543.381	5.04
543.726	4.97
544.071	5
544.415	4.98
544.76	5
545.105	5.01
545.449	5.1
545.794	5.2
546.138	5.1
546.483	5.19
546.827	5.24
547.171	5.32
547.516	5.35
547.86	5.39
548.204	5.36
548.548	5.36
548.892	5.4
549.236	5.33
549.58	5.38
549.924	5.43
550.268	5.52
550.612	5.45
550.956	5.53
551.3	5.55
551.643	5.56
551.987	5.6
552.33	5.8
552.674	5.49
553.017	5.62
553.361	5.65
553.704	5.62
554.048	5.73
554.391	5.74
554.734	5.78
555.077	5.76
555.42	5.67
555.764	5.67
556.107	5.93
556.45	5.78
556.793	5.74
557.135	5.77
557.478	5.79
557.821	5.86
558.164	5.91
558.507	5.88
558.849	5.89
559.192	6
559.534	6.06
559.877	6.02
560.219	5.98
560.562	6.09
560.904	6.11
561.246	6.15
561.589	6.06
561.931	6.17
562.273	5.91
562.615	5.95
562.957	6.09
563.299	6.12
563.641	6.35
563.983	6.16
564.325	6.37
564.667	6.27
565.008	6.15
565.35	6.27
565.692	6.29
566.033	6.4
566.375	6.29
566.716	6.33
567.058	6.32
567.399	6.47
567.741	6.48
568.082	6.3
568.423	6.39
568.764	6.57
569.105	6.22
569.447	6.47
569.788	6.34
570.129	6.36
570.47	6.64
570.811	6.61
571.151	6.71
571.492	6.57
571.833	6.62
572.174	6.66
572.514	6.74
572.855	6.62
573.195	6.6
573.536	6.72
573.876	6.62
574.217	6.61
574.557	6.69
574.898	6.88
575.238	6.84
575.578	6.91
575.918	6.9
576.258	6.75
576.598	6.89
576.938	7.02
577.278	7.01
577.618	6.81
577.958	6.94
578.298	7.18
578.638	7.05
578.977	7.1
579.317	6.99
579.657	7.19
579.996	7.27
580.336	7.1
580.675	7.17
581.014	6.98
581.354	7.11
581.693	7.3
582.032	7.3
582.372	7.46
582.711	7.42
583.05	7.59
583.389	7.65
583.728	7.63
584.067	7.42
584.406	7.51
584.745	7.39
585.083	7.62
585.422	7.85
585.761	7.42
586.1	7.64
586.438	7.49
586.777	7.58
587.115	7.97
587.454	7.5
587.792	7.9
588.13	7.83
588.469	7.93
588.807	8.02
589.145	7.96
589.483	7.82
589.821	7.94
590.159	8.04
590.497	8.19
590.835	8.08
591.173	7.86
591.511	8.09
591.849	8.2
592.187	7.99
592.524	8.16
592.862	8.19
593.2	8.05
593.537	8.02
593.875	8.04
594.212	8.36
594.55	8.84
594.887	8.12
595.224	8.58
595.561	8.5
595.899	8.52
596.236	8.7
596.573	8.65
596.91	8.63
597.247	8.32
597.584	8.79
597.921	8.78
598.258	8.46
598.594	8.67
598.931	8.55
599.268	8.58
599.604	8.49
599.941	8.67
600.277	8.64
600.614	8.7
600.95	8.67
601.287	8.71
601.623	8.73
601.959	8.79
602.296	8.81
602.632	8.74
602.968	9.01
603.304	8.95
603.64	8.99
603.976	9.02
604.312	9.14
604.648	9.07
604.984	9.02
605.319	9.22
605.655	8.94
605.991	9.2
606.326	9.24
606.662	9.16
606.998	9.03
607.333	9.19
607.668	9.01
608.004	9.32
608.339	9.25
608.674	9.34
609.01	9.37
609.345	9.68
609.68	9.81
610.015	9.56
610.35	9.54
610.685	9.76
611.02	9.62
611.355	9.94
611.689	9.56
612.024	9.71
612.359	9.63
612.694	9.54
613.028	9.6
613.363	9.71
613.697	9.9
614.032	9.74
614.366	9.55
614.7	9.79
615.035	10.01
615.369	9.92
615.703	10.06
616.037	9.81
616.371	10.41
616.705	9.99
617.039	10.21
617.373	10.25
617.707	10.19
618.041	10.77
618.375	10.38
618.709	10.31
619.042	10.44
619.376	10.49
619.71	10.41
620.043	10.47
620.377	10.33
620.71	10.66
621.043	10.77
621.377	10.15
621.71	10.24
622.043	10.47
622.376	10.83
622.709	10.68
623.043	10.59
623.376	10.9
623.709	10.56
624.041	10.7
624.374	10.62
624.707	11.01
625.04	10.92
625.373	10.58
625.705	10.8
626.038	11.08
626.37	11.28
626.703	11.19
627.035	10.97
627.368	11.06
627.7	11.16
628.032	11.52
628.365	11.44
628.697	11.1
629.029	11.13
629.361	11.27
629.693	11.33
630.025	11.04
630.357	10.94
630.689	11.28
631.021	11.33
631.353	11.28
631.684	11.18
632.016	11.38
632.348	11.5
632.679	11.32
633.011	11.22
633.342	11.59
633.674	11.68
634.005	11.19
634.336	11.88
634.668	11.98
634.999	11.68
635.33	11.68
635.661	12.07
635.992	11.8
636.323	11.65
636.654	11.5
636.985	11.67
637.316	11.82
637.647	12.02
637.977	11.91
638.308	12.18
638.639	11.81
638.969	11.94
639.3	12.18
639.63	12.41
639.961	12.18
640.291	12.18
640.622	12.23
640.952	12.04
641.282	12.22
641.612	12
641.943	12.72
642.273	12.35
642.603	12.17
642.933	12.4
643.263	12.28
643.592	12.59
643.922	13.02
644.252	12.08
644.582	12.87
644.911	12.57
645.241	12.55
645.571	12.44
645.9	12.56
646.23	12.69
646.559	13.05
646.888	13.14
647.218	12.62
647.547	12.72
647.876	13.34
648.205	12.97
648.534	13.27
648.863	13.17
649.192	12.55
649.521	13.06
649.85	13.14
650.179	13.08
650.508	12.96
650.837	13.39
651.165	13.38
651.494	13.34
651.822	13.34
652.151	13.45
652.479	13.04
652.808	12.89
653.136	13.71
653.465	13.35
653.793	12.88
654.121	13.67
654.449	13.37
654.777	13.77
655.105	13.85
655.433	13.54
655.761	13.95
656.089	13.67
656.417	13.92
656.745	14.11
657.073	13.63
657.4	14.23
657.728	13.84
658.056	13.76
658.383	14.27
658.711	13.92
659.038	13.74
659.365	13.53
659.693	13.71
660.02	13.88
660.347	13.95
660.674	13.84
661.001	13.89
661.329	14.04
661.656	14.25
661.982	14
662.309	14.41
662.636	13.78
662.963	14.08
663.29	14.13
663.616	13.73
663.943	14.54
664.27	14.51
664.596	14.14
664.923	14.36
665.249	14.61
665.576	13.85
665.902	14.83
666.228	14.82
666.554	14.08
666.881	14.61
667.207	15.03
667.533	14.47
667.859	14.63
668.185	14.38
668.511	14.7
668.837	14.4
669.162	14.36
669.488	15.11
669.814	14.44
670.139	15.17
670.465	15.51
670.791	14.82
671.116	14.72
671.442	15.42
671.767	14.6
672.092	15.6
672.418	15.45
672.743	14.8
673.068	15.38
673.393	15.12
673.718	15.35
674.043	15.64
674.368	15.13
674.693	15.47
675.018	15.45
675.343	15.56
675.667	15.06
675.992	15.3
676.317	16.03
676.641	15.78
676.966	15.77
677.29	15.48
677.615	15.88
677.939	16.27
678.264	15.5
678.588	15.99
678.912	15.96
679.236	15.82
679.56	16.04
679.885	15.74
680.209	16.19
680.532	15.56
680.856	15.56
681.18	16.3
681.504	16.14
681.828	16.31
682.152	16.34
682.475	16.49
682.799	16.52
683.122	15.68
683.446	15.99
683.769	16.15
684.093	16.26
684.416	16.33
684.739	16.51
685.062	16.72
685.386	16.69
685.709	16.46
686.032	16.24
686.355	16.93
686.678	16.51
687.001	16.51
687.324	16.73
