Data from 0211_chest_Reflection__1__252.txt Node

Date: Fri Sep 22 22:48:37 CDT 2023
User: ToomeyLab
Spectrometer: FLMS14357
Trigger mode: 0
Integration Time (sec): 1.000000E-2
Scans to average: 100
Electric dark correction enabled: true
Nonlinearity correction enabled: false
Boxcar width: 0
XAxis mode: Wavelengths
Number of Pixels in Spectrum: 2048
>>>>>Begin Spectral Data<<<<<
189.047	-54.48
189.435	-54.48
189.823	-54.48
190.211	104.37
190.599	-62.43
190.987	-1.42
191.375	195.99
191.763	236
192.151	35.85
192.538	57.98
192.926	275.59
193.314	146.83
193.702	-15755.17
194.089	-1941.83
194.477	-86.21
194.864	234
195.252	131.79
195.639	28.86
196.027	49.66
196.414	276.97
196.801	-44.5
197.189	2040.8
197.576	216.67
197.963	24.84
198.351	32.38
198.738	17.72
199.125	-20.11
199.512	9.11
199.899	64.72
200.286	27.19
200.673	19.27
201.06	24.74
201.447	35.04
201.833	-30.45
202.22	28.33
202.607	3.53
202.994	31.95
203.38	19.34
203.767	0.6
204.154	36.51
204.54	25.08
204.927	16.21
205.313	16.49
205.699	50.91
206.086	24.32
206.472	27.73
206.858	1.97
207.245	-0.58
207.631	27.49
208.017	10.23
208.403	-6.85
208.789	8.19
209.175	26.78
209.561	39.25
209.947	19.49
210.333	37.16
210.719	-16.37
211.105	12.49
211.491	19.24
211.876	35.34
212.262	17.97
212.648	22.83
213.034	26.75
213.419	17.77
213.805	-9.05
214.19	7.36
214.576	7.74
214.961	5.83
215.346	-10.1
215.732	20.52
216.117	9.83
216.502	29.43
216.888	5.66
217.273	5.37
217.658	10.36
218.043	-4.91
218.428	34.65
218.813	-11.19
219.198	24.47
219.583	-9.6
219.968	-9.36
220.353	11.22
220.738	-21.27
221.122	-12.25
221.507	3.93
221.892	-0.23
222.276	-7.66
222.661	-12.6
223.046	4.88
223.43	17.86
223.815	-0.38
224.199	2.39
224.583	15.27
224.968	7.14
225.352	-3.1
225.736	6.03
226.121	4.71
226.505	8.84
226.889	7.74
227.273	-1.53
227.657	-1.63
228.041	6.23
228.425	3.63
228.809	2.03
229.193	2.73
229.577	3.12
229.961	2.73
230.344	3.4
230.728	1.44
231.112	1.95
231.495	1.51
231.879	1.85
232.263	1.4
232.646	1.65
233.03	1.84
233.413	2.58
233.797	1.07
234.18	0.3
234.563	2.28
234.946	1.83
235.33	-0.32
235.713	1.25
236.096	1.5
236.479	2.08
236.862	3.79
237.245	2.79
237.628	2.65
238.011	2.31
238.394	2.72
238.777	3.2
239.16	3.74
239.543	3.23
239.925	1.97
240.308	2.91
240.691	1.73
241.073	2.22
241.456	2.98
241.838	1.15
242.221	2.58
242.603	2.12
242.986	2.41
243.368	1.15
243.75	2.25
244.133	1.98
244.515	1.67
244.897	1.56
245.279	1.5
245.661	1.73
246.043	1.55
246.425	0.99
246.807	2.35
247.189	1.12
247.571	2.03
247.953	2.89
248.335	1.6
248.717	2.16
249.098	1.55
249.48	1.54
249.862	1.57
250.243	1.7
250.625	1.94
251.006	1.71
251.388	1.84
251.769	1.66
252.151	1.78
252.532	1.14
252.913	2.01
253.295	2.1
253.676	1.19
254.057	1.92
254.438	2.06
254.819	1.31
255.2	1.71
255.581	1.41
255.962	1.95
256.343	1.48
256.724	1.36
257.105	1.87
257.486	1.4
257.867	1.61
258.247	2.16
258.628	1.72
259.009	1.68
259.389	1.44
259.77	1.78
260.15	1.71
260.531	1.8
260.911	1.77
261.292	1.27
261.672	1.44
262.052	1.62
262.432	1.52
262.813	1.74
263.193	1.32
263.573	1.9
263.953	1.56
264.333	1.43
264.713	1.77
265.093	1.73
265.473	1.52
265.853	1.19
266.233	1.45
266.612	1.15
266.992	1.39
267.372	1.55
267.752	1.1
268.131	1.79
268.511	1.37
268.89	1.83
269.27	1.17
269.649	1.48
270.029	1.41
270.408	1.12
270.787	1.59
271.167	1.79
271.546	1.28
271.925	1.13
272.304	1.29
272.683	1.18
273.062	2.01
273.441	1.53
273.82	1.83
274.199	1.85
274.578	1.87
274.957	1.87
275.336	1.61
275.715	1.46
276.093	1.68
276.472	1.37
276.851	1.45
277.229	0.74
277.608	1.95
277.986	1.03
278.365	1.35
278.743	1.74
279.122	2.18
279.5	2.06
279.878	1.57
280.257	2.17
280.635	1.02
281.013	1.43
281.391	1.43
281.769	1.6
282.147	1.58
282.525	1.38
282.903	1.61
283.281	1.57
283.659	1.31
284.037	1.3
284.415	1.62
284.792	1.33
285.17	1.78
285.548	1.86
285.925	1.77
286.303	1.45
286.68	1.26
287.058	1.26
287.435	1.73
287.813	1.35
288.19	1.31
288.567	1.71
288.945	1.27
289.322	1.59
289.699	1.74
290.076	2.04
290.453	1.33
290.83	1.36
291.207	1.39
291.584	0.82
291.961	1.3
292.338	1.76
292.715	1.75
293.092	1.58
293.469	1.7
293.845	1.56
294.222	2.25
294.599	1.75
294.975	1.67
295.352	1.95
295.728	1.77
296.105	1.92
296.481	1.49
296.858	1.79
297.234	1.75
297.61	1.99
297.986	1.88
298.363	2.05
298.739	1.56
299.115	1.72
299.491	1.71
299.867	1.67
300.243	1.76
300.619	1.69
300.995	1.74
301.371	1.86
301.746	1.9
302.122	1.76
302.498	1.59
302.874	1.49
303.249	1.52
303.625	1.47
304	2.11
304.376	1.61
304.751	2.04
305.127	1.94
305.502	2.39
305.878	1.7
306.253	2.12
306.628	1.91
307.003	2.12
307.378	1.7
307.754	1.58
308.129	1.43
308.504	1.67
308.879	1.74
309.254	2.18
309.629	1.68
310.003	1.86
310.378	2.27
310.753	1.59
311.128	1.94
311.502	1.85
311.877	1.16
312.252	1.75
312.626	1.82
313.001	1.86
313.375	1.8
313.75	2.25
314.124	2.36
314.498	1.66
314.873	1.76
315.247	2.19
315.621	1.84
315.995	2.28
316.369	1.77
316.743	1.97
317.117	1.86
317.491	2.26
317.865	1.64
318.239	2.18
318.613	1.9
318.987	1.87
319.361	1.36
319.734	1.54
320.108	2.31
320.482	1.81
320.855	1.77
321.229	2.93
321.602	2.17
321.976	1.68
322.349	2.3
322.723	2.02
323.096	1.92
323.469	1.5
323.843	2.28
324.216	1.79
324.589	2.05
324.962	1.71
325.335	1.98
325.708	2.05
326.081	2.31
326.454	1.34
326.827	1.87
327.2	1.78
327.573	2.43
327.945	1.93
328.318	2.07
328.691	2.01
329.063	1.79
329.436	2.39
329.809	1.89
330.181	2.03
330.553	1.72
330.926	2.06
331.298	1.91
331.671	1.82
332.043	1.4
332.415	1.81
332.787	2.12
333.159	1.77
333.532	1.94
333.904	1.85
334.276	2.28
334.648	1.29
335.02	1.87
335.391	2.29
335.763	2.25
336.135	2.09
336.507	2.28
336.879	1.65
337.25	1.88
337.622	2.25
337.993	2.15
338.365	1.91
338.736	2.24
339.108	1.93
339.479	2.24
339.851	1.74
340.222	1.91
340.593	1.65
340.964	1.76
341.336	1.79
341.707	1.89
342.078	2.15
342.449	2.32
342.82	1.79
343.191	1.82
343.562	1.59
343.933	2.15
344.303	1.76
344.674	2.18
345.045	2.15
345.416	2.53
345.786	1.58
346.157	1.66
346.527	2.06
346.898	2.24
347.268	2.21
347.639	2.23
348.009	1.84
348.38	2.2
348.75	2.25
349.12	2
349.49	2.46
349.861	1.98
350.231	1.95
350.601	1.63
350.971	2.11
351.341	2.15
351.711	2.02
352.081	1.61
352.45	2.04
352.82	2.12
353.19	2.55
353.56	2.03
353.929	2.38
354.299	2.17
354.669	2
355.038	2.13
355.408	2.42
355.777	2.31
356.147	2
356.516	2.27
356.885	1.89
357.254	2.23
357.624	1.46
357.993	1.96
358.362	2
358.731	2.09
359.1	2.08
359.469	1.94
359.838	2
360.207	1.95
360.576	2.12
360.945	1.99
361.314	2.1
361.682	2.56
362.051	2.57
362.42	1.98
362.788	1.97
363.157	2.12
363.525	2.12
363.894	1.93
364.262	1.86
364.631	1.87
364.999	1.68
365.367	2.15
365.735	2.02
366.104	1.95
366.472	2.34
366.84	1.95
367.208	2.43
367.576	2.39
367.944	2.38
368.312	2.14
368.68	1.92
369.048	2.44
369.416	2.21
369.783	1.72
370.151	2.02
370.519	2.09
370.886	1.93
371.254	2.33
371.621	1.93
371.989	2.17
372.356	2.18
372.724	2.33
373.091	2.24
373.458	2.1
373.826	2.49
374.193	2.21
374.56	2.41
374.927	2.2
375.294	1.81
375.661	2.33
376.028	2.65
376.395	2.44
376.762	1.97
377.129	2.08
377.496	2.16
377.863	2.48
378.229	2.24
378.596	2.25
378.963	2.42
379.329	2.18
379.696	2.37
380.062	1.91
380.429	2.21
380.795	2.14
381.161	1.79
381.528	2.1
381.894	1.76
382.26	1.97
382.626	2.26
382.993	2.24
383.359	1.86
383.725	2.07
384.091	2.17
384.457	1.94
384.823	1.81
385.188	2.04
385.554	2.19
385.92	2.45
386.286	2
386.651	2.18
387.017	2.27
387.383	2.33
387.748	1.94
388.114	2.54
388.479	2.17
388.845	2.06
389.21	2.1
389.575	2.2
389.94	2.15
390.306	2.16
390.671	2.34
391.036	2.13
391.401	2.31
391.766	2.08
392.131	2.24
392.496	2.25
392.861	2.17
393.226	2.3
393.591	2.3
393.956	2.27
394.32	2.03
394.685	2.06
395.05	2.4
395.414	2.16
395.779	2.19
396.143	2.31
396.508	2.25
396.872	2.35
397.236	2.18
397.601	2.07
397.965	2.54
398.329	2.22
398.694	2.12
399.058	2.28
399.422	2.21
399.786	2.2
400.15	2.63
400.514	2.14
400.878	2.22
401.242	2.29
401.605	2.15
401.969	1.98
402.333	2.27
402.697	2.3
403.06	2.39
403.424	2.25
403.787	2.61
404.151	2.28
404.514	2.25
404.878	2.59
405.241	2.36
405.604	2.24
405.968	2.36
406.331	2.47
406.694	2.24
407.057	2.04
407.42	2.24
407.783	2.23
408.146	2.36
408.509	2.15
408.872	2.27
409.235	2.14
409.598	2.29
409.961	2.22
410.323	2.27
410.686	2.16
411.049	2.31
411.411	2.47
411.774	2.26
412.136	2.24
412.499	2.23
412.861	2.25
413.223	2.36
413.586	2.32
413.948	2.25
414.31	2.37
414.672	2.25
415.035	2.18
415.397	2.34
415.759	2.61
416.121	2.32
416.483	2.02
416.845	2.09
417.206	2.29
417.568	2.3
417.93	2.2
418.292	2.35
418.653	2.19
419.015	2.23
419.377	2.17
419.738	2.34
420.1	2.08
420.461	2.37
420.822	2.25
421.184	2.24
421.545	2.17
421.906	2.24
422.267	2.13
422.629	2.26
422.99	2.24
423.351	2.14
423.712	2.13
424.073	2.23
424.434	2.23
424.795	2.22
425.155	2.25
425.516	2.23
425.877	2.21
426.238	2.09
426.598	2.19
426.959	2.19
427.32	2.23
427.68	2.22
428.041	2.26
428.401	2.26
428.761	2.28
429.122	2.34
429.482	2.36
429.842	2.14
430.202	2.25
430.563	2.28
430.923	2.31
431.283	2.45
431.643	2.32
432.003	2.41
432.363	2.37
432.722	2.56
433.082	2.43
433.442	2.2
433.802	2.37
434.161	2.18
434.521	2.24
434.881	2.34
435.24	2.31
435.6	2.15
435.959	2.28
436.319	2.18
436.678	2.38
437.037	2.33
437.396	2.19
437.756	2.42
438.115	2.46
438.474	2.2
438.833	2.58
439.192	2.28
439.551	2.35
439.91	2.48
440.269	2.5
440.628	2.18
440.987	2.27
441.345	2.44
441.704	2.46
442.063	2.32
442.421	2.34
442.78	2.4
443.138	2.32
443.497	2.33
443.855	2.35
444.214	2.21
444.572	2.47
444.93	2.44
445.288	2.46
445.647	2.42
446.005	2.36
446.363	2.29
446.721	2.54
447.079	2.29
447.437	2.43
447.795	2.44
448.153	2.22
448.51	2.43
448.868	2.37
449.226	2.35
449.584	2.35
449.941	2.15
450.299	2.43
450.656	2.37
451.014	2.48
451.371	2.41
451.729	2.41
452.086	2.37
452.443	2.43
452.801	2.4
453.158	2.46
453.515	2.47
453.872	2.39
454.229	2.47
454.586	2.44
454.943	2.31
455.3	2.36
455.657	2.45
456.014	2.37
456.371	2.42
456.727	2.5
457.084	2.48
457.441	2.26
457.797	2.5
458.154	2.41
458.51	2.45
458.867	2.5
459.223	2.32
459.58	2.6
459.936	2.51
460.292	2.54
460.648	2.64
461.005	2.43
461.361	2.43
461.717	2.16
462.073	2.37
462.429	2.29
462.785	2.4
463.141	2.47
463.496	2.48
463.852	2.52
464.208	2.4
464.564	2.62
464.919	2.42
465.275	2.54
465.631	2.59
465.986	2.69
466.342	2.53
466.697	2.71
467.052	2.55
467.408	2.57
467.763	2.66
468.118	2.6
468.473	2.45
468.829	2.58
469.184	2.54
469.539	2.6
469.894	2.53
470.249	2.6
470.603	2.62
470.958	2.73
471.313	2.55
471.668	2.68
472.023	2.71
472.377	2.61
472.732	2.53
473.086	2.79
473.441	2.29
473.795	2.83
474.15	2.4
474.504	2.41
474.859	2.78
475.213	2.53
475.567	2.5
475.921	2.65
476.275	2.76
476.63	2.49
476.984	2.44
477.338	2.63
477.692	2.48
478.045	2.64
478.399	2.7
478.753	2.7
479.107	2.52
479.461	2.54
479.814	2.66
480.168	2.57
480.521	2.62
480.875	2.68
481.228	2.46
481.582	2.53
481.935	2.58
482.289	2.37
482.642	2.5
482.995	2.58
483.348	2.64
483.701	2.44
484.055	2.6
484.408	2.53
484.761	2.56
485.114	2.48
485.466	2.41
485.819	2.44
486.172	2.38
486.525	2.39
486.878	2.41
487.23	2.47
487.583	2.5
487.936	2.53
488.288	2.57
488.641	2.52
488.993	2.46
489.345	2.43
489.698	2.46
490.05	2.46
490.402	2.49
490.754	2.47
491.107	2.49
491.459	2.58
491.811	2.52
492.163	2.57
492.515	2.6
492.866	2.6
493.218	2.64
493.57	2.57
493.922	2.54
494.274	2.5
494.625	2.55
494.977	2.63
495.328	2.7
495.68	2.69
496.031	2.61
496.383	2.7
496.734	2.7
497.086	2.61
497.437	2.75
497.788	2.77
498.139	2.72
498.49	2.84
498.842	2.6
499.193	2.68
499.544	2.68
499.894	2.72
500.245	2.8
500.596	2.8
500.947	2.79
501.298	2.75
501.648	2.74
501.999	2.87
502.35	2.83
502.7	2.95
503.051	2.87
503.401	2.89
503.752	2.83
504.102	2.84
504.452	2.83
504.803	2.67
505.153	2.73
505.503	2.7
505.853	2.9
506.203	2.89
506.553	2.93
506.903	2.84
507.253	2.8
507.603	2.95
507.953	2.88
508.303	2.99
508.652	2.77
509.002	2.98
509.352	2.78
509.701	2.85
510.051	2.88
510.4	2.97
510.75	2.9
511.099	2.84
511.449	2.96
511.798	2.9
512.147	2.82
512.496	2.78
512.846	2.92
513.195	2.83
513.544	2.9
513.893	2.95
514.242	2.84
514.591	2.97
514.939	2.98
515.288	2.88
515.637	2.92
515.986	2.86
516.334	2.95
516.683	3.1
517.032	3.15
517.38	3.01
517.729	3.03
518.077	3.12
518.426	2.98
518.774	2.98
519.122	3.06
519.47	2.94
519.819	2.97
520.167	3.04
520.515	2.92
520.863	2.96
521.211	2.97
521.559	2.98
521.907	2.98
522.255	3.03
522.602	2.93
522.95	3.01
523.298	3.11
523.645	3.17
523.993	3.08
524.341	2.91
524.688	3.12
525.036	3.11
525.383	3.1
525.73	3.2
526.078	3.13
526.425	3.09
526.772	3.12
527.119	3.14
527.466	2.99
527.814	2.96
528.161	3.06
528.508	2.96
528.854	3.07
529.201	3.14
529.548	3.08
529.895	2.98
530.242	3.02
530.588	2.97
530.935	2.93
531.282	2.95
531.628	3.01
531.975	3.02
532.321	3.07
532.667	3.18
533.014	3.11
533.36	3.21
533.706	3.08
534.052	3.25
534.399	3.2
534.745	3.19
535.091	3.02
535.437	3.1
535.783	3.06
536.129	3.15
536.474	3.18
536.82	3.16
537.166	3.33
537.512	3.32
537.857	3.24
538.203	3.35
538.549	3.21
538.894	3.2
539.239	3.2
539.585	3.25
539.93	3.38
540.276	3.35
540.621	3.37
540.966	3.31
541.311	3.49
541.656	3.37
542.001	3.45
542.346	3.41
542.691	3.45
543.036	3.39
543.381	3.32
543.726	3.23
544.071	3.31
544.415	3.31
544.76	3.34
545.105	3.4
545.449	3.33
545.794	3.41
546.138	3.49
546.483	3.48
546.827	3.47
547.171	3.42
547.516	3.62
547.86	3.58
548.204	3.67
548.548	3.63
548.892	3.54
549.236	3.53
549.58	3.55
549.924	3.7
550.268	3.79
550.612	3.59
550.956	3.77
551.3	3.91
551.643	3.76
551.987	3.66
552.33	3.89
552.674	3.74
553.017	3.67
553.361	3.74
553.704	3.83
554.048	3.77
554.391	3.97
554.734	3.94
555.077	3.78
555.42	3.95
555.764	3.79
556.107	3.89
556.45	3.85
556.793	3.91
557.135	3.79
557.478	3.85
557.821	4.04
558.164	4.05
558.507	4.18
558.849	3.88
559.192	4.02
559.534	4.15
559.877	4.11
560.219	4.02
560.562	4.06
560.904	4.23
561.246	4.32
561.589	4.16
561.931	4.21
562.273	4.18
562.615	4.13
562.957	4.17
563.299	4.16
563.641	4.08
563.983	4.21
564.325	4.3
564.667	4.32
565.008	4.25
565.35	4.2
565.692	4.28
566.033	4.19
566.375	4.16
566.716	4.28
567.058	4.39
567.399	4.34
567.741	4.48
568.082	4.3
568.423	4.37
568.764	4.5
569.105	4.24
569.447	4.36
569.788	4.29
570.129	4.53
570.47	4.49
570.811	4.29
571.151	4.54
571.492	4.49
571.833	4.33
572.174	4.55
572.514	4.45
572.855	4.4
573.195	4.31
573.536	4.65
573.876	4.57
574.217	4.51
574.557	4.54
574.898	4.68
575.238	4.54
575.578	4.68
575.918	4.72
576.258	4.62
576.598	4.65
576.938	4.76
577.278	4.83
577.618	4.53
577.958	4.79
578.298	4.87
578.638	4.63
578.977	4.76
579.317	4.72
579.657	4.98
579.996	5.1
580.336	4.95
580.675	4.93
581.014	4.93
581.354	4.88
581.693	5.15
582.032	5.24
582.372	4.96
582.711	5.05
583.05	5.07
583.389	4.97
583.728	4.91
584.067	5.03
584.406	5.21
584.745	4.87
585.083	5.48
585.422	5.43
585.761	5.31
586.1	5.25
586.438	5.06
586.777	5.56
587.115	5.53
587.454	5.13
587.792	5.38
588.13	5.28
588.469	5.1
588.807	5.38
589.145	5.42
589.483	5.38
589.821	5.42
590.159	5.36
590.497	5.57
590.835	5.68
591.173	5.45
591.511	5.66
591.849	5.64
592.187	5.71
592.524	5.75
592.862	5.73
593.2	5.49
593.537	5.71
593.875	5.57
594.212	5.82
594.55	5.98
594.887	5.58
595.224	5.66
595.561	5.76
595.899	5.93
596.236	6
596.573	5.88
596.91	5.84
597.247	5.86
597.584	5.98
597.921	6.1
598.258	6.08
598.594	6.04
598.931	6.06
599.268	6.07
599.604	5.95
599.941	5.93
600.277	5.94
600.614	5.93
600.95	6.26
601.287	6
601.623	6.26
601.959	6.27
602.296	6.19
602.632	6.11
602.968	6.18
603.304	6.28
603.64	6.26
603.976	6.38
604.312	6.44
604.648	6.41
604.984	6.41
605.319	6.36
605.655	6.35
605.991	6.36
606.326	6.69
606.662	6.19
606.998	6.42
607.333	6.41
607.668	6.33
608.004	6.5
608.339	6.45
608.674	6.56
609.01	6.68
609.345	6.59
609.68	6.88
610.015	6.61
610.35	6.55
610.685	6.97
611.02	6.71
611.355	7.06
611.689	6.74
612.024	6.82
612.359	6.49
612.694	6.6
613.028	6.8
613.363	6.72
613.697	6.9
614.032	6.89
614.366	6.85
614.7	6.75
615.035	7.13
615.369	6.89
615.703	7.02
616.037	6.9
616.371	6.99
616.705	7.33
617.039	7.31
617.373	6.91
617.707	6.96
618.041	7.37
618.375	7.31
618.709	7.33
619.042	7.27
619.376	7.39
619.71	7.42
620.043	7.06
620.377	7.17
620.71	7.62
621.043	7.82
621.377	7.35
621.71	7.71
622.043	7.33
622.376	7.71
622.709	7.32
623.043	7.59
623.376	7.63
623.709	7.85
624.041	7.66
624.374	7.53
624.707	7.45
625.04	7.84
625.373	7.62
625.705	7.61
626.038	7.9
626.37	7.85
626.703	7.9
627.035	7.95
627.368	7.78
627.7	8.22
628.032	8.08
628.365	7.95
628.697	8.06
629.029	8.1
629.361	8
629.693	8.08
630.025	8.14
630.357	7.88
630.689	8.2
631.021	8.31
631.353	7.99
631.684	8.14
632.016	8.31
632.348	8.13
632.679	7.96
633.011	8.19
633.342	8.19
633.674	8.45
634.005	8.06
634.336	8.41
634.668	8.73
634.999	8.62
635.33	8.72
635.661	8.53
635.992	8.36
636.323	8.4
636.654	8.12
636.985	8.25
637.316	8.58
637.647	8.58
637.977	8.1
638.308	8.8
638.639	8.72
638.969	9.09
639.3	8.99
639.63	9.07
639.961	8.25
640.291	8.78
640.622	9.23
640.952	9.12
641.282	8.85
641.612	8.92
641.943	9.21
642.273	8.94
642.603	8.85
642.933	8.93
643.263	8.24
643.592	9.17
643.922	8.87
644.252	8.92
644.582	9.4
644.911	9.48
645.241	9.73
645.571	8.97
645.9	9.33
646.23	9.83
646.559	9.76
646.888	9.28
647.218	9.19
647.547	9.5
647.876	9.46
648.205	9.06
648.534	9.92
648.863	9.27
649.192	9.43
649.521	9.39
649.85	9.83
650.179	9.46
650.508	9.31
650.837	10.04
651.165	9.73
651.494	9.42
651.822	9.71
652.151	9.32
652.479	9.8
652.808	9.81
653.136	10.22
653.465	9.43
653.793	9.69
654.121	9.84
654.449	9.56
654.777	10.03
655.105	10.05
655.433	10.28
655.761	10.33
656.089	10.12
656.417	10.08
656.745	10.44
657.073	10.17
657.4	10.92
657.728	10.09
658.056	10.17
658.383	10.68
658.711	10.43
659.038	10.21
659.365	10.08
659.693	9.75
660.02	10.62
660.347	10.57
660.674	10.47
661.001	10.3
661.329	10.16
661.656	10.45
661.982	10.22
662.309	10.65
662.636	10.36
662.963	10.11
663.29	10.64
663.616	10.48
663.943	11.04
664.27	10.8
664.596	10.66
664.923	10.61
665.249	10.51
665.576	10.5
665.902	10.78
666.228	10.55
666.554	10.54
666.881	11.28
667.207	10.93
667.533	10.49
667.859	10.53
668.185	10.86
668.511	11.55
668.837	11.02
669.162	10.94
669.488	10.97
669.814	10.8
670.139	11.24
670.465	11.54
670.791	10.75
671.116	10.99
671.442	11.66
671.767	10.74
672.092	11.76
672.418	11.29
672.743	11.53
673.068	11.3
673.393	10.76
673.718	11.8
674.043	12.07
674.368	11.81
674.693	11.17
675.018	11.52
675.343	11.24
675.667	11.18
675.992	11.59
676.317	12.14
676.641	11.37
676.966	12.19
677.29	11.43
677.615	11.79
677.939	11.81
678.264	11.51
678.588	12.26
678.912	11.9
679.236	12.1
679.56	11.94
679.885	11.49
680.209	12.27
680.532	12.05
680.856	11.73
681.18	12.65
681.504	12.17
681.828	12.22
682.152	11.97
682.475	12.53
682.799	12.1
683.122	12.26
683.446	12.29
683.769	12.01
684.093	12.54
684.416	12.54
684.739	12.76
685.062	12.93
685.386	12.66
685.709	12.35
686.032	11.79
686.355	12.52
686.678	12.71
687.001	12.58
687.324	12.9
687.646	12.09
687.969	13.26
688.292	12.73
688.614	13.42
688.937	12.98
689.26	12.26
689.582	12.28
689.904	12.73
