Data from 0211_crown_Reflection__0__257.txt Node

Date: Fri Sep 22 22:50:18 CDT 2023
User: ToomeyLab
Spectrometer: FLMS14357
Trigger mode: 0
Integration Time (sec): 1.000000E-2
Scans to average: 100
Electric dark correction enabled: true
Nonlinearity correction enabled: false
Boxcar width: 0
XAxis mode: Wavelengths
Number of Pixels in Spectrum: 2048
>>>>>Begin Spectral Data<<<<<
189.047	-360.39
189.435	-360.39
189.823	-360.39
190.211	-68.31
190.599	-329.98
190.987	8.51
191.375	-108.67
191.763	196.22
192.151	12.71
192.538	17.65
192.926	367.33
193.314	92.46
193.702	-2679.31
194.089	-928.65
194.477	693.56
194.864	70.89
195.252	237.42
195.639	307.06
196.027	211.15
196.414	152.33
196.801	11.1
197.189	773.6
197.576	191.51
197.963	151.89
198.351	-16.23
198.738	5.57
199.125	-15.44
199.512	-6.64
199.899	38.24
200.286	26.84
200.673	40.9
201.06	13.33
201.447	22.62
201.833	-4.39
202.22	25.49
202.607	7.31
202.994	47.44
203.38	-7.26
203.767	-13.9
204.154	42.41
204.54	36.37
204.927	33.7
205.313	13.24
205.699	42.7
206.086	24.89
206.472	34.32
206.858	37.58
207.245	-16.35
207.631	45.22
208.017	20.66
208.403	12.06
208.789	30.99
209.175	31.17
209.561	60.76
209.947	53.53
210.333	24.73
210.719	0.81
211.105	24.61
211.491	15.77
211.876	38.02
212.262	36.72
212.648	3.24
213.034	31.82
213.419	6.01
213.805	-20.6
214.19	13.46
214.576	26.11
214.961	14.99
215.346	6.28
215.732	17.25
216.117	15.28
216.502	29.43
216.888	9
217.273	5.6
217.658	10.27
218.043	24
218.428	14.01
218.813	-6.18
219.198	-19.03
219.583	22.13
219.968	-1.11
220.353	31.54
220.738	-13.24
221.122	-3.06
221.507	-5.32
221.892	13.5
222.276	5.88
222.661	-12.53
223.046	26.56
223.43	22.51
223.815	7.21
224.199	0.26
224.583	12
224.968	24.03
225.352	-10.07
225.736	10.98
226.121	15.96
226.505	1.21
226.889	11.56
227.273	9.02
227.657	2.41
228.041	5.26
228.425	13.54
228.809	6.92
229.193	3.01
229.577	7.94
229.961	6.15
230.344	8.6
230.728	4.07
231.112	7.64
231.495	5.88
231.879	6.58
232.263	4.03
232.646	5.99
233.03	4.9
233.413	7.32
233.797	5.77
234.18	6.44
234.563	9.26
234.946	8.44
235.33	4.41
235.713	3.11
236.096	5.24
236.479	5.9
236.862	6.68
237.245	6.77
237.628	6.57
238.011	7.96
238.394	5.63
238.777	8.62
239.16	5.55
239.543	6.7
239.925	7.3
240.308	5.38
240.691	7.06
241.073	8.05
241.456	6.04
241.838	5.91
242.221	5.33
242.603	6.03
242.986	6.29
243.368	6.05
243.75	6.03
244.133	6.06
244.515	5.7
244.897	5.38
245.279	5.21
245.661	5.08
246.043	5.99
246.425	4.85
246.807	5.86
247.189	4.81
247.571	6.66
247.953	6.08
248.335	5.71
248.717	5.4
249.098	5.38
249.48	5.17
249.862	5.24
250.243	5.49
250.625	5.58
251.006	4.83
251.388	5.39
251.769	5.26
252.151	4.6
252.532	4.8
252.913	5.45
253.295	6.94
253.676	5.29
254.057	5.63
254.438	5.5
254.819	4.9
255.2	5.46
255.581	4.28
255.962	6.01
256.343	5.09
256.724	4.93
257.105	4.53
257.486	4.7
257.867	4.23
258.247	5.72
258.628	6.14
259.009	5.23
259.389	4.94
259.77	5.5
260.15	6.08
260.531	4.66
260.911	4.62
261.292	5.27
261.672	4.49
262.052	4.77
262.432	4.63
262.813	4.64
263.193	4.95
263.573	5.37
263.953	5.09
264.333	4.83
264.713	4.87
265.093	4.84
265.473	4.61
265.853	4.26
266.233	5.05
266.612	4.02
266.992	4.63
267.372	4.64
267.752	6.05
268.131	4.49
268.511	4.4
268.89	5.17
269.27	4.47
269.649	4.24
270.029	4.52
270.408	4.75
270.787	4.55
271.167	5.11
271.546	4.5
271.925	4.26
272.304	4.21
272.683	4.66
273.062	5.18
273.441	4.73
273.82	4.92
274.199	4.76
274.578	4.86
274.957	4.68
275.336	4.42
275.715	4.65
276.093	4.15
276.472	4.26
276.851	4.68
277.229	4.1
277.608	4.62
277.986	4.21
278.365	4.62
278.743	4.45
279.122	4.05
279.5	5.01
279.878	4.6
280.257	4.78
280.635	4.23
281.013	4.89
281.391	3.47
281.769	4.5
282.147	4.71
282.525	4.26
282.903	4.8
283.281	4.61
283.659	4.72
284.037	4.1
284.415	4.19
284.792	4.27
285.17	4.55
285.548	4.89
285.925	4.04
286.303	4.37
286.68	3.58
287.058	4.13
287.435	4.23
287.813	4.16
288.19	4.1
288.567	4.2
288.945	4.16
289.322	4.26
289.699	3.68
290.076	4.2
290.453	4.19
290.83	3.71
291.207	4.18
291.584	3.79
291.961	4.02
292.338	4.1
292.715	3.95
293.092	3.75
293.469	3.86
293.845	3.69
294.222	4.03
294.599	4.17
294.975	4.16
295.352	3.89
295.728	3.88
296.105	4.5
296.481	3.87
296.858	4.27
297.234	3.69
297.61	4.05
297.986	3.62
298.363	3.87
298.739	3.91
299.115	3.93
299.491	3.97
299.867	3.87
300.243	3.53
300.619	3.72
300.995	3.94
301.371	3.92
301.746	4.05
302.122	3.7
302.498	3.8
302.874	3.88
303.249	3.74
303.625	3.38
304	3.9
304.376	4.29
304.751	4.04
305.127	3.63
305.502	3.88
305.878	3.8
306.253	4.17
306.628	3.55
307.003	4.26
307.378	3.79
307.754	3.36
308.129	3.8
308.504	3.36
308.879	4.3
309.254	3.67
309.629	3.83
310.003	3.71
310.378	3.85
310.753	3.5
311.128	3.77
311.502	3.8
311.877	3.46
312.252	3.58
312.626	3.41
313.001	3.86
313.375	3.69
313.75	3.85
314.124	3.98
314.498	3.46
314.873	3.89
315.247	3.58
315.621	3.88
315.995	3.64
316.369	3.71
316.743	3.78
317.117	3.8
317.491	4.33
317.865	3.22
318.239	4.01
318.613	3.67
318.987	3.69
319.361	3.84
319.734	3.7
320.108	3.67
320.482	3.26
320.855	3.55
321.229	4.67
321.602	4.02
321.976	3.63
322.349	3.76
322.723	3.57
323.096	4.22
323.469	3.45
323.843	3.31
324.216	3.69
324.589	3.41
324.962	3.35
325.335	3.74
325.708	3.4
326.081	4
326.454	3.32
326.827	3.84
327.2	3.49
327.573	3.94
327.945	3.43
328.318	3.42
328.691	3.43
329.063	3.91
329.436	3.47
329.809	4.01
330.181	3.77
330.553	3.87
330.926	3.29
331.298	3.59
331.671	4.24
332.043	3.28
332.415	3.29
332.787	4.56
333.159	3.35
333.532	3.63
333.904	3.82
334.276	3.28
334.648	3.32
335.02	3.36
335.391	3.84
335.763	4.37
336.135	3.57
336.507	3.58
336.879	3.23
337.25	3.6
337.622	3.81
337.993	3.81
338.365	4.38
338.736	3.7
339.108	3.8
339.479	3.45
339.851	3.21
340.222	3.46
340.593	3.5
340.964	3.48
341.336	3.33
341.707	3.28
342.078	3.8
342.449	3.6
342.82	3.16
343.191	3.55
343.562	3.34
343.933	3.41
344.303	3.57
344.674	3.52
345.045	3.19
345.416	3.84
345.786	3.39
346.157	3.83
346.527	3.51
346.898	3.2
347.268	3.59
347.639	3.92
348.009	3.45
348.38	3.85
348.75	3.93
349.12	3.44
349.49	4.12
349.861	3.91
350.231	3.64
350.601	3.67
350.971	3.93
351.341	3.67
351.711	3.5
352.081	3.53
352.45	3.8
352.82	4.05
353.19	3.72
353.56	3.93
353.929	3.8
354.299	3.39
354.669	3.71
355.038	3.55
355.408	3.4
355.777	4.06
356.147	3.91
356.516	4.08
356.885	3.61
357.254	3.59
357.624	3.33
357.993	3.88
358.362	3.69
358.731	3.56
359.1	3.46
359.469	3.73
359.838	3.48
360.207	3.53
360.576	3.79
360.945	3.59
361.314	3.63
361.682	4.08
362.051	4.06
362.42	3.91
362.788	3.66
363.157	3.79
363.525	3.66
363.894	3.66
364.262	3.82
364.631	3.65
364.999	3.85
365.367	4.05
365.735	3.91
366.104	3.78
366.472	4.06
366.84	3.53
367.208	4.27
367.576	4.09
367.944	3.55
368.312	3.74
368.68	3.92
369.048	4.25
369.416	3.78
369.783	3.58
370.151	3.74
370.519	3.81
370.886	3.88
371.254	4.02
371.621	3.73
371.989	3.96
372.356	3.41
372.724	4
373.091	3.94
373.458	3.88
373.826	4.11
374.193	3.92
374.56	4.07
374.927	3.97
375.294	3.43
375.661	3.93
376.028	4.16
376.395	3.96
376.762	4.09
377.129	4.18
377.496	4.2
377.863	4.06
378.229	3.94
378.596	3.81
378.963	4.42
379.329	3.87
379.696	4.22
380.062	3.66
380.429	4.04
380.795	4.02
381.161	3.68
381.528	3.85
381.894	4.12
382.26	4.29
382.626	3.99
382.993	4.06
383.359	3.78
383.725	4.18
384.091	4.11
384.457	3.78
384.823	3.77
385.188	4.31
385.554	4.05
385.92	4.35
386.286	3.83
386.651	3.73
387.017	4.09
387.383	3.9
387.748	3.98
388.114	4.01
388.479	4.19
388.845	3.69
389.21	3.93
389.575	4.27
389.94	4.05
390.306	4.1
390.671	4.29
391.036	3.71
391.401	4.31
391.766	3.96
392.131	3.97
392.496	3.94
392.861	4.17
393.226	4.26
393.591	4.06
393.956	4.33
394.32	4.11
394.685	3.91
395.05	4.18
395.414	4.36
395.779	4.19
396.143	4.16
396.508	3.85
396.872	4.06
397.236	4.2
397.601	3.98
397.965	4.44
398.329	4.37
398.694	4.18
399.058	3.99
399.422	4.01
399.786	4.24
400.15	4.18
400.514	4.4
400.878	4.16
401.242	4.15
401.605	4.15
401.969	3.87
402.333	4.18
402.697	4.1
403.06	4.4
403.424	4.45
403.787	4.47
404.151	4.12
404.514	4.54
404.878	4.36
405.241	4.25
405.604	4.41
405.968	4.43
406.331	4.12
406.694	4.37
407.057	4.02
407.42	4.17
407.783	4.45
408.146	4.22
408.509	4.03
408.872	4.24
409.235	4.44
409.598	4.26
409.961	4.28
410.323	4.27
410.686	4.19
411.049	4.64
411.411	4.38
411.774	4.17
412.136	4.03
412.499	4.29
412.861	4.29
413.223	4.39
413.586	4.22
413.948	4.28
414.31	4.07
414.672	4.34
415.035	4.18
415.397	4.54
415.759	4.43
416.121	4.26
416.483	4.27
416.845	4.33
417.206	4.28
417.568	4.34
417.93	4.25
418.292	4.29
418.653	4.2
419.015	4.41
419.377	4.14
419.738	4.27
420.1	4.37
420.461	4.35
420.822	4.36
421.184	4.24
421.545	4.27
421.906	4.32
422.267	4.09
422.629	4.29
422.99	4.22
423.351	4.13
423.712	4.11
424.073	4.18
424.434	4.25
424.795	4.24
425.155	4.33
425.516	4.18
425.877	4.15
426.238	4.1
426.598	4.15
426.959	4.24
427.32	4.21
427.68	4.17
428.041	4.2
428.401	4.24
428.761	4.24
429.122	4.23
429.482	4.43
429.842	4.25
430.202	4.27
430.563	4.38
430.923	4.46
431.283	4.48
431.643	4.47
432.003	4.54
432.363	4.48
432.722	4.4
433.082	4.51
433.442	4.3
433.802	4.44
434.161	4.42
434.521	4.38
434.881	4.45
435.24	4.42
435.6	4.4
435.959	4.29
436.319	4.34
436.678	4.48
437.037	4.43
437.396	4.18
437.756	4.46
438.115	4.43
438.474	4.37
438.833	4.35
439.192	4.47
439.551	4.4
439.91	4.58
440.269	4.51
440.628	4.39
440.987	4.38
441.345	4.49
441.704	4.51
442.063	4.39
442.421	4.39
442.78	4.43
443.138	4.4
443.497	4.32
443.855	4.4
444.214	4.32
444.572	4.46
444.93	4.4
445.288	4.4
445.647	4.47
446.005	4.41
446.363	4.37
446.721	4.48
447.079	4.33
447.437	4.34
447.795	4.4
448.153	4.27
448.51	4.37
448.868	4.32
449.226	4.35
449.584	4.34
449.941	4.26
450.299	4.45
450.656	4.5
451.014	4.48
451.371	4.48
451.729	4.41
452.086	4.44
452.443	4.56
452.801	4.5
453.158	4.44
453.515	4.6
453.872	4.47
454.229	4.56
454.586	4.39
454.943	4.4
455.3	4.48
455.657	4.42
456.014	4.49
456.371	4.45
456.727	4.66
457.084	4.55
457.441	4.53
457.797	4.67
458.154	4.51
458.51	4.42
458.867	4.56
459.223	4.41
459.58	4.69
459.936	4.47
460.292	4.5
460.648	4.56
461.005	4.54
461.361	4.56
461.717	4.34
462.073	4.38
462.429	4.28
462.785	4.37
463.141	4.47
463.496	4.54
463.852	4.51
464.208	4.45
464.564	4.64
464.919	4.45
465.275	4.72
465.631	4.73
465.986	4.65
466.342	4.64
466.697	4.51
467.052	4.52
467.408	4.64
467.763	4.65
468.118	4.86
468.473	4.7
468.829	4.6
469.184	4.47
469.539	4.55
469.894	4.59
470.249	4.61
470.603	4.62
470.958	4.47
471.313	4.68
471.668	4.74
472.023	4.6
472.377	4.65
472.732	4.46
473.086	4.64
473.441	4.4
473.795	4.83
474.15	4.45
474.504	4.61
474.859	4.61
475.213	4.35
475.567	4.47
475.921	4.64
476.275	4.57
476.63	4.44
476.984	4.64
477.338	4.64
477.692	4.59
478.045	4.71
478.399	4.72
478.753	4.53
479.107	4.6
479.461	4.52
479.814	4.71
480.168	4.64
480.521	4.52
480.875	4.63
481.228	4.57
481.582	4.51
481.935	4.52
482.289	4.52
482.642	4.52
482.995	4.56
483.348	4.64
483.701	4.53
484.055	4.55
484.408	4.46
484.761	4.58
485.114	4.4
485.466	4.23
485.819	4.3
486.172	4.18
486.525	4.19
486.878	4.22
487.23	4.27
487.583	4.38
487.936	4.38
488.288	4.45
488.641	4.39
488.993	4.32
489.345	4.35
489.698	4.33
490.05	4.31
490.402	4.31
490.754	4.27
491.107	4.37
491.459	4.45
491.811	4.48
492.163	4.43
492.515	4.51
492.866	4.4
493.218	4.49
493.57	4.47
493.922	4.31
494.274	4.34
494.625	4.33
494.977	4.49
495.328	4.52
495.68	4.57
496.031	4.47
496.383	4.57
496.734	4.55
497.086	4.58
497.437	4.64
497.788	4.59
498.139	4.61
498.49	4.71
498.842	4.43
499.193	4.43
499.544	4.53
499.894	4.48
500.245	4.6
500.596	4.45
500.947	4.51
501.298	4.59
501.648	4.6
501.999	4.68
502.35	4.54
502.7	4.71
503.051	4.57
503.401	4.65
503.752	4.64
504.102	4.6
504.452	4.58
504.803	4.55
505.153	4.53
505.503	4.58
505.853	4.76
506.203	4.64
506.553	4.56
506.903	4.52
507.253	4.56
507.603	4.63
507.953	4.63
508.303	4.68
508.652	4.49
509.002	4.72
509.352	4.55
509.701	4.65
510.051	4.56
510.4	4.5
510.75	4.57
511.099	4.46
511.449	4.53
511.798	4.55
512.147	4.57
512.496	4.48
512.846	4.52
513.195	4.41
513.544	4.57
513.893	4.55
514.242	4.54
514.591	4.48
514.939	4.57
515.288	4.57
515.637	4.61
515.986	4.39
516.334	4.56
516.683	4.53
517.032	4.65
517.38	4.49
517.729	4.51
518.077	4.65
518.426	4.55
518.774	4.54
519.122	4.53
519.47	4.39
519.819	4.58
520.167	4.55
520.515	4.53
520.863	4.37
521.211	4.47
521.559	4.51
521.907	4.5
522.255	4.5
522.602	4.48
522.95	4.43
523.298	4.68
523.645	4.53
523.993	4.44
524.341	4.45
524.688	4.44
525.036	4.64
525.383	4.61
525.73	4.63
526.078	4.56
526.425	4.5
526.772	4.56
527.119	4.39
527.466	4.36
527.814	4.38
528.161	4.3
528.508	4.4
528.854	4.41
529.201	4.5
529.548	4.49
529.895	4.33
530.242	4.31
530.588	4.22
530.935	4.16
531.282	4.2
531.628	4.26
531.975	4.26
532.321	4.31
532.667	4.33
533.014	4.35
533.36	4.43
533.706	4.42
534.052	4.58
534.399	4.45
534.745	4.45
535.091	4.29
535.437	4.31
535.783	4.22
536.129	4.26
536.474	4.38
536.82	4.27
537.166	4.44
537.512	4.41
537.857	4.36
538.203	4.49
538.549	4.35
538.894	4.36
539.239	4.38
539.585	4.31
539.93	4.49
540.276	4.43
540.621	4.35
540.966	4.47
541.311	4.49
541.656	4.44
542.001	4.4
542.346	4.4
542.691	4.29
543.036	4.33
543.381	4.28
543.726	4.24
544.071	4.27
544.415	4.28
544.76	4.28
545.105	4.22
545.449	4.24
545.794	4.34
546.138	4.38
546.483	4.39
546.827	4.31
547.171	4.31
547.516	4.37
547.86	4.47
548.204	4.39
548.548	4.32
548.892	4.47
549.236	4.35
549.58	4.37
549.924	4.51
550.268	4.53
550.612	4.44
550.956	4.42
551.3	4.57
551.643	4.49
551.987	4.35
552.33	4.54
552.674	4.44
553.017	4.37
553.361	4.45
553.704	4.5
554.048	4.37
554.391	4.5
554.734	4.51
555.077	4.36
555.42	4.56
555.764	4.39
556.107	4.5
556.45	4.42
556.793	4.34
557.135	4.59
557.478	4.46
557.821	4.56
558.164	4.41
558.507	4.65
558.849	4.35
559.192	4.56
559.534	4.71
559.877	4.44
560.219	4.51
560.562	4.53
560.904	4.43
561.246	4.51
561.589	4.54
561.931	4.36
562.273	4.32
562.615	4.51
562.957	4.39
563.299	4.52
563.641	4.4
563.983	4.47
564.325	4.45
564.667	4.42
565.008	4.51
565.35	4.47
565.692	4.42
566.033	4.29
566.375	4.4
566.716	4.43
567.058	4.45
567.399	4.46
567.741	4.51
568.082	4.36
568.423	4.37
568.764	4.62
569.105	4.23
569.447	4.32
569.788	4.12
570.129	4.4
570.47	4.34
570.811	4.46
571.151	4.54
571.492	4.3
571.833	4.35
572.174	4.2
572.514	4.35
572.855	4.34
573.195	4.25
573.536	4.38
573.876	4.31
574.217	4.21
574.557	4.24
574.898	4.44
575.238	4.32
575.578	4.33
575.918	4.27
576.258	4.29
576.598	4.33
576.938	4.29
577.278	4.51
577.618	4.2
577.958	4.4
578.298	4.41
578.638	4.18
578.977	4.29
579.317	4.32
579.657	4.31
579.996	4.26
580.336	4.49
580.675	4.37
581.014	4.33
581.354	4.37
581.693	4.3
582.032	4.49
582.372	4.3
582.711	4.46
583.05	4.34
583.389	4.49
583.728	4.44
584.067	4.42
584.406	4.59
584.745	4.1
585.083	4.63
585.422	4.5
585.761	4.36
586.1	4.33
586.438	4.28
586.777	4.24
587.115	4.41
587.454	4.16
587.792	4.57
588.13	4.41
588.469	4.3
588.807	4.55
589.145	4.39
589.483	4.31
589.821	4.41
590.159	4.34
590.497	4.43
590.835	4.39
591.173	4.29
591.511	4.12
591.849	4.39
592.187	4.13
592.524	4.57
592.862	4.44
593.2	4.31
593.537	4.12
593.875	4.22
594.212	4.28
594.55	4.46
594.887	4.26
595.224	4.51
595.561	4.54
595.899	4.57
596.236	4.6
596.573	4.45
596.91	4.47
597.247	4.29
597.584	4.48
597.921	4.39
598.258	4.38
598.594	4.23
598.931	4.21
599.268	4.28
599.604	4.24
599.941	4.3
600.277	4.2
600.614	4.18
600.95	4.27
601.287	4.13
601.623	4.09
601.959	4.5
602.296	4.36
602.632	4.15
602.968	4.3
603.304	4.34
603.64	4.18
603.976	4.28
604.312	4.05
604.648	4.2
604.984	4.13
605.319	4.09
605.655	4.22
605.991	4.26
606.326	4.41
606.662	4.07
606.998	4.15
607.333	4.25
607.668	4.07
608.004	4.24
608.339	3.98
608.674	4.37
609.01	4.43
609.345	4.38
609.68	4.23
610.015	4.36
610.35	4.16
610.685	4.2
611.02	4.19
611.355	4.28
611.689	4.35
612.024	4.18
612.359	4.02
612.694	4.11
613.028	4
613.363	4.06
613.697	3.97
614.032	4.02
614.366	4.24
614.7	3.94
615.035	4.33
615.369	4.37
615.703	3.96
616.037	4.04
616.371	4.45
616.705	4.4
617.039	4.33
617.373	3.93
617.707	4.1
618.041	4.57
618.375	4.29
618.709	4.09
619.042	4.31
619.376	4.26
619.71	4.41
620.043	3.96
620.377	3.94
620.71	4.27
621.043	4.44
621.377	3.94
621.71	4.16
622.043	4.26
622.376	4.48
622.709	4.64
623.043	4.55
623.376	4.3
623.709	4.31
624.041	4.15
624.374	4.2
624.707	4.23
625.04	4.23
625.373	3.88
625.705	4.13
626.038	3.99
626.37	4.31
626.703	4.42
627.035	4.32
627.368	4.5
627.7	4.68
628.032	4.19
628.365	4.41
628.697	4.28
629.029	4.35
629.361	4.14
629.693	4.26
630.025	4.17
630.357	4.17
630.689	4.1
631.021	4
631.353	4.37
631.684	4.07
632.016	4.29
632.348	4.13
632.679	4.04
633.011	4.04
633.342	4.34
633.674	4.49
634.005	4.1
634.336	4.4
634.668	4.46
634.999	4.46
635.33	4.28
635.661	4.23
635.992	3.93
636.323	4.09
636.654	3.88
636.985	4.03
637.316	3.88
637.647	4.38
637.977	3.65
638.308	4.58
638.639	4.02
638.969	4.33
639.3	4.02
639.63	4.24
639.961	3.84
640.291	4
640.622	4.16
640.952	4.59
641.282	4.67
641.612	4.31
641.943	4.55
642.273	4.41
642.603	4.04
642.933	4.01
643.263	3.75
643.592	4.08
643.922	4.28
644.252	4.03
644.582	4.47
644.911	4.04
645.241	4.19
645.571	4.09
645.9	4.24
646.23	4.25
646.559	4.78
646.888	4.5
647.218	4.05
647.547	4.06
647.876	4.33
648.205	3.88
648.534	4.35
648.863	3.65
649.192	4.01
649.521	4.29
649.85	4.64
650.179	4.48
650.508	3.6
650.837	4.27
651.165	3.86
651.494	4.23
651.822	4.15
652.151	4.04
652.479	4.17
652.808	3.91
653.136	4.6
653.465	4.21
653.793	3.75
654.121	4.29
654.449	3.69
654.777	4.21
655.105	4.51
655.433	4.3
655.761	4.53
656.089	4.23
656.417	4.18
656.745	4.22
657.073	4.36
657.4	4.47
657.728	4.37
658.056	4.37
658.383	4.01
658.711	3.85
659.038	4.08
659.365	4.17
659.693	3.84
660.02	4.27
660.347	4.28
660.674	4.01
661.001	3.86
661.329	3.85
661.656	4.19
661.982	4.36
662.309	4.53
662.636	4.03
662.963	4.36
663.29	4.31
663.616	4.25
663.943	4.41
664.27	4.55
664.596	4.36
664.923	3.84
665.249	4.07
665.576	3.74
665.902	4.08
666.228	3.53
666.554	3.88
666.881	4.77
667.207	3.9
667.533	4.24
667.859	4.02
668.185	4.27
668.511	4.78
668.837	3.67
669.162	4.3
669.488	4.3
669.814	4.29
670.139	3.67
670.465	4.64
670.791	4.66
671.116	3.83
671.442	4.75
671.767	3.52
672.092	4.51
672.418	4.51
672.743	4.38
673.068	4.74
673.393	3.79
673.718	4.37
674.043	4.43
674.368	4.33
674.693	4.22
675.018	4.23
675.343	4.26
675.667	3.84
675.992	3.8
676.317	4.75
676.641	4.58
676.966	4.34
677.29	4.49
677.615	4.18
677.939	4.55
678.264	4.36
678.588	4.85
678.912	3.86
679.236	4.42
679.56	4.6
679.885	3.57
680.209	4.58
680.532	4.3
680.856	3.84
681.18	4.47
681.504	4.26
681.828	4.6
682.152	4.21
682.475	4.97
682.799	4.63
683.122	4.32
683.446	4.35
683.769	4.7
684.093	4.6
684.416	4.55
684.739	4.49
685.062	4.56
685.386	4.14
685.709	3.67
686.032	3.68
686.355	4.22
686.678	4.54
687.001	4.55
687.324	4.56
687.646	4.38
687.969	4.93
688.292	4.59
688.614	4.83
688.937	4.34
689.26	3.83
689.582	4.55
689.904	4.79
690.227	5.11
690.549	4.7
690.871	4.42
691.194	4.98
691.516	4.12
691.838	4.58
692.16	3.98
692.482	3.84
692.804	3.27
