Data from 0211_crown_Reflection__2__259.txt Node

Date: Fri Sep 22 22:50:36 CDT 2023
User: ToomeyLab
Spectrometer: FLMS14357
Trigger mode: 0
Integration Time (sec): 1.000000E-2
Scans to average: 100
Electric dark correction enabled: true
Nonlinearity correction enabled: false
Boxcar width: 0
XAxis mode: Wavelengths
Number of Pixels in Spectrum: 2048
>>>>>Begin Spectral Data<<<<<
189.047	335.96
189.435	335.96
189.823	335.96
190.211	-127.39
190.599	358.83
190.987	47.26
191.375	-141.43
191.763	430.05
192.151	43.82
192.538	-359.33
192.926	145.29
193.314	56.11
193.702	-14144.83
194.089	-368.48
194.477	398.62
194.864	114.27
195.252	217.8
195.639	-178.46
196.027	110.5
196.414	209.48
196.801	3.33
197.189	1646.4
197.576	154.7
197.963	94.69
198.351	49.63
198.738	19.49
199.125	33.57
199.512	-0.57
199.899	59.69
200.286	7.91
200.673	12.47
201.06	31.28
201.447	24.14
201.833	-33.79
202.22	15.03
202.607	18.28
202.994	24.52
203.38	22.8
203.767	17.42
204.154	27.85
204.54	20.86
204.927	-14.33
205.313	16.4
205.699	46.79
206.086	22.53
206.472	33.55
206.858	39.09
207.245	6.08
207.631	46.54
208.017	11.39
208.403	-6.11
208.789	47.89
209.175	42.36
209.561	54.55
209.947	31.29
210.333	20.09
210.719	1.4
211.105	34.23
211.491	50.46
211.876	54.27
212.262	24.13
212.648	7.06
213.034	31.35
213.419	19.71
213.805	32.04
214.19	2.41
214.576	5.9
214.961	15.87
215.346	19.85
215.732	45.95
216.117	3.01
216.502	22.37
216.888	30.85
217.273	22.8
217.658	-1.06
218.043	15.16
218.428	52.79
218.813	-1.85
219.198	-1.29
219.583	37.66
219.968	-1.33
220.353	21.86
220.738	-0.41
221.122	21.15
221.507	-3.48
221.892	16.52
222.276	-2.34
222.661	-5.84
223.046	22.12
223.43	21.62
223.815	12.85
224.199	-3.9
224.583	13.29
224.968	30.76
225.352	5.86
225.736	9.49
226.121	14.58
226.505	17.37
226.889	13.55
227.273	6.36
227.657	9.45
228.041	11.03
228.425	15.21
228.809	8.46
229.193	10.53
229.577	13.54
229.961	12.97
230.344	11.8
230.728	10.13
231.112	11.07
231.495	9.88
231.879	10.3
232.263	9.06
232.646	9.11
233.03	9.67
233.413	10.24
233.797	11.05
234.18	10.2
234.563	10.53
234.946	10.95
235.33	8.36
235.713	8.94
236.096	9.02
236.479	11.4
236.862	9.47
237.245	8.66
237.628	10.41
238.011	10.4
238.394	10.51
238.777	9.72
239.16	10.56
239.543	11.64
239.925	8.68
240.308	9.45
240.691	9.76
241.073	11.44
241.456	9.75
241.838	9.06
242.221	9.81
242.603	9.8
242.986	9.7
243.368	8.78
243.75	9.58
244.133	9.82
244.515	9.45
244.897	9.21
245.279	8.85
245.661	9.04
246.043	9.09
246.425	8.8
246.807	9.28
247.189	8.02
247.571	10.19
247.953	9.64
248.335	9.22
248.717	9.07
249.098	9.09
249.48	8.99
249.862	8.89
250.243	8.93
250.625	9.15
251.006	8.76
251.388	9.01
251.769	9.25
252.151	9.44
252.532	9.46
252.913	8.4
253.295	9.21
253.676	9.06
254.057	9.11
254.438	9.03
254.819	8.29
255.2	9.1
255.581	8.6
255.962	9.86
256.343	8.75
256.724	8.09
257.105	8.32
257.486	8.55
257.867	8.64
258.247	8.76
258.628	9.16
259.009	8.24
259.389	8.37
259.77	8.55
260.15	9.64
260.531	8.11
260.911	8.17
261.292	8.05
261.672	8.26
262.052	8.15
262.432	8.14
262.813	8.41
263.193	7.98
263.573	8.66
263.953	8.58
264.333	7.8
264.713	8.06
265.093	7.82
265.473	8.3
265.853	7.38
266.233	8.19
266.612	8.69
266.992	8.53
267.372	8.22
267.752	8.19
268.131	8.12
268.511	7.47
268.89	8.07
269.27	8.26
269.649	7.59
270.029	7.93
270.408	8.2
270.787	7.79
271.167	7.81
271.546	7.36
271.925	7.93
272.304	7.8
272.683	7.8
273.062	8.23
273.441	7.98
273.82	8.3
274.199	8.08
274.578	8.12
274.957	7.82
275.336	7.88
275.715	8.08
276.093	7.37
276.472	7.74
276.851	7.54
277.229	7.23
277.608	8.24
277.986	7.39
278.365	8.16
278.743	7.99
279.122	7.34
279.5	8.42
279.878	7.42
280.257	8.1
280.635	7.43
281.013	7.77
281.391	7.23
281.769	7.12
282.147	7.92
282.525	7.41
282.903	7.38
283.281	7.62
283.659	7.35
284.037	7.29
284.415	7.43
284.792	7.49
285.17	7.33
285.548	7.61
285.925	7.37
286.303	7.28
286.68	6.55
287.058	7.14
287.435	6.88
287.813	7.18
288.19	6.71
288.567	7.47
288.945	7.28
289.322	7.12
289.699	7.26
290.076	6.91
290.453	6.79
290.83	7.07
291.207	7.26
291.584	6.69
291.961	6.68
292.338	6.87
292.715	7.61
293.092	6.76
293.469	6.62
293.845	6.83
294.222	6.76
294.599	6.87
294.975	7.14
295.352	6.61
295.728	6.93
296.105	7.26
296.481	7.17
296.858	6.73
297.234	6.59
297.61	6.62
297.986	6.94
298.363	6.73
298.739	6.65
299.115	6.56
299.491	6.71
299.867	6.6
300.243	6.36
300.619	6.71
300.995	6.48
301.371	7.08
301.746	6.58
302.122	6.24
302.498	6.08
302.874	6.35
303.249	6.35
303.625	6.3
304	6.76
304.376	6.85
304.751	6.5
305.127	6.53
305.502	6.9
305.878	6.78
306.253	6.66
306.628	6.25
307.003	7.04
307.378	6.25
307.754	6.4
308.129	6.72
308.504	6.4
308.879	6.02
309.254	6.14
309.629	6.26
310.003	6.89
310.378	6.16
310.753	6.32
311.128	6.36
311.502	6.2
311.877	5.73
312.252	6.18
312.626	6.52
313.001	6.5
313.375	6.25
313.75	6.07
314.124	6.61
314.498	6.24
314.873	6.06
315.247	5.82
315.621	6.46
315.995	5.77
316.369	5.7
316.743	6.61
317.117	6.51
317.491	6.89
317.865	5.73
318.239	6.12
318.613	5.79
318.987	5.93
319.361	5.68
319.734	5.61
320.108	6.84
320.482	5.7
320.855	6.14
321.229	6.51
321.602	6.43
321.976	6.18
322.349	6.36
322.723	6.23
323.096	6.3
323.469	6.14
323.843	6.18
324.216	6.42
324.589	6.08
324.962	5.58
325.335	6.31
325.708	5.71
326.081	6.66
326.454	5.72
326.827	5.8
327.2	5.99
327.573	6.67
327.945	5.82
328.318	6.14
328.691	6.2
329.063	5.57
329.436	6.15
329.809	5.95
330.181	6.34
330.553	5.91
330.926	5.93
331.298	5.78
331.671	5.99
332.043	5.74
332.415	5.72
332.787	5.96
333.159	5.81
333.532	5.41
333.904	5.26
334.276	5.68
334.648	5.32
335.02	5.32
335.391	5.63
335.763	6.09
336.135	5.72
336.507	6.03
336.879	5.87
337.25	6.1
337.622	6.29
337.993	5.86
338.365	6.35
338.736	5.81
339.108	5.84
339.479	5.58
339.851	5.54
340.222	5.64
340.593	5.72
340.964	5.68
341.336	5.58
341.707	5.49
342.078	6.02
342.449	5.81
342.82	5.86
343.191	5.29
343.562	5.7
343.933	6.31
344.303	5.9
344.674	6.12
345.045	5.58
345.416	6.28
345.786	5.49
346.157	5.76
346.527	5.3
346.898	5.66
347.268	5.93
347.639	5.64
348.009	5.39
348.38	5.92
348.75	6.23
349.12	5.49
349.49	6.06
349.861	6.09
350.231	5.84
350.601	6.11
350.971	6.29
351.341	5.89
351.711	5.9
352.081	5.31
352.45	5.89
352.82	6.46
353.19	6.5
353.56	5.71
353.929	6.01
354.299	6.2
354.669	5.8
355.038	5.87
355.408	5.7
355.777	5.95
356.147	6.16
356.516	6.18
356.885	5.84
357.254	6.15
357.624	5.75
357.993	5.91
358.362	5.95
358.731	5.69
359.1	6.14
359.469	5.99
359.838	5.92
360.207	6.05
360.576	6.19
360.945	5.96
361.314	5.96
361.682	6.23
362.051	6.1
362.42	5.72
362.788	6.04
363.157	6.04
363.525	5.85
363.894	5.98
364.262	5.92
364.631	5.89
364.999	5.96
365.367	6.05
365.735	6.29
366.104	5.68
366.472	6.13
366.84	6.08
367.208	6.44
367.576	6.32
367.944	6.21
368.312	6.14
368.68	6.13
369.048	6.54
369.416	6
369.783	5.93
370.151	6.18
370.519	6.28
370.886	6.15
371.254	6.46
371.621	6.28
371.989	6.17
372.356	6.03
372.724	6.33
373.091	6.35
373.458	6.29
373.826	6.61
374.193	6.54
374.56	6.53
374.927	6.35
375.294	6.27
375.661	6.37
376.028	6.68
376.395	6.59
376.762	6.47
377.129	6.57
377.496	6.35
377.863	6.54
378.229	6.65
378.596	6.3
378.963	6.73
379.329	6.4
379.696	6.61
380.062	6.36
380.429	6.44
380.795	6.42
381.161	6.58
381.528	6.55
381.894	5.89
382.26	6.34
382.626	6.48
382.993	6.58
383.359	6.36
383.725	6.53
384.091	6.39
384.457	6.33
384.823	6.27
385.188	6.48
385.554	6.79
385.92	6.68
386.286	6.58
386.651	6.75
387.017	6.62
387.383	6.42
387.748	6.54
388.114	6.4
388.479	6.8
388.845	6.4
389.21	6.39
389.575	6.67
389.94	6.28
390.306	6.88
390.671	6.94
391.036	6.63
391.401	6.81
391.766	6.52
392.131	6.82
392.496	6.84
392.861	6.52
393.226	6.96
393.591	6.71
393.956	6.86
394.32	6.86
394.685	6.56
395.05	6.91
395.414	6.87
395.779	6.9
396.143	6.81
396.508	6.78
396.872	6.69
397.236	6.82
397.601	6.71
397.965	7.14
398.329	6.89
398.694	6.87
399.058	6.9
399.422	6.77
399.786	6.84
400.15	6.85
400.514	6.87
400.878	6.66
401.242	7.01
401.605	6.88
401.969	6.5
402.333	6.81
402.697	6.91
403.06	6.99
403.424	6.73
403.787	7.15
404.151	7.07
404.514	7.22
404.878	7.07
405.241	7.3
405.604	6.86
405.968	6.97
406.331	6.92
406.694	6.95
407.057	6.95
407.42	7.01
407.783	6.98
408.146	6.95
408.509	6.84
408.872	6.85
409.235	6.99
409.598	6.84
409.961	7.22
410.323	7.02
410.686	7.09
411.049	7.19
411.411	7.44
411.774	6.99
412.136	7.1
412.499	6.91
412.861	6.96
413.223	7.25
413.586	7.09
413.948	7.11
414.31	7.07
414.672	7.17
415.035	7.2
415.397	7.55
415.759	7.65
416.121	7.2
416.483	7.13
416.845	7.09
417.206	7.01
417.568	7.05
417.93	7.27
418.292	7.25
418.653	7.16
419.015	7.25
419.377	7.03
419.738	7.1
420.1	7.06
420.461	7.25
420.822	6.97
421.184	7.14
421.545	6.97
421.906	6.97
422.267	7
422.629	7.16
422.99	7.11
423.351	7.01
423.712	6.94
424.073	7.03
424.434	7.1
424.795	7.06
425.155	7.02
425.516	7.1
425.877	7.18
426.238	7.01
426.598	6.99
426.959	7.03
427.32	7.17
427.68	7.22
428.041	7.11
428.401	7.18
428.761	7.27
429.122	7.21
429.482	7.35
429.842	7.14
430.202	7.25
430.563	7.25
430.923	7.41
431.283	7.33
431.643	7.41
432.003	7.4
432.363	7.59
432.722	7.53
433.082	7.43
433.442	7.37
433.802	7.39
434.161	7.23
434.521	7.33
434.881	7.36
435.24	7.44
435.6	7.32
435.959	7.29
436.319	7.25
436.678	7.42
437.037	7.49
437.396	7.28
437.756	7.35
438.115	7.4
438.474	7.24
438.833	7.44
439.192	7.35
439.551	7.35
439.91	7.48
440.269	7.5
440.628	7.19
440.987	7.39
441.345	7.49
441.704	7.46
442.063	7.28
442.421	7.34
442.78	7.37
443.138	7.19
443.497	7.36
443.855	7.41
444.214	7.32
444.572	7.48
444.93	7.31
445.288	7.42
445.647	7.56
446.005	7.41
446.363	7.32
446.721	7.55
447.079	7.29
447.437	7.36
447.795	7.42
448.153	7.4
448.51	7.4
448.868	7.3
449.226	7.29
449.584	7.34
449.941	7.26
450.299	7.36
450.656	7.46
451.014	7.44
451.371	7.47
451.729	7.51
452.086	7.58
452.443	7.68
452.801	7.54
453.158	7.46
453.515	7.53
453.872	7.4
454.229	7.57
454.586	7.57
454.943	7.56
455.3	7.58
455.657	7.45
456.014	7.56
456.371	7.6
456.727	7.68
457.084	7.68
457.441	7.43
457.797	7.71
458.154	7.57
458.51	7.62
458.867	7.54
459.223	7.63
459.58	7.6
459.936	7.57
460.292	7.79
460.648	7.73
461.005	7.67
461.361	7.63
461.717	7.36
462.073	7.45
462.429	7.28
462.785	7.43
463.141	7.41
463.496	7.77
463.852	7.55
464.208	7.55
464.564	7.74
464.919	7.53
465.275	7.78
465.631	7.73
465.986	7.72
466.342	7.76
466.697	7.81
467.052	7.62
467.408	7.59
467.763	7.75
468.118	7.67
468.473	7.65
468.829	7.79
469.184	7.7
469.539	7.7
469.894	7.74
470.249	7.6
470.603	7.72
470.958	7.82
471.313	7.87
471.668	7.7
472.023	7.87
472.377	7.78
472.732	7.57
473.086	7.9
473.441	7.63
473.795	7.98
474.15	7.59
474.504	7.67
474.859	7.73
475.213	7.51
475.567	7.59
475.921	7.88
476.275	7.75
476.63	7.61
476.984	7.59
477.338	7.85
477.692	7.81
478.045	7.86
478.399	7.77
478.753	7.77
479.107	7.78
479.461	7.67
479.814	7.79
480.168	7.85
480.521	7.62
480.875	7.76
481.228	7.71
481.582	7.53
481.935	7.65
482.289	7.53
482.642	7.69
482.995	7.64
483.348	7.71
483.701	7.56
484.055	7.56
484.408	7.59
484.761	7.56
485.114	7.47
485.466	7.35
485.819	7.36
486.172	7.27
486.525	7.24
486.878	7.25
487.23	7.31
487.583	7.39
487.936	7.47
488.288	7.57
488.641	7.5
488.993	7.39
489.345	7.47
489.698	7.4
490.05	7.42
490.402	7.37
490.754	7.32
491.107	7.43
491.459	7.47
491.811	7.52
492.163	7.6
492.515	7.61
492.866	7.57
493.218	7.6
493.57	7.65
493.922	7.5
494.274	7.46
494.625	7.43
494.977	7.49
495.328	7.58
495.68	7.72
496.031	7.69
496.383	7.79
496.734	7.64
497.086	7.61
497.437	7.8
497.788	7.72
498.139	7.82
498.49	7.8
498.842	7.71
499.193	7.64
499.544	7.7
499.894	7.6
500.245	7.81
500.596	7.63
500.947	7.77
501.298	7.78
501.648	7.81
501.999	7.74
502.35	7.84
502.7	7.87
503.051	7.83
503.401	7.85
503.752	7.9
504.102	7.75
504.452	7.84
504.803	7.79
505.153	7.71
505.503	7.83
505.853	7.86
506.203	7.75
506.553	7.88
506.903	7.8
507.253	7.73
507.603	7.78
507.953	7.86
508.303	7.9
508.652	7.68
509.002	7.85
509.352	7.87
509.701	7.82
510.051	7.82
510.4	7.82
510.75	7.84
511.099	7.64
511.449	7.78
511.798	7.71
512.147	7.73
512.496	7.63
512.846	7.76
513.195	7.79
513.544	7.79
513.893	7.75
514.242	7.74
514.591	7.84
514.939	7.85
515.288	7.66
515.637	7.69
515.986	7.72
516.334	7.77
516.683	7.82
517.032	7.96
517.38	7.85
517.729	7.8
518.077	7.9
518.426	7.77
518.774	7.86
519.122	7.73
519.47	7.74
519.819	7.77
520.167	7.8
520.515	7.67
520.863	7.65
521.211	7.63
521.559	7.65
521.907	7.68
522.255	7.74
522.602	7.81
522.95	7.75
523.298	7.85
523.645	7.74
523.993	7.8
524.341	7.72
524.688	7.84
525.036	7.76
525.383	7.84
525.73	7.83
526.078	7.8
526.425	7.77
526.772	7.77
527.119	7.74
527.466	7.62
527.814	7.58
528.161	7.54
528.508	7.61
528.854	7.59
529.201	7.63
529.548	7.6
529.895	7.56
530.242	7.53
530.588	7.39
530.935	7.37
531.282	7.38
531.628	7.44
531.975	7.36
532.321	7.39
532.667	7.52
533.014	7.57
533.36	7.67
533.706	7.54
534.052	7.76
534.399	7.68
534.745	7.67
535.091	7.5
535.437	7.55
535.783	7.49
536.129	7.51
536.474	7.55
536.82	7.47
537.166	7.68
537.512	7.68
537.857	7.57
538.203	7.67
538.549	7.63
538.894	7.54
539.239	7.54
539.585	7.58
539.93	7.67
540.276	7.62
540.621	7.69
540.966	7.71
541.311	7.87
541.656	7.65
542.001	7.74
542.346	7.76
542.691	7.75
543.036	7.64
543.381	7.56
543.726	7.47
544.071	7.41
544.415	7.46
544.76	7.41
545.105	7.47
545.449	7.48
545.794	7.64
546.138	7.59
546.483	7.64
546.827	7.64
547.171	7.7
547.516	7.75
547.86	7.69
548.204	7.64
548.548	7.7
548.892	7.64
549.236	7.62
549.58	7.56
549.924	7.7
550.268	7.73
550.612	7.68
550.956	7.69
551.3	7.66
551.643	7.76
551.987	7.68
552.33	7.81
552.674	7.73
553.017	7.72
553.361	7.91
553.704	7.75
554.048	7.73
554.391	7.75
554.734	7.72
555.077	7.81
555.42	7.65
555.764	7.69
556.107	7.89
556.45	7.72
556.793	7.85
557.135	7.89
557.478	7.64
557.821	7.77
558.164	7.82
558.507	7.78
558.849	7.78
559.192	7.85
559.534	7.84
559.877	7.92
560.219	7.88
560.562	7.75
560.904	7.78
561.246	7.86
561.589	7.93
561.931	7.73
562.273	7.6
562.615	7.74
562.957	7.65
563.299	7.89
563.641	7.89
563.983	7.71
564.325	7.81
564.667	7.72
565.008	7.65
565.35	7.78
565.692	7.82
566.033	7.74
566.375	7.63
566.716	7.72
567.058	7.66
567.399	7.7
567.741	7.93
568.082	7.71
568.423	7.66
568.764	7.78
569.105	7.49
569.447	7.68
569.788	7.52
570.129	7.68
570.47	7.68
570.811	7.75
571.151	7.79
571.492	7.55
571.833	7.63
572.174	7.58
572.514	7.7
572.855	7.39
573.195	7.64
573.536	7.61
573.876	7.57
574.217	7.55
574.557	7.43
574.898	7.64
575.238	7.64
575.578	7.58
575.918	7.6
576.258	7.47
576.598	7.6
576.938	7.72
577.278	7.52
577.618	7.35
577.958	7.68
578.298	7.65
578.638	7.36
578.977	7.58
579.317	7.6
579.657	7.6
579.996	7.55
580.336	7.73
580.675	7.67
581.014	7.48
581.354	7.56
581.693	7.68
582.032	7.61
582.372	7.63
582.711	7.62
583.05	7.68
583.389	7.67
583.728	7.55
584.067	7.73
584.406	7.74
584.745	7.67
585.083	7.9
585.422	7.62
585.761	7.65
586.1	7.68
586.438	7.35
586.777	7.56
587.115	7.85
587.454	7.63
587.792	7.73
588.13	7.75
588.469	7.6
588.807	7.72
589.145	7.49
589.483	7.65
589.821	7.45
590.159	7.73
590.497	7.53
590.835	7.6
591.173	7.51
591.511	7.44
591.849	7.62
592.187	7.42
592.524	7.61
592.862	7.53
593.2	7.52
593.537	7.47
593.875	7.35
594.212	7.45
594.55	7.57
594.887	7.58
595.224	7.55
595.561	7.58
595.899	7.56
596.236	7.93
596.573	7.72
596.91	7.52
597.247	7.69
597.584	7.7
597.921	7.54
598.258	7.4
598.594	7.5
598.931	7.5
599.268	7.38
599.604	7.56
599.941	7.46
600.277	7.33
600.614	7.42
600.95	7.63
601.287	7.43
601.623	7.42
601.959	7.6
602.296	7.43
602.632	7.25
602.968	7.35
603.304	7.46
603.64	7.34
603.976	7.51
604.312	7.53
604.648	7.35
604.984	7.31
605.319	7.42
605.655	7.4
605.991	7.35
606.326	7.39
606.662	7.38
606.998	7.27
607.333	7.4
607.668	7.14
608.004	7.39
608.339	7.38
608.674	7.35
609.01	7.26
609.345	7.15
609.68	7.33
610.015	7.32
610.35	7.39
610.685	7.72
611.02	7.41
611.355	7.51
611.689	7.46
612.024	7.52
612.359	7.29
612.694	7.28
613.028	7.18
613.363	6.95
613.697	7.21
614.032	7.3
614.366	7.09
614.7	7.1
615.035	7.24
615.369	7.4
615.703	7.25
616.037	7.56
616.371	7.54
616.705	7.59
617.039	7.28
617.373	7.29
617.707	7.39
618.041	7.52
618.375	7.14
618.709	7.32
619.042	7.42
619.376	7.5
619.71	7.49
620.043	7.04
620.377	7.19
620.71	7.17
621.043	7.16
621.377	7.33
621.71	7.11
622.043	7.39
622.376	7.41
622.709	7.21
623.043	7.17
623.376	7.19
623.709	7.24
624.041	7.21
624.374	7.31
624.707	7.47
625.04	7.35
625.373	6.93
625.705	7.07
626.038	7.15
626.37	7.41
626.703	7.16
627.035	7.13
627.368	7.21
627.7	7.44
628.032	7.37
628.365	7.28
628.697	7.13
629.029	7
629.361	7.3
629.693	7.4
630.025	7.16
630.357	7
630.689	6.99
631.021	6.88
631.353	6.93
631.684	7.4
632.016	7.03
632.348	7.35
632.679	7.06
633.011	7.32
633.342	7.45
633.674	7.61
634.005	6.98
634.336	7.36
634.668	7.32
634.999	7.44
635.33	7.28
635.661	7.32
635.992	7.11
636.323	7.17
636.654	7.35
636.985	7.08
637.316	7.34
637.647	7.31
637.977	6.99
638.308	7.33
638.639	7.03
638.969	7.19
639.3	7.16
639.63	7.32
639.961	7.05
640.291	7.29
640.622	7.58
640.952	6.92
641.282	7.54
641.612	7
641.943	7.39
642.273	7.53
642.603	6.9
642.933	7.18
643.263	6.76
643.592	7.25
643.922	7.35
644.252	6.83
644.582	7.62
644.911	7.36
645.241	7.28
645.571	7
645.9	6.71
646.23	7.24
646.559	7.15
646.888	7.12
647.218	7.03
647.547	7.03
647.876	7.12
648.205	6.62
648.534	7.43
648.863	7.22
649.192	6.86
649.521	7.44
649.85	7.15
650.179	7.24
650.508	6.85
650.837	7
651.165	7.48
651.494	7.07
651.822	6.98
652.151	7.08
652.479	6.76
652.808	6.87
653.136	7.39
653.465	7.09
653.793	7.12
654.121	7.24
654.449	6.56
654.777	7.49
655.105	6.93
655.433	7.16
655.761	7.34
656.089	7.12
656.417	6.92
656.745	7.08
657.073	7.35
657.4	7.64
657.728	7.24
658.056	7.47
658.383	7.15
658.711	6.91
659.038	6.68
659.365	7.21
659.693	6.82
660.02	7.45
660.347	7.27
660.674	6.91
661.001	6.92
661.329	6.86
661.656	7.02
661.982	6.99
662.309	7.14
662.636	7.03
662.963	6.92
663.29	7.22
663.616	6.93
663.943	7.46
664.27	7.07
664.596	6.72
664.923	6.91
665.249	6.74
665.576	6.95
665.902	6.81
666.228	6.92
666.554	7.08
666.881	7.46
667.207	7.25
667.533	7.31
667.859	7.44
668.185	7.27
668.511	7.65
668.837	6.91
669.162	7.33
669.488	7.12
669.814	7.17
670.139	7.06
670.465	7.31
670.791	6.94
671.116	6.87
671.442	7.7
671.767	6.64
672.092	7.45
672.418	7.52
672.743	6.87
673.068	7.05
673.393	7.17
673.718	7.65
674.043	7.13
674.368	7.9
674.693	6.87
675.018	7.11
675.343	6.66
675.667	7.52
675.992	6.82
676.317	7.76
676.641	7.4
676.966	7.57
677.29	7.01
677.615	6.67
677.939	7.55
678.264	6.81
678.588	7.73
678.912	7.2
679.236	6.86
679.56	7.18
679.885	6.56
680.209	7.78
680.532	6.87
680.856	7.58
681.18	7.32
681.504	7.4
681.828	6.71
682.152	6.56
682.475	7.58
682.799	7.22
683.122	6.89
683.446	7.06
683.769	6.68
684.093	7.5
684.416	7.24
684.739	7.28
685.062	7.87
685.386	6.6
685.709	6.97
686.032	7.4
686.355	7.03
686.678	7.48
687.001	7.69
687.324	7.64
687.646	7.25
687.969	8.3
688.292	7.05
688.614	7.41
688.937	7.48
689.26	6.65
689.582	7.05
689.904	6.96
690.227	8.02
690.549	7.61
690.871	7.38
691.194	7.17
691.516	7.09
691.838	7.58
692.16	7.26
