Data from 0211_forehead_Reflection__2__264.txt Node

Date: Fri Sep 22 22:51:48 CDT 2023
User: ToomeyLab
Spectrometer: FLMS14357
Trigger mode: 0
Integration Time (sec): 1.000000E-2
Scans to average: 100
Electric dark correction enabled: true
Nonlinearity correction enabled: false
Boxcar width: 0
XAxis mode: Wavelengths
Number of Pixels in Spectrum: 2048
>>>>>Begin Spectral Data<<<<<
189.047	-47.34
189.435	-47.34
189.823	-47.34
190.211	-244.04
190.599	-85.81
190.987	14.13
191.375	-178.07
191.763	486.92
192.151	89.17
192.538	259.5
192.926	141.82
193.314	101.12
193.702	-9903.45
194.089	-758.74
194.477	-34.94
194.864	26.93
195.252	184.57
195.639	232.3
196.027	-43.13
196.414	-151.06
196.801	-21.93
197.189	2016
197.576	201.05
197.963	-0.34
198.351	35.99
198.738	12.29
199.125	18.87
199.512	7.42
199.899	19
200.286	25.8
200.673	1.92
201.06	62.47
201.447	18.96
201.833	43.53
202.22	34.6
202.607	49.86
202.994	61.39
203.38	36.87
203.767	43.09
204.154	58.41
204.54	69.23
204.927	40.17
205.313	39.85
205.699	42.08
206.086	28.85
206.472	63.27
206.858	29.06
207.245	21.63
207.631	27.09
208.017	32.84
208.403	45.49
208.789	50.88
209.175	51.62
209.561	32.95
209.947	42.6
210.333	47.11
210.719	-7.68
211.105	33.98
211.491	41.56
211.876	52.88
212.262	56.73
212.648	28.03
213.034	38.98
213.419	39.54
213.805	62.11
214.19	17.94
214.576	20.41
214.961	20.25
215.346	-15.26
215.732	33.27
216.117	39.57
216.502	47.86
216.888	44.69
217.273	22.16
217.658	7.61
218.043	16.11
218.428	34.29
218.813	25.78
219.198	21.71
219.583	28.4
219.968	5.08
220.353	32.53
220.738	3.97
221.122	26.82
221.507	13.37
221.892	11.66
222.276	26.79
222.661	-3.54
223.046	18.22
223.43	35.39
223.815	17.23
224.199	2.8
224.583	11.56
224.968	28.9
225.352	13.51
225.736	14.56
226.121	7.66
226.505	7.2
226.889	12.95
227.273	16.12
227.657	7.36
228.041	8.49
228.425	14.75
228.809	6.16
229.193	8.28
229.577	6.91
229.961	7.81
230.344	7.01
230.728	4.33
231.112	5.74
231.495	5.08
231.879	5.28
232.263	3.93
232.646	3.96
233.03	5.92
233.413	5.12
233.797	5.03
234.18	5.97
234.563	7.52
234.946	8.91
235.33	5.46
235.713	5.15
236.096	4.82
236.479	4.92
236.862	6.97
237.245	5.38
237.628	6.72
238.011	6.09
238.394	6.08
238.777	7.52
239.16	6.77
239.543	9.36
239.925	5.94
240.308	6.1
240.691	5.73
241.073	7.26
241.456	5.84
241.838	5.38
242.221	5.21
242.603	4.44
242.986	4.7
243.368	4.29
243.75	5.19
244.133	5.37
244.515	5.09
244.897	4.57
245.279	4.53
245.661	4.54
246.043	5.28
246.425	4.56
246.807	5.6
247.189	4.31
247.571	5.16
247.953	5.12
248.335	5.13
248.717	4.92
249.098	4.53
249.48	4.43
249.862	4.62
250.243	4.72
250.625	4.62
251.006	4.61
251.388	4.85
251.769	5.4
252.151	4.35
252.532	5.59
252.913	5.95
253.295	6.1
253.676	5.25
254.057	5.06
254.438	4.97
254.819	4.33
255.2	4.78
255.581	5.1
255.962	5.5
256.343	4.47
256.724	4.47
257.105	5.16
257.486	4.3
257.867	4.85
258.247	6.02
258.628	5.39
259.009	4.87
259.389	4.99
259.77	5.51
260.15	5.99
260.531	4.78
260.911	4.85
261.292	5.05
261.672	4.4
262.052	4.57
262.432	4.44
262.813	4.75
263.193	4.55
263.573	5.32
263.953	4.98
264.333	4.46
264.713	5.08
265.093	4.63
265.473	5.05
265.853	4.79
266.233	5.36
266.612	5.13
266.992	5.12
267.372	5.29
267.752	6.24
268.131	4.77
268.511	4.41
268.89	4.97
269.27	5.18
269.649	4.98
270.029	4.77
270.408	5.09
270.787	5.04
271.167	4.93
271.546	4.45
271.925	5.56
272.304	4.69
272.683	4.78
273.062	5.3
273.441	4.99
273.82	5.05
274.199	4.91
274.578	4.94
274.957	4.69
275.336	4.71
275.715	4.33
276.093	4.47
276.472	4.56
276.851	5.04
277.229	4.2
277.608	4.92
277.986	4.49
278.365	4.59
278.743	5.36
279.122	4.75
279.5	5
279.878	5.35
280.257	5.58
280.635	4.43
281.013	5.34
281.391	4.6
281.769	4.53
282.147	4.99
282.525	3.89
282.903	4.81
283.281	4.87
283.659	5.03
284.037	4.92
284.415	4.81
284.792	4.48
285.17	4.93
285.548	5.42
285.925	5.31
286.303	4.8
286.68	4.05
287.058	4.72
287.435	4.8
287.813	4.67
288.19	4.21
288.567	4.92
288.945	4.67
289.322	5.04
289.699	5.09
290.076	4.84
290.453	5.14
290.83	4.65
291.207	4.98
291.584	4.85
291.961	4.72
292.338	5.42
292.715	5.5
293.092	4.93
293.469	5.24
293.845	5.22
294.222	5.71
294.599	5.76
294.975	5.74
295.352	5.58
295.728	5.77
296.105	5.86
296.481	5.43
296.858	6.22
297.234	5.56
297.61	5.33
297.986	5.84
298.363	5.65
298.739	6.1
299.115	5.94
299.491	5.69
299.867	5.62
300.243	5.77
300.619	6
300.995	5.75
301.371	6.45
301.746	6.03
302.122	5.81
302.498	5.64
302.874	5.95
303.249	5.98
303.625	6.04
304	6.4
304.376	6.22
304.751	6.39
305.127	6.18
305.502	6.78
305.878	6.6
306.253	6.59
306.628	6.41
307.003	6.79
307.378	6.4
307.754	6.68
308.129	7.03
308.504	7.16
308.879	7.2
309.254	7.24
309.629	7.01
310.003	6.94
310.378	7.26
310.753	6.86
311.128	7.44
311.502	7.29
311.877	7.24
312.252	7.54
312.626	7.44
313.001	7.61
313.375	7.94
313.75	7.6
314.124	7.98
314.498	7.33
314.873	7.79
315.247	7.8
315.621	7.82
315.995	7.73
316.369	7.88
316.743	8.06
317.117	8.38
317.491	8.14
317.865	7.92
318.239	8.38
318.613	8.39
318.987	8.28
319.361	8.55
319.734	7.98
320.108	8.66
320.482	8.23
320.855	8.59
321.229	9.25
321.602	9.05
321.976	8.53
322.349	8.66
322.723	8.73
323.096	8.87
323.469	9.28
323.843	9.08
324.216	9.57
324.589	9.04
324.962	9.13
325.335	9.1
325.708	9.27
326.081	9.57
326.454	9.19
326.827	9.4
327.2	9.53
327.573	9.79
327.945	9.55
328.318	10.09
328.691	9.83
329.063	9.36
329.436	9.8
329.809	9.69
330.181	10.23
330.553	9.86
330.926	9.83
331.298	10.21
331.671	10.3
332.043	9.66
332.415	10.69
332.787	10.41
333.159	10.5
333.532	9.98
333.904	10.85
334.276	10.58
334.648	10.11
335.02	10.25
335.391	10.8
335.763	10.93
336.135	10.82
336.507	10.59
336.879	9.95
337.25	11.1
337.622	11.11
337.993	11.02
338.365	11.08
338.736	11.42
339.108	11.31
339.479	10.98
339.851	10.65
340.222	10.87
340.593	10.97
340.964	10.79
341.336	11.16
341.707	11.39
342.078	11.63
342.449	11.59
342.82	11.22
343.191	11.1
343.562	11.95
343.933	11.34
344.303	11.76
344.674	11.76
345.045	12.02
345.416	12.19
345.786	12.04
346.157	11.44
346.527	11.66
346.898	11.86
347.268	12.2
347.639	11.94
348.009	11.93
348.38	12.15
348.75	12.48
349.12	12.43
349.49	12.66
349.861	12.48
350.231	12.47
350.601	12.79
350.971	13.07
351.341	12.69
351.711	12.76
352.081	12.7
352.45	12.64
352.82	13.23
353.19	13.31
353.56	12.32
353.929	12.94
354.299	13.19
354.669	12.95
355.038	12.81
355.408	13.28
355.777	13.47
356.147	13.14
356.516	13.81
356.885	13.19
357.254	13.75
357.624	13.12
357.993	13.59
358.362	13.58
358.731	13.35
359.1	13.38
359.469	13.68
359.838	13.7
360.207	13.74
360.576	13.72
360.945	13.74
361.314	13.9
361.682	13.92
362.051	14.1
362.42	14
362.788	13.88
363.157	13.97
363.525	14.05
363.894	13.91
364.262	14.21
364.631	13.97
364.999	13.89
365.367	14.38
365.735	14.39
366.104	14.33
366.472	14.73
366.84	14.14
367.208	14.96
367.576	14.74
367.944	14.77
368.312	14.9
368.68	14.88
369.048	14.95
369.416	14.61
369.783	15.01
370.151	14.96
370.519	14.91
370.886	15.02
371.254	15.69
371.621	15.21
371.989	15.36
372.356	15.38
372.724	15.28
373.091	15.33
373.458	15.51
373.826	15.43
374.193	15.84
374.56	15.75
374.927	15.94
375.294	15.63
375.661	15.58
376.028	16.08
376.395	16.18
376.762	16.38
377.129	16.53
377.496	16.43
377.863	16.44
378.229	16.16
378.596	16.4
378.963	16.36
379.329	16.21
379.696	16.64
380.062	16.23
380.429	16.38
380.795	16.76
381.161	16.76
381.528	16.64
381.894	16.49
382.26	16.57
382.626	16.81
382.993	16.83
383.359	16.82
383.725	16.9
384.091	16.91
384.457	16.83
384.823	17.18
385.188	17.2
385.554	17.01
385.92	17.63
386.286	17.39
386.651	17.35
387.017	17.75
387.383	17.44
387.748	17.6
388.114	17.69
388.479	17.85
388.845	17.71
389.21	17.56
389.575	18.07
389.94	17.71
390.306	18.15
390.671	18
391.036	17.86
391.401	18.17
391.766	18.33
392.131	18.3
392.496	18.32
392.861	18.28
393.226	18.34
393.591	18.42
393.956	18.41
394.32	18.38
394.685	18.26
395.05	18.76
395.414	18.58
395.779	18.81
396.143	18.68
396.508	18.8
396.872	18.61
397.236	18.9
397.601	18.79
397.965	19.19
398.329	19.08
398.694	18.97
399.058	19.15
399.422	19.31
399.786	19.48
400.15	19.28
400.514	19.45
400.878	19.56
401.242	19.47
401.605	19.58
401.969	19.32
402.333	19.74
402.697	19.48
403.06	19.66
403.424	19.9
403.787	19.86
404.151	19.85
404.514	19.89
404.878	19.94
405.241	20.16
405.604	20.19
405.968	20.03
406.331	20.14
406.694	20.19
407.057	19.93
407.42	20.24
407.783	20.21
408.146	20.33
408.509	20.31
408.872	20.5
409.235	20.45
409.598	20.49
409.961	20.87
410.323	20.37
410.686	20.67
411.049	20.75
411.411	21.01
411.774	20.89
412.136	20.86
412.499	20.99
412.861	20.86
413.223	21.24
413.586	21.22
413.948	21.24
414.31	21.09
414.672	21.23
415.035	21.43
415.397	21.62
415.759	21.69
416.121	21.34
416.483	21.43
416.845	21.53
417.206	21.45
417.568	21.46
417.93	21.41
418.292	21.41
418.653	21.69
419.015	21.7
419.377	21.83
419.738	21.76
420.1	21.75
420.461	21.7
420.822	21.75
421.184	21.67
421.545	21.76
421.906	21.89
422.267	21.9
422.629	21.75
422.99	21.82
423.351	21.78
423.712	21.73
424.073	21.76
424.434	21.96
424.795	22.11
425.155	22.41
425.516	22.22
425.877	22.21
426.238	22.14
426.598	22.1
426.959	22.19
427.32	22.24
427.68	22.37
428.041	22.45
428.401	22.69
428.761	22.93
429.122	22.86
429.482	22.86
429.842	22.93
430.202	22.96
430.563	23.18
430.923	23.31
431.283	23.25
431.643	23.38
432.003	23.4
432.363	23.66
432.722	23.62
433.082	23.72
433.442	23.9
433.802	23.59
434.161	23.6
434.521	23.71
434.881	23.78
435.24	23.62
435.6	23.75
435.959	23.73
436.319	23.86
436.678	24.09
437.037	24.19
437.396	23.93
437.756	24.1
438.115	24.15
438.474	24.16
438.833	24.47
439.192	24.32
439.551	24.39
439.91	24.48
440.269	24.42
440.628	24.43
440.987	24.43
441.345	24.68
441.704	24.57
442.063	24.27
442.421	24.58
442.78	24.55
443.138	24.62
443.497	24.53
443.855	24.69
444.214	24.74
444.572	24.93
444.93	24.87
445.288	25.11
445.647	25.29
446.005	25.21
446.363	25.08
446.721	25.21
447.079	25.17
447.437	25.09
447.795	25.1
448.153	25.1
448.51	25.07
448.868	25.01
449.226	25.03
449.584	25.09
449.941	25.17
450.299	25.4
450.656	25.35
451.014	25.69
451.371	25.69
451.729	25.88
452.086	26.02
452.443	26.09
452.801	26.09
453.158	26.12
453.515	26.32
453.872	26.13
454.229	26.35
454.586	26.29
454.943	26.28
455.3	26.34
455.657	26.18
456.014	26.35
456.371	26.76
456.727	26.62
457.084	26.56
457.441	26.6
457.797	26.77
458.154	26.86
458.51	26.9
458.867	26.88
459.223	26.9
459.58	27.09
459.936	27
460.292	27.11
460.648	27
461.005	27.23
461.361	27.19
461.717	26.83
462.073	26.75
462.429	26.74
462.785	26.91
463.141	26.97
463.496	27.3
463.852	27.22
464.208	27.44
464.564	27.83
464.919	27.53
465.275	27.76
465.631	27.81
465.986	28.04
466.342	28.32
466.697	27.99
467.052	28.03
467.408	27.98
467.763	28.39
468.118	28.1
468.473	28.09
468.829	28.14
469.184	28.26
469.539	28.28
469.894	28.4
470.249	28.3
470.603	28.42
470.958	28.7
471.313	28.64
471.668	28.7
472.023	28.74
472.377	28.62
472.732	28.77
473.086	28.98
473.441	28.87
473.795	29.14
474.15	28.97
474.504	29.01
474.859	29.09
475.213	28.96
475.567	28.89
475.921	29.02
476.275	29.21
476.63	29.08
476.984	29.18
477.338	29.41
477.692	29.35
478.045	29.31
478.399	29.21
478.753	29.35
479.107	29.44
479.461	29.6
479.814	29.74
480.168	29.44
480.521	29.54
480.875	29.65
481.228	29.52
481.582	29.63
481.935	29.67
482.289	29.57
482.642	29.66
482.995	29.8
483.348	29.65
483.701	29.79
484.055	29.82
484.408	29.64
484.761	29.62
485.114	29.51
485.466	29.12
485.819	29.14
486.172	29.14
486.525	29.15
486.878	29.21
487.23	29.31
487.583	29.32
487.936	29.6
488.288	29.85
488.641	29.77
488.993	29.72
489.345	29.81
489.698	29.68
490.05	29.7
490.402	29.67
490.754	29.73
491.107	29.88
491.459	30.12
491.811	30.3
492.163	30.48
492.515	30.7
492.866	30.46
493.218	30.61
493.57	30.4
493.922	30.32
494.274	30.31
494.625	30.43
494.977	30.59
495.328	30.81
495.68	31.05
496.031	31.28
496.383	31.52
496.734	31.74
497.086	31.79
497.437	31.71
497.788	31.8
498.139	31.81
498.49	31.98
498.842	31.84
499.193	31.68
499.544	31.75
499.894	31.63
500.245	31.84
500.596	32.03
500.947	31.87
501.298	32.32
501.648	32.08
501.999	32.17
502.35	32.37
502.7	32.49
503.051	32.41
503.401	32.58
503.752	32.53
504.102	32.6
504.452	32.85
504.803	32.85
505.153	32.78
505.503	32.93
505.853	32.81
506.203	32.78
506.553	32.99
506.903	32.92
507.253	32.92
507.603	33
507.953	33.25
508.303	33.15
508.652	33.23
509.002	33.28
509.352	33.36
509.701	33.4
510.051	33.42
510.4	33.56
510.75	33.39
511.099	33.46
511.449	33.54
511.798	33.42
512.147	33.5
512.496	33.45
512.846	33.73
513.195	33.69
513.544	33.72
513.893	33.77
514.242	33.83
514.591	33.62
514.939	33.96
515.288	33.88
515.637	33.81
515.986	34.02
516.334	34.26
516.683	34.28
517.032	34.47
517.38	34.45
517.729	34.48
518.077	34.36
518.426	34.53
518.774	34.52
519.122	34.5
519.47	34.54
519.819	34.42
520.167	34.55
520.515	34.3
520.863	34.32
521.211	34.32
521.559	34.42
521.907	34.38
522.255	34.53
522.602	34.72
522.95	34.8
523.298	35.05
523.645	34.94
523.993	35.18
524.341	35.16
524.688	35.18
525.036	35.41
525.383	35.49
525.73	35.44
526.078	35.58
526.425	35.64
526.772	35.46
527.119	35.42
527.466	35.32
527.814	35.13
528.161	35.12
528.508	35.02
528.854	35.35
529.201	35.4
529.548	35.44
529.895	35.25
530.242	35.2
530.588	35.06
530.935	34.96
531.282	35.08
531.628	35.07
531.975	35.01
532.321	35.21
532.667	35.49
533.014	35.68
533.36	35.8
533.706	35.91
534.052	36.16
534.399	36.07
534.745	36.13
535.091	35.91
535.437	35.89
535.783	35.73
536.129	35.86
536.474	36.05
536.82	36.19
537.166	36.34
537.512	36.46
537.857	36.5
538.203	36.82
538.549	36.57
538.894	36.6
539.239	36.69
539.585	36.56
539.93	36.79
540.276	36.98
540.621	37.06
540.966	37.17
541.311	37.63
541.656	37.42
542.001	37.6
542.346	37.51
542.691	37.32
543.036	37.22
543.381	37.03
543.726	36.85
544.071	36.85
544.415	36.93
544.76	37.08
545.105	37.02
545.449	37.36
545.794	37.46
546.138	37.46
546.483	37.63
546.827	37.82
547.171	37.98
547.516	38.19
547.86	38.21
548.204	38.15
548.548	38.24
548.892	38.15
549.236	38.25
549.58	37.93
549.924	38.34
550.268	38.44
550.612	38.57
550.956	38.7
551.3	38.72
551.643	38.74
551.987	39.02
552.33	39.48
552.674	39.25
553.017	39.23
553.361	39.51
553.704	39.47
554.048	39.48
554.391	39.4
554.734	39.5
555.077	39.37
555.42	39.58
555.764	39.49
556.107	39.66
556.45	39.87
556.793	39.65
557.135	40.03
557.478	39.92
557.821	39.86
558.164	40
558.507	40.07
558.849	39.99
559.192	40.25
559.534	40.27
559.877	40.52
560.219	40.45
560.562	40.55
560.904	40.33
561.246	40.44
561.589	40.58
561.931	40.89
562.273	40.37
562.615	40.28
562.957	40.67
563.299	40.88
563.641	40.57
563.983	40.76
564.325	40.88
564.667	40.98
565.008	41.1
565.35	41.16
565.692	40.94
566.033	40.96
566.375	41.09
566.716	41.29
567.058	41.33
567.399	41.24
567.741	41.43
568.082	41.42
568.423	41.32
568.764	41.27
569.105	41.25
569.447	41.52
569.788	41.25
570.129	41.49
570.47	41.61
570.811	41.75
571.151	41.71
571.492	41.68
571.833	41.73
572.174	42.06
572.514	41.91
572.855	41.93
573.195	41.93
573.536	41.9
573.876	42
574.217	41.91
574.557	42.06
574.898	41.9
575.238	41.87
575.578	42.1
575.918	42.44
576.258	42.31
576.598	42.28
576.938	42.43
577.278	42.54
577.618	42.35
577.958	42.51
578.298	42.66
578.638	42.64
578.977	42.95
579.317	42.57
579.657	43.06
579.996	42.6
580.336	43
580.675	43.46
581.014	43.04
581.354	43.27
581.693	43.31
582.032	43.7
582.372	43.48
582.711	43.64
583.05	43.39
583.389	43.74
583.728	43.76
584.067	43.41
584.406	43.77
584.745	43.79
585.083	44.18
585.422	44.16
585.761	43.81
586.1	43.93
586.438	43.73
586.777	44.02
587.115	43.87
587.454	43.9
587.792	44.26
588.13	44.59
588.469	44.32
588.807	44.62
589.145	44.45
589.483	44.25
589.821	44.7
590.159	44.12
590.497	44.73
590.835	44.52
591.173	44.72
591.511	44.49
591.849	44.84
592.187	44.69
592.524	44.81
592.862	44.83
593.2	44.8
593.537	45.27
593.875	44.51
594.212	44.89
594.55	45.38
594.887	45.2
595.224	45.08
595.561	45.44
595.899	45.35
596.236	45.58
596.573	45.68
596.91	45.14
597.247	45.7
597.584	45.61
597.921	45.69
598.258	45.46
598.594	45.49
598.931	45.55
599.268	45.58
599.604	45.62
599.941	45.43
600.277	45.37
600.614	45.79
600.95	45.71
601.287	45.85
601.623	45.77
601.959	46.28
602.296	46.42
602.632	46.22
602.968	46.19
603.304	46.39
603.64	46.88
603.976	46.47
604.312	46.63
604.648	46.8
604.984	46.41
605.319	46.51
605.655	46.51
605.991	46.68
606.326	46.24
606.662	46.45
606.998	46.38
607.333	46.51
607.668	46.32
608.004	46.86
608.339	46.34
608.674	46.86
609.01	46.79
609.345	46.98
609.68	47.35
610.015	47.08
610.35	47.08
610.685	47.54
611.02	47.19
611.355	47.58
611.689	47.19
612.024	47.12
612.359	47.21
612.694	47.29
613.028	47.52
613.363	46.93
613.697	47.48
614.032	47.18
614.366	47.29
614.7	47.54
615.035	47.65
615.369	47.96
615.703	48.19
616.037	47.78
616.371	48.29
616.705	48.07
617.039	48.11
617.373	48.16
617.707	48.19
618.041	48.44
618.375	48.09
618.709	48.14
619.042	48.19
619.376	48.65
619.71	48.3
620.043	48.4
620.377	48.26
620.71	48.94
621.043	48.42
621.377	48.74
621.71	48.74
622.043	48.42
622.376	48.82
622.709	48.66
623.043	48.87
623.376	49.17
623.709	49.13
624.041	48.58
624.374	48.78
624.707	49.3
625.04	49.29
625.373	49.32
625.705	49.52
626.038	49.51
626.37	49.43
626.703	49.6
627.035	50.21
627.368	49.53
627.7	49.84
628.032	49.73
628.365	49.72
628.697	49.43
629.029	49.59
629.361	49.73
629.693	49.58
630.025	49.57
630.357	49.85
630.689	49.49
631.021	49.52
631.353	49.71
631.684	49.82
632.016	49.64
632.348	50.3
632.679	49.63
633.011	50.41
633.342	50.07
633.674	50.83
634.005	49.94
634.336	50.29
634.668	50.23
634.999	50.62
635.33	50.64
635.661	50.73
635.992	50.94
636.323	50.86
636.654	50.55
636.985	50.64
637.316	50.59
637.647	50.85
637.977	50.3
638.308	50.44
638.639	50.72
638.969	51.27
639.3	50.68
639.63	50.7
639.961	51.05
640.291	50.53
640.622	50.98
640.952	51.19
641.282	50.72
641.612	51.26
641.943	51.32
642.273	51.04
642.603	51.12
642.933	51.02
643.263	51.46
643.592	51.8
643.922	51.34
644.252	51.04
644.582	51.89
644.911	51.62
645.241	52.14
645.571	51.63
645.9	50.96
646.23	52.22
646.559	51.81
646.888	51.99
647.218	51.68
647.547	51.88
647.876	52.06
648.205	51.45
648.534	52.9
648.863	52.42
649.192	52.34
649.521	52.21
649.85	52.05
650.179	52.37
650.508	52.48
650.837	52.51
651.165	52.26
651.494	52.88
651.822	52.92
652.151	52.47
652.479	52.44
652.808	52.55
653.136	52.94
653.465	52.49
653.793	52.35
654.121	52.23
654.449	52.38
654.777	52.67
655.105	53.1
655.433	53.22
655.761	53.04
656.089	52.76
656.417	53.05
656.745	53.47
657.073	52.87
657.4	52.77
657.728	52.4
658.056	53.04
658.383	53.21
658.711	52.78
659.038	52.85
659.365	52.89
659.693	53.18
660.02	53.4
660.347	53.05
660.674	53.62
661.001	53.47
661.329	53.03
661.656	53.47
661.982	53.37
662.309	53.54
662.636	53.58
662.963	53.15
663.29	53.38
663.616	53.71
663.943	53.03
664.27	53.95
664.596	53.57
664.923	53.53
665.249	53.42
665.576	53.54
665.902	53.14
666.228	53.77
666.554	53.39
666.881	53.9
667.207	53.92
667.533	54.39
667.859	54.06
668.185	53.73
668.511	54.35
668.837	53.9
669.162	53.7
669.488	54.36
669.814	54.56
