Data from 0211_chest_Reflection__3__254.txt Node

Date: Fri Sep 22 22:49:03 CDT 2023
User: ToomeyLab
Spectrometer: FLMS14357
Trigger mode: 0
Integration Time (sec): 1.000000E-2
Scans to average: 100
Electric dark correction enabled: true
Nonlinearity correction enabled: false
Boxcar width: 0
XAxis mode: Wavelengths
Number of Pixels in Spectrum: 2048
>>>>>Begin Spectral Data<<<<<
189.047	-272.99
189.435	-272.99
189.823	-272.99
190.211	-17.4
190.599	-36.84
190.987	21.24
191.375	-125.48
191.763	286.16
192.151	-12.35
192.538	533.95
192.926	139.24
193.314	59.3
193.702	1182.76
194.089	-2079.37
194.477	-590.11
194.864	175.58
195.252	7.21
195.639	-208.38
196.027	229.31
196.414	176.71
196.801	17.89
197.189	-2618.4
197.576	121.6
197.963	79.19
198.351	-1.54
198.738	35.04
199.125	33.11
199.512	-17.79
199.899	45.29
200.286	45.32
200.673	18.27
201.06	43.72
201.447	39.13
201.833	16.14
202.22	36.16
202.607	33.38
202.994	60.61
203.38	15.59
203.767	-4.34
204.154	48.04
204.54	35.36
204.927	-5.7
205.313	1.83
205.699	51.41
206.086	37.39
206.472	57.38
206.858	41.85
207.245	7.31
207.631	36.48
208.017	25.38
208.403	64.51
208.789	47
209.175	47.97
209.561	37.95
209.947	45.54
210.333	21.98
210.719	-4.44
211.105	26.24
211.491	18.44
211.876	24.46
212.262	19.32
212.648	5.24
213.034	47.51
213.419	23.46
213.805	37.9
214.19	6.95
214.576	30.48
214.961	12.25
215.346	-10
215.732	29.28
216.117	27.84
216.502	38.06
216.888	35.15
217.273	19.1
217.658	-0.74
218.043	23.65
218.428	60.25
218.813	-8.51
219.198	9.86
219.583	23.32
219.968	12.03
220.353	27.86
220.738	-1.51
221.122	4.77
221.507	8.2
221.892	1.5
222.276	22.5
222.661	-8.17
223.046	14.09
223.43	14.95
223.815	22.32
224.199	-1.09
224.583	8.91
224.968	9.15
225.352	8.57
225.736	12.87
226.121	7.82
226.505	15.96
226.889	17.96
227.273	4.14
227.657	10.99
228.041	5.06
228.425	11.08
228.809	3.8
229.193	3.95
229.577	7.96
229.961	6.68
230.344	6.94
230.728	4.3
231.112	4.19
231.495	4.14
231.879	5.25
232.263	4.22
232.646	3.98
233.03	1.87
233.413	5.25
233.797	5.13
234.18	5.69
234.563	6.77
234.946	7.03
235.33	3.8
235.713	2.14
236.096	4.86
236.479	4.93
236.862	8.04
237.245	6.22
237.628	5.75
238.011	5.39
238.394	6.05
238.777	6.51
239.16	6.14
239.543	6.11
239.925	5.69
240.308	3.83
240.691	5.47
241.073	5.78
241.456	5.36
241.838	5.83
242.221	3.8
242.603	5.62
242.986	4.93
243.368	4.01
243.75	4.57
244.133	4.71
244.515	4.08
244.897	3.82
245.279	4.37
245.661	4.12
246.043	4.59
246.425	4.77
246.807	5.39
247.189	3.26
247.571	5.04
247.953	4.48
248.335	5.34
248.717	4.21
249.098	4.1
249.48	3.87
249.862	4.26
250.243	4.14
250.625	4.4
251.006	4.02
251.388	4.13
251.769	4.61
252.151	3.86
252.532	4.22
252.913	5.54
253.295	5.24
253.676	4.77
254.057	4.58
254.438	4.66
254.819	3.79
255.2	4.3
255.581	4.58
255.962	4.21
256.343	3.89
256.724	2.87
257.105	3.87
257.486	4.15
257.867	3.48
258.247	4.81
258.628	5.49
259.009	3.36
259.389	3.4
259.77	4.76
260.15	4.77
260.531	4.37
260.911	4.19
261.292	4
261.672	3.69
262.052	3.93
262.432	3.9
262.813	4.28
263.193	3.75
263.573	4.21
263.953	3.44
264.333	3.86
264.713	4.41
265.093	3.38
265.473	3.64
265.853	3.64
266.233	4.53
266.612	3.9
266.992	4.38
267.372	3.99
267.752	4.42
268.131	3.62
268.511	3.62
268.89	3.98
269.27	4.27
269.649	4.19
270.029	4.31
270.408	3.81
270.787	3.89
271.167	3.92
271.546	3.33
271.925	4.3
272.304	3.51
272.683	4.24
273.062	4.32
273.441	3.95
273.82	4.72
274.199	4.57
274.578	3.96
274.957	3.64
275.336	3.88
275.715	3.78
276.093	4.07
276.472	3.5
276.851	3.71
277.229	2.94
277.608	4.41
277.986	3.3
278.365	3.64
278.743	3.45
279.122	4.19
279.5	4.13
279.878	3.39
280.257	4.79
280.635	3.46
281.013	4.67
281.391	3.48
281.769	3.5
282.147	3.26
282.525	3.43
282.903	4.07
283.281	3.81
283.659	4.17
284.037	3.99
284.415	3.91
284.792	3.67
285.17	4.22
285.548	4
285.925	4.04
286.303	3.77
286.68	3.52
287.058	3.89
287.435	3.75
287.813	3.64
288.19	3.19
288.567	3.84
288.945	3.76
289.322	3.92
289.699	3.79
290.076	3.89
290.453	3.69
290.83	3.35
291.207	3.67
291.584	3.08
291.961	3.47
292.338	3.8
292.715	3.73
293.092	3.68
293.469	3.72
293.845	3.61
294.222	3.9
294.599	3.96
294.975	3.81
295.352	4.03
295.728	4.11
296.105	3.99
296.481	3.78
296.858	3.81
297.234	3.92
297.61	3.84
297.986	3.88
298.363	3.87
298.739	3.55
299.115	3.81
299.491	4.09
299.867	4.12
300.243	3.35
300.619	3.61
300.995	3.81
301.371	4.03
301.746	4.09
302.122	3.87
302.498	3.47
302.874	3.89
303.249	3.43
303.625	3.53
304	4.16
304.376	4.15
304.751	4
305.127	3.97
305.502	4.17
305.878	4.03
306.253	4.1
306.628	4.12
307.003	4.27
307.378	3.91
307.754	4.02
308.129	3.68
308.504	4.26
308.879	4.5
309.254	4.08
309.629	3.6
310.003	3.83
310.378	4.04
310.753	3.98
311.128	3.95
311.502	4.02
311.877	3.76
312.252	3.9
312.626	3.92
313.001	3.87
313.375	4.13
313.75	4.26
314.124	4.65
314.498	3.58
314.873	4.17
315.247	4.51
315.621	3.64
315.995	4.04
316.369	3.78
316.743	4.23
317.117	4.23
317.491	4.3
317.865	4.11
318.239	4.17
318.613	4.18
318.987	4.11
319.361	4.11
319.734	3.84
320.108	4.26
320.482	4.18
320.855	4.41
321.229	4.68
321.602	4.2
321.976	4.26
322.349	4.49
322.723	3.87
323.096	4.59
323.469	4.5
323.843	3.27
324.216	3.87
324.589	3.9
324.962	3.49
325.335	3.86
325.708	3.72
326.081	4.39
326.454	3.38
326.827	4.25
327.2	4.1
327.573	4.44
327.945	4.07
328.318	4.28
328.691	4.05
329.063	4.07
329.436	4.14
329.809	4.27
330.181	3.99
330.553	4.16
330.926	4.14
331.298	4.31
331.671	3.95
332.043	3.66
332.415	4.12
332.787	4.4
333.159	4.01
333.532	3.92
333.904	4.19
334.276	4.29
334.648	3.68
335.02	3.93
335.391	4.23
335.763	4.62
336.135	4.07
336.507	4.33
336.879	4
337.25	3.97
337.622	4.4
337.993	4.15
338.365	4.19
338.736	4.36
339.108	4.72
339.479	3.87
339.851	3.47
340.222	4.13
340.593	3.95
340.964	3.92
341.336	3.79
341.707	3.5
342.078	4.17
342.449	4.14
342.82	3.91
343.191	3.39
343.562	4.16
343.933	4.34
344.303	3.87
344.674	4.16
345.045	4.29
345.416	4.12
345.786	3.91
346.157	4.23
346.527	4.22
346.898	4.07
347.268	3.85
347.639	4.13
348.009	4.03
348.38	4.43
348.75	4.23
349.12	3.92
349.49	4.5
349.861	4.37
350.231	4.13
350.601	4.37
350.971	4.06
351.341	3.79
351.711	3.98
352.081	4.02
352.45	4.07
352.82	4.52
353.19	4.16
353.56	4.03
353.929	4.46
354.299	3.93
354.669	4.01
355.038	3.86
355.408	3.92
355.777	4.41
356.147	4.43
356.516	4.28
356.885	4.16
357.254	4.56
357.624	3.59
357.993	3.98
358.362	4.34
358.731	4
359.1	3.96
359.469	4.04
359.838	3.85
360.207	3.86
360.576	3.99
360.945	4.18
361.314	4.1
361.682	4.15
362.051	4.36
362.42	4.07
362.788	4.09
363.157	4.05
363.525	3.85
363.894	4.06
364.262	3.81
364.631	3.86
364.999	3.83
365.367	3.95
365.735	3.99
366.104	3.89
366.472	4.37
366.84	3.95
367.208	4.52
367.576	4.36
367.944	4.15
368.312	4.12
368.68	4.13
369.048	4.09
369.416	4.19
369.783	3.89
370.151	3.93
370.519	3.77
370.886	4.13
371.254	4.43
371.621	3.92
371.989	4.61
372.356	4.01
372.724	3.98
373.091	4.25
373.458	4.06
373.826	4.33
374.193	4.37
374.56	4.41
374.927	4.43
375.294	4.04
375.661	4.09
376.028	4
376.395	4.13
376.762	4.22
377.129	4.36
377.496	4.46
377.863	4.41
378.229	4.26
378.596	4.1
378.963	4.44
379.329	4.13
379.696	4.46
380.062	3.86
380.429	4.11
380.795	4.12
381.161	4.06
381.528	4.24
381.894	3.79
382.26	3.9
382.626	4.08
382.993	4.14
383.359	4.04
383.725	4.16
384.091	4.36
384.457	4.07
384.823	4.29
385.188	4.32
385.554	4.34
385.92	4.39
386.286	4.32
386.651	4.15
387.017	4.2
387.383	4.22
387.748	4.21
388.114	4.13
388.479	4.25
388.845	3.77
389.21	4.19
389.575	4.47
389.94	4.11
390.306	4.28
390.671	4.49
391.036	3.89
391.401	4.18
391.766	4.08
392.131	4.33
392.496	4.59
392.861	3.98
393.226	4.27
393.591	4.3
393.956	4.25
394.32	4.17
394.685	4.22
395.05	4.44
395.414	4.3
395.779	4.29
396.143	4.34
396.508	4.32
396.872	4.26
397.236	4.45
397.601	4.2
397.965	4.16
398.329	4.4
398.694	3.98
399.058	4.32
399.422	4.08
399.786	4.33
400.15	4.47
400.514	4.32
400.878	4.41
401.242	4.42
401.605	4.14
401.969	4.22
402.333	4.48
402.697	4.02
403.06	4.63
403.424	4.26
403.787	4.42
404.151	4.17
404.514	4.66
404.878	4.46
405.241	4.54
405.604	4.33
405.968	4.18
406.331	4.22
406.694	4.42
407.057	4.07
407.42	4.35
407.783	4.28
408.146	4.23
408.509	4.22
408.872	4.21
409.235	4.37
409.598	4.51
409.961	4.55
410.323	4.43
410.686	4.5
411.049	4.51
411.411	4.3
411.774	4.26
412.136	4.24
412.499	4.29
412.861	4.45
413.223	4.41
413.586	4.39
413.948	4.42
414.31	4.53
414.672	4.54
415.035	4.2
415.397	4.56
415.759	4.78
416.121	4.24
416.483	4.33
416.845	4.2
417.206	4.27
417.568	4.37
417.93	4.35
418.292	4.3
418.653	4.28
419.015	4.4
419.377	4.18
419.738	4.3
420.1	4.23
420.461	4.36
420.822	4.29
421.184	4.22
421.545	4.28
421.906	4.3
422.267	4.13
422.629	4.41
422.99	4.24
423.351	4.25
423.712	4.19
424.073	4.21
424.434	4.24
424.795	4.32
425.155	4.29
425.516	4.24
425.877	4.29
426.238	4.18
426.598	4.17
426.959	4.3
427.32	4.38
427.68	4.19
428.041	4.31
428.401	4.39
428.761	4.36
429.122	4.37
429.482	4.29
429.842	4.25
430.202	4.25
430.563	4.45
430.923	4.46
431.283	4.39
431.643	4.59
432.003	4.5
432.363	4.78
432.722	4.71
433.082	4.57
433.442	4.45
433.802	4.58
434.161	4.34
434.521	4.4
434.881	4.47
435.24	4.39
435.6	4.3
435.959	4.26
436.319	4.36
436.678	4.48
437.037	4.51
437.396	4.38
437.756	4.43
438.115	4.43
438.474	4.51
438.833	4.63
439.192	4.4
439.551	4.5
439.91	4.59
440.269	4.46
440.628	4.42
440.987	4.45
441.345	4.42
441.704	4.44
442.063	4.49
442.421	4.46
442.78	4.38
443.138	4.42
443.497	4.35
443.855	4.48
444.214	4.32
444.572	4.37
444.93	4.5
445.288	4.41
445.647	4.58
446.005	4.48
446.363	4.38
446.721	4.32
447.079	4.17
447.437	4.41
447.795	4.5
448.153	4.45
448.51	4.41
448.868	4.32
449.226	4.46
449.584	4.39
449.941	4.38
450.299	4.52
450.656	4.47
451.014	4.45
451.371	4.56
451.729	4.54
452.086	4.51
452.443	4.62
452.801	4.65
453.158	4.42
453.515	4.72
453.872	4.51
454.229	4.46
454.586	4.63
454.943	4.57
455.3	4.5
455.657	4.36
456.014	4.46
456.371	4.58
456.727	4.7
457.084	4.54
457.441	4.52
457.797	4.61
458.154	4.6
458.51	4.54
458.867	4.46
459.223	4.53
459.58	4.59
459.936	4.67
460.292	4.61
460.648	4.62
461.005	4.58
461.361	4.61
461.717	4.36
462.073	4.46
462.429	4.37
462.785	4.44
463.141	4.46
463.496	4.6
463.852	4.65
464.208	4.54
464.564	4.72
464.919	4.61
465.275	4.76
465.631	4.69
465.986	4.67
466.342	4.67
466.697	4.79
467.052	4.73
467.408	4.65
467.763	4.62
468.118	4.9
468.473	4.72
468.829	4.54
469.184	4.76
469.539	4.76
469.894	4.62
470.249	4.79
470.603	4.58
470.958	4.73
471.313	4.75
471.668	4.63
472.023	4.71
472.377	4.75
472.732	4.74
473.086	4.73
473.441	4.44
473.795	5.17
474.15	4.55
474.504	4.7
474.859	4.85
475.213	4.57
475.567	4.74
475.921	4.77
476.275	4.74
476.63	4.7
476.984	4.75
477.338	4.84
477.692	4.87
478.045	4.82
478.399	4.99
478.753	4.79
479.107	4.81
479.461	4.81
479.814	4.92
480.168	4.82
480.521	4.81
480.875	4.89
481.228	4.69
481.582	4.59
481.935	4.76
482.289	4.67
482.642	4.65
482.995	4.73
483.348	4.79
483.701	4.78
484.055	4.75
484.408	4.64
484.761	4.78
485.114	4.55
485.466	4.54
485.819	4.47
486.172	4.46
486.525	4.45
486.878	4.48
487.23	4.49
487.583	4.56
487.936	4.62
488.288	4.75
488.641	4.66
488.993	4.59
489.345	4.61
489.698	4.54
490.05	4.59
490.402	4.57
490.754	4.61
491.107	4.56
491.459	4.71
491.811	4.7
492.163	4.73
492.515	4.72
492.866	4.82
493.218	4.74
493.57	4.76
493.922	4.61
494.274	4.64
494.625	4.66
494.977	4.7
495.328	4.86
495.68	4.89
496.031	4.87
496.383	4.97
496.734	4.9
497.086	4.94
497.437	4.88
497.788	5
498.139	4.98
498.49	5.02
498.842	4.88
499.193	4.87
499.544	4.93
499.894	4.93
500.245	4.92
500.596	4.87
500.947	4.99
501.298	4.98
501.648	5.06
501.999	5.01
502.35	5.01
502.7	5.24
503.051	5.06
503.401	5.04
503.752	5.07
504.102	5.09
504.452	4.98
504.803	5.03
505.153	5.02
505.503	4.91
505.853	5.09
506.203	5.04
506.553	5.16
506.903	5.14
507.253	5.09
507.603	5.13
507.953	5.2
508.303	5.12
508.652	5.14
509.002	5.2
509.352	5.1
509.701	5.12
510.051	5.22
510.4	5.22
510.75	5.13
511.099	4.97
511.449	5.22
511.798	5.17
512.147	5.17
512.496	5.1
512.846	5.1
513.195	5.15
513.544	5.2
513.893	5.19
514.242	5.25
514.591	5.16
514.939	5.31
515.288	5.22
515.637	5.28
515.986	5.19
516.334	5.24
516.683	5.31
517.032	5.47
517.38	5.42
517.729	5.28
518.077	5.35
518.426	5.32
518.774	5.33
519.122	5.33
519.47	5.26
519.819	5.31
520.167	5.34
520.515	5.28
520.863	5.28
521.211	5.22
521.559	5.27
521.907	5.35
522.255	5.34
522.602	5.36
522.95	5.35
523.298	5.43
523.645	5.44
523.993	5.35
524.341	5.39
524.688	5.58
525.036	5.38
525.383	5.45
525.73	5.58
526.078	5.47
526.425	5.46
526.772	5.59
527.119	5.5
527.466	5.38
527.814	5.37
528.161	5.37
528.508	5.44
528.854	5.47
529.201	5.49
529.548	5.4
529.895	5.42
530.242	5.36
530.588	5.31
530.935	5.27
531.282	5.26
531.628	5.39
531.975	5.35
532.321	5.4
532.667	5.47
533.014	5.47
533.36	5.55
533.706	5.52
534.052	5.69
534.399	5.64
534.745	5.66
535.091	5.53
535.437	5.48
535.783	5.45
536.129	5.52
536.474	5.57
536.82	5.56
537.166	5.71
537.512	5.69
537.857	5.72
538.203	5.78
538.549	5.62
538.894	5.65
539.239	5.74
539.585	5.7
539.93	5.79
540.276	5.82
540.621	5.84
540.966	5.92
541.311	5.9
541.656	5.87
542.001	5.92
542.346	5.96
542.691	5.87
543.036	5.86
543.381	5.75
543.726	5.72
544.071	5.81
544.415	5.77
544.76	5.75
545.105	5.79
545.449	5.87
545.794	5.98
546.138	5.96
546.483	6.01
546.827	5.98
547.171	6.01
547.516	6.18
547.86	6.25
548.204	6.16
548.548	6.1
548.892	6.16
549.236	6.01
549.58	6.08
549.924	6.23
550.268	6.32
550.612	6.21
550.956	6.36
551.3	6.34
551.643	6.29
551.987	6.34
552.33	6.62
552.674	6.35
553.017	6.26
553.361	6.47
553.704	6.62
554.048	6.66
554.391	6.54
554.734	6.53
555.077	6.44
555.42	6.5
555.764	6.5
556.107	6.5
556.45	6.54
556.793	6.45
557.135	6.69
557.478	6.52
557.821	6.73
558.164	6.75
558.507	6.62
558.849	6.56
559.192	6.81
559.534	6.89
559.877	6.65
560.219	6.73
560.562	6.84
560.904	6.95
561.246	7.05
561.589	6.9
561.931	6.81
562.273	6.86
562.615	6.72
562.957	6.78
563.299	7.02
563.641	7
563.983	7.04
564.325	7.02
564.667	6.95
565.008	6.98
565.35	7.07
565.692	7.11
566.033	7.15
566.375	7.13
566.716	7.18
567.058	7.11
567.399	7.2
567.741	7.36
568.082	7.04
568.423	7.26
568.764	7.31
569.105	7.03
569.447	7.17
569.788	7.18
570.129	7.1
570.47	7.36
570.811	7.34
571.151	7.45
571.492	7.23
571.833	7.2
572.174	7.49
572.514	7.4
572.855	7.44
573.195	7.38
573.536	7.53
573.876	7.52
574.217	7.45
574.557	7.52
574.898	7.59
575.238	7.53
575.578	7.66
575.918	7.64
576.258	7.53
576.598	7.6
576.938	7.72
577.278	7.67
577.618	7.56
577.958	7.77
578.298	7.93
578.638	7.75
578.977	7.86
579.317	7.91
579.657	7.96
579.996	7.92
580.336	7.91
580.675	8.09
581.014	7.9
581.354	7.86
581.693	8.04
582.032	8.12
582.372	8.33
582.711	8.06
583.05	7.97
583.389	8.23
583.728	8.1
584.067	8.3
584.406	8.32
584.745	8.27
585.083	8.27
585.422	8.51
585.761	8.37
586.1	8.49
586.438	8.28
586.777	8.45
587.115	8.68
587.454	8.25
587.792	8.48
588.13	8.5
588.469	8.55
588.807	8.68
589.145	8.61
589.483	8.84
589.821	8.73
590.159	8.59
590.497	8.68
590.835	8.72
591.173	8.79
591.511	8.68
591.849	8.85
592.187	8.8
592.524	8.89
592.862	8.85
593.2	8.78
593.537	8.89
593.875	9.02
594.212	8.98
594.55	9.22
594.887	8.83
595.224	9.07
595.561	9.2
595.899	9.09
596.236	9.3
596.573	9.08
596.91	9.07
597.247	9.16
597.584	9.37
597.921	9.23
598.258	9.24
598.594	9.35
598.931	9.33
599.268	9.29
599.604	9.19
599.941	9.33
600.277	9.19
600.614	9.34
600.95	9.71
601.287	9.56
601.623	9.55
601.959	9.72
602.296	9.63
602.632	9.56
602.968	9.55
603.304	9.6
603.64	9.68
603.976	9.72
604.312	9.75
604.648	9.89
604.984	9.6
605.319	9.84
605.655	9.87
605.991	9.54
606.326	9.84
606.662	9.71
606.998	9.77
607.333	9.92
607.668	9.94
608.004	10.04
608.339	9.78
608.674	10.06
609.01	10.02
609.345	10.2
609.68	10.23
610.015	10.16
610.35	10.23
610.685	10.26
611.02	10.2
611.355	10.31
611.689	10.18
612.024	10.39
612.359	10.35
612.694	10.21
613.028	10.3
613.363	10.14
613.697	10.46
614.032	10.28
614.366	10.27
614.7	10.51
615.035	10.82
615.369	10.49
615.703	10.67
616.037	10.84
616.371	11.05
616.705	10.95
617.039	10.98
617.373	10.99
617.707	10.69
618.041	11.2
618.375	11.05
618.709	11.02
619.042	11.16
619.376	11.17
619.71	10.95
620.043	10.74
620.377	10.98
620.71	11.15
621.043	11.39
621.377	11.09
621.71	11.06
622.043	11.04
622.376	11.33
622.709	11.3
623.043	11.4
623.376	11.21
623.709	11.64
624.041	11.07
624.374	11.55
624.707	11.45
625.04	11.56
625.373	11.17
625.705	11.28
626.038	11.63
626.37	11.71
626.703	11.5
627.035	11.69
627.368	11.38
627.7	11.99
628.032	11.73
628.365	11.87
628.697	12.07
629.029	11.89
629.361	11.8
629.693	12.16
630.025	11.86
630.357	11.57
630.689	12.05
631.021	11.69
631.353	12
631.684	11.9
632.016	12.07
632.348	12.08
632.679	11.83
633.011	12.15
633.342	12.31
633.674	12.23
634.005	11.92
634.336	12.63
634.668	12.47
634.999	12.33
635.33	12.56
635.661	12.39
635.992	12.42
636.323	12.25
636.654	12.38
636.985	12.46
637.316	12.46
637.647	12.74
637.977	12.32
638.308	12.9
638.639	12.56
638.969	12.84
639.3	12.64
639.63	13.03
639.961	13.08
640.291	12.62
640.622	12.84
640.952	13.17
641.282	13.06
641.612	12.97
641.943	13.35
642.273	12.87
642.603	12.96
642.933	12.73
643.263	12.86
643.592	12.64
643.922	13.54
644.252	12.96
644.582	13.37
644.911	13.55
645.241	13.46
645.571	12.97
645.9	13.12
646.23	13.82
646.559	13.54
646.888	13.8
647.218	13.51
647.547	13.29
647.876	13.63
648.205	13.32
648.534	14
648.863	13.75
649.192	13.61
649.521	13.52
649.85	14.35
650.179	13.97
650.508	13.68
650.837	13.89
651.165	13.87
651.494	14.07
651.822	14.17
652.151	13.71
652.479	13.83
652.808	13.99
653.136	14.3
653.465	14.24
653.793	14.2
654.121	14.33
654.449	14.09
654.777	14.2
655.105	14.54
655.433	14.42
655.761	14.57
656.089	14.33
656.417	14.4
656.745	14.63
657.073	14.3
657.4	14.79
657.728	14.08
658.056	14.38
658.383	14.91
658.711	14.19
659.038	14.24
659.365	14.6
659.693	14.75
660.02	15.05
660.347	15.03
660.674	14.42
661.001	14.48
661.329	14.58
661.656	14.99
661.982	14.81
662.309	15.35
662.636	14.7
662.963	14.83
663.29	14.82
663.616	15.02
663.943	15.46
664.27	14.81
664.596	15.19
664.923	15.17
665.249	15.17
665.576	14.7
665.902	15.84
666.228	15.28
666.554	14.93
666.881	15.44
667.207	15.78
667.533	15.56
667.859	15.85
668.185	15.52
668.511	15.85
668.837	15.16
669.162	15.6
669.488	15.69
669.814	15.76
670.139	15.66
670.465	15.75
670.791	15.67
671.116	15.62
671.442	16.37
671.767	15.37
672.092	16.05
672.418	16.05
672.743	15.72
673.068	15.82
673.393	15.44
673.718	15.93
674.043	15.91
674.368	15.88
674.693	16.83
675.018	15.81
675.343	16.25
675.667	15.98
675.992	16.26
676.317	16.38
676.641	16.37
676.966	16.26
677.29	16.36
677.615	16.27
677.939	16.77
678.264	16.16
678.588	16.86
678.912	16.14
679.236	16.67
679.56	16.93
679.885	16.57
680.209	16.81
680.532	16.8
680.856	16.63
681.18	17.48
681.504	16.81
681.828	16.51
682.152	16.95
682.475	17.14
682.799	17.23
683.122	16.82
683.446	17.34
683.769	16.72
684.093	17.55
684.416	17.35
684.739	17.17
685.062	17.72
685.386	17.12
685.709	17.12
686.032	17.18
686.355	17.6
686.678	17.5
687.001	17.65
