Data from 0211_forehead_Reflection__3__265.txt Node

Date: Fri Sep 22 22:51:59 CDT 2023
User: ToomeyLab
Spectrometer: FLMS14357
Trigger mode: 0
Integration Time (sec): 1.000000E-2
Scans to average: 100
Electric dark correction enabled: true
Nonlinearity correction enabled: false
Boxcar width: 0
XAxis mode: Wavelengths
Number of Pixels in Spectrum: 2048
>>>>>Begin Spectral Data<<<<<
189.047	527.01
189.435	527.01
189.823	527.01
190.211	-4.93
190.599	42.57
190.987	62.35
191.375	-180.63
191.763	472.11
192.151	78.11
192.538	887.56
192.926	59.71
193.314	100.08
193.702	-9217.24
194.089	-935.53
194.477	254.02
194.864	160.03
195.252	152.17
195.639	289.41
196.027	-4.5
196.414	153.01
196.801	76.43
197.189	-2727.2
197.576	0.52
197.963	-0.64
198.351	21.63
198.738	26.89
199.125	2.81
199.512	34.65
199.899	64.1
200.286	25.85
200.673	34.71
201.06	38.42
201.447	50.34
201.833	3.11
202.22	33.37
202.607	30.52
202.994	61.94
203.38	20.23
203.767	30.41
204.154	39.5
204.54	44.7
204.927	31.92
205.313	9.84
205.699	39.86
206.086	41.52
206.472	30.05
206.858	40.62
207.245	-15.88
207.631	20
208.017	21.76
208.403	16.52
208.789	41.81
209.175	45.03
209.561	36.87
209.947	29.38
210.333	35.71
210.719	13.64
211.105	34.58
211.491	15.64
211.876	48.93
212.262	32.08
212.648	45.96
213.034	8.52
213.419	39.76
213.805	30.41
214.19	22.13
214.576	16.15
214.961	20.83
215.346	10.81
215.732	30.52
216.117	14.12
216.502	25.63
216.888	5.14
217.273	31.06
217.658	14.96
218.043	23.44
218.428	30.47
218.813	3.28
219.198	18.47
219.583	15.22
219.968	-0.46
220.353	31.1
220.738	19.52
221.122	6.03
221.507	0.56
221.892	19.6
222.276	2.45
222.661	-11.77
223.046	27.63
223.43	22.8
223.815	4.06
224.199	12.15
224.583	13.34
224.968	25.98
225.352	14.87
225.736	8.67
226.121	8.3
226.505	7.56
226.889	10.36
227.273	2.58
227.657	2.47
228.041	6.37
228.425	4.35
228.809	6.2
229.193	8.11
229.577	8.22
229.961	8.38
230.344	8.07
230.728	3.72
231.112	5.32
231.495	4.39
231.879	5.22
232.263	4.03
232.646	6.48
233.03	4.2
233.413	5.31
233.797	4.07
234.18	3.39
234.563	7.64
234.946	4.85
235.33	3.72
235.713	1.83
236.096	4.4
236.479	4.35
236.862	7.05
237.245	5.25
237.628	4.93
238.011	4.69
238.394	5.41
238.777	6.78
239.16	5.73
239.543	7.24
239.925	6.47
240.308	6.21
240.691	3.15
241.073	5.11
241.456	5.12
241.838	4.68
242.221	4.62
242.603	5.54
242.986	3.8
243.368	4.87
243.75	5.6
244.133	5.1
244.515	4.57
244.897	4.33
245.279	4.4
245.661	4.86
246.043	4.75
246.425	5.93
246.807	5.56
247.189	2.95
247.571	5.46
247.953	5.22
248.335	4.74
248.717	4.56
249.098	4.57
249.48	4.43
249.862	4.47
250.243	4.46
250.625	5.05
251.006	4.57
251.388	4.74
251.769	5.14
252.151	4.87
252.532	4.79
252.913	5.34
253.295	6.23
253.676	5.29
254.057	4.79
254.438	4.34
254.819	4.46
255.2	4.55
255.581	4.53
255.962	5.68
256.343	6.01
256.724	4.69
257.105	4.95
257.486	5.2
257.867	5.24
258.247	6.41
258.628	6.1
259.009	5.1
259.389	5.08
259.77	5.1
260.15	5.08
260.531	5.01
260.911	4.22
261.292	4.85
261.672	4.18
262.052	4.53
262.432	4.55
262.813	4.65
263.193	4.63
263.573	4.97
263.953	4.42
264.333	4.52
264.713	4.56
265.093	4.69
265.473	4.86
265.853	4.86
266.233	4.89
266.612	5.06
266.992	5.71
267.372	4.96
267.752	5.02
268.131	4.76
268.511	4.44
268.89	4.99
269.27	4.81
269.649	4.31
270.029	4.63
270.408	4.66
270.787	4.23
271.167	4.76
271.546	4.31
271.925	4.86
272.304	4.26
272.683	4.63
273.062	4.73
273.441	4.56
273.82	4.91
274.199	4.72
274.578	4.53
274.957	4.6
275.336	4.73
275.715	4.56
276.093	4.09
276.472	4.99
276.851	5.15
277.229	4.19
277.608	4.84
277.986	4.36
278.365	4.89
278.743	5.35
279.122	4.4
279.5	5
279.878	4.2
280.257	5.07
280.635	5.11
281.013	4.86
281.391	4.5
281.769	4.38
282.147	4.65
282.525	4.53
282.903	5.24
283.281	4.68
283.659	5.06
284.037	4.7
284.415	5
284.792	4.86
285.17	5.04
285.548	4.79
285.925	4.79
286.303	4.6
286.68	4.47
287.058	4.8
287.435	4.56
287.813	4.38
288.19	4.49
288.567	4.67
288.945	4.56
289.322	4.87
289.699	4.87
290.076	4.86
290.453	4.43
290.83	4.24
291.207	4.86
291.584	4.69
291.961	4.46
292.338	4.35
292.715	4.94
293.092	5.06
293.469	4.72
293.845	4.51
294.222	5.01
294.599	4.84
294.975	5.36
295.352	4.73
295.728	5.41
296.105	5
296.481	4.85
296.858	5.7
297.234	5.07
297.61	5.33
297.986	5.97
298.363	5.14
298.739	5.69
299.115	5.47
299.491	5.63
299.867	5.42
300.243	5.47
300.619	5.77
300.995	5.44
301.371	5.68
301.746	5.99
302.122	5.69
302.498	6.07
302.874	5.58
303.249	5.72
303.625	5.73
304	6.12
304.376	5.96
304.751	6.18
305.127	5.61
305.502	6.81
305.878	6.64
306.253	6.39
306.628	6.28
307.003	6.11
307.378	6.35
307.754	6.09
308.129	6.5
308.504	6.79
308.879	6.31
309.254	6.41
309.629	6.52
310.003	7.15
310.378	6.75
310.753	7.13
311.128	6.54
311.502	6.83
311.877	6.11
312.252	6.85
312.626	6.84
313.001	7.31
313.375	7.34
313.75	7.2
314.124	7.34
314.498	6.85
314.873	7.46
315.247	8.15
315.621	7.44
315.995	7.26
316.369	7.16
316.743	7.6
317.117	7.71
317.491	7.84
317.865	7.91
318.239	7.48
318.613	7.9
318.987	8.12
319.361	8.02
319.734	7.53
320.108	8.33
320.482	7.78
320.855	8
321.229	8.81
321.602	8.29
321.976	8.4
322.349	8.64
322.723	8.36
323.096	8.4
323.469	8.47
323.843	8.65
324.216	8.82
324.589	8.32
324.962	8.84
325.335	8.36
325.708	8.65
326.081	9.35
326.454	8.26
326.827	9.04
327.2	8.88
327.573	9.21
327.945	8.73
328.318	9.46
328.691	8.99
329.063	8.67
329.436	9.06
329.809	9.3
330.181	9.28
330.553	9.08
330.926	9.69
331.298	9.72
331.671	9.38
332.043	8.85
332.415	9.45
332.787	10.36
333.159	9.35
333.532	9.38
333.904	9.72
334.276	9.95
334.648	9.5
335.02	9.8
335.391	9.35
335.763	10.25
336.135	9.79
336.507	10.23
336.879	9.83
337.25	10.22
337.622	10.06
337.993	10.49
338.365	10.85
338.736	10.92
339.108	10.85
339.479	10.35
339.851	10.26
340.222	10.16
340.593	10.56
340.964	10.6
341.336	10.42
341.707	10.31
342.078	10.67
342.449	10.96
342.82	10.19
343.191	10.72
343.562	11.12
343.933	10.98
344.303	10.58
344.674	11.17
345.045	10.9
345.416	10.86
345.786	10.78
346.157	10.72
346.527	10.9
346.898	11.2
347.268	10.81
347.639	11.03
348.009	11.53
348.38	11.83
348.75	11.56
349.12	11.57
349.49	11.94
349.861	11.5
350.231	11.78
350.601	11.99
350.971	11.75
351.341	11.81
351.711	11.79
352.081	11.63
352.45	12.09
352.82	12.22
353.19	12.2
353.56	11.81
353.929	12.38
354.299	12.01
354.669	12.16
355.038	12.33
355.408	12.42
355.777	12.4
356.147	12.2
356.516	12.05
356.885	12.22
357.254	12.82
357.624	11.97
357.993	12.7
358.362	12.32
358.731	12.48
359.1	12.7
359.469	12.8
359.838	12.27
360.207	12.48
360.576	12.9
360.945	12.79
361.314	13.17
361.682	13.08
362.051	13.26
362.42	12.94
362.788	12.77
363.157	13.14
363.525	12.88
363.894	12.66
364.262	13.06
364.631	13.04
364.999	12.89
365.367	13.55
365.735	13.22
366.104	13.22
366.472	13.5
366.84	13.23
367.208	13.61
367.576	13.8
367.944	13.21
368.312	13.71
368.68	13.75
369.048	14.04
369.416	13.68
369.783	13.83
370.151	13.75
370.519	13.9
370.886	14.19
371.254	14.25
371.621	13.93
371.989	14.19
372.356	14.01
372.724	14.37
373.091	14.54
373.458	14.36
373.826	14.33
374.193	14.49
374.56	14.5
374.927	14.86
375.294	14.55
375.661	14.32
376.028	14.55
376.395	14.92
376.762	14.9
377.129	14.87
377.496	15.36
377.863	15.14
378.229	15.3
378.596	15.01
378.963	15.28
379.329	14.69
379.696	15.26
380.062	14.93
380.429	15.32
380.795	15.57
381.161	15.39
381.528	15.43
381.894	15.05
382.26	15.58
382.626	15.41
382.993	15.56
383.359	15.44
383.725	15.15
384.091	15.55
384.457	15.47
384.823	15.91
385.188	15.97
385.554	15.93
385.92	15.82
386.286	15.99
386.651	15.93
387.017	15.9
387.383	16.11
387.748	15.84
388.114	15.86
388.479	15.87
388.845	15.83
389.21	16.05
389.575	16.41
389.94	15.95
390.306	16.37
390.671	16.85
391.036	16.16
391.401	16.41
391.766	16.58
392.131	16.42
392.496	16.56
392.861	16.75
393.226	16.96
393.591	17.06
393.956	16.88
394.32	16.83
394.685	16.86
395.05	16.95
395.414	16.92
395.779	17.03
396.143	16.99
396.508	17.01
396.872	17.06
397.236	17.12
397.601	17.16
397.965	17.35
398.329	17.2
398.694	17.03
399.058	17.34
399.422	17.44
399.786	17.49
400.15	17.4
400.514	17.95
400.878	17.81
401.242	17.77
401.605	17.54
401.969	17.71
402.333	17.72
402.697	17.59
403.06	17.64
403.424	17.91
403.787	18.05
404.151	17.88
404.514	18.04
404.878	18.06
405.241	18.46
405.604	18.3
405.968	18.33
406.331	18.19
406.694	18.24
407.057	18.2
407.42	18.4
407.783	18.27
408.146	18.25
408.509	18.27
408.872	18.52
409.235	18.75
409.598	18.71
409.961	18.7
410.323	18.69
410.686	18.91
411.049	18.88
411.411	19.04
411.774	18.8
412.136	18.95
412.499	18.95
412.861	19.02
413.223	19.09
413.586	19.08
413.948	19.34
414.31	19.4
414.672	19.3
415.035	19.29
415.397	19.64
415.759	20.02
416.121	19.49
416.483	19.61
416.845	19.41
417.206	19.72
417.568	19.6
417.93	19.64
418.292	19.67
418.653	19.54
419.015	19.62
419.377	19.55
419.738	19.83
420.1	19.64
420.461	20.01
420.822	19.85
421.184	19.78
421.545	19.63
421.906	19.85
422.267	19.64
422.629	19.87
422.99	19.74
423.351	19.73
423.712	19.7
424.073	19.87
424.434	20
424.795	20.1
425.155	20.13
425.516	20.19
425.877	20.24
426.238	20.08
426.598	20.1
426.959	20.1
427.32	20.19
427.68	20.18
428.041	20.33
428.401	20.69
428.761	20.65
429.122	20.88
429.482	20.82
429.842	20.75
430.202	20.76
430.563	20.97
430.923	21.22
431.283	21.24
431.643	21.33
432.003	21.09
432.363	21.36
432.722	21.25
433.082	21.37
433.442	21.33
433.802	21.66
434.161	21.37
434.521	21.28
434.881	21.59
435.24	21.36
435.6	21.43
435.959	21.48
436.319	21.5
436.678	21.67
437.037	21.59
437.396	21.75
437.756	21.92
438.115	21.86
438.474	21.91
438.833	22.05
439.192	21.9
439.551	22.2
439.91	22.03
440.269	22.28
440.628	22.1
440.987	22
441.345	22.05
441.704	22.19
442.063	21.94
442.421	22.14
442.78	22.15
443.138	22.14
443.497	22.24
443.855	22.21
444.214	22.15
444.572	22.32
444.93	22.54
445.288	22.46
445.647	22.67
446.005	22.6
446.363	22.57
446.721	22.77
447.079	22.55
447.437	22.75
447.795	22.63
448.153	22.47
448.51	22.48
448.868	22.49
449.226	22.56
449.584	22.68
449.941	22.59
450.299	22.92
450.656	23
451.014	23.04
451.371	23.04
451.729	23.13
452.086	23.25
452.443	23.34
452.801	23.45
453.158	23.41
453.515	23.76
453.872	23.69
454.229	23.71
454.586	23.67
454.943	23.62
455.3	23.65
455.657	23.56
456.014	23.71
456.371	23.72
456.727	23.94
457.084	24.02
457.441	24.07
457.797	23.92
458.154	24.19
458.51	24.07
458.867	23.99
459.223	24.22
459.58	24.2
459.936	24.11
460.292	24.26
460.648	24.27
461.005	24.41
461.361	24.26
461.717	24.01
462.073	24.03
462.429	23.85
462.785	24.02
463.141	24.22
463.496	24.48
463.852	24.54
464.208	24.69
464.564	24.82
464.919	24.88
465.275	24.69
465.631	25.04
465.986	24.96
466.342	25.34
466.697	25.28
467.052	24.96
467.408	25.14
467.763	25.05
468.118	25.41
468.473	25.13
468.829	25.2
469.184	25.27
469.539	25.26
469.894	25.41
470.249	25.47
470.603	25.42
470.958	25.49
471.313	25.56
471.668	25.46
472.023	25.72
472.377	25.57
472.732	25.73
473.086	25.95
473.441	25.9
473.795	26.25
474.15	25.89
474.504	25.76
474.859	25.98
475.213	25.94
475.567	25.82
475.921	26.05
476.275	26.15
476.63	26.28
476.984	26.09
477.338	26.41
477.692	26.44
478.045	26.5
478.399	26.36
478.753	26.31
479.107	26.47
479.461	26.24
479.814	26.43
480.168	26.27
480.521	26.34
480.875	26.55
481.228	26.6
481.582	26.65
481.935	26.45
482.289	26.39
482.642	26.41
482.995	26.49
483.348	26.67
483.701	26.62
484.055	26.51
484.408	26.57
484.761	26.35
485.114	26.27
485.466	26.07
485.819	25.88
486.172	25.89
486.525	25.8
486.878	25.9
487.23	26.05
487.583	26.14
487.936	26.39
488.288	26.48
488.641	26.61
488.993	26.54
489.345	26.46
489.698	26.48
490.05	26.54
490.402	26.33
490.754	26.5
491.107	26.57
491.459	26.78
491.811	26.94
492.163	27.14
492.515	27.28
492.866	27.23
493.218	27.25
493.57	27.09
493.922	26.95
494.274	26.97
494.625	27.02
494.977	27.16
495.328	27.43
495.68	27.64
496.031	27.84
496.383	28.13
496.734	28.03
497.086	28.19
497.437	28.29
497.788	28.28
498.139	28.54
498.49	28.39
498.842	28.23
499.193	28.08
499.544	28.19
499.894	28.16
500.245	28.52
500.596	28.4
500.947	28.46
501.298	28.66
501.648	28.66
501.999	28.72
502.35	28.82
502.7	28.96
503.051	29.01
503.401	29.02
503.752	29.05
504.102	28.97
504.452	29.08
504.803	29.14
505.153	29.13
505.503	29.3
505.853	29.2
506.203	29.17
506.553	29.18
506.903	29.3
507.253	29.36
507.603	29.48
507.953	29.41
508.303	29.58
508.652	29.71
509.002	29.87
509.352	29.5
509.701	29.61
510.051	29.65
510.4	29.84
510.75	29.82
511.099	29.71
511.449	29.67
511.798	29.73
512.147	29.78
512.496	29.8
512.846	29.93
513.195	29.89
513.544	30.05
513.893	30.02
514.242	30.03
514.591	30.05
514.939	30.05
515.288	30.08
515.637	30.18
515.986	30.22
516.334	30.28
516.683	30.44
517.032	30.61
517.38	30.66
517.729	30.67
518.077	30.68
518.426	30.65
518.774	30.62
519.122	30.72
519.47	30.72
519.819	30.75
520.167	30.63
520.515	30.58
520.863	30.59
521.211	30.45
521.559	30.59
521.907	30.41
522.255	30.85
522.602	30.94
522.95	30.98
523.298	31.15
523.645	31.21
523.993	31.14
524.341	31.31
524.688	31.31
525.036	31.47
525.383	31.52
525.73	31.67
526.078	31.52
526.425	31.55
526.772	31.6
527.119	31.45
527.466	31.33
527.814	31.22
528.161	31.22
528.508	31.27
528.854	31.28
529.201	31.45
529.548	31.36
529.895	31.34
530.242	31.23
530.588	31.05
530.935	31
531.282	31.05
531.628	31.06
531.975	31.07
532.321	31.26
532.667	31.44
533.014	31.6
533.36	31.81
533.706	31.87
534.052	32.18
534.399	32.1
534.745	32.09
535.091	31.85
535.437	31.93
535.783	31.74
536.129	31.79
536.474	32.01
536.82	32.09
537.166	32.27
537.512	32.42
537.857	32.37
538.203	32.67
538.549	32.5
538.894	32.49
539.239	32.54
539.585	32.51
539.93	32.68
540.276	32.8
540.621	32.89
540.966	33.17
541.311	33.35
541.656	33.46
542.001	33.34
542.346	33.42
542.691	33.15
543.036	33.02
543.381	32.8
543.726	32.69
544.071	32.71
544.415	32.83
544.76	32.87
545.105	33.1
545.449	33.14
545.794	33.24
546.138	33.15
546.483	33.46
546.827	33.61
547.171	33.71
547.516	33.81
547.86	34
548.204	34.06
548.548	34
548.892	33.86
549.236	33.95
549.58	34.05
549.924	34.2
550.268	34.3
550.612	34.35
550.956	34.39
551.3	34.59
551.643	34.66
551.987	34.88
552.33	35.16
552.674	34.74
553.017	34.94
553.361	34.96
553.704	34.96
554.048	35.17
554.391	35.23
554.734	35.15
555.077	34.98
555.42	34.95
555.764	35
556.107	35.12
556.45	35.31
556.793	35.46
557.135	35.74
557.478	35.48
557.821	35.7
558.164	35.49
558.507	35.84
558.849	35.66
559.192	35.54
559.534	35.98
559.877	35.89
560.219	36.04
560.562	35.94
560.904	35.84
561.246	36.11
561.589	36.21
561.931	36.19
562.273	36.09
562.615	36.09
562.957	36.06
563.299	36.24
563.641	36.01
563.983	36.18
564.325	36.27
564.667	36.23
565.008	36.26
565.35	36.19
565.692	36.41
566.033	36.48
566.375	36.57
566.716	36.62
567.058	36.71
567.399	36.7
567.741	36.64
568.082	36.63
568.423	36.6
568.764	36.72
569.105	36.76
569.447	36.77
569.788	36.59
570.129	36.69
570.47	36.91
570.811	36.91
571.151	37.38
571.492	37.08
571.833	37.13
572.174	37.34
572.514	37.32
572.855	37.41
573.195	37.13
573.536	37.43
573.876	37.43
574.217	37.39
574.557	37.23
574.898	37.4
575.238	37.33
575.578	37.36
575.918	37.69
576.258	37.78
576.598	37.45
576.938	37.8
577.278	37.81
577.618	37.73
577.958	37.92
578.298	38.04
578.638	37.85
578.977	38.02
579.317	38.36
579.657	38.32
579.996	38.21
580.336	38.31
580.675	38.48
581.014	38.54
581.354	38.2
581.693	38.4
582.032	38.61
582.372	38.66
582.711	38.57
583.05	38.62
583.389	39
583.728	39.14
584.067	39.22
584.406	39.11
584.745	38.84
585.083	39.28
585.422	39.44
585.761	39.17
586.1	39.12
586.438	39.45
586.777	39.33
587.115	39.37
587.454	39.35
587.792	39.56
588.13	39.47
588.469	39.85
588.807	39.61
589.145	39.67
589.483	39.41
589.821	39.73
590.159	39.79
590.497	39.95
590.835	39.8
591.173	39.79
591.511	39.79
591.849	39.97
592.187	39.77
592.524	40.33
592.862	39.92
593.2	39.99
593.537	39.9
593.875	40.08
594.212	40.12
594.55	40.18
594.887	39.93
595.224	39.87
595.561	40.49
595.899	40.3
596.236	40.11
596.573	40.48
596.91	40.19
597.247	40.42
597.584	40.4
597.921	40.7
598.258	40.6
598.594	40.66
598.931	40.49
599.268	40.33
599.604	40.48
599.941	40.44
600.277	40.62
600.614	40.43
600.95	40.45
601.287	40.89
601.623	41.05
601.959	41.19
602.296	41.14
602.632	40.72
602.968	41.17
603.304	41.29
603.64	41.27
603.976	41.17
604.312	41.3
604.648	41.5
604.984	41.08
605.319	41.05
605.655	41.4
605.991	41.17
606.326	41.25
606.662	41.18
606.998	41
607.333	41.2
607.668	41.34
608.004	41.53
608.339	41.42
608.674	41.68
609.01	41.77
609.345	41.87
609.68	42.14
610.015	42.02
610.35	42.1
610.685	42.4
611.02	41.83
611.355	42.23
611.689	41.81
612.024	42.18
612.359	41.89
612.694	41.79
613.028	41.92
613.363	41.95
613.697	42.09
614.032	42.16
614.366	42.39
614.7	42.57
615.035	42.47
615.369	42.42
615.703	42.78
616.037	42.61
616.371	42.9
616.705	42.84
617.039	42.75
617.373	42.97
617.707	42.57
618.041	43.25
618.375	43.45
618.709	42.84
619.042	42.78
619.376	42.89
619.71	42.94
620.043	43.04
620.377	42.95
620.71	43.29
621.043	42.99
621.377	43.15
621.71	43.79
622.043	43.13
622.376	43.56
622.709	43.41
623.043	43.43
623.376	43.44
623.709	43.66
624.041	43.41
624.374	43.59
624.707	43.9
625.04	43.88
625.373	43.9
625.705	43.59
626.038	43.64
626.37	43.77
626.703	43.49
627.035	43.78
627.368	43.86
627.7	44.2
628.032	44.16
628.365	44
628.697	44.14
629.029	44.28
629.361	43.95
629.693	44.07
630.025	43.85
630.357	44.14
630.689	43.96
631.021	44.09
631.353	44.19
631.684	44.36
632.016	44.07
632.348	44.28
632.679	44.17
633.011	44.48
633.342	44.53
633.674	44.86
634.005	44.17
634.336	44.67
634.668	44.68
634.999	44.85
635.33	44.98
635.661	45.26
635.992	45.24
636.323	45.27
636.654	45.05
636.985	44.57
637.316	45.09
637.647	44.97
637.977	44.43
638.308	44.85
638.639	45.35
638.969	45.19
639.3	45.09
639.63	45.44
639.961	45.35
640.291	45.42
640.622	45.54
640.952	45.34
641.282	45.64
641.612	45.43
641.943	45.19
642.273	45.43
642.603	45.38
642.933	45.2
643.263	45.4
643.592	45.95
643.922	45.58
644.252	45.4
644.582	45.64
644.911	46.32
645.241	46.2
645.571	46.45
645.9	45.42
646.23	46.17
646.559	45.51
646.888	45.83
647.218	46.07
647.547	46.32
647.876	46.18
648.205	46.04
648.534	46.49
648.863	46.48
649.192	46.5
649.521	46.37
649.85	46.06
650.179	46.17
650.508	45.54
650.837	46.15
651.165	46.31
651.494	46.33
651.822	46.64
652.151	45.98
652.479	46.87
652.808	46.48
653.136	46.81
653.465	46.4
653.793	46.52
654.121	46.95
654.449	46.78
654.777	47.02
655.105	47.26
655.433	47.12
655.761	46.91
656.089	46.55
656.417	46.57
656.745	47.14
657.073	47.49
657.4	47.19
657.728	46.73
658.056	47.34
658.383	47.05
658.711	46.76
659.038	46.72
659.365	46.77
659.693	47.32
660.02	47.47
660.347	47.69
660.674	47.02
661.001	47.55
661.329	47.74
661.656	47.16
661.982	47.41
662.309	47.52
662.636	47.2
662.963	47.31
663.29	47.18
663.616	47.55
663.943	47.48
664.27	47.7
664.596	47.45
664.923	47.68
665.249	47.48
665.576	47.68
665.902	47.47
666.228	48.45
666.554	48.12
666.881	48.24
667.207	48.25
667.533	48.02
667.859	47.9
668.185	47.84
668.511	48.16
668.837	48.16
669.162	47.86
669.488	48.61
669.814	47.83
670.139	47.92
670.465	48.36
670.791	47.88
