Data from 0211_crown_Reflection__1__258.txt Node

Date: Fri Sep 22 22:50:27 CDT 2023
User: ToomeyLab
Spectrometer: FLMS14357
Trigger mode: 0
Integration Time (sec): 1.000000E-2
Scans to average: 100
Electric dark correction enabled: true
Nonlinearity correction enabled: false
Boxcar width: 0
XAxis mode: Wavelengths
Number of Pixels in Spectrum: 2048
>>>>>Begin Spectral Data<<<<<
189.047	702.28
189.435	702.28
189.823	702.28
190.211	165.94
190.599	11.46
190.987	55.43
191.375	-157.32
191.763	182.92
192.151	50.53
192.538	315.29
192.926	198.42
193.314	12.43
193.702	-3544.83
194.089	-2178.8
194.477	-488.28
194.864	90.85
195.252	117.26
195.639	-17.3
196.027	133.77
196.414	254.36
196.801	-31.08
197.189	1660.8
197.576	145.82
197.963	-29.72
198.351	25.61
198.738	5.87
199.125	0.77
199.512	-0.82
199.899	50.56
200.286	19.86
200.673	31.27
201.06	13.71
201.447	26.57
201.833	-4.47
202.22	47.34
202.607	43.39
202.994	39.08
203.38	42.21
203.767	-7.71
204.154	32.69
204.54	49.7
204.927	38.85
205.313	49.41
205.699	19.56
206.086	43.38
206.472	30.29
206.858	38.89
207.245	-23.68
207.631	42.25
208.017	10.1
208.403	10.91
208.789	18.8
209.175	29.54
209.561	29.86
209.947	27.27
210.333	13.82
210.719	3.89
211.105	29.6
211.491	41.85
211.876	32.3
212.262	-2.01
212.648	9.17
213.034	25.81
213.419	37.82
213.805	12.96
214.19	18.45
214.576	25.32
214.961	13.22
215.346	1.44
215.732	35.28
216.117	9.49
216.502	35.48
216.888	12.71
217.273	14.49
217.658	-9.4
218.043	12.74
218.428	33.05
218.813	-10.73
219.198	0.99
219.583	6.03
219.968	1.36
220.353	21.55
220.738	-0.02
221.122	18.94
221.507	-4.29
221.892	0.88
222.276	17.55
222.661	-22.82
223.046	22.13
223.43	21.22
223.815	4.23
224.199	11.2
224.583	12.6
224.968	-4.35
225.352	5.22
225.736	14.64
226.121	11.4
226.505	4.3
226.889	14.69
227.273	11.89
227.657	5.89
228.041	12.17
228.425	14.54
228.809	11
229.193	11.86
229.577	14.31
229.961	10.26
230.344	10.59
230.728	7.92
231.112	9.72
231.495	8.91
231.879	8.85
232.263	9.32
232.646	8.67
233.03	7.72
233.413	7.64
233.797	9.46
234.18	8.27
234.563	10.74
234.946	7.33
235.33	6.7
235.713	7.99
236.096	7.22
236.479	7.72
236.862	11.36
237.245	8.11
237.628	10.09
238.011	11
238.394	8.24
238.777	10.45
239.16	9.58
239.543	9.22
239.925	10.43
240.308	8.62
240.691	8.05
241.073	8.73
241.456	8.7
241.838	8.14
242.221	7.46
242.603	8.38
242.986	8
243.368	8.3
243.75	9.22
244.133	9
244.515	8.23
244.897	7.71
245.279	7.99
245.661	7.9
246.043	7.8
246.425	7.44
246.807	7.9
247.189	6.94
247.571	9.02
247.953	8.05
248.335	8.2
248.717	8.27
249.098	8.02
249.48	7.84
249.862	7.93
250.243	7.91
250.625	7.87
251.006	7.62
251.388	8.27
251.769	8.13
252.151	7.92
252.532	7.59
252.913	7.79
253.295	9
253.676	8
254.057	8.12
254.438	7.88
254.819	7.04
255.2	8.17
255.581	8
255.962	8.53
256.343	7.13
256.724	6.45
257.105	8.94
257.486	8.01
257.867	8
258.247	7.36
258.628	7.51
259.009	7.81
259.389	7.17
259.77	7.36
260.15	8.35
260.531	7.9
260.911	7.33
261.292	7.36
261.672	7.18
262.052	7.2
262.432	7.35
262.813	7.49
263.193	7.05
263.573	7.84
263.953	7.18
264.333	6.91
264.713	6.84
265.093	6.96
265.473	7.28
265.853	7.34
266.233	7
266.612	6.73
266.992	7.13
267.372	7.09
267.752	7.69
268.131	6.8
268.511	7.22
268.89	6.94
269.27	7.04
269.649	7.28
270.029	7.16
270.408	6.97
270.787	7.02
271.167	6.93
271.546	7.33
271.925	6.88
272.304	6.91
272.683	7.09
273.062	7.67
273.441	7.23
273.82	7.43
274.199	7.23
274.578	7.14
274.957	6.98
275.336	7.2
275.715	6.76
276.093	6.55
276.472	6.54
276.851	6.87
277.229	6.36
277.608	6.71
277.986	6.36
278.365	7.1
278.743	6.67
279.122	7.16
279.5	7.68
279.878	7
280.257	7.06
280.635	7.04
281.013	6.7
281.391	5.94
281.769	6.44
282.147	6.9
282.525	6.22
282.903	7.26
283.281	6.48
283.659	6.76
284.037	6.51
284.415	6.68
284.792	6.21
285.17	6.84
285.548	7.35
285.925	6.99
286.303	6.38
286.68	6.19
287.058	6.36
287.435	6.49
287.813	6.29
288.19	6.38
288.567	6.6
288.945	6.37
289.322	6.58
289.699	6.31
290.076	6.73
290.453	6.15
290.83	5.98
291.207	6.18
291.584	5.42
291.961	6.2
292.338	6.15
292.715	6.46
293.092	6.26
293.469	6.14
293.845	6
294.222	6.16
294.599	6.7
294.975	6.45
295.352	6.5
295.728	6.53
296.105	5.84
296.481	5.85
296.858	5.94
297.234	5.94
297.61	5.98
297.986	6.27
298.363	5.74
298.739	5.93
299.115	6.36
299.491	6.18
299.867	6.26
300.243	5.72
300.619	6.16
300.995	5.49
301.371	5.98
301.746	5.72
302.122	6.23
302.498	5.91
302.874	5.81
303.249	5.71
303.625	6.33
304	6.17
304.376	6.22
304.751	5.78
305.127	6.2
305.502	6.14
305.878	6.33
306.253	6.15
306.628	5.98
307.003	6
307.378	5.75
307.754	5.47
308.129	5.71
308.504	6.05
308.879	5.81
309.254	5.46
309.629	5.54
310.003	6.71
310.378	6.17
310.753	5.88
311.128	5.64
311.502	5.78
311.877	5.4
312.252	5.45
312.626	5.58
313.001	6.23
313.375	5.86
313.75	6.07
314.124	5.94
314.498	5.25
314.873	5.41
315.247	5.69
315.621	5.57
315.995	5.59
316.369	5.43
316.743	5.16
317.117	5.78
317.491	6.09
317.865	5.35
318.239	5.42
318.613	5.43
318.987	5.33
319.361	4.97
319.734	4.97
320.108	5.54
320.482	5.37
320.855	5.67
321.229	5.53
321.602	5.67
321.976	5.24
322.349	5.6
322.723	5.67
323.096	5.12
323.469	5.32
323.843	5.25
324.216	5.93
324.589	5.51
324.962	4.94
325.335	5.27
325.708	5.37
326.081	5.33
326.454	5.08
326.827	5.34
327.2	5.45
327.573	5.96
327.945	5.61
328.318	6.01
328.691	5.98
329.063	5.08
329.436	5.85
329.809	5.41
330.181	5.42
330.553	5.26
330.926	5.43
331.298	5.07
331.671	5.57
332.043	5.04
332.415	5.46
332.787	5.98
333.159	5.22
333.532	5.2
333.904	5.5
334.276	5.2
334.648	5.23
335.02	4.95
335.391	5.28
335.763	5.65
336.135	5.47
336.507	5.75
336.879	5.05
337.25	5.19
337.622	5.54
337.993	5.61
338.365	5.71
338.736	5.46
339.108	5.29
339.479	5.31
339.851	4.75
340.222	5.36
340.593	5.34
340.964	5.15
341.336	4.95
341.707	5.69
342.078	5.23
342.449	5.48
342.82	4.96
343.191	4.9
343.562	4.96
343.933	5.71
344.303	5.35
344.674	5.4
345.045	5.13
345.416	5.42
345.786	5.57
346.157	5.15
346.527	5.37
346.898	5.45
347.268	5.21
347.639	5.34
348.009	5.46
348.38	5.56
348.75	5.26
349.12	5.36
349.49	5.36
349.861	5.82
350.231	5.57
350.601	5.53
350.971	5.4
351.341	5.14
351.711	5.81
352.081	5.04
352.45	4.9
352.82	5.25
353.19	5.79
353.56	5.31
353.929	5.83
354.299	5.51
354.669	5.55
355.038	5.59
355.408	5.6
355.777	5.91
356.147	5.6
356.516	5.44
356.885	5.35
357.254	5.72
357.624	4.8
357.993	5.33
358.362	5.57
358.731	5.54
359.1	5.36
359.469	5.59
359.838	5.33
360.207	5.43
360.576	5.19
360.945	5.41
361.314	5.48
361.682	5.63
362.051	5.56
362.42	5.59
362.788	5.15
363.157	5.59
363.525	5.49
363.894	5.56
364.262	5.29
364.631	5.43
364.999	5.36
365.367	5.35
365.735	5.46
366.104	5.56
366.472	5.78
366.84	5.48
367.208	5.98
367.576	5.55
367.944	5.51
368.312	5.59
368.68	5.62
369.048	5.7
369.416	5.32
369.783	5.63
370.151	5.36
370.519	5.5
370.886	5.41
371.254	5.9
371.621	5.55
371.989	5.77
372.356	5.47
372.724	5.8
373.091	5.88
373.458	5.75
373.826	5.87
374.193	5.63
374.56	5.63
374.927	5.73
375.294	5.88
375.661	5.28
376.028	5.58
376.395	5.76
376.762	5.55
377.129	5.82
377.496	6.29
377.863	5.57
378.229	5.68
378.596	5.64
378.963	6.11
379.329	5.6
379.696	5.65
380.062	5.67
380.429	5.61
380.795	5.8
381.161	5.55
381.528	5.49
381.894	5.47
382.26	5.92
382.626	6.18
382.993	5.97
383.359	5.79
383.725	5.73
384.091	5.8
384.457	5.79
384.823	5.83
385.188	5.76
385.554	6.05
385.92	6.13
386.286	5.78
386.651	5.76
387.017	5.97
387.383	5.96
387.748	5.83
388.114	5.86
388.479	5.98
388.845	5.32
389.21	5.79
389.575	6.15
389.94	5.54
390.306	5.84
390.671	6.28
391.036	5.39
391.401	6.15
391.766	5.91
392.131	6.22
392.496	6.03
392.861	6.12
393.226	6.1
393.591	5.89
393.956	6.05
394.32	6.05
394.685	5.93
395.05	6.15
395.414	6.07
395.779	5.94
396.143	5.9
396.508	6.06
396.872	6.01
397.236	6.13
397.601	5.95
397.965	6.17
398.329	6.02
398.694	6.08
399.058	6.17
399.422	6.01
399.786	6.08
400.15	6.11
400.514	6.12
400.878	5.97
401.242	6.22
401.605	5.99
401.969	5.97
402.333	6.03
402.697	5.94
403.06	6.08
403.424	5.96
403.787	6.41
404.151	6.23
404.514	6.21
404.878	6.28
405.241	6.33
405.604	6.23
405.968	6.25
406.331	6.06
406.694	6.06
407.057	6.1
407.42	6.14
407.783	6.16
408.146	6.24
408.509	6
408.872	6.3
409.235	6.44
409.598	6.29
409.961	6.2
410.323	6.35
410.686	6.17
411.049	6.3
411.411	6.43
411.774	6.24
412.136	6.22
412.499	6.1
412.861	6.21
413.223	6.3
413.586	6.21
413.948	6.4
414.31	6.1
414.672	6.23
415.035	6.23
415.397	6.57
415.759	6.53
416.121	6.27
416.483	6.31
416.845	6.25
417.206	6.2
417.568	6.11
417.93	6.39
418.292	6.32
418.653	6.14
419.015	6.21
419.377	6.14
419.738	6.37
420.1	6.22
420.461	6.23
420.822	6.16
421.184	6.21
421.545	6.16
421.906	6.2
422.267	6.2
422.629	6.29
422.99	6.15
423.351	6.15
423.712	6.21
424.073	6.23
424.434	6.24
424.795	6.15
425.155	6.25
425.516	6.21
425.877	6.23
426.238	6.11
426.598	6.18
426.959	6.19
427.32	6.26
427.68	6.19
428.041	6.25
428.401	6.33
428.761	6.42
429.122	6.19
429.482	6.14
429.842	6.39
430.202	6.3
430.563	6.4
430.923	6.55
431.283	6.34
431.643	6.41
432.003	6.43
432.363	6.66
432.722	6.64
433.082	6.46
433.442	6.29
433.802	6.54
434.161	6.45
434.521	6.6
434.881	6.33
435.24	6.41
435.6	6.35
435.959	6.28
436.319	6.27
436.678	6.53
437.037	6.45
437.396	6.37
437.756	6.42
438.115	6.42
438.474	6.51
438.833	6.57
439.192	6.55
439.551	6.37
439.91	6.49
440.269	6.39
440.628	6.42
440.987	6.49
441.345	6.51
441.704	6.45
442.063	6.35
442.421	6.38
442.78	6.61
443.138	6.37
443.497	6.42
443.855	6.43
444.214	6.32
444.572	6.48
444.93	6.52
445.288	6.48
445.647	6.45
446.005	6.41
446.363	6.41
446.721	6.52
447.079	6.34
447.437	6.49
447.795	6.53
448.153	6.3
448.51	6.3
448.868	6.36
449.226	6.37
449.584	6.36
449.941	6.43
450.299	6.52
450.656	6.44
451.014	6.53
451.371	6.5
451.729	6.56
452.086	6.54
452.443	6.57
452.801	6.55
453.158	6.59
453.515	6.72
453.872	6.49
454.229	6.44
454.586	6.58
454.943	6.46
455.3	6.59
455.657	6.52
456.014	6.61
456.371	6.58
456.727	6.73
457.084	6.63
457.441	6.49
457.797	6.69
458.154	6.6
458.51	6.66
458.867	6.61
459.223	6.71
459.58	6.69
459.936	6.77
460.292	6.47
460.648	6.63
461.005	6.51
461.361	6.66
461.717	6.38
462.073	6.59
462.429	6.37
462.785	6.45
463.141	6.5
463.496	6.69
463.852	6.53
464.208	6.52
464.564	6.65
464.919	6.56
465.275	6.75
465.631	6.83
465.986	6.87
466.342	6.73
466.697	6.83
467.052	6.6
467.408	6.83
467.763	6.59
468.118	6.81
468.473	6.65
468.829	6.82
469.184	6.67
469.539	6.7
469.894	6.63
470.249	6.57
470.603	6.64
470.958	6.69
471.313	6.61
471.668	6.64
472.023	6.66
472.377	6.71
472.732	6.65
473.086	6.85
473.441	6.45
473.795	6.87
474.15	6.63
474.504	6.55
474.859	6.84
475.213	6.56
475.567	6.55
475.921	6.73
476.275	6.72
476.63	6.55
476.984	6.5
477.338	6.82
477.692	6.73
478.045	6.96
478.399	6.85
478.753	6.64
479.107	6.75
479.461	6.56
479.814	6.81
480.168	6.84
480.521	6.79
480.875	6.65
481.228	6.66
481.582	6.55
481.935	6.56
482.289	6.52
482.642	6.58
482.995	6.69
483.348	6.67
483.701	6.65
484.055	6.61
484.408	6.61
484.761	6.62
485.114	6.48
485.466	6.32
485.819	6.33
486.172	6.29
486.525	6.22
486.878	6.26
487.23	6.29
487.583	6.4
487.936	6.45
488.288	6.49
488.641	6.45
488.993	6.46
489.345	6.39
489.698	6.37
490.05	6.36
490.402	6.39
490.754	6.33
491.107	6.38
491.459	6.48
491.811	6.51
492.163	6.53
492.515	6.54
492.866	6.65
493.218	6.52
493.57	6.47
493.922	6.41
494.274	6.34
494.625	6.36
494.977	6.53
495.328	6.6
495.68	6.57
496.031	6.61
496.383	6.68
496.734	6.66
497.086	6.73
497.437	6.8
497.788	6.75
498.139	6.82
498.49	6.71
498.842	6.74
499.193	6.53
499.544	6.56
499.894	6.51
500.245	6.66
500.596	6.65
500.947	6.71
501.298	6.66
501.648	6.76
501.999	6.73
502.35	6.71
502.7	6.78
503.051	6.73
503.401	6.69
503.752	6.8
504.102	6.77
504.452	6.74
504.803	6.73
505.153	6.5
505.503	6.72
505.853	6.77
506.203	6.73
506.553	6.82
506.903	6.65
507.253	6.71
507.603	6.61
507.953	6.75
508.303	6.82
508.652	6.76
509.002	6.79
509.352	6.7
509.701	6.78
510.051	6.71
510.4	6.84
510.75	6.73
511.099	6.63
511.449	6.76
511.798	6.76
512.147	6.69
512.496	6.7
512.846	6.66
513.195	6.69
513.544	6.64
513.893	6.81
514.242	6.69
514.591	6.63
514.939	6.78
515.288	6.56
515.637	6.58
515.986	6.64
516.334	6.76
516.683	6.77
517.032	6.87
517.38	6.78
517.729	6.72
518.077	6.69
518.426	6.68
518.774	6.76
519.122	6.73
519.47	6.71
519.819	6.73
520.167	6.69
520.515	6.72
520.863	6.57
521.211	6.56
521.559	6.65
521.907	6.64
522.255	6.62
522.602	6.7
522.95	6.61
523.298	6.82
523.645	6.68
523.993	6.68
524.341	6.66
524.688	6.74
525.036	6.62
525.383	6.7
525.73	6.83
526.078	6.74
526.425	6.68
526.772	6.79
527.119	6.65
527.466	6.48
527.814	6.59
528.161	6.54
528.508	6.53
528.854	6.58
529.201	6.71
529.548	6.54
529.895	6.47
530.242	6.41
530.588	6.41
530.935	6.3
531.282	6.32
531.628	6.35
531.975	6.38
532.321	6.41
532.667	6.46
533.014	6.46
533.36	6.6
533.706	6.57
534.052	6.65
534.399	6.74
534.745	6.49
535.091	6.46
535.437	6.46
535.783	6.4
536.129	6.48
536.474	6.52
536.82	6.42
537.166	6.62
537.512	6.62
537.857	6.59
538.203	6.67
538.549	6.62
538.894	6.56
539.239	6.55
539.585	6.54
539.93	6.64
540.276	6.57
540.621	6.52
540.966	6.66
541.311	6.71
541.656	6.66
542.001	6.74
542.346	6.57
542.691	6.75
543.036	6.56
543.381	6.42
543.726	6.39
544.071	6.36
544.415	6.37
544.76	6.41
545.105	6.43
545.449	6.51
545.794	6.53
546.138	6.61
546.483	6.6
546.827	6.52
547.171	6.54
547.516	6.68
547.86	6.83
548.204	6.62
548.548	6.61
548.892	6.58
549.236	6.59
549.58	6.62
549.924	6.64
550.268	6.73
550.612	6.62
550.956	6.73
551.3	6.76
551.643	6.79
551.987	6.74
552.33	6.87
552.674	6.75
553.017	6.61
553.361	6.67
553.704	6.78
554.048	6.83
554.391	6.7
554.734	6.67
555.077	6.62
555.42	6.84
555.764	6.51
556.107	6.68
556.45	6.55
556.793	6.6
557.135	6.84
557.478	6.6
557.821	6.74
558.164	6.81
558.507	6.87
558.849	6.67
559.192	6.86
559.534	6.87
559.877	6.63
560.219	6.63
560.562	6.76
560.904	6.76
561.246	6.8
561.589	6.74
561.931	6.65
562.273	6.65
562.615	6.62
562.957	6.71
563.299	6.64
563.641	6.73
563.983	6.79
564.325	6.82
564.667	6.73
565.008	6.69
565.35	6.77
565.692	6.77
566.033	6.73
566.375	6.65
566.716	6.69
567.058	6.71
567.399	6.6
567.741	6.75
568.082	6.55
568.423	6.66
568.764	6.69
569.105	6.62
569.447	6.62
569.788	6.48
570.129	6.73
570.47	6.81
570.811	6.62
571.151	6.49
571.492	6.61
571.833	6.47
572.174	6.69
572.514	6.66
572.855	6.58
573.195	6.42
573.536	6.65
573.876	6.67
574.217	6.45
574.557	6.46
574.898	6.58
575.238	6.6
575.578	6.56
575.918	6.44
576.258	6.52
576.598	6.55
576.938	6.67
577.278	6.76
577.618	6.48
577.958	6.59
578.298	6.62
578.638	6.47
578.977	6.73
579.317	6.6
579.657	6.74
579.996	6.61
580.336	6.75
580.675	6.73
581.014	6.45
581.354	6.49
581.693	6.69
582.032	6.51
582.372	6.65
582.711	6.55
583.05	6.73
583.389	6.39
583.728	6.76
584.067	6.53
584.406	6.67
584.745	6.5
585.083	6.81
585.422	6.57
585.761	6.35
586.1	6.51
586.438	6.37
586.777	6.71
587.115	6.76
587.454	6.37
587.792	6.59
588.13	6.57
588.469	6.5
588.807	6.88
589.145	6.71
589.483	6.63
589.821	6.48
590.159	6.56
590.497	6.96
590.835	6.78
591.173	6.6
591.511	6.61
591.849	6.65
592.187	6.57
592.524	6.62
592.862	6.58
593.2	6.53
593.537	6.29
593.875	6.45
594.212	6.62
594.55	6.83
594.887	6.29
595.224	6.5
595.561	6.68
595.899	6.73
596.236	6.65
596.573	6.62
596.91	6.57
597.247	6.42
597.584	6.61
597.921	6.79
598.258	6.68
598.594	6.56
598.931	6.38
599.268	6.56
599.604	6.58
599.941	6.53
600.277	6.38
600.614	6.47
600.95	6.55
601.287	6.31
601.623	6.5
601.959	6.71
602.296	6.55
602.632	6.39
602.968	6.61
603.304	6.63
603.64	6.37
603.976	6.46
604.312	6.55
604.648	6.43
604.984	6.5
605.319	6.21
605.655	6.59
605.991	6.5
606.326	6.43
606.662	6.31
606.998	6.25
607.333	6.47
607.668	6.48
608.004	6.46
608.339	6.29
608.674	6.6
609.01	6.53
609.345	6.47
609.68	6.31
610.015	6.51
610.35	6.68
610.685	6.71
611.02	6.7
611.355	6.54
611.689	6.31
612.024	6.39
612.359	6.24
612.694	6.33
613.028	6.19
613.363	6.31
613.697	6.19
614.032	6.43
614.366	6.09
614.7	6.38
615.035	6.56
615.369	6.21
615.703	6.31
616.037	6.49
616.371	6.39
616.705	6.39
617.039	6.51
617.373	6.62
617.707	6.61
618.041	6.6
618.375	6.49
618.709	6.46
619.042	6.53
619.376	6.26
619.71	6.48
620.043	6.05
620.377	5.93
620.71	6.29
621.043	6.46
621.377	6.11
621.71	6.58
622.043	6.45
622.376	6.57
622.709	6.35
623.043	6.39
623.376	6.44
623.709	6.61
624.041	6.4
624.374	6.55
624.707	6.59
625.04	6.53
625.373	6.19
625.705	6.3
626.038	6.17
626.37	6.44
626.703	6.27
627.035	6.52
627.368	6.14
627.7	6.4
628.032	6.21
628.365	6.5
628.697	6.37
629.029	6.56
629.361	6.33
629.693	6.26
630.025	6.21
630.357	6.19
630.689	6.24
631.021	6.44
631.353	6.25
631.684	5.89
632.016	6.51
632.348	6.2
632.679	5.89
633.011	6.23
633.342	6.57
633.674	6.31
634.005	6.18
634.336	6.32
634.668	6.17
634.999	6.27
635.33	6.38
635.661	6.41
635.992	6.31
636.323	6.27
636.654	6.35
636.985	6.05
637.316	6.44
637.647	6.53
637.977	5.62
638.308	6.59
638.639	6.4
638.969	6.43
639.3	6.23
639.63	6.63
639.961	6.37
640.291	6.13
640.622	6.54
640.952	6.15
641.282	6.17
641.612	6.19
641.943	6.51
642.273	6.17
642.603	6.15
642.933	6.47
643.263	6.09
643.592	6.49
643.922	6.29
644.252	6.05
644.582	6.75
644.911	6.43
645.241	6.13
645.571	6.18
645.9	6.53
646.23	6.68
646.559	6.15
646.888	5.89
647.218	6.06
647.547	6.23
647.876	6.15
648.205	5.96
648.534	6.99
648.863	6.52
649.192	6.22
649.521	6.35
649.85	6.46
650.179	5.78
650.508	6.15
650.837	6.54
651.165	6.52
651.494	6.39
651.822	6.21
652.151	5.75
652.479	6.5
652.808	5.96
653.136	6.6
653.465	6.17
653.793	6.36
654.121	6.68
654.449	6.04
654.777	6.19
655.105	6.54
655.433	6.23
655.761	6.88
656.089	6.27
656.417	6.35
656.745	6.48
657.073	6.04
657.4	6.86
657.728	6.29
658.056	6.08
658.383	6.49
658.711	6.44
659.038	6.37
659.365	6.25
659.693	5.78
660.02	6.78
660.347	6.49
660.674	6.16
661.001	6.09
661.329	6.05
661.656	6.4
661.982	6.17
662.309	6.77
662.636	6.13
662.963	6.25
663.29	6.51
663.616	5.92
663.943	6.38
664.27	6.02
664.596	6.24
664.923	5.91
665.249	5.88
665.576	5.78
665.902	5.74
666.228	6.56
666.554	6.08
666.881	6.71
667.207	6.61
667.533	6.02
667.859	6.09
668.185	6.22
668.511	6.55
668.837	6.18
669.162	6.48
669.488	6.58
669.814	6.09
670.139	6.22
670.465	6.64
670.791	6.19
671.116	5.38
671.442	6.28
671.767	5.46
672.092	6.65
672.418	6.64
672.743	6.34
673.068	6.87
673.393	5.94
673.718	6.16
674.043	6.74
674.368	6.78
674.693	6.32
675.018	6.22
675.343	6.64
675.667	5.9
675.992	6.07
676.317	6.75
676.641	6.17
676.966	6.45
677.29	5.81
677.615	6.28
677.939	6.82
678.264	6.24
678.588	6.72
678.912	6.49
679.236	6.53
679.56	6.68
679.885	6.26
680.209	7.49
680.532	6.27
680.856	6.02
681.18	6.56
681.504	6.46
681.828	6.3
682.152	6.17
682.475	6.54
682.799	6.73
683.122	6.29
683.446	6.29
683.769	6.39
684.093	6.82
684.416	6.7
684.739	6.43
685.062	6.67
685.386	5.99
685.709	6.41
686.032	6.66
686.355	6.42
686.678	6.6
687.001	6.99
687.324	6.81
687.646	6.55
687.969	7.18
688.292	6.59
688.614	7.38
688.937	6.66
689.26	6.3
689.582	6.37
689.904	5.8
690.227	6.99
690.549	7.12
690.871	5.81
691.194	6.94
691.516	7.16
691.838	7.34
692.16	6
692.482	6.15
