Data from 0211_forehead_Reflection__4__266.txt Node

Date: Fri Sep 22 22:52:09 CDT 2023
User: ToomeyLab
Spectrometer: FLMS14357
Trigger mode: 0
Integration Time (sec): 1.000000E-2
Scans to average: 100
Electric dark correction enabled: true
Nonlinearity correction enabled: false
Boxcar width: 0
XAxis mode: Wavelengths
Number of Pixels in Spectrum: 2048
>>>>>Begin Spectral Data<<<<<
189.047	-87.86
189.435	-87.86
189.823	-87.86
190.211	-179.85
190.599	-8.33
190.987	2.34
191.375	-541.23
191.763	-366.38
192.151	-36.37
192.538	-363.53
192.926	472.33
193.314	4.1
193.702	-7713.79
194.089	-618.05
194.477	860
194.864	-34.76
195.252	122.17
195.639	-35.04
196.027	236.6
196.414	-37.68
196.801	-25.4
197.189	-3312.8
197.576	256.24
197.963	-25.94
198.351	57.72
198.738	26.63
199.125	11.8
199.512	33.63
199.899	40.6
200.286	25.64
200.673	-13.21
201.06	40.89
201.447	37.02
201.833	-5.5
202.22	62.65
202.607	33.07
202.994	43.39
203.38	44.97
203.767	33.95
204.154	24.86
204.54	45.17
204.927	34.68
205.313	20.76
205.699	49.63
206.086	54.55
206.472	43.45
206.858	58.24
207.245	9.98
207.631	38.64
208.017	26.12
208.403	49.02
208.789	35.72
209.175	38.6
209.561	65.66
209.947	37.85
210.333	41.51
210.719	16.81
211.105	73.58
211.491	14.77
211.876	34.48
212.262	67.01
212.648	51.78
213.034	32.68
213.419	11.22
213.805	31.88
214.19	8.97
214.576	39.13
214.961	26.8
215.346	24.19
215.732	26.15
216.117	29.11
216.502	33.11
216.888	33.05
217.273	25.9
217.658	7.93
218.043	44.55
218.428	47.73
218.813	13.75
219.198	12.36
219.583	5.46
219.968	-3.58
220.353	29.09
220.738	21.01
221.122	16.46
221.507	17.81
221.892	7.55
222.276	13.36
222.661	-3.09
223.046	29.85
223.43	24.06
223.815	17.12
224.199	1.36
224.583	16.99
224.968	19.35
225.352	12.57
225.736	16.75
226.121	19.09
226.505	10.18
226.889	9.18
227.273	3.88
227.657	2.07
228.041	5.93
228.425	9.47
228.809	5.31
229.193	6.94
229.577	10.72
229.961	6.91
230.344	7.16
230.728	4.17
231.112	5.08
231.495	4.79
231.879	5.29
232.263	4.4
232.646	5.69
233.03	4.47
233.413	5.66
233.797	5.77
234.18	5.69
234.563	7.17
234.946	7.71
235.33	4.63
235.713	1.77
236.096	3.97
236.479	4.89
236.862	6.37
237.245	4.31
237.628	5.43
238.011	7.13
238.394	6.85
238.777	7.79
239.16	5.85
239.543	6.54
239.925	5.35
240.308	6.51
240.691	7.4
241.073	5.5
241.456	4.94
241.838	7.19
242.221	5.21
242.603	5.07
242.986	4.62
243.368	4.7
243.75	4.67
244.133	4.87
244.515	4.56
244.897	4.11
245.279	4.29
245.661	4.89
246.043	5.34
246.425	5
246.807	5.79
247.189	3.96
247.571	5.27
247.953	5.48
248.335	5.6
248.717	5.01
249.098	4.61
249.48	4.46
249.862	4.44
250.243	4.6
250.625	4.92
251.006	4.21
251.388	4.89
251.769	4.98
252.151	5.19
252.532	5.21
252.913	5.84
253.295	6.11
253.676	5.68
254.057	5.13
254.438	5.16
254.819	4.81
255.2	5.88
255.581	5.14
255.962	5.32
256.343	5.14
256.724	4.76
257.105	5.75
257.486	4.38
257.867	6.13
258.247	6.73
258.628	7.01
259.009	5.48
259.389	4.99
259.77	5.19
260.15	5.66
260.531	5.12
260.911	4.85
261.292	4.93
261.672	4.56
262.052	4.84
262.432	4.58
262.813	4.74
263.193	4.57
263.573	5.57
263.953	5.34
264.333	5.08
264.713	5.54
265.093	4.8
265.473	5.08
265.853	5.32
266.233	4.58
266.612	5.23
266.992	5.75
267.372	4.95
267.752	5.45
268.131	5.3
268.511	4.58
268.89	5.31
269.27	4.91
269.649	4.98
270.029	4.39
270.408	4.95
270.787	5.28
271.167	4.7
271.546	4.88
271.925	4.75
272.304	5.08
272.683	4.82
273.062	4.96
273.441	4.71
273.82	5.14
274.199	5.2
274.578	4.83
274.957	4.67
275.336	4.67
275.715	4.97
276.093	5.08
276.472	5.12
276.851	5.07
277.229	4.36
277.608	5.77
277.986	4.82
278.365	5.53
278.743	5.41
279.122	4.82
279.5	5.67
279.878	4.83
280.257	5.1
280.635	4.83
281.013	5.44
281.391	5.23
281.769	4.9
282.147	4.63
282.525	5.03
282.903	5.46
283.281	4.77
283.659	4.78
284.037	4.47
284.415	5.29
284.792	4.93
285.17	5.24
285.548	5.24
285.925	5.21
286.303	4.75
286.68	4.78
287.058	5.19
287.435	4.91
287.813	4.94
288.19	4.28
288.567	5.03
288.945	4.78
289.322	4.88
289.699	5.03
290.076	5.08
290.453	5
290.83	4.82
291.207	5.08
291.584	4.79
291.961	5.06
292.338	5.44
292.715	5.57
293.092	4.87
293.469	5.33
293.845	5.4
294.222	5.24
294.599	5.41
294.975	6.22
295.352	5.72
295.728	5.49
296.105	5.79
296.481	5.5
296.858	5.71
297.234	5.39
297.61	5.71
297.986	6.07
298.363	6.22
298.739	5.79
299.115	5.84
299.491	5.67
299.867	5.93
300.243	5.56
300.619	6.14
300.995	6.09
301.371	6.85
301.746	6.23
302.122	6.36
302.498	6.05
302.874	6.08
303.249	6.56
303.625	6.04
304	6.67
304.376	6.6
304.751	6.5
305.127	6.8
305.502	6.86
305.878	6.97
306.253	7.14
306.628	6.82
307.003	6.89
307.378	6.86
307.754	6.87
308.129	6.8
308.504	7.49
308.879	7.38
309.254	7.12
309.629	7.13
310.003	7.48
310.378	7.55
310.753	7.39
311.128	7.56
311.502	7.59
311.877	7.04
312.252	7.41
312.626	7.49
313.001	7.67
313.375	7.84
313.75	8.14
314.124	7.98
314.498	7.45
314.873	8.31
315.247	8.39
315.621	8.06
315.995	8.14
316.369	7.97
316.743	8.63
317.117	8.51
317.491	8.95
317.865	8.01
318.239	8.18
318.613	9.01
318.987	8.86
319.361	8.97
319.734	9.06
320.108	8.88
320.482	8.29
320.855	9.18
321.229	9.4
321.602	9.2
321.976	9.33
322.349	9.13
322.723	9.7
323.096	9.49
323.469	9.29
323.843	9.34
324.216	10.16
324.589	10.03
324.962	9.18
325.335	9.41
325.708	9.54
326.081	10.42
326.454	9.34
326.827	9.85
327.2	9.96
327.573	10.38
327.945	10.32
328.318	10.59
328.691	10.34
329.063	9.87
329.436	10.35
329.809	10.66
330.181	10.61
330.553	10.25
330.926	10.58
331.298	11.1
331.671	10.97
332.043	10.06
332.415	11.07
332.787	11.12
333.159	11.04
333.532	10.7
333.904	11.36
334.276	10.61
334.648	10.91
335.02	10.89
335.391	11.64
335.763	11.62
336.135	11.39
336.507	11.92
336.879	10.91
337.25	11.63
337.622	11.77
337.993	11.6
338.365	12.14
338.736	11.75
339.108	11.8
339.479	11.41
339.851	11.46
340.222	11.45
340.593	11.53
340.964	11.71
341.336	12.02
341.707	11.99
342.078	12.36
342.449	11.87
342.82	11.5
343.191	11.89
343.562	12.02
343.933	12.44
344.303	12.43
344.674	12.82
345.045	12.59
345.416	12.75
345.786	12.28
346.157	12.25
346.527	12.5
346.898	12.53
347.268	12.66
347.639	12.84
348.009	13.13
348.38	13.31
348.75	13.16
349.12	13
349.49	13.89
349.861	13.02
350.231	13.43
350.601	13.48
350.971	13.45
351.341	13.27
351.711	13.49
352.081	13.59
352.45	13.09
352.82	13.56
353.19	13.73
353.56	13.61
353.929	13.98
354.299	14.12
354.669	13.72
355.038	13.69
355.408	13.89
355.777	13.76
356.147	14.03
356.516	14.11
356.885	13.82
357.254	14.46
357.624	13.9
357.993	14.14
358.362	14.12
358.731	14.02
359.1	13.86
359.469	14.46
359.838	14.06
360.207	14.33
360.576	14.43
360.945	14.51
361.314	14.68
361.682	14.83
362.051	15.01
362.42	14.68
362.788	14.79
363.157	14.91
363.525	14.81
363.894	14.95
364.262	14.79
364.631	14.95
364.999	14.86
365.367	15.3
365.735	15.02
366.104	15.36
366.472	15.37
366.84	15.27
367.208	15.81
367.576	15.68
367.944	15.37
368.312	15.77
368.68	15.8
369.048	15.8
369.416	15.79
369.783	15.71
370.151	15.62
370.519	15.9
370.886	16.09
371.254	16.39
371.621	16.33
371.989	16.09
372.356	16.53
372.724	16.49
373.091	15.95
373.458	16.36
373.826	16.26
374.193	16.88
374.56	16.53
374.927	16.81
375.294	16.23
375.661	16.63
376.028	16.44
376.395	17.14
376.762	16.77
377.129	17.39
377.496	17.09
377.863	17.11
378.229	16.87
378.596	16.95
378.963	17.38
379.329	17.01
379.696	17.4
380.062	17.2
380.429	17.28
380.795	17.47
381.161	17.46
381.528	17.36
381.894	17.29
382.26	17.57
382.626	17.81
382.993	17.79
383.359	17.58
383.725	17.52
384.091	17.9
384.457	18.23
384.823	18
385.188	18.05
385.554	18.27
385.92	18.73
386.286	18.18
386.651	18.28
387.017	18.4
387.383	18.08
387.748	18.33
388.114	18.37
388.479	18.76
388.845	18.18
389.21	18.32
389.575	19.01
389.94	18.39
390.306	18.96
390.671	19.01
391.036	18.61
391.401	18.86
391.766	18.97
392.131	18.71
392.496	19.42
392.861	18.97
393.226	19.31
393.591	19.27
393.956	19.14
394.32	19.67
394.685	19.51
395.05	19.48
395.414	19.56
395.779	19.61
396.143	19.66
396.508	19.65
396.872	19.56
397.236	19.61
397.601	19.51
397.965	19.78
398.329	20
398.694	20.22
399.058	20.19
399.422	20.21
399.786	20.29
400.15	20.17
400.514	20.22
400.878	20.29
401.242	20.32
401.605	20.29
401.969	20.14
402.333	20.42
402.697	20.48
403.06	20.39
403.424	20.75
403.787	20.61
404.151	20.9
404.514	21.16
404.878	20.9
405.241	21.21
405.604	20.88
405.968	20.97
406.331	20.95
406.694	21
407.057	20.87
407.42	21.09
407.783	21.08
408.146	21.41
408.509	20.99
408.872	21.48
409.235	21.38
409.598	21.37
409.961	21.72
410.323	21.57
410.686	21.88
411.049	21.98
411.411	22.23
411.774	21.9
412.136	21.71
412.499	21.8
412.861	21.79
413.223	22.03
413.586	21.96
413.948	22.24
414.31	22.04
414.672	22.23
415.035	22.4
415.397	22.34
415.759	22.8
416.121	22.63
416.483	22.43
416.845	22.58
417.206	22.5
417.568	22.67
417.93	22.51
418.292	22.8
418.653	22.52
419.015	22.63
419.377	22.72
419.738	22.76
420.1	22.56
420.461	22.71
420.822	22.76
421.184	22.85
421.545	22.72
421.906	22.84
422.267	22.7
422.629	22.82
422.99	22.84
423.351	22.75
423.712	22.69
424.073	22.87
424.434	23
424.795	23.1
425.155	23.28
425.516	23.19
425.877	23.19
426.238	23.24
426.598	23.08
426.959	23.21
427.32	23.37
427.68	23.52
428.041	23.46
428.401	23.73
428.761	23.91
429.122	23.82
429.482	24
429.842	24.05
430.202	24.04
430.563	24.45
430.923	24.15
431.283	24.34
431.643	24.48
432.003	24.52
432.363	24.68
432.722	24.46
433.082	24.87
433.442	24.8
433.802	24.83
434.161	24.83
434.521	24.71
434.881	24.8
435.24	24.8
435.6	24.82
435.959	24.88
436.319	24.75
436.678	24.97
437.037	25.02
437.396	25.09
437.756	25.08
438.115	25.39
438.474	25.32
438.833	25.59
439.192	25.35
439.551	25.39
439.91	25.53
440.269	25.64
440.628	25.41
440.987	25.49
441.345	25.41
441.704	25.59
442.063	25.47
442.421	25.45
442.78	25.5
443.138	25.63
443.497	25.45
443.855	25.61
444.214	25.59
444.572	25.87
444.93	26.1
445.288	26.2
445.647	26.31
446.005	26.15
446.363	26.09
446.721	26.15
447.079	26.06
447.437	26.14
447.795	26.2
448.153	26.08
448.51	26.15
448.868	26.01
449.226	26.13
449.584	26.1
449.941	26.28
450.299	26.36
450.656	26.42
451.014	26.74
451.371	26.57
451.729	26.76
452.086	26.87
452.443	27.03
452.801	27.15
453.158	27.02
453.515	27.15
453.872	27.11
454.229	27.34
454.586	27.38
454.943	27.23
455.3	27.23
455.657	27.34
456.014	27.4
456.371	27.5
456.727	27.64
457.084	27.62
457.441	27.76
457.797	27.8
458.154	27.74
458.51	27.78
458.867	28.01
459.223	28.11
459.58	27.87
459.936	28.16
460.292	28.13
460.648	28.06
461.005	28.11
461.361	28.17
461.717	27.85
462.073	27.8
462.429	27.56
462.785	27.77
463.141	28.01
463.496	28.24
463.852	28.15
464.208	28.41
464.564	28.61
464.919	28.63
465.275	28.94
465.631	28.71
465.986	28.86
466.342	29.05
466.697	29.19
467.052	29.03
467.408	29.25
467.763	29.21
468.118	29.25
468.473	29.24
468.829	29.02
469.184	29.27
469.539	29.36
469.894	29.32
470.249	29.55
470.603	29.37
470.958	29.54
471.313	29.56
471.668	29.59
472.023	29.75
472.377	29.54
472.732	29.64
473.086	30.07
473.441	29.77
473.795	30.11
474.15	29.73
474.504	30.06
474.859	30.15
475.213	29.79
475.567	29.91
475.921	30.12
476.275	30.19
476.63	29.94
476.984	30.41
477.338	30.46
477.692	30.26
478.045	30.48
478.399	30.35
478.753	30.57
479.107	30.39
479.461	30.39
479.814	30.51
480.168	30.53
480.521	30.55
480.875	30.55
481.228	30.71
481.582	30.49
481.935	30.63
482.289	30.72
482.642	30.8
482.995	30.59
483.348	30.77
483.701	30.65
484.055	30.73
484.408	30.7
484.761	30.6
485.114	30.35
485.466	30.18
485.819	29.97
486.172	29.94
486.525	30.06
486.878	30.15
487.23	30.17
487.583	30.35
487.936	30.6
488.288	30.79
488.641	30.7
488.993	30.56
489.345	30.71
489.698	30.48
490.05	30.6
490.402	30.62
490.754	30.73
491.107	30.86
491.459	30.94
491.811	31.23
492.163	31.34
492.515	31.6
492.866	31.53
493.218	31.32
493.57	31.38
493.922	31.11
494.274	31.19
494.625	31.27
494.977	31.54
495.328	31.83
495.68	31.99
496.031	32.14
496.383	32.47
496.734	32.42
497.086	32.63
497.437	32.78
497.788	32.67
498.139	32.78
498.49	32.87
498.842	32.72
499.193	32.41
499.544	32.73
499.894	32.8
500.245	32.77
500.596	33
500.947	33.02
501.298	33.01
501.648	33.1
501.999	33.25
502.35	33.22
502.7	33.5
503.051	33.47
503.401	33.58
503.752	33.59
504.102	33.65
504.452	33.59
504.803	33.56
505.153	33.81
505.503	33.74
505.853	33.98
506.203	33.82
506.553	34.07
506.903	33.92
507.253	33.92
507.603	33.93
507.953	34.02
508.303	34.3
508.652	34.26
509.002	34.35
509.352	34.19
509.701	34.22
510.051	34.32
510.4	34.34
510.75	34.21
511.099	34.27
511.449	34.31
511.798	34.44
512.147	34.35
512.496	34.47
512.846	34.53
513.195	34.5
513.544	34.66
513.893	34.62
514.242	34.71
514.591	34.66
514.939	34.72
515.288	34.85
515.637	34.81
515.986	34.96
516.334	35.04
516.683	35.14
517.032	35.26
517.38	35.27
517.729	35.22
518.077	35.45
518.426	35.43
518.774	35.44
519.122	35.53
519.47	35.42
519.819	35.39
520.167	35.42
520.515	35.3
520.863	35.17
521.211	35.23
521.559	35.44
521.907	35.28
522.255	35.54
522.602	35.54
522.95	35.7
523.298	36.06
523.645	36.07
523.993	36.06
524.341	36.16
524.688	36.22
525.036	36.13
525.383	36.31
525.73	36.52
526.078	36.4
526.425	36.53
526.772	36.46
527.119	36.29
527.466	36.3
527.814	36
528.161	36.04
528.508	36.07
528.854	36.18
529.201	36.38
529.548	36.18
529.895	36.21
530.242	36
530.588	35.94
530.935	35.72
531.282	35.85
531.628	36
531.975	36.05
532.321	36.17
532.667	36.38
533.014	36.53
533.36	36.83
533.706	36.8
534.052	37.04
534.399	37.13
534.745	36.98
535.091	36.77
535.437	36.71
535.783	36.56
536.129	36.69
536.474	36.96
536.82	37.15
537.166	37.38
537.512	37.42
537.857	37.55
538.203	37.64
538.549	37.52
538.894	37.51
539.239	37.53
539.585	37.67
539.93	37.86
540.276	37.84
540.621	38.05
540.966	38.18
541.311	38.34
541.656	38.36
542.001	38.4
542.346	38.5
542.691	38.25
543.036	37.97
543.381	37.86
543.726	37.64
544.071	37.72
544.415	37.87
544.76	37.9
545.105	37.89
545.449	38.28
545.794	38.43
546.138	38.46
546.483	38.47
546.827	38.63
547.171	38.7
547.516	38.97
547.86	39.19
548.204	39.17
548.548	38.99
548.892	39.02
549.236	39.08
549.58	39.01
549.924	39.38
550.268	39.5
550.612	39.57
550.956	39.64
551.3	39.84
551.643	40.01
551.987	40.01
552.33	40.31
552.674	40.18
553.017	40.22
553.361	40.1
553.704	40.41
554.048	40.45
554.391	40.2
554.734	40.39
555.077	40.18
555.42	40.32
555.764	40.42
556.107	40.62
556.45	40.46
556.793	40.57
557.135	40.85
557.478	40.81
557.821	40.7
558.164	41
558.507	41.18
558.849	40.84
559.192	41.22
559.534	41.29
559.877	41.08
560.219	41.37
560.562	41.24
560.904	41.42
561.246	41.5
561.589	41.57
561.931	41.53
562.273	41.27
562.615	41.54
562.957	41.42
563.299	41.49
563.641	41.55
563.983	41.47
564.325	41.66
564.667	41.7
565.008	41.6
565.35	41.76
565.692	41.85
566.033	41.9
566.375	41.96
566.716	42.2
567.058	41.98
567.399	42.17
567.741	42.13
568.082	42.26
568.423	42.08
568.764	42.13
569.105	42.19
569.447	42.22
569.788	42.17
570.129	42.25
570.47	42.62
570.811	42.51
571.151	42.72
571.492	42.61
571.833	42.46
572.174	42.63
572.514	42.73
572.855	42.83
573.195	42.64
573.536	42.75
573.876	43.08
574.217	43.04
574.557	42.9
574.898	42.93
575.238	42.94
575.578	43.06
575.918	43.23
576.258	43.03
576.598	43.15
576.938	43.42
577.278	43.43
577.618	43.36
577.958	43.33
578.298	43.53
578.638	43.41
578.977	43.57
579.317	43.67
579.657	43.82
579.996	43.89
580.336	43.91
580.675	43.77
581.014	43.81
581.354	44.02
581.693	44.18
582.032	44.27
582.372	44.36
582.711	44.4
583.05	44.12
583.389	44.63
583.728	44.79
584.067	44.38
584.406	44.86
584.745	44.84
585.083	44.9
585.422	45.06
585.761	44.96
586.1	44.74
586.438	45.26
586.777	44.85
587.115	44.83
587.454	45
587.792	45.25
588.13	44.92
588.469	45.36
588.807	45.49
589.145	45.43
589.483	45.19
589.821	45.36
590.159	45.19
590.497	45.29
590.835	45.62
591.173	45.53
591.511	45.31
591.849	45.52
592.187	45.74
592.524	46.05
592.862	45.43
593.2	45.54
593.537	45.83
593.875	45.74
594.212	45.44
594.55	46.03
594.887	45.69
595.224	45.9
595.561	46.2
595.899	46.05
596.236	45.94
596.573	46.39
596.91	46.11
597.247	46.31
597.584	46.28
597.921	46.29
598.258	46.4
598.594	46.06
598.931	46.22
599.268	46.34
599.604	46.2
599.941	46.09
600.277	46.21
600.614	46.24
600.95	46.5
601.287	46.35
601.623	46.61
601.959	46.88
602.296	46.86
602.632	46.93
602.968	46.27
603.304	47.06
603.64	47.01
603.976	47.35
604.312	47.11
604.648	47.41
604.984	47.3
605.319	46.89
605.655	46.91
605.991	46.83
606.326	47
606.662	47.18
606.998	46.98
607.333	47.12
607.668	46.71
608.004	47.25
608.339	47.25
608.674	47.38
609.01	47.63
609.345	47.68
609.68	47.87
610.015	47.95
610.35	47.89
610.685	48.08
611.02	47.66
611.355	48
611.689	47.93
612.024	47.67
612.359	47.9
612.694	47.56
613.028	48.1
613.363	47.91
613.697	48.09
614.032	48.09
614.366	48.23
614.7	48.56
615.035	48.16
615.369	48.57
615.703	48.65
616.037	48.5
616.371	48.78
616.705	48.6
617.039	48.83
617.373	48.87
617.707	48.71
618.041	48.81
618.375	48.8
618.709	48.86
619.042	49.08
619.376	49.28
619.71	48.85
620.043	48.75
620.377	49.16
620.71	49.16
621.043	48.93
621.377	49.3
621.71	49.22
622.043	49.69
622.376	49.38
622.709	49.47
623.043	49.2
623.376	49.58
623.709	49.91
624.041	49.25
624.374	49.3
624.707	49.84
625.04	49.77
625.373	49.7
625.705	50.05
626.038	49.98
626.37	49.76
626.703	49.67
627.035	49.83
627.368	50.06
627.7	49.64
628.032	49.88
628.365	50.49
628.697	49.85
629.029	50.16
629.361	50.15
629.693	50.17
630.025	49.81
630.357	50.28
630.689	49.63
631.021	50.14
631.353	50.15
631.684	50.02
632.016	50.37
632.348	50.28
632.679	50.03
633.011	50.8
633.342	50.91
633.674	51.1
634.005	50.45
634.336	50.89
634.668	50.7
634.999	50.8
635.33	51.04
635.661	51.03
635.992	50.62
636.323	51.09
636.654	50.48
636.985	50.95
637.316	50.97
637.647	51.05
637.977	50.58
638.308	51.37
638.639	51.02
638.969	51.63
639.3	51.19
639.63	50.79
639.961	51.12
640.291	51.08
640.622	51.09
640.952	51.24
641.282	51.27
641.612	51.53
641.943	51.28
642.273	51.7
642.603	51.68
642.933	51.14
643.263	51.28
643.592	51.74
643.922	51.4
644.252	52.01
644.582	52.25
644.911	52.2
645.241	52.53
645.571	52.21
645.9	51.9
646.23	52.22
646.559	52.22
646.888	51.88
647.218	51.71
647.547	51.81
647.876	52.01
648.205	51.75
648.534	52.18
648.863	52.53
649.192	52.91
649.521	52.44
649.85	51.91
650.179	52.54
650.508	52.29
650.837	52.33
651.165	52.71
651.494	52.61
651.822	52.79
652.151	52.09
652.479	52.69
652.808	52.34
653.136	52.79
653.465	52.62
653.793	52.61
654.121	52.85
654.449	52.76
654.777	52.86
655.105	53.48
655.433	53.21
655.761	52.79
656.089	53.12
656.417	53.15
656.745	53.52
657.073	53.41
657.4	53.05
657.728	52.85
658.056	52.79
658.383	53.7
658.711	53.53
659.038	52.85
659.365	53.33
659.693	53.25
660.02	53.26
660.347	53.07
660.674	53.59
661.001	53.68
661.329	53.59
661.656	53.54
661.982	53.77
662.309	53.92
662.636	53.52
662.963	53.57
663.29	54.01
663.616	53.54
663.943	53.73
664.27	53.48
664.596	53.95
664.923	54.07
665.249	53.94
665.576	53.88
665.902	53.71
666.228	54.36
666.554	53.8
666.881	54.21
667.207	54.58
667.533	54.67
667.859	54.26
668.185	54.93
668.511	54.64
668.837	54.37
669.162	54.31
669.488	54.73
669.814	53.83
670.139	54.33
