Data from 0211_forehead_Reflection__1__263.txt Node

Date: Fri Sep 22 22:51:38 CDT 2023
User: ToomeyLab
Spectrometer: FLMS14357
Trigger mode: 0
Integration Time (sec): 1.000000E-2
Scans to average: 100
Electric dark correction enabled: true
Nonlinearity correction enabled: false
Boxcar width: 0
XAxis mode: Wavelengths
Number of Pixels in Spectrum: 2048
>>>>>Begin Spectral Data<<<<<
189.047	-290.9
189.435	-290.9
189.823	-290.9
190.211	44.1
190.599	-252.83
190.987	25.16
191.375	-142.68
191.763	23.89
192.151	-25.97
192.538	191.43
192.926	313.78
193.314	94.7
193.702	-6851.72
194.089	-2412.32
194.477	556.09
194.864	145.52
195.252	-141.69
195.639	33.63
196.027	60.44
196.414	-88.31
196.801	124.87
197.189	-1679.2
197.576	231.98
197.963	-159.53
198.351	60.6
198.738	32.77
199.125	5.88
199.512	20.72
199.899	72.38
200.286	63.03
200.673	38.11
201.06	66.7
201.447	59.91
201.833	29.04
202.22	64.28
202.607	34.77
202.994	50.98
203.38	41.28
203.767	55.64
204.154	43.87
204.54	44.12
204.927	48.54
205.313	58.21
205.699	39.85
206.086	62.49
206.472	81.97
206.858	72.17
207.245	14.4
207.631	57.65
208.017	22.97
208.403	61.11
208.789	53.53
209.175	62.58
209.561	56.56
209.947	41.7
210.333	44.03
210.719	58.96
211.105	55.32
211.491	38.75
211.876	62.25
212.262	52.49
212.648	49.24
213.034	34.18
213.419	15.87
213.805	47.6
214.19	19.11
214.576	48.14
214.961	28.89
215.346	40.24
215.732	32.1
216.117	19.47
216.502	46.78
216.888	24.12
217.273	41.56
217.658	30.43
218.043	32.54
218.428	45.7
218.813	12.94
219.198	20.05
219.583	33.27
219.968	16.64
220.353	42.14
220.738	21.13
221.122	26.48
221.507	23.14
221.892	14.23
222.276	31.85
222.661	-5.56
223.046	34.32
223.43	28.51
223.815	9.02
224.199	8.63
224.583	21.82
224.968	20.41
225.352	8.58
225.736	15.57
226.121	14.58
226.505	10.26
226.889	11.09
227.273	20.76
227.657	13.73
228.041	14.36
228.425	17.07
228.809	12.48
229.193	9.33
229.577	11.64
229.961	8.51
230.344	6.93
230.728	4.63
231.112	5.37
231.495	4.27
231.879	5.35
232.263	5.37
232.646	5.94
233.03	6.74
233.413	4.96
233.797	5.9
234.18	3.65
234.563	7.33
234.946	8.8
235.33	6.28
235.713	5.29
236.096	5.31
236.479	6.55
236.862	6.8
237.245	5.95
237.628	7.68
238.011	7.66
238.394	7.31
238.777	6.33
239.16	7.9
239.543	7.3
239.925	7.77
240.308	6.99
240.691	6.21
241.073	9.84
241.456	6.12
241.838	5.49
242.221	6.49
242.603	5.96
242.986	5.48
243.368	4.95
243.75	5.36
244.133	5.14
244.515	5.11
244.897	4.94
245.279	4.93
245.661	5.13
246.043	5.29
246.425	5.2
246.807	5.96
247.189	4.16
247.571	5.96
247.953	5.31
248.335	5.26
248.717	5.29
249.098	4.74
249.48	4.6
249.862	4.65
250.243	4.63
250.625	5.11
251.006	4.65
251.388	5.44
251.769	5.59
252.151	5.15
252.532	6.05
252.913	5.89
253.295	6.25
253.676	5.72
254.057	5.71
254.438	5.66
254.819	4.3
255.2	5.55
255.581	5.02
255.962	5.28
256.343	5.17
256.724	5.33
257.105	6.27
257.486	5.66
257.867	6.98
258.247	6.65
258.628	5.86
259.009	5.49
259.389	6.2
259.77	5.57
260.15	5.87
260.531	5.37
260.911	5.29
261.292	5.12
261.672	4.92
262.052	4.81
262.432	4.94
262.813	4.97
263.193	4.53
263.573	5.73
263.953	5.47
264.333	5.36
264.713	5.36
265.093	5.45
265.473	5.01
265.853	5.25
266.233	5.5
266.612	5.38
266.992	5.09
267.372	6.43
267.752	5.39
268.131	5.75
268.511	5.3
268.89	4.9
269.27	4.58
269.649	5.2
270.029	5.03
270.408	5.04
270.787	5.14
271.167	5.12
271.546	4.59
271.925	5
272.304	4.5
272.683	5.01
273.062	5.53
273.441	5.21
273.82	5.71
274.199	5.37
274.578	5.3
274.957	5.38
275.336	4.82
275.715	5.13
276.093	5.04
276.472	5.04
276.851	4.84
277.229	4.68
277.608	5.25
277.986	4.89
278.365	5.09
278.743	4.79
279.122	5.21
279.5	5.42
279.878	4.95
280.257	5.39
280.635	4.64
281.013	5.98
281.391	4.62
281.769	5.22
282.147	5.14
282.525	5.2
282.903	5.32
283.281	5.46
283.659	5.22
284.037	5.03
284.415	5.17
284.792	4.95
285.17	5.02
285.548	5.52
285.925	5.46
286.303	5.15
286.68	4.95
287.058	4.9
287.435	5.09
287.813	4.98
288.19	4.58
288.567	5.49
288.945	4.92
289.322	4.89
289.699	5.1
290.076	5.96
290.453	5.1
290.83	5.52
291.207	5.31
291.584	5.11
291.961	5.28
292.338	5.11
292.715	5.7
293.092	5.52
293.469	5.69
293.845	5.67
294.222	5.89
294.599	5.78
294.975	6.33
295.352	6.06
295.728	5.72
296.105	5.92
296.481	5.88
296.858	6.27
297.234	5.95
297.61	6.13
297.986	5.88
298.363	6.07
298.739	6.03
299.115	6.13
299.491	6.04
299.867	6.06
300.243	5.91
300.619	6.16
300.995	6.38
301.371	6.59
301.746	6.63
302.122	6.34
302.498	6.28
302.874	6.63
303.249	6.5
303.625	6.53
304	7.18
304.376	6.82
304.751	7.2
305.127	7.06
305.502	7.34
305.878	7.26
306.253	7.28
306.628	6.57
307.003	7.11
307.378	6.98
307.754	7.24
308.129	7.19
308.504	7.44
308.879	7.26
309.254	7.21
309.629	7.62
310.003	8.19
310.378	8.06
310.753	7.69
311.128	7.78
311.502	7.9
311.877	7.2
312.252	7.7
312.626	7.84
313.001	8.22
313.375	8.08
313.75	8.03
314.124	8.14
314.498	7.81
314.873	7.93
315.247	8.84
315.621	8.54
315.995	8.74
316.369	8.3
316.743	8.65
317.117	9.38
317.491	9.23
317.865	9.04
318.239	8.96
318.613	9.59
318.987	8.96
319.361	9.45
319.734	8.62
320.108	9.14
320.482	8.89
320.855	9.17
321.229	10.33
321.602	9.7
321.976	9.51
322.349	9.87
322.723	9.94
323.096	9.86
323.469	10.24
323.843	9.78
324.216	9.39
324.589	10.16
324.962	9.58
325.335	10.32
325.708	10.04
326.081	10.46
326.454	9.63
326.827	10.2
327.2	10.29
327.573	10.58
327.945	10.57
328.318	10.87
328.691	10.49
329.063	10.27
329.436	11.01
329.809	10.77
330.181	10.71
330.553	10.72
330.926	11.17
331.298	11.07
331.671	11.09
332.043	10.65
332.415	11.36
332.787	11.2
333.159	10.65
333.532	10.88
333.904	10.91
334.276	11.49
334.648	10.92
335.02	11.7
335.391	11.35
335.763	11.49
336.135	11.82
336.507	12.22
336.879	11.61
337.25	12.11
337.622	12.04
337.993	11.66
338.365	12.3
338.736	11.85
339.108	11.75
339.479	11.55
339.851	11.93
340.222	12.26
340.593	12
340.964	11.97
341.336	11.73
341.707	11.95
342.078	12.26
342.449	12.29
342.82	12.18
343.191	11.83
343.562	12.37
343.933	12.59
344.303	12.95
344.674	12.56
345.045	12.46
345.416	12.44
345.786	12.63
346.157	12.34
346.527	12.8
346.898	12.49
347.268	12.56
347.639	13.06
348.009	12.84
348.38	13.45
348.75	13.35
349.12	13.2
349.49	13.29
349.861	13.33
350.231	13.2
350.601	13.33
350.971	13.57
351.341	13.4
351.711	13.66
352.081	13.8
352.45	13.59
352.82	13.95
353.19	13.85
353.56	13.61
353.929	14.08
354.299	14.02
354.669	13.86
355.038	13.79
355.408	13.86
355.777	14.61
356.147	14.06
356.516	14
356.885	14.2
357.254	14.54
357.624	14.15
357.993	14.07
358.362	14.53
358.731	14.41
359.1	14.29
359.469	14.41
359.838	14.25
360.207	14.4
360.576	14.79
360.945	14.65
361.314	14.84
361.682	15.15
362.051	14.89
362.42	14.86
362.788	15.13
363.157	14.9
363.525	15.08
363.894	14.9
364.262	14.99
364.631	14.95
364.999	15.03
365.367	15.28
365.735	15.2
366.104	15.42
366.472	15.84
366.84	15.44
367.208	15.86
367.576	15.81
367.944	15.42
368.312	15.37
368.68	15.49
369.048	16.18
369.416	15.79
369.783	15.98
370.151	15.85
370.519	16.19
370.886	16.1
371.254	16.53
371.621	16.38
371.989	16.61
372.356	16.19
372.724	16.2
373.091	16.47
373.458	16.64
373.826	16.84
374.193	16.94
374.56	16.87
374.927	16.7
375.294	16.83
375.661	17.07
376.028	17.33
376.395	17.37
376.762	16.84
377.129	17.35
377.496	17.4
377.863	17.49
378.229	17.47
378.596	17.4
378.963	17.5
379.329	17.25
379.696	17.81
380.062	17.38
380.429	17.67
380.795	17.56
381.161	17.67
381.528	17.92
381.894	17.82
382.26	17.62
382.626	18.05
382.993	17.96
383.359	18.04
383.725	18.21
384.091	18.16
384.457	18.31
384.823	18.35
385.188	18.43
385.554	18.37
385.92	18.64
386.286	18.39
386.651	18.69
387.017	18.76
387.383	18.41
387.748	18.77
388.114	18.73
388.479	18.71
388.845	18.43
389.21	18.57
389.575	19
389.94	18.99
390.306	19.31
390.671	19.33
391.036	18.88
391.401	19
391.766	19.46
392.131	19.43
392.496	19.72
392.861	19.49
393.226	19.63
393.591	19.6
393.956	19.66
394.32	19.73
394.685	19.49
395.05	19.97
395.414	19.71
395.779	19.79
396.143	19.8
396.508	20.09
396.872	19.71
397.236	20.12
397.601	19.88
397.965	20.17
398.329	20.29
398.694	20.43
399.058	20.26
399.422	20.69
399.786	20.64
400.15	20.55
400.514	20.89
400.878	20.41
401.242	20.66
401.605	20.58
401.969	20.4
402.333	20.69
402.697	20.9
403.06	20.81
403.424	21.05
403.787	21.3
404.151	21.07
404.514	21.1
404.878	21.18
405.241	21.44
405.604	21.22
405.968	21.46
406.331	21.35
406.694	21.48
407.057	21.32
407.42	21.49
407.783	21.61
408.146	21.75
408.509	21.66
408.872	21.81
409.235	22.03
409.598	22.12
409.961	22.38
410.323	22.18
410.686	22.08
411.049	22.32
411.411	22.31
411.774	22.36
412.136	22.21
412.499	22.39
412.861	22.55
413.223	22.49
413.586	22.52
413.948	22.62
414.31	22.49
414.672	22.77
415.035	23.01
415.397	23.08
415.759	23.12
416.121	22.92
416.483	23.1
416.845	23.01
417.206	23.03
417.568	23.18
417.93	23.05
418.292	23.2
418.653	22.94
419.015	23.28
419.377	23.15
419.738	23.29
420.1	23.28
420.461	23.34
420.822	23.24
421.184	23.35
421.545	23.27
421.906	23.34
422.267	23.19
422.629	23.38
422.99	23.3
423.351	23.16
423.712	23.22
424.073	23.38
424.434	23.4
424.795	23.59
425.155	23.73
425.516	23.65
425.877	23.71
426.238	23.64
426.598	23.52
426.959	23.7
427.32	23.81
427.68	23.97
428.041	24.02
428.401	24.21
428.761	24.37
429.122	24.46
429.482	24.67
429.842	24.56
430.202	24.64
430.563	24.88
430.923	25.2
431.283	25.08
431.643	24.99
432.003	24.99
432.363	25.02
432.722	25.37
433.082	25.32
433.442	25.14
433.802	25.27
434.161	25.25
434.521	25.18
434.881	25.47
435.24	25.27
435.6	25.31
435.959	25.33
436.319	25.37
436.678	25.59
437.037	25.66
437.396	25.4
437.756	25.5
438.115	26.05
438.474	26.09
438.833	26.31
439.192	25.86
439.551	26.23
439.91	26.19
440.269	26.15
440.628	26.19
440.987	26.02
441.345	26.11
441.704	26.3
442.063	26.08
442.421	26.19
442.78	26.16
443.138	26.08
443.497	26.01
443.855	26.29
444.214	26.22
444.572	26.57
444.93	26.64
445.288	26.65
445.647	26.92
446.005	26.82
446.363	26.64
446.721	26.83
447.079	26.72
447.437	26.78
447.795	26.85
448.153	26.63
448.51	26.69
448.868	26.55
449.226	26.71
449.584	26.77
449.941	26.86
450.299	27.12
450.656	27.14
451.014	27.32
451.371	27.35
451.729	27.48
452.086	27.42
452.443	27.76
452.801	27.87
453.158	27.89
453.515	27.99
453.872	27.94
454.229	27.98
454.586	27.97
454.943	27.88
455.3	28.03
455.657	27.96
456.014	27.97
456.371	28.23
456.727	28.31
457.084	28.39
457.441	28.41
457.797	28.64
458.154	28.41
458.51	28.46
458.867	28.55
459.223	28.77
459.58	28.82
459.936	28.79
460.292	28.77
460.648	28.85
461.005	28.91
461.361	28.88
461.717	28.59
462.073	28.39
462.429	28.27
462.785	28.35
463.141	28.45
463.496	28.91
463.852	29.03
464.208	29.18
464.564	29.46
464.919	29.31
465.275	29.53
465.631	29.59
465.986	29.62
466.342	29.83
466.697	29.86
467.052	29.84
467.408	29.72
467.763	29.66
468.118	29.88
468.473	30.06
468.829	29.75
469.184	30.09
469.539	29.9
469.894	30.04
470.249	30.01
470.603	30.11
470.958	30.23
471.313	30.23
471.668	30.28
472.023	30.64
472.377	30.45
472.732	30.35
473.086	30.72
473.441	30.4
473.795	30.87
474.15	30.76
474.504	30.74
474.859	30.93
475.213	30.64
475.567	30.7
475.921	30.87
476.275	30.95
476.63	30.91
476.984	31.1
477.338	31.23
477.692	31.2
478.045	31.29
478.399	31.2
478.753	31.18
479.107	31.13
479.461	31.21
479.814	31.29
480.168	31.38
480.521	31.31
480.875	31.32
481.228	31.31
481.582	31.29
481.935	31.44
482.289	31.46
482.642	31.53
482.995	31.66
483.348	31.3
483.701	31.43
484.055	31.67
484.408	31.32
484.761	31.41
485.114	31.08
485.466	30.9
485.819	30.66
486.172	30.63
486.525	30.65
486.878	30.75
487.23	30.89
487.583	30.94
487.936	31.28
488.288	31.54
488.641	31.53
488.993	31.48
489.345	31.31
489.698	31.29
490.05	31.33
490.402	31.2
490.754	31.34
491.107	31.45
491.459	31.74
491.811	32.01
492.163	32.12
492.515	32.34
492.866	32.15
493.218	32.24
493.57	32.11
493.922	31.85
494.274	31.76
494.625	32.04
494.977	32.3
495.328	32.38
495.68	32.84
496.031	32.88
496.383	33.21
496.734	33.36
497.086	33.65
497.437	33.46
497.788	33.41
498.139	33.63
498.49	33.57
498.842	33.44
499.193	33.27
499.544	33.37
499.894	33.53
500.245	33.68
500.596	33.65
500.947	33.63
501.298	33.87
501.648	33.91
501.999	33.95
502.35	34
502.7	34.22
503.051	34.29
503.401	34.32
503.752	34.14
504.102	34.26
504.452	34.48
504.803	34.52
505.153	34.36
505.503	34.61
505.853	34.43
506.203	34.53
506.553	34.7
506.903	34.57
507.253	34.66
507.603	34.81
507.953	34.91
508.303	34.84
508.652	34.89
509.002	35.04
509.352	35.05
509.701	35.04
510.051	35
510.4	35.07
510.75	35.08
511.099	34.93
511.449	34.95
511.798	34.93
512.147	35.2
512.496	34.94
512.846	35.35
513.195	35.21
513.544	35.36
513.893	35.45
514.242	35.39
514.591	35.33
514.939	35.5
515.288	35.51
515.637	35.54
515.986	35.45
516.334	35.81
516.683	36.04
517.032	36.25
517.38	35.96
517.729	36.14
518.077	36.17
518.426	36.21
518.774	36.3
519.122	36.2
519.47	36.24
519.819	36.16
520.167	36.1
520.515	35.98
520.863	35.78
521.211	35.94
521.559	35.99
521.907	36
522.255	36.09
522.602	36.3
522.95	36.41
523.298	36.79
523.645	36.62
523.993	36.82
524.341	36.66
524.688	36.97
525.036	36.87
525.383	37.06
525.73	37.14
526.078	37.28
526.425	37.14
526.772	37.2
527.119	37.01
527.466	36.88
527.814	36.68
528.161	36.62
528.508	36.75
528.854	36.76
529.201	36.94
529.548	36.9
529.895	36.98
530.242	36.74
530.588	36.46
530.935	36.46
531.282	36.4
531.628	36.52
531.975	36.59
532.321	36.71
532.667	36.87
533.014	37.31
533.36	37.35
533.706	37.38
534.052	37.68
534.399	37.75
534.745	37.59
535.091	37.55
535.437	37.27
535.783	37.21
536.129	37.36
536.474	37.49
536.82	37.67
537.166	37.94
537.512	37.94
537.857	38.18
538.203	38.35
538.549	38.15
538.894	38.1
539.239	38.03
539.585	38.06
539.93	38.4
540.276	38.36
540.621	38.53
540.966	38.71
541.311	39.05
541.656	39.01
542.001	39.1
542.346	39.15
542.691	38.85
543.036	38.54
543.381	38.31
543.726	38.18
544.071	38.23
544.415	38.35
544.76	38.39
545.105	38.58
545.449	38.79
545.794	38.86
546.138	38.91
546.483	39.19
546.827	39.12
547.171	39.39
547.516	39.59
547.86	39.56
548.204	39.73
548.548	39.75
548.892	39.56
549.236	39.44
549.58	39.49
549.924	39.76
550.268	39.77
550.612	40.05
550.956	39.97
551.3	40.41
551.643	40.52
551.987	40.62
552.33	41.04
552.674	40.78
553.017	40.8
553.361	40.91
553.704	41.2
554.048	40.91
554.391	40.83
554.734	40.92
555.077	40.8
555.42	40.96
555.764	40.85
556.107	41.03
556.45	41.13
556.793	41.21
557.135	41.47
557.478	41.41
557.821	41.2
558.164	41.39
558.507	41.62
558.849	41.47
559.192	41.63
559.534	41.83
559.877	41.41
560.219	41.82
560.562	41.82
560.904	41.99
561.246	41.68
561.589	41.97
561.931	42
562.273	41.97
562.615	42.2
562.957	42.16
563.299	42.21
563.641	42.09
563.983	42.09
564.325	42.24
564.667	42.32
565.008	42.24
565.35	42.24
565.692	42.45
566.033	42.62
566.375	42.53
566.716	42.53
567.058	42.57
567.399	42.76
567.741	42.53
568.082	42.6
568.423	42.5
568.764	42.48
569.105	42.32
569.447	42.46
569.788	42.5
570.129	42.63
570.47	42.86
570.811	42.8
571.151	43.24
571.492	42.98
571.833	43.02
572.174	43.09
572.514	43.21
572.855	43.2
573.195	43.04
573.536	43.2
573.876	43.54
574.217	43.42
574.557	43.05
574.898	43.25
575.238	43.34
575.578	43.17
575.918	43.27
576.258	43.51
576.598	43.67
576.938	43.56
577.278	43.7
577.618	43.62
577.958	43.8
578.298	43.8
578.638	43.76
578.977	44.03
579.317	44.13
579.657	44.25
579.996	44.21
580.336	44.39
580.675	44.39
581.014	44.54
581.354	44.32
581.693	44.44
582.032	44.57
582.372	44.7
582.711	44.63
583.05	44.68
583.389	45
583.728	44.91
584.067	44.76
584.406	45.12
584.745	45.09
585.083	45.23
585.422	45.03
585.761	45.21
586.1	45.55
586.438	45.29
586.777	45.3
587.115	45.53
587.454	45.04
587.792	45.42
588.13	45.56
588.469	45.54
588.807	45.29
589.145	45.8
589.483	45.56
589.821	45.79
590.159	45.61
590.497	46.02
590.835	45.69
591.173	45.79
591.511	45.75
591.849	45.75
592.187	46.09
592.524	45.89
592.862	45.75
593.2	45.82
593.537	46.04
593.875	46.12
594.212	46.25
594.55	46.29
594.887	46.03
595.224	46.37
595.561	46.27
595.899	46.28
596.236	46.3
596.573	46.39
596.91	46.43
597.247	46.54
597.584	46.66
597.921	46.33
598.258	46.48
598.594	46.62
598.931	46.53
599.268	46.42
599.604	46.28
599.941	46.41
600.277	46.35
600.614	46.65
600.95	46.85
601.287	46.67
601.623	47.17
601.959	47.09
602.296	47.14
602.632	47.15
602.968	47.12
603.304	47.29
603.64	47.39
603.976	47.29
604.312	47.52
604.648	47.45
604.984	47.5
605.319	47.31
605.655	47.38
605.991	47.17
606.326	47.05
606.662	47.02
606.998	46.86
607.333	47.05
607.668	47.15
608.004	47.37
608.339	47.48
608.674	47.69
609.01	47.91
609.345	47.99
609.68	47.91
610.015	48.05
610.35	48.25
610.685	48.33
611.02	48.16
611.355	48.22
611.689	48.02
612.024	47.97
612.359	47.94
612.694	47.68
613.028	48.12
613.363	47.85
613.697	47.93
614.032	48.03
614.366	48.44
614.7	48.8
615.035	48.6
615.369	48.66
615.703	48.7
616.037	48.63
616.371	49.18
616.705	48.99
617.039	48.83
617.373	48.94
617.707	48.71
618.041	49.33
618.375	49.05
618.709	49.2
619.042	48.83
619.376	49.24
619.71	48.93
620.043	49.27
620.377	49.41
620.71	49.4
621.043	49.38
621.377	49.5
621.71	49.86
622.043	49.44
622.376	49.57
622.709	49.58
623.043	49.72
623.376	49.54
623.709	50.09
624.041	49.91
624.374	49.29
624.707	50.26
625.04	49.91
625.373	49.78
625.705	50.05
626.038	50.06
626.37	49.85
626.703	50.11
627.035	50.01
627.368	50.31
627.7	50.23
628.032	50.23
628.365	49.88
628.697	50.18
629.029	50.34
629.361	50.12
629.693	50.2
630.025	50.37
630.357	49.72
630.689	49.86
631.021	50.49
631.353	50.37
631.684	50.74
632.016	50.25
632.348	50.42
632.679	50.69
633.011	50.74
633.342	50.87
633.674	50.9
634.005	50.1
634.336	51.04
634.668	50.6
634.999	51.38
635.33	50.96
635.661	51.22
635.992	50.92
636.323	51.05
636.654	50.84
636.985	50.99
637.316	51.09
637.647	51.1
637.977	50.96
638.308	51.24
638.639	51.38
638.969	50.96
639.3	51.44
639.63	51.55
639.961	51.84
640.291	50.84
640.622	51.78
640.952	51.38
641.282	51.66
641.612	51.49
641.943	51.89
642.273	51.48
642.603	51.9
642.933	51.86
643.263	51.48
643.592	52
643.922	51.8
644.252	52.07
644.582	52.22
644.911	52.29
645.241	52.46
645.571	51.85
645.9	52.33
646.23	51.92
646.559	52.02
646.888	52.09
647.218	52.19
647.547	52.31
647.876	52.32
648.205	51.33
648.534	52.02
648.863	52.73
649.192	51.96
649.521	52.64
649.85	52.31
650.179	52.2
650.508	52.38
650.837	52.65
651.165	52.54
651.494	52.57
651.822	53.17
652.151	52.48
652.479	52.39
652.808	52.98
653.136	52.96
653.465	52.37
653.793	52.71
654.121	52.97
654.449	52.63
654.777	53.79
655.105	53.13
655.433	53.45
655.761	53.03
656.089	52.9
656.417	53.03
656.745	53.69
657.073	53.37
657.4	53.67
657.728	52.31
658.056	52.79
658.383	53.54
658.711	53.26
659.038	52.88
659.365	53.66
659.693	53.19
660.02	53.43
660.347	53.58
660.674	53.56
661.001	53.2
661.329	53.67
661.656	53.34
661.982	53.42
662.309	53.64
662.636	53.01
662.963	53.4
663.29	53.67
663.616	53.14
663.943	53.41
664.27	53.8
664.596	53.78
664.923	53.67
665.249	53.94
665.576	54.05
665.902	53.61
666.228	53.85
666.554	53.9
666.881	53.93
667.207	54.53
667.533	53.76
667.859	54.34
668.185	55.22
668.511	54.56
668.837	54.35
669.162	53.73
669.488	54.46
