Data from 0211_crown_Reflection__4__261.txt Node

Date: Fri Sep 22 22:50:54 CDT 2023
User: ToomeyLab
Spectrometer: FLMS14357
Trigger mode: 0
Integration Time (sec): 1.000000E-2
Scans to average: 100
Electric dark correction enabled: true
Nonlinearity correction enabled: false
Boxcar width: 0
XAxis mode: Wavelengths
Number of Pixels in Spectrum: 2048
>>>>>Begin Spectral Data<<<<<
189.047	378.45
189.435	378.45
189.823	378.45
190.211	205.49
190.599	-25.45
190.987	48.15
191.375	-287.98
191.763	95.35
192.151	38.84
192.538	-401.01
192.926	161.7
193.314	-15.17
193.702	-16489.66
194.089	-1567.34
194.477	-710.34
194.864	94.17
195.252	114.75
195.639	245.9
196.027	114.71
196.414	-324.98
196.801	-22.66
197.189	590.4
197.576	119.75
197.963	117.45
198.351	14.17
198.738	6.92
199.125	-11.25
199.512	-14.16
199.899	55.74
200.286	14.99
200.673	11.26
201.06	2.34
201.447	34.35
201.833	-20.76
202.22	16.94
202.607	29.77
202.994	39.11
203.38	0.01
203.767	-19.64
204.154	46.67
204.54	8.28
204.927	-21.89
205.313	26.72
205.699	29.21
206.086	56.55
206.472	42.21
206.858	31.68
207.245	-6.42
207.631	41.64
208.017	23.83
208.403	28.2
208.789	-9.4
209.175	28.66
209.561	46.3
209.947	26.45
210.333	21.39
210.719	6.69
211.105	17.59
211.491	27.3
211.876	38.61
212.262	-14.26
212.648	8.61
213.034	19.56
213.419	13.7
213.805	20.44
214.19	24.51
214.576	23.49
214.961	11.76
215.346	-19.68
215.732	44.16
216.117	13.4
216.502	5.52
216.888	12.53
217.273	6.91
217.658	-0.33
218.043	21.89
218.428	20.8
218.813	-10.35
219.198	-2.42
219.583	1.35
219.968	-21.31
220.353	34.17
220.738	4.64
221.122	2.16
221.507	4.66
221.892	-2.36
222.276	2.39
222.661	-23.99
223.046	19.58
223.43	27.05
223.815	9.48
224.199	0.01
224.583	8.75
224.968	22.43
225.352	1.1
225.736	9.3
226.121	5.03
226.505	5.49
226.889	14.33
227.273	4.69
227.657	4.57
228.041	4.17
228.425	12.29
228.809	8.69
229.193	10.55
229.577	10.44
229.961	11.2
230.344	12.99
230.728	8.12
231.112	10.38
231.495	9.29
231.879	10.27
232.263	8.43
232.646	7.79
233.03	9.01
233.413	8.72
233.797	9.02
234.18	8.83
234.563	11.27
234.946	10.03
235.33	5.69
235.713	7.34
236.096	8.64
236.479	8.6
236.862	10.34
237.245	9.05
237.628	10.77
238.011	9.12
238.394	9.97
238.777	10.38
239.16	9.89
239.543	9.89
239.925	9.14
240.308	9.5
240.691	10.38
241.073	9.85
241.456	7.96
241.838	9.82
242.221	8.3
242.603	8.9
242.986	9.05
243.368	8.88
243.75	9.2
244.133	9.22
244.515	9.12
244.897	8.52
245.279	8.61
245.661	8.83
246.043	8.79
246.425	8.61
246.807	9.64
247.189	7.29
247.571	9.4
247.953	8.61
248.335	8.75
248.717	8.7
249.098	8.54
249.48	8.32
249.862	8.44
250.243	8.37
250.625	8.49
251.006	8.06
251.388	8.13
251.769	8.84
252.151	7.93
252.532	7.81
252.913	8.7
253.295	9.27
253.676	8.19
254.057	8.19
254.438	8.35
254.819	7.94
255.2	8.31
255.581	8.17
255.962	9.39
256.343	8.15
256.724	7.37
257.105	7.39
257.486	8.4
257.867	7.62
258.247	8.13
258.628	8.04
259.009	8.17
259.389	7.58
259.77	8.23
260.15	8.53
260.531	7.8
260.911	7.73
261.292	7.51
261.672	7.42
262.052	7.69
262.432	7.66
262.813	7.76
263.193	7.36
263.573	8.07
263.953	6.79
264.333	7.72
264.713	7.17
265.093	7.29
265.473	7.44
265.853	7.51
266.233	7.25
266.612	7.56
266.992	8.24
267.372	6.89
267.752	7.53
268.131	7.29
268.511	6.99
268.89	7.56
269.27	7.42
269.649	7.11
270.029	7.33
270.408	6.63
270.787	6.98
271.167	7.23
271.546	6.85
271.925	7.47
272.304	6.99
272.683	7.25
273.062	7.37
273.441	7.15
273.82	7.49
274.199	7.32
274.578	7.39
274.957	7.29
275.336	7.04
275.715	7.15
276.093	7.02
276.472	6.49
276.851	6.76
277.229	6.41
277.608	6.94
277.986	7.07
278.365	7.07
278.743	6.84
279.122	7.66
279.5	7.22
279.878	7.24
280.257	7.22
280.635	6.48
281.013	6.68
281.391	6.65
281.769	7.39
282.147	6.61
282.525	6.31
282.903	6.79
283.281	6.37
283.659	6.68
284.037	6.5
284.415	6.77
284.792	6.77
285.17	6.55
285.548	7.12
285.925	7.02
286.303	6.62
286.68	6.45
287.058	6.69
287.435	6.38
287.813	6.25
288.19	6.78
288.567	6.54
288.945	6.19
289.322	6.47
289.699	6.27
290.076	6.38
290.453	6
290.83	6.18
291.207	6.49
291.584	5.98
291.961	5.97
292.338	6.38
292.715	6.52
293.092	6.14
293.469	6.36
293.845	6.47
294.222	5.93
294.599	6.15
294.975	6.34
295.352	6.03
295.728	6.21
296.105	6.38
296.481	6.2
296.858	6.15
297.234	5.69
297.61	5.74
297.986	6.23
298.363	6.12
298.739	6.03
299.115	6.12
299.491	6.23
299.867	5.73
300.243	5.83
300.619	6.23
300.995	5.73
301.371	6.4
301.746	6.18
302.122	5.97
302.498	5.41
302.874	5.69
303.249	5.83
303.625	5.24
304	5.92
304.376	6.17
304.751	5.82
305.127	5.35
305.502	6.27
305.878	5.76
306.253	5.98
306.628	5.5
307.003	5.91
307.378	5.81
307.754	5.85
308.129	5.73
308.504	6.35
308.879	5.68
309.254	5.98
309.629	5.51
310.003	5.86
310.378	6.01
310.753	6.22
311.128	5.48
311.502	5.56
311.877	5.54
312.252	5.5
312.626	5.39
313.001	5.73
313.375	5.67
313.75	5.9
314.124	6.29
314.498	5.43
314.873	5.58
315.247	5.77
315.621	5.52
315.995	5.78
316.369	5.53
316.743	5.48
317.117	6.23
317.491	6.13
317.865	5.34
318.239	5.64
318.613	5.55
318.987	5.91
319.361	5.12
319.734	4.92
320.108	5.67
320.482	5.46
320.855	4.81
321.229	6.09
321.602	6.07
321.976	5.03
322.349	5.12
322.723	5.16
323.096	5.55
323.469	5.54
323.843	5.7
324.216	5.6
324.589	5.7
324.962	4.99
325.335	5.63
325.708	5.37
326.081	5.57
326.454	5.11
326.827	5.51
327.2	5.76
327.573	5.67
327.945	5.61
328.318	5.44
328.691	5.51
329.063	5.39
329.436	5.55
329.809	5.68
330.181	6.19
330.553	5.16
330.926	5.4
331.298	5.7
331.671	5.88
332.043	5.03
332.415	5.15
332.787	5.76
333.159	4.93
333.532	5.62
333.904	5.79
334.276	5.05
334.648	5.03
335.02	5.48
335.391	5.12
335.763	5.67
336.135	5.29
336.507	5.81
336.879	5.06
337.25	5.37
337.622	6.01
337.993	5.49
338.365	5.88
338.736	5.63
339.108	5.89
339.479	5.2
339.851	5.59
340.222	5.04
340.593	5.68
340.964	5.46
341.336	5.52
341.707	5.52
342.078	5.58
342.449	5.52
342.82	5.35
343.191	5.17
343.562	5.67
343.933	5.81
344.303	5.11
344.674	5.52
345.045	5.7
345.416	5.4
345.786	5.08
346.157	4.88
346.527	5.62
346.898	5.68
347.268	5.52
347.639	5.47
348.009	5.56
348.38	5.44
348.75	5.32
349.12	5.5
349.49	5.79
349.861	5.62
350.231	5.34
350.601	5.53
350.971	5.64
351.341	5.61
351.711	5.37
352.081	5.19
352.45	5.77
352.82	5.55
353.19	6.22
353.56	5.46
353.929	5.89
354.299	5.61
354.669	5.3
355.038	5.45
355.408	5.75
355.777	6.13
356.147	5.46
356.516	5.66
356.885	5.59
357.254	5.95
357.624	5.29
357.993	5.72
358.362	5.88
358.731	5.32
359.1	5.61
359.469	5.96
359.838	5.54
360.207	5.77
360.576	5.53
360.945	5.63
361.314	5.97
361.682	5.89
362.051	5.74
362.42	5.8
362.788	5.68
363.157	5.89
363.525	5.79
363.894	5.74
364.262	5.63
364.631	5.9
364.999	5.49
365.367	5.98
365.735	5.75
366.104	5.75
366.472	6.03
366.84	5.55
367.208	5.88
367.576	5.87
367.944	5.88
368.312	5.83
368.68	5.8
369.048	6.01
369.416	6.02
369.783	5.78
370.151	5.58
370.519	5.73
370.886	5.93
371.254	6.39
371.621	6.02
371.989	5.84
372.356	5.81
372.724	5.96
373.091	6.23
373.458	6.07
373.826	5.88
374.193	6.03
374.56	5.88
374.927	6.17
375.294	5.7
375.661	5.64
376.028	6.2
376.395	5.87
376.762	5.84
377.129	6.13
377.496	6.02
377.863	5.87
378.229	6.07
378.596	5.94
378.963	6.48
379.329	6.1
379.696	6.19
380.062	5.91
380.429	6.25
380.795	6.4
381.161	5.74
381.528	6.02
381.894	5.79
382.26	5.79
382.626	6.04
382.993	6.33
383.359	5.9
383.725	6.16
384.091	6.36
384.457	6.33
384.823	6.18
385.188	6.05
385.554	6.21
385.92	6.43
386.286	6.45
386.651	6.23
387.017	6.33
387.383	6.2
387.748	6.28
388.114	6.1
388.479	6.32
388.845	5.98
389.21	6.28
389.575	6.48
389.94	5.74
390.306	6.35
390.671	6.6
391.036	6.03
391.401	6.16
391.766	6.33
392.131	6.11
392.496	6.02
392.861	6.13
393.226	6.5
393.591	6.43
393.956	6.34
394.32	6.45
394.685	6.25
395.05	6.61
395.414	6.55
395.779	6.27
396.143	6.32
396.508	6.43
396.872	6.18
397.236	6.52
397.601	6.17
397.965	6.5
398.329	6.7
398.694	6.46
399.058	6.48
399.422	6.38
399.786	6.56
400.15	6.45
400.514	6.67
400.878	6.24
401.242	6.49
401.605	6.4
401.969	6.39
402.333	6.61
402.697	6.35
403.06	6.59
403.424	6.35
403.787	6.76
404.151	6.33
404.514	6.76
404.878	6.56
405.241	6.75
405.604	6.71
405.968	6.61
406.331	6.72
406.694	6.61
407.057	6.21
407.42	6.75
407.783	6.6
408.146	6.69
408.509	6.4
408.872	6.63
409.235	6.66
409.598	6.51
409.961	6.86
410.323	6.55
410.686	6.51
411.049	6.7
411.411	6.74
411.774	6.34
412.136	6.68
412.499	6.54
412.861	6.78
413.223	6.61
413.586	6.59
413.948	6.64
414.31	6.44
414.672	6.76
415.035	6.6
415.397	6.89
415.759	6.94
416.121	6.61
416.483	6.56
416.845	6.76
417.206	6.55
417.568	6.63
417.93	6.96
418.292	6.85
418.653	6.64
419.015	6.57
419.377	6.52
419.738	6.94
420.1	6.62
420.461	6.71
420.822	6.59
421.184	6.7
421.545	6.64
421.906	6.59
422.267	6.65
422.629	6.75
422.99	6.64
423.351	6.58
423.712	6.48
424.073	6.61
424.434	6.7
424.795	6.59
425.155	6.75
425.516	6.57
425.877	6.64
426.238	6.47
426.598	6.58
426.959	6.74
427.32	6.68
427.68	6.65
428.041	6.6
428.401	6.9
428.761	6.76
429.122	6.77
429.482	6.75
429.842	6.61
430.202	6.6
430.563	6.81
430.923	6.95
431.283	6.79
431.643	6.85
432.003	6.93
432.363	6.99
432.722	6.98
433.082	6.69
433.442	6.78
433.802	6.84
434.161	6.64
434.521	6.76
434.881	6.76
435.24	6.79
435.6	6.74
435.959	6.61
436.319	6.71
436.678	6.99
437.037	6.95
437.396	6.64
437.756	6.77
438.115	6.97
438.474	6.78
438.833	6.81
439.192	6.89
439.551	6.99
439.91	7.08
440.269	6.78
440.628	6.66
440.987	6.67
441.345	6.85
441.704	7.06
442.063	6.71
442.421	6.77
442.78	6.83
443.138	6.93
443.497	6.81
443.855	6.77
444.214	6.71
444.572	6.95
444.93	6.91
445.288	6.75
445.647	6.96
446.005	6.86
446.363	6.72
446.721	6.88
447.079	6.79
447.437	6.84
447.795	6.83
448.153	6.8
448.51	6.78
448.868	6.77
449.226	6.87
449.584	6.81
449.941	6.72
450.299	6.89
450.656	6.94
451.014	6.84
451.371	6.93
451.729	6.87
452.086	7
452.443	6.88
452.801	6.99
453.158	6.95
453.515	6.93
453.872	6.94
454.229	7.06
454.586	7.03
454.943	6.94
455.3	6.99
455.657	6.88
456.014	6.9
456.371	7.06
456.727	7.16
457.084	7.04
457.441	6.85
457.797	7.11
458.154	7.05
458.51	6.99
458.867	6.83
459.223	6.96
459.58	6.9
459.936	7.08
460.292	6.96
460.648	7.09
461.005	7.09
461.361	6.96
461.717	6.85
462.073	6.9
462.429	6.81
462.785	6.82
463.141	6.89
463.496	6.99
463.852	6.97
464.208	6.78
464.564	7.07
464.919	7.07
465.275	7.22
465.631	7.11
465.986	7.17
466.342	7.1
466.697	7.2
467.052	7.09
467.408	7.13
467.763	6.95
468.118	7.15
468.473	7.08
468.829	7.02
469.184	6.96
469.539	7.09
469.894	7.04
470.249	6.99
470.603	6.85
470.958	7.02
471.313	7.14
471.668	7.08
472.023	7.11
472.377	6.96
472.732	6.96
473.086	7.16
473.441	6.91
473.795	7.08
474.15	6.97
474.504	7.14
474.859	7.12
475.213	7.08
475.567	6.97
475.921	6.94
476.275	7.08
476.63	6.94
476.984	6.99
477.338	7.27
477.692	7.04
478.045	7.07
478.399	7.3
478.753	6.91
479.107	6.94
479.461	7.05
479.814	7.14
480.168	7.1
480.521	7.11
480.875	7.12
481.228	6.92
481.582	6.95
481.935	6.92
482.289	6.96
482.642	6.9
482.995	6.94
483.348	6.82
483.701	6.97
484.055	6.92
484.408	6.95
484.761	7.02
485.114	6.72
485.466	6.75
485.819	6.59
486.172	6.61
486.525	6.61
486.878	6.56
487.23	6.66
487.583	6.72
487.936	6.76
488.288	6.82
488.641	6.79
488.993	6.81
489.345	6.77
489.698	6.66
490.05	6.73
490.402	6.7
490.754	6.72
491.107	6.69
491.459	6.84
491.811	6.84
492.163	6.74
492.515	6.88
492.866	6.94
493.218	6.83
493.57	6.77
493.922	6.66
494.274	6.75
494.625	6.71
494.977	6.79
495.328	6.94
495.68	6.99
496.031	6.94
496.383	7.08
496.734	6.93
497.086	7.03
497.437	7.06
497.788	6.87
498.139	6.95
498.49	7
498.842	6.88
499.193	6.81
499.544	7.09
499.894	6.85
500.245	6.96
500.596	6.91
500.947	7.05
501.298	6.97
501.648	6.97
501.999	6.92
502.35	6.99
502.7	7.14
503.051	7
503.401	7.06
503.752	7.01
504.102	7
504.452	6.91
504.803	6.96
505.153	6.93
505.503	6.98
505.853	7.16
506.203	6.8
506.553	6.93
506.903	6.93
507.253	6.95
507.603	6.95
507.953	6.98
508.303	6.92
508.652	6.9
509.002	7.03
509.352	6.97
509.701	7.02
510.051	6.89
510.4	7.02
510.75	6.98
511.099	6.83
511.449	6.95
511.798	6.91
512.147	6.95
512.496	6.88
512.846	6.81
513.195	7
513.544	7.01
513.893	6.99
514.242	6.92
514.591	6.87
514.939	6.9
515.288	6.9
515.637	6.86
515.986	6.89
516.334	6.96
516.683	7.01
517.032	7.08
517.38	6.88
517.729	6.96
518.077	6.96
518.426	6.95
518.774	6.89
519.122	6.91
519.47	6.9
519.819	6.91
520.167	6.97
520.515	6.86
520.863	6.72
521.211	6.81
521.559	6.81
521.907	6.82
522.255	6.83
522.602	6.79
522.95	6.91
523.298	6.95
523.645	6.9
523.993	6.86
524.341	6.84
524.688	6.87
525.036	6.9
525.383	6.86
525.73	6.97
526.078	6.97
526.425	6.92
526.772	7.01
527.119	6.87
527.466	6.75
527.814	6.76
528.161	6.67
528.508	6.84
528.854	6.77
529.201	6.78
529.548	6.75
529.895	6.72
530.242	6.63
530.588	6.62
530.935	6.53
531.282	6.57
531.628	6.53
531.975	6.54
532.321	6.59
532.667	6.66
533.014	6.71
533.36	6.73
533.706	6.73
534.052	6.83
534.399	6.73
534.745	6.76
535.091	6.66
535.437	6.65
535.783	6.54
536.129	6.6
536.474	6.67
536.82	6.57
537.166	6.77
537.512	6.8
537.857	6.79
538.203	6.83
538.549	6.82
538.894	6.66
539.239	6.73
539.585	6.67
539.93	6.81
540.276	6.76
540.621	6.73
540.966	6.87
541.311	6.84
541.656	6.68
542.001	6.85
542.346	6.86
542.691	6.69
543.036	6.7
543.381	6.58
543.726	6.57
544.071	6.51
544.415	6.61
544.76	6.57
545.105	6.55
545.449	6.6
545.794	6.66
546.138	6.69
546.483	6.7
546.827	6.72
547.171	6.6
547.516	6.76
547.86	6.83
548.204	6.65
548.548	6.64
548.892	6.81
549.236	6.71
549.58	6.74
549.924	6.81
550.268	6.78
550.612	6.75
550.956	6.81
551.3	6.69
551.643	6.73
551.987	6.83
552.33	6.9
552.674	6.89
553.017	6.6
553.361	6.77
553.704	6.74
554.048	6.89
554.391	6.76
554.734	6.91
555.077	6.61
555.42	6.84
555.764	6.75
556.107	6.68
556.45	6.75
556.793	6.82
557.135	6.8
557.478	6.63
557.821	6.77
558.164	6.9
558.507	6.92
558.849	6.72
559.192	6.75
559.534	6.8
559.877	6.69
560.219	6.78
560.562	6.81
560.904	6.61
561.246	6.83
561.589	6.76
561.931	6.59
562.273	6.72
562.615	6.62
562.957	6.86
563.299	6.79
563.641	6.78
563.983	6.85
564.325	6.73
564.667	6.78
565.008	6.5
565.35	6.84
565.692	6.73
566.033	6.55
566.375	6.88
566.716	6.66
567.058	6.54
567.399	6.53
567.741	6.85
568.082	6.66
568.423	6.63
568.764	6.71
569.105	6.39
569.447	6.63
569.788	6.56
570.129	6.58
570.47	6.71
570.811	6.71
571.151	6.62
571.492	6.61
571.833	6.5
572.174	6.72
572.514	6.64
572.855	6.51
573.195	6.47
573.536	6.7
573.876	6.65
574.217	6.55
574.557	6.65
574.898	6.8
575.238	6.59
575.578	6.63
575.918	6.68
576.258	6.52
576.598	6.65
576.938	6.6
577.278	6.81
577.618	6.39
577.958	6.61
578.298	6.66
578.638	6.51
578.977	6.66
579.317	6.59
579.657	6.48
579.996	6.7
580.336	6.65
580.675	6.63
581.014	6.42
581.354	6.54
581.693	6.64
582.032	6.53
582.372	6.67
582.711	6.55
583.05	6.58
583.389	6.68
583.728	6.62
584.067	6.53
584.406	6.56
584.745	6.33
585.083	6.82
585.422	6.59
585.761	6.46
586.1	6.62
586.438	6.72
586.777	6.68
587.115	6.57
587.454	6.43
587.792	6.72
588.13	6.67
588.469	6.53
588.807	6.7
589.145	6.62
589.483	6.48
589.821	6.47
590.159	6.45
590.497	6.74
590.835	6.41
591.173	6.54
591.511	6.34
591.849	6.46
592.187	6.48
592.524	6.69
592.862	6.44
593.2	6.41
593.537	6.41
593.875	6.52
594.212	6.47
594.55	6.68
594.887	6.33
595.224	6.48
595.561	6.65
595.899	6.45
596.236	6.64
596.573	6.7
596.91	6.61
597.247	6.54
597.584	6.55
597.921	6.79
598.258	6.59
598.594	6.4
598.931	6.38
599.268	6.49
599.604	6.56
599.941	6.52
600.277	6.18
600.614	6.59
600.95	6.42
601.287	6.34
601.623	6.55
601.959	6.65
602.296	6.56
602.632	6.32
602.968	6.26
603.304	6.4
603.64	6.46
603.976	6.23
604.312	6.27
604.648	6.44
604.984	6.23
605.319	6.35
605.655	6.21
605.991	6.31
606.326	6.4
606.662	6.35
606.998	6.26
607.333	6.43
607.668	6.25
608.004	6.52
608.339	6.26
608.674	6.28
609.01	6.43
609.345	6.31
609.68	6.43
610.015	6.38
610.35	6.37
610.685	6.62
611.02	6.3
611.355	6.47
611.689	6.44
612.024	6.41
612.359	6.23
612.694	6.35
613.028	6.32
613.363	6.32
613.697	6.23
614.032	6.48
614.366	6.27
614.7	6.4
615.035	6.19
615.369	6.11
615.703	6.04
616.037	6.05
616.371	6.65
616.705	6.63
617.039	6.36
617.373	5.96
617.707	5.96
618.041	6.34
618.375	6.21
618.709	6.48
619.042	6.58
619.376	6.33
619.71	6.33
620.043	5.94
620.377	6.04
620.71	6.27
621.043	6.13
621.377	6.27
621.71	6.43
622.043	6.4
622.376	6.57
622.709	6.32
623.043	6.31
623.376	6.42
623.709	6.34
624.041	6
624.374	6.5
624.707	6.34
625.04	6.11
625.373	5.96
625.705	6.4
626.038	5.99
626.37	6.28
626.703	6.05
627.035	6.04
627.368	6.43
627.7	6.52
628.032	6.32
628.365	6.4
628.697	6.27
629.029	6.39
629.361	6.22
629.693	6.36
630.025	6.34
630.357	5.91
630.689	6.41
631.021	6.28
631.353	6.06
631.684	6.34
632.016	6.47
632.348	6.27
632.679	5.73
633.011	6.22
633.342	6.25
633.674	6.64
634.005	5.87
634.336	6.49
634.668	6.4
634.999	6.28
635.33	6.43
635.661	6.26
635.992	5.88
636.323	6.16
636.654	6.23
636.985	5.99
637.316	6.31
637.647	6.09
637.977	5.94
638.308	6.52
638.639	6.35
638.969	6.39
639.3	6.03
639.63	6.52
639.961	5.78
640.291	6.01
640.622	6.6
640.952	6.09
641.282	6.27
641.612	5.82
641.943	6.17
642.273	6.52
642.603	6.2
642.933	6
643.263	5.82
643.592	6.05
643.922	6.42
644.252	6
644.582	6.48
644.911	6.31
645.241	6.53
645.571	6.04
645.9	6.26
646.23	6.59
646.559	5.97
646.888	6.54
647.218	5.75
647.547	6.22
647.876	6.06
648.205	5.56
648.534	6.27
648.863	6.19
649.192	5.68
649.521	6.77
649.85	6.3
650.179	6.06
650.508	5.74
650.837	6.3
651.165	6.09
651.494	6
651.822	6.38
652.151	6
652.479	6.38
652.808	5.87
653.136	6.39
653.465	6.23
653.793	5.89
654.121	6.19
654.449	5.76
654.777	6.41
655.105	6.61
655.433	6.07
655.761	6.49
656.089	5.98
656.417	6.06
656.745	6.01
657.073	5.99
657.4	6.55
657.728	5.94
658.056	5.97
658.383	6.13
658.711	5.98
659.038	5.98
659.365	5.78
659.693	5.92
660.02	6.1
660.347	6.45
660.674	5.89
661.001	6.07
661.329	5.97
661.656	6.21
661.982	6.09
662.309	6.26
662.636	5.78
662.963	5.97
663.29	6.21
663.616	6.16
663.943	6.2
664.27	6.14
664.596	5.93
664.923	6.3
665.249	6.47
665.576	5.99
665.902	5.85
666.228	6.21
666.554	5.94
666.881	6.54
667.207	6.04
667.533	5.88
667.859	5.95
668.185	6.5
668.511	6.75
668.837	6.08
669.162	6.42
669.488	5.88
669.814	5.93
670.139	6.29
670.465	6.49
670.791	6.36
671.116	5.78
671.442	6.6
671.767	5.92
672.092	6.52
672.418	6.34
672.743	6.19
673.068	6.49
673.393	6.3
673.718	6.36
674.043	6.25
674.368	6.41
674.693	5.66
675.018	6.48
675.343	5.91
675.667	5.95
675.992	5.66
676.317	6.84
676.641	6.15
676.966	6.7
677.29	6.05
677.615	6.29
677.939	6.21
678.264	5.87
678.588	7.12
678.912	6.48
679.236	5.91
679.56	6.11
679.885	6.1
680.209	6.27
680.532	5.84
680.856	5.71
681.18	6.4
681.504	6.61
681.828	6.39
682.152	6.08
682.475	6.57
682.799	6.07
683.122	5.98
683.446	6.41
683.769	6.11
684.093	6.62
684.416	6.13
684.739	6.21
685.062	6.9
685.386	5.83
685.709	6.12
686.032	5.56
686.355	6.3
686.678	6.1
687.001	6.57
687.324	7
687.646	6.55
687.969	6.35
688.292	6.28
688.614	6.6
688.937	6.67
689.26	5.77
689.582	6.33
689.904	6.39
690.227	6.79
690.549	6.46
690.871	6.19
691.194	6.65
691.516	6.22
691.838	5.93
692.16	5.26
692.482	5.9
