Data from 1610-3_forehead_Reflection__3__139.txt Node

Date: Fri Nov 11 17:10:36 CST 2022
User: ToomeyLab
Spectrometer: FLMS14357
Trigger mode: 0
Integration Time (sec): 1.000000E-2
Scans to average: 100
Electric dark correction enabled: true
Nonlinearity correction enabled: false
Boxcar width: 0
XAxis mode: Wavelengths
Number of Pixels in Spectrum: 2048
>>>>>Begin Spectral Data<<<<<
189.047	128.27
189.435	128.27
189.823	128.27
190.211	-61.85
190.599	42.42
190.987	-695.1
191.375	655.65
191.763	107.5
192.151	-100.31
192.538	51.66
192.926	-51.55
193.314	-151.12
193.702	77.81
194.089	-131.26
194.477	-372.48
194.864	212.38
195.252	80.16
195.639	10.91
196.027	-2.01
196.414	193.1
196.801	-74.26
197.189	330.04
197.576	-498.85
197.963	45.58
198.351	-2.42
198.738	-28.31
199.125	31.34
199.512	23.72
199.899	49.11
200.286	10.76
200.673	19.75
201.06	-5.16
201.447	26.71
201.833	46.93
202.22	32.67
202.607	37.48
202.994	20.54
203.38	17.64
203.767	63.03
204.154	-32.99
204.54	35.72
204.927	-16.32
205.313	49.71
205.699	22.31
206.086	45.4
206.472	8.98
206.858	35.18
207.245	23.3
207.631	25.07
208.017	-27.09
208.403	22.56
208.789	-39.77
209.175	7.16
209.561	14.91
209.947	2.11
210.333	23.43
210.719	31.69
211.105	22.18
211.491	-94.91
211.876	18.03
212.262	-14.64
212.648	30.96
213.034	22.18
213.419	34.08
213.805	27.08
214.19	4.51
214.576	17.78
214.961	-1.74
215.346	-70.61
215.732	-24.08
216.117	21
216.502	17.77
216.888	5.13
217.273	11.45
217.658	28.74
218.043	19.71
218.428	-19.55
218.813	20.77
219.198	-17.32
219.583	31.44
219.968	36.21
220.353	-28.41
220.738	1.66
221.122	-12.89
221.507	22.23
221.892	23.92
222.276	2.37
222.661	-2.44
223.046	-1.05
223.43	10.05
223.815	8.92
224.199	19.32
224.583	-7.67
224.968	13.29
225.352	4.99
225.736	6.55
226.121	6
226.505	11.34
226.889	7.14
227.273	6.86
227.657	-2.31
228.041	2.59
228.425	2.68
228.809	6.35
229.193	-1.98
229.577	4.11
229.961	2.03
230.344	3.14
230.728	2.56
231.112	2.48
231.495	2.55
231.879	1.6
232.263	1.74
232.646	1.28
233.03	2.74
233.413	0.97
233.797	1.95
234.18	3.23
234.563	1.98
234.946	3.23
235.33	3.2
235.713	2.9
236.096	0.66
236.479	2.95
236.862	4.62
237.245	3.42
237.628	2.29
238.011	2.05
238.394	2.95
238.777	1.69
239.16	3.37
239.543	3.35
239.925	3.55
240.308	1.57
240.691	2.43
241.073	1.47
241.456	0.88
241.838	2.4
242.221	2.64
242.603	2.37
242.986	2.8
243.368	2.74
243.75	2.5
244.133	2.26
244.515	2.43
244.897	2.06
245.279	2.55
245.661	2.68
246.043	2.28
246.425	2.56
246.807	2.09
247.189	2.25
247.571	1.63
247.953	2.65
248.335	2.66
248.717	2.32
249.098	2.28
249.48	2.43
249.862	1.98
250.243	2.51
250.625	2.41
251.006	2.86
251.388	1.96
251.769	2.76
252.151	1.96
252.532	3.75
252.913	2
253.295	2.08
253.676	2.66
254.057	2.5
254.438	2.87
254.819	1.89
255.2	2.72
255.581	3.04
255.962	2.96
256.343	3.07
256.724	2.43
257.105	2.27
257.486	3.31
257.867	2.73
258.247	3.25
258.628	1.7
259.009	2.27
259.389	2.74
259.77	3.21
260.15	2.59
260.531	1.99
260.911	2.38
261.292	2.31
261.672	2.28
262.052	2.4
262.432	2.91
262.813	2.54
263.193	2.05
263.573	2.16
263.953	3.3
264.333	3.24
264.713	1.85
265.093	2.81
265.473	3.36
265.853	2.01
266.233	2.76
266.612	1.8
266.992	2.91
267.372	2.64
267.752	2.85
268.131	2.19
268.511	3.05
268.89	2.7
269.27	2.39
269.649	2.02
270.029	1.57
270.408	1.88
270.787	2.94
271.167	2.24
271.546	2.65
271.925	2.93
272.304	2.25
272.683	2.52
273.062	2.41
273.441	2
273.82	1.97
274.199	2.49
274.578	2.81
274.957	2.03
275.336	2.16
275.715	2.27
276.093	3.24
276.472	2.32
276.851	2.73
277.229	2.51
277.608	2.2
277.986	2.55
278.365	3.16
278.743	2.58
279.122	2.5
279.5	2.38
279.878	2.31
280.257	3.63
280.635	2.55
281.013	2.55
281.391	2.68
281.769	2.73
282.147	2.1
282.525	2.78
282.903	2.39
283.281	2.73
283.659	2.37
284.037	2.3
284.415	2.22
284.792	2.34
285.17	2.03
285.548	2.27
285.925	2.12
286.303	2.55
286.68	2.12
287.058	2.19
287.435	2.4
287.813	2.71
288.19	2.68
288.567	2.58
288.945	2.03
289.322	2.04
289.699	2.92
290.076	2.26
290.453	2.41
290.83	2.75
291.207	2.77
291.584	2.33
291.961	2.24
292.338	2.71
292.715	2.53
293.092	2.6
293.469	3.08
293.845	2.84
294.222	3.38
294.599	3.3
294.975	2.23
295.352	2.3
295.728	2.42
296.105	2.86
296.481	2.99
296.858	3.06
297.234	3.12
297.61	2.6
297.986	2.43
298.363	2.65
298.739	2.78
299.115	2.74
299.491	3.17
299.867	2.77
300.243	2.74
300.619	3.27
300.995	2.83
301.371	2.8
301.746	3.18
302.122	3.01
302.498	2.67
302.874	2.89
303.249	3.1
303.625	2.9
304	3.12
304.376	3.08
304.751	3.61
305.127	3.34
305.502	3.46
305.878	4.03
306.253	3.38
306.628	3.54
307.003	3.36
307.378	3.53
307.754	3.72
308.129	3.37
308.504	3.23
308.879	3.23
309.254	2.66
309.629	3.25
310.003	3.71
310.378	2.94
310.753	3.42
311.128	3.44
311.502	3.31
311.877	3.52
312.252	3.15
312.626	3.4
313.001	3.7
313.375	3.55
313.75	3.73
314.124	3.54
314.498	4.34
314.873	3.87
315.247	4.1
315.621	3.46
315.995	3.73
316.369	4.18
316.743	3.91
317.117	4.1
317.491	4.27
317.865	4.16
318.239	4.61
318.613	4.31
318.987	4.79
319.361	4.43
319.734	4.18
320.108	4.5
320.482	3.98
320.855	4.41
321.229	4.53
321.602	4.18
321.976	4.15
322.349	4.51
322.723	4.58
323.096	4.84
323.469	4.5
323.843	5.07
324.216	4.58
324.589	4.85
324.962	4.06
325.335	5.01
325.708	4.53
326.081	4.48
326.454	4.88
326.827	4.86
327.2	4.42
327.573	5.1
327.945	4.96
328.318	5.16
328.691	5.39
329.063	5.05
329.436	4.98
329.809	4.76
330.181	5.38
330.553	5.27
330.926	4.98
331.298	4.95
331.671	5.7
332.043	5.27
332.415	5.16
332.787	5.44
333.159	5.1
333.532	4.74
333.904	5.08
334.276	5.81
334.648	5.09
335.02	5.93
335.391	5.46
335.763	5.32
336.135	5.59
336.507	5.87
336.879	5.2
337.25	4.97
337.622	5.59
337.993	5.9
338.365	5.56
338.736	5.62
339.108	5.12
339.479	5.5
339.851	5.18
340.222	5.23
340.593	5.3
340.964	5.48
341.336	5.52
341.707	5.74
342.078	5.42
342.449	5.69
342.82	5.54
343.191	6.02
343.562	6.34
343.933	5.55
344.303	6.34
344.674	5.96
345.045	5.81
345.416	6.23
345.786	6.08
346.157	6.11
346.527	6.21
346.898	6.31
347.268	6.24
347.639	6.45
348.009	6.07
348.38	6.31
348.75	6.58
349.12	5.98
349.49	6.37
349.861	6.09
350.231	6.24
350.601	6.5
350.971	6.4
351.341	6.27
351.711	6.25
352.081	6.11
352.45	6.52
352.82	6.44
353.19	6.24
353.56	6.84
353.929	6.86
354.299	6.82
354.669	6.63
355.038	6.75
355.408	6.34
355.777	6.67
356.147	6.88
356.516	6.92
356.885	6.58
357.254	6.75
357.624	6.83
357.993	6.95
358.362	7.05
358.731	6.66
359.1	6.59
359.469	6.94
359.838	7.14
360.207	7.05
360.576	7.37
360.945	6.92
361.314	6.94
361.682	7.03
362.051	7.12
362.42	6.84
362.788	6.99
363.157	7.2
363.525	7.28
363.894	7.12
364.262	7.05
364.631	7.08
364.999	7.15
365.367	7.58
365.735	7.32
366.104	7.16
366.472	7.75
366.84	7.48
367.208	7.43
367.576	7.6
367.944	7.76
368.312	7.37
368.68	7.6
369.048	7.43
369.416	7.53
369.783	7.85
370.151	7.56
370.519	8.12
370.886	7.77
371.254	7.6
371.621	7.9
371.989	7.72
372.356	7.64
372.724	8.05
373.091	7.98
373.458	7.78
373.826	8.25
374.193	7.91
374.56	7.88
374.927	8.2
375.294	7.81
375.661	8.3
376.028	8.3
376.395	8.22
376.762	8.01
377.129	8.22
377.496	8.26
377.863	8.07
378.229	8.55
378.596	8.13
378.963	8.02
379.329	8.19
379.696	8.36
380.062	8.36
380.429	8.06
380.795	8.42
381.161	8.7
381.528	8.44
381.894	8.45
382.26	8.47
382.626	8.54
382.993	8.35
383.359	8.48
383.725	8.9
384.091	8.74
384.457	8.88
384.823	8.79
385.188	8.72
385.554	8.77
385.92	8.45
386.286	8.77
386.651	8.81
387.017	8.54
387.383	8.86
387.748	8.81
388.114	8.89
388.479	8.9
388.845	8.83
389.21	8.86
389.575	8.8
389.94	9.11
390.306	9.28
390.671	9.14
391.036	9.08
391.401	9.1
391.766	9.39
392.131	9.09
392.496	9.16
392.861	9.35
393.226	8.96
393.591	9.26
393.956	9.34
394.32	9.56
394.685	9.51
395.05	9.51
395.414	9.45
395.779	9.31
396.143	9.5
396.508	9.38
396.872	9.54
397.236	9.57
397.601	9.46
397.965	9.58
398.329	9.6
398.694	9.47
399.058	9.82
399.422	9.76
399.786	9.82
400.15	9.53
400.514	9.65
400.878	9.86
401.242	9.94
401.605	10
401.969	9.83
402.333	10.09
402.697	9.91
403.06	9.94
403.424	9.8
403.787	9.93
404.151	10.09
404.514	10.16
404.878	10.23
405.241	9.92
405.604	9.99
405.968	10.32
406.331	10.01
406.694	10.16
407.057	10.15
407.42	10.21
407.783	10.06
408.146	10.31
408.509	10.07
408.872	10.47
409.235	10.24
409.598	10.35
409.961	10.08
410.323	10.63
410.686	10.37
411.049	10.38
411.411	10.48
411.774	10.44
412.136	10.49
412.499	10.66
412.861	10.36
413.223	10.6
413.586	10.38
413.948	10.72
414.31	10.78
414.672	10.56
415.035	10.86
415.397	10.85
415.759	10.95
416.121	10.92
416.483	10.67
416.845	10.85
417.206	10.78
417.568	10.88
417.93	10.87
418.292	10.69
418.653	10.76
419.015	10.68
419.377	10.85
419.738	10.83
420.1	10.93
420.461	10.82
420.822	10.79
421.184	10.73
421.545	10.73
421.906	10.87
422.267	10.86
422.629	10.86
422.99	10.77
423.351	10.81
423.712	10.92
424.073	11.09
424.434	10.97
424.795	11.16
425.155	11.07
425.516	11.1
425.877	11.13
426.238	11.16
426.598	11.19
426.959	11.21
427.32	11.34
427.68	11.41
428.041	11.49
428.401	11.38
428.761	11.48
429.122	11.6
429.482	11.89
429.842	11.9
430.202	11.67
430.563	11.65
430.923	11.76
431.283	11.8
431.643	12.11
432.003	12.11
432.363	11.92
432.722	11.9
433.082	11.85
433.442	11.97
433.802	12.11
434.161	12.1
434.521	11.98
434.881	11.92
435.24	12.02
435.6	12.02
435.959	12.26
436.319	12.03
436.678	12.08
437.037	12.19
437.396	12.2
437.756	12.21
438.115	12.28
438.474	12.28
438.833	12.35
439.192	12.37
439.551	12.34
439.91	12.44
440.269	12.46
440.628	12.52
440.987	12.6
441.345	12.41
441.704	12.34
442.063	12.51
442.421	12.44
442.78	12.42
443.138	12.46
443.497	12.62
443.855	12.57
444.214	12.78
444.572	12.82
444.93	12.88
445.288	12.98
445.647	12.69
446.005	12.92
446.363	12.85
446.721	12.65
447.079	12.67
447.437	12.74
447.795	12.7
448.153	12.72
448.51	12.87
448.868	12.79
449.226	12.98
449.584	12.99
449.941	13.17
450.299	13.3
450.656	13.27
451.014	13.43
451.371	13.3
451.729	13.28
452.086	13.42
452.443	13.57
452.801	13.57
453.158	13.61
453.515	13.56
453.872	13.48
454.229	13.51
454.586	13.65
454.943	13.74
455.3	13.58
455.657	13.7
456.014	13.53
456.371	13.69
456.727	13.73
457.084	13.67
457.441	13.86
457.797	13.88
458.154	13.97
458.51	13.82
458.867	13.93
459.223	13.85
459.58	13.92
459.936	14.03
460.292	14
460.648	13.89
461.005	13.92
461.361	13.8
461.717	13.67
462.073	13.97
462.429	13.96
462.785	14.16
463.141	14.18
463.496	14.41
463.852	14.38
464.208	14.32
464.564	14.43
464.919	14.52
465.275	14.45
465.631	14.66
465.986	14.58
466.342	14.57
466.697	14.71
467.052	14.54
467.408	14.61
467.763	14.63
468.118	14.69
468.473	14.71
468.829	14.81
469.184	14.9
469.539	14.88
469.894	14.77
470.249	14.79
470.603	14.71
470.958	14.96
471.313	15.18
471.668	15.11
472.023	15.18
472.377	15.24
472.732	15.4
473.086	15.13
473.441	15.19
473.795	15.22
474.15	15.23
474.504	15.45
474.859	15.31
475.213	15.21
475.567	15.56
475.921	15.59
476.275	15.67
476.63	15.49
476.984	15.39
477.338	15.5
477.692	15.37
478.045	15.5
478.399	15.48
478.753	15.55
479.107	15.61
479.461	15.61
479.814	15.57
480.168	15.61
480.521	15.79
480.875	15.76
481.228	15.79
481.582	15.75
481.935	15.81
482.289	15.8
482.642	15.78
482.995	15.62
483.348	15.57
483.701	15.74
484.055	15.67
484.408	15.55
484.761	15.18
485.114	14.97
485.466	14.75
485.819	14.96
486.172	15.2
486.525	15.4
486.878	15.56
487.23	15.66
487.583	15.76
487.936	15.76
488.288	15.67
488.641	15.52
488.993	15.36
489.345	15.37
489.698	15.53
490.05	15.6
490.402	15.74
490.754	15.91
491.107	16.07
491.459	16.26
491.811	16.27
492.163	16.21
492.515	16.11
492.866	15.95
493.218	15.72
493.57	15.72
493.922	16.04
494.274	16.25
494.625	16.42
494.977	16.54
495.328	16.83
495.68	16.76
496.031	17.01
496.383	17.06
496.734	17.02
497.086	17.02
497.437	17.16
497.788	16.99
498.139	16.82
498.49	16.84
498.842	16.99
499.193	17.04
499.544	17
499.894	17.29
500.245	17.2
500.596	17.24
500.947	17.22
501.298	17.44
501.648	17.51
501.999	17.43
502.35	17.43
502.7	17.49
503.051	17.57
503.401	17.5
503.752	17.63
504.102	17.58
504.452	17.74
504.803	17.76
505.153	17.74
505.503	17.7
505.853	17.82
506.203	17.71
506.553	17.82
506.903	17.85
507.253	17.88
507.603	18.1
507.953	18.03
508.303	18.07
508.652	18.08
509.002	18.15
509.352	18.07
509.701	18.07
510.051	17.94
510.4	17.95
510.75	17.9
511.099	17.88
511.449	18.09
511.798	18.02
512.147	18.23
512.496	18.19
512.846	18.15
513.195	18.12
513.544	18.18
513.893	18.28
514.242	18.43
514.591	18.33
514.939	18.51
515.288	18.61
515.637	18.39
515.986	18.63
516.334	18.72
516.683	18.67
517.032	18.76
517.38	18.73
517.729	18.75
518.077	18.65
518.426	18.89
518.774	18.86
519.122	18.62
519.47	18.47
519.819	18.49
520.167	18.47
520.515	18.48
520.863	18.5
521.211	18.69
521.559	18.83
521.907	18.89
522.255	19.04
522.602	19.02
522.95	19.13
523.298	19.08
523.645	19.19
523.993	19.42
524.341	19.35
524.688	19.4
525.036	19.37
525.383	19.26
525.73	19.36
526.078	19.33
526.425	19.31
526.772	19.14
527.119	19
527.466	19.02
527.814	18.96
528.161	19.21
528.508	19.29
528.854	19.26
529.201	19.11
529.548	18.97
529.895	18.69
530.242	18.56
530.588	18.57
530.935	18.86
531.282	19.11
531.628	19.18
531.975	19.35
532.321	19.43
532.667	19.54
533.014	19.71
533.36	19.66
533.706	19.65
534.052	19.63
534.399	19.5
534.745	19.35
535.091	19.26
535.437	19.39
535.783	19.59
536.129	19.76
536.474	19.9
536.82	19.97
537.166	20.1
537.512	20.16
537.857	20.12
538.203	19.91
538.549	19.88
538.894	20.15
539.239	20.3
539.585	20.3
539.93	20.56
540.276	20.65
540.621	20.48
540.966	20.64
541.311	20.75
541.656	20.51
542.001	20.61
542.346	20.34
542.691	20.01
543.036	19.82
543.381	19.88
543.726	20.08
544.071	20.4
544.415	20.47
544.76	20.49
545.105	20.63
545.449	20.7
545.794	20.77
546.138	20.88
546.483	21.1
546.827	21.09
547.171	21.13
547.516	21.01
547.86	21.06
548.204	21.01
548.548	20.99
548.892	21.09
549.236	21.25
549.58	21.39
549.924	21.51
550.268	21.57
550.612	21.83
550.956	21.84
551.3	21.73
551.643	21.92
551.987	21.83
552.33	21.82
552.674	21.96
553.017	21.96
553.361	21.9
553.704	21.99
554.048	21.85
554.391	21.95
554.734	22.04
555.077	22.06
555.42	22.14
555.764	22.25
556.107	22.34
556.45	22.36
556.793	22.48
557.135	22.32
557.478	22.36
557.821	22.72
558.164	22.45
558.507	22.52
558.849	22.78
559.192	22.75
559.534	22.48
559.877	22.93
560.219	22.82
560.562	22.78
560.904	22.67
561.246	22.67
561.589	22.89
561.931	22.95
562.273	22.95
562.615	22.94
562.957	23
563.299	22.92
563.641	22.89
563.983	23.01
564.325	23.14
564.667	23.26
565.008	23.11
565.35	23.09
565.692	23.3
566.033	23.22
566.375	23.19
566.716	23.26
567.058	23.17
567.399	23.08
567.741	23.14
568.082	23.16
568.423	23.24
568.764	23.27
569.105	23.41
569.447	23.31
569.788	23.48
570.129	23.69
570.47	23.57
570.811	23.56
571.151	23.7
571.492	23.53
571.833	23.81
572.174	23.8
572.514	23.58
572.855	23.7
573.195	23.78
573.536	23.76
573.876	23.53
574.217	23.6
574.557	23.77
574.898	23.89
575.238	23.95
575.578	24.03
575.918	24
576.258	24.11
576.598	24.2
576.938	24.18
577.278	24.12
577.618	24.2
577.958	24.35
578.298	24.38
578.638	24.34
578.977	24.26
579.317	24.38
579.657	24.33
579.996	24.59
580.336	24.7
580.675	24.53
581.014	24.7
581.354	24.6
581.693	24.68
582.032	24.8
582.372	24.92
582.711	24.92
583.05	25.04
583.389	25.1
583.728	24.91
584.067	24.91
584.406	24.92
584.745	25.15
585.083	25.45
585.422	24.82
585.761	25.26
586.1	25.08
586.438	25.11
586.777	25.09
587.115	25.34
587.454	25.49
587.792	25.6
588.13	25.36
588.469	25.29
588.807	25.57
589.145	25.43
589.483	25.67
589.821	25.43
590.159	25.41
590.497	25.78
590.835	25.47
591.173	25.64
591.511	25.63
591.849	25.4
592.187	25.72
592.524	25.6
592.862	25.94
593.2	26.16
593.537	25.64
593.875	25.77
594.212	26.02
594.55	26.02
594.887	25.87
595.224	25.88
595.561	26.1
595.899	26.06
596.236	25.77
596.573	25.86
596.91	25.91
597.247	26.09
597.584	26.22
597.921	26
598.258	26.17
598.594	25.92
598.931	25.97
599.268	25.99
599.604	26.3
599.941	26.11
600.277	26.14
600.614	26.7
600.95	26.64
601.287	26.65
601.623	26.62
601.959	26.52
602.296	26.48
602.632	26.69
602.968	26.55
603.304	26.88
603.64	26.61
603.976	26.77
604.312	26.78
604.648	26.45
604.984	26.57
605.319	26.64
605.655	26.61
605.991	26.6
606.326	26.57
606.662	26.53
606.998	26.74
607.333	26.85
607.668	26.96
608.004	27.02
608.339	27.21
608.674	27.22
609.01	27.04
609.345	27.07
609.68	27.51
610.015	27.18
610.35	27.34
610.685	27.17
611.02	27.12
611.355	26.99
611.689	27.45
612.024	27.22
612.359	27.19
612.694	27.47
613.028	27.65
613.363	27.44
613.697	27.82
614.032	27.81
614.366	27.29
614.7	27.47
615.035	28.03
615.369	27.86
615.703	27.91
616.037	28.04
616.371	27.95
616.705	28.31
617.039	27.98
617.373	28.31
617.707	28.45
618.041	28.33
618.375	28.6
618.709	28.21
619.042	28.36
619.376	28.25
619.71	28.45
620.043	28.2
620.377	28.41
620.71	28.62
621.043	28.79
621.377	27.88
621.71	28.61
622.043	28.37
622.376	28.34
622.709	28.37
623.043	28.49
623.376	28.73
623.709	28.55
624.041	28.41
624.374	28.68
624.707	28.54
625.04	28.46
625.373	28.86
625.705	28.72
626.038	28.4
626.37	28.78
626.703	28.79
627.035	28.63
627.368	28.59
627.7	28.55
628.032	28.99
628.365	28.82
628.697	29
629.029	28.59
629.361	29.05
629.693	28.96
630.025	28.83
630.357	28.99
630.689	29.18
631.021	28.92
631.353	28.82
631.684	29.24
632.016	29.45
632.348	29.22
632.679	29.5
633.011	29.22
633.342	29.36
633.674	29.28
634.005	29.93
634.336	29.36
634.668	29.43
634.999	29.69
635.33	29.49
635.661	29.77
635.992	29.3
636.323	29.78
636.654	29.79
636.985	29.26
637.316	29.59
637.647	29.7
637.977	29.57
638.308	29.67
638.639	29.63
638.969	29.77
639.3	29.78
639.63	29.71
639.961	29.76
640.291	30.28
640.622	30.05
640.952	29.88
641.282	30.06
641.612	30.79
641.943	30.49
642.273	30.61
642.603	30.28
642.933	29.79
643.263	30.28
643.592	30.69
643.922	30.71
644.252	30.5
644.582	30.32
644.911	30.54
645.241	30.86
645.571	30.59
645.9	30.63
646.23	30.4
646.559	30.28
646.888	30.74
647.218	30.46
647.547	30.93
647.876	30.7
648.205	30.68
648.534	30.6
648.863	30.9
649.192	30.69
649.521	30.54
649.85	30.79
650.179	30.81
650.508	30.87
650.837	31.31
651.165	30.97
651.494	31.05
651.822	31.16
652.151	30.92
652.479	31.58
652.808	31.17
653.136	31.14
653.465	31.31
653.793	30.99
654.121	30.9
654.449	31.22
654.777	31.19
655.105	31.34
655.433	31.24
655.761	30.87
656.089	31.03
656.417	31.66
656.745	31.73
657.073	31.86
657.4	31.6
657.728	31.34
658.056	31.56
658.383	31.5
658.711	31.53
659.038	31.88
659.365	31.17
659.693	30.68
660.02	31.63
660.347	31.66
660.674	31.44
661.001	31.42
661.329	31.66
661.656	31.9
661.982	31.48
662.309	31.81
662.636	32.04
662.963	31.7
663.29	31.87
663.616	31.89
663.943	32.34
664.27	32.01
664.596	32.28
664.923	32.15
665.249	32.37
665.576	32.01
665.902	31.96
666.228	31.64
666.554	31.68
666.881	32.28
667.207	31.7
667.533	31.98
667.859	31.94
668.185	32.18
668.511	32.49
668.837	31.82
669.162	32.09
669.488	31.81
669.814	31.65
670.139	32.29
670.465	32.24
670.791	31.87
671.116	31.89
671.442	32.67
671.767	32.15
672.092	31.98
672.418	32.31
672.743	32.7
673.068	32.52
673.393	32.44
673.718	32.48
674.043	32.54
674.368	32.56
