Data from 1610-3_crown_Reflection__3__134.txt Node

Date: Fri Nov 11 17:09:12 CST 2022
User: ToomeyLab
Spectrometer: FLMS14357
Trigger mode: 0
Integration Time (sec): 1.000000E-2
Scans to average: 100
Electric dark correction enabled: true
Nonlinearity correction enabled: false
Boxcar width: 0
XAxis mode: Wavelengths
Number of Pixels in Spectrum: 2048
>>>>>Begin Spectral Data<<<<<
189.047	24.93
189.435	24.93
189.823	24.93
190.211	-224.08
190.599	72.33
190.987	-1074.59
191.375	209.82
191.763	-108.22
192.151	-173.63
192.538	81.76
192.926	32.23
193.314	-36.11
193.702	33.04
194.089	-453.42
194.477	-2247.71
194.864	192.37
195.252	50.2
195.639	24.48
196.027	59.82
196.414	219.52
196.801	48.55
197.189	188.44
197.576	-87.15
197.963	34.06
198.351	-3.53
198.738	-69.94
199.125	-15.15
199.512	-9.45
199.899	37.91
200.286	11.18
200.673	10.69
201.06	2.89
201.447	14.31
201.833	15.8
202.22	10.62
202.607	28.28
202.994	5.95
203.38	27.68
203.767	11.75
204.154	-13.16
204.54	24.24
204.927	-10.07
205.313	40.22
205.699	13.09
206.086	14.45
206.472	27.61
206.858	-31.19
207.245	17.75
207.631	6.56
208.017	12.57
208.403	21.4
208.789	-35.28
209.175	7.88
209.561	23.72
209.947	4.18
210.333	7.18
210.719	13.58
211.105	5.03
211.491	-102.11
211.876	-3.31
212.262	17.85
212.648	-23.23
213.034	-5.95
213.419	-18.14
213.805	7.85
214.19	-67.48
214.576	-10.73
214.961	0.59
215.346	-59.19
215.732	-48.48
216.117	5.88
216.502	-18.8
216.888	19.78
217.273	-20.67
217.658	6.61
218.043	-1.77
218.428	-8.92
218.813	-1.93
219.198	10.45
219.583	23.51
219.968	-0.41
220.353	-21.52
220.738	8.73
221.122	-32.77
221.507	4.44
221.892	-2.05
222.276	8.01
222.661	5.2
223.046	13.09
223.43	4.01
223.815	-14.94
224.199	2.66
224.583	4.64
224.968	15.8
225.352	-4.27
225.736	5.97
226.121	1.12
226.505	7.5
226.889	6.54
227.273	7.33
227.657	-0.83
228.041	1.86
228.425	4.87
228.809	7.06
229.193	1.2
229.577	2.25
229.961	1.54
230.344	2.52
230.728	2.57
231.112	3.21
231.495	2.83
231.879	2.57
232.263	0.76
232.646	0.68
233.03	2.22
233.413	2.05
233.797	2.9
234.18	3.84
234.563	2.68
234.946	1.5
235.33	2.12
235.713	1.89
236.096	0.31
236.479	4.06
236.862	5.04
237.245	1.84
237.628	2.21
238.011	3.97
238.394	2.45
238.777	4.28
239.16	2.48
239.543	4.56
239.925	5.06
240.308	0.09
240.691	2.41
241.073	1.37
241.456	2.24
241.838	3.5
242.221	2.38
242.603	2.63
242.986	1.89
243.368	1.49
243.75	2.32
244.133	2.42
244.515	2.44
244.897	2.05
245.279	2.05
245.661	1.46
246.043	1.82
246.425	2.65
246.807	1.71
247.189	1.76
247.571	1.87
247.953	2.34
248.335	2.45
248.717	2.34
249.098	2.13
249.48	2.5
249.862	1.91
250.243	2.15
250.625	2.2
251.006	2.88
251.388	2.69
251.769	2.72
252.151	1.99
252.532	2.49
252.913	1.8
253.295	2.05
253.676	2.16
254.057	2.16
254.438	2.66
254.819	1.9
255.2	1.4
255.581	2.84
255.962	1.22
256.343	3.77
256.724	1.62
257.105	1.48
257.486	2.04
257.867	1.86
258.247	2.99
258.628	1.8
259.009	1.9
259.389	2.57
259.77	2.77
260.15	2.44
260.531	1.99
260.911	2.09
261.292	2.5
261.672	2.22
262.052	2.4
262.432	2.67
262.813	2.2
263.193	1.99
263.573	2.56
263.953	2.12
264.333	2.69
264.713	1.87
265.093	2.55
265.473	2.91
265.853	1.8
266.233	2.17
266.612	1.67
266.992	2.17
267.372	2.22
267.752	2.33
268.131	2.53
268.511	2.57
268.89	2.69
269.27	1.66
269.649	1.73
270.029	1.78
270.408	2.01
270.787	2.46
271.167	1.89
271.546	2.67
271.925	2.02
272.304	2.51
272.683	2.09
273.062	2.07
273.441	1.82
273.82	1.47
274.199	2.47
274.578	2.78
274.957	1.69
275.336	1.97
275.715	2.32
276.093	2.8
276.472	1.69
276.851	2.22
277.229	2.06
277.608	2.47
277.986	1.66
278.365	3.08
278.743	2.01
279.122	1.53
279.5	1.79
279.878	1.91
280.257	2.21
280.635	2.11
281.013	1.53
281.391	2.3
281.769	2.58
282.147	1.83
282.525	1.85
282.903	2.15
283.281	1.9
283.659	1.73
284.037	1.69
284.415	2.07
284.792	1.87
285.17	1.78
285.548	2.24
285.925	2.21
286.303	1.72
286.68	1.71
287.058	1.89
287.435	1.93
287.813	2.11
288.19	2.03
288.567	2.28
288.945	1.55
289.322	1.85
289.699	2.05
290.076	2.21
290.453	1.74
290.83	2.38
291.207	2.15
291.584	2.07
291.961	1.66
292.338	2.12
292.715	1.85
293.092	1.84
293.469	2.06
293.845	2.51
294.222	2.66
294.599	2.27
294.975	1.63
295.352	1.96
295.728	2.1
296.105	1.93
296.481	1.63
296.858	1.93
297.234	1.93
297.61	1.78
297.986	1.69
298.363	2.37
298.739	2.1
299.115	2.09
299.491	2.18
299.867	1.67
300.243	1.57
300.619	2.29
300.995	1.87
301.371	1.49
301.746	1.98
302.122	1.81
302.498	1.78
302.874	2.09
303.249	1.89
303.625	1.88
304	1.89
304.376	2.19
304.751	2.15
305.127	2.26
305.502	1.61
305.878	2.52
306.253	1.94
306.628	2.13
307.003	1.91
307.378	2.45
307.754	2.24
308.129	2.27
308.504	1.97
308.879	1.82
309.254	1.51
309.629	1.75
310.003	1.87
310.378	1.55
310.753	1.91
311.128	1.98
311.502	1.2
311.877	2.11
312.252	1.73
312.626	1.35
313.001	1.63
313.375	1.86
313.75	2.08
314.124	1.91
314.498	2.59
314.873	2.13
315.247	1.83
315.621	1.9
315.995	1.96
316.369	2.22
316.743	2.05
317.117	1.92
317.491	1.53
317.865	1.91
318.239	2.12
318.613	1.47
318.987	2.17
319.361	1.83
319.734	1.25
320.108	1.97
320.482	1.26
320.855	1.19
321.229	2.16
321.602	2.04
321.976	1.05
322.349	1.73
322.723	2.09
323.096	2.12
323.469	1.87
323.843	1.88
324.216	1.84
324.589	2.32
324.962	2.08
325.335	1.89
325.708	1.55
326.081	1.68
326.454	1.61
326.827	2.18
327.2	1.66
327.573	1.93
327.945	1.65
328.318	2.12
328.691	2.34
329.063	2.08
329.436	2.1
329.809	1.77
330.181	1.28
330.553	1.96
330.926	1.45
331.298	1.82
331.671	1.98
332.043	2.13
332.415	1.46
332.787	2.2
333.159	2.28
333.532	1.21
333.904	1.91
334.276	1.82
334.648	1.62
335.02	2.22
335.391	2.04
335.763	1.5
336.135	2.03
336.507	2.02
336.879	1.66
337.25	1.2
337.622	2.35
337.993	1.64
338.365	1.96
338.736	1.72
339.108	2.11
339.479	2.09
339.851	1.33
340.222	1.67
340.593	1.68
340.964	1.75
341.336	1.53
341.707	1.33
342.078	1.68
342.449	1.82
342.82	1.84
343.191	2.19
343.562	1.87
343.933	1.37
344.303	2.26
344.674	1.45
345.045	1.59
345.416	1.42
345.786	1.79
346.157	1.49
346.527	1.65
346.898	1.7
347.268	1.8
347.639	1.8
348.009	1.46
348.38	1.67
348.75	2.09
349.12	1.77
349.49	1.48
349.861	1.61
350.231	1.61
350.601	2.5
350.971	1.77
351.341	1.8
351.711	1.63
352.081	1.25
352.45	1.72
352.82	2.13
353.19	1.86
353.56	1.97
353.929	2.23
354.299	2.14
354.669	1.94
355.038	1.7
355.408	1.52
355.777	2.18
356.147	2
356.516	2.09
356.885	1.85
357.254	1.7
357.624	1.8
357.993	2.19
358.362	1.81
358.731	1.62
359.1	1.71
359.469	2.17
359.838	2.16
360.207	1.97
360.576	1.78
360.945	2.14
361.314	1.98
361.682	1.88
362.051	1.82
362.42	1.64
362.788	2
363.157	1.86
363.525	2.08
363.894	1.77
364.262	1.69
364.631	1.8
364.999	1.71
365.367	1.93
365.735	2.15
366.104	1.85
366.472	2.11
366.84	1.97
367.208	1.87
367.576	2.01
367.944	2.22
368.312	1.95
368.68	2.1
369.048	1.73
369.416	1.82
369.783	1.72
370.151	1.92
370.519	2.25
370.886	1.76
371.254	2.21
371.621	1.8
371.989	1.72
372.356	1.57
372.724	1.91
373.091	1.94
373.458	1.53
373.826	1.96
374.193	1.71
374.56	1.83
374.927	1.87
375.294	2.12
375.661	2.36
376.028	2.2
376.395	2.05
376.762	1.74
377.129	1.82
377.496	1.95
377.863	1.93
378.229	2.08
378.596	1.96
378.963	1.83
379.329	2.05
379.696	1.92
380.062	1.9
380.429	1.89
380.795	1.79
381.161	1.87
381.528	1.97
381.894	1.86
382.26	1.94
382.626	2.01
382.993	2.23
383.359	1.96
383.725	1.95
384.091	1.94
384.457	2.26
384.823	2.19
385.188	2.13
385.554	2.02
385.92	1.55
386.286	1.87
386.651	1.93
387.017	1.91
387.383	1.97
387.748	2.09
388.114	1.91
388.479	2.18
388.845	2.08
389.21	2.16
389.575	1.83
389.94	1.92
390.306	2.11
390.671	1.87
391.036	2.05
391.401	1.95
391.766	2.08
392.131	1.58
392.496	1.82
392.861	2
393.226	1.94
393.591	1.97
393.956	1.89
394.32	2.21
394.685	2.19
395.05	2
395.414	2.13
395.779	1.96
396.143	2.02
396.508	1.88
396.872	2.14
397.236	2.06
397.601	2
397.965	2.07
398.329	1.78
398.694	1.77
399.058	1.84
399.422	1.92
399.786	2.16
400.15	2
400.514	2.04
400.878	2.39
401.242	2.08
401.605	1.92
401.969	2.05
402.333	2.17
402.697	1.83
403.06	2.14
403.424	1.85
403.787	2.13
404.151	1.91
404.514	1.92
404.878	2.07
405.241	1.86
405.604	1.94
405.968	2.31
406.331	1.86
406.694	2.12
407.057	2.04
407.42	2.16
407.783	2.03
408.146	2.23
408.509	1.86
408.872	2.3
409.235	2.23
409.598	1.97
409.961	2.32
410.323	2.04
410.686	2.14
411.049	2.18
411.411	1.96
411.774	1.89
412.136	1.96
412.499	2.14
412.861	1.99
413.223	1.99
413.586	1.84
413.948	1.99
414.31	2.02
414.672	2.24
415.035	2.09
415.397	2.09
415.759	2.33
416.121	2.29
416.483	2.06
416.845	2.11
417.206	2.3
417.568	2.04
417.93	2.06
418.292	2.02
418.653	1.98
419.015	1.97
419.377	1.98
419.738	2.03
420.1	2.04
420.461	1.86
420.822	1.85
421.184	1.96
421.545	2.06
421.906	2.01
422.267	1.99
422.629	2.06
422.99	1.93
423.351	2.01
423.712	1.99
424.073	2.12
424.434	1.97
424.795	2.16
425.155	2.07
425.516	2.05
425.877	2.1
426.238	1.97
426.598	2.05
426.959	2.16
427.32	2.01
427.68	2.12
428.041	2.12
428.401	2.01
428.761	2.07
429.122	2.16
429.482	2.15
429.842	2.14
430.202	2.08
430.563	1.99
430.923	2.04
431.283	2.09
431.643	2.21
432.003	2.14
432.363	2.03
432.722	2.23
433.082	2.2
433.442	2.11
433.802	2.01
434.161	2.14
434.521	2.12
434.881	1.99
435.24	2.1
435.6	1.97
435.959	2
436.319	2.02
436.678	2.02
437.037	2.09
437.396	2.01
437.756	1.96
438.115	1.97
438.474	2.02
438.833	2.08
439.192	2.17
439.551	2.07
439.91	2.03
440.269	2.04
440.628	2.12
440.987	2.22
441.345	2.13
441.704	2.05
442.063	2.26
442.421	2.05
442.78	2.05
443.138	2.05
443.497	2.05
443.855	2.04
444.214	2.07
444.572	2.1
444.93	2.17
445.288	2.13
445.647	2.02
446.005	2.05
446.363	2.02
446.721	2.08
447.079	2.03
447.437	2.06
447.795	1.98
448.153	2.09
448.51	2.08
448.868	2.08
449.226	2.09
449.584	2.08
449.941	2.04
450.299	2.17
450.656	2.06
451.014	2.14
451.371	2.07
451.729	2.15
452.086	2.12
452.443	2.18
452.801	2.07
453.158	2.04
453.515	2.11
453.872	2.15
454.229	2.14
454.586	2.2
454.943	2.2
455.3	2.08
455.657	2.21
456.014	1.91
456.371	1.99
456.727	2.04
457.084	2.15
457.441	2.09
457.797	2.12
458.154	2.16
458.51	2.05
458.867	2.14
459.223	2.2
459.58	2.13
459.936	2.23
460.292	2.14
460.648	2.02
461.005	2.25
461.361	2.17
461.717	2.06
462.073	2.15
462.429	2.25
462.785	2.19
463.141	2.25
463.496	2.07
463.852	2.05
464.208	2.12
464.564	2.16
464.919	2.13
465.275	2.12
465.631	2.23
465.986	2.05
466.342	2.24
466.697	2.24
467.052	2.1
467.408	1.95
467.763	2.23
468.118	2.13
468.473	2.03
468.829	2.14
469.184	2.32
469.539	2.32
469.894	2.22
470.249	1.99
470.603	2.02
470.958	2.29
471.313	2.31
471.668	2.28
472.023	2.38
472.377	2.19
472.732	2.31
473.086	2.11
473.441	2.21
473.795	2.27
474.15	2.09
474.504	2.39
474.859	2.23
475.213	2.1
475.567	2.34
475.921	2.3
476.275	2.2
476.63	2.29
476.984	2.14
477.338	2.23
477.692	2.24
478.045	2.09
478.399	2.07
478.753	2.23
479.107	2.14
479.461	2.21
479.814	2.15
480.168	2.23
480.521	2.19
480.875	2.15
481.228	2.26
481.582	2.22
481.935	2.2
482.289	2.22
482.642	2.14
482.995	2.18
483.348	2.14
483.701	2.23
484.055	2.13
484.408	2.08
484.761	2.05
485.114	2.03
485.466	1.94
485.819	1.96
486.172	2.04
486.525	2.13
486.878	2.12
487.23	2.13
487.583	2.13
487.936	2.16
488.288	2.08
488.641	2.12
488.993	2.04
489.345	1.99
489.698	2.07
490.05	2.08
490.402	2.13
490.754	2.19
491.107	2.19
491.459	2.21
491.811	2.23
492.163	2.18
492.515	2.12
492.866	2.05
493.218	2.02
493.57	2.06
493.922	2.12
494.274	2.14
494.625	2.19
494.977	2.22
495.328	2.22
495.68	2.19
496.031	2.24
496.383	2.29
496.734	2.21
497.086	2.19
497.437	2.19
497.788	2.24
498.139	2.14
498.49	2.12
498.842	2.28
499.193	2.16
499.544	2.2
499.894	2.23
500.245	2.19
500.596	2.2
500.947	2.21
501.298	2.3
501.648	2.36
501.999	2.29
502.35	2.15
502.7	2.26
503.051	2.2
503.401	2.22
503.752	2.05
504.102	2.31
504.452	2.29
504.803	2.25
505.153	2.25
505.503	2.2
505.853	2.32
506.203	2.29
506.553	2.3
506.903	2.24
507.253	2.23
507.603	2.27
507.953	2.31
508.303	2.22
508.652	2.19
509.002	2.16
509.352	2.23
509.701	2.21
510.051	2.15
510.4	2.29
510.75	2.27
511.099	2.25
511.449	2.27
511.798	2.12
512.147	2.34
512.496	2.27
512.846	2.17
513.195	2.09
513.544	2.26
513.893	2.28
514.242	2.19
514.591	2.19
514.939	2.3
515.288	2.26
515.637	2.21
515.986	2.29
516.334	2.27
516.683	2.28
517.032	2.22
517.38	2.3
517.729	2.35
518.077	2.18
518.426	2.28
518.774	2.21
519.122	2.19
519.47	2.05
519.819	2.21
520.167	2.11
520.515	2.17
520.863	2.19
521.211	2.28
521.559	2.16
521.907	2.33
522.255	2.36
522.602	2.38
522.95	2.26
523.298	2.27
523.645	2.33
523.993	2.25
524.341	2.34
524.688	2.23
525.036	2.26
525.383	2.19
525.73	2.26
526.078	2.32
526.425	2.15
526.772	2.26
527.119	2.21
527.466	2.14
527.814	2.14
528.161	2.19
528.508	2.26
528.854	2.2
529.201	2.19
529.548	2.18
529.895	2.05
530.242	2.05
530.588	2.04
530.935	2.09
531.282	2.28
531.628	2.2
531.975	2.18
532.321	2.21
532.667	2.25
533.014	2.29
533.36	2.18
533.706	2.17
534.052	2.22
534.399	2.14
534.745	2.11
535.091	2.13
535.437	2.21
535.783	2.17
536.129	2.24
536.474	2.3
536.82	2.3
537.166	2.22
537.512	2.24
537.857	2.17
538.203	2.18
538.549	2.11
538.894	2.22
539.239	2.21
539.585	2.22
539.93	2.29
540.276	2.23
540.621	2.27
540.966	2.29
541.311	2.41
541.656	2.16
542.001	2.33
542.346	2.2
542.691	2.05
543.036	2.11
543.381	2.05
543.726	2.15
544.071	2.22
544.415	2.27
544.76	2.17
545.105	2.29
545.449	2.24
545.794	2.26
546.138	2.29
546.483	2.27
546.827	2.24
547.171	2.24
547.516	2.2
547.86	2.12
548.204	2.22
548.548	2.16
548.892	2.21
549.236	2.25
549.58	2.31
549.924	2.32
550.268	2.42
550.612	2.38
550.956	2.34
551.3	2.36
551.643	2.3
551.987	2.19
552.33	2.28
552.674	2.33
553.017	2.24
553.361	2.32
553.704	2.34
554.048	2.22
554.391	2.2
554.734	2.14
555.077	2.41
555.42	2.32
555.764	2.29
556.107	2.42
556.45	2.22
556.793	2.29
557.135	2.3
557.478	2.29
557.821	2.36
558.164	2.37
558.507	2.36
558.849	2.19
559.192	2.46
559.534	2.2
559.877	2.48
560.219	2.3
560.562	2.42
560.904	2.3
561.246	2.25
561.589	2.37
561.931	2.26
562.273	2.38
562.615	2.24
562.957	2.23
563.299	2.46
563.641	2.2
563.983	2.31
564.325	2.31
564.667	2.3
565.008	2.24
565.35	2.37
565.692	2.12
566.033	2.39
566.375	2.36
566.716	2.37
567.058	2.13
567.399	2.16
567.741	2.2
568.082	2.28
568.423	2.21
568.764	2.36
569.105	2.31
569.447	2.27
569.788	2.34
570.129	2.45
570.47	2.29
570.811	2.32
571.151	2.43
571.492	2.3
571.833	2.28
572.174	2.34
572.514	2.28
572.855	2.36
573.195	2.32
573.536	2.27
573.876	2.35
574.217	2.11
574.557	2.22
574.898	2.28
575.238	2.33
575.578	2.3
575.918	2.17
576.258	2.36
576.598	2.34
576.938	2.22
577.278	2.41
577.618	2.33
577.958	2.36
578.298	2.37
578.638	2.24
578.977	2.25
579.317	2.19
579.657	2.31
579.996	2.35
580.336	2.33
580.675	2.31
581.014	2.51
581.354	2.25
581.693	2.28
582.032	2.63
582.372	2.49
582.711	2.36
583.05	2.22
583.389	2.57
583.728	2.43
584.067	2.47
584.406	2.44
584.745	2.7
585.083	2.5
585.422	2.41
585.761	2.63
586.1	2.45
586.438	2.33
586.777	2.45
587.115	2.35
587.454	2.42
587.792	2.3
588.13	2.66
588.469	2.27
588.807	2.38
589.145	2.35
589.483	2.42
589.821	2.31
590.159	2.26
590.497	2.54
590.835	2.31
591.173	2.32
591.511	2.35
591.849	2.26
592.187	2.32
592.524	2.26
592.862	2.51
593.2	2.63
593.537	2.07
593.875	2.54
594.212	2.38
594.55	2.43
594.887	2.42
595.224	2.22
595.561	2.42
595.899	2.36
596.236	2.32
596.573	2.28
596.91	2.44
597.247	2.18
597.584	2.27
597.921	2.24
598.258	2.25
598.594	2.31
598.931	2.34
599.268	2.25
599.604	2.24
599.941	2.29
600.277	2.24
600.614	2.54
600.95	2.53
601.287	2.51
601.623	2.21
601.959	2.3
602.296	2.14
602.632	2.18
602.968	2.34
603.304	2.41
603.64	2.32
603.976	2.45
604.312	2.32
604.648	2.12
604.984	2.36
605.319	2.08
605.655	2.18
605.991	2.21
606.326	2.33
606.662	2.25
606.998	2.42
607.333	2.32
607.668	2.44
608.004	2.51
608.339	2.54
608.674	2.3
609.01	1.95
609.345	2.5
609.68	2.58
610.015	2.39
610.35	2.36
610.685	2.23
611.02	2.25
611.355	2.13
611.689	2.3
612.024	2.52
612.359	2.11
612.694	2.2
613.028	2.28
613.363	2.47
613.697	2.37
614.032	2.47
614.366	2.19
614.7	2.25
615.035	2.45
615.369	2.38
615.703	2.27
616.037	2.41
616.371	2.34
616.705	2.26
617.039	2.07
617.373	2.5
617.707	2.43
618.041	2.37
618.375	2.62
618.709	2.17
619.042	2.28
619.376	2.17
619.71	2.25
620.043	2.44
620.377	2.29
620.71	2.04
621.043	2.33
621.377	2.21
621.71	2.55
622.043	1.95
622.376	2.41
622.709	2.31
623.043	1.92
623.376	2.53
623.709	2.29
624.041	2.05
624.374	2.42
624.707	2.39
625.04	2.25
625.373	2.23
625.705	2.3
626.038	2.36
626.37	2.24
626.703	2.57
627.035	2.22
627.368	2.16
627.7	2.46
628.032	2.03
628.365	2.55
628.697	2.58
629.029	2.41
629.361	2.28
629.693	2.07
630.025	2.15
630.357	2.16
630.689	2.44
631.021	2.18
631.353	2.33
631.684	2.25
632.016	2.28
632.348	2.27
632.679	2.51
633.011	2.12
633.342	1.96
633.674	2.22
634.005	2.2
634.336	2.01
634.668	2.16
634.999	2
635.33	2.24
635.661	2.69
635.992	2.27
636.323	2.36
636.654	2.74
636.985	2.53
637.316	2.53
637.647	2.1
637.977	2.17
638.308	2.44
638.639	2.51
638.969	2.75
639.3	2.53
639.63	2.49
639.961	2.4
640.291	2.32
640.622	2.56
640.952	2.43
641.282	2.13
641.612	2.59
641.943	2.51
642.273	2.62
642.603	2.39
642.933	2.18
643.263	1.97
643.592	2.41
643.922	2.07
644.252	2.09
644.582	2.22
644.911	2.56
645.241	2.82
645.571	2.29
645.9	2.12
646.23	2.4
646.559	2.01
646.888	2.67
647.218	2.24
647.547	2.54
647.876	2.16
648.205	2.6
648.534	2.46
648.863	2.32
649.192	2.41
649.521	2.34
649.85	2.19
650.179	2.38
650.508	2.6
650.837	2.7
651.165	2.59
651.494	2.32
651.822	2.4
652.151	2.5
652.479	2.82
652.808	2.68
653.136	2.52
653.465	2.73
653.793	2.45
654.121	2.39
654.449	2.27
654.777	2.39
655.105	2.59
655.433	1.81
655.761	2.17
656.089	2.4
656.417	2.84
656.745	2.68
657.073	2.48
657.4	1.79
657.728	2.92
658.056	1.58
658.383	2.59
658.711	2.53
659.038	2.37
659.365	2.25
659.693	2.09
660.02	2.59
660.347	2.58
660.674	1.8
661.001	2.34
661.329	2.25
661.656	2.33
661.982	2.34
662.309	2.31
662.636	2.43
662.963	2.6
663.29	2.77
663.616	2.56
663.943	2.79
664.27	2.37
664.596	3.16
664.923	2.5
665.249	2.67
665.576	2.53
665.902	2.13
666.228	2.61
666.554	2
666.881	2.51
667.207	1.73
667.533	2.47
667.859	2.31
668.185	2.43
668.511	2.23
668.837	2.05
669.162	2.76
669.488	2.53
669.814	1.94
670.139	2.75
670.465	2.13
670.791	2.31
671.116	2.5
671.442	2.56
671.767	2.44
672.092	1.96
672.418	2.2
672.743	1.98
673.068	2.06
673.393	1.94
673.718	2.09
674.043	2.6
674.368	1.98
674.693	2.59
675.018	2.44
675.343	2.19
675.667	2.68
675.992	2.81
676.317	2.87
676.641	2.9
676.966	1.98
677.29	1.88
677.615	2.75
677.939	2.8
678.264	2.56
678.588	2.59
678.912	2.62
679.236	2.45
679.56	2.4
679.885	2.96
680.209	1.96
680.532	2.32
680.856	3
681.18	3.22
681.504	2.56
681.828	2.06
682.152	2.82
682.475	2.43
682.799	2.51
683.122	2.65
683.446	2.87
683.769	2.41
684.093	1.97
684.416	2.29
684.739	2.76
685.062	2.33
685.386	2.77
685.709	2.95
686.032	1.83
686.355	1.78
686.678	2.57
687.001	2.58
687.324	2.65
687.646	2.95
687.969	2.43
688.292	2.61
688.614	2.25
688.937	2.16
689.26	2.34
689.582	2.79
689.904	2.14
690.227	3.01
690.549	2.87
690.871	2.88
691.194	3.03
691.516	3.19
691.838	2.48
692.16	2.55
