Data from 1610-3_forehead_Reflection__0__136.txt Node

Date: Fri Nov 11 17:09:58 CST 2022
User: ToomeyLab
Spectrometer: FLMS14357
Trigger mode: 0
Integration Time (sec): 1.000000E-2
Scans to average: 100
Electric dark correction enabled: true
Nonlinearity correction enabled: false
Boxcar width: 0
XAxis mode: Wavelengths
Number of Pixels in Spectrum: 2048
>>>>>Begin Spectral Data<<<<<
189.047	44.18
189.435	44.18
189.823	44.18
190.211	-98.47
190.599	76.82
190.987	72.49
191.375	111.46
191.763	90.42
192.151	-440.57
192.538	-190.31
192.926	71.32
193.314	-162.98
193.702	-10.81
194.089	-773.29
194.477	-8.26
194.864	149.82
195.252	122.35
195.639	63.89
196.027	53.85
196.414	133.05
196.801	106.34
197.189	265.81
197.576	-413.9
197.963	-67.67
198.351	38.35
198.738	-17.06
199.125	9.56
199.512	32.08
199.899	32.97
200.286	28.06
200.673	-1.25
201.06	2.38
201.447	34.87
201.833	56.31
202.22	33.29
202.607	29.05
202.994	24.08
203.38	45.74
203.767	49.59
204.154	-47.09
204.54	41.02
204.927	72.29
205.313	27.73
205.699	17.86
206.086	-1.68
206.472	3.57
206.858	27.97
207.245	11.96
207.631	31.82
208.017	14.41
208.403	16.37
208.789	-31.95
209.175	10.2
209.561	58.35
209.947	27.83
210.333	11.14
210.719	28.05
211.105	26.75
211.491	-127.39
211.876	21.08
212.262	-15.53
212.648	25.88
213.034	-0.7
213.419	35.45
213.805	23.14
214.19	-4.89
214.576	14.98
214.961	25.63
215.346	-64.6
215.732	-36.79
216.117	11.95
216.502	1.41
216.888	1.18
217.273	9.32
217.658	-3.54
218.043	-15.19
218.428	-35.58
218.813	22.11
219.198	7.84
219.583	10.83
219.968	41.77
220.353	-7.97
220.738	-16.44
221.122	-10.5
221.507	29.84
221.892	9.15
222.276	3.5
222.661	-5.49
223.046	21.34
223.43	1.75
223.815	3.37
224.199	12.94
224.583	2.54
224.968	19.8
225.352	-11.01
225.736	8.98
226.121	5.05
226.505	11.47
226.889	2.67
227.273	0.9
227.657	-2.94
228.041	1.02
228.425	11.52
228.809	8.48
229.193	1.21
229.577	5.66
229.961	3.71
230.344	3
230.728	3.41
231.112	2.83
231.495	3.69
231.879	5.28
232.263	2.17
232.646	1.45
233.03	2.69
233.413	2.66
233.797	3.73
234.18	2.39
234.563	5.09
234.946	1.78
235.33	2.34
235.713	4.34
236.096	1.54
236.479	2.16
236.862	4.1
237.245	3.38
237.628	3.3
238.011	3.34
238.394	2.55
238.777	3.44
239.16	4.47
239.543	3.42
239.925	5.37
240.308	2.7
240.691	3.29
241.073	3.58
241.456	2.59
241.838	3.49
242.221	3.62
242.603	2.77
242.986	2.87
243.368	3.52
243.75	3.04
244.133	3.52
244.515	3.29
244.897	2.81
245.279	2.35
245.661	3.47
246.043	3.59
246.425	5.02
246.807	3.92
247.189	2.05
247.571	2.63
247.953	3.21
248.335	3.34
248.717	3.45
249.098	2.93
249.48	3.22
249.862	3.04
250.243	3.19
250.625	2.91
251.006	3.23
251.388	3.4
251.769	3.41
252.151	3.64
252.532	3.76
252.913	2.17
253.295	2.72
253.676	3.14
254.057	3.04
254.438	3.85
254.819	4.05
255.2	4.19
255.581	3.43
255.962	3.61
256.343	4.64
256.724	3.27
257.105	3.54
257.486	4.43
257.867	2.92
258.247	3.86
258.628	2.92
259.009	3.71
259.389	3.31
259.77	4.17
260.15	3.6
260.531	3.06
260.911	3.16
261.292	3.49
261.672	3.11
262.052	3.01
262.432	3.59
262.813	3.44
263.193	2.91
263.573	3.9
263.953	3.53
264.333	3.68
264.713	3.18
265.093	3.27
265.473	4.33
265.853	2.24
266.233	2.47
266.612	3.64
266.992	2.81
267.372	3.02
267.752	3.38
268.131	3.15
268.511	3.05
268.89	3.56
269.27	2.85
269.649	3.17
270.029	3.05
270.408	3.24
270.787	3.18
271.167	3.29
271.546	3.49
271.925	3.59
272.304	3.36
272.683	3.3
273.062	3.16
273.441	3.15
273.82	2.74
274.199	3.22
274.578	3.34
274.957	2.57
275.336	3.15
275.715	3.08
276.093	3.42
276.472	3.17
276.851	3.65
277.229	3.09
277.608	2.97
277.986	3.2
278.365	3.59
278.743	3.05
279.122	2.82
279.5	2.15
279.878	2.59
280.257	3.36
280.635	3.04
281.013	3.01
281.391	3.22
281.769	3.73
282.147	2.69
282.525	2.78
282.903	3.51
283.281	2.7
283.659	2.96
284.037	3.49
284.415	2.86
284.792	2.8
285.17	2.94
285.548	3.47
285.925	3.21
286.303	3.13
286.68	2.99
287.058	3.06
287.435	3.33
287.813	3.06
288.19	3.12
288.567	3.41
288.945	2.54
289.322	2.81
289.699	3.26
290.076	2.51
290.453	3.32
290.83	3.4
291.207	3.29
291.584	3.1
291.961	3.15
292.338	3.41
292.715	3.28
293.092	3.39
293.469	3.43
293.845	3.88
294.222	3.52
294.599	3.6
294.975	3.12
295.352	2.98
295.728	3.03
296.105	3.3
296.481	3.07
296.858	3.53
297.234	3.59
297.61	3.39
297.986	3.3
298.363	3.63
298.739	3.49
299.115	3.4
299.491	3.82
299.867	3.51
300.243	3.25
300.619	3.95
300.995	3.88
301.371	3.27
301.746	3.52
302.122	3.68
302.498	3.25
302.874	3.61
303.249	3.9
303.625	4.03
304	3.51
304.376	4.07
304.751	4.44
305.127	4.34
305.502	4.06
305.878	4.66
306.253	4.66
306.628	4.58
307.003	4.2
307.378	4.31
307.754	4.4
308.129	4.44
308.504	3.94
308.879	4.22
309.254	3.78
309.629	4.54
310.003	4.56
310.378	4.15
310.753	3.98
311.128	4.69
311.502	4.03
311.877	4.7
312.252	4.43
312.626	4.46
313.001	4.5
313.375	4.98
313.75	4.93
314.124	5.02
314.498	5.02
314.873	4.62
315.247	4.88
315.621	4.34
315.995	5.2
316.369	4.99
316.743	4.95
317.117	5.04
317.491	5.25
317.865	5.53
318.239	5.66
318.613	5.38
318.987	5.52
319.361	5.61
319.734	5.26
320.108	5.19
320.482	5.02
320.855	4.96
321.229	5.47
321.602	4.62
321.976	5.09
322.349	5.44
322.723	5.8
323.096	5.64
323.469	5.29
323.843	5.92
324.216	5.72
324.589	5.86
324.962	5.58
325.335	6.16
325.708	5.78
326.081	5.68
326.454	5.87
326.827	6.36
327.2	5.68
327.573	6.2
327.945	5.64
328.318	5.89
328.691	6.07
329.063	6.1
329.436	5.93
329.809	5.69
330.181	6.39
330.553	6.5
330.926	5.9
331.298	5.75
331.671	6.27
332.043	6.72
332.415	6.25
332.787	6.74
333.159	6.54
333.532	6.33
333.904	6.86
334.276	6.43
334.648	6.42
335.02	7.07
335.391	6.51
335.763	6.94
336.135	6.28
336.507	6.63
336.879	6.86
337.25	6
337.622	6.76
337.993	6.93
338.365	6.75
338.736	6.78
339.108	6.59
339.479	7.03
339.851	6.65
340.222	7.05
340.593	6.69
340.964	6.79
341.336	6.75
341.707	6.83
342.078	6.73
342.449	7.17
342.82	7.32
343.191	7.4
343.562	7.61
343.933	6.97
344.303	7.81
344.674	7.14
345.045	7.12
345.416	7.34
345.786	7.7
346.157	6.99
346.527	7.63
346.898	7.05
347.268	7.54
347.639	7.73
348.009	7.42
348.38	7.63
348.75	7.92
349.12	7.77
349.49	7.69
349.861	7.03
350.231	7.65
350.601	8.01
350.971	7.99
351.341	7.63
351.711	7.82
352.081	7.04
352.45	7.74
352.82	7.96
353.19	7.82
353.56	7.79
353.929	8.1
354.299	7.96
354.669	8.41
355.038	8.07
355.408	7.93
355.777	8.1
356.147	8.31
356.516	8.01
356.885	8.05
357.254	8
357.624	8.26
357.993	8.27
358.362	8.08
358.731	8.12
359.1	8.21
359.469	8.31
359.838	8.38
360.207	8.51
360.576	8.38
360.945	8.64
361.314	8.71
361.682	8.5
362.051	8.41
362.42	8.24
362.788	8.57
363.157	8.7
363.525	8.69
363.894	8.56
364.262	8.36
364.631	8.56
364.999	8.72
365.367	8.71
365.735	8.75
366.104	8.47
366.472	8.86
366.84	9.12
367.208	8.82
367.576	8.66
367.944	9.32
368.312	8.92
368.68	9.18
369.048	8.89
369.416	8.91
369.783	9.07
370.151	9.25
370.519	9.26
370.886	9.31
371.254	9.04
371.621	9.19
371.989	9.11
372.356	9.04
372.724	9.33
373.091	9.31
373.458	9.05
373.826	9.3
374.193	9.54
374.56	9.45
374.927	9.23
375.294	9.74
375.661	9.83
376.028	9.45
376.395	9.66
376.762	9.43
377.129	9.74
377.496	9.49
377.863	9.69
378.229	9.96
378.596	9.46
378.963	9.69
379.329	9.61
379.696	9.98
380.062	9.92
380.429	9.82
380.795	9.47
381.161	10.1
381.528	9.92
381.894	9.93
382.26	9.9
382.626	10.11
382.993	10.21
383.359	9.84
383.725	10.39
384.091	10.32
384.457	10.12
384.823	10.25
385.188	10.43
385.554	10.42
385.92	10.17
386.286	10.28
386.651	10.25
387.017	10.31
387.383	10.36
387.748	10.15
388.114	10.26
388.479	10.58
388.845	10.43
389.21	10.68
389.575	10.34
389.94	10.77
390.306	10.64
390.671	10.59
391.036	10.67
391.401	10.59
391.766	10.74
392.131	10.53
392.496	10.76
392.861	10.61
393.226	10.67
393.591	10.59
393.956	10.9
394.32	10.96
394.685	11.02
395.05	11.23
395.414	11.03
395.779	10.83
396.143	10.98
396.508	10.94
396.872	11.4
397.236	11.18
397.601	11.22
397.965	11.27
398.329	10.96
398.694	11.12
399.058	11.07
399.422	11.24
399.786	11.23
400.15	11.2
400.514	11.4
400.878	11.3
401.242	11.24
401.605	11.61
401.969	11.59
402.333	11.7
402.697	11.41
403.06	11.59
403.424	11.27
403.787	11.41
404.151	11.29
404.514	11.78
404.878	11.84
405.241	11.36
405.604	11.52
405.968	11.83
406.331	11.69
406.694	11.57
407.057	11.74
407.42	11.7
407.783	11.66
408.146	11.87
408.509	11.66
408.872	11.98
409.235	12.03
409.598	11.94
409.961	11.68
410.323	12.05
410.686	11.86
411.049	11.95
411.411	11.83
411.774	11.85
412.136	12.09
412.499	12.22
412.861	11.78
413.223	11.99
413.586	12.02
413.948	12.02
414.31	12.2
414.672	12.07
415.035	12.32
415.397	12.43
415.759	12.2
416.121	12.41
416.483	12.23
416.845	12.07
417.206	12.44
417.568	12.26
417.93	12.2
418.292	12.24
418.653	12.19
419.015	12.2
419.377	12.41
419.738	12.31
420.1	12.34
420.461	12.23
420.822	12.33
421.184	12.28
421.545	12.34
421.906	12.41
422.267	12.39
422.629	12.45
422.99	12.34
423.351	12.37
423.712	12.46
424.073	12.57
424.434	12.51
424.795	12.75
425.155	12.63
425.516	12.73
425.877	12.57
426.238	12.66
426.598	12.65
426.959	12.75
427.32	12.77
427.68	12.86
428.041	13.1
428.401	12.98
428.761	13.05
429.122	13.24
429.482	13.23
429.842	13.16
430.202	13.09
430.563	13.43
430.923	13.39
431.283	13.62
431.643	13.54
432.003	13.49
432.363	13.43
432.722	13.49
433.082	13.39
433.442	13.61
433.802	13.44
434.161	13.51
434.521	13.62
434.881	13.5
435.24	13.5
435.6	13.44
435.959	13.64
436.319	13.7
436.678	13.74
437.037	13.71
437.396	13.67
437.756	13.76
438.115	13.72
438.474	13.81
438.833	13.87
439.192	14
439.551	13.87
439.91	13.94
440.269	13.91
440.628	14.05
440.987	14.04
441.345	14.05
441.704	13.99
442.063	14.18
442.421	13.93
442.78	14
443.138	14.14
443.497	14.08
443.855	14.09
444.214	14.29
444.572	14.45
444.93	14.37
445.288	14.45
445.647	14.12
446.005	14.47
446.363	14.39
446.721	14.41
447.079	14.39
447.437	14.35
447.795	14.23
448.153	14.37
448.51	14.39
448.868	14.41
449.226	14.45
449.584	14.56
449.941	14.42
450.299	14.55
450.656	14.77
451.014	14.86
451.371	14.71
451.729	14.79
452.086	14.81
452.443	14.89
452.801	14.99
453.158	14.86
453.515	14.94
453.872	15.12
454.229	15.07
454.586	15.09
454.943	15.01
455.3	15.09
455.657	15.29
456.014	15.14
456.371	15.21
456.727	15.18
457.084	15.18
457.441	15.21
457.797	15.23
458.154	15.27
458.51	15.41
458.867	15.66
459.223	15.37
459.58	15.66
459.936	15.54
460.292	15.51
460.648	15.52
461.005	15.53
461.361	15.34
461.717	15.24
462.073	15.33
462.429	15.43
462.785	15.48
463.141	15.54
463.496	15.67
463.852	15.73
464.208	15.84
464.564	15.98
464.919	15.92
465.275	15.86
465.631	15.81
465.986	15.88
466.342	16.1
466.697	16.19
467.052	16.03
467.408	15.97
467.763	15.99
468.118	16.14
468.473	16.1
468.829	16.12
469.184	16.23
469.539	16.21
469.894	16.2
470.249	16.22
470.603	16.23
470.958	16.5
471.313	16.46
471.668	16.35
472.023	16.62
472.377	16.59
472.732	16.57
473.086	16.4
473.441	16.37
473.795	16.8
474.15	16.39
474.504	16.71
474.859	16.63
475.213	16.64
475.567	16.69
475.921	16.81
476.275	16.89
476.63	16.75
476.984	16.77
477.338	16.69
477.692	16.88
478.045	17
478.399	16.8
478.753	16.81
479.107	16.96
479.461	16.87
479.814	17.09
480.168	17.01
480.521	17.04
480.875	17.22
481.228	17.03
481.582	17.17
481.935	17.12
482.289	17.18
482.642	17.18
482.995	17.19
483.348	16.93
483.701	17.05
484.055	16.99
484.408	16.95
484.761	16.75
485.114	16.53
485.466	16.37
485.819	16.42
486.172	16.52
486.525	16.58
486.878	16.65
487.23	16.9
487.583	17
487.936	17.11
488.288	16.99
488.641	16.91
488.993	16.84
489.345	16.79
489.698	16.89
490.05	16.86
490.402	17.02
490.754	17.19
491.107	17.29
491.459	17.4
491.811	17.55
492.163	17.51
492.515	17.49
492.866	17.35
493.218	17.18
493.57	17.12
493.922	17.25
494.274	17.43
494.625	17.53
494.977	17.69
495.328	17.88
495.68	17.93
496.031	18.05
496.383	18.16
496.734	18.23
497.086	18.21
497.437	18.24
497.788	18.28
498.139	18.2
498.49	18.15
498.842	18.27
499.193	18.22
499.544	18.36
499.894	18.33
500.245	18.3
500.596	18.49
500.947	18.4
501.298	18.57
501.648	18.69
501.999	18.47
502.35	18.62
502.7	18.89
503.051	18.59
503.401	18.53
503.752	18.7
504.102	18.79
504.452	18.9
504.803	18.88
505.153	19.09
505.503	18.67
505.853	18.84
506.203	18.97
506.553	18.99
506.903	18.89
507.253	19.03
507.603	19.16
507.953	19.03
508.303	19.15
508.652	19.14
509.002	19.2
509.352	19.18
509.701	19.15
510.051	19.05
510.4	19.07
510.75	19.08
511.099	18.98
511.449	19.19
511.798	19.07
512.147	19.13
512.496	19.33
512.846	19.15
513.195	19.22
513.544	19.34
513.893	19.29
514.242	19.35
514.591	19.28
514.939	19.42
515.288	19.48
515.637	19.47
515.986	19.57
516.334	19.64
516.683	19.69
517.032	19.75
517.38	19.71
517.729	19.64
518.077	19.68
518.426	19.79
518.774	19.68
519.122	19.69
519.47	19.57
519.819	19.38
520.167	19.52
520.515	19.52
520.863	19.55
521.211	19.6
521.559	19.55
521.907	19.76
522.255	20.06
522.602	19.98
522.95	20.11
523.298	20.11
523.645	20.1
523.993	20.15
524.341	20.07
524.688	20.29
525.036	20.14
525.383	20.24
525.73	20.11
526.078	20.19
526.425	20.07
526.772	20.05
527.119	19.91
527.466	19.88
527.814	19.91
528.161	19.97
528.508	20.08
528.854	20.06
529.201	19.97
529.548	19.93
529.895	19.67
530.242	19.61
530.588	19.58
530.935	19.67
531.282	19.85
531.628	19.74
531.975	19.93
532.321	20.05
532.667	20.27
533.014	20.32
533.36	20.34
533.706	20.41
534.052	20.45
534.399	20.26
534.745	20.16
535.091	20.15
535.437	20.25
535.783	20.28
536.129	20.4
536.474	20.51
536.82	20.63
537.166	20.79
537.512	20.78
537.857	20.89
538.203	20.68
538.549	20.6
538.894	20.71
539.239	20.85
539.585	20.86
539.93	21.07
540.276	21.16
540.621	21.05
540.966	21.15
541.311	21.29
541.656	21.03
542.001	21.2
542.346	21.01
542.691	20.75
543.036	20.59
543.381	20.55
543.726	20.75
544.071	20.81
544.415	20.99
544.76	20.96
545.105	21.1
545.449	21.14
545.794	21.25
546.138	21.35
546.483	21.44
546.827	21.52
547.171	21.51
547.516	21.46
547.86	21.63
548.204	21.46
548.548	21.59
548.892	21.44
549.236	21.5
549.58	21.74
549.924	21.81
550.268	22.04
550.612	21.99
550.956	22.14
551.3	22.31
551.643	22.19
551.987	22.26
552.33	22.1
552.674	22.11
553.017	22.23
553.361	22.25
553.704	22.38
554.048	22.28
554.391	22.19
554.734	22.18
555.077	22.41
555.42	22.39
555.764	22.45
556.107	22.34
556.45	22.54
556.793	22.76
557.135	22.45
557.478	22.69
557.821	22.73
558.164	22.86
558.507	22.74
558.849	22.69
559.192	22.65
559.534	22.84
559.877	23.17
560.219	23.03
560.562	22.91
560.904	22.86
561.246	22.87
561.589	22.72
561.931	22.97
562.273	23.19
562.615	23.17
562.957	23.11
563.299	23.14
563.641	23.27
563.983	23.18
564.325	23.19
564.667	23.36
565.008	23.26
565.35	23.25
565.692	23.25
566.033	23.26
566.375	23.13
566.716	23.45
567.058	23.2
567.399	23.21
567.741	23.29
568.082	23.19
568.423	23.21
568.764	23.37
569.105	23.5
569.447	23.42
569.788	23.7
570.129	23.68
570.47	23.45
570.811	23.53
571.151	23.83
571.492	23.52
571.833	23.72
572.174	23.72
572.514	23.5
572.855	23.67
573.195	23.77
573.536	23.76
573.876	23.66
574.217	23.6
574.557	23.69
574.898	23.84
575.238	23.95
575.578	23.96
575.918	23.88
576.258	23.97
576.598	24.02
576.938	24.11
577.278	24.02
577.618	23.93
577.958	24.06
578.298	24.15
578.638	24.17
578.977	24
579.317	24.07
579.657	24.36
579.996	24.27
580.336	24.45
580.675	24.39
581.014	24.46
581.354	24.53
581.693	24.48
582.032	24.78
582.372	24.57
582.711	24.67
583.05	24.62
583.389	24.64
583.728	24.91
584.067	24.56
584.406	24.9
584.745	25.03
585.083	24.84
585.422	24.85
585.761	24.78
586.1	25.01
586.438	24.84
586.777	24.77
587.115	24.85
587.454	25.29
587.792	25.22
588.13	25.19
588.469	24.91
588.807	25.02
589.145	25.16
589.483	25.12
589.821	24.95
590.159	25.18
590.497	25.26
590.835	25.18
591.173	25.29
591.511	25.25
591.849	25.2
592.187	25.22
592.524	25.61
592.862	25.34
593.2	25.52
593.537	25.2
593.875	25.46
594.212	25.48
594.55	25.63
594.887	25.66
595.224	25.65
595.561	25.4
595.899	25.41
596.236	25.47
596.573	25.62
596.91	25.46
597.247	25.68
597.584	25.58
597.921	25.58
598.258	25.73
598.594	25.51
598.931	25.39
599.268	25.31
599.604	25.69
599.941	25.8
600.277	25.77
600.614	25.92
600.95	25.86
601.287	25.94
601.623	25.96
601.959	26.1
602.296	25.91
602.632	25.99
602.968	26.2
603.304	26.1
603.64	25.77
603.976	26.17
604.312	25.92
604.648	25.82
604.984	26
605.319	26.21
605.655	25.94
605.991	25.82
606.326	26.27
606.662	25.94
606.998	26.2
607.333	26.14
607.668	26.17
608.004	26.39
608.339	26.59
608.674	26.42
609.01	26.1
609.345	26.29
609.68	26.47
610.015	26.59
610.35	26.76
610.685	26.44
611.02	26.41
611.355	26.44
611.689	26.75
612.024	26.57
612.359	26.16
612.694	26.55
613.028	26.73
613.363	26.83
613.697	26.7
614.032	27.03
614.366	26.45
614.7	26.99
615.035	27.26
615.369	27.02
615.703	27.05
616.037	27.11
616.371	26.88
616.705	26.95
617.039	27.1
617.373	27.09
617.707	27.41
618.041	27.41
618.375	27.4
618.709	27.09
619.042	27.38
619.376	27.23
619.71	27.2
620.043	27.17
620.377	27.23
620.71	27.39
621.043	27.56
621.377	26.94
621.71	27.71
622.043	27.28
622.376	27.11
622.709	27.48
623.043	27.82
623.376	27.49
623.709	27.59
624.041	27.58
624.374	28.02
624.707	27.61
625.04	27.63
625.373	27.65
625.705	27.68
626.038	27.83
626.37	27.45
626.703	28.01
627.035	27.87
627.368	27.7
627.7	27.77
628.032	27.84
628.365	28.09
628.697	28.48
629.029	27.57
629.361	27.93
629.693	27.75
630.025	27.89
630.357	28.06
630.689	28.31
631.021	27.78
631.353	28.13
631.684	28.12
632.016	27.72
632.348	28.11
632.679	28.32
633.011	27.94
633.342	28.08
633.674	28.19
634.005	28.6
634.336	28.17
634.668	28.18
634.999	28.14
635.33	28.2
635.661	28.46
635.992	28.25
636.323	28.39
636.654	28.43
636.985	28.29
637.316	28.17
637.647	28.59
637.977	28.33
638.308	28.32
638.639	28.51
638.969	29.12
639.3	28.64
639.63	28.78
639.961	28.49
640.291	28.7
640.622	28.51
640.952	28.71
641.282	28.7
641.612	28.54
641.943	29.05
642.273	29.03
642.603	29.1
642.933	28.34
643.263	28.65
643.592	29.19
643.922	28.91
644.252	28.88
644.582	29.05
644.911	29.07
645.241	29.3
645.571	29.19
645.9	29.34
646.23	28.98
646.559	28.86
646.888	29.27
647.218	29.02
647.547	29.55
647.876	28.82
648.205	28.97
648.534	29.52
648.863	29.08
649.192	29.39
649.521	29.26
649.85	29.14
650.179	29.38
650.508	29.52
650.837	29.96
651.165	29.73
651.494	29.56
651.822	29.17
652.151	29.51
652.479	29.62
652.808	29.58
653.136	29.53
653.465	29.63
653.793	29.96
654.121	29.84
654.449	29.63
654.777	29.83
655.105	29.69
655.433	29.44
655.761	29.59
656.089	29.81
656.417	29.98
656.745	29.57
657.073	30.19
657.4	29.56
657.728	29.83
658.056	30.14
658.383	29.5
658.711	30.3
659.038	30.28
659.365	29.73
659.693	29.65
660.02	30.06
660.347	29.87
660.674	29.77
661.001	29.94
661.329	29.83
661.656	29.77
661.982	30.37
662.309	30.11
662.636	30.33
662.963	30.12
663.29	30.58
663.616	30.52
663.943	30.36
664.27	30.55
664.596	30.51
664.923	30.82
665.249	30.43
665.576	29.77
665.902	30.41
666.228	30.2
666.554	30.1
666.881	30.64
667.207	30.56
667.533	30.52
667.859	30.38
668.185	30
668.511	30.78
668.837	30.55
669.162	30.46
669.488	30.28
669.814	30.32
670.139	30.66
670.465	30.64
670.791	30.56
671.116	30.79
671.442	30.41
671.767	30.39
672.092	30.65
672.418	30.28
