Data from 1610-3_chest_Reflection__2__128.txt Node

Date: Fri Nov 11 17:07:28 CST 2022
User: ToomeyLab
Spectrometer: FLMS14357
Trigger mode: 0
Integration Time (sec): 1.000000E-2
Scans to average: 100
Electric dark correction enabled: true
Nonlinearity correction enabled: false
Boxcar width: 0
XAxis mode: Wavelengths
Number of Pixels in Spectrum: 2048
>>>>>Begin Spectral Data<<<<<
189.047	47.76
189.435	47.76
189.823	47.76
190.211	-311.6
190.599	67.52
190.987	-1097.2
191.375	134.04
191.763	-79.22
192.151	-220
192.538	165.5
192.926	62.94
193.314	-301.7
193.702	32.21
194.089	-59.01
194.477	-2615.6
194.864	69.47
195.252	77.03
195.639	4.21
196.027	24.57
196.414	185.85
196.801	-7.96
197.189	343.32
197.576	-483.49
197.963	-7.57
198.351	-35.72
198.738	-8.45
199.125	-13.07
199.512	26.07
199.899	50.15
200.286	21.68
200.673	30.15
201.06	-12.23
201.447	16.5
201.833	36.53
202.22	8.81
202.607	15.03
202.994	24.22
203.38	3.39
203.767	-2.6
204.154	-13.79
204.54	37.19
204.927	49.57
205.313	38.69
205.699	13.46
206.086	0.15
206.472	36.82
206.858	-19.92
207.245	-0.19
207.631	17.91
208.017	25.46
208.403	-6.94
208.789	-11.88
209.175	-4.06
209.561	3.11
209.947	15.97
210.333	14.84
210.719	23.63
211.105	9.03
211.491	-103.26
211.876	15.27
212.262	0.96
212.648	22.48
213.034	31.17
213.419	-17.4
213.805	13.42
214.19	-48.73
214.576	6.06
214.961	10.04
215.346	-42.32
215.732	-39.98
216.117	27.46
216.502	17.01
216.888	5.41
217.273	3.46
217.658	-22.63
218.043	13.76
218.428	-24.72
218.813	16.87
219.198	-6.23
219.583	11.28
219.968	-11.07
220.353	-19.87
220.738	-9.82
221.122	-7.15
221.507	8.62
221.892	5.29
222.276	14.95
222.661	6.43
223.046	6.69
223.43	3.58
223.815	4.13
224.199	6.11
224.583	2.41
224.968	12.95
225.352	-6.89
225.736	7.65
226.121	4.73
226.505	13.19
226.889	0.36
227.273	10.61
227.657	-3.02
228.041	1.73
228.425	2.34
228.809	9.5
229.193	3.67
229.577	3.31
229.961	5.19
230.344	5.27
230.728	4.56
231.112	4.39
231.495	5.35
231.879	2.75
232.263	3.03
232.646	3.99
233.03	2.41
233.413	3.82
233.797	5.79
234.18	2.41
234.563	4.46
234.946	1.6
235.33	5.07
235.713	4.56
236.096	3.73
236.479	4.2
236.862	4.62
237.245	3.35
237.628	4.87
238.011	5.56
238.394	3.5
238.777	4.63
239.16	4.84
239.543	3.4
239.925	4.6
240.308	3.6
240.691	3.67
241.073	3.83
241.456	2.35
241.838	4.34
242.221	4.24
242.603	3.95
242.986	3.74
243.368	4.41
243.75	4.78
244.133	4.08
244.515	4.18
244.897	4.28
245.279	4.36
245.661	4.37
246.043	4.58
246.425	5.28
246.807	3.47
247.189	2.85
247.571	2.9
247.953	4.24
248.335	4.43
248.717	4.22
249.098	3.94
249.48	4.13
249.862	3.8
250.243	4.22
250.625	4
251.006	4.77
251.388	3.33
251.769	4.81
252.151	4.28
252.532	4.67
252.913	3.42
253.295	3.69
253.676	4
254.057	3.81
254.438	4.1
254.819	3.55
255.2	4
255.581	3.67
255.962	3.12
256.343	4.59
256.724	3.73
257.105	4.24
257.486	5.67
257.867	4.08
258.247	4.02
258.628	3.12
259.009	3.73
259.389	3.93
259.77	4.96
260.15	4.48
260.531	3.95
260.911	3.75
261.292	4.04
261.672	3.85
262.052	3.99
262.432	4.32
262.813	4.06
263.193	3.19
263.573	4.47
263.953	3.33
264.333	4.16
264.713	3.52
265.093	4.62
265.473	5.13
265.853	4.01
266.233	3.72
266.612	2.98
266.992	3.86
267.372	3.69
267.752	3.92
268.131	3.87
268.511	4.52
268.89	4.15
269.27	3.98
269.649	3.33
270.029	3.18
270.408	3.78
270.787	4.48
271.167	3.58
271.546	4.36
271.925	3.52
272.304	4.54
272.683	3.67
273.062	3.66
273.441	3.21
273.82	3.66
274.199	4.25
274.578	3.85
274.957	3.14
275.336	3.72
275.715	4.02
276.093	3.95
276.472	4.16
276.851	4.08
277.229	3.52
277.608	3.78
277.986	3.87
278.365	4.47
278.743	3.61
279.122	3.63
279.5	3.6
279.878	3.46
280.257	4.31
280.635	3.51
281.013	3.42
281.391	3.73
281.769	4.1
282.147	3.59
282.525	3.95
282.903	4.02
283.281	3.77
283.659	3.51
284.037	3.9
284.415	3.27
284.792	4.04
285.17	4.15
285.548	4.08
285.925	3.58
286.303	4.03
286.68	3.78
287.058	3.96
287.435	3.9
287.813	3.78
288.19	3.85
288.567	3.8
288.945	3.31
289.322	3.35
289.699	4.03
290.076	3.46
290.453	3.31
290.83	3.66
291.207	3.4
291.584	3.65
291.961	3.39
292.338	3.98
292.715	3.39
293.092	3.44
293.469	3.68
293.845	4.09
294.222	4.64
294.599	4.34
294.975	3.21
295.352	3.75
295.728	3.86
296.105	3.82
296.481	3.77
296.858	3.88
297.234	3.61
297.61	3.55
297.986	3.48
298.363	3.74
298.739	4.01
299.115	3.7
299.491	3.7
299.867	3.48
300.243	3.76
300.619	3.65
300.995	3.62
301.371	3.5
301.746	3.78
302.122	3.91
302.498	3.45
302.874	4.12
303.249	3.79
303.625	3.94
304	3.79
304.376	3.86
304.751	3.98
305.127	4.05
305.502	3.88
305.878	4.16
306.253	4.43
306.628	4.31
307.003	3.75
307.378	3.99
307.754	4.09
308.129	4.33
308.504	3.64
308.879	3.95
309.254	3.51
309.629	4.26
310.003	4.39
310.378	3.57
310.753	3.72
311.128	4.02
311.502	3.67
311.877	4.35
312.252	3.4
312.626	3.88
313.001	3.93
313.375	3.99
313.75	4.22
314.124	3.89
314.498	4.04
314.873	3.89
315.247	3.71
315.621	3.62
315.995	3.75
316.369	4.14
316.743	3.6
317.117	3.96
317.491	4.34
317.865	3.75
318.239	3.79
318.613	3.98
318.987	4.28
319.361	4.21
319.734	3.66
320.108	4.57
320.482	3.14
320.855	3.61
321.229	4.1
321.602	3.86
321.976	3.74
322.349	4.03
322.723	3.72
323.096	3.9
323.469	4.22
323.843	4.51
324.216	3.98
324.589	4.06
324.962	4
325.335	4.45
325.708	3.96
326.081	3.79
326.454	4.18
326.827	4.2
327.2	3.75
327.573	4.42
327.945	4.11
328.318	4.59
328.691	4.23
329.063	3.98
329.436	3.99
329.809	3.61
330.181	4.07
330.553	3.82
330.926	4.05
331.298	4.25
331.671	4.05
332.043	4.49
332.415	4.29
332.787	4.46
333.159	4.39
333.532	3.92
333.904	4.61
334.276	4.51
334.648	4.28
335.02	4.66
335.391	4.11
335.763	4.28
336.135	4.13
336.507	4.14
336.879	3.9
337.25	3.74
337.622	4.06
337.993	3.92
338.365	4.83
338.736	4.14
339.108	4.3
339.479	4.22
339.851	4.03
340.222	3.82
340.593	4.25
340.964	3.92
341.336	4
341.707	4.07
342.078	4.06
342.449	4.35
342.82	4.01
343.191	4.48
343.562	4.52
343.933	3.77
344.303	4.77
344.674	4.49
345.045	4.14
345.416	4.21
345.786	4.27
346.157	4.18
346.527	4.32
346.898	4.28
347.268	4.3
347.639	4.47
348.009	4.22
348.38	4.34
348.75	4.45
349.12	4.36
349.49	4.09
349.861	3.87
350.231	4.58
350.601	4.73
350.971	4.31
351.341	4.26
351.711	4.05
352.081	3.65
352.45	4.61
352.82	4.74
353.19	4.17
353.56	4.62
353.929	4.49
354.299	4.47
354.669	4.36
355.038	4.18
355.408	3.83
355.777	4.14
356.147	4.51
356.516	4.55
356.885	4.26
357.254	4.13
357.624	4.11
357.993	4.57
358.362	4.56
358.731	4.23
359.1	4.31
359.469	4.3
359.838	4.48
360.207	4.6
360.576	4.38
360.945	4.5
361.314	4.61
361.682	4.63
362.051	4.52
362.42	4.17
362.788	4.45
363.157	4.38
363.525	4.56
363.894	4.5
364.262	4.12
364.631	4.24
364.999	4.27
365.367	4.73
365.735	4.64
366.104	4.29
366.472	4.56
366.84	4.52
367.208	4.29
367.576	4.16
367.944	4.57
368.312	4.68
368.68	4.64
369.048	4.48
369.416	4.4
369.783	4.23
370.151	4.63
370.519	4.61
370.886	4.52
371.254	4.16
371.621	4.63
371.989	3.92
372.356	4.37
372.724	4.59
373.091	4.36
373.458	4.32
373.826	4.31
374.193	4.47
374.56	4.38
374.927	4.64
375.294	4.7
375.661	4.85
376.028	4.46
376.395	4.43
376.762	4.45
377.129	4.64
377.496	4.48
377.863	4.83
378.229	4.63
378.596	4.26
378.963	4.61
379.329	4.44
379.696	4.55
380.062	4.52
380.429	4.43
380.795	4.43
381.161	4.47
381.528	4.41
381.894	4.48
382.26	4.37
382.626	4.59
382.993	4.38
383.359	4.77
383.725	4.73
384.091	4.37
384.457	4.89
384.823	4.62
385.188	4.82
385.554	4.67
385.92	4.55
386.286	4.63
386.651	4.62
387.017	4.62
387.383	4.62
387.748	4.61
388.114	4.62
388.479	4.62
388.845	4.64
389.21	4.72
389.575	4.59
389.94	4.76
390.306	4.57
390.671	4.39
391.036	4.63
391.401	4.56
391.766	4.7
392.131	4.35
392.496	4.7
392.861	4.69
393.226	4.67
393.591	4.53
393.956	4.71
394.32	4.82
394.685	5.01
395.05	4.81
395.414	4.86
395.779	4.83
396.143	4.92
396.508	4.65
396.872	4.9
397.236	4.88
397.601	4.69
397.965	4.75
398.329	4.68
398.694	4.71
399.058	4.51
399.422	4.83
399.786	4.89
400.15	4.55
400.514	4.71
400.878	4.87
401.242	4.68
401.605	4.78
401.969	4.89
402.333	4.83
402.697	4.51
403.06	4.8
403.424	4.45
403.787	4.91
404.151	4.78
404.514	4.71
404.878	4.79
405.241	4.68
405.604	4.56
405.968	4.87
406.331	4.66
406.694	4.93
407.057	4.83
407.42	4.73
407.783	4.87
408.146	5.03
408.509	4.85
408.872	4.85
409.235	4.94
409.598	4.88
409.961	4.78
410.323	4.78
410.686	4.79
411.049	4.86
411.411	4.63
411.774	4.74
412.136	4.87
412.499	4.97
412.861	4.77
413.223	4.76
413.586	4.55
413.948	4.6
414.31	4.89
414.672	5.06
415.035	4.76
415.397	4.81
415.759	4.94
416.121	5
416.483	4.99
416.845	4.84
417.206	4.81
417.568	4.83
417.93	4.9
418.292	4.82
418.653	4.82
419.015	4.78
419.377	5.1
419.738	4.9
420.1	4.86
420.461	4.65
420.822	4.8
421.184	4.74
421.545	4.75
421.906	4.77
422.267	4.86
422.629	4.77
422.99	4.73
423.351	4.79
423.712	4.78
424.073	4.7
424.434	4.7
424.795	4.91
425.155	4.86
425.516	4.81
425.877	4.9
426.238	4.75
426.598	4.89
426.959	4.89
427.32	4.84
427.68	4.92
428.041	4.99
428.401	4.9
428.761	4.94
429.122	5.06
429.482	5.12
429.842	5.11
430.202	5.07
430.563	4.93
430.923	4.92
431.283	5.14
431.643	5.21
432.003	5.18
432.363	5.15
432.722	4.96
433.082	4.91
433.442	5.11
433.802	5.2
434.161	4.96
434.521	5.12
434.881	5
435.24	5.08
435.6	4.94
435.959	5.14
436.319	4.97
436.678	5.05
437.037	4.96
437.396	4.96
437.756	5.04
438.115	4.82
438.474	4.96
438.833	4.93
439.192	5.09
439.551	4.99
439.91	5.08
440.269	5.14
440.628	5.03
440.987	5.23
441.345	5.08
441.704	5.11
442.063	5.16
442.421	5.04
442.78	5.1
443.138	5.1
443.497	5.09
443.855	5.03
444.214	5.09
444.572	5.3
444.93	5.2
445.288	5.37
445.647	5.07
446.005	5.16
446.363	5.23
446.721	5.1
447.079	5.11
447.437	5.14
447.795	5.08
448.153	5.12
448.51	5.1
448.868	5.11
449.226	5.14
449.584	5.14
449.941	5.18
450.299	5.26
450.656	5.24
451.014	5.37
451.371	5.11
451.729	5.28
452.086	5.22
452.443	5.32
452.801	5.45
453.158	5.19
453.515	5.25
453.872	5.27
454.229	5.27
454.586	5.28
454.943	5.37
455.3	5.29
455.657	5.38
456.014	5.22
456.371	5.32
456.727	5.3
457.084	5.38
457.441	5.33
457.797	5.26
458.154	5.38
458.51	5.43
458.867	5.48
459.223	5.41
459.58	5.44
459.936	5.44
460.292	5.28
460.648	5.33
461.005	5.51
461.361	5.36
461.717	5.29
462.073	5.37
462.429	5.43
462.785	5.33
463.141	5.46
463.496	5.5
463.852	5.46
464.208	5.53
464.564	5.38
464.919	5.33
465.275	5.54
465.631	5.55
465.986	5.42
466.342	5.64
466.697	5.53
467.052	5.53
467.408	5.51
467.763	5.57
468.118	5.47
468.473	5.46
468.829	5.55
469.184	5.62
469.539	5.6
469.894	5.58
470.249	5.47
470.603	5.57
470.958	5.66
471.313	5.7
471.668	5.59
472.023	5.73
472.377	5.66
472.732	5.57
473.086	5.58
473.441	5.52
473.795	5.65
474.15	5.69
474.504	5.62
474.859	5.68
475.213	5.5
475.567	5.74
475.921	5.92
476.275	5.74
476.63	5.77
476.984	5.69
477.338	5.79
477.692	5.86
478.045	5.54
478.399	5.53
478.753	5.72
479.107	5.65
479.461	5.8
479.814	5.68
480.168	5.78
480.521	5.7
480.875	5.81
481.228	5.8
481.582	5.7
481.935	5.84
482.289	5.89
482.642	5.69
482.995	5.67
483.348	5.6
483.701	5.7
484.055	5.68
484.408	5.69
484.761	5.51
485.114	5.46
485.466	5.36
485.819	5.38
486.172	5.44
486.525	5.46
486.878	5.51
487.23	5.57
487.583	5.59
487.936	5.65
488.288	5.59
488.641	5.59
488.993	5.52
489.345	5.48
489.698	5.57
490.05	5.55
490.402	5.61
490.754	5.69
491.107	5.68
491.459	5.71
491.811	5.7
492.163	5.75
492.515	5.74
492.866	5.69
493.218	5.55
493.57	5.61
493.922	5.69
494.274	5.76
494.625	5.73
494.977	5.78
495.328	5.87
495.68	5.88
496.031	5.88
496.383	6.04
496.734	5.95
497.086	5.98
497.437	5.98
497.788	6.05
498.139	5.88
498.49	5.94
498.842	5.99
499.193	5.98
499.544	6.03
499.894	6.07
500.245	5.97
500.596	6
500.947	6.07
501.298	6.1
501.648	6.19
501.999	6.1
502.35	6.12
502.7	6.1
503.051	6.09
503.401	6.19
503.752	6.15
504.102	6.12
504.452	6.3
504.803	6.17
505.153	6.23
505.503	6.24
505.853	6.19
506.203	6.31
506.553	6.35
506.903	6.26
507.253	6.28
507.603	6.3
507.953	6.28
508.303	6.26
508.652	6.25
509.002	6.35
509.352	6.43
509.701	6.25
510.051	6.22
510.4	6.14
510.75	6.26
511.099	6.25
511.449	6.24
511.798	6.2
512.147	6.31
512.496	6.38
512.846	6.34
513.195	6.31
513.544	6.32
513.893	6.36
514.242	6.37
514.591	6.32
514.939	6.43
515.288	6.32
515.637	6.36
515.986	6.46
516.334	6.36
516.683	6.47
517.032	6.4
517.38	6.47
517.729	6.59
518.077	6.46
518.426	6.5
518.774	6.44
519.122	6.34
519.47	6.33
519.819	6.37
520.167	6.41
520.515	6.36
520.863	6.39
521.211	6.37
521.559	6.42
521.907	6.55
522.255	6.59
522.602	6.6
522.95	6.59
523.298	6.52
523.645	6.66
523.993	6.62
524.341	6.68
524.688	6.66
525.036	6.61
525.383	6.62
525.73	6.59
526.078	6.63
526.425	6.62
526.772	6.6
527.119	6.56
527.466	6.56
527.814	6.56
528.161	6.59
528.508	6.55
528.854	6.58
529.201	6.58
529.548	6.58
529.895	6.41
530.242	6.38
530.588	6.41
530.935	6.42
531.282	6.53
531.628	6.52
531.975	6.6
532.321	6.67
532.667	6.61
533.014	6.76
533.36	6.67
533.706	6.71
534.052	6.67
534.399	6.63
534.745	6.72
535.091	6.62
535.437	6.66
535.783	6.67
536.129	6.75
536.474	6.84
536.82	6.81
537.166	6.89
537.512	6.99
537.857	6.94
538.203	6.84
538.549	6.88
538.894	6.93
539.239	6.98
539.585	6.95
539.93	7.03
540.276	7.06
540.621	7.04
540.966	7.16
541.311	7.22
541.656	7.02
542.001	7.14
542.346	7.12
542.691	6.87
543.036	6.88
543.381	6.88
543.726	6.9
544.071	6.94
544.415	6.97
544.76	6.96
545.105	7.13
545.449	7.14
545.794	7.14
546.138	7.24
546.483	7.22
546.827	7.31
547.171	7.26
547.516	7.15
547.86	7.25
548.204	7.25
548.548	7.24
548.892	7.27
549.236	7.43
549.58	7.37
549.924	7.45
550.268	7.44
550.612	7.36
550.956	7.47
551.3	7.52
551.643	7.65
551.987	7.55
552.33	7.55
552.674	7.65
553.017	7.71
553.361	7.55
553.704	7.68
554.048	7.51
554.391	7.63
554.734	7.56
555.077	7.84
555.42	7.75
555.764	7.74
556.107	7.72
556.45	7.69
556.793	7.83
557.135	7.8
557.478	7.93
557.821	7.89
558.164	7.91
558.507	7.85
558.849	7.72
559.192	7.97
559.534	7.85
559.877	7.98
560.219	8.02
560.562	7.97
560.904	7.87
561.246	7.96
561.589	8.06
561.931	8.05
562.273	8.22
562.615	7.91
562.957	8.23
563.299	8.05
563.641	8.12
563.983	8.16
564.325	8.08
564.667	8.08
565.008	8.15
565.35	8.43
565.692	8.25
566.033	8.33
566.375	8.37
566.716	8.17
567.058	8.05
567.399	8.23
567.741	8.3
568.082	8.2
568.423	8.31
568.764	8.38
569.105	8.28
569.447	8.3
569.788	8.34
570.129	8.49
570.47	8.3
570.811	8.49
571.151	8.5
571.492	8.4
571.833	8.51
572.174	8.41
572.514	8.51
572.855	8.42
573.195	8.68
573.536	8.51
573.876	8.53
574.217	8.47
574.557	8.39
574.898	8.66
575.238	8.63
575.578	8.54
575.918	8.69
576.258	8.68
576.598	8.84
576.938	8.79
577.278	8.83
577.618	8.75
577.958	8.82
578.298	9.08
578.638	8.85
578.977	8.89
579.317	8.78
579.657	8.93
579.996	8.83
580.336	8.89
580.675	8.88
581.014	9.1
581.354	9.16
581.693	8.99
582.032	9.26
582.372	9.28
582.711	9.17
583.05	9.1
583.389	9.24
583.728	9.16
584.067	9.25
584.406	9.3
584.745	9.29
585.083	9.35
585.422	9.28
585.761	9.62
586.1	9.47
586.438	9.47
586.777	9.51
587.115	9.27
587.454	9.56
587.792	9.54
588.13	9.53
588.469	9.4
588.807	9.81
589.145	9.69
589.483	9.67
589.821	9.55
590.159	9.63
590.497	9.85
590.835	9.66
591.173	9.74
591.511	9.81
591.849	9.72
592.187	9.81
592.524	9.79
592.862	9.81
593.2	9.84
593.537	9.58
593.875	9.95
594.212	10.04
594.55	10.01
594.887	9.71
595.224	10.06
595.561	9.88
595.899	9.62
596.236	9.78
596.573	9.9
596.91	10.04
597.247	9.89
597.584	9.98
597.921	9.92
598.258	10.18
598.594	9.92
598.931	10.02
599.268	9.97
599.604	10.08
599.941	10.03
600.277	10.22
600.614	10.33
600.95	10.24
601.287	10.61
601.623	10.08
601.959	10.23
602.296	10.13
602.632	10.18
602.968	10.22
603.304	10.41
603.64	10.25
603.976	10.54
604.312	10.57
604.648	10.15
604.984	10.43
605.319	10.51
605.655	10.35
605.991	10.36
606.326	10.46
606.662	10.34
606.998	10.52
607.333	10.33
607.668	10.45
608.004	10.59
608.339	10.79
608.674	10.87
609.01	10.67
609.345	10.43
609.68	10.91
610.015	10.89
610.35	11.07
610.685	10.96
611.02	10.84
611.355	10.82
611.689	11.07
612.024	10.78
612.359	10.74
612.694	11
613.028	10.84
613.363	11.05
613.697	11.16
614.032	11.05
614.366	11.14
614.7	11.02
615.035	11.07
615.369	11.23
615.703	11.32
616.037	11.11
616.371	11.25
616.705	11.38
617.039	10.93
617.373	11.58
617.707	11.66
618.041	11.34
618.375	11.5
618.709	11.16
619.042	11.47
619.376	11.32
619.71	11.43
620.043	11.54
620.377	11.82
620.71	11.47
621.043	11.61
621.377	11.48
621.71	11.55
622.043	11.58
622.376	11.85
622.709	11.71
623.043	11.49
623.376	11.83
623.709	11.87
624.041	11.58
624.374	11.93
624.707	11.89
625.04	12.08
625.373	11.84
625.705	11.73
626.038	11.97
626.37	11.82
626.703	12.1
627.035	11.74
627.368	11.77
627.7	11.72
628.032	11.94
628.365	12.51
628.697	12.33
629.029	12.15
629.361	11.94
629.693	12.05
630.025	12.04
630.357	12.19
630.689	12.39
631.021	12.12
631.353	12.08
631.684	12.27
632.016	12.33
632.348	12.14
632.679	12.47
633.011	12.44
633.342	12.01
633.674	12.75
634.005	12.77
634.336	12.38
634.668	12.56
634.999	12.19
635.33	12.48
635.661	12.72
635.992	12.82
636.323	13.17
636.654	12.89
636.985	12.75
637.316	12.99
637.647	12.89
637.977	12.54
638.308	12.68
638.639	12.64
638.969	13.2
639.3	12.87
639.63	13.06
639.961	13.02
640.291	12.92
640.622	12.86
640.952	12.93
641.282	13.28
641.612	13.01
641.943	13.2
642.273	13.12
642.603	13.22
642.933	13.03
643.263	12.75
643.592	13.44
643.922	13.09
644.252	13.45
644.582	13.21
644.911	13.38
645.241	13.39
645.571	13.17
645.9	13.42
646.23	13.37
646.559	12.97
646.888	13.45
647.218	13.49
647.547	13.8
647.876	13.45
648.205	13.56
648.534	13.6
648.863	13.63
649.192	14.07
649.521	13.76
649.85	13.9
650.179	13.64
650.508	13.93
650.837	14.03
651.165	14.34
651.494	14.23
651.822	13.64
652.151	13.91
652.479	14.07
652.808	13.83
653.136	13.9
653.465	14.43
653.793	14.24
654.121	14.05
654.449	14.03
654.777	14.24
655.105	14.42
655.433	14.16
655.761	13.43
656.089	13.92
656.417	14.49
656.745	13.96
657.073	14.29
657.4	13.93
657.728	14.18
658.056	13.85
658.383	14.05
658.711	14.85
659.038	14.15
659.365	14.23
659.693	13.92
660.02	14.56
660.347	14.71
660.674	14.2
661.001	14.43
661.329	14.46
661.656	14.54
661.982	14.58
662.309	14.4
662.636	14.51
662.963	14.73
663.29	14.93
663.616	14.8
663.943	14.97
664.27	14.69
664.596	15.64
664.923	15.32
665.249	14.98
665.576	15.09
665.902	15.02
666.228	14.88
666.554	14.59
666.881	14.68
667.207	14.95
667.533	15.21
667.859	14.37
668.185	14.9
668.511	15.29
668.837	14.92
669.162	15.19
669.488	15.25
669.814	14.93
670.139	15.33
670.465	15.44
670.791	15.2
671.116	15.14
671.442	14.99
671.767	15.51
672.092	15.01
672.418	15.76
672.743	15.38
673.068	15.28
673.393	15.26
673.718	15.64
674.043	15.17
674.368	15.66
674.693	16.08
675.018	15.64
675.343	15.78
675.667	15.77
675.992	15.76
676.317	15.51
676.641	15.82
676.966	15.65
677.29	15.21
677.615	16.08
677.939	16.65
678.264	15.89
678.588	16.28
678.912	16.29
679.236	15.56
679.56	15.72
679.885	15.9
680.209	16.12
680.532	15.75
680.856	16.59
681.18	16.15
681.504	16.3
681.828	15.69
682.152	16.3
682.475	15.93
682.799	16.08
683.122	16.33
683.446	16.63
683.769	16.84
684.093	16.2
684.416	16.87
684.739	16.55
685.062	16.51
685.386	17.04
685.709	16.39
686.032	16.18
