Data from 1610-3_chest_Reflection__1__127.txt Node

Date: Fri Nov 11 17:07:13 CST 2022
User: ToomeyLab
Spectrometer: FLMS14357
Trigger mode: 0
Integration Time (sec): 1.000000E-2
Scans to average: 100
Electric dark correction enabled: true
Nonlinearity correction enabled: false
Boxcar width: 0
XAxis mode: Wavelengths
Number of Pixels in Spectrum: 2048
>>>>>Begin Spectral Data<<<<<
189.047	153.33
189.435	153.33
189.823	153.33
190.211	-388.12
190.599	101.39
190.987	-857.11
191.375	617.51
191.763	-282.11
192.151	-272.31
192.538	-0.78
192.926	-244.31
193.314	44.92
193.702	58.55
194.089	-742.65
194.477	501.83
194.864	41.93
195.252	182.56
195.639	29.56
196.027	20.51
196.414	104.91
196.801	25.83
197.189	-6.83
197.576	-700.21
197.963	57.79
198.351	-39.37
198.738	-9.68
199.125	15.79
199.512	9.67
199.899	15.81
200.286	10.04
200.673	31.59
201.06	-23.94
201.447	30.15
201.833	6.21
202.22	12.81
202.607	23.75
202.994	-3.35
203.38	-13.83
203.767	30.57
204.154	-41.87
204.54	31.33
204.927	61.19
205.313	16.02
205.699	13.12
206.086	16.28
206.472	-1.74
206.858	68.1
207.245	-1.2
207.631	2.11
208.017	24.24
208.403	13.1
208.789	-4.33
209.175	-2.74
209.561	1.87
209.947	17.96
210.333	23.02
210.719	31.73
211.105	22.94
211.491	-55.31
211.876	5.63
212.262	-8.04
212.648	5.71
213.034	-7.43
213.419	6.2
213.805	6.4
214.19	-47.64
214.576	31.67
214.961	16.39
215.346	-49.01
215.732	-27.51
216.117	14.87
216.502	-0.18
216.888	2.29
217.273	13.51
217.658	6.82
218.043	12.18
218.428	21.56
218.813	29.65
219.198	-30.52
219.583	15.67
219.968	23.26
220.353	-16.82
220.738	18.18
221.122	-13.42
221.507	19.8
221.892	5.12
222.276	5.93
222.661	-0.09
223.046	14.4
223.43	-1.63
223.815	6.42
224.199	10.52
224.583	4.46
224.968	11
225.352	0.24
225.736	2.17
226.121	3.12
226.505	9.4
226.889	-2.73
227.273	5.32
227.657	-5.68
228.041	1.72
228.425	6.64
228.809	8.02
229.193	2.77
229.577	4.74
229.961	4.43
230.344	3.92
230.728	4.91
231.112	4.5
231.495	4.94
231.879	4.15
232.263	0.85
232.646	4.63
233.03	2.4
233.413	4.96
233.797	3.45
234.18	4.99
234.563	3.73
234.946	1.39
235.33	2.83
235.713	3.73
236.096	2.8
236.479	4.63
236.862	5.21
237.245	3.23
237.628	4.66
238.011	4.81
238.394	4.47
238.777	5.45
239.16	5.03
239.543	4.49
239.925	6.95
240.308	2.84
240.691	2.47
241.073	3.74
241.456	3.15
241.838	4.24
242.221	4.08
242.603	3.68
242.986	4.31
243.368	3.7
243.75	3.71
244.133	4.18
244.515	3.92
244.897	3.69
245.279	3.78
245.661	3.78
246.043	4.27
246.425	4.34
246.807	4.16
247.189	3.47
247.571	3.26
247.953	3.86
248.335	3.94
248.717	3.99
249.098	3.81
249.48	4.12
249.862	3.71
250.243	3.93
250.625	3.81
251.006	4.14
251.388	3.62
251.769	4.16
252.151	4.53
252.532	3.85
252.913	3.09
253.295	3.79
253.676	3.91
254.057	4.26
254.438	4.11
254.819	3.48
255.2	4.36
255.581	4.28
255.962	3.77
256.343	4.04
256.724	3.61
257.105	3.74
257.486	4
257.867	2.72
258.247	4.87
258.628	2.82
259.009	4.06
259.389	3.58
259.77	4.39
260.15	4.14
260.531	3.32
260.911	3.68
261.292	3.65
261.672	3.51
262.052	3.67
262.432	3.81
262.813	3.62
263.193	3.4
263.573	4.8
263.953	3.27
264.333	4.26
264.713	3.52
265.093	4.05
265.473	4.47
265.853	3.73
266.233	3.68
266.612	3.67
266.992	4.28
267.372	3.87
267.752	3.11
268.131	3.75
268.511	3.92
268.89	3.97
269.27	3.13
269.649	3.1
270.029	3.04
270.408	3.44
270.787	3.95
271.167	3.13
271.546	4.17
271.925	3.71
272.304	3.53
272.683	3.38
273.062	3.68
273.441	3.39
273.82	3.5
274.199	3.77
274.578	3.56
274.957	3.14
275.336	4.01
275.715	3.59
276.093	4.19
276.472	3.92
276.851	3.64
277.229	3.56
277.608	3.84
277.986	3.51
278.365	4.12
278.743	3.74
279.122	3.23
279.5	2.91
279.878	3.63
280.257	4.23
280.635	3.51
281.013	3.85
281.391	3.07
281.769	4.23
282.147	3.16
282.525	3.2
282.903	3.22
283.281	3.73
283.659	3.41
284.037	3.34
284.415	3.63
284.792	3.75
285.17	3.29
285.548	3.46
285.925	3.2
286.303	3.43
286.68	3.35
287.058	3.54
287.435	3.59
287.813	3.48
288.19	3.52
288.567	3.54
288.945	3.16
289.322	3.36
289.699	3.4
290.076	3.41
290.453	2.98
290.83	3.81
291.207	3.46
291.584	3.1
291.961	3.58
292.338	3.62
292.715	3.46
293.092	3.18
293.469	3.61
293.845	3.86
294.222	3.81
294.599	3.72
294.975	3.46
295.352	3.27
295.728	3.59
296.105	3.73
296.481	3.31
296.858	3.9
297.234	3.68
297.61	3.4
297.986	3.33
298.363	3.49
298.739	3.63
299.115	3.4
299.491	3.81
299.867	3.36
300.243	3.22
300.619	3.63
300.995	3.37
301.371	2.98
301.746	3.34
302.122	3.16
302.498	3.13
302.874	4.1
303.249	3.59
303.625	3.3
304	3.24
304.376	3.57
304.751	4.43
305.127	3.82
305.502	3.88
305.878	4.15
306.253	3.79
306.628	3.41
307.003	3.46
307.378	3.53
307.754	3.95
308.129	4.03
308.504	3.63
308.879	3.78
309.254	3.09
309.629	3.7
310.003	3.87
310.378	3.43
310.753	3.37
311.128	3.8
311.502	3.58
311.877	3.75
312.252	3.52
312.626	3.63
313.001	3.57
313.375	3.61
313.75	3.87
314.124	3.79
314.498	3.93
314.873	3.66
315.247	3.63
315.621	3.07
315.995	3.93
316.369	3.45
316.743	3.68
317.117	3.47
317.491	4.03
317.865	3.52
318.239	4.01
318.613	3.76
318.987	3.72
319.361	3.35
319.734	3.4
320.108	3.54
320.482	3.36
320.855	3.72
321.229	3.5
321.602	3.34
321.976	3.25
322.349	4.04
322.723	3.85
323.096	4.19
323.469	3.49
323.843	3.75
324.216	3.02
324.589	3.92
324.962	2.89
325.335	3.93
325.708	3.43
326.081	3.85
326.454	3.46
326.827	3.47
327.2	3.3
327.573	4.13
327.945	3.61
328.318	4.13
328.691	3.97
329.063	3.76
329.436	3.75
329.809	3.82
330.181	3.8
330.553	3.8
330.926	3.28
331.298	3.83
331.671	3.85
332.043	4.27
332.415	4.17
332.787	3.85
333.159	4.05
333.532	3.28
333.904	3.46
334.276	3.91
334.648	3.57
335.02	3.61
335.391	3.6
335.763	3.72
336.135	3.78
336.507	3.76
336.879	3.37
337.25	2.99
337.622	3.82
337.993	3.5
338.365	3.69
338.736	4.04
339.108	3.46
339.479	4.09
339.851	3.24
340.222	3.68
340.593	3.35
340.964	3.9
341.336	3.5
341.707	3.58
342.078	3.38
342.449	3.73
342.82	3.9
343.191	4.23
343.562	3.78
343.933	3.47
344.303	3.75
344.674	3.97
345.045	3.59
345.416	3.71
345.786	4.04
346.157	3.45
346.527	4.06
346.898	3.77
347.268	3.71
347.639	3.98
348.009	3.6
348.38	3.46
348.75	4.15
349.12	3.47
349.49	3.72
349.861	3.56
350.231	3.68
350.601	4.23
350.971	3.93
351.341	3.72
351.711	3.28
352.081	3.38
352.45	3.66
352.82	3.59
353.19	3.59
353.56	4.04
353.929	4.1
354.299	3.86
354.669	3.75
355.038	3.8
355.408	3.72
355.777	4.04
356.147	3.74
356.516	3.87
356.885	3.49
357.254	3.77
357.624	3.84
357.993	3.82
358.362	3.8
358.731	3.79
359.1	3.65
359.469	3.63
359.838	3.85
360.207	3.98
360.576	3.74
360.945	3.5
361.314	3.75
361.682	3.79
362.051	3.67
362.42	3.59
362.788	3.61
363.157	3.65
363.525	3.7
363.894	3.82
364.262	3.41
364.631	3.76
364.999	3.78
365.367	4.14
365.735	4.06
366.104	3.5
366.472	3.76
366.84	3.67
367.208	3.87
367.576	3.99
367.944	4.33
368.312	3.96
368.68	3.99
369.048	3.52
369.416	3.78
369.783	3.49
370.151	4
370.519	4.15
370.886	3.86
371.254	3.49
371.621	3.76
371.989	3.77
372.356	3.65
372.724	4.21
373.091	3.94
373.458	3.96
373.826	3.9
374.193	3.8
374.56	3.85
374.927	3.86
375.294	3.94
375.661	4.23
376.028	3.88
376.395	4.11
376.762	3.63
377.129	4.01
377.496	4
377.863	3.77
378.229	4.12
378.596	3.77
378.963	3.89
379.329	3.8
379.696	3.94
380.062	3.76
380.429	3.62
380.795	3.61
381.161	4.37
381.528	3.94
381.894	3.88
382.26	3.83
382.626	3.96
382.993	3.94
383.359	3.79
383.725	3.98
384.091	3.85
384.457	3.89
384.823	3.78
385.188	3.89
385.554	4.16
385.92	3.81
386.286	3.9
386.651	3.84
387.017	3.68
387.383	3.9
387.748	3.87
388.114	3.96
388.479	4.15
388.845	3.75
389.21	3.81
389.575	4
389.94	4.21
390.306	3.82
390.671	3.58
391.036	3.97
391.401	3.67
391.766	3.86
392.131	3.58
392.496	3.96
392.861	3.69
393.226	3.82
393.591	3.87
393.956	4.06
394.32	4
394.685	4.16
395.05	4.3
395.414	4.06
395.779	3.84
396.143	3.88
396.508	3.88
396.872	4.01
397.236	3.72
397.601	3.97
397.965	3.92
398.329	3.89
398.694	3.84
399.058	3.76
399.422	3.95
399.786	3.86
400.15	3.77
400.514	3.81
400.878	3.96
401.242	3.99
401.605	3.94
401.969	3.88
402.333	3.99
402.697	3.9
403.06	3.85
403.424	3.74
403.787	3.87
404.151	3.88
404.514	3.9
404.878	4.03
405.241	3.92
405.604	3.87
405.968	4.02
406.331	3.82
406.694	3.98
407.057	3.86
407.42	3.95
407.783	3.96
408.146	4.1
408.509	3.95
408.872	4.18
409.235	3.96
409.598	3.96
409.961	3.9
410.323	4.2
410.686	4.13
411.049	4.07
411.411	4.02
411.774	4.01
412.136	3.96
412.499	3.9
412.861	3.95
413.223	3.9
413.586	3.8
413.948	3.87
414.31	4.06
414.672	4.07
415.035	4.04
415.397	3.98
415.759	4.1
416.121	4.14
416.483	3.96
416.845	3.98
417.206	4.07
417.568	3.98
417.93	4.04
418.292	3.78
418.653	3.96
419.015	3.93
419.377	4.05
419.738	4.02
420.1	4.1
420.461	3.92
420.822	3.92
421.184	3.93
421.545	3.88
421.906	4
422.267	3.99
422.629	3.93
422.99	3.93
423.351	3.93
423.712	3.9
424.073	3.94
424.434	3.97
424.795	4.09
425.155	4.04
425.516	3.98
425.877	3.92
426.238	3.95
426.598	4.01
426.959	4.02
427.32	4.04
427.68	3.99
428.041	4.08
428.401	3.89
428.761	4.02
429.122	4.04
429.482	4.2
429.842	4.05
430.202	4.04
430.563	3.99
430.923	4.01
431.283	4.19
431.643	4.24
432.003	4.23
432.363	4.24
432.722	4.05
433.082	4.07
433.442	4.19
433.802	4.22
434.161	4.07
434.521	4.21
434.881	3.99
435.24	4.15
435.6	4
435.959	4.08
436.319	3.97
436.678	3.99
437.037	4.06
437.396	3.92
437.756	4
438.115	4
438.474	4.02
438.833	4.03
439.192	4.01
439.551	4
439.91	4.24
440.269	4.09
440.628	4.07
440.987	4.15
441.345	4.18
441.704	4.02
442.063	4.19
442.421	3.98
442.78	4.04
443.138	4.13
443.497	4.02
443.855	4.08
444.214	4.07
444.572	4.06
444.93	4.08
445.288	4.33
445.647	4.18
446.005	4.1
446.363	4.16
446.721	4.09
447.079	4.08
447.437	4.12
447.795	4.08
448.153	4.08
448.51	4.15
448.868	4.07
449.226	4.13
449.584	4.08
449.941	4.04
450.299	4.14
450.656	4.18
451.014	4.27
451.371	4
451.729	4.06
452.086	4.18
452.443	4.32
452.801	4.21
453.158	4.14
453.515	4.14
453.872	4.07
454.229	4.14
454.586	4.23
454.943	4.19
455.3	4.13
455.657	4.25
456.014	4.15
456.371	4.12
456.727	4.33
457.084	4.16
457.441	4.13
457.797	4.04
458.154	4.19
458.51	4.22
458.867	4.22
459.223	4.19
459.58	4.35
459.936	4.32
460.292	4.21
460.648	4.25
461.005	4.25
461.361	4.21
461.717	4.07
462.073	4.17
462.429	4.15
462.785	4
463.141	4.27
463.496	4.14
463.852	4.16
464.208	4.32
464.564	4.34
464.919	4.18
465.275	4.28
465.631	4.18
465.986	4.13
466.342	4.39
466.697	4.33
467.052	4.41
467.408	4.27
467.763	4.35
468.118	4.37
468.473	4.28
468.829	4.28
469.184	4.4
469.539	4.43
469.894	4.37
470.249	4.33
470.603	4.19
470.958	4.29
471.313	4.4
471.668	4.39
472.023	4.49
472.377	4.38
472.732	4.42
473.086	4.29
473.441	4.24
473.795	4.38
474.15	4.35
474.504	4.52
474.859	4.37
475.213	4.37
475.567	4.5
475.921	4.35
476.275	4.45
476.63	4.3
476.984	4.55
477.338	4.33
477.692	4.37
478.045	4.34
478.399	4.22
478.753	4.4
479.107	4.21
479.461	4.39
479.814	4.42
480.168	4.35
480.521	4.41
480.875	4.47
481.228	4.44
481.582	4.34
481.935	4.39
482.289	4.44
482.642	4.42
482.995	4.42
483.348	4.29
483.701	4.4
484.055	4.32
484.408	4.32
484.761	4.23
485.114	4.2
485.466	4.12
485.819	4.14
486.172	4.12
486.525	4.1
486.878	4.18
487.23	4.22
487.583	4.25
487.936	4.28
488.288	4.24
488.641	4.29
488.993	4.28
489.345	4.21
489.698	4.24
490.05	4.16
490.402	4.22
490.754	4.28
491.107	4.27
491.459	4.37
491.811	4.37
492.163	4.37
492.515	4.34
492.866	4.33
493.218	4.22
493.57	4.28
493.922	4.28
494.274	4.32
494.625	4.26
494.977	4.28
495.328	4.4
495.68	4.46
496.031	4.37
496.383	4.49
496.734	4.41
497.086	4.48
497.437	4.51
497.788	4.6
498.139	4.45
498.49	4.48
498.842	4.62
499.193	4.55
499.544	4.55
499.894	4.64
500.245	4.52
500.596	4.55
500.947	4.46
501.298	4.64
501.648	4.58
501.999	4.51
502.35	4.56
502.7	4.54
503.051	4.54
503.401	4.47
503.752	4.5
504.102	4.52
504.452	4.61
504.803	4.61
505.153	4.54
505.503	4.61
505.853	4.62
506.203	4.56
506.553	4.62
506.903	4.65
507.253	4.65
507.603	4.57
507.953	4.69
508.303	4.68
508.652	4.54
509.002	4.52
509.352	4.69
509.701	4.72
510.051	4.65
510.4	4.6
510.75	4.57
511.099	4.68
511.449	4.71
511.798	4.59
512.147	4.68
512.496	4.69
512.846	4.64
513.195	4.69
513.544	4.68
513.893	4.64
514.242	4.82
514.591	4.73
514.939	4.75
515.288	4.73
515.637	4.71
515.986	4.78
516.334	4.67
516.683	4.81
517.032	4.69
517.38	4.84
517.729	4.87
518.077	4.66
518.426	4.83
518.774	4.64
519.122	4.72
519.47	4.62
519.819	4.76
520.167	4.71
520.515	4.73
520.863	4.74
521.211	4.74
521.559	4.73
521.907	4.77
522.255	4.83
522.602	4.83
522.95	4.79
523.298	4.79
523.645	4.79
523.993	4.95
524.341	4.8
524.688	4.97
525.036	4.95
525.383	4.84
525.73	4.83
526.078	4.76
526.425	4.75
526.772	4.84
527.119	4.92
527.466	4.85
527.814	4.79
528.161	4.85
528.508	4.76
528.854	4.87
529.201	4.84
529.548	4.83
529.895	4.79
530.242	4.78
530.588	4.71
530.935	4.7
531.282	4.78
531.628	4.68
531.975	4.76
532.321	4.81
532.667	4.88
533.014	4.94
533.36	4.85
533.706	4.9
534.052	4.94
534.399	4.89
534.745	4.87
535.091	4.83
535.437	4.89
535.783	4.85
536.129	4.89
536.474	4.95
536.82	4.93
537.166	5
537.512	5.04
537.857	5.06
538.203	5.05
538.549	5.01
538.894	5.04
539.239	5.06
539.585	5.06
539.93	5.15
540.276	5.08
540.621	5.14
540.966	5.2
541.311	5.08
541.656	4.99
542.001	5.2
542.346	5.18
542.691	5.05
543.036	5.04
543.381	5.01
543.726	5.04
544.071	5.02
544.415	5.07
544.76	5.04
545.105	5.17
545.449	5.14
545.794	5.12
546.138	5.24
546.483	5.2
546.827	5.26
547.171	5.25
547.516	5.15
547.86	5.26
548.204	5.23
548.548	5.26
548.892	5.34
549.236	5.35
549.58	5.37
549.924	5.37
550.268	5.42
550.612	5.27
550.956	5.35
551.3	5.5
551.643	5.44
551.987	5.5
552.33	5.47
552.674	5.4
553.017	5.57
553.361	5.44
553.704	5.53
554.048	5.45
554.391	5.51
554.734	5.63
555.077	5.59
555.42	5.56
555.764	5.47
556.107	5.61
556.45	5.54
556.793	5.58
557.135	5.61
557.478	5.53
557.821	5.66
558.164	5.66
558.507	5.7
558.849	5.63
559.192	5.62
559.534	5.88
559.877	5.89
560.219	5.86
560.562	5.89
560.904	5.56
561.246	5.57
561.589	5.85
561.931	5.67
562.273	5.86
562.615	5.73
562.957	5.91
563.299	5.81
563.641	5.84
563.983	5.86
564.325	5.84
564.667	5.75
565.008	5.8
565.35	5.92
565.692	5.78
566.033	5.86
566.375	5.8
566.716	5.94
567.058	5.8
567.399	5.85
567.741	5.97
568.082	5.88
568.423	5.96
568.764	6.04
569.105	5.96
569.447	5.89
569.788	5.87
570.129	6.2
570.47	5.85
570.811	6.1
571.151	6.06
571.492	6.19
571.833	6.11
572.174	6.06
572.514	6.16
572.855	6.09
573.195	6.2
573.536	6.15
573.876	6.32
574.217	6.12
574.557	6.08
574.898	6.29
575.238	6.24
575.578	6.28
575.918	6.24
576.258	6.4
576.598	6.33
576.938	6.22
577.278	6.36
577.618	6.35
577.958	6.36
578.298	6.42
578.638	6.19
578.977	6.19
579.317	6.37
579.657	6.45
579.996	6.42
580.336	6.6
580.675	6.42
581.014	6.56
581.354	6.69
581.693	6.45
582.032	6.73
582.372	6.57
582.711	6.59
583.05	6.5
583.389	6.82
583.728	6.75
584.067	6.57
584.406	6.46
584.745	6.64
585.083	6.74
585.422	6.81
585.761	7.03
586.1	6.68
586.438	6.66
586.777	6.86
587.115	6.74
587.454	6.91
587.792	6.84
588.13	6.99
588.469	6.85
588.807	6.88
589.145	7.02
589.483	6.92
589.821	6.83
590.159	6.94
590.497	7.21
590.835	6.95
591.173	6.99
591.511	7.08
591.849	6.85
592.187	6.79
592.524	6.9
592.862	6.99
593.2	7.25
593.537	6.82
593.875	7.06
594.212	7.13
594.55	7.13
594.887	7.21
595.224	7.14
595.561	7.31
595.899	7.34
596.236	7.3
596.573	7.12
596.91	7.18
597.247	7.22
597.584	7.29
597.921	7.17
598.258	7.45
598.594	7.15
598.931	7.24
599.268	7.24
599.604	7.4
599.941	7.38
600.277	7.39
600.614	7.45
600.95	7.59
601.287	7.42
601.623	7.43
601.959	7.26
602.296	7.49
602.632	7.43
602.968	7.58
603.304	7.66
603.64	7.42
603.976	7.68
604.312	7.39
604.648	7.23
604.984	7.69
605.319	7.71
605.655	7.76
605.991	7.6
606.326	7.62
606.662	7.66
606.998	7.73
607.333	7.74
607.668	7.63
608.004	7.74
608.339	7.97
608.674	7.93
609.01	7.52
609.345	7.68
609.68	7.99
610.015	8.21
610.35	7.9
610.685	7.91
611.02	7.92
611.355	8.07
611.689	8.04
612.024	7.93
612.359	7.84
612.694	8.07
613.028	7.96
613.363	8.13
613.697	7.94
614.032	8.02
614.366	7.92
614.7	8.13
615.035	8.23
615.369	8.19
615.703	8.15
616.037	8.32
616.371	8.19
616.705	8.49
617.039	8.32
617.373	8.35
617.707	8.4
618.041	8.4
618.375	8.76
618.709	8.37
619.042	8.21
619.376	8.43
619.71	8.7
620.043	8.61
620.377	8.18
620.71	8.22
621.043	8.61
621.377	8.38
621.71	8.78
622.043	8.43
622.376	8.66
622.709	8.57
623.043	8.8
623.376	8.89
623.709	8.47
624.041	8.66
624.374	8.61
624.707	8.55
625.04	8.77
625.373	8.75
625.705	8.83
626.038	8.67
626.37	8.86
626.703	8.97
627.035	8.9
627.368	8.82
627.7	8.94
628.032	8.77
628.365	9.13
628.697	9.27
629.029	9.08
629.361	9.04
629.693	9.17
630.025	8.96
630.357	8.73
630.689	9.12
631.021	8.89
631.353	9.19
631.684	9.11
632.016	9.12
632.348	9.45
632.679	9.32
633.011	9.13
633.342	9.17
633.674	9.2
634.005	9.57
634.336	9.13
634.668	9.06
634.999	9.13
635.33	9.26
635.661	9.65
635.992	9.59
636.323	9.5
636.654	9.67
636.985	9.39
637.316	9.75
637.647	9.74
637.977	9.34
638.308	9.45
638.639	9.69
638.969	9.78
639.3	9.55
639.63	9.82
639.961	9.47
640.291	9.84
640.622	9.51
640.952	9.58
641.282	9.6
641.612	10.01
641.943	9.79
642.273	10.13
642.603	9.82
642.933	9.41
643.263	9.51
643.592	10.46
643.922	9.86
644.252	9.89
644.582	9.82
644.911	10.23
645.241	10.2
645.571	10.14
645.9	10.3
646.23	9.97
646.559	10.02
646.888	10.34
647.218	10.19
647.547	10.46
647.876	10.24
648.205	9.94
648.534	10.03
648.863	10.17
649.192	10.26
649.521	10.25
649.85	9.74
650.179	10.13
650.508	10.43
650.837	10.89
651.165	10.17
651.494	10.46
651.822	10.31
652.151	10.27
652.479	10.73
652.808	10.53
653.136	10.38
653.465	10.85
653.793	10.54
654.121	10.63
654.449	10.61
654.777	10.24
655.105	10.77
655.433	10.41
655.761	10.86
656.089	10.45
656.417	10.86
656.745	10.77
657.073	10.89
657.4	10.64
657.728	11.05
658.056	10.54
658.383	11.04
658.711	11.16
659.038	11.1
659.365	10.57
659.693	11.01
660.02	11.3
660.347	11.43
660.674	10.6
661.001	11.02
661.329	10.83
661.656	11.13
661.982	11.14
662.309	11.07
662.636	11.02
662.963	10.99
663.29	11.31
663.616	10.99
663.943	11.19
664.27	11.44
664.596	11.32
664.923	11.51
665.249	11.26
665.576	11.13
665.902	10.84
666.228	11.11
666.554	10.98
666.881	11.14
667.207	10.84
667.533	11.72
667.859	11.54
668.185	11.12
668.511	12.13
668.837	11.53
669.162	11.75
669.488	11.55
669.814	11.83
670.139	11.42
670.465	11.18
670.791	11.45
671.116	11.41
671.442	11.4
671.767	11.82
672.092	11.75
672.418	11.56
672.743	11.82
673.068	11.98
673.393	11.36
673.718	12.17
674.043	11.93
674.368	11.75
674.693	12.41
675.018	12.08
675.343	12.08
675.667	12.07
675.992	11.74
676.317	12.16
676.641	12.03
676.966	12.06
677.29	11.84
677.615	12.08
677.939	12.44
678.264	12.14
678.588	12.8
678.912	12.63
679.236	12.43
679.56	12.78
679.885	12.81
680.209	12.54
680.532	12
680.856	12.65
681.18	12.75
681.504	12.14
681.828	12.03
682.152	12.76
682.475	12.46
682.799	12.34
683.122	12.3
683.446	12.57
683.769	12.79
684.093	12.35
684.416	13.27
684.739	13.04
685.062	12.69
685.386	12.6
685.709	12.38
686.032	12.69
686.355	12.82
686.678	13.06
687.001	13.43
687.324	12.88
687.646	12.83
687.969	12.76
688.292	12.93
688.614	12.97
688.937	13.23
689.26	12.67
689.582	12.77
