Data from 1610-3_forehead_Reflection__1__137.txt Node

Date: Fri Nov 11 17:10:10 CST 2022
User: ToomeyLab
Spectrometer: FLMS14357
Trigger mode: 0
Integration Time (sec): 1.000000E-2
Scans to average: 100
Electric dark correction enabled: true
Nonlinearity correction enabled: false
Boxcar width: 0
XAxis mode: Wavelengths
Number of Pixels in Spectrum: 2048
>>>>>Begin Spectral Data<<<<<
189.047	61.16
189.435	61.16
189.823	61.16
190.211	-153.69
190.599	97.32
190.987	-729.14
191.375	797.38
191.763	-44.08
192.151	-195.16
192.538	-29.38
192.926	13.8
193.314	15.08
193.702	31.03
194.089	-747
194.477	-1856.88
194.864	167.1
195.252	166.36
195.639	-10.63
196.027	-33.75
196.414	168.89
196.801	-43.95
197.189	27.82
197.576	-346.92
197.963	-12.18
198.351	19.94
198.738	2.5
199.125	9.48
199.512	10.87
199.899	33.99
200.286	46.56
200.673	39.31
201.06	-5.99
201.447	13.67
201.833	15.41
202.22	6.71
202.607	32.82
202.994	27.75
203.38	5.59
203.767	16.15
204.154	7.5
204.54	49.04
204.927	10.47
205.313	38.27
205.699	10.23
206.086	18.26
206.472	28.95
206.858	64.27
207.245	17.54
207.631	35.41
208.017	26.58
208.403	32.82
208.789	-21.93
209.175	24.81
209.561	17.04
209.947	14.18
210.333	14.1
210.719	20.64
211.105	39.13
211.491	-87
211.876	3.63
212.262	-38.08
212.648	-8.99
213.034	21.66
213.419	0.91
213.805	19.29
214.19	-17.78
214.576	42.83
214.961	45.4
215.346	-34.91
215.732	9.79
216.117	22.74
216.502	23.73
216.888	11.25
217.273	-18.6
217.658	2.62
218.043	24.45
218.428	-7.5
218.813	33.09
219.198	-17.46
219.583	13.27
219.968	32.41
220.353	12.57
220.738	-5.71
221.122	-9.58
221.507	23.89
221.892	2.62
222.276	5.77
222.661	12.81
223.046	14.91
223.43	7.15
223.815	11.52
224.199	20.07
224.583	-3.25
224.968	21.21
225.352	0.28
225.736	4.65
226.121	9.26
226.505	11.04
226.889	8.11
227.273	5.82
227.657	-4.21
228.041	5.26
228.425	10.08
228.809	10.28
229.193	0.62
229.577	6.43
229.961	4.02
230.344	3.69
230.728	4.13
231.112	4.18
231.495	3.79
231.879	2.97
232.263	2.06
232.646	2.74
233.03	1.83
233.413	1.44
233.797	2.52
234.18	4.99
234.563	4.03
234.946	2.94
235.33	4.08
235.713	3.57
236.096	2.02
236.479	4.17
236.862	3.68
237.245	3.76
237.628	4.9
238.011	4.43
238.394	4.84
238.777	3.28
239.16	3.68
239.543	3.88
239.925	6.52
240.308	3.79
240.691	2.6
241.073	3.18
241.456	2.63
241.838	3.91
242.221	3.44
242.603	3.23
242.986	3.16
243.368	3.09
243.75	3.15
244.133	3.15
244.515	3.26
244.897	2.92
245.279	3.38
245.661	3.12
246.043	3.61
246.425	3.41
246.807	3.4
247.189	3.07
247.571	2.86
247.953	3.66
248.335	3.51
248.717	3.17
249.098	3.23
249.48	3.36
249.862	2.84
250.243	3.36
250.625	2.94
251.006	3.65
251.388	3.14
251.769	4.11
252.151	3.74
252.532	4.36
252.913	2.85
253.295	3.53
253.676	3.57
254.057	3.26
254.438	3.79
254.819	3.46
255.2	3.73
255.581	3.86
255.962	2.87
256.343	3.9
256.724	2.88
257.105	2.99
257.486	3.94
257.867	2.9
258.247	3.56
258.628	3.24
259.009	3.9
259.389	3.25
259.77	4.09
260.15	3.52
260.531	3.01
260.911	3.04
261.292	3.15
261.672	2.97
262.052	3.25
262.432	3.51
262.813	3.48
263.193	3.1
263.573	4.27
263.953	3.23
264.333	3.55
264.713	3.18
265.093	3.93
265.473	3.62
265.853	3.24
266.233	3.09
266.612	3.19
266.992	3.09
267.372	3.41
267.752	3.21
268.131	3.56
268.511	3.86
268.89	3.37
269.27	3.12
269.649	2.66
270.029	2.64
270.408	2.81
270.787	3.93
271.167	3.41
271.546	3.62
271.925	3.49
272.304	3.6
272.683	3.02
273.062	3.54
273.441	2.93
273.82	2.73
274.199	3.51
274.578	3.58
274.957	2.7
275.336	3.23
275.715	2.86
276.093	3.68
276.472	3.2
276.851	3.06
277.229	3.21
277.608	3.5
277.986	3.22
278.365	4.04
278.743	3.36
279.122	2.87
279.5	3.21
279.878	2.85
280.257	3.54
280.635	2.65
281.013	2.79
281.391	2.76
281.769	3.95
282.147	3.28
282.525	3.05
282.903	3.54
283.281	3.13
283.659	2.74
284.037	3.06
284.415	2.88
284.792	3.12
285.17	3.14
285.548	3.19
285.925	3.04
286.303	2.97
286.68	3.1
287.058	2.95
287.435	3.35
287.813	3.23
288.19	3.52
288.567	3.09
288.945	2.29
289.322	2.87
289.699	3.26
290.076	2.91
290.453	3.24
290.83	3.61
291.207	3.01
291.584	3.17
291.961	3.34
292.338	3.54
292.715	3.06
293.092	3.19
293.469	3.74
293.845	3.63
294.222	3.67
294.599	3.8
294.975	3.4
295.352	3.3
295.728	3.28
296.105	3.38
296.481	3.6
296.858	3.32
297.234	3.63
297.61	3.81
297.986	3.02
298.363	3.49
298.739	3.76
299.115	3.48
299.491	3.78
299.867	3.41
300.243	3.66
300.619	3.79
300.995	3.8
301.371	3.62
301.746	3.96
302.122	4.03
302.498	3.45
302.874	4.2
303.249	3.78
303.625	4.01
304	3.91
304.376	4.37
304.751	5.09
305.127	4.73
305.502	4.77
305.878	4.76
306.253	4.57
306.628	4.31
307.003	4.52
307.378	4.8
307.754	4.97
308.129	4.94
308.504	4.98
308.879	4.5
309.254	4.31
309.629	4.38
310.003	4.54
310.378	4.01
310.753	4.59
311.128	4.84
311.502	4.89
311.877	5.15
312.252	4.86
312.626	4.86
313.001	5.1
313.375	5.13
313.75	5.37
314.124	5.41
314.498	5.71
314.873	5.58
315.247	5.77
315.621	5.3
315.995	5.38
316.369	5.74
316.743	5.77
317.117	5.41
317.491	6.02
317.865	5.65
318.239	5.97
318.613	5.74
318.987	5.96
319.361	6.05
319.734	5.52
320.108	5.87
320.482	5.85
320.855	5.71
321.229	6.8
321.602	5.91
321.976	5.83
322.349	6.26
322.723	6.46
323.096	7.03
323.469	6.64
323.843	6.66
324.216	6.38
324.589	6.3
324.962	5.9
325.335	6.85
325.708	6.56
326.081	6.32
326.454	6.32
326.827	7.11
327.2	6.5
327.573	6.86
327.945	7.04
328.318	7
328.691	7.22
329.063	7.33
329.436	7.22
329.809	6.56
330.181	7.62
330.553	7.66
330.926	7.17
331.298	7.39
331.671	7.3
332.043	7.67
332.415	7.31
332.787	7.31
333.159	7.34
333.532	7.41
333.904	7.31
334.276	7.39
334.648	7.48
335.02	7.72
335.391	7.86
335.763	7.39
336.135	7.94
336.507	8.06
336.879	7.73
337.25	7.6
337.622	7.91
337.993	8
338.365	8.13
338.736	8.05
339.108	7.73
339.479	8.57
339.851	7.99
340.222	8
340.593	7.91
340.964	8.31
341.336	8.41
341.707	8.33
342.078	8.23
342.449	8.59
342.82	8.39
343.191	8.98
343.562	8.81
343.933	8.45
344.303	8.83
344.674	8.76
345.045	8.42
345.416	8.49
345.786	8.79
346.157	8.34
346.527	8.74
346.898	8.62
347.268	8.72
347.639	9.02
348.009	8.84
348.38	8.9
348.75	9.26
349.12	9.09
349.49	9.22
349.861	8.93
350.231	9.13
350.601	9.38
350.971	9.71
351.341	9.47
351.711	9.09
352.081	9.04
352.45	9.58
352.82	9.24
353.19	9.04
353.56	9.52
353.929	9.79
354.299	9.75
354.669	9.59
355.038	9.35
355.408	9.34
355.777	9.75
356.147	9.84
356.516	9.91
356.885	9.38
357.254	9.56
357.624	10.27
357.993	9.89
358.362	9.81
358.731	9.75
359.1	9.65
359.469	9.99
359.838	10.21
360.207	10.4
360.576	10.2
360.945	9.99
361.314	10.13
361.682	10.08
362.051	10.24
362.42	9.97
362.788	10.23
363.157	10.51
363.525	10.68
363.894	10.41
364.262	10.13
364.631	10.41
364.999	10.65
365.367	10.69
365.735	10.59
366.104	10.5
366.472	10.57
366.84	10.63
367.208	10.47
367.576	10.88
367.944	11.02
368.312	10.65
368.68	10.84
369.048	10.82
369.416	11
369.783	10.88
370.151	11.16
370.519	11.54
370.886	11.05
371.254	11.04
371.621	11.16
371.989	11.12
372.356	11.23
372.724	11.39
373.091	11.08
373.458	11.06
373.826	11.66
374.193	11.67
374.56	11.47
374.927	11.42
375.294	11.44
375.661	11.97
376.028	11.85
376.395	11.9
376.762	11.92
377.129	11.82
377.496	11.77
377.863	11.89
378.229	11.67
378.596	11.64
378.963	11.94
379.329	11.76
379.696	12.02
380.062	11.97
380.429	11.88
380.795	12.05
381.161	12.16
381.528	12.2
381.894	12.5
382.26	12.02
382.626	12.39
382.993	12.27
383.359	12.27
383.725	12.76
384.091	12.25
384.457	12.44
384.823	12.6
385.188	12.76
385.554	12.32
385.92	12.67
386.286	12.38
386.651	12.58
387.017	12.78
387.383	12.55
387.748	12.68
388.114	12.73
388.479	12.65
388.845	12.66
389.21	12.7
389.575	12.89
389.94	12.98
390.306	13.09
390.671	13
391.036	13.14
391.401	12.97
391.766	13.34
392.131	12.7
392.496	13.3
392.861	13.23
393.226	13.27
393.591	12.83
393.956	13.28
394.32	13.32
394.685	13.12
395.05	13.48
395.414	13.37
395.779	13.24
396.143	13.45
396.508	13.34
396.872	13.75
397.236	13.43
397.601	13.53
397.965	13.64
398.329	13.71
398.694	13.61
399.058	13.78
399.422	13.94
399.786	14.02
400.15	13.47
400.514	13.77
400.878	13.81
401.242	13.91
401.605	13.85
401.969	14.18
402.333	14.09
402.697	14.14
403.06	14.02
403.424	13.65
403.787	14.14
404.151	13.99
404.514	14.31
404.878	14.23
405.241	14.25
405.604	13.97
405.968	14.09
406.331	14.08
406.694	14.35
407.057	14.29
407.42	14.25
407.783	14.14
408.146	14.5
408.509	14.38
408.872	14.57
409.235	14.64
409.598	14.57
409.961	14.69
410.323	14.57
410.686	14.67
411.049	14.61
411.411	14.51
411.774	14.68
412.136	14.64
412.499	14.71
412.861	14.55
413.223	14.55
413.586	14.52
413.948	14.61
414.31	14.81
414.672	15
415.035	14.74
415.397	14.91
415.759	14.98
416.121	15.22
416.483	15.17
416.845	14.91
417.206	15.07
417.568	15.02
417.93	15.17
418.292	14.94
418.653	15.19
419.015	14.93
419.377	15.17
419.738	15.12
420.1	15.09
420.461	15.01
420.822	15.02
421.184	14.99
421.545	15.16
421.906	15.03
422.267	15.25
422.629	15.19
422.99	15.16
423.351	15.18
423.712	15.19
424.073	15.3
424.434	15.25
424.795	15.57
425.155	15.48
425.516	15.4
425.877	15.53
426.238	15.41
426.598	15.55
426.959	15.56
427.32	15.69
427.68	15.66
428.041	15.99
428.401	15.78
428.761	15.94
429.122	16.11
429.482	16.15
429.842	16.37
430.202	16.37
430.563	16.14
430.923	16.16
431.283	16.39
431.643	16.55
432.003	16.44
432.363	16.39
432.722	16.37
433.082	16.42
433.442	16.48
433.802	16.52
434.161	16.72
434.521	16.65
434.881	16.44
435.24	16.69
435.6	16.49
435.959	16.51
436.319	16.61
436.678	16.87
437.037	16.81
437.396	16.77
437.756	16.77
438.115	16.82
438.474	16.73
438.833	16.77
439.192	17.08
439.551	16.99
439.91	16.98
440.269	16.98
440.628	17.16
440.987	17.13
441.345	17.09
441.704	17.14
442.063	17.14
442.421	17
442.78	16.96
443.138	17.14
443.497	17.09
443.855	17.27
444.214	17.3
444.572	17.49
444.93	17.45
445.288	17.66
445.647	17.5
446.005	17.65
446.363	17.51
446.721	17.41
447.079	17.38
447.437	17.56
447.795	17.32
448.153	17.4
448.51	17.51
448.868	17.46
449.226	17.46
449.584	17.62
449.941	17.64
450.299	17.75
450.656	17.92
451.014	17.97
451.371	17.97
451.729	18.01
452.086	18.08
452.443	18.32
452.801	18.26
453.158	18.27
453.515	18.42
453.872	18.07
454.229	18.32
454.586	18.34
454.943	18.34
455.3	18.26
455.657	18.52
456.014	18.31
456.371	18.49
456.727	18.55
457.084	18.59
457.441	18.65
457.797	18.58
458.154	18.61
458.51	18.65
458.867	18.98
459.223	18.75
459.58	18.87
459.936	18.96
460.292	18.63
460.648	18.67
461.005	18.8
461.361	18.64
461.717	18.46
462.073	18.58
462.429	18.8
462.785	18.83
463.141	18.99
463.496	19
463.852	19.15
464.208	19.18
464.564	19.36
464.919	19.34
465.275	19.43
465.631	19.28
465.986	19.37
466.342	19.48
466.697	19.49
467.052	19.47
467.408	19.47
467.763	19.57
468.118	19.78
468.473	19.47
468.829	19.69
469.184	19.68
469.539	19.59
469.894	19.56
470.249	19.66
470.603	19.67
470.958	20.07
471.313	19.98
471.668	19.95
472.023	20.08
472.377	20.16
472.732	20.12
473.086	20.03
473.441	20
473.795	20.27
474.15	20.21
474.504	20.29
474.859	20.08
475.213	20.09
475.567	20.33
475.921	20.38
476.275	20.42
476.63	20.42
476.984	20.57
477.338	20.49
477.692	20.46
478.045	20.45
478.399	20.38
478.753	20.38
479.107	20.43
479.461	20.5
479.814	20.52
480.168	20.69
480.521	20.55
480.875	20.57
481.228	20.64
481.582	20.6
481.935	20.7
482.289	20.67
482.642	20.65
482.995	20.53
483.348	20.37
483.701	20.58
484.055	20.48
484.408	20.25
484.761	20.04
485.114	19.8
485.466	19.67
485.819	19.72
486.172	19.91
486.525	20.06
486.878	20.18
487.23	20.43
487.583	20.54
487.936	20.57
488.288	20.43
488.641	20.26
488.993	20.12
489.345	20.07
489.698	20.27
490.05	20.25
490.402	20.45
490.754	20.73
491.107	20.8
491.459	20.91
491.811	21.04
492.163	21.07
492.515	21.03
492.866	20.78
493.218	20.45
493.57	20.52
493.922	20.71
494.274	20.95
494.625	21.06
494.977	21.37
495.328	21.46
495.68	21.63
496.031	21.79
496.383	21.81
496.734	21.89
497.086	21.71
497.437	21.85
497.788	21.9
498.139	21.65
498.49	21.69
498.842	21.75
499.193	21.79
499.544	21.87
499.894	21.93
500.245	21.89
500.596	22.01
500.947	22.16
501.298	22.3
501.648	22.38
501.999	22.34
502.35	22.21
502.7	22.46
503.051	22.31
503.401	22.54
503.752	22.58
504.102	22.49
504.452	22.65
504.803	22.55
505.153	22.55
505.503	22.62
505.853	22.49
506.203	22.72
506.553	22.8
506.903	22.72
507.253	22.68
507.603	22.94
507.953	22.96
508.303	22.86
508.652	22.68
509.002	22.78
509.352	22.87
509.701	22.91
510.051	22.65
510.4	22.69
510.75	22.78
511.099	22.76
511.449	22.67
511.798	22.84
512.147	22.91
512.496	22.97
512.846	22.97
513.195	22.91
513.544	23
513.893	22.93
514.242	23.02
514.591	23.11
514.939	23.28
515.288	23.3
515.637	23.17
515.986	23.31
516.334	23.35
516.683	23.56
517.032	23.42
517.38	23.57
517.729	23.43
518.077	23.39
518.426	23.6
518.774	23.42
519.122	23.46
519.47	23.23
519.819	23.22
520.167	23.15
520.515	23.1
520.863	23.28
521.211	23.36
521.559	23.33
521.907	23.53
522.255	23.69
522.602	23.66
522.95	23.89
523.298	23.81
523.645	23.81
523.993	24.03
524.341	23.96
524.688	24.05
525.036	23.93
525.383	23.94
525.73	24.03
526.078	23.97
526.425	23.91
526.772	23.8
527.119	23.69
527.466	23.43
527.814	23.62
528.161	23.64
528.508	23.78
528.854	23.83
529.201	23.67
529.548	23.47
529.895	23.22
530.242	23.04
530.588	23.11
530.935	23.29
531.282	23.5
531.628	23.51
531.975	23.7
532.321	23.82
532.667	24.08
533.014	24.2
533.36	24.11
533.706	24.06
534.052	24.09
534.399	24.09
534.745	23.7
535.091	23.68
535.437	23.78
535.783	23.96
536.129	24.1
536.474	24.27
536.82	24.4
537.166	24.54
537.512	24.48
537.857	24.55
538.203	24.33
538.549	24.3
538.894	24.34
539.239	24.55
539.585	24.77
539.93	24.96
540.276	25.14
540.621	24.99
540.966	24.97
541.311	25.06
541.656	25
542.001	24.91
542.346	24.64
542.691	24.36
543.036	24.13
543.381	24.27
543.726	24.4
544.071	24.52
544.415	24.61
544.76	24.69
545.105	24.98
545.449	24.91
545.794	25.09
546.138	25.17
546.483	25.25
546.827	25.29
547.171	25.25
547.516	25.27
547.86	25.25
548.204	25.31
548.548	25.37
548.892	25.45
549.236	25.47
549.58	25.56
549.924	25.63
550.268	25.84
550.612	25.94
550.956	25.96
551.3	26.37
551.643	26.29
551.987	26.16
552.33	26.17
552.674	26.18
553.017	26.2
553.361	26.22
553.704	26.33
554.048	26.08
554.391	26.13
554.734	26.15
555.077	26.17
555.42	26.17
555.764	26.26
556.107	26.5
556.45	26.43
556.793	26.72
557.135	26.54
557.478	26.44
557.821	26.71
558.164	26.71
558.507	26.81
558.849	26.67
559.192	26.79
559.534	26.97
559.877	27.11
560.219	26.84
560.562	26.97
560.904	26.74
561.246	26.82
561.589	27.08
561.931	26.98
562.273	27.02
562.615	27.07
562.957	27.13
563.299	27.16
563.641	27.14
563.983	26.93
564.325	27.08
564.667	27.09
565.008	27.53
565.35	27.3
565.692	27.1
566.033	27.29
566.375	27.45
566.716	27.27
567.058	27.14
567.399	27.16
567.741	27.25
568.082	27
568.423	27.12
568.764	27.16
569.105	27.18
569.447	27.37
569.788	27.42
570.129	27.58
570.47	27.29
570.811	27.52
571.151	27.41
571.492	27.44
571.833	27.76
572.174	27.61
572.514	27.66
572.855	27.38
573.195	27.41
573.536	27.45
573.876	27.49
574.217	27.41
574.557	27.49
574.898	27.55
575.238	27.7
575.578	27.71
575.918	27.72
576.258	27.85
576.598	27.92
576.938	27.77
577.278	27.92
577.618	27.89
577.958	27.91
578.298	27.82
578.638	28.07
578.977	27.79
579.317	27.99
579.657	27.99
579.996	28.28
580.336	28.37
580.675	28.27
581.014	28.24
581.354	28.57
581.693	28.19
582.032	28.36
582.372	28.61
582.711	28.68
583.05	28.61
583.389	28.86
583.728	28.47
584.067	28.73
584.406	28.83
584.745	28.65
585.083	29.08
585.422	28.68
585.761	28.96
586.1	28.88
586.438	28.71
586.777	29
587.115	28.87
587.454	28.84
587.792	29.08
588.13	29.01
588.469	28.85
588.807	28.93
589.145	29.16
589.483	28.93
589.821	28.98
590.159	28.89
590.497	29.3
590.835	29.06
591.173	28.88
591.511	29.16
591.849	29.33
592.187	29.32
592.524	29.47
592.862	29.51
593.2	29.35
593.537	29.05
593.875	29.38
594.212	29.31
594.55	29.41
594.887	29.36
595.224	29.25
595.561	29.63
595.899	29.37
596.236	29.23
596.573	29.43
596.91	29.52
597.247	29.18
597.584	29.2
597.921	29.29
598.258	29.43
598.594	29.26
598.931	29.2
599.268	29.15
599.604	29.52
599.941	29.55
600.277	29.44
600.614	29.59
600.95	29.8
601.287	29.87
601.623	29.86
601.959	30.11
602.296	29.79
602.632	29.79
602.968	29.7
603.304	30.15
603.64	29.89
603.976	30.04
604.312	29.73
604.648	29.65
604.984	29.73
605.319	29.82
605.655	29.58
605.991	29.62
606.326	29.67
606.662	29.52
606.998	29.59
607.333	29.84
607.668	29.86
608.004	30.14
608.339	30.25
608.674	30.24
609.01	30.15
609.345	30.09
609.68	30.22
610.015	30.29
610.35	30.37
610.685	30.17
611.02	30.21
611.355	29.94
611.689	29.9
612.024	30.36
612.359	29.96
612.694	30.44
613.028	30.62
613.363	30.7
613.697	30.48
614.032	30.4
614.366	30.51
614.7	30.71
615.035	31.04
615.369	30.73
615.703	30.81
616.037	30.85
616.371	30.94
616.705	31
617.039	30.64
617.373	31.11
617.707	31.02
618.041	30.93
618.375	31.36
618.709	30.53
619.042	31.16
619.376	30.71
619.71	30.74
620.043	30.95
620.377	31.09
620.71	30.91
621.043	31.34
621.377	31.15
621.71	31.52
622.043	31.22
622.376	30.98
622.709	30.99
623.043	31.16
623.376	31.13
623.709	31.16
624.041	31.03
624.374	31.3
624.707	31.15
625.04	31.41
625.373	30.95
625.705	31.24
626.038	31.55
626.37	31.02
626.703	31.11
627.035	31.58
627.368	31.05
627.7	31.15
628.032	31.17
628.365	31.58
628.697	31.63
629.029	31.23
629.361	31.49
629.693	31.27
630.025	31.47
630.357	31.56
630.689	31.81
631.021	31.42
631.353	31.59
631.684	31.76
632.016	31.56
632.348	31.64
632.679	32.19
633.011	31.91
633.342	31.63
633.674	31.92
634.005	32.37
634.336	31.55
634.668	31.47
634.999	31.89
635.33	31.67
635.661	31.99
635.992	32.11
636.323	31.75
636.654	32.01
636.985	31.86
637.316	31.99
637.647	32.19
637.977	31.82
638.308	31.83
638.639	32.04
638.969	32.31
639.3	32.18
639.63	32.2
639.961	32.27
640.291	32.31
640.622	32.41
640.952	32.38
641.282	32.02
641.612	32.05
641.943	32.37
642.273	32.86
642.603	32.48
642.933	32.15
643.263	32.51
643.592	32.76
643.922	32.58
644.252	32.83
644.582	32.57
644.911	32.66
645.241	33.14
645.571	32.41
645.9	32.55
646.23	32.88
646.559	32.99
646.888	32.49
647.218	32.94
647.547	32.77
647.876	32.56
648.205	33.07
648.534	33.28
648.863	32.78
649.192	32.84
649.521	32.91
649.85	32.81
650.179	33.12
650.508	33.29
650.837	33.05
651.165	33.16
651.494	32.79
651.822	33.03
652.151	33.2
652.479	32.94
652.808	32.97
653.136	32.83
653.465	33.15
653.793	32.97
654.121	32.99
654.449	32.84
654.777	32.79
655.105	33.26
655.433	33.08
655.761	33.07
656.089	33.24
656.417	33.52
656.745	33.53
657.073	33.81
657.4	33.74
657.728	33.59
658.056	33.07
658.383	33.43
658.711	33.36
659.038	33.41
659.365	33.12
659.693	33.6
660.02	33.01
660.347	33.58
660.674	32.85
661.001	33.03
661.329	33.18
661.656	33.29
661.982	33.38
662.309	33.32
662.636	33.75
662.963	32.75
663.29	33.44
663.616	33.82
663.943	33.51
664.27	33.9
664.596	34.08
664.923	34.37
665.249	33.82
665.576	33.58
665.902	33.4
666.228	33.68
666.554	33.69
666.881	33.8
667.207	33.43
667.533	33.78
667.859	33.68
668.185	33.4
668.511	33.74
668.837	34.53
669.162	34.31
669.488	33.71
669.814	34.1
670.139	33.96
670.465	33.96
670.791	34.01
671.116	33.5
671.442	33.46
