Data from 1610-3_chest_Reflection__4__130.txt Node

Date: Fri Nov 11 17:07:51 CST 2022
User: ToomeyLab
Spectrometer: FLMS14357
Trigger mode: 0
Integration Time (sec): 1.000000E-2
Scans to average: 100
Electric dark correction enabled: true
Nonlinearity correction enabled: false
Boxcar width: 0
XAxis mode: Wavelengths
Number of Pixels in Spectrum: 2048
>>>>>Begin Spectral Data<<<<<
189.047	39.39
189.435	39.39
189.823	39.39
190.211	41.16
190.599	-12.42
190.987	-645.22
191.375	259.25
191.763	205.24
192.151	-166.68
192.538	78.03
192.926	3.15
193.314	119.64
193.702	-33.62
194.089	-261.7
194.477	631.19
194.864	60.24
195.252	11.87
195.639	53.78
196.027	22.65
196.414	-21.57
196.801	-2.19
197.189	121.32
197.576	-454.75
197.963	-28.11
198.351	-38.71
198.738	-37.53
199.125	6.08
199.512	16.44
199.899	-37.43
200.286	2.72
200.673	18.49
201.06	-11.28
201.447	25.88
201.833	-19.13
202.22	12.34
202.607	8.6
202.994	10.68
203.38	-9.69
203.767	-1.14
204.154	4.17
204.54	38.36
204.927	8.71
205.313	-27.16
205.699	-9.9
206.086	-9.89
206.472	0.98
206.858	-21.32
207.245	16.02
207.631	48.52
208.017	-33.97
208.403	4
208.789	-8.71
209.175	2.27
209.561	2.44
209.947	5.46
210.333	7.67
210.719	-6.01
211.105	9.17
211.491	-66.92
211.876	8.47
212.262	-2.4
212.648	-1.54
213.034	3.16
213.419	5.97
213.805	16.38
214.19	-4.56
214.576	9.12
214.961	-9.58
215.346	-65.39
215.732	-41.85
216.117	12.62
216.502	-0.29
216.888	8.06
217.273	-24.45
217.658	-8.27
218.043	-6.81
218.428	-15.67
218.813	31.84
219.198	-27.87
219.583	-3.26
219.968	21.39
220.353	-37.67
220.738	4.52
221.122	-25.79
221.507	10.56
221.892	1.97
222.276	5.8
222.661	-0.46
223.046	-2.56
223.43	-6.82
223.815	-0.17
224.199	6.73
224.583	1.71
224.968	10.97
225.352	-9.96
225.736	0.52
226.121	4.62
226.505	7.64
226.889	2.47
227.273	5.53
227.657	-5.28
228.041	3.97
228.425	4.7
228.809	6.23
229.193	3.13
229.577	3.9
229.961	4.33
230.344	5.97
230.728	5.95
231.112	5.05
231.495	4.99
231.879	4.06
232.263	3.09
232.646	3.7
233.03	2.49
233.413	3.44
233.797	4.4
234.18	4.24
234.563	3.2
234.946	2.36
235.33	3.36
235.713	4.27
236.096	2.19
236.479	4.39
236.862	4.75
237.245	5.2
237.628	3.77
238.011	4.26
238.394	5.46
238.777	3.16
239.16	3.93
239.543	4.71
239.925	5.24
240.308	3.9
240.691	4.53
241.073	2.42
241.456	4.54
241.838	4.43
242.221	4.17
242.603	4.51
242.986	4.2
243.368	3.9
243.75	4.41
244.133	4.25
244.515	4.37
244.897	4.33
245.279	3.42
245.661	4.44
246.043	4.04
246.425	4.01
246.807	3.54
247.189	3.11
247.571	3.13
247.953	4.37
248.335	4.56
248.717	4.42
249.098	4.32
249.48	4.35
249.862	4.15
250.243	3.75
250.625	4.01
251.006	4.49
251.388	4.46
251.769	4.65
252.151	3.86
252.532	3.8
252.913	3.07
253.295	4.1
253.676	3.9
254.057	3.99
254.438	4.42
254.819	4.06
255.2	5.01
255.581	4.08
255.962	4.09
256.343	4.97
256.724	3.66
257.105	4.41
257.486	4.38
257.867	3.03
258.247	4.16
258.628	2.95
259.009	3.7
259.389	3.24
259.77	4.33
260.15	3.92
260.531	3.58
260.911	3.85
261.292	4.1
261.672	3.91
262.052	3.99
262.432	4.3
262.813	4.07
263.193	3.66
263.573	3.99
263.953	3.82
264.333	3.82
264.713	3.72
265.093	4.05
265.473	4.14
265.853	3.65
266.233	4.13
266.612	3.23
266.992	3.67
267.372	3.66
267.752	4.28
268.131	3.95
268.511	3.97
268.89	4.59
269.27	3.47
269.649	3.26
270.029	3.68
270.408	3.96
270.787	4.44
271.167	3.65
271.546	4.34
271.925	4.21
272.304	3.75
272.683	3.61
273.062	4.1
273.441	3.57
273.82	4
274.199	4.09
274.578	4.2
274.957	3.43
275.336	3.62
275.715	4.05
276.093	4.68
276.472	3.98
276.851	3.72
277.229	3.5
277.608	3.68
277.986	4.18
278.365	4.23
278.743	4.29
279.122	3.76
279.5	3.63
279.878	3.14
280.257	4.17
280.635	3.52
281.013	4.14
281.391	3.44
281.769	4.06
282.147	4.01
282.525	3.76
282.903	4.05
283.281	3.39
283.659	3.42
284.037	3.71
284.415	3.41
284.792	3.62
285.17	3.73
285.548	3.53
285.925	3.52
286.303	3.66
286.68	3.69
287.058	3.7
287.435	3.74
287.813	3.6
288.19	3.67
288.567	3.99
288.945	3.32
289.322	3.57
289.699	3.61
290.076	3.28
290.453	3.43
290.83	3.79
291.207	3.64
291.584	3.66
291.961	3.57
292.338	3.78
292.715	3.58
293.092	3.26
293.469	3.48
293.845	3.9
294.222	4.13
294.599	4.08
294.975	3.98
295.352	3.52
295.728	3.55
296.105	3.77
296.481	3.38
296.858	3.57
297.234	3.31
297.61	3.5
297.986	3.18
298.363	3.69
298.739	3.83
299.115	3.55
299.491	3.76
299.867	3.42
300.243	3.31
300.619	3.67
300.995	3.41
301.371	3.17
301.746	3.76
302.122	3.24
302.498	2.98
302.874	3.34
303.249	3.48
303.625	3.52
304	3.41
304.376	3.38
304.751	4.12
305.127	3.62
305.502	3.76
305.878	3.96
306.253	3.58
306.628	3.57
307.003	3.48
307.378	3.73
307.754	3.88
308.129	3.76
308.504	3.36
308.879	2.79
309.254	2.61
309.629	3.58
310.003	3.49
310.378	3.25
310.753	3.41
311.128	3.72
311.502	3.11
311.877	3.5
312.252	3.4
312.626	3.22
313.001	3.62
313.375	3.55
313.75	3.64
314.124	3.34
314.498	4.04
314.873	3.61
315.247	3.57
315.621	3.37
315.995	3.04
316.369	3.47
316.743	3.21
317.117	3.42
317.491	3.88
317.865	3.51
318.239	3.85
318.613	3.25
318.987	3.36
319.361	2.95
319.734	3.19
320.108	3.8
320.482	2.83
320.855	3.31
321.229	4.14
321.602	3.06
321.976	2.78
322.349	3.39
322.723	3.18
323.096	3.55
323.469	3.05
323.843	3.44
324.216	3.09
324.589	3.42
324.962	2.8
325.335	3.59
325.708	3.34
326.081	3.15
326.454	3.66
326.827	3.53
327.2	3.36
327.573	3.58
327.945	3.09
328.318	3.59
328.691	3.64
329.063	3.67
329.436	3.65
329.809	3.06
330.181	3.56
330.553	3.18
330.926	3.24
331.298	3.16
331.671	3.11
332.043	3.93
332.415	3.67
332.787	3.57
333.159	3.45
333.532	3.15
333.904	3.29
334.276	3.38
334.648	3.19
335.02	3.52
335.391	3.5
335.763	3.22
336.135	3.22
336.507	3.21
336.879	3.72
337.25	2.58
337.622	3.46
337.993	3.22
338.365	3.21
338.736	3.47
339.108	2.85
339.479	3.45
339.851	2.87
340.222	3.09
340.593	3.23
340.964	3.63
341.336	3.5
341.707	2.97
342.078	3.23
342.449	3.58
342.82	3.44
343.191	3.34
343.562	3.61
343.933	3.11
344.303	3.69
344.674	3.45
345.045	3.4
345.416	3.43
345.786	3.55
346.157	2.89
346.527	3.25
346.898	3.3
347.268	3.32
347.639	3.75
348.009	3.42
348.38	3.69
348.75	3.79
349.12	3.34
349.49	3.36
349.861	3.13
350.231	2.96
350.601	3.92
350.971	3.89
351.341	3.46
351.711	3.42
352.081	3.04
352.45	3.07
352.82	3.43
353.19	3.52
353.56	3.57
353.929	3.64
354.299	3.25
354.669	3.52
355.038	3.67
355.408	3.14
355.777	3.96
356.147	3.56
356.516	3.26
356.885	3.22
357.254	3.35
357.624	3.67
357.993	3.64
358.362	3.41
358.731	3.23
359.1	3.26
359.469	3.24
359.838	3.86
360.207	3.84
360.576	3.65
360.945	3.63
361.314	3.58
361.682	3.16
362.051	3.52
362.42	3.25
362.788	3.21
363.157	3.63
363.525	3.72
363.894	3.5
364.262	3.27
364.631	3.43
364.999	3.49
365.367	3.63
365.735	3.63
366.104	3.51
366.472	3.53
366.84	3.44
367.208	3.35
367.576	3.41
367.944	3.76
368.312	3.72
368.68	3.54
369.048	3.17
369.416	3.45
369.783	3.1
370.151	3.44
370.519	3.42
370.886	3.49
371.254	3.55
371.621	3.5
371.989	3.36
372.356	3.66
372.724	3.66
373.091	3.6
373.458	3.32
373.826	3.66
374.193	3.56
374.56	3.4
374.927	3.53
375.294	3.62
375.661	4.07
376.028	3.19
376.395	3.35
376.762	3.21
377.129	3.59
377.496	3.51
377.863	3.35
378.229	3.45
378.596	3.36
378.963	3.26
379.329	3.21
379.696	3.47
380.062	3.65
380.429	3.24
380.795	3.46
381.161	3.53
381.528	3.65
381.894	3.53
382.26	3.33
382.626	3.44
382.993	3.53
383.359	3.47
383.725	3.59
384.091	3.49
384.457	3.67
384.823	3.57
385.188	3.49
385.554	3.67
385.92	3.33
386.286	3.37
386.651	3.34
387.017	3.61
387.383	3.43
387.748	3.47
388.114	3.46
388.479	3.58
388.845	3.31
389.21	3.51
389.575	3.33
389.94	3.54
390.306	3.48
390.671	3.18
391.036	3.69
391.401	3.35
391.766	3.55
392.131	3.31
392.496	3.24
392.861	3.43
393.226	3.45
393.591	3.43
393.956	3.57
394.32	3.71
394.685	3.69
395.05	3.61
395.414	3.68
395.779	3.5
396.143	3.58
396.508	3.3
396.872	3.68
397.236	3.49
397.601	3.44
397.965	3.39
398.329	3.24
398.694	3.42
399.058	3.54
399.422	3.24
399.786	3.55
400.15	3.43
400.514	3.69
400.878	3.67
401.242	3.57
401.605	3.45
401.969	3.53
402.333	3.4
402.697	3.39
403.06	3.57
403.424	3.35
403.787	3.65
404.151	3.36
404.514	3.52
404.878	3.65
405.241	3.49
405.604	3.59
405.968	3.82
406.331	3.42
406.694	3.59
407.057	3.56
407.42	3.9
407.783	3.44
408.146	3.62
408.509	3.67
408.872	3.71
409.235	3.47
409.598	3.48
409.961	3.47
410.323	3.56
410.686	3.6
411.049	3.57
411.411	3.52
411.774	3.61
412.136	3.44
412.499	3.65
412.861	3.31
413.223	3.5
413.586	3.36
413.948	3.43
414.31	3.49
414.672	3.54
415.035	3.55
415.397	3.61
415.759	3.62
416.121	3.55
416.483	3.45
416.845	3.55
417.206	3.75
417.568	3.54
417.93	3.59
418.292	3.48
418.653	3.59
419.015	3.46
419.377	3.6
419.738	3.65
420.1	3.44
420.461	3.44
420.822	3.5
421.184	3.39
421.545	3.44
421.906	3.53
422.267	3.56
422.629	3.52
422.99	3.49
423.351	3.47
423.712	3.51
424.073	3.53
424.434	3.55
424.795	3.66
425.155	3.58
425.516	3.55
425.877	3.59
426.238	3.45
426.598	3.55
426.959	3.51
427.32	3.5
427.68	3.48
428.041	3.61
428.401	3.34
428.761	3.53
429.122	3.52
429.482	3.59
429.842	3.55
430.202	3.66
430.563	3.42
430.923	3.55
431.283	3.67
431.643	3.76
432.003	3.82
432.363	3.61
432.722	3.54
433.082	3.57
433.442	3.67
433.802	3.69
434.161	3.64
434.521	3.64
434.881	3.6
435.24	3.62
435.6	3.52
435.959	3.51
436.319	3.4
436.678	3.51
437.037	3.51
437.396	3.48
437.756	3.49
438.115	3.39
438.474	3.51
438.833	3.53
439.192	3.63
439.551	3.41
439.91	3.64
440.269	3.68
440.628	3.73
440.987	3.82
441.345	3.67
441.704	3.56
442.063	3.75
442.421	3.5
442.78	3.57
443.138	3.55
443.497	3.54
443.855	3.47
444.214	3.49
444.572	3.61
444.93	3.44
445.288	3.7
445.647	3.46
446.005	3.57
446.363	3.65
446.721	3.5
447.079	3.49
447.437	3.59
447.795	3.55
448.153	3.6
448.51	3.49
448.868	3.5
449.226	3.58
449.584	3.56
449.941	3.56
450.299	3.57
450.656	3.58
451.014	3.68
451.371	3.47
451.729	3.6
452.086	3.64
452.443	3.7
452.801	3.53
453.158	3.56
453.515	3.55
453.872	3.55
454.229	3.46
454.586	3.54
454.943	3.61
455.3	3.58
455.657	3.79
456.014	3.58
456.371	3.49
456.727	3.56
457.084	3.56
457.441	3.6
457.797	3.56
458.154	3.64
458.51	3.56
458.867	3.7
459.223	3.64
459.58	3.71
459.936	3.86
460.292	3.68
460.648	3.57
461.005	3.62
461.361	3.66
461.717	3.6
462.073	3.55
462.429	3.58
462.785	3.55
463.141	3.59
463.496	3.61
463.852	3.74
464.208	3.7
464.564	3.57
464.919	3.6
465.275	3.68
465.631	3.81
465.986	3.61
466.342	3.78
466.697	3.62
467.052	3.54
467.408	3.66
467.763	3.62
468.118	3.58
468.473	3.64
468.829	3.79
469.184	3.64
469.539	3.78
469.894	3.67
470.249	3.61
470.603	3.53
470.958	3.86
471.313	3.68
471.668	3.67
472.023	3.73
472.377	3.8
472.732	3.72
473.086	3.73
473.441	3.63
473.795	3.69
474.15	3.65
474.504	3.85
474.859	3.82
475.213	3.76
475.567	3.7
475.921	3.87
476.275	3.65
476.63	3.8
476.984	3.72
477.338	3.66
477.692	3.9
478.045	3.62
478.399	3.63
478.753	3.78
479.107	3.69
479.461	3.75
479.814	3.73
480.168	3.78
480.521	3.75
480.875	3.7
481.228	3.7
481.582	3.74
481.935	3.71
482.289	3.76
482.642	3.64
482.995	3.69
483.348	3.57
483.701	3.66
484.055	3.74
484.408	3.66
484.761	3.59
485.114	3.56
485.466	3.49
485.819	3.5
486.172	3.51
486.525	3.5
486.878	3.53
487.23	3.56
487.583	3.56
487.936	3.65
488.288	3.66
488.641	3.6
488.993	3.65
489.345	3.53
489.698	3.54
490.05	3.52
490.402	3.56
490.754	3.67
491.107	3.62
491.459	3.64
491.811	3.67
492.163	3.66
492.515	3.63
492.866	3.61
493.218	3.57
493.57	3.55
493.922	3.6
494.274	3.64
494.625	3.59
494.977	3.69
495.328	3.69
495.68	3.68
496.031	3.67
496.383	3.82
496.734	3.79
497.086	3.8
497.437	3.87
497.788	3.79
498.139	3.7
498.49	3.73
498.842	3.9
499.193	3.73
499.544	3.8
499.894	3.75
500.245	3.84
500.596	3.75
500.947	3.7
501.298	3.96
501.648	3.95
501.999	3.81
502.35	3.76
502.7	3.89
503.051	3.88
503.401	3.85
503.752	3.71
504.102	3.79
504.452	3.77
504.803	3.86
505.153	3.83
505.503	3.92
505.853	3.83
506.203	4.01
506.553	3.99
506.903	3.85
507.253	3.85
507.603	3.92
507.953	3.93
508.303	3.81
508.652	3.67
509.002	3.91
509.352	3.91
509.701	3.88
510.051	3.86
510.4	3.8
510.75	3.83
511.099	3.8
511.449	3.84
511.798	3.84
512.147	3.88
512.496	3.86
512.846	3.72
513.195	3.9
513.544	3.88
513.893	3.9
514.242	3.9
514.591	3.83
514.939	3.89
515.288	3.94
515.637	3.9
515.986	3.96
516.334	3.9
516.683	4
517.032	3.89
517.38	3.85
517.729	4
518.077	3.95
518.426	4.02
518.774	3.88
519.122	3.92
519.47	3.85
519.819	3.89
520.167	3.86
520.515	3.92
520.863	3.91
521.211	3.9
521.559	3.88
521.907	3.96
522.255	3.97
522.602	4.03
522.95	4.01
523.298	4.02
523.645	3.9
523.993	4
524.341	4.05
524.688	4.01
525.036	4.06
525.383	3.97
525.73	3.99
526.078	3.92
526.425	3.97
526.772	3.93
527.119	3.9
527.466	3.89
527.814	3.91
528.161	3.9
528.508	3.89
528.854	3.89
529.201	3.95
529.548	3.97
529.895	3.85
530.242	3.88
530.588	3.83
530.935	3.82
531.282	3.86
531.628	3.87
531.975	3.88
532.321	3.9
532.667	4.02
533.014	4
533.36	3.96
533.706	4.11
534.052	3.98
534.399	3.94
534.745	3.96
535.091	3.95
535.437	3.99
535.783	3.99
536.129	3.98
536.474	4.1
536.82	4.11
537.166	4.08
537.512	4.1
537.857	4.1
538.203	4.03
538.549	4
538.894	4.11
539.239	4.06
539.585	4.11
539.93	4.13
540.276	4.15
540.621	4.18
540.966	4.15
541.311	4.33
541.656	4.07
542.001	4.27
542.346	4.15
542.691	4.04
543.036	4.09
543.381	4.07
543.726	4.01
544.071	4.1
544.415	4.12
544.76	4.11
545.105	4.25
545.449	4.16
545.794	4.21
546.138	4.22
546.483	4.2
546.827	4.21
547.171	4.2
547.516	4.19
547.86	4.25
548.204	4.19
548.548	4.22
548.892	4.25
549.236	4.28
549.58	4.31
549.924	4.26
550.268	4.37
550.612	4.35
550.956	4.38
551.3	4.33
551.643	4.52
551.987	4.27
552.33	4.32
552.674	4.5
553.017	4.43
553.361	4.44
553.704	4.37
554.048	4.39
554.391	4.38
554.734	4.37
555.077	4.47
555.42	4.48
555.764	4.52
556.107	4.51
556.45	4.36
556.793	4.53
557.135	4.5
557.478	4.4
557.821	4.58
558.164	4.74
558.507	4.58
558.849	4.55
559.192	4.55
559.534	4.61
559.877	4.7
560.219	4.72
560.562	4.49
560.904	4.49
561.246	4.6
561.589	4.83
561.931	4.6
562.273	4.76
562.615	4.68
562.957	4.64
563.299	4.71
563.641	4.68
563.983	4.58
564.325	4.61
564.667	4.69
565.008	4.74
565.35	4.69
565.692	4.57
566.033	4.73
566.375	4.73
566.716	4.86
567.058	4.59
567.399	4.71
567.741	4.89
568.082	4.81
568.423	4.78
568.764	4.76
569.105	4.92
569.447	4.71
569.788	4.74
570.129	4.82
570.47	4.79
570.811	4.79
571.151	4.86
571.492	4.86
571.833	4.93
572.174	4.93
572.514	4.89
572.855	4.95
573.195	5
573.536	4.83
573.876	4.95
574.217	5.01
574.557	4.75
574.898	4.95
575.238	5
575.578	5.1
575.918	4.97
576.258	5.11
576.598	5.11
576.938	5.05
577.278	5.11
577.618	5.18
577.958	5.08
578.298	5.14
578.638	5.12
578.977	4.97
579.317	5.2
579.657	5.27
579.996	5.04
580.336	5.13
580.675	5.01
581.014	5.3
581.354	5.15
581.693	5.21
582.032	5.26
582.372	5.41
582.711	5.29
583.05	5.2
583.389	5.34
583.728	5.37
584.067	5.41
584.406	5.37
584.745	5.33
585.083	5.29
585.422	5.48
585.761	5.52
586.1	5.45
586.438	5.39
586.777	5.58
587.115	5.43
587.454	5.62
587.792	5.52
588.13	5.62
588.469	5.46
588.807	5.65
589.145	5.67
589.483	5.39
589.821	5.53
590.159	5.64
590.497	5.61
590.835	5.5
591.173	5.66
591.511	5.64
591.849	5.62
592.187	5.61
592.524	5.56
592.862	5.83
593.2	5.8
593.537	5.39
593.875	5.71
594.212	5.89
594.55	5.84
594.887	5.94
595.224	5.71
595.561	5.76
595.899	5.55
596.236	5.87
596.573	5.68
596.91	5.74
597.247	5.6
597.584	5.78
597.921	5.76
598.258	5.87
598.594	5.83
598.931	5.96
599.268	5.75
599.604	5.87
599.941	5.88
600.277	5.76
600.614	6.01
600.95	6.05
601.287	6.17
601.623	6.15
601.959	5.84
602.296	6.14
602.632	5.98
602.968	6.2
603.304	6.25
603.64	5.9
603.976	6.16
604.312	6.03
604.648	6.07
604.984	6.12
605.319	6.21
605.655	6.18
605.991	6.17
606.326	6.28
606.662	6.04
606.998	6.2
607.333	6.06
607.668	6.32
608.004	6.36
608.339	6.36
608.674	6.26
609.01	6.22
609.345	6.29
609.68	6.7
610.015	6.27
610.35	6.43
610.685	6.38
611.02	6.71
611.355	6.33
611.689	6.51
612.024	6.44
612.359	6.22
612.694	6.39
613.028	6.4
613.363	6.82
613.697	6.49
614.032	6.71
614.366	6.28
614.7	6.6
615.035	6.86
615.369	7.12
615.703	6.68
616.037	6.74
616.371	6.66
616.705	6.82
617.039	6.71
617.373	6.84
617.707	6.94
618.041	6.81
618.375	7.16
618.709	6.97
619.042	6.99
619.376	6.92
619.71	6.82
620.043	7.08
620.377	6.96
620.71	6.81
621.043	7.16
621.377	6.83
621.71	6.96
622.043	6.59
622.376	7.11
622.709	7.11
623.043	6.88
623.376	7.14
623.709	6.93
624.041	7.04
624.374	7
624.707	7.19
625.04	7.55
625.373	7.37
625.705	7.13
626.038	7.29
626.37	7.06
626.703	7.23
627.035	7.36
627.368	7.22
627.7	7.07
628.032	7.11
628.365	7.63
628.697	7.68
629.029	7.49
629.361	7.3
629.693	7.37
630.025	7.34
630.357	6.89
630.689	7.81
631.021	7.43
631.353	7.67
631.684	7.56
632.016	7.62
632.348	7.5
632.679	7.72
633.011	7.4
633.342	7.56
633.674	7.63
634.005	7.59
634.336	7.4
634.668	7.74
634.999	7.36
635.33	7.62
635.661	7.63
635.992	7.89
636.323	7.68
636.654	7.96
636.985	8.01
637.316	7.85
637.647	7.77
637.977	7.96
638.308	7.76
638.639	7.55
638.969	8.03
639.3	7.89
639.63	8.12
639.961	7.78
640.291	7.79
640.622	8.25
640.952	7.75
641.282	8.11
641.612	8.22
641.943	7.89
642.273	8.11
642.603	7.8
642.933	7.56
643.263	7.95
643.592	8.35
643.922	7.9
644.252	8.44
644.582	8.29
644.911	8.51
645.241	8.73
645.571	8.52
645.9	8.4
646.23	8.5
646.559	8.4
646.888	8.42
647.218	8.19
647.547	8.51
647.876	8.17
648.205	8.84
648.534	8.37
648.863	8.66
649.192	8.63
649.521	8.68
649.85	8.5
650.179	8.63
650.508	8.68
650.837	9.13
651.165	8.95
651.494	8.7
651.822	8.82
652.151	8.68
652.479	9.28
652.808	8.73
653.136	8.87
653.465	9.43
653.793	8.99
654.121	9.27
654.449	9.02
654.777	9.12
655.105	8.99
655.433	9
655.761	8.75
656.089	8.81
656.417	9.25
656.745	9.38
657.073	9.27
657.4	9.1
657.728	9.19
658.056	8.65
658.383	8.99
658.711	9.04
659.038	8.95
659.365	9.06
659.693	8.87
660.02	9.33
660.347	8.99
660.674	9.03
661.001	9.35
661.329	9.09
661.656	9.4
661.982	9.46
662.309	9.27
662.636	9.2
662.963	9.4
663.29	9.64
663.616	9.18
663.943	9.59
664.27	9.88
664.596	10
664.923	9.68
665.249	10.11
665.576	9.5
665.902	9.65
666.228	10.14
666.554	9.72
666.881	9.46
667.207	9.56
667.533	10.37
667.859	9.56
668.185	9.61
668.511	9.93
668.837	9.85
669.162	10.22
669.488	9.54
669.814	10.27
670.139	10.35
670.465	9.72
670.791	9.85
671.116	9.77
671.442	9.87
671.767	9.98
672.092	9.78
672.418	10.16
672.743	9.97
673.068	9.97
673.393	9.99
673.718	10.25
674.043	10.42
674.368	10.11
674.693	10.18
675.018	10.3
675.343	10.42
675.667	10.09
675.992	10.35
676.317	10.25
676.641	10.57
676.966	10.04
677.29	9.94
677.615	10.5
677.939	10.66
678.264	10.52
678.588	10.93
678.912	10.58
679.236	10.57
679.56	10.82
679.885	10.65
680.209	10.4
680.532	10.6
680.856	11.35
681.18	10.51
681.504	10.61
681.828	10.29
682.152	10.99
682.475	10.76
682.799	10.69
683.122	11.01
683.446	10.78
683.769	10.98
684.093	10.45
684.416	11.07
684.739	11.21
685.062	10.95
685.386	11.29
685.709	11.3
686.032	10.61
686.355	10.92
686.678	10.77
687.001	11.7
687.324	11.02
687.646	11.17
687.969	10.7
688.292	11.38
688.614	11.57
688.937	10.87
689.26	11.28
689.582	12.02
689.904	11.02
690.227	11.54
690.549	11.78
690.871	11.38
691.194	11.06
691.516	11.75
