Data from 1610-3_chest_Reflection__0__126.txt Node

Date: Fri Nov 11 17:06:59 CST 2022
User: ToomeyLab
Spectrometer: FLMS14357
Trigger mode: 0
Integration Time (sec): 1.000000E-2
Scans to average: 100
Electric dark correction enabled: true
Nonlinearity correction enabled: false
Boxcar width: 0
XAxis mode: Wavelengths
Number of Pixels in Spectrum: 2048
>>>>>Begin Spectral Data<<<<<
189.047	21.33
189.435	21.33
189.823	21.33
190.211	-70.55
190.599	70.3
190.987	-740.09
191.375	1441.41
191.763	43.99
192.151	-341.49
192.538	-197.89
192.926	-91.03
193.314	-113.25
193.702	90.91
194.089	-313.25
194.477	-1298.17
194.864	219.86
195.252	6.29
195.639	56.42
196.027	-19.52
196.414	83.5
196.801	-62.94
197.189	1.63
197.576	-614.32
197.963	78.17
198.351	-34.38
198.738	-56.71
199.125	9.57
199.512	12.68
199.899	-18.2
200.286	19.03
200.673	11.52
201.06	-64.95
201.447	24.21
201.833	12.44
202.22	9.6
202.607	40.52
202.994	31.02
203.38	9.54
203.767	-4.38
204.154	-22.79
204.54	30.59
204.927	15.17
205.313	10.35
205.699	22.3
206.086	22.03
206.472	36.5
206.858	20.41
207.245	-3.96
207.631	40.6
208.017	17.57
208.403	33.69
208.789	-28.89
209.175	-8.33
209.561	17.83
209.947	-10.67
210.333	-9.84
210.719	9.69
211.105	-1.88
211.491	-96.51
211.876	14.65
212.262	-15.08
212.648	-11.33
213.034	21.16
213.419	17.65
213.805	-3.8
214.19	-27.8
214.576	22.25
214.961	-28.42
215.346	-73.99
215.732	-32.19
216.117	36.41
216.502	10.04
216.888	-9.15
217.273	-21.76
217.658	-25.32
218.043	-9.98
218.428	-22.94
218.813	15.07
219.198	0.92
219.583	8.84
219.968	7.15
220.353	7.89
220.738	-26.78
221.122	-5.92
221.507	21.48
221.892	8.2
222.276	11.35
222.661	14.93
223.046	9.83
223.43	9.27
223.815	0.48
224.199	4.34
224.583	4.48
224.968	9.93
225.352	-5.15
225.736	5.86
226.121	-1.52
226.505	11.71
226.889	10.66
227.273	6.74
227.657	-1.4
228.041	-0.43
228.425	6.14
228.809	9.01
229.193	1.62
229.577	5.55
229.961	5.19
230.344	5.85
230.728	6.16
231.112	6.36
231.495	6.25
231.879	5.37
232.263	4.16
232.646	4.51
233.03	3.96
233.413	5.56
233.797	4.92
234.18	6.31
234.563	5.41
234.946	4.31
235.33	6.25
235.713	4.59
236.096	3.12
236.479	5.56
236.862	6.04
237.245	6.79
237.628	4.59
238.011	5.03
238.394	6.17
238.777	5.91
239.16	6.06
239.543	4.93
239.925	6.85
240.308	3.83
240.691	3.57
241.073	5.52
241.456	4.62
241.838	6.96
242.221	6.14
242.603	5.14
242.986	4.63
243.368	4.87
243.75	5.03
244.133	5.04
244.515	4.77
244.897	4.72
245.279	4.21
245.661	4.14
246.043	5.17
246.425	4.64
246.807	4.79
247.189	4.3
247.571	4.07
247.953	5.06
248.335	5.29
248.717	4.81
249.098	4.8
249.48	4.94
249.862	4.72
250.243	5
250.625	4.69
251.006	5.05
251.388	4.59
251.769	4.74
252.151	4.06
252.532	4.95
252.913	4.53
253.295	4.95
253.676	5.07
254.057	4.68
254.438	4.81
254.819	4.52
255.2	4.5
255.581	4.28
255.962	4.35
256.343	4.81
256.724	4.25
257.105	4.03
257.486	4.33
257.867	3.89
258.247	4.98
258.628	4.02
259.009	4.85
259.389	4.69
259.77	5.27
260.15	4.9
260.531	4.66
260.911	4.49
261.292	4.72
261.672	4.62
262.052	4.63
262.432	4.91
262.813	4.53
263.193	4.3
263.573	5.07
263.953	5.06
264.333	4.76
264.713	4.42
265.093	4.2
265.473	4.92
265.853	4.08
266.233	4.89
266.612	4
266.992	4.82
267.372	4.87
267.752	4.63
268.131	4.21
268.511	5.05
268.89	4.47
269.27	4.03
269.649	4.2
270.029	3.94
270.408	4.15
270.787	5.39
271.167	3.64
271.546	4.32
271.925	4.78
272.304	5.17
272.683	4.45
273.062	4.43
273.441	4.12
273.82	4.25
274.199	4.46
274.578	4.98
274.957	3.69
275.336	4.18
275.715	4.81
276.093	5.34
276.472	4.31
276.851	4.56
277.229	4.49
277.608	4.6
277.986	4.51
278.365	5
278.743	4.73
279.122	4.11
279.5	4.45
279.878	4.08
280.257	4.89
280.635	4.1
281.013	4.37
281.391	4.79
281.769	4.7
282.147	4.56
282.525	4.24
282.903	4.7
283.281	4.36
283.659	4.41
284.037	4.28
284.415	4.01
284.792	4.62
285.17	4.2
285.548	4.5
285.925	4.45
286.303	4.65
286.68	4.38
287.058	4.49
287.435	4.43
287.813	4.51
288.19	4.35
288.567	4.37
288.945	4
289.322	4.26
289.699	4.44
290.076	4.28
290.453	4.13
290.83	4.32
291.207	4.25
291.584	4.27
291.961	4.02
292.338	4.28
292.715	4.61
293.092	3.92
293.469	4.28
293.845	4.69
294.222	4.51
294.599	4.44
294.975	4.31
295.352	3.88
295.728	4.42
296.105	4.44
296.481	4.01
296.858	4.58
297.234	4.3
297.61	4.16
297.986	3.87
298.363	4.32
298.739	4.33
299.115	4.29
299.491	4.22
299.867	4.19
300.243	3.99
300.619	4.38
300.995	4.53
301.371	3.86
301.746	4.2
302.122	3.89
302.498	3.78
302.874	4.02
303.249	3.93
303.625	4.21
304	3.85
304.376	3.89
304.751	4.79
305.127	4.76
305.502	4.34
305.878	4.85
306.253	4.59
306.628	4.21
307.003	4.16
307.378	4.36
307.754	4.17
308.129	4.74
308.504	4.24
308.879	4.04
309.254	3.71
309.629	4.16
310.003	4.22
310.378	3.86
310.753	3.5
311.128	4.3
311.502	3.75
311.877	4.36
312.252	3.91
312.626	3.9
313.001	4.16
313.375	4.23
313.75	4.46
314.124	4.4
314.498	4.29
314.873	4.19
315.247	4.17
315.621	4.01
315.995	3.97
316.369	4.72
316.743	4.05
317.117	4.53
317.491	4.05
317.865	4.46
318.239	4.21
318.613	4.28
318.987	3.86
319.361	4
319.734	3.77
320.108	4.67
320.482	3.66
320.855	4.1
321.229	3.82
321.602	3.74
321.976	3.82
322.349	4.19
322.723	4.5
323.096	4.69
323.469	4.34
323.843	4.39
324.216	3.69
324.589	3.96
324.962	3.99
325.335	4.43
325.708	4.07
326.081	3.88
326.454	3.88
326.827	4.18
327.2	3.78
327.573	4.06
327.945	4.14
328.318	4.39
328.691	4.42
329.063	4.26
329.436	3.74
329.809	4.18
330.181	4.55
330.553	4.08
330.926	3.63
331.298	3.61
331.671	3.74
332.043	4.3
332.415	4.35
332.787	4.05
333.159	4.2
333.532	3.87
333.904	3.91
334.276	4.08
334.648	3.54
335.02	4.44
335.391	4.07
335.763	4.15
336.135	4.36
336.507	4.46
336.879	3.96
337.25	3.26
337.622	4.3
337.993	3.99
338.365	4.4
338.736	3.9
339.108	4.09
339.479	4.21
339.851	3.63
340.222	3.79
340.593	3.88
340.964	3.88
341.336	3.91
341.707	4.05
342.078	3.83
342.449	4.33
342.82	3.87
343.191	4.15
343.562	4.52
343.933	3.65
344.303	4.43
344.674	4.43
345.045	3.91
345.416	3.94
345.786	3.86
346.157	3.57
346.527	4.06
346.898	3.75
347.268	4.06
347.639	4.12
348.009	3.96
348.38	4.1
348.75	4.64
349.12	3.66
349.49	4.08
349.861	3.88
350.231	4.16
350.601	4.66
350.971	4.18
351.341	4.1
351.711	4.11
352.081	3.34
352.45	4.07
352.82	4.21
353.19	4.17
353.56	4.03
353.929	4.06
354.299	4.4
354.669	4.17
355.038	3.7
355.408	3.87
355.777	4.14
356.147	3.88
356.516	4.25
356.885	3.96
357.254	4.14
357.624	4.02
357.993	4.49
358.362	4.16
358.731	4.02
359.1	3.97
359.469	4.11
359.838	4.4
360.207	4.09
360.576	4.07
360.945	4.01
361.314	4.04
361.682	4.22
362.051	4.01
362.42	3.7
362.788	4.06
363.157	4.14
363.525	4.04
363.894	3.95
364.262	4
364.631	4.01
364.999	4.07
365.367	4.14
365.735	4.26
366.104	3.99
366.472	4.28
366.84	3.87
367.208	3.74
367.576	3.95
367.944	4.12
368.312	4.06
368.68	4.24
369.048	4.14
369.416	3.98
369.783	4.2
370.151	4.07
370.519	4.24
370.886	4.19
371.254	4.35
371.621	4.02
371.989	4.02
372.356	3.74
372.724	4.22
373.091	4.34
373.458	3.89
373.826	4.21
374.193	3.63
374.56	3.97
374.927	3.83
375.294	4.07
375.661	4.73
376.028	4.16
376.395	3.99
376.762	4.01
377.129	3.88
377.496	4.1
377.863	3.85
378.229	4.26
378.596	3.86
378.963	3.92
379.329	4.29
379.696	3.96
380.062	4.11
380.429	3.78
380.795	4.14
381.161	4.14
381.528	4.09
381.894	4.22
382.26	4.06
382.626	3.97
382.993	4.17
383.359	4.16
383.725	4.34
384.091	3.99
384.457	4.3
384.823	4.2
385.188	4.1
385.554	4.19
385.92	3.81
386.286	3.9
386.651	4.04
387.017	3.95
387.383	4.1
387.748	4.02
388.114	4.1
388.479	4.25
388.845	3.85
389.21	3.95
389.575	4.07
389.94	4.42
390.306	4.04
390.671	4.03
391.036	4.1
391.401	3.92
391.766	4.11
392.131	3.99
392.496	4.15
392.861	4.06
393.226	3.99
393.591	4.12
393.956	4.2
394.32	4.25
394.685	4.3
395.05	4.41
395.414	4.31
395.779	4.22
396.143	4.16
396.508	3.98
396.872	4.41
397.236	4.08
397.601	4.12
397.965	4.21
398.329	4.24
398.694	3.79
399.058	4.02
399.422	4.16
399.786	4.15
400.15	3.94
400.514	4.12
400.878	4.28
401.242	4.22
401.605	4.05
401.969	4.3
402.333	4.24
402.697	4.06
403.06	4.22
403.424	3.7
403.787	4.22
404.151	4.02
404.514	4.13
404.878	4.27
405.241	4.06
405.604	4.14
405.968	4.29
406.331	3.99
406.694	4.2
407.057	4.14
407.42	4.23
407.783	4.03
408.146	4.09
408.509	4.1
408.872	4.36
409.235	4.26
409.598	3.99
409.961	4.04
410.323	4.19
410.686	4.44
411.049	4.17
411.411	3.95
411.774	4
412.136	4.26
412.499	4.27
412.861	3.95
413.223	3.87
413.586	3.94
413.948	4
414.31	4.22
414.672	4.09
415.035	3.99
415.397	4.32
415.759	4.18
416.121	4.42
416.483	4.22
416.845	4.21
417.206	4.26
417.568	4.14
417.93	4.11
418.292	4.06
418.653	4.18
419.015	4.12
419.377	4.28
419.738	4.22
420.1	4.24
420.461	4.1
420.822	4.07
421.184	4.03
421.545	4.03
421.906	4.11
422.267	4.11
422.629	4.19
422.99	4.07
423.351	4.03
423.712	3.99
424.073	4.04
424.434	4.07
424.795	4.27
425.155	4.16
425.516	4.17
425.877	4.13
426.238	4.1
426.598	4.14
426.959	4.09
427.32	4.16
427.68	4.14
428.041	4.22
428.401	4.14
428.761	4.09
429.122	4.27
429.482	4.18
429.842	4.03
430.202	4.29
430.563	4.24
430.923	4.15
431.283	4.27
431.643	4.38
432.003	4.36
432.363	4.36
432.722	4.3
433.082	4.22
433.442	4.22
433.802	4.4
434.161	4.17
434.521	4.29
434.881	4.19
435.24	4.23
435.6	4.1
435.959	4.13
436.319	4.1
436.678	4.17
437.037	4.23
437.396	4.14
437.756	4.14
438.115	3.98
438.474	4.14
438.833	4.09
439.192	4.28
439.551	4.15
439.91	4.3
440.269	4.07
440.628	4.19
440.987	4.47
441.345	4.19
441.704	4.16
442.063	4.33
442.421	4.12
442.78	4.15
443.138	4.08
443.497	4.14
443.855	4.09
444.214	4.13
444.572	4.37
444.93	4.21
445.288	4.44
445.647	4.17
446.005	4.15
446.363	4.27
446.721	4.06
447.079	4.16
447.437	4.17
447.795	4.07
448.153	4.15
448.51	4.13
448.868	4.15
449.226	4.11
449.584	4.2
449.941	4.18
450.299	4.28
450.656	4.27
451.014	4.36
451.371	4.18
451.729	4.26
452.086	4.31
452.443	4.37
452.801	4.39
453.158	4.3
453.515	4.16
453.872	4.26
454.229	4.14
454.586	4.28
454.943	4.25
455.3	4.28
455.657	4.27
456.014	4.11
456.371	4.17
456.727	4.17
457.084	4.24
457.441	4.23
457.797	4.22
458.154	4.21
458.51	4.38
458.867	4.25
459.223	4.26
459.58	4.28
459.936	4.35
460.292	4.28
460.648	4.25
461.005	4.39
461.361	4.33
461.717	4.22
462.073	4.3
462.429	4.24
462.785	4.16
463.141	4.19
463.496	4.23
463.852	4.28
464.208	4.26
464.564	4.35
464.919	4.31
465.275	4.25
465.631	4.38
465.986	4.29
466.342	4.34
466.697	4.35
467.052	4.27
467.408	4.28
467.763	4.3
468.118	4.29
468.473	4.19
468.829	4.38
469.184	4.48
469.539	4.36
469.894	4.17
470.249	4.41
470.603	4.31
470.958	4.38
471.313	4.42
471.668	4.39
472.023	4.52
472.377	4.46
472.732	4.65
473.086	4.48
473.441	4.3
473.795	4.39
474.15	4.49
474.504	4.47
474.859	4.47
475.213	4.42
475.567	4.51
475.921	4.46
476.275	4.33
476.63	4.53
476.984	4.53
477.338	4.35
477.692	4.32
478.045	4.32
478.399	4.26
478.753	4.43
479.107	4.37
479.461	4.39
479.814	4.5
480.168	4.38
480.521	4.39
480.875	4.38
481.228	4.4
481.582	4.35
481.935	4.41
482.289	4.44
482.642	4.42
482.995	4.36
483.348	4.39
483.701	4.44
484.055	4.33
484.408	4.37
484.761	4.27
485.114	4.28
485.466	4.18
485.819	4.18
486.172	4.14
486.525	4.18
486.878	4.2
487.23	4.23
487.583	4.36
487.936	4.3
488.288	4.2
488.641	4.33
488.993	4.25
489.345	4.21
489.698	4.24
490.05	4.25
490.402	4.26
490.754	4.28
491.107	4.27
491.459	4.34
491.811	4.38
492.163	4.38
492.515	4.41
492.866	4.36
493.218	4.27
493.57	4.28
493.922	4.27
494.274	4.32
494.625	4.33
494.977	4.37
495.328	4.47
495.68	4.35
496.031	4.43
496.383	4.52
496.734	4.57
497.086	4.5
497.437	4.51
497.788	4.56
498.139	4.46
498.49	4.44
498.842	4.53
499.193	4.44
499.544	4.46
499.894	4.55
500.245	4.57
500.596	4.6
500.947	4.52
501.298	4.62
501.648	4.7
501.999	4.57
502.35	4.55
502.7	4.64
503.051	4.57
503.401	4.47
503.752	4.55
504.102	4.57
504.452	4.65
504.803	4.56
505.153	4.6
505.503	4.62
505.853	4.59
506.203	4.65
506.553	4.74
506.903	4.58
507.253	4.72
507.603	4.62
507.953	4.61
508.303	4.65
508.652	4.46
509.002	4.64
509.352	4.67
509.701	4.6
510.051	4.61
510.4	4.59
510.75	4.65
511.099	4.53
511.449	4.61
511.798	4.57
512.147	4.69
512.496	4.71
512.846	4.6
513.195	4.51
513.544	4.66
513.893	4.64
514.242	4.76
514.591	4.58
514.939	4.63
515.288	4.71
515.637	4.57
515.986	4.7
516.334	4.63
516.683	4.7
517.032	4.71
517.38	4.72
517.729	4.71
518.077	4.62
518.426	4.81
518.774	4.69
519.122	4.73
519.47	4.53
519.819	4.75
520.167	4.68
520.515	4.65
520.863	4.62
521.211	4.7
521.559	4.69
521.907	4.69
522.255	4.76
522.602	4.77
522.95	4.79
523.298	4.74
523.645	4.8
523.993	4.76
524.341	4.82
524.688	4.84
525.036	4.84
525.383	4.87
525.73	4.67
526.078	4.84
526.425	4.73
526.772	4.85
527.119	4.78
527.466	4.76
527.814	4.76
528.161	4.73
528.508	4.73
528.854	4.78
529.201	4.82
529.548	4.79
529.895	4.68
530.242	4.71
530.588	4.69
530.935	4.64
531.282	4.77
531.628	4.65
531.975	4.7
532.321	4.73
532.667	4.9
533.014	4.89
533.36	4.81
533.706	4.9
534.052	4.85
534.399	4.88
534.745	4.81
535.091	4.75
535.437	4.81
535.783	4.79
536.129	4.83
536.474	4.84
536.82	4.87
537.166	4.93
537.512	4.97
537.857	4.96
538.203	4.94
538.549	4.9
538.894	4.95
539.239	4.98
539.585	4.92
539.93	4.99
540.276	5.01
540.621	4.92
540.966	5.02
541.311	5.01
541.656	5
542.001	5.19
542.346	5.08
542.691	4.96
543.036	4.96
543.381	4.92
543.726	4.96
544.071	4.9
544.415	4.99
544.76	4.97
545.105	5.14
545.449	5.09
545.794	5.07
546.138	5.13
546.483	5.13
546.827	5.09
547.171	5.05
547.516	5.02
547.86	5.11
548.204	5.16
548.548	5.19
548.892	5.13
549.236	5.28
549.58	5.26
549.924	5.21
550.268	5.39
550.612	5.28
550.956	5.4
551.3	5.28
551.643	5.47
551.987	5.26
552.33	5.15
552.674	5.4
553.017	5.37
553.361	5.49
553.704	5.48
554.048	5.34
554.391	5.42
554.734	5.2
555.077	5.47
555.42	5.41
555.764	5.5
556.107	5.45
556.45	5.4
556.793	5.53
557.135	5.4
557.478	5.46
557.821	5.45
558.164	5.44
558.507	5.66
558.849	5.38
559.192	5.55
559.534	5.52
559.877	5.73
560.219	5.69
560.562	5.49
560.904	5.49
561.246	5.55
561.589	5.6
561.931	5.68
562.273	5.67
562.615	5.6
562.957	5.64
563.299	5.85
563.641	5.67
563.983	5.53
564.325	5.53
564.667	5.69
565.008	5.64
565.35	5.77
565.692	5.53
566.033	5.71
566.375	5.66
566.716	5.8
567.058	5.7
567.399	5.75
567.741	5.77
568.082	5.86
568.423	5.79
568.764	5.8
569.105	5.76
569.447	5.85
569.788	5.79
570.129	5.79
570.47	5.95
570.811	5.91
571.151	5.97
571.492	5.86
571.833	5.87
572.174	5.85
572.514	5.97
572.855	5.92
573.195	6.11
573.536	5.99
573.876	6.06
574.217	5.96
574.557	5.97
574.898	5.98
575.238	6.06
575.578	6.17
575.918	6.04
576.258	6.11
576.598	6.1
576.938	6.05
577.278	6.26
577.618	6.24
577.958	6.15
578.298	6.28
578.638	6.08
578.977	6.17
579.317	6.19
579.657	6.32
579.996	6.16
580.336	6.27
580.675	6.24
581.014	6.34
581.354	6.4
581.693	6.33
582.032	6.32
582.372	6.46
582.711	6.53
583.05	6.26
583.389	6.47
583.728	6.48
584.067	6.51
584.406	6.54
584.745	6.57
585.083	6.56
585.422	6.36
585.761	6.77
586.1	6.48
586.438	6.66
586.777	6.52
587.115	6.54
587.454	6.9
587.792	6.75
588.13	6.74
588.469	6.44
588.807	6.76
589.145	6.77
589.483	6.61
589.821	6.48
590.159	6.59
590.497	6.91
590.835	6.67
591.173	6.87
591.511	6.9
591.849	6.65
592.187	6.79
592.524	6.97
592.862	7
593.2	7.17
593.537	6.7
593.875	6.79
594.212	7.03
594.55	7.03
594.887	6.8
595.224	6.9
595.561	6.93
595.899	7.18
596.236	7.01
596.573	6.9
596.91	7
597.247	6.77
597.584	6.88
597.921	7.18
598.258	7.01
598.594	6.91
598.931	7.19
599.268	6.87
599.604	7.22
599.941	7.13
600.277	7.09
600.614	7.15
600.95	7.29
601.287	7.36
601.623	7.21
601.959	7.1
602.296	7.25
602.632	7.33
602.968	7.25
603.304	7.41
603.64	7.25
603.976	7.47
604.312	7.29
604.648	7.28
604.984	7.65
605.319	7.46
605.655	7.41
605.991	7.48
606.326	7.43
606.662	7.34
606.998	7.44
607.333	7.43
607.668	7.53
608.004	7.53
608.339	7.87
608.674	7.74
609.01	7.39
609.345	7.66
609.68	8.01
610.015	7.56
610.35	7.91
610.685	7.74
611.02	7.86
611.355	7.66
611.689	7.86
612.024	7.87
612.359	7.56
612.694	7.75
613.028	7.91
613.363	7.87
613.697	8
614.032	7.91
614.366	7.8
614.7	7.79
615.035	8.11
615.369	8.13
615.703	8.11
616.037	8.14
616.371	7.97
616.705	8.19
617.039	8.15
617.373	7.94
617.707	8.35
618.041	8.29
618.375	8.72
618.709	8.12
619.042	8.22
619.376	8.28
619.71	8.28
620.043	8.12
620.377	8.34
620.71	8.43
621.043	8.38
621.377	8.15
621.71	8.33
622.043	8.49
622.376	8.53
622.709	8.65
623.043	8.55
623.376	8.49
623.709	8.45
624.041	8.57
624.374	8.7
624.707	8.59
625.04	8.28
625.373	8.63
625.705	8.73
626.038	8.97
626.37	8.62
626.703	8.72
627.035	8.75
627.368	8.98
627.7	8.62
628.032	8.69
628.365	9.03
628.697	8.97
629.029	8.77
629.361	9.01
629.693	8.86
630.025	9.02
630.357	8.54
630.689	9.26
631.021	8.68
631.353	9.15
631.684	9.19
632.016	9.02
632.348	8.98
632.679	9.34
633.011	9.1
633.342	8.77
633.674	9.03
634.005	9.19
634.336	9.35
634.668	8.89
634.999	9.18
635.33	9.27
635.661	9.67
635.992	9.32
636.323	9.61
636.654	9.47
636.985	9.59
637.316	9.6
637.647	9.21
637.977	9.19
638.308	9.76
638.639	9.48
638.969	9.78
639.3	9.63
639.63	9.8
639.961	9.39
640.291	9.81
640.622	9.69
640.952	9.59
641.282	9.9
641.612	10.33
641.943	9.62
642.273	9.57
642.603	9.74
642.933	9.85
643.263	9.73
643.592	10.31
643.922	9.96
644.252	9.94
644.582	9.86
644.911	10.34
645.241	10.47
645.571	10.08
645.9	9.97
646.23	10.22
646.559	10.17
646.888	10.31
647.218	10.01
647.547	10.13
647.876	9.96
648.205	10.14
648.534	10.54
648.863	10.44
649.192	10.09
649.521	10.39
649.85	10.29
650.179	9.99
650.508	10.7
650.837	10.49
651.165	10.74
651.494	10.66
651.822	10.62
652.151	10.52
652.479	10.58
652.808	11
653.136	10.53
653.465	10.96
653.793	11.05
654.121	10.78
654.449	11.13
654.777	10.89
655.105	10.87
655.433	10.48
655.761	10.74
656.089	10.5
656.417	11.23
656.745	10.82
657.073	11.09
657.4	10.91
657.728	10.87
658.056	10.75
658.383	11.61
658.711	11.11
659.038	10.85
659.365	11.07
659.693	11.15
660.02	11.45
660.347	11.53
660.674	11.17
661.001	11.56
661.329	11.3
661.656	11.55
661.982	11.51
662.309	10.93
662.636	11.4
662.963	11.49
663.29	11.78
663.616	11.59
663.943	11.7
664.27	11.55
664.596	12.07
664.923	11.81
665.249	11.58
665.576	11.27
665.902	11.57
666.228	12.02
666.554	12.47
666.881	11.6
667.207	10.84
667.533	12.17
667.859	11.48
668.185	12.08
668.511	11.88
668.837	11.89
669.162	12.22
669.488	12.2
669.814	12.03
670.139	12.44
670.465	12.11
670.791	11.9
671.116	11.95
671.442	11.99
671.767	11.89
672.092	11.81
672.418	12.21
672.743	12.41
673.068	12.28
673.393	12.2
673.718	12.07
674.043	13.04
674.368	12.33
674.693	12.51
675.018	12.55
675.343	12.59
675.667	12.7
675.992	12.66
676.317	12.39
676.641	12.89
676.966	12.05
677.29	12.42
677.615	13.1
677.939	13.19
678.264	12.71
678.588	12.94
678.912	13.1
679.236	12.65
679.56	13.41
679.885	12.93
680.209	12.41
680.532	13.03
680.856	13.66
681.18	13.08
681.504	13.15
681.828	12.77
682.152	13.66
682.475	12.73
682.799	12.9
683.122	13.19
683.446	13.23
683.769	13.39
684.093	12.85
684.416	13.36
684.739	13.92
685.062	13.49
685.386	13.79
685.709	13.68
686.032	13.66
686.355	13.83
686.678	14.17
687.001	14.72
687.324	13.58
687.646	13.24
687.969	12.98
688.292	13.53
688.614	13.68
688.937	13.48
689.26	13.76
689.582	13.91
