Data from 1610-3_crown_Reflection__1__132.txt Node

Date: Fri Nov 11 17:08:51 CST 2022
User: ToomeyLab
Spectrometer: FLMS14357
Trigger mode: 0
Integration Time (sec): 1.000000E-2
Scans to average: 100
Electric dark correction enabled: true
Nonlinearity correction enabled: false
Boxcar width: 0
XAxis mode: Wavelengths
Number of Pixels in Spectrum: 2048
>>>>>Begin Spectral Data<<<<<
189.047	87.28
189.435	87.28
189.823	87.28
190.211	45.98
190.599	-7.52
190.987	-1016.32
191.375	-100.82
191.763	179.95
192.151	-157.89
192.538	-190.25
192.926	23.26
193.314	40.36
193.702	14.35
194.089	-332.92
194.477	2267.89
194.864	73.85
195.252	87.49
195.639	33.64
196.027	7.59
196.414	162.85
196.801	76.04
197.189	5.7
197.576	-136.26
197.963	36.92
198.351	31.83
198.738	-28.32
199.125	0.41
199.512	-2.6
199.899	36
200.286	-8.81
200.673	20.38
201.06	-19.83
201.447	43.8
201.833	13.81
202.22	-1.31
202.607	29.06
202.994	5.82
203.38	-20.72
203.767	-6.55
204.154	-35.02
204.54	29.81
204.927	36.11
205.313	8.95
205.699	19.18
206.086	-6.01
206.472	2.79
206.858	-11.38
207.245	2.83
207.631	-2.64
208.017	-15.04
208.403	19.73
208.789	-45.87
209.175	-8.43
209.561	12.75
209.947	1.12
210.333	-4.07
210.719	5.4
211.105	17.7
211.491	-89.04
211.876	15.84
212.262	-29.69
212.648	-1.94
213.034	-6.25
213.419	-6.98
213.805	-2.25
214.19	-34.06
214.576	14.9
214.961	-24.07
215.346	-59.97
215.732	-6.28
216.117	29.75
216.502	-12.58
216.888	-1.8
217.273	-41.89
217.658	-5.75
218.043	-13.35
218.428	-4.68
218.813	19.13
219.198	-35.96
219.583	-12.85
219.968	19.66
220.353	-32.34
220.738	-20.81
221.122	-17.37
221.507	23.62
221.892	-9.9
222.276	-2.53
222.661	8.63
223.046	9.69
223.43	-4.73
223.815	-4.57
224.199	14.42
224.583	0.84
224.968	13.68
225.352	-13.59
225.736	-0.09
226.121	-7.48
226.505	-1.19
226.889	-6.84
227.273	5.4
227.657	-7.39
228.041	-1.51
228.425	1.05
228.809	2.73
229.193	-0.72
229.577	4.32
229.961	2.71
230.344	2.49
230.728	2.4
231.112	2.53
231.495	2.87
231.879	2.35
232.263	-0.25
232.646	1.44
233.03	2.22
233.413	1.06
233.797	2.53
234.18	1.58
234.563	2.9
234.946	-0.15
235.33	3.37
235.713	2
236.096	-0.57
236.479	2.97
236.862	2.4
237.245	3.4
237.628	-0.26
238.011	1.64
238.394	3.04
238.777	2.28
239.16	2.39
239.543	0.96
239.925	3.76
240.308	1.39
240.691	0.55
241.073	1.5
241.456	2.14
241.838	2.19
242.221	3.39
242.603	2.5
242.986	1.59
243.368	2.11
243.75	2.16
244.133	1.86
244.515	2.44
244.897	2.15
245.279	1.63
245.661	1.89
246.043	2.01
246.425	2.38
246.807	2.45
247.189	1.65
247.571	0.81
247.953	2.23
248.335	2.26
248.717	2.22
249.098	2.29
249.48	2.28
249.862	2.1
250.243	2.05
250.625	2.31
251.006	2.53
251.388	2.45
251.769	2.81
252.151	1.94
252.532	2.02
252.913	1.17
253.295	2.44
253.676	2.48
254.057	1.98
254.438	2.18
254.819	1.68
255.2	1.6
255.581	1.96
255.962	1.94
256.343	2.12
256.724	2.3
257.105	1.73
257.486	3.42
257.867	1.91
258.247	2.3
258.628	1.85
259.009	2.36
259.389	1.92
259.77	2.72
260.15	2.28
260.531	1.77
260.911	2.09
261.292	2.17
261.672	2.08
262.052	2.18
262.432	2.75
262.813	2.25
263.193	2.01
263.573	2.46
263.953	1.82
264.333	2.07
264.713	1.58
265.093	2.35
265.473	2.66
265.853	1.59
266.233	2.13
266.612	1.42
266.992	1.8
267.372	1.84
267.752	1.85
268.131	2.46
268.511	2.42
268.89	2.41
269.27	2.14
269.649	1.54
270.029	1.81
270.408	1.77
270.787	2.3
271.167	1.46
271.546	2.39
271.925	2.52
272.304	2.36
272.683	1.92
273.062	2.47
273.441	1.86
273.82	1.65
274.199	2.54
274.578	2.05
274.957	2.01
275.336	2.49
275.715	2.18
276.093	3.01
276.472	1.93
276.851	2.13
277.229	1.6
277.608	2.36
277.986	1.95
278.365	2.51
278.743	1.73
279.122	1.43
279.5	1.7
279.878	1.81
280.257	2.35
280.635	1.36
281.013	2.25
281.391	1.82
281.769	2.02
282.147	2.8
282.525	1.69
282.903	2.11
283.281	1.82
283.659	2.07
284.037	2.01
284.415	2.18
284.792	1.98
285.17	1.86
285.548	2.23
285.925	1.85
286.303	1.82
286.68	1.97
287.058	2.16
287.435	2.18
287.813	2.03
288.19	2.28
288.567	2.1
288.945	1.42
289.322	1.7
289.699	2.15
290.076	1.68
290.453	1.47
290.83	2.21
291.207	1.86
291.584	1.85
291.961	1.95
292.338	2.05
292.715	1.98
293.092	1.73
293.469	2.26
293.845	2.12
294.222	2.62
294.599	2.24
294.975	1.68
295.352	1.56
295.728	1.89
296.105	1.97
296.481	2.05
296.858	2.3
297.234	1.84
297.61	1.91
297.986	1.67
298.363	2.03
298.739	2.02
299.115	1.61
299.491	2.12
299.867	1.88
300.243	1.48
300.619	1.89
300.995	1.91
301.371	1.46
301.746	2.2
302.122	1.88
302.498	1.86
302.874	1.28
303.249	1.79
303.625	2.1
304	1.83
304.376	1.87
304.751	2.2
305.127	1.56
305.502	2.11
305.878	2.31
306.253	2.16
306.628	1.57
307.003	2.2
307.378	1.57
307.754	1.98
308.129	1.85
308.504	1.66
308.879	1.71
309.254	1.34
309.629	1.79
310.003	2.09
310.378	1.34
310.753	1.65
311.128	2.15
311.502	1.52
311.877	1.85
312.252	1.62
312.626	1.71
313.001	1.82
313.375	2
313.75	1.7
314.124	2.27
314.498	1.77
314.873	1.78
315.247	2.15
315.621	1.49
315.995	1.61
316.369	2.11
316.743	1.34
317.117	1.67
317.491	2.02
317.865	2.17
318.239	1.71
318.613	1.78
318.987	2.12
319.361	1.82
319.734	1.61
320.108	2.2
320.482	1.58
320.855	1.66
321.229	2.46
321.602	1.86
321.976	1.27
322.349	2.04
322.723	1.94
323.096	1.48
323.469	1.75
323.843	2.18
324.216	1.43
324.589	1.89
324.962	1.73
325.335	2.06
325.708	1.29
326.081	1.64
326.454	2.08
326.827	2.14
327.2	1.41
327.573	1.89
327.945	1.51
328.318	2.37
328.691	2.15
329.063	2.4
329.436	2.08
329.809	1.11
330.181	2.34
330.553	1.89
330.926	1.48
331.298	1.86
331.671	2.21
332.043	2.25
332.415	2.02
332.787	2.15
333.159	1.91
333.532	1.49
333.904	1.99
334.276	1.7
334.648	1.44
335.02	1.95
335.391	1.7
335.763	1.88
336.135	2.04
336.507	2.22
336.879	1.91
337.25	1.17
337.622	1.95
337.993	1.54
338.365	1.82
338.736	1.59
339.108	1.81
339.479	1.93
339.851	1.42
340.222	2.04
340.593	1.31
340.964	1.55
341.336	1.81
341.707	1.46
342.078	1.31
342.449	1.95
342.82	1.48
343.191	1.84
343.562	1.87
343.933	1.39
344.303	2.68
344.674	1.91
345.045	1.73
345.416	1.89
345.786	2
346.157	1.77
346.527	1.93
346.898	1.77
347.268	2.09
347.639	1.85
348.009	1.86
348.38	1.73
348.75	2.29
349.12	1.75
349.49	1.9
349.861	1.39
350.231	2.02
350.601	2.46
350.971	1.83
351.341	1.78
351.711	1.95
352.081	1.48
352.45	1.81
352.82	2.16
353.19	1.56
353.56	2.07
353.929	2.43
354.299	2.11
354.669	1.79
355.038	1.88
355.408	1.57
355.777	2.17
356.147	2.03
356.516	2.17
356.885	1.77
357.254	1.57
357.624	1.81
357.993	2.14
358.362	2.05
358.731	1.68
359.1	1.56
359.469	1.99
359.838	2.07
360.207	2.1
360.576	2.08
360.945	2.21
361.314	2.39
361.682	1.89
362.051	1.91
362.42	1.84
362.788	1.89
363.157	2.06
363.525	2.01
363.894	1.9
364.262	1.87
364.631	1.65
364.999	1.75
365.367	2.06
365.735	1.93
366.104	1.72
366.472	2.23
366.84	1.98
367.208	1.95
367.576	2.02
367.944	2.39
368.312	2.04
368.68	1.91
369.048	2.08
369.416	1.67
369.783	1.75
370.151	2.09
370.519	2.26
370.886	1.85
371.254	1.77
371.621	1.86
371.989	1.53
372.356	1.63
372.724	2.35
373.091	1.98
373.458	1.78
373.826	1.89
374.193	1.9
374.56	1.77
374.927	2.03
375.294	1.99
375.661	2.3
376.028	2.28
376.395	2.12
376.762	1.83
377.129	1.94
377.496	1.66
377.863	1.97
378.229	2.25
378.596	2.07
378.963	1.71
379.329	1.94
379.696	1.99
380.062	2.18
380.429	1.99
380.795	1.83
381.161	2.24
381.528	2.15
381.894	2.03
382.26	2.1
382.626	2.05
382.993	2.16
383.359	2.21
383.725	2.03
384.091	1.7
384.457	2.13
384.823	1.99
385.188	2
385.554	2.09
385.92	1.75
386.286	1.79
386.651	1.95
387.017	2.02
387.383	2.11
387.748	2.17
388.114	2.33
388.479	2.15
388.845	2.17
389.21	1.96
389.575	1.74
389.94	2.4
390.306	1.97
390.671	2.05
391.036	2.13
391.401	2.27
391.766	2.25
392.131	1.87
392.496	2.17
392.861	2.16
393.226	2.07
393.591	1.99
393.956	2.3
394.32	2.2
394.685	2.22
395.05	2.17
395.414	2.26
395.779	1.91
396.143	1.88
396.508	1.97
396.872	2.18
397.236	2.19
397.601	1.98
397.965	2.03
398.329	1.99
398.694	1.92
399.058	2.06
399.422	2.28
399.786	2.24
400.15	1.96
400.514	2.02
400.878	2.22
401.242	2.33
401.605	2.1
401.969	2.33
402.333	2.12
402.697	2.27
403.06	2.02
403.424	2.04
403.787	2.03
404.151	1.94
404.514	2.2
404.878	2.2
405.241	2.01
405.604	1.96
405.968	2.31
406.331	2.25
406.694	2.2
407.057	2.21
407.42	2.41
407.783	2.23
408.146	2.34
408.509	2.22
408.872	2.46
409.235	2.27
409.598	2.14
409.961	2.1
410.323	2.36
410.686	2.29
411.049	2.28
411.411	2.11
411.774	2.12
412.136	2.15
412.499	2.22
412.861	2.15
413.223	1.99
413.586	1.99
413.948	2
414.31	2.2
414.672	2.2
415.035	2.25
415.397	2.28
415.759	2.21
416.121	2.3
416.483	2.35
416.845	2.26
417.206	2.26
417.568	2.05
417.93	2.2
418.292	2.08
418.653	2.08
419.015	1.96
419.377	2.34
419.738	2.22
420.1	2.13
420.461	2.11
420.822	2.14
421.184	2.14
421.545	2.13
421.906	2.17
422.267	2.14
422.629	2.19
422.99	2.11
423.351	2.12
423.712	2.22
424.073	2.21
424.434	2.16
424.795	2.28
425.155	2.12
425.516	2.22
425.877	2.21
426.238	2.2
426.598	2.16
426.959	2.22
427.32	2.24
427.68	2.27
428.041	2.25
428.401	2.12
428.761	2.2
429.122	2.39
429.482	2.34
429.842	2.35
430.202	2.17
430.563	2.12
430.923	2.35
431.283	2.27
431.643	2.18
432.003	2.4
432.363	2.28
432.722	2.17
433.082	2.15
433.442	2.13
433.802	2.23
434.161	2.29
434.521	2.35
434.881	2.13
435.24	2.33
435.6	2.22
435.959	2.18
436.319	2.21
436.678	2.16
437.037	2.32
437.396	2.25
437.756	2.31
438.115	2.1
438.474	2.18
438.833	2.21
439.192	2.25
439.551	2.23
439.91	2.21
440.269	2.34
440.628	2.27
440.987	2.51
441.345	2.2
441.704	2.14
442.063	2.22
442.421	2.18
442.78	2.21
443.138	2.22
443.497	2.13
443.855	2.19
444.214	2.12
444.572	2.32
444.93	2.29
445.288	2.3
445.647	2.19
446.005	2.27
446.363	2.28
446.721	2.11
447.079	2.24
447.437	2.2
447.795	2.18
448.153	2.24
448.51	2.21
448.868	2.22
449.226	2.23
449.584	2.19
449.941	2.22
450.299	2.31
450.656	2.44
451.014	2.36
451.371	2.16
451.729	2.28
452.086	2.29
452.443	2.44
452.801	2.24
453.158	2.33
453.515	2.25
453.872	2.26
454.229	2.14
454.586	2.3
454.943	2.39
455.3	2.29
455.657	2.28
456.014	2.19
456.371	2.29
456.727	2.32
457.084	2.25
457.441	2.3
457.797	2.33
458.154	2.36
458.51	2.23
458.867	2.33
459.223	2.16
459.58	2.42
459.936	2.31
460.292	2.25
460.648	2.21
461.005	2.23
461.361	2.38
461.717	2.24
462.073	2.34
462.429	2.33
462.785	2.23
463.141	2.34
463.496	2.31
463.852	2.41
464.208	2.36
464.564	2.34
464.919	2.39
465.275	2.3
465.631	2.32
465.986	2.35
466.342	2.46
466.697	2.39
467.052	2.46
467.408	2.29
467.763	2.4
468.118	2.29
468.473	2.35
468.829	2.45
469.184	2.41
469.539	2.56
469.894	2.24
470.249	2.25
470.603	2.3
470.958	2.35
471.313	2.55
471.668	2.33
472.023	2.44
472.377	2.33
472.732	2.5
473.086	2.29
473.441	2.18
473.795	2.37
474.15	2.46
474.504	2.38
474.859	2.51
475.213	2.47
475.567	2.44
475.921	2.52
476.275	2.48
476.63	2.38
476.984	2.27
477.338	2.26
477.692	2.31
478.045	2.45
478.399	2.14
478.753	2.38
479.107	2.36
479.461	2.39
479.814	2.42
480.168	2.5
480.521	2.38
480.875	2.41
481.228	2.45
481.582	2.46
481.935	2.41
482.289	2.46
482.642	2.32
482.995	2.48
483.348	2.12
483.701	2.36
484.055	2.28
484.408	2.35
484.761	2.17
485.114	2.19
485.466	2.12
485.819	2.13
486.172	2.23
486.525	2.33
486.878	2.32
487.23	2.35
487.583	2.34
487.936	2.33
488.288	2.29
488.641	2.3
488.993	2.25
489.345	2.22
489.698	2.26
490.05	2.26
490.402	2.35
490.754	2.41
491.107	2.35
491.459	2.37
491.811	2.39
492.163	2.38
492.515	2.44
492.866	2.25
493.218	2.18
493.57	2.2
493.922	2.32
494.274	2.42
494.625	2.39
494.977	2.33
495.328	2.44
495.68	2.39
496.031	2.4
496.383	2.46
496.734	2.46
497.086	2.45
497.437	2.43
497.788	2.41
498.139	2.34
498.49	2.41
498.842	2.44
499.193	2.38
499.544	2.44
499.894	2.43
500.245	2.39
500.596	2.43
500.947	2.43
501.298	2.4
501.648	2.61
501.999	2.4
502.35	2.38
502.7	2.36
503.051	2.47
503.401	2.43
503.752	2.41
504.102	2.34
504.452	2.56
504.803	2.52
505.153	2.51
505.503	2.48
505.853	2.52
506.203	2.52
506.553	2.5
506.903	2.41
507.253	2.56
507.603	2.5
507.953	2.6
508.303	2.43
508.652	2.29
509.002	2.39
509.352	2.55
509.701	2.46
510.051	2.41
510.4	2.41
510.75	2.42
511.099	2.39
511.449	2.43
511.798	2.45
512.147	2.55
512.496	2.53
512.846	2.4
513.195	2.36
513.544	2.5
513.893	2.5
514.242	2.52
514.591	2.49
514.939	2.48
515.288	2.48
515.637	2.41
515.986	2.53
516.334	2.5
516.683	2.61
517.032	2.4
517.38	2.51
517.729	2.53
518.077	2.44
518.426	2.55
518.774	2.44
519.122	2.36
519.47	2.36
519.819	2.43
520.167	2.33
520.515	2.4
520.863	2.43
521.211	2.42
521.559	2.48
521.907	2.54
522.255	2.57
522.602	2.52
522.95	2.56
523.298	2.47
523.645	2.44
523.993	2.5
524.341	2.53
524.688	2.41
525.036	2.55
525.383	2.52
525.73	2.41
526.078	2.48
526.425	2.42
526.772	2.43
527.119	2.42
527.466	2.39
527.814	2.4
528.161	2.4
528.508	2.41
528.854	2.43
529.201	2.48
529.548	2.39
529.895	2.25
530.242	2.23
530.588	2.28
530.935	2.29
531.282	2.49
531.628	2.41
531.975	2.46
532.321	2.41
532.667	2.48
533.014	2.47
533.36	2.46
533.706	2.46
534.052	2.4
534.399	2.41
534.745	2.35
535.091	2.3
535.437	2.39
535.783	2.46
536.129	2.5
536.474	2.53
536.82	2.46
537.166	2.47
537.512	2.47
537.857	2.49
538.203	2.39
538.549	2.38
538.894	2.46
539.239	2.42
539.585	2.46
539.93	2.64
540.276	2.46
540.621	2.51
540.966	2.59
541.311	2.45
541.656	2.36
542.001	2.51
542.346	2.38
542.691	2.31
543.036	2.33
543.381	2.33
543.726	2.35
544.071	2.4
544.415	2.48
544.76	2.41
545.105	2.49
545.449	2.43
545.794	2.49
546.138	2.51
546.483	2.48
546.827	2.43
547.171	2.48
547.516	2.3
547.86	2.47
548.204	2.4
548.548	2.41
548.892	2.44
549.236	2.52
549.58	2.58
549.924	2.53
550.268	2.66
550.612	2.58
550.956	2.63
551.3	2.59
551.643	2.58
551.987	2.46
552.33	2.46
552.674	2.52
553.017	2.56
553.361	2.72
553.704	2.61
554.048	2.53
554.391	2.54
554.734	2.47
555.077	2.62
555.42	2.51
555.764	2.59
556.107	2.4
556.45	2.58
556.793	2.49
557.135	2.35
557.478	2.29
557.821	2.55
558.164	2.61
558.507	2.6
558.849	2.51
559.192	2.55
559.534	2.56
559.877	2.62
560.219	2.53
560.562	2.61
560.904	2.6
561.246	2.55
561.589	2.67
561.931	2.6
562.273	2.62
562.615	2.49
562.957	2.57
563.299	2.56
563.641	2.45
563.983	2.56
564.325	2.41
564.667	2.58
565.008	2.59
565.35	2.61
565.692	2.54
566.033	2.68
566.375	2.54
566.716	2.5
567.058	2.51
567.399	2.46
567.741	2.64
568.082	2.47
568.423	2.64
568.764	2.59
569.105	2.57
569.447	2.56
569.788	2.5
570.129	2.54
570.47	2.44
570.811	2.6
571.151	2.62
571.492	2.75
571.833	2.66
572.174	2.68
572.514	2.73
572.855	2.59
573.195	2.51
573.536	2.54
573.876	2.58
574.217	2.54
574.557	2.5
574.898	2.61
575.238	2.6
575.578	2.56
575.918	2.51
576.258	2.46
576.598	2.56
576.938	2.45
577.278	2.69
577.618	2.55
577.958	2.68
578.298	2.77
578.638	2.43
578.977	2.71
579.317	2.46
579.657	2.66
579.996	2.7
580.336	2.74
580.675	2.61
581.014	2.75
581.354	2.67
581.693	2.59
582.032	2.5
582.372	2.68
582.711	2.63
583.05	2.53
583.389	2.93
583.728	2.47
584.067	2.7
584.406	2.58
584.745	2.67
585.083	2.66
585.422	2.64
585.761	2.81
586.1	2.82
586.438	2.42
586.777	2.61
587.115	2.65
587.454	2.76
587.792	2.8
588.13	2.69
588.469	2.6
588.807	2.5
589.145	2.78
589.483	2.7
589.821	2.42
590.159	2.7
590.497	2.48
590.835	2.65
591.173	2.63
591.511	2.56
591.849	2.55
592.187	2.49
592.524	2.56
592.862	2.8
593.2	2.65
593.537	2.38
593.875	2.78
594.212	2.72
594.55	2.78
594.887	2.78
595.224	2.73
595.561	2.61
595.899	2.66
596.236	2.57
596.573	2.42
596.91	2.62
597.247	2.42
597.584	2.42
597.921	2.61
598.258	2.46
598.594	2.57
598.931	2.67
599.268	2.51
599.604	2.79
599.941	2.69
600.277	2.47
600.614	2.76
600.95	2.74
601.287	2.91
601.623	2.72
601.959	2.54
602.296	2.7
602.632	2.64
602.968	2.61
603.304	2.79
603.64	2.59
603.976	2.83
604.312	2.48
604.648	2.37
604.984	2.53
605.319	2.47
605.655	2.58
605.991	2.48
606.326	2.63
606.662	2.55
606.998	2.6
607.333	2.68
607.668	2.71
608.004	2.74
608.339	2.97
608.674	2.61
609.01	2.16
609.345	2.48
609.68	2.81
610.015	2.75
610.35	2.62
610.685	2.38
611.02	2.72
611.355	2.55
611.689	2.6
612.024	2.86
612.359	2.47
612.694	2.86
613.028	2.81
613.363	2.87
613.697	2.73
614.032	2.82
614.366	2.36
614.7	2.46
615.035	2.84
615.369	2.81
615.703	2.88
616.037	2.71
616.371	2.59
616.705	3.11
617.039	2.32
617.373	2.91
617.707	2.7
618.041	2.64
618.375	3.08
618.709	2.47
619.042	2.81
619.376	2.39
619.71	2.74
620.043	2.85
620.377	2.81
620.71	2.56
621.043	2.76
621.377	2.65
621.71	2.98
622.043	2.63
622.376	2.72
622.709	2.86
623.043	2.51
623.376	2.8
623.709	2.86
624.041	2.57
624.374	2.68
624.707	2.8
625.04	2.72
625.373	2.7
625.705	2.55
626.038	2.59
626.37	2.67
626.703	2.68
627.035	2.5
627.368	2.5
627.7	2.39
628.032	2.65
628.365	2.97
628.697	2.69
629.029	2.8
629.361	2.72
629.693	2.67
630.025	2.47
630.357	2.62
630.689	2.86
631.021	2.41
631.353	2.69
631.684	2.95
632.016	2.48
632.348	2.73
632.679	2.79
633.011	2.51
633.342	2.55
633.674	2.75
634.005	2.88
634.336	2.37
634.668	2.57
634.999	2.75
635.33	2.75
635.661	3.08
635.992	2.71
636.323	3.04
636.654	2.79
636.985	2.99
637.316	2.51
637.647	2.7
637.977	2.77
638.308	2.79
638.639	2.9
638.969	2.96
639.3	2.51
639.63	2.83
639.961	2.63
640.291	2.97
640.622	2.9
640.952	2.94
641.282	2.79
641.612	2.85
641.943	3.1
642.273	2.63
642.603	2.6
642.933	2.6
643.263	2.54
643.592	3.1
643.922	2.68
644.252	2.91
644.582	2.54
644.911	2.98
645.241	3.22
645.571	3.11
645.9	2.76
646.23	2.89
646.559	2.56
646.888	2.56
647.218	2.73
647.547	2.87
647.876	2.25
648.205	2.53
648.534	2.62
648.863	2.76
649.192	2.93
649.521	2.96
649.85	2.57
650.179	2.46
650.508	3.36
650.837	2.92
651.165	2.92
651.494	3.31
651.822	2.9
652.151	2.7
652.479	2.98
652.808	2.49
653.136	2.68
653.465	2.96
653.793	3.15
654.121	2.65
654.449	2.82
654.777	3.01
655.105	2.86
655.433	2.76
655.761	2.46
656.089	2.94
656.417	2.7
656.745	3.08
657.073	2.94
657.4	2.6
657.728	2.57
658.056	2.54
658.383	3.09
658.711	3.11
659.038	2.74
659.365	2.53
659.693	2.56
660.02	2.57
660.347	3.02
660.674	2.77
661.001	3.04
661.329	2.21
661.656	2.82
661.982	2.99
662.309	2.77
662.636	3.08
662.963	2.5
663.29	2.61
663.616	2.89
663.943	3
664.27	3.12
664.596	3.19
664.923	3.16
665.249	2.66
665.576	3.02
665.902	2.53
666.228	2.8
666.554	2.72
666.881	2.08
667.207	2.57
667.533	3.19
667.859	2.52
668.185	2.72
668.511	2.85
668.837	3.12
669.162	2.73
669.488	2.75
669.814	2.64
670.139	3.18
670.465	2.78
670.791	2.88
671.116	2.3
671.442	2.48
671.767	2.69
672.092	2.14
672.418	2.52
672.743	2.54
673.068	2.98
673.393	2.69
673.718	3.15
674.043	2.8
674.368	2.29
674.693	2.9
675.018	2.73
675.343	2.72
675.667	2.8
675.992	3.21
676.317	2.86
676.641	2.81
676.966	2.21
677.29	2.36
677.615	3.43
677.939	3.25
678.264	2.61
678.588	3.04
678.912	2.86
679.236	2.53
679.56	3.25
679.885	2.94
680.209	2.68
680.532	2.49
680.856	2.83
681.18	2.73
681.504	2.8
681.828	2.27
682.152	3.3
682.475	2.73
682.799	2.51
683.122	2.59
683.446	3.12
683.769	2.84
684.093	2.46
684.416	3.46
684.739	2.8
685.062	2.89
685.386	2.77
685.709	3.6
686.032	2.79
686.355	2.36
686.678	2.99
687.001	3.53
687.324	2.79
687.646	2.77
687.969	3.17
688.292	2.9
688.614	2.19
688.937	2.95
689.26	3.5
689.582	3.18
689.904	2.66
690.227	3.13
690.549	2.85
690.871	2.61
691.194	2.83
691.516	3.17
691.838	2.44
692.16	2.79
692.482	2.69
