Data from 1610-3_crown_Reflection__2__133.txt Node

Date: Fri Nov 11 17:09:01 CST 2022
User: ToomeyLab
Spectrometer: FLMS14357
Trigger mode: 0
Integration Time (sec): 1.000000E-2
Scans to average: 100
Electric dark correction enabled: true
Nonlinearity correction enabled: false
Boxcar width: 0
XAxis mode: Wavelengths
Number of Pixels in Spectrum: 2048
>>>>>Begin Spectral Data<<<<<
189.047	-1.61
189.435	-1.61
189.823	-1.61
190.211	-154.02
190.599	52.06
190.987	-1525.87
191.375	458.59
191.763	-218.07
192.151	-130.73
192.538	95.24
192.926	-135.73
193.314	-61.4
193.702	73.5
194.089	69.98
194.477	-1822.02
194.864	0.93
195.252	47.52
195.639	25.98
196.027	28.75
196.414	101.75
196.801	-61.59
197.189	313.11
197.576	-404.81
197.963	28.44
198.351	-14.95
198.738	-31.98
199.125	8.33
199.512	26.61
199.899	-0.52
200.286	15.75
200.673	8.96
201.06	-10.95
201.447	15.04
201.833	20.95
202.22	3.95
202.607	22.46
202.994	23.36
203.38	-21.32
203.767	-16.84
204.154	-23.21
204.54	12.16
204.927	22.43
205.313	4.68
205.699	1.69
206.086	22.54
206.472	21.25
206.858	12.89
207.245	0.86
207.631	15.53
208.017	2.61
208.403	-6.18
208.789	-24.61
209.175	-5.93
209.561	-4.41
209.947	-7.71
210.333	-19.36
210.719	2.79
211.105	-19.95
211.491	-112.09
211.876	24.56
212.262	-25.29
212.648	-6.06
213.034	4.03
213.419	-0.55
213.805	8.59
214.19	-57.32
214.576	19.57
214.961	-11.65
215.346	-67.36
215.732	9.7
216.117	13.24
216.502	21.91
216.888	5.51
217.273	-0.43
217.658	3.57
218.043	-16.23
218.428	-13.21
218.813	31.48
219.198	-40.29
219.583	-19.01
219.968	25.66
220.353	-22.05
220.738	-4.61
221.122	-18.34
221.507	31.74
221.892	0.47
222.276	12.28
222.661	14.32
223.046	5.53
223.43	14.55
223.815	5.17
224.199	7.2
224.583	-11.19
224.968	16.32
225.352	-0.5
225.736	1.13
226.121	-6.61
226.505	6.75
226.889	-0.5
227.273	-1.81
227.657	-3.94
228.041	1.63
228.425	-0.18
228.809	2.01
229.193	1.7
229.577	5.11
229.961	3.85
230.344	4.98
230.728	4.03
231.112	3.86
231.495	4.57
231.879	2.74
232.263	3.67
232.646	4.02
233.03	3.45
233.413	2.91
233.797	2.98
234.18	3.67
234.563	2.29
234.946	3.45
235.33	4.22
235.713	4.2
236.096	3.1
236.479	3.07
236.862	4.48
237.245	4.87
237.628	4
238.011	4
238.394	3.71
238.777	3.03
239.16	3.8
239.543	4.06
239.925	4.32
240.308	2.27
240.691	4.08
241.073	2.72
241.456	2.05
241.838	2.52
242.221	4.11
242.603	2.86
242.986	3.64
243.368	3.61
243.75	3.61
244.133	3.73
244.515	3.99
244.897	3.21
245.279	3
245.661	2.93
246.043	3.95
246.425	3.63
246.807	3.57
247.189	2.49
247.571	2.7
247.953	3.25
248.335	3.72
248.717	3.63
249.098	3.57
249.48	3.71
249.862	3.32
250.243	3.85
250.625	3.61
251.006	4.49
251.388	3.73
251.769	3.64
252.151	3.19
252.532	4.06
252.913	3.21
253.295	3.25
253.676	3.55
254.057	3.66
254.438	3.5
254.819	3.02
255.2	3.53
255.581	2.76
255.962	2.67
256.343	3.33
256.724	3.23
257.105	2.81
257.486	3.66
257.867	3.57
258.247	3.37
258.628	2.7
259.009	2.94
259.389	3.42
259.77	3.89
260.15	3.28
260.531	3.08
260.911	3.01
261.292	3.33
261.672	3.42
262.052	3.52
262.432	3.84
262.813	3.36
263.193	3.27
263.573	4.04
263.953	3.79
264.333	4.11
264.713	2.92
265.093	3.11
265.473	3.83
265.853	3.2
266.233	2.87
266.612	3.05
266.992	2.85
267.372	3.15
267.752	3.68
268.131	4.03
268.511	3.37
268.89	3.51
269.27	3.11
269.649	2.94
270.029	2.98
270.408	3.2
270.787	3.53
271.167	2.76
271.546	3.88
271.925	3.56
272.304	3.77
272.683	3.24
273.062	3.23
273.441	3.42
273.82	2.84
274.199	3.3
274.578	3.73
274.957	2.95
275.336	3.39
275.715	3.59
276.093	3.43
276.472	3.2
276.851	3.25
277.229	3.26
277.608	3.58
277.986	3.23
278.365	3.3
278.743	3.3
279.122	3.13
279.5	3.16
279.878	2.59
280.257	3.86
280.635	2.92
281.013	3.65
281.391	3
281.769	3.87
282.147	3.16
282.525	2.92
282.903	3.54
283.281	2.96
283.659	2.87
284.037	3.28
284.415	3.34
284.792	3.33
285.17	2.78
285.548	3.1
285.925	3.2
286.303	3.12
286.68	3.16
287.058	3.52
287.435	3.25
287.813	3.09
288.19	3.39
288.567	3.13
288.945	2.98
289.322	3.08
289.699	3.32
290.076	3.21
290.453	3.14
290.83	3.65
291.207	3.13
291.584	3.15
291.961	2.86
292.338	3.21
292.715	3.28
293.092	2.9
293.469	3.27
293.845	3.32
294.222	3.09
294.599	3.37
294.975	3.02
295.352	2.85
295.728	3.3
296.105	3.39
296.481	3.07
296.858	3.27
297.234	2.92
297.61	2.81
297.986	2.77
298.363	2.82
298.739	3.3
299.115	3.02
299.491	3.22
299.867	3
300.243	2.87
300.619	3.24
300.995	2.98
301.371	2.93
301.746	2.94
302.122	3.08
302.498	2.65
302.874	3.23
303.249	3.17
303.625	3.04
304	2.93
304.376	3.34
304.751	3.53
305.127	3.28
305.502	3.41
305.878	3.59
306.253	3.22
306.628	3.71
307.003	3.08
307.378	3.32
307.754	3.1
308.129	3.26
308.504	2.72
308.879	2.34
309.254	2.59
309.629	2.4
310.003	2.93
310.378	2.22
310.753	2.59
311.128	2.68
311.502	2.58
311.877	3.2
312.252	2.48
312.626	2.56
313.001	2.86
313.375	3.1
313.75	3.11
314.124	2.96
314.498	3.4
314.873	2.95
315.247	3.1
315.621	2.35
315.995	2.77
316.369	3.37
316.743	3.55
317.117	2.58
317.491	2.81
317.865	2.94
318.239	2.82
318.613	3.22
318.987	3.21
319.361	2.43
319.734	2.5
320.108	3.29
320.482	2.14
320.855	2.75
321.229	3.38
321.602	3.1
321.976	2.49
322.349	2.79
322.723	2.72
323.096	2.62
323.469	2.83
323.843	2.86
324.216	2.71
324.589	3
324.962	2.71
325.335	3.1
325.708	2.92
326.081	2.67
326.454	2.45
326.827	3.12
327.2	2.67
327.573	3.23
327.945	2.97
328.318	3.21
328.691	3.24
329.063	3.21
329.436	3.1
329.809	2.24
330.181	2.86
330.553	2.78
330.926	2.55
331.298	2.91
331.671	2.38
332.043	3.56
332.415	2.82
332.787	2.86
333.159	3.23
333.532	2.92
333.904	2.47
334.276	2.96
334.648	2.38
335.02	2.83
335.391	3.11
335.763	2.78
336.135	2.43
336.507	2.6
336.879	3.01
337.25	2.67
337.622	3.37
337.993	2.72
338.365	3.01
338.736	2.95
339.108	3.14
339.479	3.21
339.851	2.56
340.222	2.58
340.593	2.63
340.964	2.73
341.336	2.46
341.707	2.58
342.078	2.55
342.449	2.94
342.82	2.67
343.191	2.99
343.562	2.89
343.933	2.43
344.303	3.09
344.674	2.47
345.045	2.46
345.416	2.73
345.786	2.85
346.157	2.61
346.527	2.68
346.898	2.74
347.268	2.79
347.639	3.01
348.009	2.53
348.38	3.01
348.75	3.4
349.12	2.7
349.49	2.83
349.861	2.73
350.231	2.93
350.601	3.29
350.971	3.12
351.341	2.83
351.711	2.68
352.081	2.28
352.45	2.82
352.82	2.8
353.19	2.4
353.56	3.14
353.929	2.9
354.299	2.95
354.669	2.95
355.038	2.65
355.408	2.32
355.777	3.47
356.147	2.79
356.516	2.72
356.885	2.66
357.254	2.79
357.624	3.01
357.993	2.73
358.362	2.78
358.731	2.67
359.1	2.45
359.469	2.81
359.838	3.05
360.207	3.01
360.576	3.01
360.945	2.93
361.314	3.24
361.682	2.8
362.051	2.82
362.42	2.79
362.788	2.68
363.157	2.89
363.525	2.98
363.894	2.73
364.262	2.69
364.631	2.91
364.999	2.98
365.367	3.08
365.735	2.91
366.104	2.77
366.472	2.8
366.84	3.13
367.208	2.74
367.576	3.05
367.944	3.03
368.312	2.72
368.68	3.09
369.048	2.75
369.416	2.74
369.783	2.77
370.151	3.06
370.519	3.36
370.886	2.63
371.254	2.8
371.621	3.08
371.989	2.37
372.356	2.51
372.724	3.19
373.091	2.98
373.458	2.77
373.826	2.97
374.193	2.73
374.56	2.7
374.927	2.78
375.294	3.07
375.661	3.02
376.028	2.98
376.395	2.85
376.762	2.83
377.129	3.28
377.496	2.89
377.863	2.97
378.229	3.08
378.596	2.75
378.963	2.82
379.329	2.78
379.696	2.94
380.062	2.96
380.429	2.78
380.795	2.77
381.161	2.97
381.528	3.18
381.894	2.92
382.26	2.99
382.626	2.72
382.993	2.82
383.359	2.86
383.725	3.25
384.091	2.63
384.457	2.82
384.823	2.7
385.188	3.02
385.554	3.11
385.92	2.76
386.286	2.75
386.651	2.92
387.017	2.9
387.383	2.87
387.748	2.86
388.114	2.78
388.479	2.91
388.845	2.9
389.21	3.1
389.575	2.85
389.94	2.88
390.306	2.87
390.671	2.77
391.036	3.02
391.401	3.04
391.766	3.18
392.131	2.71
392.496	2.95
392.861	2.72
393.226	3.03
393.591	2.81
393.956	3.12
394.32	3.13
394.685	3.11
395.05	3.05
395.414	3.24
395.779	2.82
396.143	2.94
396.508	2.8
396.872	3.06
397.236	3.05
397.601	3.15
397.965	2.97
398.329	3.09
398.694	2.7
399.058	2.97
399.422	3.13
399.786	3.02
400.15	2.93
400.514	3.03
400.878	3.22
401.242	3.09
401.605	3.16
401.969	3.2
402.333	3.2
402.697	3.02
403.06	2.88
403.424	2.78
403.787	3.16
404.151	2.81
404.514	2.86
404.878	3.11
405.241	3.22
405.604	3.07
405.968	3.2
406.331	2.89
406.694	3.17
407.057	3.04
407.42	3.23
407.783	2.93
408.146	3.05
408.509	3.17
408.872	3.19
409.235	3.02
409.598	2.92
409.961	3.09
410.323	3
410.686	3.22
411.049	3.25
411.411	3.05
411.774	3.09
412.136	3.06
412.499	3.35
412.861	3.01
413.223	3.02
413.586	2.77
413.948	2.85
414.31	3.13
414.672	3.17
415.035	3.11
415.397	3.06
415.759	3.12
416.121	3.23
416.483	3.03
416.845	3.05
417.206	3.16
417.568	2.99
417.93	3.16
418.292	2.86
418.653	3.09
419.015	2.98
419.377	3.1
419.738	3.13
420.1	3.09
420.461	3.01
420.822	3
421.184	2.9
421.545	2.95
421.906	3.1
422.267	3.07
422.629	3.03
422.99	3.05
423.351	3.01
423.712	3.04
424.073	3.08
424.434	3.04
424.795	3.17
425.155	3.1
425.516	3.06
425.877	3.14
426.238	3.03
426.598	3.05
426.959	3.03
427.32	3.1
427.68	3.12
428.041	3.27
428.401	3.05
428.761	3.05
429.122	3.14
429.482	3.16
429.842	3.21
430.202	3.04
430.563	2.96
430.923	3.15
431.283	3.08
431.643	3.23
432.003	3.37
432.363	3.18
432.722	3.22
433.082	3.13
433.442	3.14
433.802	3.37
434.161	3.17
434.521	3.32
434.881	3.16
435.24	3.14
435.6	3.04
435.959	3.15
436.319	3.03
436.678	3.11
437.037	3.05
437.396	2.99
437.756	2.98
438.115	2.87
438.474	3.11
438.833	3.12
439.192	3.12
439.551	3.08
439.91	3.18
440.269	3.21
440.628	3.23
440.987	3.21
441.345	3.11
441.704	3.07
442.063	3.14
442.421	3.15
442.78	3.14
443.138	3.17
443.497	3.11
443.855	3.11
444.214	3.21
444.572	3.28
444.93	3.2
445.288	3.25
445.647	3.09
446.005	3.17
446.363	3.05
446.721	3.12
447.079	3.04
447.437	3.07
447.795	3.09
448.153	3.05
448.51	3.09
448.868	3.2
449.226	3.24
449.584	3.22
449.941	3.2
450.299	3.12
450.656	3.24
451.014	3.17
451.371	3.21
451.729	3.24
452.086	3.19
452.443	3.38
452.801	3.26
453.158	3.17
453.515	3.16
453.872	3.3
454.229	3.12
454.586	3.24
454.943	3.2
455.3	3.19
455.657	3.35
456.014	3.05
456.371	3.12
456.727	3.32
457.084	3.08
457.441	3.3
457.797	3.18
458.154	3.25
458.51	3.22
458.867	3.36
459.223	3.22
459.58	3.15
459.936	3.14
460.292	3.11
460.648	3.17
461.005	3.17
461.361	3.21
461.717	3.16
462.073	3.24
462.429	3.35
462.785	3.17
463.141	3.32
463.496	3.21
463.852	3.28
464.208	3.26
464.564	3.28
464.919	3.17
465.275	3.44
465.631	3.32
465.986	3.22
466.342	3.34
466.697	3.25
467.052	3.32
467.408	3.23
467.763	3.39
468.118	3.24
468.473	3.25
468.829	3.3
469.184	3.37
469.539	3.4
469.894	3.23
470.249	3.34
470.603	3.08
470.958	3.46
471.313	3.4
471.668	3.4
472.023	3.51
472.377	3.35
472.732	3.42
473.086	3.33
473.441	3.41
473.795	3.35
474.15	3.44
474.504	3.39
474.859	3.41
475.213	3.39
475.567	3.53
475.921	3.46
476.275	3.28
476.63	3.43
476.984	3.35
477.338	3.37
477.692	3.42
478.045	3.2
478.399	3.29
478.753	3.41
479.107	3.27
479.461	3.33
479.814	3.37
480.168	3.49
480.521	3.4
480.875	3.29
481.228	3.35
481.582	3.31
481.935	3.4
482.289	3.49
482.642	3.3
482.995	3.35
483.348	3.18
483.701	3.34
484.055	3.31
484.408	3.26
484.761	3.19
485.114	3.16
485.466	3.08
485.819	3.07
486.172	3.14
486.525	3.17
486.878	3.2
487.23	3.22
487.583	3.24
487.936	3.31
488.288	3.19
488.641	3.19
488.993	3.17
489.345	3.21
489.698	3.18
490.05	3.17
490.402	3.21
490.754	3.34
491.107	3.3
491.459	3.38
491.811	3.31
492.163	3.3
492.515	3.24
492.866	3.2
493.218	3.19
493.57	3.17
493.922	3.31
494.274	3.22
494.625	3.25
494.977	3.33
495.328	3.35
495.68	3.37
496.031	3.36
496.383	3.51
496.734	3.39
497.086	3.38
497.437	3.29
497.788	3.49
498.139	3.38
498.49	3.34
498.842	3.34
499.193	3.36
499.544	3.38
499.894	3.48
500.245	3.46
500.596	3.46
500.947	3.35
501.298	3.47
501.648	3.49
501.999	3.51
502.35	3.4
502.7	3.52
503.051	3.37
503.401	3.39
503.752	3.37
504.102	3.4
504.452	3.48
504.803	3.49
505.153	3.41
505.503	3.44
505.853	3.48
506.203	3.53
506.553	3.51
506.903	3.45
507.253	3.43
507.603	3.47
507.953	3.48
508.303	3.56
508.652	3.33
509.002	3.43
509.352	3.5
509.701	3.47
510.051	3.46
510.4	3.34
510.75	3.49
511.099	3.45
511.449	3.44
511.798	3.33
512.147	3.53
512.496	3.56
512.846	3.36
513.195	3.33
513.544	3.51
513.893	3.51
514.242	3.45
514.591	3.42
514.939	3.54
515.288	3.54
515.637	3.44
515.986	3.5
516.334	3.54
516.683	3.53
517.032	3.4
517.38	3.46
517.729	3.53
518.077	3.42
518.426	3.52
518.774	3.47
519.122	3.5
519.47	3.34
519.819	3.44
520.167	3.35
520.515	3.44
520.863	3.43
521.211	3.5
521.559	3.51
521.907	3.54
522.255	3.55
522.602	3.63
522.95	3.48
523.298	3.47
523.645	3.51
523.993	3.57
524.341	3.64
524.688	3.51
525.036	3.6
525.383	3.47
525.73	3.43
526.078	3.52
526.425	3.47
526.772	3.37
527.119	3.52
527.466	3.47
527.814	3.43
528.161	3.39
528.508	3.55
528.854	3.46
529.201	3.47
529.548	3.41
529.895	3.33
530.242	3.33
530.588	3.3
530.935	3.31
531.282	3.44
531.628	3.4
531.975	3.44
532.321	3.46
532.667	3.49
533.014	3.49
533.36	3.42
533.706	3.49
534.052	3.43
534.399	3.44
534.745	3.38
535.091	3.34
535.437	3.4
535.783	3.45
536.129	3.45
536.474	3.47
536.82	3.46
537.166	3.5
537.512	3.51
537.857	3.52
538.203	3.48
538.549	3.44
538.894	3.5
539.239	3.54
539.585	3.52
539.93	3.57
540.276	3.59
540.621	3.54
540.966	3.58
541.311	3.66
541.656	3.46
542.001	3.53
542.346	3.53
542.691	3.5
543.036	3.38
543.381	3.4
543.726	3.41
544.071	3.49
544.415	3.53
544.76	3.49
545.105	3.58
545.449	3.49
545.794	3.45
546.138	3.55
546.483	3.6
546.827	3.59
547.171	3.59
547.516	3.46
547.86	3.53
548.204	3.46
548.548	3.54
548.892	3.52
549.236	3.5
549.58	3.56
549.924	3.61
550.268	3.59
550.612	3.65
550.956	3.69
551.3	3.63
551.643	3.73
551.987	3.73
552.33	3.66
552.674	3.58
553.017	3.64
553.361	3.7
553.704	3.71
554.048	3.57
554.391	3.62
554.734	3.59
555.077	3.66
555.42	3.6
555.764	3.66
556.107	3.82
556.45	3.54
556.793	3.75
557.135	3.55
557.478	3.68
557.821	3.89
558.164	3.72
558.507	3.71
558.849	3.73
559.192	3.81
559.534	3.71
559.877	3.98
560.219	3.65
560.562	3.74
560.904	3.69
561.246	3.56
561.589	3.86
561.931	3.73
562.273	3.56
562.615	3.62
562.957	3.53
563.299	3.86
563.641	3.58
563.983	3.48
564.325	3.67
564.667	3.72
565.008	3.63
565.35	3.78
565.692	3.74
566.033	3.94
566.375	3.76
566.716	3.79
567.058	3.54
567.399	3.7
567.741	3.82
568.082	3.62
568.423	3.66
568.764	3.69
569.105	3.78
569.447	3.76
569.788	3.77
570.129	3.71
570.47	3.71
570.811	3.81
571.151	3.81
571.492	3.58
571.833	3.76
572.174	3.82
572.514	3.81
572.855	3.52
573.195	3.75
573.536	3.73
573.876	3.67
574.217	3.58
574.557	3.68
574.898	3.77
575.238	3.77
575.578	3.59
575.918	3.6
576.258	3.68
576.598	3.75
576.938	3.73
577.278	3.77
577.618	3.76
577.958	3.76
578.298	3.89
578.638	3.81
578.977	3.6
579.317	3.57
579.657	3.82
579.996	3.65
580.336	3.87
580.675	3.8
581.014	3.96
581.354	3.77
581.693	3.74
582.032	3.95
582.372	3.95
582.711	3.97
583.05	3.95
583.389	3.95
583.728	4.01
584.067	3.89
584.406	3.74
584.745	4.08
585.083	3.8
585.422	3.8
585.761	3.91
586.1	3.92
586.438	3.84
586.777	3.78
587.115	3.99
587.454	3.99
587.792	3.78
588.13	3.88
588.469	3.83
588.807	3.91
589.145	3.93
589.483	3.82
589.821	3.71
590.159	3.74
590.497	3.73
590.835	3.7
591.173	3.92
591.511	3.85
591.849	3.5
592.187	3.81
592.524	3.79
592.862	3.99
593.2	4.01
593.537	3.4
593.875	3.82
594.212	3.72
594.55	3.91
594.887	3.92
595.224	3.64
595.561	3.91
595.899	4.04
596.236	3.83
596.573	3.72
596.91	3.72
597.247	3.6
597.584	3.72
597.921	3.71
598.258	3.79
598.594	3.84
598.931	3.89
599.268	3.61
599.604	3.8
599.941	3.88
600.277	3.72
600.614	3.96
600.95	3.95
601.287	3.98
601.623	3.81
601.959	3.84
602.296	3.87
602.632	4.01
602.968	3.82
603.304	4.15
603.64	3.81
603.976	3.94
604.312	3.88
604.648	3.52
604.984	3.85
605.319	3.79
605.655	3.67
605.991	3.77
606.326	3.89
606.662	3.7
606.998	3.8
607.333	3.79
607.668	3.88
608.004	3.88
608.339	4.02
608.674	3.83
609.01	3.56
609.345	3.74
609.68	4.09
610.015	3.91
610.35	3.94
610.685	3.83
611.02	4.06
611.355	3.73
611.689	3.88
612.024	3.72
612.359	3.63
612.694	3.82
613.028	3.73
613.363	3.9
613.697	3.84
614.032	3.91
614.366	3.65
614.7	3.85
615.035	3.9
615.369	4.05
615.703	3.77
616.037	3.96
616.371	4.06
616.705	4.12
617.039	3.71
617.373	3.95
617.707	3.87
618.041	3.92
618.375	4.18
618.709	3.71
619.042	4.12
619.376	4.02
619.71	3.85
620.043	3.97
620.377	4.05
620.71	3.85
621.043	3.8
621.377	3.8
621.71	4.18
622.043	3.77
622.376	3.89
622.709	3.95
623.043	3.71
623.376	3.93
623.709	4.26
624.041	4
624.374	4.04
624.707	4.06
625.04	4.04
625.373	3.79
625.705	3.71
626.038	3.88
626.37	3.84
626.703	3.97
627.035	3.71
627.368	3.97
627.7	3.74
628.032	3.81
628.365	4.19
628.697	4.02
629.029	3.97
629.361	4.02
629.693	3.7
630.025	3.77
630.357	3.55
630.689	4.07
631.021	3.41
631.353	3.87
631.684	4.1
632.016	4.01
632.348	3.96
632.679	3.86
633.011	3.96
633.342	3.55
633.674	3.95
634.005	3.95
634.336	3.7
634.668	3.94
634.999	3.66
635.33	4
635.661	3.94
635.992	4.19
636.323	4.04
636.654	4.21
636.985	4.07
637.316	3.86
637.647	3.92
637.977	4.06
638.308	3.86
638.639	4
638.969	4.31
639.3	3.83
639.63	4.01
639.961	3.92
640.291	4.03
640.622	3.58
640.952	3.98
641.282	4.17
641.612	4.13
641.943	4.1
642.273	4.03
642.603	3.83
642.933	4.13
643.263	3.79
643.592	4.27
643.922	3.42
644.252	4.14
644.582	3.82
644.911	4.02
645.241	4.46
645.571	4
645.9	4.14
646.23	3.98
646.559	4.16
646.888	4.22
647.218	3.49
647.547	4.11
647.876	3.69
648.205	3.78
648.534	4.2
648.863	4.31
649.192	4.18
649.521	3.96
649.85	4.13
650.179	3.87
650.508	4
650.837	4.24
651.165	4.44
651.494	4.39
651.822	3.9
652.151	4.29
652.479	4.23
652.808	4.1
653.136	4.43
653.465	4.14
653.793	4.03
654.121	4.25
654.449	3.75
654.777	4.01
655.105	4.44
655.433	4.02
655.761	4.17
656.089	3.69
656.417	3.94
656.745	4.06
657.073	4.22
657.4	4.07
657.728	4.22
658.056	3.7
658.383	4
658.711	4.33
659.038	3.66
659.365	4.08
659.693	4.41
660.02	4.36
660.347	4.17
660.674	3.7
661.001	3.92
661.329	4.23
661.656	4.18
661.982	4.37
662.309	4.16
662.636	3.97
662.963	3.81
663.29	4.21
663.616	3.89
663.943	4.31
664.27	4.66
664.596	4.25
664.923	4.59
665.249	4.24
665.576	4.16
665.902	3.74
666.228	4.41
666.554	3.95
666.881	4.15
667.207	3.53
667.533	4.16
667.859	3.7
668.185	4.13
668.511	4.54
668.837	3.64
669.162	4.21
669.488	4.27
669.814	3.85
670.139	4.44
670.465	4.06
670.791	3.68
671.116	4.13
671.442	4.06
671.767	4.09
672.092	4.02
672.418	4.2
672.743	3.9
673.068	4
673.393	4.06
673.718	3.93
674.043	4.31
674.368	3.74
674.693	4.21
675.018	4.27
675.343	4.13
675.667	3.96
675.992	3.86
676.317	4.27
676.641	4.62
676.966	3.91
677.29	3.06
677.615	4.68
677.939	3.86
678.264	4.19
678.588	4.67
678.912	4.3
679.236	4.4
679.56	4.84
679.885	4.43
680.209	4.25
680.532	3.96
680.856	4.49
681.18	4.13
681.504	4.19
681.828	3.94
682.152	4.71
682.475	3.92
682.799	4.13
683.122	4.3
683.446	3.99
683.769	4.68
684.093	3.83
684.416	4.52
684.739	4.43
685.062	3.99
685.386	4.5
685.709	4.46
686.032	3.57
686.355	3.63
686.678	3.78
687.001	4.88
687.324	4.2
687.646	4.21
687.969	4.22
688.292	4.68
688.614	3.72
688.937	3.7
689.26	4.8
689.582	4.71
689.904	4.27
690.227	4.35
690.549	4.03
690.871	4.14
691.194	4.19
691.516	4.38
691.838	3.55
692.16	5.03
692.482	4.44
692.804	4.4
