Data from 1610-3_forehead_Reflection__4__140.txt Node

Date: Fri Nov 11 17:10:47 CST 2022
User: ToomeyLab
Spectrometer: FLMS14357
Trigger mode: 0
Integration Time (sec): 1.000000E-2
Scans to average: 100
Electric dark correction enabled: true
Nonlinearity correction enabled: false
Boxcar width: 0
XAxis mode: Wavelengths
Number of Pixels in Spectrum: 2048
>>>>>Begin Spectral Data<<<<<
189.047	-37.89
189.435	-37.89
189.823	-37.89
190.211	-133.44
190.599	137.83
190.987	-1934.27
191.375	381.34
191.763	-97.38
192.151	-121.23
192.538	355.81
192.926	20.8
193.314	-97.87
193.702	26.07
194.089	826.92
194.477	1150.46
194.864	228.26
195.252	-5.5
195.639	108.64
196.027	-16.9
196.414	81.69
196.801	83.38
197.189	151.24
197.576	-263.53
197.963	35
198.351	-13.9
198.738	-66.73
199.125	34.58
199.512	17.01
199.899	13.99
200.286	35.45
200.673	11.07
201.06	-14.61
201.447	45.1
201.833	31.21
202.22	13.64
202.607	21.61
202.994	33.12
203.38	19.96
203.767	23.88
204.154	12.58
204.54	33.28
204.927	69.1
205.313	-15.95
205.699	17.1
206.086	15.88
206.472	32.66
206.858	31.44
207.245	-2.49
207.631	15.88
208.017	7.48
208.403	8.04
208.789	-43.71
209.175	-7.95
209.561	20.16
209.947	18.27
210.333	37.91
210.719	33.97
211.105	10.81
211.491	-51.86
211.876	16.88
212.262	5.38
212.648	3.47
213.034	8.64
213.419	31.6
213.805	21.98
214.19	-10.37
214.576	14.8
214.961	-19.35
215.346	-57.68
215.732	-25.87
216.117	11.03
216.502	-15.33
216.888	1.78
217.273	17.32
217.658	1.78
218.043	10.67
218.428	-23.41
218.813	29.3
219.198	-21.01
219.583	11.08
219.968	-1.34
220.353	-20.65
220.738	-3.65
221.122	-9.42
221.507	10.53
221.892	23.97
222.276	11
222.661	11.21
223.046	4.07
223.43	-4.69
223.815	1.51
224.199	13.26
224.583	4.25
224.968	13.19
225.352	-8.23
225.736	1.59
226.121	7.56
226.505	1.4
226.889	1.51
227.273	7.06
227.657	-0.9
228.041	-3.84
228.425	0.64
228.809	1.77
229.193	-0.87
229.577	2.22
229.961	1.7
230.344	2.41
230.728	2.1
231.112	1.99
231.495	2.05
231.879	0.81
232.263	0.6
232.646	2.23
233.03	0.65
233.413	1.51
233.797	0.07
234.18	2.49
234.563	1.63
234.946	1.08
235.33	1.93
235.713	1.63
236.096	-0.13
236.479	1.84
236.862	3.06
237.245	2.15
237.628	2.4
238.011	2.04
238.394	3.06
238.777	1.02
239.16	0.91
239.543	1.13
239.925	4.42
240.308	1.25
240.691	0.43
241.073	0.13
241.456	-0.28
241.838	2.48
242.221	1.6
242.603	2.11
242.986	2.36
243.368	1.59
243.75	1.7
244.133	1.4
244.515	1.8
244.897	0.86
245.279	1.07
245.661	1.56
246.043	2.32
246.425	2.45
246.807	1.98
247.189	0.56
247.571	1.05
247.953	1.96
248.335	2.24
248.717	1.9
249.098	1.89
249.48	1.77
249.862	1.35
250.243	1.79
250.625	1.91
251.006	2.4
251.388	1.85
251.769	2.25
252.151	1.91
252.532	2.81
252.913	1.52
253.295	1.76
253.676	1.78
254.057	1.52
254.438	2.02
254.819	2.33
255.2	3.13
255.581	1.87
255.962	1.86
256.343	2.94
256.724	1.65
257.105	2.33
257.486	2.03
257.867	2.18
258.247	2.29
258.628	2.08
259.009	2.37
259.389	2.04
259.77	2.73
260.15	2.26
260.531	1.62
260.911	1.77
261.292	1.89
261.672	1.76
262.052	2.02
262.432	2.25
262.813	1.92
263.193	1.97
263.573	3.02
263.953	2.01
264.333	2.82
264.713	1.97
265.093	1.92
265.473	3.06
265.853	1.96
266.233	1.14
266.612	1.29
266.992	1.61
267.372	2.39
267.752	2.28
268.131	1.67
268.511	2.06
268.89	1.74
269.27	1.65
269.649	1.35
270.029	1.02
270.408	1.39
270.787	2.44
271.167	1.56
271.546	2.24
271.925	1.72
272.304	1.81
272.683	1.89
273.062	1.88
273.441	1.68
273.82	1.4
274.199	2.06
274.578	1.87
274.957	1.7
275.336	2
275.715	1.87
276.093	3.12
276.472	1.9
276.851	1.99
277.229	1.65
277.608	1.4
277.986	1.75
278.365	2.78
278.743	1.8
279.122	1.51
279.5	1.81
279.878	1.79
280.257	2.37
280.635	1.9
281.013	1.94
281.391	1.72
281.769	2.22
282.147	1.94
282.525	1.78
282.903	2.37
283.281	1.31
283.659	1.28
284.037	1.64
284.415	1.62
284.792	1.81
285.17	2.05
285.548	1.67
285.925	1.64
286.303	2.09
286.68	1.67
287.058	1.83
287.435	1.89
287.813	1.76
288.19	1.88
288.567	2
288.945	1.68
289.322	1.75
289.699	1.92
290.076	1.64
290.453	2
290.83	2.23
291.207	2.27
291.584	1.79
291.961	1.88
292.338	2.12
292.715	2.07
293.092	1.68
293.469	2.41
293.845	2.39
294.222	2.7
294.599	2.12
294.975	1.55
295.352	1.84
295.728	1.78
296.105	2.1
296.481	1.72
296.858	1.67
297.234	1.91
297.61	1.9
297.986	1.6
298.363	2.13
298.739	2.29
299.115	2.13
299.491	2.13
299.867	1.8
300.243	1.92
300.619	2.34
300.995	2.38
301.371	1.83
301.746	2.22
302.122	2.11
302.498	2.25
302.874	2.28
303.249	2.27
303.625	2.43
304	2.24
304.376	2.58
304.751	2.36
305.127	2.54
305.502	2.35
305.878	3.13
306.253	2.96
306.628	2.44
307.003	2.51
307.378	2.9
307.754	3.11
308.129	2.75
308.504	2.61
308.879	2.5
309.254	1.9
309.629	2.68
310.003	2.79
310.378	2.33
310.753	2.58
311.128	2.8
311.502	2.81
311.877	2.97
312.252	2.63
312.626	2.82
313.001	3.2
313.375	3.13
313.75	3.56
314.124	3.18
314.498	3.38
314.873	3.65
315.247	3.45
315.621	3.08
315.995	3.49
316.369	3.31
316.743	3.35
317.117	3.05
317.491	3.36
317.865	3.6
318.239	3.75
318.613	3.44
318.987	3.83
319.361	3.48
319.734	3.49
320.108	3.89
320.482	3.57
320.855	3.53
321.229	4.6
321.602	4.08
321.976	3.78
322.349	4.09
322.723	3.63
323.096	4.31
323.469	4.46
323.843	4.49
324.216	3.71
324.589	4.12
324.962	3.78
325.335	4.85
325.708	4.13
326.081	4.15
326.454	4.17
326.827	4.82
327.2	3.81
327.573	4.39
327.945	4.25
328.318	4.77
328.691	5.22
329.063	4.96
329.436	4.68
329.809	4.77
330.181	4.84
330.553	4.94
330.926	4.43
331.298	4.86
331.671	4.97
332.043	5.32
332.415	4.56
332.787	4.9
333.159	4.55
333.532	4.33
333.904	4.81
334.276	5.26
334.648	4.45
335.02	5.31
335.391	5.05
335.763	5.38
336.135	5.37
336.507	5.39
336.879	5.26
337.25	4.77
337.622	5.45
337.993	5.06
338.365	5.78
338.736	5.64
339.108	5.29
339.479	5.51
339.851	5.52
340.222	5.07
340.593	5.07
340.964	5.59
341.336	5.09
341.707	5.26
342.078	5.59
342.449	6.2
342.82	5.42
343.191	6.09
343.562	6.12
343.933	5.24
344.303	6.19
344.674	5.85
345.045	6.19
345.416	6.25
345.786	6.39
346.157	5.58
346.527	6.1
346.898	5.74
347.268	5.79
347.639	5.85
348.009	6.01
348.38	6.04
348.75	6.39
349.12	6.27
349.49	6.35
349.861	6.1
350.231	6.13
350.601	6.66
350.971	6.67
351.341	6.08
351.711	6.26
352.081	5.68
352.45	6.37
352.82	6.76
353.19	6.47
353.56	6.67
353.929	6.69
354.299	6.73
354.669	6.53
355.038	6.61
355.408	6.26
355.777	6.69
356.147	6.78
356.516	6.9
356.885	6.61
357.254	6.81
357.624	6.97
357.993	7.23
358.362	6.93
358.731	6.97
359.1	6.87
359.469	6.97
359.838	7.22
360.207	7.36
360.576	7.55
360.945	7.41
361.314	7.42
361.682	7.23
362.051	7.37
362.42	6.96
362.788	7.27
363.157	7.44
363.525	7.46
363.894	7.25
364.262	7.34
364.631	7.46
364.999	7.57
365.367	7.57
365.735	7.72
366.104	7.53
366.472	7.64
366.84	7.76
367.208	7.76
367.576	7.5
367.944	7.92
368.312	7.77
368.68	7.9
369.048	7.49
369.416	7.79
369.783	7.66
370.151	8.09
370.519	8.2
370.886	8.12
371.254	7.75
371.621	8.04
371.989	7.86
372.356	8.05
372.724	8.42
373.091	7.95
373.458	8.29
373.826	8.43
374.193	8.33
374.56	8.32
374.927	8.42
375.294	8.52
375.661	8.7
376.028	8.65
376.395	8.6
376.762	8.47
377.129	8.97
377.496	8.57
377.863	8.61
378.229	8.57
378.596	8.62
378.963	8.86
379.329	8.81
379.696	8.8
380.062	9.09
380.429	8.73
380.795	8.9
381.161	9.21
381.528	9.23
381.894	9.21
382.26	9.01
382.626	9.13
382.993	9.21
383.359	9.29
383.725	9.44
384.091	9.38
384.457	9.51
384.823	9.08
385.188	9.39
385.554	9.35
385.92	9.17
386.286	9.26
386.651	9.6
387.017	9.48
387.383	9.46
387.748	9.37
388.114	9.71
388.479	9.85
388.845	9.75
389.21	9.96
389.575	9.43
389.94	9.82
390.306	9.85
390.671	9.78
391.036	10.02
391.401	9.78
391.766	9.96
392.131	9.59
392.496	10.1
392.861	9.81
393.226	10.04
393.591	9.86
393.956	10.01
394.32	10.17
394.685	10.27
395.05	10.24
395.414	10.37
395.779	10.21
396.143	10.39
396.508	10.21
396.872	10.61
397.236	10.45
397.601	10.39
397.965	10.31
398.329	10.47
398.694	10.52
399.058	10.48
399.422	10.43
399.786	10.61
400.15	10.57
400.514	10.53
400.878	10.69
401.242	10.99
401.605	10.63
401.969	10.87
402.333	10.71
402.697	10.71
403.06	10.82
403.424	10.46
403.787	10.93
404.151	10.71
404.514	10.87
404.878	11.07
405.241	10.65
405.604	10.66
405.968	11.09
406.331	10.76
406.694	11.04
407.057	10.91
407.42	10.98
407.783	11
408.146	11.17
408.509	11.12
408.872	11.29
409.235	11.21
409.598	11.11
409.961	11.23
410.323	11.49
410.686	11.49
411.049	11.47
411.411	11.41
411.774	11.14
412.136	11.27
412.499	11.37
412.861	11.45
413.223	11.45
413.586	11.38
413.948	11.33
414.31	11.66
414.672	11.79
415.035	11.44
415.397	11.63
415.759	11.78
416.121	11.86
416.483	11.47
416.845	11.76
417.206	11.91
417.568	11.74
417.93	11.61
418.292	11.58
418.653	11.76
419.015	11.51
419.377	11.89
419.738	11.78
420.1	11.73
420.461	11.72
420.822	11.64
421.184	11.74
421.545	11.72
421.906	11.83
422.267	11.77
422.629	11.82
422.99	11.82
423.351	11.87
423.712	11.87
424.073	11.98
424.434	11.98
424.795	12.18
425.155	12.1
425.516	12.06
425.877	12.2
426.238	12.09
426.598	12.12
426.959	12.3
427.32	12.32
427.68	12.37
428.041	12.62
428.401	12.46
428.761	12.69
429.122	12.73
429.482	12.84
429.842	13.03
430.202	12.93
430.563	12.88
430.923	13.1
431.283	12.97
431.643	13.23
432.003	13.4
432.363	13.17
432.722	13.12
433.082	13.22
433.442	13.32
433.802	13.26
434.161	13.39
434.521	13.17
434.881	13.13
435.24	13.42
435.6	13.22
435.959	13.43
436.319	13.45
436.678	13.55
437.037	13.61
437.396	13.38
437.756	13.49
438.115	13.41
438.474	13.52
438.833	13.61
439.192	13.69
439.551	13.76
439.91	13.66
440.269	13.82
440.628	13.84
440.987	13.9
441.345	13.8
441.704	13.62
442.063	14.01
442.421	13.8
442.78	13.99
443.138	13.99
443.497	14
443.855	13.87
444.214	14.13
444.572	14.35
444.93	14.38
445.288	14.39
445.647	14.15
446.005	14.48
446.363	14.25
446.721	14.32
447.079	14.31
447.437	14.33
447.795	14.21
448.153	14.2
448.51	14.28
448.868	14.33
449.226	14.5
449.584	14.55
449.941	14.48
450.299	14.75
450.656	14.87
451.014	14.79
451.371	14.81
451.729	14.9
452.086	14.85
452.443	15.14
452.801	15.08
453.158	14.95
453.515	15.14
453.872	15.24
454.229	15.16
454.586	15.2
454.943	15.1
455.3	15.09
455.657	15.35
456.014	15.18
456.371	15.25
456.727	15.5
457.084	15.44
457.441	15.57
457.797	15.49
458.154	15.53
458.51	15.7
458.867	15.8
459.223	15.92
459.58	15.66
459.936	15.77
460.292	15.74
460.648	15.69
461.005	15.68
461.361	15.47
461.717	15.47
462.073	15.59
462.429	15.73
462.785	15.67
463.141	15.93
463.496	16.03
463.852	16.12
464.208	16.37
464.564	16.29
464.919	16.21
465.275	16.42
465.631	16.43
465.986	16.27
466.342	16.59
466.697	16.45
467.052	16.31
467.408	16.5
467.763	16.53
468.118	16.56
468.473	16.39
468.829	16.66
469.184	16.8
469.539	16.7
469.894	16.71
470.249	16.9
470.603	16.84
470.958	16.87
471.313	17.07
471.668	17.11
472.023	17.17
472.377	17.04
472.732	17.12
473.086	17.02
473.441	17.16
473.795	17.31
474.15	17.06
474.504	17.31
474.859	17.2
475.213	17.17
475.567	17.51
475.921	17.34
476.275	17.52
476.63	17.51
476.984	17.55
477.338	17.47
477.692	17.46
478.045	17.67
478.399	17.45
478.753	17.58
479.107	17.43
479.461	17.77
479.814	17.71
480.168	17.56
480.521	17.73
480.875	17.75
481.228	17.71
481.582	17.76
481.935	17.84
482.289	17.85
482.642	17.9
482.995	17.89
483.348	17.59
483.701	17.63
484.055	17.76
484.408	17.54
484.761	17.25
485.114	17.13
485.466	16.96
485.819	17
486.172	17.05
486.525	17.09
486.878	17.26
487.23	17.43
487.583	17.6
487.936	17.66
488.288	17.65
488.641	17.57
488.993	17.45
489.345	17.38
489.698	17.45
490.05	17.44
490.402	17.58
490.754	17.87
491.107	17.92
491.459	18.01
491.811	18.15
492.163	18.24
492.515	18.22
492.866	18.09
493.218	17.88
493.57	17.78
493.922	17.86
494.274	18.09
494.625	18.32
494.977	18.42
495.328	18.6
495.68	18.79
496.031	19
496.383	19.15
496.734	19.09
497.086	19.12
497.437	19.1
497.788	19.17
498.139	19.05
498.49	19.06
498.842	19.05
499.193	19.15
499.544	19.06
499.894	19.21
500.245	19.36
500.596	19.38
500.947	19.34
501.298	19.6
501.648	19.66
501.999	19.71
502.35	19.55
502.7	19.78
503.051	19.75
503.401	19.67
503.752	19.72
504.102	19.73
504.452	19.87
504.803	19.92
505.153	19.92
505.503	19.88
505.853	20.1
506.203	20
506.553	20.03
506.903	20
507.253	20.09
507.603	20.14
507.953	20.31
508.303	20.14
508.652	19.95
509.002	20.29
509.352	20.22
509.701	20.1
510.051	20.09
510.4	20.02
510.75	20.16
511.099	19.97
511.449	20.06
511.798	20.19
512.147	20.12
512.496	20.29
512.846	20.32
513.195	20.3
513.544	20.29
513.893	20.38
514.242	20.4
514.591	20.4
514.939	20.5
515.288	20.46
515.637	20.55
515.986	20.8
516.334	20.75
516.683	20.73
517.032	20.86
517.38	20.98
517.729	20.91
518.077	20.86
518.426	20.87
518.774	20.69
519.122	20.86
519.47	20.68
519.819	20.55
520.167	20.57
520.515	20.58
520.863	20.67
521.211	20.62
521.559	20.73
521.907	20.81
522.255	21.1
522.602	21.04
522.95	21.22
523.298	21.14
523.645	21.15
523.993	21.37
524.341	21.31
524.688	21.42
525.036	21.26
525.383	21.37
525.73	21.45
526.078	21.47
526.425	21.28
526.772	21.24
527.119	21.13
527.466	21.01
527.814	20.93
528.161	21.09
528.508	21.14
528.854	21.09
529.201	21.06
529.548	20.97
529.895	20.65
530.242	20.61
530.588	20.58
530.935	20.67
531.282	20.77
531.628	20.67
531.975	20.87
532.321	21.18
532.667	21.31
533.014	21.55
533.36	21.47
533.706	21.55
534.052	21.47
534.399	21.54
534.745	21.37
535.091	21.24
535.437	21.25
535.783	21.36
536.129	21.4
536.474	21.63
536.82	21.69
537.166	21.84
537.512	21.99
537.857	21.9
538.203	21.78
538.549	21.84
538.894	21.82
539.239	21.96
539.585	22.07
539.93	22.26
540.276	22.41
540.621	22.37
540.966	22.5
541.311	22.49
541.656	22.37
542.001	22.46
542.346	22.21
542.691	22
543.036	21.8
543.381	21.69
543.726	21.82
544.071	21.87
544.415	22.03
544.76	22.03
545.105	22.28
545.449	22.3
545.794	22.42
546.138	22.52
546.483	22.66
546.827	22.83
547.171	22.63
547.516	22.65
547.86	22.94
548.204	22.75
548.548	22.78
548.892	22.85
549.236	22.89
549.58	23.02
549.924	23.16
550.268	23.13
550.612	23.29
550.956	23.5
551.3	23.56
551.643	23.52
551.987	23.61
552.33	23.65
552.674	23.61
553.017	23.74
553.361	23.84
553.704	23.81
554.048	23.66
554.391	23.54
554.734	23.69
555.077	23.77
555.42	23.82
555.764	23.88
556.107	23.84
556.45	23.9
556.793	23.98
557.135	23.97
557.478	24.22
557.821	24.3
558.164	24.31
558.507	24.25
558.849	24.33
559.192	24.42
559.534	24.44
559.877	24.5
560.219	24.48
560.562	24.46
560.904	24.3
561.246	24.45
561.589	24.67
561.931	24.64
562.273	24.39
562.615	24.48
562.957	24.53
563.299	24.48
563.641	24.56
563.983	24.46
564.325	24.49
564.667	24.61
565.008	24.7
565.35	24.8
565.692	24.73
566.033	24.85
566.375	24.8
566.716	24.83
567.058	24.7
567.399	24.78
567.741	24.84
568.082	24.57
568.423	24.48
568.764	24.59
569.105	24.74
569.447	24.7
569.788	25
570.129	25.02
570.47	24.83
570.811	25.11
571.151	25.23
571.492	25.02
571.833	25.15
572.174	25.2
572.514	25.2
572.855	24.93
573.195	25.31
573.536	25.11
573.876	25.02
574.217	24.95
574.557	25.02
574.898	25.07
575.238	25.13
575.578	25.24
575.918	25.23
576.258	25.22
576.598	25.48
576.938	25.38
577.278	25.42
577.618	25.48
577.958	25.35
578.298	25.58
578.638	25.49
578.977	25.43
579.317	25.56
579.657	25.74
579.996	25.7
580.336	25.81
580.675	25.69
581.014	25.83
581.354	25.86
581.693	26.04
582.032	26.06
582.372	26.27
582.711	26.25
583.05	25.92
583.389	26.39
583.728	26.3
584.067	26.28
584.406	26.32
584.745	26.45
585.083	26.48
585.422	26.43
585.761	26.41
586.1	26.33
586.438	26.33
586.777	26.41
587.115	26.39
587.454	26.61
587.792	26.42
588.13	26.47
588.469	26.54
588.807	26.6
589.145	26.44
589.483	26.3
589.821	26.55
590.159	26.68
590.497	26.89
590.835	26.68
591.173	26.65
591.511	26.67
591.849	26.67
592.187	26.73
592.524	26.64
592.862	26.85
593.2	27
593.537	26.81
593.875	26.63
594.212	27
594.55	27.05
594.887	27.18
595.224	27.04
595.561	26.88
595.899	26.94
596.236	27.19
596.573	26.81
596.91	26.8
597.247	26.87
597.584	26.82
597.921	26.88
598.258	27.1
598.594	27.04
598.931	26.94
599.268	26.72
599.604	26.95
599.941	27.07
600.277	26.93
600.614	27.37
600.95	27.22
601.287	27.5
601.623	27.2
601.959	27.26
602.296	27.41
602.632	27.09
602.968	27.25
603.304	27.43
603.64	27.71
603.976	27.87
604.312	27.56
604.648	27.32
604.984	27.56
605.319	27.46
605.655	27.32
605.991	27.39
606.326	27.33
606.662	27.3
606.998	27.57
607.333	27.35
607.668	27.66
608.004	27.65
608.339	27.59
608.674	27.82
609.01	27.73
609.345	28.08
609.68	28.06
610.015	27.84
610.35	28.01
610.685	27.77
611.02	28
611.355	27.78
611.689	28.02
612.024	28.17
612.359	27.55
612.694	28.17
613.028	28
613.363	28.08
613.697	28.06
614.032	28.29
614.366	27.94
614.7	28.46
615.035	28.5
615.369	28.37
615.703	28.69
616.037	28.36
616.371	28.6
616.705	28.62
617.039	28.34
617.373	28.67
617.707	28.73
618.041	28.59
618.375	29.18
618.709	28.69
619.042	28.84
619.376	28.69
619.71	28.78
620.043	28.77
620.377	29.05
620.71	28.4
621.043	29.06
621.377	28.51
621.71	28.77
622.043	28.82
622.376	28.95
622.709	29.06
623.043	28.67
623.376	28.96
623.709	28.99
624.041	28.89
624.374	29.43
624.707	29.19
625.04	28.98
625.373	28.88
625.705	29.1
626.038	28.99
626.37	29.2
626.703	29.15
627.035	29.2
627.368	29.13
627.7	28.84
628.032	28.91
628.365	29.52
628.697	29.33
629.029	28.99
629.361	28.96
629.693	28.96
630.025	29.02
630.357	29.08
630.689	29.46
631.021	29.29
631.353	29.4
631.684	29.55
632.016	29.59
632.348	29.64
632.679	29.83
633.011	29.57
633.342	29.15
633.674	29.51
634.005	29.91
634.336	29.43
634.668	29.5
634.999	29.05
635.33	29.55
635.661	29.67
635.992	29.39
636.323	29.87
636.654	29.82
636.985	29.77
637.316	29.86
637.647	29.71
637.977	29.95
638.308	29.88
638.639	29.92
638.969	29.92
639.3	29.69
639.63	29.69
639.961	30.08
640.291	29.85
640.622	30.19
640.952	29.87
641.282	30.17
641.612	30.46
641.943	29.83
642.273	30.78
642.603	30.33
642.933	29.81
643.263	30.01
643.592	30.58
643.922	29.96
644.252	30.61
644.582	30.16
644.911	30.46
645.241	30.74
645.571	30.29
645.9	30.57
646.23	30.26
646.559	30.41
646.888	30.4
647.218	30.97
647.547	30.32
647.876	31
648.205	30.31
648.534	30.49
648.863	31.28
649.192	30.48
649.521	30.45
649.85	30.83
650.179	30.5
650.508	30.79
650.837	30.96
651.165	31.1
651.494	30.58
651.822	30.99
652.151	30.81
652.479	31.21
652.808	30.82
653.136	31.07
653.465	31.14
653.793	31.13
654.121	30.76
654.449	31.08
654.777	30.5
655.105	30.92
655.433	30.69
655.761	31
656.089	30.96
656.417	31.26
656.745	30.95
657.073	31.68
657.4	30.94
657.728	30.93
658.056	31.27
658.383	31.45
658.711	31.88
659.038	31.16
659.365	31.02
659.693	31.13
660.02	31.67
660.347	31.27
660.674	30.73
661.001	31.02
661.329	31.02
661.656	31.06
661.982	31.41
662.309	31.1
662.636	31.02
662.963	31.05
663.29	31.19
663.616	31.24
663.943	31.18
664.27	31.58
664.596	31.54
664.923	31.67
665.249	31.74
665.576	31.37
665.902	31.67
666.228	31.56
666.554	31.45
666.881	31.03
667.207	31.14
667.533	31.3
667.859	31.56
668.185	31.12
668.511	32
668.837	31.73
669.162	31.84
669.488	31.25
669.814	31.37
670.139	32.35
670.465	31.81
670.791	31.13
671.116	31.84
671.442	31.79
671.767	32.07
672.092	31.67
672.418	31.28
672.743	31.73
673.068	31.82
673.393	32.15
673.718	31.88
674.043	31.96
