Data from 20-10_forehead_Reflection__4__165.txt Node

Date: Fri Nov 11 21:19:18 CST 2022
User: ToomeyLab
Spectrometer: FLMS14357
Trigger mode: 0
Integration Time (sec): 1.000000E-2
Scans to average: 100
Electric dark correction enabled: true
Nonlinearity correction enabled: false
Boxcar width: 0
XAxis mode: Wavelengths
Number of Pixels in Spectrum: 2048
>>>>>Begin Spectral Data<<<<<
189.047	-30.59
189.435	-30.59
189.823	-30.59
190.211	-16.91
190.599	-58.15
190.987	112.17
191.375	-13.49
191.763	112.17
192.151	1957.58
192.538	-6.64
192.926	33.35
193.314	34.4
193.702	-315.34
194.089	47.91
194.477	59.91
194.864	32.97
195.252	50.38
195.639	603.99
196.027	17.56
196.414	97.88
196.801	81.52
197.189	204.23
197.576	5523.08
197.963	-225.72
198.351	-46.94
198.738	-19.58
199.125	-14.83
199.512	12.47
199.899	-93.92
200.286	16.29
200.673	38.8
201.06	33.81
201.447	27.36
201.833	11.98
202.22	-72.98
202.607	31.88
202.994	53.64
203.38	55.64
203.767	39.47
204.154	19.5
204.54	17.32
204.927	18.64
205.313	-34.16
205.699	-23.87
206.086	30.98
206.472	46.7
206.858	13.03
207.245	23.15
207.631	27.13
208.017	32.22
208.403	-25.32
208.789	-5.14
209.175	11.99
209.561	47.03
209.947	8.91
210.333	-23.44
210.719	0.51
211.105	48.95
211.491	42.66
211.876	29.35
212.262	37.91
212.648	-2.99
213.034	1.11
213.419	-73.32
213.805	5.56
214.19	6.72
214.576	-1.6
214.961	-87.96
215.346	-16.56
215.732	-56.12
216.117	18.47
216.502	30.4
216.888	2.53
217.273	1.67
217.658	-17.88
218.043	16.76
218.428	20
218.813	13.19
219.198	7.49
219.583	-6.98
219.968	-6.81
220.353	20.64
220.738	-19.32
221.122	-10.47
221.507	-14.45
221.892	-20.35
222.276	13.67
222.661	16.88
223.046	5.44
223.43	-2.04
223.815	7.35
224.199	0.77
224.583	1.96
224.968	-5.88
225.352	3.33
225.736	-4.47
226.121	-2.87
226.505	4.86
226.889	2.57
227.273	2.51
227.657	-7.11
228.041	2.52
228.425	2.17
228.809	2.86
229.193	3.91
229.577	3.63
229.961	3.1
230.344	2.51
230.728	2.59
231.112	0.83
231.495	2.36
231.879	2.53
232.263	2.04
232.646	0.24
233.03	2.04
233.413	3.39
233.797	3.95
234.18	-0.06
234.563	3.33
234.946	2.14
235.33	3.19
235.713	0.73
236.096	0.78
236.479	2.58
236.862	5.48
237.245	1.44
237.628	2.92
238.011	2.03
238.394	1.99
238.777	2.82
239.16	3.89
239.543	2.49
239.925	1.59
240.308	2.5
240.691	3.54
241.073	1.75
241.456	0.36
241.838	3.84
242.221	1.93
242.603	2.78
242.986	2.15
243.368	2.98
243.75	2.74
244.133	2.37
244.515	2.07
244.897	2.84
245.279	2.22
245.661	2.24
246.043	2.41
246.425	3.62
246.807	2.4
247.189	2.52
247.571	2.28
247.953	2.63
248.335	2.66
248.717	2.62
249.098	2.86
249.48	2.42
249.862	3.33
250.243	2.69
250.625	2.76
251.006	3.5
251.388	2.13
251.769	3.23
252.151	2.66
252.532	2.45
252.913	3.25
253.295	2.64
253.676	2.76
254.057	2.26
254.438	2.92
254.819	2.71
255.2	4.2
255.581	3.3
255.962	2.47
256.343	3.2
256.724	2.53
257.105	2.89
257.486	2.29
257.867	4.36
258.247	2.27
258.628	2.12
259.009	2.92
259.389	2.26
259.77	2.8
260.15	2.74
260.531	2.72
260.911	2.71
261.292	2.77
261.672	2.62
262.052	2.6
262.432	2.9
262.813	2.81
263.193	3.14
263.573	2.2
263.953	3.12
264.333	2.34
264.713	2.5
265.093	2.7
265.473	1.8
265.853	2.3
266.233	2.35
266.612	2.25
266.992	2.57
267.372	3.57
267.752	2.88
268.131	2.18
268.511	2.72
268.89	2.66
269.27	2.81
269.649	2.53
270.029	3.11
270.408	2.58
270.787	2.53
271.167	2.13
271.546	2.81
271.925	2.54
272.304	2.42
272.683	2.52
273.062	2.39
273.441	2.44
273.82	2.6
274.199	2.51
274.578	2.39
274.957	2.42
275.336	3.07
275.715	2.68
276.093	1.9
276.472	2.11
276.851	2.02
277.229	2.4
277.608	2.61
277.986	2.71
278.365	2
278.743	1.99
279.122	3.03
279.5	2.4
279.878	2.97
280.257	2.49
280.635	2.79
281.013	2.65
281.391	2.09
281.769	1.71
282.147	2.2
282.525	2.19
282.903	2.45
283.281	2.47
283.659	2.52
284.037	3.01
284.415	2.45
284.792	2.59
285.17	3.15
285.548	2.16
285.925	2.27
286.303	2.41
286.68	2.88
287.058	2.53
287.435	2.47
287.813	2.55
288.19	2.56
288.567	2.4
288.945	2.74
289.322	2.79
289.699	1.98
290.076	3.35
290.453	2.78
290.83	2.67
291.207	2.6
291.584	2.8
291.961	2.71
292.338	2.42
292.715	2.74
293.092	2.7
293.469	2.62
293.845	2.82
294.222	2.95
294.599	2.94
294.975	2.25
295.352	2.8
295.728	2.91
296.105	2.64
296.481	2.42
296.858	2.83
297.234	2.82
297.61	2.21
297.986	2.88
298.363	2.89
298.739	3.03
299.115	3.17
299.491	3.16
299.867	2.89
300.243	3.15
300.619	3.19
300.995	3.18
301.371	4.04
301.746	3.68
302.122	3.23
302.498	3.2
302.874	3.51
303.249	3.24
303.625	3.15
304	2.69
304.376	3.8
304.751	3.3
305.127	3.47
305.502	3.47
305.878	4.21
306.253	3.44
306.628	3.36
307.003	3.95
307.378	3.71
307.754	3.77
308.129	3.71
308.504	3.74
308.879	3.83
309.254	3.9
309.629	3.63
310.003	3.46
310.378	3.86
310.753	3.84
311.128	4.37
311.502	4.28
311.877	3.61
312.252	4.12
312.626	4.46
313.001	4.01
313.375	4.19
313.75	4.06
314.124	4.2
314.498	4.56
314.873	4.09
315.247	4.27
315.621	4.74
315.995	4.54
316.369	4.59
316.743	4.42
317.117	4.7
317.491	4.54
317.865	4.5
318.239	5.04
318.613	4.82
318.987	4.92
319.361	4.4
319.734	4.61
320.108	5.01
320.482	5.2
320.855	4.36
321.229	4.38
321.602	4.74
321.976	4.85
322.349	5.22
322.723	4.91
323.096	4.72
323.469	5.3
323.843	5.31
324.216	5.04
324.589	5.67
324.962	5.55
325.335	5.24
325.708	5.54
326.081	5.5
326.454	4.94
326.827	5.24
327.2	5.83
327.573	6.13
327.945	5.44
328.318	5.12
328.691	5.63
329.063	5.66
329.436	5.26
329.809	4.93
330.181	5.27
330.553	5.24
330.926	5.67
331.298	5.55
331.671	5.36
332.043	5.4
332.415	6.08
332.787	6.02
333.159	5.1
333.532	5.8
333.904	5.93
334.276	5.88
334.648	5.18
335.02	5.78
335.391	6.13
335.763	6.11
336.135	6.03
336.507	5.43
336.879	6.01
337.25	6.39
337.622	6.06
337.993	6.04
338.365	6.48
338.736	6.09
339.108	6.21
339.479	5.88
339.851	5.98
340.222	6.16
340.593	6.51
340.964	5.88
341.336	6.38
341.707	5.81
342.078	5.76
342.449	6.31
342.82	6.47
343.191	6.29
343.562	6.26
343.933	6.37
344.303	6.08
344.674	6.52
345.045	6.1
345.416	6.36
345.786	6.52
346.157	6.31
346.527	6.23
346.898	5.71
347.268	6.38
347.639	6.26
348.009	6.56
348.38	6.37
348.75	6.31
349.12	6.99
349.49	6.89
349.861	6.75
350.231	6.29
350.601	6.88
350.971	6.62
351.341	6.84
351.711	6.6
352.081	6.63
352.45	6.49
352.82	6.41
353.19	7.08
353.56	6.47
353.929	6.53
354.299	6.64
354.669	6.65
355.038	6.86
355.408	6.85
355.777	7.12
356.147	6.72
356.516	6.83
356.885	6.85
357.254	7.14
357.624	6.65
357.993	6.71
358.362	6.89
358.731	6.66
359.1	6.87
359.469	6.71
359.838	7.03
360.207	7.36
360.576	7.18
360.945	7
361.314	6.7
361.682	6.88
362.051	6.84
362.42	7.19
362.788	7.23
363.157	7.06
363.525	6.92
363.894	7.05
364.262	7.24
364.631	7.45
364.999	7.24
365.367	7.21
365.735	7.11
366.104	7.15
366.472	7.1
366.84	6.77
367.208	7.14
367.576	7.49
367.944	8.05
368.312	7.37
368.68	7.6
369.048	7.5
369.416	7.34
369.783	7.66
370.151	7.53
370.519	7.63
370.886	7.37
371.254	7.96
371.621	7.37
371.989	7.29
372.356	7.85
372.724	7.8
373.091	7.83
373.458	7.91
373.826	7.72
374.193	7.74
374.56	7.7
374.927	7.7
375.294	7.69
375.661	7.96
376.028	7.79
376.395	8.26
376.762	7.75
377.129	7.91
377.496	7.82
377.863	8.12
378.229	7.93
378.596	7.84
378.963	7.95
379.329	8.06
379.696	8.09
380.062	8.02
380.429	8.41
380.795	8.52
381.161	8.35
381.528	8.13
381.894	8.3
382.26	8.37
382.626	8.2
382.993	8.37
383.359	8.38
383.725	8.29
384.091	8.37
384.457	8.09
384.823	7.97
385.188	8.21
385.554	8.42
385.92	8.29
386.286	8.23
386.651	8.6
387.017	8.37
387.383	8.56
387.748	8.11
388.114	8.62
388.479	8.43
388.845	8.57
389.21	8.24
389.575	8.66
389.94	8.62
390.306	8.56
390.671	8.65
391.036	8.72
391.401	8.8
391.766	8.83
392.131	8.59
392.496	8.68
392.861	8.76
393.226	8.8
393.591	8.63
393.956	8.74
394.32	8.93
394.685	8.81
395.05	9.17
395.414	8.78
395.779	8.84
396.143	8.89
396.508	9.14
396.872	9.07
397.236	9.08
397.601	8.84
397.965	9.1
398.329	8.91
398.694	8.91
399.058	8.87
399.422	9.21
399.786	8.97
400.15	9.26
400.514	9.06
400.878	9.18
401.242	9.01
401.605	9.34
401.969	9.26
402.333	9.05
402.697	9.04
403.06	9.49
403.424	9.15
403.787	9.45
404.151	9.3
404.514	9.35
404.878	9.26
405.241	9.3
405.604	9.24
405.968	9.39
406.331	9.05
406.694	9.19
407.057	9.36
407.42	9.48
407.783	9.49
408.146	9.58
408.509	9.59
408.872	9.49
409.235	9.6
409.598	9.52
409.961	9.73
410.323	9.64
410.686	9.58
411.049	9.41
411.411	9.54
411.774	9.7
412.136	9.5
412.499	9.77
412.861	9.69
413.223	9.55
413.586	9.75
413.948	9.86
414.31	9.9
414.672	9.75
415.035	9.79
415.397	9.99
415.759	10.02
416.121	9.74
416.483	9.82
416.845	9.98
417.206	9.7
417.568	9.82
417.93	9.86
418.292	9.63
418.653	10.02
419.015	9.88
419.377	9.93
419.738	9.89
420.1	9.78
420.461	9.9
420.822	9.84
421.184	9.86
421.545	9.82
421.906	10.02
422.267	9.88
422.629	9.83
422.99	9.85
423.351	9.85
423.712	9.86
424.073	10.05
424.434	10.08
424.795	10.14
425.155	9.97
425.516	10.03
425.877	10.07
426.238	10.05
426.598	9.99
426.959	10.07
427.32	10.27
427.68	10.36
428.041	10.38
428.401	10.16
428.761	10.62
429.122	10.36
429.482	10.35
429.842	10.41
430.202	10.51
430.563	10.69
430.923	10.72
431.283	10.52
431.643	10.46
432.003	10.86
432.363	10.44
432.722	10.85
433.082	10.82
433.442	10.65
433.802	10.76
434.161	10.7
434.521	10.69
434.881	10.71
435.24	10.66
435.6	10.75
435.959	10.86
436.319	10.75
436.678	10.84
437.037	11.02
437.396	10.95
437.756	10.96
438.115	10.69
438.474	10.81
438.833	10.99
439.192	11.07
439.551	10.88
439.91	11.1
440.269	11
440.628	11
440.987	10.95
441.345	10.88
441.704	10.86
442.063	11.08
442.421	11.08
442.78	10.91
443.138	11.08
443.497	11.15
443.855	11.13
444.214	11.19
444.572	11.1
444.93	11.26
445.288	11.3
445.647	11.49
446.005	11.5
446.363	11.32
446.721	11.32
447.079	11.25
447.437	11.15
447.795	11.12
448.153	11.18
448.51	11.06
448.868	11.21
449.226	11.3
449.584	11.26
449.941	11.32
450.299	11.4
450.656	11.52
451.014	11.59
451.371	11.54
451.729	11.67
452.086	11.66
452.443	11.75
452.801	11.85
453.158	11.66
453.515	11.73
453.872	11.72
454.229	11.71
454.586	11.78
454.943	11.8
455.3	11.76
455.657	11.82
456.014	11.93
456.371	11.86
456.727	11.97
457.084	11.68
457.441	11.99
457.797	11.95
458.154	12
458.51	12.2
458.867	12.01
459.223	12.14
459.58	12.03
459.936	12
460.292	12.12
460.648	12.09
461.005	11.87
461.361	11.94
461.717	11.87
462.073	11.93
462.429	12.05
462.785	12.04
463.141	12.11
463.496	12.13
463.852	12.33
464.208	12.35
464.564	12.32
464.919	12.3
465.275	12.48
465.631	12.24
465.986	12.64
466.342	12.46
466.697	12.18
467.052	12.44
467.408	12.5
467.763	12.59
468.118	12.55
468.473	12.52
468.829	12.52
469.184	12.48
469.539	12.59
469.894	12.71
470.249	12.66
470.603	12.6
470.958	12.6
471.313	12.78
471.668	12.83
472.023	12.71
472.377	12.77
472.732	12.91
473.086	12.59
473.441	12.83
473.795	12.71
474.15	12.87
474.504	12.89
474.859	12.85
475.213	12.88
475.567	12.91
475.921	12.73
476.275	12.92
476.63	13
476.984	12.99
477.338	13.02
477.692	12.97
478.045	12.93
478.399	13.12
478.753	12.99
479.107	13.08
479.461	13.09
479.814	13.04
480.168	13.05
480.521	13.15
480.875	13.22
481.228	13.15
481.582	13.2
481.935	13.18
482.289	13.24
482.642	13.15
482.995	13.17
483.348	13.09
483.701	13.15
484.055	13.06
484.408	13.12
484.761	12.96
485.114	12.68
485.466	12.6
485.819	12.61
486.172	12.65
486.525	12.82
486.878	12.86
487.23	13.01
487.583	13.14
487.936	13.27
488.288	13.22
488.641	13.02
488.993	13
489.345	12.97
489.698	13.01
490.05	13.12
490.402	13.11
490.754	13.27
491.107	13.38
491.459	13.35
491.811	13.66
492.163	13.64
492.515	13.52
492.866	13.42
493.218	13.22
493.57	13.18
493.922	13.37
494.274	13.53
494.625	13.63
494.977	13.81
495.328	13.9
495.68	14.1
496.031	14.05
496.383	14.13
496.734	14.1
497.086	14.21
497.437	14.18
497.788	14
498.139	14.12
498.49	13.94
498.842	13.97
499.193	14.06
499.544	14.15
499.894	14.08
500.245	14.33
500.596	14.39
500.947	14.29
501.298	14.41
501.648	14.33
501.999	14.36
502.35	14.49
502.7	14.64
503.051	14.58
503.401	14.55
503.752	14.52
504.102	14.47
504.452	14.68
504.803	14.64
505.153	14.76
505.503	14.56
505.853	14.76
506.203	14.76
506.553	14.62
506.903	14.64
507.253	14.7
507.603	14.9
507.953	14.82
508.303	14.8
508.652	14.84
509.002	14.86
509.352	15
509.701	15.04
510.051	15.05
510.4	14.99
510.75	14.78
511.099	14.74
511.449	14.89
511.798	14.94
512.147	14.93
512.496	15.12
512.846	15.22
513.195	15.04
513.544	15.04
513.893	15.07
514.242	15.2
514.591	15.21
514.939	15.14
515.288	15.25
515.637	15.3
515.986	15.4
516.334	15.39
516.683	15.62
517.032	15.59
517.38	15.42
517.729	15.55
518.077	15.53
518.426	15.61
518.774	15.59
519.122	15.62
519.47	15.52
519.819	15.36
520.167	15.3
520.515	15.29
520.863	15.47
521.211	15.47
521.559	15.47
521.907	15.63
522.255	15.63
522.602	15.88
522.95	15.74
523.298	15.92
523.645	15.88
523.993	15.98
524.341	15.96
524.688	16.09
525.036	16.02
525.383	16.05
525.73	16.07
526.078	16.06
526.425	15.96
526.772	15.83
527.119	15.83
527.466	15.86
527.814	15.85
528.161	15.93
528.508	15.92
528.854	15.94
529.201	15.87
529.548	15.79
529.895	15.58
530.242	15.49
530.588	15.49
530.935	15.57
531.282	15.74
531.628	15.85
531.975	15.98
532.321	16.09
532.667	16.18
533.014	16.28
533.36	16.25
533.706	16.3
534.052	16.46
534.399	16.2
534.745	16.12
535.091	16.09
535.437	16.08
535.783	16.18
536.129	16.4
536.474	16.45
536.82	16.54
537.166	16.53
537.512	16.69
537.857	16.7
538.203	16.46
538.549	16.6
538.894	16.67
539.239	16.66
539.585	16.73
539.93	16.94
540.276	17.1
540.621	17.14
540.966	17.16
541.311	17.19
541.656	17.12
542.001	17.06
542.346	16.91
542.691	16.72
543.036	16.54
543.381	16.63
543.726	16.71
544.071	16.85
544.415	16.91
544.76	17
545.105	17.04
545.449	17
545.794	17.37
546.138	17.34
546.483	17.41
546.827	17.53
547.171	17.55
547.516	17.42
547.86	17.47
548.204	17.54
548.548	17.44
548.892	17.42
549.236	17.58
549.58	17.68
549.924	17.8
550.268	17.99
550.612	17.95
550.956	18.02
551.3	17.86
551.643	17.99
551.987	18
552.33	18.08
552.674	18.17
553.017	18.36
553.361	18.24
553.704	18.29
554.048	18.19
554.391	18.22
554.734	18.25
555.077	18.29
555.42	18.19
555.764	18.41
556.107	18.5
556.45	18.46
556.793	18.53
557.135	18.48
557.478	18.54
557.821	18.62
558.164	18.56
558.507	18.6
558.849	18.47
559.192	18.72
559.534	18.82
559.877	19.01
560.219	18.59
560.562	18.79
560.904	19.01
561.246	18.69
561.589	18.79
561.931	18.87
562.273	18.99
562.615	18.91
562.957	19.07
563.299	19.01
563.641	18.89
563.983	18.98
564.325	19.02
564.667	19.2
565.008	19.2
565.35	19.18
565.692	18.99
566.033	19.21
566.375	19.33
566.716	19.48
567.058	19.24
567.399	19.33
567.741	19.2
568.082	19.36
568.423	19.29
568.764	19.56
569.105	19.36
569.447	19.6
569.788	19.52
570.129	19.5
570.47	19.54
570.811	19.65
571.151	19.79
571.492	19.73
571.833	19.68
572.174	19.77
572.514	19.78
572.855	19.75
573.195	19.6
573.536	19.76
573.876	19.68
574.217	19.75
574.557	19.77
574.898	19.93
575.238	19.94
575.578	20.07
575.918	20.14
576.258	19.95
576.598	20.15
576.938	20.12
577.278	20.04
577.618	19.96
577.958	20.09
578.298	20.27
578.638	20.27
578.977	20.46
579.317	20.38
579.657	20.42
579.996	20.26
580.336	20.47
580.675	20.5
581.014	20.83
581.354	20.69
581.693	20.73
582.032	20.53
582.372	20.65
582.711	20.45
583.05	20.66
583.389	20.72
583.728	21.2
584.067	20.66
584.406	20.7
584.745	20.93
585.083	20.91
585.422	20.92
585.761	20.98
586.1	20.89
586.438	20.86
586.777	21.03
587.115	21.21
587.454	21.07
587.792	21.11
588.13	21.15
588.469	21.26
588.807	21.43
589.145	21.14
589.483	21.48
589.821	21.3
590.159	21.55
590.497	21.44
590.835	21.49
591.173	21.58
591.511	21.26
591.849	21.27
592.187	21.62
592.524	21.33
592.862	21.41
593.2	21.56
593.537	21.62
593.875	21.89
594.212	21.67
594.55	21.74
594.887	21.77
595.224	21.68
595.561	21.66
595.899	21.19
596.236	21.79
596.573	21.84
596.91	21.91
597.247	21.82
597.584	21.79
597.921	22.02
598.258	21.65
598.594	21.72
598.931	21.61
599.268	22.02
599.604	21.97
599.941	22.21
600.277	22.29
600.614	22.18
600.95	21.99
601.287	22.31
601.623	22.68
601.959	22.55
602.296	22.13
602.632	22.35
602.968	22.31
603.304	22.4
603.64	22.61
603.976	22.27
604.312	22.45
604.648	22.5
604.984	22.5
605.319	22.37
605.655	22.43
605.991	22.45
606.326	22.4
606.662	22.37
606.998	22.75
607.333	22.54
607.668	22.51
608.004	22.66
608.339	22.83
608.674	22.65
609.01	22.86
609.345	23.06
609.68	22.79
610.015	23.11
610.35	23.27
610.685	22.69
611.02	22.68
611.355	22.78
611.689	22.88
612.024	22.8
612.359	23
612.694	22.85
613.028	23.24
613.363	23.21
613.697	23.36
614.032	23.29
614.366	23.13
614.7	23.21
615.035	23.41
615.369	23.4
615.703	23.41
616.037	23.61
616.371	23.3
616.705	23.79
617.039	23.53
617.373	23.34
617.707	23.51
618.041	23.55
618.375	23.44
618.709	23.77
619.042	23.92
619.376	23.44
619.71	23.85
620.043	23.73
620.377	23.3
620.71	23.98
621.043	23.66
621.377	23.76
621.71	23.45
622.043	24
622.376	23.9
622.709	23.86
623.043	23.5
623.376	23.9
623.709	24.06
624.041	23.72
624.374	23.64
624.707	24.4
625.04	23.96
625.373	24.08
625.705	24.33
626.038	24.56
626.37	24.38
626.703	24.16
627.035	24.47
627.368	23.91
627.7	24.16
628.032	24.02
628.365	24.72
628.697	24.02
629.029	24.29
629.361	24.19
629.693	24.49
630.025	24.57
630.357	24.41
630.689	24.47
631.021	24.5
631.353	24.63
631.684	24.34
632.016	24.36
632.348	24.68
632.679	24.55
633.011	24.96
633.342	24.76
633.674	24.78
634.005	24.39
634.336	25.17
634.668	24.53
634.999	24.93
635.33	24.76
635.661	24.9
635.992	25.1
636.323	24.61
636.654	25.12
636.985	25.12
637.316	24.96
637.647	25.33
637.977	24.74
638.308	25.05
638.639	24.54
638.969	24.87
639.3	25.6
639.63	25.38
639.961	25.16
640.291	25.4
640.622	25.52
640.952	25.42
641.282	25.65
641.612	25.35
641.943	25.3
642.273	24.99
642.603	25.92
642.933	25.48
643.263	25.73
643.592	25.69
643.922	25.58
644.252	25.73
644.582	25.64
644.911	25.25
645.241	25.94
645.571	25.56
645.9	25.78
646.23	26.23
646.559	25.85
646.888	26.04
647.218	25.3
647.547	25.46
647.876	26.12
648.205	26.02
648.534	25.82
648.863	25.83
649.192	25.72
649.521	26.24
649.85	26.69
650.179	25.97
650.508	26.06
650.837	26.18
651.165	25.68
651.494	26.32
651.822	25.58
652.151	25.83
652.479	26.07
652.808	25.96
653.136	26.09
653.465	26.27
653.793	26.19
654.121	26.07
654.449	26.11
654.777	26.91
655.105	26.2
655.433	26.61
655.761	26.45
656.089	26.25
656.417	26.08
656.745	26.83
657.073	26.24
657.4	26.37
657.728	26.86
658.056	26.64
658.383	26.36
658.711	26.21
659.038	26.77
659.365	26.71
659.693	26.55
660.02	27.47
660.347	26.66
660.674	26.34
661.001	26.44
661.329	26.22
661.656	26.66
661.982	27.34
662.309	26.89
662.636	27.62
662.963	26.68
663.29	26.96
663.616	26.72
663.943	27.22
664.27	26.95
664.596	27.32
664.923	27.32
665.249	27.46
665.576	27.96
665.902	26.89
666.228	27.06
666.554	27.19
666.881	26.94
667.207	27.5
667.533	27.09
667.859	27.34
668.185	27.94
668.511	26.82
668.837	27.29
669.162	27.56
669.488	27.49
669.814	27.2
670.139	27.38
670.465	27.27
670.791	27.86
671.116	27.76
671.442	27.66
671.767	27.54
672.092	27.85
672.418	27.45
672.743	27.48
673.068	27.94
673.393	28.52
673.718	28.2
674.043	27.77
674.368	27.24
674.693	27.11
675.018	27.9
675.343	27.55
675.667	27.37
675.992	28.73
