Data from 20-10_forehead_Reflection__2__163.txt Node

Date: Fri Nov 11 21:18:58 CST 2022
User: ToomeyLab
Spectrometer: FLMS14357
Trigger mode: 0
Integration Time (sec): 1.000000E-2
Scans to average: 100
Electric dark correction enabled: true
Nonlinearity correction enabled: false
Boxcar width: 0
XAxis mode: Wavelengths
Number of Pixels in Spectrum: 2048
>>>>>Begin Spectral Data<<<<<
189.047	-2.27
189.435	-2.27
189.823	-2.27
190.211	59.11
190.599	9.29
190.987	88.44
191.375	128.78
191.763	9.43
192.151	-242.42
192.538	55.77
192.926	198.62
193.314	0.99
193.702	-183.65
194.089	-49.73
194.477	145.07
194.864	34.88
195.252	132.25
195.639	-606.48
196.027	89.61
196.414	108.25
196.801	40.28
197.189	212.24
197.576	-640
197.963	-763.45
198.351	-52.28
198.738	20.19
199.125	36.94
199.512	47.51
199.899	23.05
200.286	-7.6
200.673	-14.03
201.06	42.32
201.447	35.62
201.833	12.41
202.22	-15.85
202.607	29.27
202.994	38.3
203.38	14.4
203.767	-3.76
204.154	13.86
204.54	41.39
204.927	39.14
205.313	9.08
205.699	-20.86
206.086	52.2
206.472	29.82
206.858	10.13
207.245	33.54
207.631	14.5
208.017	22.4
208.403	4.78
208.789	21.07
209.175	-0.38
209.561	48.04
209.947	-18.68
210.333	26.75
210.719	0.09
211.105	38.62
211.491	-3.58
211.876	9.66
212.262	37.84
212.648	-3.49
213.034	47.46
213.419	-19.67
213.805	-19.04
214.19	32.39
214.576	34.77
214.961	-110.73
215.346	2.26
215.732	-39.42
216.117	27.67
216.502	23.05
216.888	-17.49
217.273	16.68
217.658	-8.64
218.043	-3.54
218.428	5.55
218.813	13.21
219.198	9.62
219.583	9.44
219.968	19.02
220.353	-20.81
220.738	5.71
221.122	-9.46
221.507	-9.28
221.892	-7.66
222.276	11.13
222.661	17.65
223.046	0.44
223.43	-6.57
223.815	-0.12
224.199	0.91
224.583	-4.75
224.968	-10.01
225.352	14.04
225.736	4.87
226.121	3.71
226.505	1.76
226.889	-9.27
227.273	0.04
227.657	0.81
228.041	1.56
228.425	1.95
228.809	1.66
229.193	4.83
229.577	3.71
229.961	2.57
230.344	3.13
230.728	1.57
231.112	1.02
231.495	2.54
231.879	2.07
232.263	2.09
232.646	-0.39
233.03	2.36
233.413	1.47
233.797	3.7
234.18	2.99
234.563	2.34
234.946	2.19
235.33	3.06
235.713	1.88
236.096	-0.36
236.479	2.66
236.862	4.78
237.245	1.94
237.628	3.17
238.011	3.36
238.394	2.24
238.777	3.76
239.16	3.94
239.543	-0.36
239.925	3.67
240.308	1.6
240.691	3.1
241.073	1.64
241.456	2.7
241.838	3.25
242.221	1.73
242.603	2.95
242.986	2.18
243.368	1.9
243.75	2.53
244.133	2.41
244.515	1.6
244.897	2.1
245.279	2.2
245.661	1.59
246.043	1.87
246.425	3
246.807	3.17
247.189	1.52
247.571	2.22
247.953	2.5
248.335	2.4
248.717	2.64
249.098	2.62
249.48	2.12
249.862	2.36
250.243	2.33
250.625	2.29
251.006	3.25
251.388	3.3
251.769	2.72
252.151	2.64
252.532	3.35
252.913	2.24
253.295	2.26
253.676	1.75
254.057	2.02
254.438	2.16
254.819	1.81
255.2	3.1
255.581	2.11
255.962	1.22
256.343	2.04
256.724	1.22
257.105	2.36
257.486	1.61
257.867	2.96
258.247	2.46
258.628	2.01
259.009	1.49
259.389	1.83
259.77	2.54
260.15	2.55
260.531	2.5
260.911	2.25
261.292	2.39
261.672	2.19
262.052	2.33
262.432	2.46
262.813	2.1
263.193	1.97
263.573	2.31
263.953	2.45
264.333	2.41
264.713	2.05
265.093	2.16
265.473	1.36
265.853	1.56
266.233	2.62
266.612	1.88
266.992	1.86
267.372	2.77
267.752	2.01
268.131	1.83
268.511	2.12
268.89	2.14
269.27	2.06
269.649	2.02
270.029	2.85
270.408	2.21
270.787	3.05
271.167	1.7
271.546	2.07
271.925	2.52
272.304	2.36
272.683	2.37
273.062	1.95
273.441	2.51
273.82	2.32
274.199	1.76
274.578	1.87
274.957	2.67
275.336	2.78
275.715	2.28
276.093	1.93
276.472	1.8
276.851	1.88
277.229	1.82
277.608	2.37
277.986	2.65
278.365	1.17
278.743	2.12
279.122	2.35
279.5	2.64
279.878	2.45
280.257	2.42
280.635	2.39
281.013	2
281.391	2.16
281.769	2.04
282.147	2.17
282.525	1.79
282.903	2.09
283.281	2.34
283.659	2.19
284.037	2.26
284.415	2.13
284.792	2.09
285.17	2.26
285.548	1.65
285.925	1.6
286.303	2.31
286.68	2.39
287.058	2.5
287.435	1.98
287.813	2.26
288.19	1.71
288.567	1.97
288.945	2.11
289.322	2.34
289.699	1.51
290.076	2.29
290.453	2.1
290.83	2.17
291.207	1.87
291.584	2.17
291.961	2.11
292.338	2.31
292.715	2.49
293.092	2.17
293.469	2.2
293.845	2.08
294.222	2.13
294.599	2.21
294.975	2.1
295.352	3.08
295.728	2.61
296.105	1.95
296.481	2.08
296.858	2.37
297.234	2.39
297.61	2.21
297.986	2.63
298.363	2.61
298.739	2.49
299.115	2.52
299.491	2.57
299.867	2.41
300.243	2.68
300.619	2.59
300.995	2.86
301.371	3.21
301.746	3.09
302.122	2.57
302.498	2.86
302.874	2.52
303.249	2.72
303.625	2.65
304	2.22
304.376	2.78
304.751	2.75
305.127	3.03
305.502	3.24
305.878	3.63
306.253	3.04
306.628	2.96
307.003	3.25
307.378	2.94
307.754	3.73
308.129	3.57
308.504	3.5
308.879	3.52
309.254	3.77
309.629	3.05
310.003	3.28
310.378	3.34
310.753	4.01
311.128	3.83
311.502	3.88
311.877	3.95
312.252	3.88
312.626	3.84
313.001	3.84
313.375	4.03
313.75	4.21
314.124	3.87
314.498	4.1
314.873	3.61
315.247	3.98
315.621	4.64
315.995	4.84
316.369	4.49
316.743	4.18
317.117	4.35
317.491	4.58
317.865	4.22
318.239	4.89
318.613	4.45
318.987	4.72
319.361	4.54
319.734	4.78
320.108	4.42
320.482	5.71
320.855	4.33
321.229	4.86
321.602	4.66
321.976	4.91
322.349	5.54
322.723	5.8
323.096	5.35
323.469	5.46
323.843	5.43
324.216	5.39
324.589	5.22
324.962	5.56
325.335	4.99
325.708	5.13
326.081	5.68
326.454	5.65
326.827	5.35
327.2	5.93
327.573	6.04
327.945	5.67
328.318	5.6
328.691	5.75
329.063	6.09
329.436	5.84
329.809	5.79
330.181	6.19
330.553	5.19
330.926	6.38
331.298	6.32
331.671	5.78
332.043	5.77
332.415	6.01
332.787	6.4
333.159	6.24
333.532	6.72
333.904	6.35
334.276	5.92
334.648	5.92
335.02	6.36
335.391	6.65
335.763	6.28
336.135	6.04
336.507	6.38
336.879	6.07
337.25	6.31
337.622	6.78
337.993	6.65
338.365	6.45
338.736	6.44
339.108	6.89
339.479	5.85
339.851	7
340.222	6.32
340.593	7.35
340.964	6.64
341.336	7.16
341.707	6.5
342.078	6.36
342.449	6.8
342.82	7.23
343.191	7.6
343.562	6.88
343.933	7.34
344.303	6.91
344.674	7.22
345.045	7.13
345.416	7.17
345.786	7.05
346.157	7.2
346.527	7.4
346.898	6.62
347.268	7.27
347.639	7.37
348.009	7.12
348.38	7.65
348.75	7.37
349.12	7.99
349.49	7.64
349.861	7.38
350.231	7.6
350.601	7.44
350.971	7.57
351.341	7.56
351.711	7.81
352.081	7.82
352.45	7.59
352.82	7.44
353.19	7.45
353.56	7.62
353.929	7.62
354.299	7.7
354.669	7.88
355.038	7.93
355.408	7.84
355.777	8.22
356.147	8.12
356.516	8
356.885	8.06
357.254	7.95
357.624	7.82
357.993	8.04
358.362	8.26
358.731	7.97
359.1	8.05
359.469	7.76
359.838	7.98
360.207	8.52
360.576	8.32
360.945	8.39
361.314	8.16
361.682	8.22
362.051	8.01
362.42	8.19
362.788	8.64
363.157	8.35
363.525	8.37
363.894	8.58
364.262	8.39
364.631	8.61
364.999	8.49
365.367	8.46
365.735	8.65
366.104	8.71
366.472	8.48
366.84	8.44
367.208	8.98
367.576	8.8
367.944	9.06
368.312	8.73
368.68	8.96
369.048	8.99
369.416	9.15
369.783	9.12
370.151	9.12
370.519	9.48
370.886	9.11
371.254	9.57
371.621	8.84
371.989	8.74
372.356	9.37
372.724	9.53
373.091	9.44
373.458	9.28
373.826	9.33
374.193	9.27
374.56	9.49
374.927	9.37
375.294	9.42
375.661	9.92
376.028	8.97
376.395	9.74
376.762	9.59
377.129	9.51
377.496	9.67
377.863	10.07
378.229	9.69
378.596	9.84
378.963	9.92
379.329	10.01
379.696	9.91
380.062	10.03
380.429	10.05
380.795	10.17
381.161	10.25
381.528	10.04
381.894	10.35
382.26	10.15
382.626	10.13
382.993	10.09
383.359	10.42
383.725	10.25
384.091	10.53
384.457	10.24
384.823	9.94
385.188	10.6
385.554	10.69
385.92	10.52
386.286	10.51
386.651	10.33
387.017	10.62
387.383	10.81
387.748	10.59
388.114	10.45
388.479	10.54
388.845	10.66
389.21	10.5
389.575	10.69
389.94	10.73
390.306	10.56
390.671	10.98
391.036	10.76
391.401	10.72
391.766	10.89
392.131	11.07
392.496	11.11
392.861	10.84
393.226	10.88
393.591	11.01
393.956	11.16
394.32	11.16
394.685	10.97
395.05	11.49
395.414	11.01
395.779	11.33
396.143	11.27
396.508	11.62
396.872	11.53
397.236	11.56
397.601	11.56
397.965	11.64
398.329	11.51
398.694	11.72
399.058	11.58
399.422	11.71
399.786	11.59
400.15	11.73
400.514	11.61
400.878	11.9
401.242	11.57
401.605	11.89
401.969	11.97
402.333	11.66
402.697	11.78
403.06	11.98
403.424	11.76
403.787	12.05
404.151	12.1
404.514	12.02
404.878	12.07
405.241	12.04
405.604	11.81
405.968	12.21
406.331	11.8
406.694	12.07
407.057	12.06
407.42	12.29
407.783	12.18
408.146	12.21
408.509	12.13
408.872	12.22
409.235	12.46
409.598	12.39
409.961	12.57
410.323	12.41
410.686	12.2
411.049	12.23
411.411	12.37
411.774	12.34
412.136	12.27
412.499	12.56
412.861	12.38
413.223	12.39
413.586	12.78
413.948	12.82
414.31	12.69
414.672	12.71
415.035	12.54
415.397	12.75
415.759	12.48
416.121	12.76
416.483	12.51
416.845	12.85
417.206	12.67
417.568	12.82
417.93	12.64
418.292	12.82
418.653	12.89
419.015	13.01
419.377	12.93
419.738	12.94
420.1	12.85
420.461	13.06
420.822	12.83
421.184	12.77
421.545	12.88
421.906	12.95
422.267	12.92
422.629	12.92
422.99	12.93
423.351	13.01
423.712	13.14
424.073	13.38
424.434	13.25
424.795	13.32
425.155	13.28
425.516	13.33
425.877	13.29
426.238	13.34
426.598	13.3
426.959	13.38
427.32	13.61
427.68	13.63
428.041	13.82
428.401	13.72
428.761	13.77
429.122	13.86
429.482	13.91
429.842	13.96
430.202	14.12
430.563	14.05
430.923	13.96
431.283	14.01
431.643	14.07
432.003	14.29
432.363	14.11
432.722	14.42
433.082	14.15
433.442	14.58
433.802	14.48
434.161	14.44
434.521	14.31
434.881	14.53
435.24	14.48
435.6	14.47
435.959	14.44
436.319	14.46
436.678	14.52
437.037	14.8
437.396	14.67
437.756	14.81
438.115	14.83
438.474	14.82
438.833	14.88
439.192	14.95
439.551	14.99
439.91	15.02
440.269	14.93
440.628	14.92
440.987	14.77
441.345	14.95
441.704	14.95
442.063	15.05
442.421	15.04
442.78	14.87
443.138	15.03
443.497	15.13
443.855	15.21
444.214	15.23
444.572	15.32
444.93	15.36
445.288	15.42
445.647	15.45
446.005	15.47
446.363	15.48
446.721	15.63
447.079	15.46
447.437	15.36
447.795	15.48
448.153	15.33
448.51	15.35
448.868	15.43
449.226	15.45
449.584	15.7
449.941	15.63
450.299	15.59
450.656	15.86
451.014	15.87
451.371	16
451.729	16.02
452.086	16.03
452.443	16.16
452.801	16.15
453.158	16.17
453.515	16.19
453.872	16.09
454.229	16.35
454.586	16.17
454.943	16.3
455.3	16.46
455.657	16.35
456.014	16.71
456.371	16.5
456.727	16.51
457.084	16.24
457.441	16.5
457.797	16.52
458.154	16.7
458.51	16.67
458.867	16.62
459.223	16.85
459.58	16.78
459.936	16.71
460.292	16.69
460.648	16.57
461.005	16.6
461.361	16.57
461.717	16.61
462.073	16.68
462.429	16.63
462.785	16.82
463.141	16.88
463.496	17.09
463.852	17.1
464.208	17.18
464.564	17.41
464.919	17.26
465.275	17.23
465.631	17.4
465.986	17.43
466.342	17.43
466.697	17.39
467.052	17.44
467.408	17.45
467.763	17.55
468.118	17.6
468.473	17.57
468.829	17.58
469.184	17.74
469.539	17.64
469.894	17.79
470.249	17.68
470.603	17.59
470.958	17.67
471.313	17.93
471.668	17.93
472.023	17.81
472.377	18.01
472.732	18
473.086	17.82
473.441	18.22
473.795	18.19
474.15	18.08
474.504	18.12
474.859	18.15
475.213	18.22
475.567	18.29
475.921	18.19
476.275	18.37
476.63	18.49
476.984	18.7
477.338	18.63
477.692	18.44
478.045	18.41
478.399	18.51
478.753	18.29
479.107	18.61
479.461	18.5
479.814	18.54
480.168	18.63
480.521	18.77
480.875	18.52
481.228	18.65
481.582	18.6
481.935	18.63
482.289	18.81
482.642	18.81
482.995	18.77
483.348	18.83
483.701	18.73
484.055	18.54
484.408	18.6
484.761	18.3
485.114	18.09
485.466	18
485.819	18.12
486.172	18.14
486.525	18.25
486.878	18.34
487.23	18.39
487.583	18.58
487.936	18.79
488.288	18.73
488.641	18.55
488.993	18.53
489.345	18.5
489.698	18.61
490.05	18.55
490.402	18.72
490.754	18.92
491.107	19.03
491.459	19.11
491.811	19.33
492.163	19.35
492.515	19.24
492.866	19.1
493.218	18.93
493.57	18.95
493.922	19.05
494.274	19.18
494.625	19.5
494.977	19.71
495.328	19.75
495.68	19.9
496.031	19.94
496.383	20.03
496.734	20.13
497.086	20.11
497.437	20.23
497.788	20.06
498.139	20.12
498.49	20.08
498.842	20.13
499.193	20.15
499.544	20.2
499.894	20.19
500.245	20.49
500.596	20.56
500.947	20.41
501.298	20.5
501.648	20.54
501.999	20.62
502.35	20.78
502.7	20.82
503.051	20.77
503.401	21.02
503.752	20.9
504.102	20.68
504.452	21.11
504.803	21.08
505.153	21.01
505.503	20.97
505.853	21.11
506.203	21.14
506.553	21.05
506.903	21.01
507.253	21.19
507.603	21.39
507.953	21.39
508.303	21.11
508.652	21.39
509.002	21.33
509.352	21.46
509.701	21.48
510.051	21.41
510.4	21.32
510.75	21.16
511.099	21.23
511.449	21.36
511.798	21.45
512.147	21.42
512.496	21.59
512.846	21.59
513.195	21.73
513.544	21.61
513.893	21.65
514.242	21.65
514.591	21.69
514.939	21.73
515.288	21.91
515.637	22.01
515.986	22.04
516.334	22.05
516.683	22.08
517.032	22.21
517.38	22.37
517.729	22.27
518.077	22.26
518.426	22.18
518.774	22.37
519.122	22.37
519.47	22.16
519.819	22.14
520.167	21.99
520.515	22.09
520.863	22.18
521.211	22.21
521.559	22.23
521.907	22.46
522.255	22.4
522.602	22.58
522.95	22.68
523.298	22.85
523.645	22.75
523.993	22.97
524.341	22.91
524.688	23
525.036	23.04
525.383	23.05
525.73	23.09
526.078	22.94
526.425	22.92
526.772	22.98
527.119	22.87
527.466	22.74
527.814	22.78
528.161	22.9
528.508	22.76
528.854	22.98
529.201	22.9
529.548	22.71
529.895	22.56
530.242	22.47
530.588	22.56
530.935	22.59
531.282	22.68
531.628	22.68
531.975	23.01
532.321	23.13
532.667	23.3
533.014	23.29
533.36	23.43
533.706	23.42
534.052	23.53
534.399	23.31
534.745	23.27
535.091	23.25
535.437	23.25
535.783	23.41
536.129	23.53
536.474	23.72
536.82	23.85
537.166	23.87
537.512	24
537.857	23.96
538.203	23.91
538.549	23.9
538.894	23.97
539.239	24.17
539.585	24.24
539.93	24.29
540.276	24.4
540.621	24.66
540.966	24.47
541.311	24.4
541.656	24.72
542.001	24.49
542.346	24.42
542.691	24.17
543.036	23.9
543.381	24.02
543.726	24.06
544.071	24.19
544.415	24.32
544.76	24.43
545.105	24.62
545.449	24.69
545.794	24.77
546.138	24.98
546.483	24.99
546.827	25.25
547.171	25.27
547.516	25.08
547.86	25.18
548.204	25.2
548.548	25.11
548.892	25.18
549.236	25.24
549.58	25.33
549.924	25.54
550.268	25.71
550.612	25.76
550.956	26.12
551.3	26.06
551.643	26.06
551.987	26.04
552.33	26.21
552.674	26.17
553.017	26.3
553.361	26.42
553.704	26.26
554.048	26.13
554.391	26.31
554.734	26.21
555.077	26.34
555.42	26.42
555.764	26.42
556.107	26.46
556.45	26.53
556.793	26.64
557.135	26.75
557.478	26.52
557.821	26.83
558.164	26.85
558.507	26.72
558.849	26.9
559.192	26.9
559.534	26.99
559.877	27.19
560.219	27.06
560.562	27.15
560.904	27.19
561.246	27.2
561.589	27.24
561.931	27.41
562.273	27.12
562.615	27.28
562.957	27.32
563.299	27.45
563.641	27.42
563.983	27.55
564.325	27.65
564.667	27.41
565.008	27.71
565.35	27.69
565.692	27.59
566.033	27.99
566.375	27.8
566.716	27.96
567.058	27.78
567.399	27.98
567.741	27.67
568.082	27.84
568.423	27.82
568.764	27.99
569.105	27.95
569.447	28.07
569.788	28.03
570.129	28.07
570.47	28.14
570.811	28.25
571.151	28.26
571.492	28.35
571.833	28.27
572.174	28.35
572.514	28.56
572.855	28.22
573.195	28.5
573.536	28.43
573.876	28.51
574.217	28.63
574.557	28.5
574.898	28.81
575.238	28.6
575.578	28.59
575.918	29.09
576.258	28.85
576.598	28.78
576.938	28.93
577.278	28.83
577.618	28.84
577.958	28.98
578.298	28.89
578.638	29.02
578.977	29.14
579.317	29.46
579.657	29.48
579.996	29.16
580.336	29.57
580.675	29.56
581.014	29.54
581.354	29.68
581.693	29.74
582.032	29.54
582.372	29.91
582.711	29.85
583.05	29.57
583.389	29.65
583.728	30.01
584.067	30.32
584.406	29.97
584.745	30.05
585.083	30.09
585.422	30.2
585.761	30.29
586.1	30.2
586.438	30.37
586.777	30.25
587.115	30.27
587.454	30.34
587.792	30.64
588.13	30.56
588.469	30.59
588.807	30.45
589.145	30.61
589.483	30.83
589.821	30.51
590.159	30.9
590.497	30.8
590.835	30.93
591.173	30.88
591.511	30.6
591.849	30.55
592.187	30.93
592.524	30.9
592.862	30.92
593.2	31.14
593.537	31.15
593.875	31.35
594.212	31.33
594.55	31.19
594.887	31.22
595.224	31.09
595.561	31.09
595.899	31.3
596.236	31.33
596.573	31.43
596.91	31.54
597.247	31.44
597.584	31.55
597.921	31.51
598.258	31.36
598.594	31.42
598.931	31.19
599.268	31.48
599.604	31.41
599.941	31.77
600.277	31.79
600.614	32.11
600.95	31.74
601.287	31.86
601.623	32.15
601.959	32.33
602.296	31.85
602.632	32.05
602.968	31.95
603.304	32.12
603.64	32.39
603.976	32.27
604.312	32.56
604.648	32.23
604.984	32.34
605.319	32.27
605.655	32.25
605.991	32.18
606.326	32.27
606.662	32.25
606.998	32.33
607.333	32.47
607.668	32.32
608.004	32.43
608.339	32.73
608.674	32.83
609.01	32.86
609.345	32.74
609.68	32.82
610.015	33.02
610.35	33.16
610.685	32.84
611.02	32.63
611.355	32.75
611.689	33
612.024	32.9
612.359	33.07
612.694	32.99
613.028	33.53
613.363	33.09
613.697	33.36
614.032	33.6
614.366	33.46
614.7	33.31
615.035	33.5
615.369	33.55
615.703	33.8
616.037	33.88
616.371	33.41
616.705	33.71
617.039	33.58
617.373	33.94
617.707	34.05
618.041	33.66
618.375	33.81
618.709	33.95
619.042	34.21
619.376	33.92
619.71	34.03
620.043	34.2
620.377	34.37
620.71	34.15
621.043	34.34
621.377	34.25
621.71	34
622.043	34.23
622.376	34.27
622.709	34.31
623.043	34.41
623.376	34.51
623.709	34.39
624.041	34.57
624.374	34.46
624.707	35.1
625.04	34.92
625.373	34.66
625.705	34.76
626.038	34.6
626.37	34.85
626.703	34.65
627.035	35.2
627.368	34.84
627.7	34.95
628.032	34.85
628.365	35.37
628.697	35.08
629.029	35.08
629.361	35.05
629.693	35.36
630.025	34.88
630.357	35
630.689	35.05
631.021	35.13
631.353	35.45
631.684	35.21
632.016	35.27
632.348	35.51
632.679	35.34
633.011	35.5
633.342	35.82
633.674	35.2
634.005	35.43
634.336	35.86
634.668	35.76
634.999	36.02
635.33	35.51
635.661	36
635.992	36.12
636.323	35.42
636.654	36.08
636.985	35.66
637.316	35.7
637.647	36.24
637.977	36.06
638.308	35.91
638.639	36
638.969	35.87
639.3	36.94
639.63	36.51
639.961	36.36
640.291	36.58
640.622	36.78
640.952	36.28
641.282	36.45
641.612	36.31
641.943	36.61
642.273	36.48
642.603	36.97
642.933	36.54
643.263	37.07
643.592	37.12
643.922	36.84
644.252	36.81
644.582	37.09
644.911	36.62
645.241	37.04
645.571	36.95
645.9	36.47
646.23	37.5
646.559	37.49
646.888	37.43
647.218	37.13
647.547	37.34
647.876	37.53
648.205	37.1
648.534	37.14
648.863	37.48
649.192	37.32
649.521	37.35
649.85	37.95
650.179	37.21
650.508	37.42
650.837	37.99
651.165	37.6
651.494	37.88
651.822	37.37
652.151	37.69
652.479	37.29
652.808	37.61
653.136	38.04
653.465	38.06
653.793	38.13
654.121	37.53
654.449	37.54
654.777	38.32
655.105	38.23
655.433	38.23
655.761	37.73
656.089	37.78
656.417	37.82
656.745	38.26
657.073	37.93
657.4	38.04
657.728	38.79
658.056	38.53
658.383	38.17
658.711	38.07
659.038	37.97
659.365	38.52
659.693	38.32
660.02	39.41
660.347	39.06
660.674	38.46
661.001	38.31
661.329	38.35
661.656	38.68
661.982	38.73
662.309	38.78
662.636	38.81
662.963	39.02
663.29	39.16
663.616	38.74
663.943	39
664.27	39.16
664.596	39.07
664.923	38.82
665.249	39.42
665.576	39.47
665.902	39.16
666.228	39.66
666.554	39.71
666.881	39.24
667.207	39.6
667.533	39.67
667.859	39.95
668.185	39.78
668.511	39.03
668.837	39.29
669.162	39.36
669.488	39.57
669.814	39.04
670.139	39.75
670.465	39.72
670.791	39.4
671.116	39.69
671.442	39.9
671.767	40
672.092	39.94
672.418	39.46
672.743	40.16
