Data from 20-10_chest_Reflection__0__151.txt Node

Date: Fri Nov 11 21:15:52 CST 2022
User: ToomeyLab
Spectrometer: FLMS14357
Trigger mode: 0
Integration Time (sec): 1.000000E-2
Scans to average: 100
Electric dark correction enabled: true
Nonlinearity correction enabled: false
Boxcar width: 0
XAxis mode: Wavelengths
Number of Pixels in Spectrum: 2048
>>>>>Begin Spectral Data<<<<<
189.047	24.9
189.435	24.9
189.823	24.9
190.211	-78.73
190.599	163.24
190.987	43.32
191.375	24.77
191.763	-3.1
192.151	2887.88
192.538	23.97
192.926	57.48
193.314	118.49
193.702	-185.77
194.089	36.45
194.477	61.37
194.864	40.38
195.252	34.37
195.639	-955.36
196.027	177.11
196.414	46.15
196.801	120.14
197.189	-14.07
197.576	10623.08
197.963	-413.03
198.351	-201.85
198.738	-44.4
199.125	-4.59
199.512	37.37
199.899	-154.16
200.286	13.88
200.673	32.18
201.06	22.21
201.447	9.3
201.833	15.16
202.22	-170.13
202.607	13.62
202.994	36.15
203.38	42.91
203.767	15.38
204.154	20.11
204.54	6.4
204.927	-14.97
205.313	-6.17
205.699	-86.14
206.086	25.72
206.472	5.26
206.858	-0.88
207.245	6.4
207.631	10.9
208.017	14.13
208.403	3.32
208.789	19.16
209.175	16.52
209.561	32.66
209.947	-0.84
210.333	1.94
210.719	23.91
211.105	29.8
211.491	-14
211.876	4.1
212.262	25.47
212.648	8.45
213.034	4.22
213.419	-87.35
213.805	3.41
214.19	3.85
214.576	2.27
214.961	-53.71
215.346	-9.26
215.732	-50.02
216.117	9.44
216.502	51.26
216.888	-8.35
217.273	-17.31
217.658	-36.39
218.043	-3.7
218.428	-16.42
218.813	8.14
219.198	-12.69
219.583	9.08
219.968	17.53
220.353	-9.78
220.738	-31.26
221.122	9.11
221.507	-35.51
221.892	-12.48
222.276	7.64
222.661	13.36
223.046	6.31
223.43	-3.44
223.815	8.84
224.199	5.99
224.583	-9.53
224.968	-4.43
225.352	-0.16
225.736	1.78
226.121	3.81
226.505	-6.67
226.889	-7.91
227.273	4.48
227.657	-4.79
228.041	3.57
228.425	2.47
228.809	5.87
229.193	4.32
229.577	4.55
229.961	2.41
230.344	2.1
230.728	1.86
231.112	1.07
231.495	2.12
231.879	1.43
232.263	1.36
232.646	0.16
233.03	4.16
233.413	3.2
233.797	2.39
234.18	-1.6
234.563	4.93
234.946	2.58
235.33	2.3
235.713	2.77
236.096	2.53
236.479	2.19
236.862	4.21
237.245	2.42
237.628	3.64
238.011	2.84
238.394	3.6
238.777	2.42
239.16	3.42
239.543	0.62
239.925	2.49
240.308	2.75
240.691	3
241.073	2.09
241.456	2.21
241.838	3.6
242.221	1.99
242.603	3.29
242.986	1.96
243.368	2.11
243.75	2.58
244.133	2.56
244.515	2.52
244.897	2.77
245.279	2.28
245.661	2.42
246.043	1.8
246.425	3.65
246.807	2.59
247.189	2.26
247.571	2.48
247.953	2.43
248.335	2.54
248.717	2.73
249.098	2.7
249.48	2.52
249.862	2.87
250.243	2.89
250.625	2.12
251.006	3.23
251.388	2.9
251.769	2.14
252.151	3.03
252.532	2.35
252.913	2.87
253.295	3.26
253.676	2.15
254.057	2.38
254.438	2.66
254.819	2.64
255.2	2.86
255.581	2.83
255.962	1.79
256.343	2.36
256.724	1.55
257.105	1.42
257.486	2.17
257.867	3.41
258.247	2.12
258.628	2.49
259.009	2.99
259.389	1.84
259.77	3.1
260.15	2.77
260.531	2.6
260.911	2.56
261.292	2.76
261.672	2.66
262.052	2.64
262.432	2.71
262.813	2.18
263.193	2.54
263.573	2.48
263.953	2.92
264.333	2.17
264.713	2.67
265.093	2.29
265.473	1.95
265.853	2.31
266.233	2.73
266.612	2.18
266.992	1.87
267.372	3.48
267.752	2.39
268.131	1.68
268.511	2.37
268.89	1.72
269.27	2.74
269.649	2.08
270.029	2.51
270.408	2.61
270.787	2.76
271.167	2.13
271.546	2.47
271.925	3.27
272.304	2.32
272.683	2.17
273.062	2.42
273.441	2.69
273.82	2.55
274.199	2.39
274.578	1.98
274.957	2.54
275.336	2.88
275.715	2.7
276.093	1.94
276.472	2.69
276.851	2.21
277.229	2.19
277.608	2.98
277.986	2.84
278.365	1.87
278.743	2.49
279.122	2.67
279.5	2.16
279.878	2.03
280.257	2.25
280.635	2.47
281.013	2.31
281.391	1.78
281.769	1.82
282.147	2.14
282.525	1.23
282.903	1.99
283.281	2.47
283.659	2.58
284.037	2.43
284.415	2.13
284.792	2.22
285.17	2.35
285.548	2.38
285.925	1.97
286.303	2.34
286.68	2.26
287.058	2.38
287.435	2.32
287.813	2.47
288.19	1.84
288.567	2.31
288.945	2.29
289.322	2.64
289.699	1.7
290.076	2.72
290.453	2.38
290.83	2.48
291.207	2.36
291.584	2.5
291.961	2.3
292.338	2.42
292.715	2.42
293.092	2.35
293.469	2.81
293.845	2.43
294.222	2.15
294.599	2.71
294.975	2.67
295.352	2.93
295.728	2.33
296.105	2.65
296.481	2.21
296.858	2.43
297.234	2.62
297.61	2.36
297.986	2.71
298.363	2.8
298.739	2.92
299.115	2.75
299.491	2.92
299.867	2.75
300.243	2.56
300.619	2.37
300.995	2.68
301.371	3.39
301.746	3.23
302.122	3.1
302.498	2.81
302.874	2.54
303.249	2.8
303.625	2.8
304	2.46
304.376	3.09
304.751	2.65
305.127	2.91
305.502	3.02
305.878	3.2
306.253	2.85
306.628	3.01
307.003	2.79
307.378	2.7
307.754	3.29
308.129	2.33
308.504	2.78
308.879	2.83
309.254	2.92
309.629	2.74
310.003	3.23
310.378	3.01
310.753	2.93
311.128	3.83
311.502	3.37
311.877	2.9
312.252	3.17
312.626	3.17
313.001	2.88
313.375	2.99
313.75	3.37
314.124	2.84
314.498	2.84
314.873	2.72
315.247	3.26
315.621	2.99
315.995	3.35
316.369	3.31
316.743	2.91
317.117	3.04
317.491	3.48
317.865	2.73
318.239	3.21
318.613	3.69
318.987	3.3
319.361	2.85
319.734	3.53
320.108	3.38
320.482	3.59
320.855	3.06
321.229	2.98
321.602	3.7
321.976	3.33
322.349	3.63
322.723	3.23
323.096	3.42
323.469	3.34
323.843	3.62
324.216	3.35
324.589	3.75
324.962	3.45
325.335	3.41
325.708	3.37
326.081	3.48
326.454	3.16
326.827	3.06
327.2	3.87
327.573	4.18
327.945	2.89
328.318	3.83
328.691	3.52
329.063	3.93
329.436	3.51
329.809	3.32
330.181	3.04
330.553	3.19
330.926	3.1
331.298	3.26
331.671	3.39
332.043	3.35
332.415	3.18
332.787	3.98
333.159	3.83
333.532	3.84
333.904	3.57
334.276	3.44
334.648	3.38
335.02	3.54
335.391	3.64
335.763	3.44
336.135	3.64
336.507	3.63
336.879	3.64
337.25	3.56
337.622	3.86
337.993	3.74
338.365	3.94
338.736	4.2
339.108	3.51
339.479	3.62
339.851	3.73
340.222	3.61
340.593	4.16
340.964	3.61
341.336	3.89
341.707	3.51
342.078	3.02
342.449	3.75
342.82	3.92
343.191	3.96
343.562	3.84
343.933	3.61
344.303	3.38
344.674	3.59
345.045	3.8
345.416	3.98
345.786	3.79
346.157	3.54
346.527	4.06
346.898	3.25
347.268	3.54
347.639	3.71
348.009	3.86
348.38	3.79
348.75	3.59
349.12	4.02
349.49	4.45
349.861	3.69
350.231	4.18
350.601	3.85
350.971	3.78
351.341	4.12
351.711	3.65
352.081	3.57
352.45	3.91
352.82	3.74
353.19	3.99
353.56	3.55
353.929	3.75
354.299	3.83
354.669	3.83
355.038	3.55
355.408	3.78
355.777	3.89
356.147	4.24
356.516	3.71
356.885	3.92
357.254	3.76
357.624	3.51
357.993	3.84
358.362	3.79
358.731	3.63
359.1	3.7
359.469	3.42
359.838	3.5
360.207	3.81
360.576	3.99
360.945	4.08
361.314	3.66
361.682	3.82
362.051	3.86
362.42	3.91
362.788	3.83
363.157	4.03
363.525	3.76
363.894	3.7
364.262	3.87
364.631	3.84
364.999	3.93
365.367	3.83
365.735	3.88
366.104	3.81
366.472	3.95
366.84	3.61
367.208	3.78
367.576	4.2
367.944	4.14
368.312	3.67
368.68	3.76
369.048	3.99
369.416	4.07
369.783	3.91
370.151	4.08
370.519	3.83
370.886	3.96
371.254	4.29
371.621	3.7
371.989	3.86
372.356	4.4
372.724	4.31
373.091	3.95
373.458	3.87
373.826	3.63
374.193	3.84
374.56	4.15
374.927	3.82
375.294	4.17
375.661	4.2
376.028	3.49
376.395	4.36
376.762	4.17
377.129	3.56
377.496	4.1
377.863	3.94
378.229	4.03
378.596	4.08
378.963	3.84
379.329	4.28
379.696	3.97
380.062	4.01
380.429	4.07
380.795	4.4
381.161	4.26
381.528	4.08
381.894	4.28
382.26	4.33
382.626	4.27
382.993	3.92
383.359	4.06
383.725	3.96
384.091	4.23
384.457	4.03
384.823	4.13
385.188	4.21
385.554	3.95
385.92	3.76
386.286	3.96
386.651	4.18
387.017	4.09
387.383	4.02
387.748	3.97
388.114	4.19
388.479	4.13
388.845	3.94
389.21	3.81
389.575	4.22
389.94	4.1
390.306	3.95
390.671	4.06
391.036	4.14
391.401	4.14
391.766	4.31
392.131	4.11
392.496	4.1
392.861	4.16
393.226	4.03
393.591	4.2
393.956	4.15
394.32	4.14
394.685	4.17
395.05	4.27
395.414	4.15
395.779	4.13
396.143	4.2
396.508	4.28
396.872	4.19
397.236	4.16
397.601	4.15
397.965	4.39
398.329	4.12
398.694	4.09
399.058	4.19
399.422	4.47
399.786	4.01
400.15	4.23
400.514	4.26
400.878	4.33
401.242	4.03
401.605	4.23
401.969	4.21
402.333	4.14
402.697	4.08
403.06	4.5
403.424	4.04
403.787	4.04
404.151	4.16
404.514	4.22
404.878	4.26
405.241	4.07
405.604	4.17
405.968	4.34
406.331	4.02
406.694	4.33
407.057	4
407.42	4.38
407.783	4.42
408.146	4.42
408.509	4.3
408.872	4.23
409.235	4.27
409.598	4.45
409.961	4.44
410.323	4.34
410.686	4.26
411.049	4.16
411.411	4.26
411.774	4.46
412.136	4.18
412.499	4.38
412.861	4.28
413.223	4.17
413.586	4.29
413.948	4.35
414.31	4.32
414.672	4.39
415.035	4.29
415.397	4.11
415.759	4.11
416.121	4.18
416.483	4.19
416.845	4.39
417.206	4.13
417.568	4.25
417.93	4.26
418.292	4.07
418.653	4.3
419.015	4.34
419.377	4.36
419.738	4.4
420.1	4.26
420.461	4.42
420.822	4.26
421.184	4.21
421.545	4.19
421.906	4.4
422.267	4.12
422.629	4.2
422.99	4.21
423.351	4.23
423.712	4.23
424.073	4.32
424.434	4.41
424.795	4.38
425.155	4.19
425.516	4.21
425.877	4.2
426.238	4.34
426.598	4.23
426.959	4.3
427.32	4.4
427.68	4.4
428.041	4.44
428.401	4.26
428.761	4.41
429.122	4.48
429.482	4.51
429.842	4.39
430.202	4.33
430.563	4.53
430.923	4.42
431.283	4.3
431.643	4.42
432.003	4.59
432.363	4.32
432.722	4.57
433.082	4.55
433.442	4.52
433.802	4.57
434.161	4.48
434.521	4.34
434.881	4.63
435.24	4.38
435.6	4.37
435.959	4.57
436.319	4.36
436.678	4.44
437.037	4.5
437.396	4.45
437.756	4.46
438.115	4.48
438.474	4.36
438.833	4.49
439.192	4.58
439.551	4.65
439.91	4.51
440.269	4.52
440.628	4.6
440.987	4.54
441.345	4.54
441.704	4.54
442.063	4.48
442.421	4.54
442.78	4.34
443.138	4.61
443.497	4.49
443.855	4.59
444.214	4.52
444.572	4.55
444.93	4.57
445.288	4.58
445.647	4.66
446.005	4.63
446.363	4.56
446.721	4.54
447.079	4.66
447.437	4.5
447.795	4.53
448.153	4.4
448.51	4.53
448.868	4.58
449.226	4.56
449.584	4.66
449.941	4.59
450.299	4.59
450.656	4.64
451.014	4.71
451.371	4.71
451.729	4.66
452.086	4.72
452.443	4.43
452.801	4.77
453.158	4.58
453.515	4.71
453.872	4.52
454.229	4.73
454.586	4.58
454.943	4.78
455.3	4.78
455.657	4.72
456.014	4.85
456.371	4.71
456.727	4.72
457.084	4.44
457.441	4.92
457.797	4.8
458.154	4.72
458.51	4.87
458.867	4.56
459.223	4.79
459.58	4.72
459.936	4.79
460.292	4.74
460.648	4.71
461.005	4.63
461.361	4.69
461.717	4.57
462.073	4.7
462.429	4.66
462.785	4.59
463.141	4.69
463.496	4.68
463.852	4.91
464.208	4.8
464.564	4.69
464.919	4.74
465.275	4.66
465.631	4.77
465.986	4.87
466.342	4.74
466.697	4.84
467.052	4.8
467.408	4.82
467.763	4.83
468.118	4.86
468.473	4.89
468.829	4.9
469.184	4.86
469.539	4.85
469.894	4.85
470.249	4.86
470.603	4.72
470.958	4.78
471.313	4.93
471.668	4.98
472.023	4.66
472.377	4.91
472.732	4.93
473.086	4.68
473.441	4.82
473.795	5.09
474.15	4.86
474.504	5.06
474.859	4.85
475.213	5.08
475.567	5.01
475.921	5.05
476.275	4.96
476.63	5.02
476.984	5.09
477.338	4.99
477.692	4.87
478.045	4.95
478.399	5.15
478.753	5.01
479.107	5.12
479.461	4.95
479.814	4.86
480.168	5.15
480.521	5.07
480.875	5.01
481.228	4.91
481.582	5.01
481.935	4.9
482.289	4.91
482.642	4.9
482.995	4.83
483.348	4.94
483.701	5.01
484.055	4.9
484.408	4.89
484.761	4.77
485.114	4.66
485.466	4.63
485.819	4.64
486.172	4.7
486.525	4.79
486.878	4.82
487.23	4.82
487.583	4.88
487.936	4.96
488.288	4.91
488.641	4.77
488.993	4.85
489.345	4.79
489.698	4.75
490.05	4.84
490.402	4.84
490.754	4.94
491.107	4.91
491.459	4.94
491.811	5.06
492.163	5.12
492.515	4.94
492.866	4.91
493.218	4.9
493.57	4.91
493.922	4.93
494.274	5.04
494.625	5.02
494.977	5.2
495.328	5.3
495.68	5.22
496.031	5.23
496.383	5.3
496.734	5.24
497.086	5.23
497.437	5.23
497.788	5.17
498.139	5.17
498.49	5.12
498.842	5.16
499.193	5.23
499.544	5.33
499.894	5.11
500.245	5.32
500.596	5.29
500.947	5.31
501.298	5.27
501.648	5.33
501.999	5.37
502.35	5.36
502.7	5.19
503.051	5.35
503.401	5.36
503.752	5.29
504.102	5.33
504.452	5.42
504.803	5.3
505.153	5.45
505.503	5.29
505.853	5.37
506.203	5.41
506.553	5.3
506.903	5.35
507.253	5.48
507.603	5.38
507.953	5.41
508.303	5.35
508.652	5.51
509.002	5.4
509.352	5.46
509.701	5.47
510.051	5.43
510.4	5.48
510.75	5.43
511.099	5.35
511.449	5.36
511.798	5.43
512.147	5.41
512.496	5.47
512.846	5.53
513.195	5.5
513.544	5.51
513.893	5.37
514.242	5.47
514.591	5.58
514.939	5.49
515.288	5.55
515.637	5.61
515.986	5.53
516.334	5.56
516.683	5.63
517.032	5.61
517.38	5.46
517.729	5.61
518.077	5.63
518.426	5.54
518.774	5.65
519.122	5.72
519.47	5.66
519.819	5.56
520.167	5.56
520.515	5.6
520.863	5.61
521.211	5.58
521.559	5.58
521.907	5.67
522.255	5.67
522.602	5.77
522.95	5.64
523.298	5.77
523.645	5.64
523.993	5.82
524.341	5.78
524.688	5.89
525.036	5.91
525.383	5.84
525.73	5.87
526.078	5.75
526.425	5.77
526.772	5.8
527.119	5.67
527.466	5.76
527.814	5.75
528.161	5.75
528.508	5.78
528.854	5.77
529.201	5.76
529.548	5.66
529.895	5.66
530.242	5.55
530.588	5.58
530.935	5.6
531.282	5.7
531.628	5.76
531.975	5.84
532.321	5.86
532.667	5.9
533.014	5.88
533.36	5.87
533.706	5.86
534.052	5.84
534.399	5.87
534.745	5.79
535.091	5.83
535.437	5.83
535.783	5.87
536.129	5.99
536.474	6.06
536.82	6.05
537.166	6.11
537.512	6.07
537.857	6.07
538.203	5.91
538.549	6.1
538.894	6.05
539.239	6.09
539.585	6.22
539.93	6.22
540.276	6.31
540.621	6.28
540.966	6.33
541.311	6.28
541.656	6.38
542.001	6.31
542.346	6.25
542.691	6.1
543.036	6.01
543.381	6.11
543.726	6.1
544.071	6.24
544.415	6.2
544.76	6.32
545.105	6.25
545.449	6.29
545.794	6.32
546.138	6.39
546.483	6.46
546.827	6.47
547.171	6.54
547.516	6.37
547.86	6.5
548.204	6.49
548.548	6.43
548.892	6.51
549.236	6.48
549.58	6.63
549.924	6.65
550.268	6.68
550.612	6.79
550.956	6.91
551.3	6.77
551.643	6.81
551.987	6.84
552.33	6.92
552.674	6.7
553.017	6.91
553.361	6.79
553.704	7
554.048	6.77
554.391	6.8
554.734	6.8
555.077	6.8
555.42	6.82
555.764	7.06
556.107	6.91
556.45	7.16
556.793	7.1
557.135	7.05
557.478	7.05
557.821	7.06
558.164	7
558.507	7.18
558.849	7.2
559.192	7.14
559.534	7.29
559.877	7.25
560.219	7.2
560.562	7.24
560.904	7.26
561.246	7.17
561.589	7.44
561.931	7.14
562.273	7.39
562.615	7.2
562.957	7.39
563.299	7.33
563.641	7.33
563.983	7.31
564.325	7.43
564.667	7.47
565.008	7.57
565.35	7.58
565.692	7.37
566.033	7.32
566.375	7.51
566.716	7.57
567.058	7.63
567.399	7.68
567.741	7.71
568.082	7.58
568.423	7.55
568.764	7.65
569.105	7.48
569.447	7.68
569.788	7.67
570.129	7.57
570.47	7.68
570.811	7.96
571.151	7.81
571.492	7.85
571.833	7.78
572.174	7.96
572.514	7.85
572.855	8
573.195	7.8
573.536	7.89
573.876	7.98
574.217	8.03
574.557	8
574.898	7.95
575.238	7.99
575.578	7.98
575.918	8.14
576.258	8.13
576.598	8.22
576.938	8.19
577.278	7.96
577.618	8.24
577.958	8.2
578.298	8.37
578.638	8.22
578.977	8.29
579.317	8.3
579.657	8.22
579.996	8.34
580.336	8.43
580.675	8.46
581.014	8.59
581.354	8.21
581.693	8.4
582.032	8.63
582.372	8.66
582.711	8.68
583.05	8.37
583.389	8.84
583.728	8.73
584.067	8.67
584.406	8.47
584.745	8.75
585.083	8.63
585.422	8.83
585.761	8.89
586.1	8.85
586.438	8.68
586.777	8.83
587.115	8.76
587.454	8.99
587.792	9.03
588.13	8.89
588.469	8.9
588.807	9.01
589.145	9.11
589.483	8.99
589.821	9.18
590.159	9.25
590.497	9.25
590.835	9.13
591.173	9.23
591.511	8.95
591.849	9.22
592.187	9.12
592.524	9.15
592.862	9.17
593.2	9.32
593.537	9.3
593.875	9.62
594.212	9.3
594.55	9.43
594.887	9.34
595.224	9.26
595.561	9.33
595.899	9.2
596.236	9.55
596.573	9.44
596.91	9.58
597.247	9.45
597.584	9.42
597.921	9.64
598.258	9.52
598.594	9.45
598.931	9.61
599.268	9.7
599.604	9.61
599.941	9.77
600.277	9.84
600.614	9.79
600.95	9.72
601.287	10.01
601.623	10.18
601.959	10.01
602.296	9.95
602.632	9.95
602.968	9.83
603.304	10.04
603.64	10.29
603.976	10.18
604.312	10.02
604.648	9.88
604.984	10.08
605.319	9.98
605.655	10.03
605.991	10.04
606.326	10.32
606.662	10.11
606.998	10.09
607.333	10.02
607.668	10.25
608.004	10.38
608.339	10.18
608.674	10.4
609.01	10.39
609.345	10.73
609.68	10.52
610.015	10.51
610.35	10.59
610.685	10.61
611.02	10.43
611.355	10.43
611.689	10.66
612.024	10.41
612.359	10.61
612.694	10.58
613.028	10.57
613.363	10.67
613.697	11.03
614.032	10.92
614.366	10.89
614.7	10.79
615.035	10.87
615.369	11.02
615.703	11.01
616.037	11.21
616.371	11.15
616.705	11.4
617.039	11.09
617.373	11.02
617.707	11.03
618.041	11.22
618.375	10.84
618.709	11.26
619.042	11.4
619.376	11.51
619.71	11.22
620.043	11.51
620.377	11.24
620.71	11.45
621.043	11.2
621.377	11.44
621.71	11.25
622.043	11.81
622.376	11.79
622.709	11.66
623.043	11.68
623.376	11.67
623.709	11.67
624.041	12.02
624.374	11.69
624.707	12.16
625.04	11.84
625.373	11.85
625.705	11.8
626.038	12.18
626.37	12.01
626.703	11.81
627.035	11.93
627.368	11.75
627.7	11.98
628.032	12.14
628.365	12.04
628.697	11.86
629.029	12.17
629.361	11.75
629.693	12.13
630.025	12.05
630.357	12.21
630.689	11.98
631.021	12.02
631.353	12.24
631.684	12.28
632.016	12.14
632.348	12.37
632.679	12.27
633.011	12.32
633.342	12.54
633.674	12.5
634.005	12.57
634.336	12.67
634.668	12.72
634.999	12.53
635.33	12.94
635.661	12.72
635.992	12.71
636.323	12.31
636.654	13.02
636.985	12.61
637.316	12.78
637.647	13.09
637.977	13.08
638.308	12.83
638.639	12.87
638.969	12.81
639.3	13.2
639.63	13.09
639.961	13.02
640.291	13.42
640.622	13.44
640.952	12.79
641.282	12.84
641.612	13.01
641.943	13.55
642.273	12.99
642.603	13.44
642.933	13.28
643.263	13.31
643.592	13.36
643.922	13.79
644.252	13.79
644.582	13.61
644.911	13.68
645.241	13.75
645.571	13.72
645.9	13.45
646.23	14.03
646.559	13.87
646.888	13.91
647.218	13.96
647.547	13.8
647.876	13.93
648.205	14
648.534	13.84
648.863	13.78
649.192	13.46
649.521	13.61
649.85	14.23
650.179	13.86
650.508	14.37
650.837	14.51
651.165	13.79
651.494	14.19
651.822	13.55
652.151	13.62
652.479	13.69
652.808	13.89
653.136	13.92
653.465	14.72
653.793	14.25
654.121	13.95
654.449	14.12
654.777	14.38
655.105	14.02
655.433	14.26
655.761	14.5
656.089	14.32
656.417	14.53
656.745	14.75
657.073	14.53
657.4	14.43
657.728	14.58
658.056	14.96
658.383	14.35
658.711	14.8
659.038	14.45
659.365	14.75
659.693	14.62
660.02	15.44
660.347	14.78
660.674	14.46
661.001	15
661.329	14.69
661.656	14.85
661.982	15.18
662.309	14.98
662.636	15.25
662.963	15.34
663.29	14.65
663.616	14.6
663.943	14.81
664.27	15.41
664.596	15.64
664.923	14.8
665.249	15.4
665.576	15.64
665.902	15.63
666.228	15.71
666.554	15.31
666.881	15.29
667.207	15.34
667.533	15.68
667.859	15.78
668.185	15.12
668.511	15.24
668.837	15.63
669.162	15.69
669.488	15.79
669.814	14.89
670.139	15.41
670.465	15.22
670.791	15.34
671.116	16.16
671.442	15.94
671.767	16.62
672.092	15.53
672.418	15.57
672.743	15.6
673.068	16.03
673.393	16.34
673.718	16.03
674.043	15.6
674.368	15.97
674.693	15.83
675.018	16.03
675.343	16.27
675.667	16.63
675.992	17.29
676.317	15.94
676.641	16.03
676.966	17.23
677.29	16.41
677.615	16.47
677.939	16.07
678.264	16.96
678.588	16.38
678.912	16.22
679.236	16.88
679.56	16.44
679.885	16.4
680.209	16.76
680.532	16.61
680.856	17.14
681.18	16.79
681.504	16.71
681.828	16.93
682.152	16.81
682.475	16.35
682.799	16.43
683.122	16.56
683.446	17.54
683.769	17.46
684.093	17.1
684.416	16.85
684.739	17.66
685.062	16.66
685.386	17.16
685.709	17.11
686.032	16.77
686.355	17.61
686.678	17.04
