Data from 20-10_chest_Reflection__1__152.txt Node

Date: Fri Nov 11 21:16:02 CST 2022
User: ToomeyLab
Spectrometer: FLMS14357
Trigger mode: 0
Integration Time (sec): 1.000000E-2
Scans to average: 100
Electric dark correction enabled: true
Nonlinearity correction enabled: false
Boxcar width: 0
XAxis mode: Wavelengths
Number of Pixels in Spectrum: 2048
>>>>>Begin Spectral Data<<<<<
189.047	74.9
189.435	74.9
189.823	74.9
190.211	42.3
190.599	22.42
190.987	129.28
191.375	-4.85
191.763	46.48
192.151	10163.64
192.538	57.15
192.926	46.49
193.314	94.15
193.702	68.5
194.089	28.95
194.477	112.43
194.864	73.1
195.252	71.9
195.639	-843.39
196.027	-57.19
196.414	58.29
196.801	149.01
197.189	186.41
197.576	1861.54
197.963	-729.95
198.351	-53.09
198.738	19.35
199.125	4.7
199.512	-7.71
199.899	-166.3
200.286	-15.26
200.673	-47.5
201.06	16.3
201.447	-16.4
201.833	7.25
202.22	-187.5
202.607	-0.91
202.994	12.73
203.38	26.25
203.767	10.94
204.154	34.24
204.54	-10.25
204.927	25.93
205.313	0.57
205.699	-42.14
206.086	12.13
206.472	-3.39
206.858	30.6
207.245	30.99
207.631	40.11
208.017	7.25
208.403	30.61
208.789	25.02
209.175	15.38
209.561	25.48
209.947	-62.94
210.333	-20.92
210.719	20.54
211.105	12.83
211.491	-4.33
211.876	9.07
212.262	24.96
212.648	-8.64
213.034	-15.93
213.419	-93.53
213.805	-28.38
214.19	-53.88
214.576	4.57
214.961	-14.67
215.346	-44.03
215.732	-72.81
216.117	43.43
216.502	20.58
216.888	-17.02
217.273	-1.67
217.658	-7.4
218.043	-38.73
218.428	6.53
218.813	3.26
219.198	-13.02
219.583	-7.91
219.968	-9.74
220.353	-36.78
220.738	-10.09
221.122	-13.81
221.507	-18.03
221.892	-2.17
222.276	3.59
222.661	1.07
223.046	-7.96
223.43	-6.81
223.815	-3.29
224.199	-1.76
224.583	1.9
224.968	-12.78
225.352	3.14
225.736	-0.46
226.121	4.87
226.505	-8.96
226.889	-19.64
227.273	4.33
227.657	-4.16
228.041	-2.92
228.425	-4
228.809	1.65
229.193	2.5
229.577	1.4
229.961	2.27
230.344	1.25
230.728	0.57
231.112	0.53
231.495	1.98
231.879	0.36
232.263	0.32
232.646	0.22
233.03	1.57
233.413	0.39
233.797	2
234.18	1.09
234.563	-0.05
234.946	2.12
235.33	0.83
235.713	1.39
236.096	0.34
236.479	1.17
236.862	1.51
237.245	0.6
237.628	2.26
238.011	1.82
238.394	0.68
238.777	2.14
239.16	4.32
239.543	0.82
239.925	2.46
240.308	0.83
240.691	3.08
241.073	2.38
241.456	1.04
241.838	0.66
242.221	2.33
242.603	1.98
242.986	1.43
243.368	1.97
243.75	1.76
244.133	1.85
244.515	1.45
244.897	1.77
245.279	0.97
245.661	1.67
246.043	2.35
246.425	3.71
246.807	2.33
247.189	0.65
247.571	1.41
247.953	1.95
248.335	2.23
248.717	2.36
249.098	2.29
249.48	1.68
249.862	2.43
250.243	1.58
250.625	2.45
251.006	2.34
251.388	2.4
251.769	2.46
252.151	2.02
252.532	1.9
252.913	1.85
253.295	1.75
253.676	1.43
254.057	1.84
254.438	1.77
254.819	0.98
255.2	2.65
255.581	1.04
255.962	1.89
256.343	1.57
256.724	1.32
257.105	1.62
257.486	1.37
257.867	2.4
258.247	0.25
258.628	1.27
259.009	2
259.389	1.14
259.77	3.03
260.15	1.86
260.531	2.34
260.911	1.96
261.292	2.21
261.672	1.84
262.052	1.99
262.432	2.27
262.813	2.29
263.193	1.9
263.573	2.29
263.953	2.37
264.333	1.67
264.713	1.99
265.093	1.6
265.473	1.15
265.853	1.75
266.233	1.88
266.612	1
266.992	1.21
267.372	2.85
267.752	0.91
268.131	1.42
268.511	2.46
268.89	1.49
269.27	1.64
269.649	1.57
270.029	1.66
270.408	1
270.787	1.93
271.167	1.18
271.546	1.98
271.925	2.06
272.304	1.83
272.683	1.8
273.062	1.77
273.441	2.05
273.82	1.82
274.199	1.52
274.578	1.63
274.957	2.44
275.336	2.13
275.715	1.73
276.093	1.38
276.472	1.27
276.851	1.67
277.229	1.53
277.608	1.32
277.986	1.82
278.365	1.38
278.743	1.67
279.122	1.78
279.5	1.99
279.878	2.31
280.257	2.01
280.635	1.67
281.013	1.61
281.391	1.32
281.769	1.71
282.147	1.67
282.525	0.93
282.903	1
283.281	1.54
283.659	1.35
284.037	1.96
284.415	1.26
284.792	1.99
285.17	1.71
285.548	1.28
285.925	1.38
286.303	1.4
286.68	1.95
287.058	2.1
287.435	1.8
287.813	2.01
288.19	1.63
288.567	1.69
288.945	1.57
289.322	2.01
289.699	1.24
290.076	2.24
290.453	2.02
290.83	1.98
291.207	1.52
291.584	1.95
291.961	1.95
292.338	1.83
292.715	2.16
293.092	2.16
293.469	1.46
293.845	2.11
294.222	1.53
294.599	2.3
294.975	1.75
295.352	1.83
295.728	2.05
296.105	2.3
296.481	1.89
296.858	1.89
297.234	1.97
297.61	1.41
297.986	2.32
298.363	2.31
298.739	2.14
299.115	2.59
299.491	2.32
299.867	2.06
300.243	2.28
300.619	2.17
300.995	2.23
301.371	2.55
301.746	2.46
302.122	2.25
302.498	2.56
302.874	2.59
303.249	2.25
303.625	2.19
304	1.57
304.376	2.28
304.751	2.25
305.127	1.9
305.502	2.4
305.878	3.23
306.253	2.29
306.628	2.37
307.003	2.91
307.378	2.49
307.754	3.09
308.129	2.4
308.504	2.6
308.879	2.61
309.254	3
309.629	2.33
310.003	2.09
310.378	2.73
310.753	2.96
311.128	2.67
311.502	2.85
311.877	2.38
312.252	2.65
312.626	2.68
313.001	2.87
313.375	2.58
313.75	2.71
314.124	2.14
314.498	2.95
314.873	2.95
315.247	2.87
315.621	2.56
315.995	3.24
316.369	2.81
316.743	2.86
317.117	2.66
317.491	2.52
317.865	2.91
318.239	2.88
318.613	2.98
318.987	2.52
319.361	2.34
319.734	3.14
320.108	2.35
320.482	3.32
320.855	2.68
321.229	2.85
321.602	2.72
321.976	2.94
322.349	2.84
322.723	3.45
323.096	2.96
323.469	3.03
323.843	2.69
324.216	2.84
324.589	3.19
324.962	3.16
325.335	2.93
325.708	3.04
326.081	3.14
326.454	2.6
326.827	2.41
327.2	3.02
327.573	4.03
327.945	3.2
328.318	3
328.691	3.32
329.063	3.15
329.436	3.07
329.809	2.56
330.181	3.12
330.553	2.49
330.926	2.86
331.298	3.12
331.671	2.74
332.043	2.89
332.415	3.33
332.787	3.32
333.159	2.85
333.532	3.26
333.904	3.35
334.276	3
334.648	2.85
335.02	2.8
335.391	3.51
335.763	3.39
336.135	3.08
336.507	3.13
336.879	2.99
337.25	2.96
337.622	3.2
337.993	3.43
338.365	3.33
338.736	3.28
339.108	3.4
339.479	2.89
339.851	3.06
340.222	2.76
340.593	3.24
340.964	3.61
341.336	3.62
341.707	3.42
342.078	2.95
342.449	3.18
342.82	3.37
343.191	3.36
343.562	3.17
343.933	2.92
344.303	3.11
344.674	3.17
345.045	3.39
345.416	3.24
345.786	2.98
346.157	2.93
346.527	3.25
346.898	2.72
347.268	2.79
347.639	3.33
348.009	2.77
348.38	3.64
348.75	2.92
349.12	3.54
349.49	3.34
349.861	2.94
350.231	3.29
350.601	3.1
350.971	3.68
351.341	3.75
351.711	3.13
352.081	3.36
352.45	3.17
352.82	3.1
353.19	3.16
353.56	3.08
353.929	3.35
354.299	3.12
354.669	3.32
355.038	3.16
355.408	3.26
355.777	3.61
356.147	3.46
356.516	3.12
356.885	3.58
357.254	3.16
357.624	2.82
357.993	3.39
358.362	3.51
358.731	2.97
359.1	3.12
359.469	3.08
359.838	3.16
360.207	3.59
360.576	3.49
360.945	3.33
361.314	3.34
361.682	3.29
362.051	3.44
362.42	3.4
362.788	3.38
363.157	3.2
363.525	3.23
363.894	3.34
364.262	3.39
364.631	3.46
364.999	3.4
365.367	3.6
365.735	3.35
366.104	3.28
366.472	2.92
366.84	3.05
367.208	3.28
367.576	3.74
367.944	4.04
368.312	3.26
368.68	3.33
369.048	3.59
369.416	3.71
369.783	3.83
370.151	3.4
370.519	3.34
370.886	3.38
371.254	3.51
371.621	3.37
371.989	3.26
372.356	3.73
372.724	3.57
373.091	3.67
373.458	3.22
373.826	3.51
374.193	3.08
374.56	3.32
374.927	3.5
375.294	3.7
375.661	3.72
376.028	2.97
376.395	3.52
376.762	3.29
377.129	3.46
377.496	3.33
377.863	3.6
378.229	3.33
378.596	3.51
378.963	3.44
379.329	3.6
379.696	3.62
380.062	3.56
380.429	3.54
380.795	3.86
381.161	3.53
381.528	3.46
381.894	3.7
382.26	3.69
382.626	3.76
382.993	3.54
383.359	3.74
383.725	3.31
384.091	3.63
384.457	3.4
384.823	3.51
385.188	3.33
385.554	3.57
385.92	3.41
386.286	3.41
386.651	3.57
387.017	3.48
387.383	3.62
387.748	3.43
388.114	3.67
388.479	3.37
388.845	3.49
389.21	3.41
389.575	3.66
389.94	3.74
390.306	3.28
390.671	3.62
391.036	3.57
391.401	3.73
391.766	3.65
392.131	3.53
392.496	3.51
392.861	3.32
393.226	3.52
393.591	3.47
393.956	3.49
394.32	3.57
394.685	3.62
395.05	3.76
395.414	3.61
395.779	3.61
396.143	3.46
396.508	3.71
396.872	3.78
397.236	3.46
397.601	3.57
397.965	3.53
398.329	3.76
398.694	3.84
399.058	3.71
399.422	3.55
399.786	3.52
400.15	3.52
400.514	3.67
400.878	3.63
401.242	3.63
401.605	3.85
401.969	3.78
402.333	3.29
402.697	3.68
403.06	3.76
403.424	3.4
403.787	3.79
404.151	3.6
404.514	3.57
404.878	3.58
405.241	3.64
405.604	3.62
405.968	3.8
406.331	3.41
406.694	3.62
407.057	3.78
407.42	3.76
407.783	3.44
408.146	3.71
408.509	3.67
408.872	3.63
409.235	3.74
409.598	3.77
409.961	3.88
410.323	3.44
410.686	3.78
411.049	3.53
411.411	3.82
411.774	3.73
412.136	3.68
412.499	3.92
412.861	3.77
413.223	3.51
413.586	3.67
413.948	3.85
414.31	3.85
414.672	3.64
415.035	3.74
415.397	3.51
415.759	3.69
416.121	3.84
416.483	3.67
416.845	3.57
417.206	3.42
417.568	3.46
417.93	3.51
418.292	3.54
418.653	3.7
419.015	3.74
419.377	3.82
419.738	3.79
420.1	3.61
420.461	3.76
420.822	3.68
421.184	3.65
421.545	3.69
421.906	3.69
422.267	3.67
422.629	3.5
422.99	3.63
423.351	3.68
423.712	3.56
424.073	3.79
424.434	3.87
424.795	3.73
425.155	3.56
425.516	3.83
425.877	3.64
426.238	3.66
426.598	3.57
426.959	3.72
427.32	3.74
427.68	3.72
428.041	3.89
428.401	3.49
428.761	4.03
429.122	3.79
429.482	3.95
429.842	3.84
430.202	3.92
430.563	3.96
430.923	3.87
431.283	3.69
431.643	3.65
432.003	3.94
432.363	3.79
432.722	4.03
433.082	3.9
433.442	3.9
433.802	3.82
434.161	3.83
434.521	3.77
434.881	3.95
435.24	3.79
435.6	3.71
435.959	3.87
436.319	3.72
436.678	3.84
437.037	3.94
437.396	3.86
437.756	3.94
438.115	3.79
438.474	3.88
438.833	3.85
439.192	3.86
439.551	3.77
439.91	3.92
440.269	3.85
440.628	3.8
440.987	3.82
441.345	3.88
441.704	3.83
442.063	3.84
442.421	3.83
442.78	3.73
443.138	3.9
443.497	3.84
443.855	3.89
444.214	3.79
444.572	3.97
444.93	3.79
445.288	3.77
445.647	3.97
446.005	3.93
446.363	3.97
446.721	3.95
447.079	3.97
447.437	3.82
447.795	3.92
448.153	3.83
448.51	3.88
448.868	3.93
449.226	3.89
449.584	3.81
449.941	3.87
450.299	3.78
450.656	4
451.014	3.86
451.371	3.92
451.729	3.98
452.086	4.02
452.443	3.85
452.801	4.02
453.158	3.8
453.515	3.96
453.872	3.85
454.229	4.06
454.586	4
454.943	3.98
455.3	4
455.657	4.1
456.014	4.03
456.371	3.98
456.727	4.22
457.084	3.79
457.441	4.37
457.797	4
458.154	3.91
458.51	4.1
458.867	3.96
459.223	4.17
459.58	4.05
459.936	4.03
460.292	4.06
460.648	4
461.005	4.06
461.361	3.99
461.717	3.88
462.073	4.08
462.429	3.98
462.785	3.94
463.141	3.87
463.496	4.17
463.852	4.15
464.208	4.06
464.564	4.19
464.919	4.1
465.275	3.97
465.631	4.01
465.986	4.34
466.342	4.04
466.697	4.12
467.052	4.19
467.408	4.11
467.763	4.01
468.118	4.15
468.473	4.15
468.829	4.26
469.184	4.05
469.539	4.1
469.894	4.19
470.249	4.15
470.603	4.12
470.958	4.1
471.313	4.32
471.668	4.4
472.023	4.1
472.377	4.27
472.732	4.12
473.086	4.02
473.441	4.17
473.795	4.14
474.15	4.19
474.504	4.23
474.859	4.24
475.213	4.31
475.567	4.3
475.921	4.41
476.275	4.23
476.63	4.22
476.984	4.31
477.338	4.14
477.692	4.06
478.045	4.19
478.399	4.33
478.753	4.21
479.107	4.32
479.461	4.14
479.814	4.08
480.168	4.15
480.521	4.29
480.875	4.28
481.228	4.2
481.582	4.29
481.935	4.13
482.289	4.13
482.642	4.19
482.995	4.16
483.348	4.18
483.701	4.17
484.055	4.19
484.408	4.18
484.761	4.1
485.114	4.01
485.466	3.96
485.819	3.98
486.172	3.96
486.525	4.05
486.878	4.05
487.23	4.09
487.583	4.09
487.936	4.1
488.288	4.14
488.641	4.1
488.993	4.11
489.345	4.04
489.698	4.11
490.05	4.07
490.402	4.06
490.754	4.13
491.107	4.08
491.459	4.2
491.811	4.28
492.163	4.3
492.515	4.24
492.866	4.12
493.218	4.11
493.57	4.11
493.922	4.15
494.274	4.2
494.625	4.29
494.977	4.26
495.328	4.34
495.68	4.45
496.031	4.35
496.383	4.39
496.734	4.38
497.086	4.47
497.437	4.45
497.788	4.29
498.139	4.39
498.49	4.36
498.842	4.29
499.193	4.4
499.544	4.46
499.894	4.3
500.245	4.39
500.596	4.48
500.947	4.38
501.298	4.39
501.648	4.46
501.999	4.44
502.35	4.61
502.7	4.46
503.051	4.4
503.401	4.52
503.752	4.4
504.102	4.47
504.452	4.51
504.803	4.47
505.153	4.5
505.503	4.66
505.853	4.41
506.203	4.6
506.553	4.39
506.903	4.45
507.253	4.57
507.603	4.5
507.953	4.54
508.303	4.46
508.652	4.53
509.002	4.52
509.352	4.48
509.701	4.53
510.051	4.61
510.4	4.61
510.75	4.56
511.099	4.53
511.449	4.57
511.798	4.58
512.147	4.49
512.496	4.42
512.846	4.7
513.195	4.55
513.544	4.65
513.893	4.43
514.242	4.57
514.591	4.71
514.939	4.56
515.288	4.66
515.637	4.65
515.986	4.55
516.334	4.64
516.683	4.66
517.032	4.65
517.38	4.6
517.729	4.69
518.077	4.66
518.426	4.67
518.774	4.69
519.122	4.78
519.47	4.73
519.819	4.61
520.167	4.56
520.515	4.69
520.863	4.61
521.211	4.68
521.559	4.63
521.907	4.68
522.255	4.66
522.602	4.79
522.95	4.72
523.298	4.81
523.645	4.87
523.993	4.77
524.341	4.91
524.688	4.93
525.036	4.86
525.383	4.84
525.73	4.86
526.078	4.74
526.425	4.74
526.772	4.71
527.119	4.7
527.466	4.75
527.814	4.82
528.161	4.78
528.508	4.8
528.854	4.78
529.201	4.74
529.548	4.74
529.895	4.64
530.242	4.6
530.588	4.66
530.935	4.68
531.282	4.72
531.628	4.73
531.975	4.72
532.321	4.71
532.667	4.89
533.014	4.79
533.36	4.92
533.706	5.03
534.052	4.94
534.399	4.83
534.745	4.8
535.091	4.8
535.437	4.87
535.783	4.83
536.129	4.91
536.474	4.88
536.82	4.95
537.166	5
537.512	5
537.857	5.01
538.203	4.91
538.549	5.03
538.894	4.96
539.239	4.96
539.585	5.09
539.93	5.15
540.276	5.19
540.621	5.18
540.966	5.18
541.311	5.15
541.656	5.12
542.001	5.13
542.346	5.15
542.691	5.04
543.036	4.98
543.381	5.04
543.726	4.96
544.071	5.01
544.415	5.05
544.76	5.14
545.105	5.15
545.449	5.18
545.794	5.18
546.138	5.17
546.483	5.27
546.827	5.31
547.171	5.38
547.516	5.24
547.86	5.22
548.204	5.35
548.548	5.26
548.892	5.3
549.236	5.31
549.58	5.45
549.924	5.33
550.268	5.36
550.612	5.59
550.956	5.62
551.3	5.48
551.643	5.52
551.987	5.54
552.33	5.62
552.674	5.59
553.017	5.58
553.361	5.68
553.704	5.74
554.048	5.55
554.391	5.74
554.734	5.55
555.077	5.69
555.42	5.59
555.764	5.66
556.107	5.69
556.45	5.78
556.793	5.59
557.135	5.67
557.478	5.64
557.821	5.87
558.164	5.76
558.507	5.86
558.849	5.85
559.192	5.68
559.534	5.96
559.877	6
560.219	5.93
560.562	5.84
560.904	6.04
561.246	5.91
561.589	5.88
561.931	5.75
562.273	5.78
562.615	5.83
562.957	5.97
563.299	5.93
563.641	5.84
563.983	5.95
564.325	5.9
564.667	6.09
565.008	6.22
565.35	6.11
565.692	5.81
566.033	6.15
566.375	6.15
566.716	6.05
567.058	6.11
567.399	6.39
567.741	6.24
568.082	6.15
568.423	6.18
568.764	6.21
569.105	6.1
569.447	6.28
569.788	6.36
570.129	6.12
570.47	6.26
570.811	6.32
571.151	6.49
571.492	6.39
571.833	6.43
572.174	6.32
572.514	6.35
572.855	6.36
573.195	6.43
573.536	6.35
573.876	6.38
574.217	6.44
574.557	6.32
574.898	6.34
575.238	6.29
575.578	6.46
575.918	6.55
576.258	6.53
576.598	6.49
576.938	6.4
577.278	6.39
577.618	6.58
577.958	6.55
578.298	6.59
578.638	6.68
578.977	6.65
579.317	6.59
579.657	6.63
579.996	6.5
580.336	6.62
580.675	6.58
581.014	6.84
581.354	6.68
581.693	6.71
582.032	6.84
582.372	6.78
582.711	6.89
583.05	6.88
583.389	7.01
583.728	7.06
584.067	7.19
584.406	7.02
584.745	7.25
585.083	7.3
585.422	6.99
585.761	6.95
586.1	7.01
586.438	7.01
586.777	6.87
587.115	7.03
587.454	7.05
587.792	7.19
588.13	7.14
588.469	7.17
588.807	7.26
589.145	7.41
589.483	7.44
589.821	7.22
590.159	7.3
590.497	7.37
590.835	7.22
591.173	7.45
591.511	7.38
591.849	7.52
592.187	7.23
592.524	7.1
592.862	7.32
593.2	7.53
593.537	7.45
593.875	7.62
594.212	7.35
594.55	7.61
594.887	7.38
595.224	7.3
595.561	7.38
595.899	7.42
596.236	7.49
596.573	7.51
596.91	7.68
597.247	7.67
597.584	7.67
597.921	7.95
598.258	7.53
598.594	7.67
598.931	7.6
599.268	7.61
599.604	7.67
599.941	7.77
600.277	7.88
600.614	8.02
600.95	7.88
601.287	7.89
601.623	8.08
601.959	8.09
602.296	7.85
602.632	8.12
602.968	7.9
603.304	8.08
603.64	8.25
603.976	8.09
604.312	8.24
604.648	7.91
604.984	8.21
605.319	8.13
605.655	8.09
605.991	7.95
606.326	8.27
606.662	8.23
606.998	8.23
607.333	8.13
607.668	8.08
608.004	8.23
608.339	8.22
608.674	8.44
609.01	8.29
609.345	8.24
609.68	8.44
610.015	8.57
610.35	8.39
610.685	8.38
611.02	8.22
611.355	8.33
611.689	8.38
612.024	8.33
612.359	8.28
612.694	8.5
613.028	8.38
613.363	8.44
613.697	8.71
614.032	8.72
614.366	8.56
614.7	8.53
615.035	8.66
615.369	8.58
615.703	8.8
616.037	8.81
616.371	8.81
616.705	8.75
617.039	8.94
617.373	8.7
617.707	8.89
618.041	9.02
618.375	8.5
618.709	8.97
619.042	9.23
619.376	8.91
619.71	9.2
620.043	9.08
620.377	9.24
620.71	8.76
621.043	9.3
621.377	9.25
621.71	9.24
622.043	9.19
622.376	9.05
622.709	8.88
623.043	8.89
623.376	9.63
623.709	9.2
624.041	9.47
624.374	9.06
624.707	9.3
625.04	9.45
625.373	9.08
625.705	9.49
626.038	9.61
626.37	9.54
626.703	9.2
627.035	9.47
627.368	9.18
627.7	9.53
628.032	9.44
628.365	9.42
628.697	9.52
629.029	9.5
629.361	9.69
629.693	9.82
630.025	9.46
630.357	9.68
630.689	9.64
631.021	9.73
631.353	9.92
631.684	9.68
632.016	9.75
632.348	9.8
632.679	9.68
633.011	9.91
633.342	9.91
633.674	9.95
634.005	9.97
634.336	10.09
634.668	10.18
634.999	10.04
635.33	9.97
635.661	10.02
635.992	10.13
636.323	10.05
636.654	10.38
636.985	9.9
637.316	10.18
637.647	10.09
637.977	10.09
638.308	10.56
638.639	10.14
638.969	10
639.3	10.49
639.63	10.64
639.961	10.45
640.291	10.46
640.622	10.85
640.952	10.34
641.282	10.34
641.612	10.12
641.943	10.67
642.273	10.52
642.603	10.6
642.933	10.82
643.263	10.77
643.592	10.86
643.922	10.76
644.252	10.75
644.582	10.8
644.911	10.43
645.241	10.9
645.571	10.46
645.9	10.62
646.23	11.07
646.559	10.79
646.888	10.98
647.218	11.07
647.547	10.56
647.876	10.61
648.205	10.77
648.534	10.91
648.863	10.71
649.192	10.65
649.521	11.21
649.85	11.43
650.179	10.97
650.508	10.92
650.837	11.15
651.165	11.17
651.494	11.17
651.822	10.56
652.151	10.59
652.479	10.58
652.808	10.74
653.136	11.08
653.465	11.53
653.793	11.29
654.121	11.04
654.449	10.83
654.777	11.94
655.105	11.51
655.433	11.68
655.761	11.62
656.089	11
656.417	10.95
656.745	11.47
657.073	11.31
657.4	11.5
657.728	11.59
658.056	11.74
658.383	11.32
658.711	11.49
659.038	11.37
659.365	11.59
659.693	11.48
660.02	12.07
660.347	11.63
660.674	11.42
661.001	11.6
661.329	11.25
661.656	11.64
661.982	11.85
662.309	11.8
662.636	12.14
662.963	12.1
663.29	11.61
663.616	11.56
663.943	12.06
664.27	11.96
664.596	12.2
664.923	11.93
665.249	12.03
665.576	12.21
665.902	12.39
666.228	12.55
666.554	11.82
666.881	11.58
667.207	12.48
667.533	12.06
667.859	12.36
668.185	12.69
668.511	12.88
668.837	12.49
669.162	12.34
669.488	12.66
669.814	12.23
670.139	12.09
670.465	12.06
670.791	12.4
671.116	12.63
671.442	12.35
671.767	12.62
672.092	12.54
672.418	12.07
672.743	12.07
673.068	12.67
673.393	13.61
673.718	12.36
674.043	12.75
674.368	12.21
674.693	12.3
675.018	12.6
675.343	12.88
675.667	12.8
675.992	13.44
676.317	13.02
676.641	12.49
676.966	12.9
677.29	12.78
677.615	13.07
677.939	12.32
678.264	13.5
678.588	12.61
678.912	12.62
679.236	13.48
679.56	13.14
679.885	13.2
680.209	12.37
680.532	12.97
680.856	13.62
681.18	13.03
681.504	13.02
681.828	13.1
682.152	13.36
682.475	13.35
682.799	12.76
683.122	13.41
683.446	13.34
683.769	13.22
684.093	13.15
684.416	13.21
684.739	13.83
685.062	13.34
685.386	14.01
685.709	13.46
686.032	13.01
686.355	13.02
686.678	13.32
687.001	13.79
687.324	12.84
687.646	13.57
687.969	13.26
688.292	14.59
688.614	13.73
688.937	13.15
