Data from 20-10_chest_Reflection__3__154.txt Node

Date: Fri Nov 11 21:16:26 CST 2022
User: ToomeyLab
Spectrometer: FLMS14357
Trigger mode: 0
Integration Time (sec): 1.000000E-2
Scans to average: 100
Electric dark correction enabled: true
Nonlinearity correction enabled: false
Boxcar width: 0
XAxis mode: Wavelengths
Number of Pixels in Spectrum: 2048
>>>>>Begin Spectral Data<<<<<
189.047	-10.5
189.435	-10.5
189.823	-10.5
190.211	-61.96
190.599	123.76
190.987	75.52
191.375	-6.59
191.763	68.13
192.151	-10675.76
192.538	-44.29
192.926	71.28
193.314	44.72
193.702	-433.7
194.089	201.85
194.477	79.99
194.864	50.61
195.252	70.84
195.639	-164.34
196.027	335.86
196.414	27.77
196.801	88.79
197.189	20.41
197.576	7330.77
197.963	-86.13
198.351	-260.79
198.738	-20.6
199.125	-2.71
199.512	0.02
199.899	-104.64
200.286	-11.43
200.673	-55.94
201.06	33.21
201.447	24.91
201.833	18.64
202.22	-251.97
202.607	24.2
202.994	30.17
203.38	56.83
203.767	24.62
204.154	19.1
204.54	-46.22
204.927	3.05
205.313	-15.02
205.699	-90.62
206.086	22.59
206.472	-6.72
206.858	22.38
207.245	14.38
207.631	4.59
208.017	-29.36
208.403	-55.26
208.789	4.47
209.175	-2.92
209.561	55.61
209.947	7.18
210.333	-29.14
210.719	21.16
211.105	20.87
211.491	1.75
211.876	-13.9
212.262	30.6
212.648	-20.65
213.034	-20.93
213.419	-106.84
213.805	10.2
214.19	3.01
214.576	20.25
214.961	-109.26
215.346	-15.29
215.732	-61.53
216.117	7.68
216.502	24.26
216.888	-33.91
217.273	21.73
217.658	-30.18
218.043	-2.01
218.428	-21.81
218.813	-14.1
219.198	-3.61
219.583	-17.5
219.968	-9.46
220.353	-36.68
220.738	5.72
221.122	4.55
221.507	-14.48
221.892	-8.33
222.276	-0.47
222.661	3.27
223.046	-4.51
223.43	-6.14
223.815	-6.18
224.199	20.44
224.583	-6.54
224.968	-23.4
225.352	-3.4
225.736	1.3
226.121	-7.28
226.505	-9.45
226.889	-15.39
227.273	-4.78
227.657	-4.7
228.041	-0.56
228.425	-5.35
228.809	0.37
229.193	0.6
229.577	0.74
229.961	1.49
230.344	1.58
230.728	1.33
231.112	0.69
231.495	1.12
231.879	-0.17
232.263	2.17
232.646	-0.72
233.03	0.48
233.413	0.61
233.797	-0.55
234.18	-0.3
234.563	0.33
234.946	2.78
235.33	1.33
235.713	0.22
236.096	1.02
236.479	0.11
236.862	1.91
237.245	-0.36
237.628	3.11
238.011	1.05
238.394	1.7
238.777	1.97
239.16	1.9
239.543	-1.43
239.925	1.99
240.308	-0.26
240.691	1.24
241.073	0.42
241.456	0.02
241.838	2.43
242.221	1.46
242.603	1.73
242.986	0.98
243.368	1.68
243.75	1.42
244.133	1.41
244.515	1.07
244.897	1.77
245.279	0.54
245.661	1.16
246.043	1.02
246.425	2.85
246.807	1.56
247.189	0.75
247.571	1.23
247.953	1.14
248.335	1.32
248.717	1.49
249.098	1.62
249.48	1.12
249.862	1.37
250.243	1.26
250.625	1.16
251.006	2.3
251.388	1.71
251.769	1.03
252.151	1.18
252.532	0.57
252.913	1.27
253.295	0.65
253.676	0.78
254.057	1.38
254.438	0.87
254.819	0.45
255.2	1.82
255.581	0.91
255.962	1.68
256.343	0.63
256.724	0.76
257.105	1.11
257.486	0.22
257.867	2.26
258.247	1.34
258.628	0.6
259.009	1.25
259.389	1.09
259.77	1.67
260.15	1.28
260.531	1.64
260.911	1.36
261.292	1.31
261.672	1.28
262.052	1.45
262.432	1.4
262.813	1.58
263.193	0.77
263.573	1.36
263.953	2.47
264.333	1.58
264.713	1.2
265.093	1.78
265.473	-0.06
265.853	1.25
266.233	1.52
266.612	1.14
266.992	0.51
267.372	2.17
267.752	1.05
268.131	0.79
268.511	1.08
268.89	0.68
269.27	1.3
269.649	0.48
270.029	1.47
270.408	0.99
270.787	1.03
271.167	0.89
271.546	1.08
271.925	1.28
272.304	1.12
272.683	1.12
273.062	1.27
273.441	1.28
273.82	1.07
274.199	1.33
274.578	1.23
274.957	1.46
275.336	1.58
275.715	1.69
276.093	0.76
276.472	0.68
276.851	0.86
277.229	0.9
277.608	1.63
277.986	1.57
278.365	0.85
278.743	1.18
279.122	1.45
279.5	1.67
279.878	1.52
280.257	1.69
280.635	0.81
281.013	1.08
281.391	1.11
281.769	1.26
282.147	1.34
282.525	0.8
282.903	0.78
283.281	1.34
283.659	1.37
284.037	1.26
284.415	1.12
284.792	0.8
285.17	1.37
285.548	1.23
285.925	0.75
286.303	1.13
286.68	1.42
287.058	1.36
287.435	1.18
287.813	1.38
288.19	1.12
288.567	1.37
288.945	0.96
289.322	1.81
289.699	0.32
290.076	1.56
290.453	1.38
290.83	0.84
291.207	1.11
291.584	1.48
291.961	1.5
292.338	1.09
292.715	1.32
293.092	1.4
293.469	1.23
293.845	1.41
294.222	0.93
294.599	0.87
294.975	1.23
295.352	1.22
295.728	1.45
296.105	0.74
296.481	0.86
296.858	0.99
297.234	1.2
297.61	1.02
297.986	1.12
298.363	1.41
298.739	1.54
299.115	1.56
299.491	1.54
299.867	1.17
300.243	1.21
300.619	1.6
300.995	1.39
301.371	1.56
301.746	1.48
302.122	1.45
302.498	1.76
302.874	1.22
303.249	1.54
303.625	1.3
304	0.92
304.376	1.46
304.751	1.42
305.127	0.98
305.502	1.83
305.878	1.65
306.253	1.35
306.628	1.29
307.003	1.82
307.378	1.73
307.754	1.69
308.129	1.48
308.504	1.52
308.879	1.53
309.254	2.06
309.629	1.4
310.003	1.23
310.378	1.59
310.753	1.6
311.128	1.75
311.502	1.9
311.877	1.39
312.252	1.82
312.626	1.43
313.001	1.34
313.375	1.5
313.75	1.82
314.124	1.65
314.498	1.27
314.873	1.62
315.247	1.87
315.621	1.87
315.995	2.16
316.369	1.95
316.743	1.51
317.117	2.03
317.491	1.61
317.865	1.58
318.239	1.94
318.613	1.76
318.987	1.3
319.361	1.09
319.734	2.2
320.108	1.68
320.482	1.69
320.855	1.45
321.229	1.45
321.602	2.23
321.976	1.58
322.349	2.17
322.723	2.28
323.096	1.96
323.469	1.51
323.843	1.89
324.216	1.11
324.589	1.97
324.962	2.03
325.335	1.67
325.708	1.98
326.081	1.93
326.454	1.81
326.827	1.52
327.2	1.96
327.573	2.65
327.945	2.17
328.318	1.64
328.691	2.04
329.063	2.43
329.436	1.68
329.809	1.91
330.181	1.91
330.553	1.75
330.926	1.71
331.298	1.77
331.671	1.93
332.043	2.11
332.415	2.2
332.787	2.34
333.159	2.18
333.532	2.25
333.904	2.5
334.276	2.07
334.648	1.81
335.02	2.17
335.391	2.55
335.763	1.75
336.135	1.8
336.507	1.53
336.879	1.91
337.25	2.15
337.622	2.26
337.993	2.18
338.365	2.19
338.736	2.17
339.108	2.08
339.479	1.98
339.851	2.36
340.222	2.14
340.593	2.28
340.964	1.79
341.336	2.37
341.707	1.96
342.078	1.74
342.449	2.16
342.82	2.58
343.191	2.32
343.562	1.93
343.933	2.28
344.303	2.23
344.674	2.28
345.045	2.2
345.416	2.14
345.786	1.49
346.157	2.06
346.527	2.33
346.898	1.89
347.268	1.94
347.639	2.21
348.009	2.35
348.38	2.41
348.75	1.79
349.12	2.57
349.49	2.43
349.861	2.06
350.231	2.46
350.601	2.21
350.971	2.36
351.341	2.53
351.711	2.27
352.081	2.44
352.45	2.39
352.82	2.25
353.19	2.1
353.56	2.24
353.929	2.23
354.299	1.89
354.669	2.3
355.038	2.28
355.408	2.34
355.777	2.42
356.147	2.49
356.516	2.66
356.885	2.36
357.254	1.94
357.624	1.95
357.993	2.28
358.362	2.52
358.731	1.96
359.1	2.26
359.469	1.66
359.838	2.02
360.207	2.39
360.576	2.29
360.945	2.28
361.314	1.87
361.682	2.3
362.051	2.36
362.42	2.49
362.788	2.41
363.157	2.18
363.525	2.16
363.894	2.26
364.262	2.27
364.631	2.59
364.999	2.36
365.367	2.17
365.735	2.33
366.104	2.24
366.472	2.16
366.84	1.83
367.208	2.25
367.576	2.35
367.944	2.59
368.312	2.33
368.68	2.05
369.048	2.2
369.416	2.14
369.783	2.39
370.151	2.22
370.519	2.2
370.886	1.97
371.254	2.39
371.621	2.33
371.989	2.08
372.356	2.57
372.724	2.29
373.091	2.67
373.458	2.23
373.826	2.07
374.193	2.13
374.56	2.26
374.927	2.25
375.294	2.26
375.661	2.35
376.028	2.14
376.395	2.6
376.762	2.76
377.129	2.36
377.496	2.39
377.863	2.26
378.229	2.38
378.596	2.25
378.963	2.42
379.329	2.41
379.696	2.21
380.062	2.65
380.429	2.41
380.795	2.54
381.161	2.32
381.528	2.48
381.894	2.47
382.26	2.66
382.626	2.53
382.993	2.41
383.359	2.43
383.725	2.17
384.091	2.47
384.457	2.41
384.823	2.29
385.188	2.48
385.554	2.39
385.92	2.34
386.286	2.39
386.651	2.75
387.017	2.28
387.383	2.4
387.748	2.09
388.114	2.2
388.479	2.17
388.845	2.39
389.21	2.36
389.575	2.56
389.94	2.45
390.306	2.34
390.671	2.57
391.036	2.56
391.401	2.43
391.766	2.59
392.131	2.42
392.496	2.48
392.861	2.46
393.226	2.33
393.591	2.25
393.956	2.36
394.32	2.44
394.685	2.38
395.05	2.79
395.414	2.44
395.779	2.45
396.143	2.64
396.508	2.5
396.872	2.69
397.236	2.34
397.601	2.56
397.965	2.45
398.329	2.32
398.694	2.64
399.058	2.47
399.422	2.52
399.786	2.34
400.15	2.57
400.514	2.39
400.878	2.59
401.242	2.43
401.605	2.6
401.969	2.44
402.333	2.32
402.697	2.53
403.06	2.63
403.424	2.38
403.787	2.53
404.151	2.28
404.514	2.43
404.878	2.54
405.241	2.35
405.604	2.61
405.968	2.57
406.331	2.28
406.694	2.48
407.057	2.74
407.42	2.57
407.783	2.51
408.146	2.71
408.509	2.48
408.872	2.58
409.235	2.63
409.598	2.57
409.961	2.64
410.323	2.55
410.686	2.55
411.049	2.4
411.411	2.35
411.774	2.56
412.136	2.45
412.499	2.69
412.861	2.48
413.223	2.22
413.586	2.48
413.948	2.87
414.31	2.58
414.672	2.52
415.035	2.71
415.397	2.57
415.759	2.34
416.121	2.53
416.483	2.49
416.845	2.55
417.206	2.34
417.568	2.42
417.93	2.48
418.292	2.43
418.653	2.57
419.015	2.5
419.377	2.49
419.738	2.54
420.1	2.54
420.461	2.7
420.822	2.6
421.184	2.6
421.545	2.48
421.906	2.5
422.267	2.46
422.629	2.47
422.99	2.53
423.351	2.49
423.712	2.51
424.073	2.56
424.434	2.59
424.795	2.56
425.155	2.58
425.516	2.63
425.877	2.58
426.238	2.53
426.598	2.45
426.959	2.52
427.32	2.55
427.68	2.67
428.041	2.74
428.401	2.52
428.761	2.67
429.122	2.52
429.482	2.72
429.842	2.55
430.202	2.67
430.563	2.76
430.923	2.71
431.283	2.5
431.643	2.4
432.003	2.71
432.363	2.57
432.722	2.78
433.082	2.72
433.442	2.64
433.802	2.62
434.161	2.61
434.521	2.47
434.881	2.72
435.24	2.61
435.6	2.6
435.959	2.67
436.319	2.65
436.678	2.59
437.037	2.66
437.396	2.73
437.756	2.66
438.115	2.54
438.474	2.51
438.833	2.73
439.192	2.71
439.551	2.54
439.91	2.73
440.269	2.59
440.628	2.68
440.987	2.77
441.345	2.73
441.704	2.78
442.063	2.74
442.421	2.66
442.78	2.58
443.138	2.78
443.497	2.51
443.855	2.71
444.214	2.62
444.572	2.74
444.93	2.67
445.288	2.82
445.647	2.91
446.005	2.84
446.363	2.79
446.721	2.84
447.079	2.71
447.437	2.54
447.795	2.74
448.153	2.73
448.51	2.7
448.868	2.7
449.226	2.64
449.584	2.73
449.941	2.69
450.299	2.59
450.656	2.72
451.014	2.82
451.371	2.74
451.729	2.74
452.086	2.81
452.443	2.85
452.801	2.81
453.158	2.58
453.515	2.76
453.872	2.8
454.229	2.71
454.586	2.77
454.943	2.86
455.3	2.79
455.657	2.76
456.014	2.96
456.371	2.88
456.727	2.98
457.084	2.6
457.441	2.9
457.797	2.76
458.154	2.72
458.51	2.78
458.867	2.78
459.223	2.92
459.58	2.93
459.936	2.74
460.292	2.85
460.648	2.84
461.005	2.67
461.361	2.77
461.717	2.71
462.073	2.74
462.429	2.73
462.785	2.77
463.141	2.69
463.496	2.81
463.852	2.74
464.208	2.93
464.564	2.86
464.919	2.64
465.275	2.77
465.631	2.79
465.986	3.03
466.342	2.93
466.697	2.86
467.052	2.83
467.408	2.77
467.763	2.71
468.118	2.88
468.473	2.9
468.829	3.01
469.184	2.86
469.539	2.97
469.894	2.85
470.249	2.89
470.603	2.8
470.958	2.77
471.313	3
471.668	3.07
472.023	2.75
472.377	2.91
472.732	2.92
473.086	2.83
473.441	2.81
473.795	2.89
474.15	2.89
474.504	2.88
474.859	2.77
475.213	2.9
475.567	2.91
475.921	3.06
476.275	2.86
476.63	2.88
476.984	2.95
477.338	2.91
477.692	2.69
478.045	2.74
478.399	2.92
478.753	2.79
479.107	2.94
479.461	2.87
479.814	2.86
480.168	2.95
480.521	3.1
480.875	3.01
481.228	2.87
481.582	2.92
481.935	2.87
482.289	2.83
482.642	2.97
482.995	2.92
483.348	2.92
483.701	2.93
484.055	2.93
484.408	2.91
484.761	2.78
485.114	2.75
485.466	2.7
485.819	2.71
486.172	2.74
486.525	2.77
486.878	2.8
487.23	2.8
487.583	2.88
487.936	2.9
488.288	2.9
488.641	2.8
488.993	2.79
489.345	2.78
489.698	2.78
490.05	2.81
490.402	2.88
490.754	2.9
491.107	2.81
491.459	2.81
491.811	2.87
492.163	2.97
492.515	2.88
492.866	2.88
493.218	2.84
493.57	2.81
493.922	2.86
494.274	2.92
494.625	2.92
494.977	3.09
495.328	2.91
495.68	3.1
496.031	3
496.383	3.06
496.734	3.07
497.086	3.03
497.437	3.09
497.788	2.98
498.139	3.09
498.49	3
498.842	3.08
499.193	3.07
499.544	3.03
499.894	3.08
500.245	3.07
500.596	3.12
500.947	3.05
501.298	3.12
501.648	2.96
501.999	3.17
502.35	3.13
502.7	3.07
503.051	3.05
503.401	3.09
503.752	3.06
504.102	3.1
504.452	3.18
504.803	3.07
505.153	3.04
505.503	3.18
505.853	3.06
506.203	3.19
506.553	3.1
506.903	3.15
507.253	3.01
507.603	3.1
507.953	3.12
508.303	3.05
508.652	3.18
509.002	3.19
509.352	3.09
509.701	3.28
510.051	3.05
510.4	3.1
510.75	3.09
511.099	3.03
511.449	3.18
511.798	3.13
512.147	3.11
512.496	3.06
512.846	3.2
513.195	3.15
513.544	3.22
513.893	3.04
514.242	3.14
514.591	3.17
514.939	3.2
515.288	3.16
515.637	3.21
515.986	3.13
516.334	3.21
516.683	3.23
517.032	3.28
517.38	3.18
517.729	3.21
518.077	3.28
518.426	3.33
518.774	3.21
519.122	3.22
519.47	3.2
519.819	3.18
520.167	3.18
520.515	3.25
520.863	3.31
521.211	3.18
521.559	3.18
521.907	3.35
522.255	3.18
522.602	3.28
522.95	3.21
523.298	3.36
523.645	3.31
523.993	3.24
524.341	3.39
524.688	3.4
525.036	3.4
525.383	3.31
525.73	3.27
526.078	3.31
526.425	3.24
526.772	3.29
527.119	3.25
527.466	3.29
527.814	3.35
528.161	3.34
528.508	3.35
528.854	3.3
529.201	3.34
529.548	3.25
529.895	3.21
530.242	3.17
530.588	3.18
530.935	3.18
531.282	3.28
531.628	3.25
531.975	3.32
532.321	3.27
532.667	3.44
533.014	3.35
533.36	3.27
533.706	3.46
534.052	3.4
534.399	3.33
534.745	3.3
535.091	3.37
535.437	3.29
535.783	3.36
536.129	3.44
536.474	3.48
536.82	3.42
537.166	3.5
537.512	3.52
537.857	3.39
538.203	3.43
538.549	3.52
538.894	3.45
539.239	3.46
539.585	3.55
539.93	3.54
540.276	3.63
540.621	3.56
540.966	3.63
541.311	3.6
541.656	3.51
542.001	3.54
542.346	3.53
542.691	3.45
543.036	3.42
543.381	3.49
543.726	3.43
544.071	3.48
544.415	3.56
544.76	3.59
545.105	3.49
545.449	3.52
545.794	3.61
546.138	3.64
546.483	3.7
546.827	3.67
547.171	3.7
547.516	3.57
547.86	3.64
548.204	3.68
548.548	3.61
548.892	3.64
549.236	3.67
549.58	3.75
549.924	3.75
550.268	3.76
550.612	3.76
550.956	3.98
551.3	3.64
551.643	3.78
551.987	3.83
552.33	3.82
552.674	3.89
553.017	3.94
553.361	3.88
553.704	4
554.048	3.81
554.391	3.87
554.734	3.92
555.077	4.04
555.42	3.89
555.764	4.03
556.107	3.94
556.45	4.1
556.793	4.05
557.135	3.95
557.478	3.98
557.821	3.92
558.164	4
558.507	3.98
558.849	3.98
559.192	3.97
559.534	3.95
559.877	4.24
560.219	4.04
560.562	4.03
560.904	3.93
561.246	4.12
561.589	4.04
561.931	4.08
562.273	4.12
562.615	3.97
562.957	4.26
563.299	4.11
563.641	3.98
563.983	4.01
564.325	4.03
564.667	4.22
565.008	4.32
565.35	4.05
565.692	3.97
566.033	4.1
566.375	4.18
566.716	4.17
567.058	4.37
567.399	4.35
567.741	4.38
568.082	4.34
568.423	4.35
568.764	4.46
569.105	4.16
569.447	4.4
569.788	4.45
570.129	4.32
570.47	4.31
570.811	4.34
571.151	4.46
571.492	4.4
571.833	4.54
572.174	4.45
572.514	4.57
572.855	4.33
573.195	4.38
573.536	4.5
573.876	4.43
574.217	4.57
574.557	4.51
574.898	4.58
575.238	4.47
575.578	4.59
575.918	4.65
576.258	4.66
576.598	4.59
576.938	4.55
577.278	4.47
577.618	4.44
577.958	4.5
578.298	4.7
578.638	4.7
578.977	4.91
579.317	4.73
579.657	4.75
579.996	4.71
580.336	4.8
580.675	4.98
581.014	4.7
581.354	4.79
581.693	4.67
582.032	4.67
582.372	4.8
582.711	4.8
583.05	4.64
583.389	4.98
583.728	4.84
584.067	4.77
584.406	4.75
584.745	5.19
585.083	5.03
585.422	4.79
585.761	5.11
586.1	4.88
586.438	4.9
586.777	5.19
587.115	4.95
587.454	4.92
587.792	4.95
588.13	5
588.469	5.05
588.807	5.09
589.145	5.24
589.483	5.41
589.821	5.07
590.159	5.31
590.497	5.44
590.835	5.25
591.173	5.34
591.511	5.07
591.849	5.41
592.187	5.12
592.524	5.06
592.862	5.02
593.2	5.41
593.537	5.3
593.875	5.45
594.212	5.39
594.55	5.33
594.887	5.27
595.224	5.41
595.561	5.62
595.899	5.14
596.236	5.27
596.573	5.54
596.91	5.42
597.247	5.44
597.584	5.42
597.921	5.64
598.258	5.34
598.594	5.47
598.931	5.33
599.268	5.48
599.604	5.52
599.941	5.52
600.277	5.62
600.614	5.74
600.95	5.49
601.287	5.66
601.623	6.06
601.959	5.83
602.296	5.53
602.632	5.68
602.968	5.77
603.304	6
603.64	6.26
603.976	5.83
604.312	5.69
604.648	5.72
604.984	5.89
605.319	5.87
605.655	5.75
605.991	5.71
606.326	5.96
606.662	5.83
606.998	5.82
607.333	5.98
607.668	5.97
608.004	5.98
608.339	5.8
608.674	6.17
609.01	6.09
609.345	6.05
609.68	6.1
610.015	6.11
610.35	5.87
610.685	6.05
611.02	6
611.355	5.92
611.689	5.96
612.024	6.1
612.359	6.02
612.694	5.97
613.028	6.17
613.363	6.2
613.697	6.46
614.032	6.33
614.366	6.46
614.7	6.05
615.035	6.06
615.369	6.3
615.703	6.18
616.037	6.53
616.371	6.16
616.705	6.31
617.039	6.5
617.373	6.39
617.707	6.2
618.041	6.44
618.375	6.13
618.709	6.68
619.042	6.61
619.376	6.38
619.71	6.52
620.043	6.66
620.377	6.67
620.71	6.56
621.043	6.61
621.377	6.9
621.71	6.74
622.043	6.55
622.376	6.95
622.709	6.41
623.043	6.51
623.376	6.79
623.709	7.25
624.041	7.05
624.374	6.63
624.707	7.13
625.04	6.77
625.373	6.87
625.705	7.09
626.038	7
626.37	6.82
626.703	6.97
627.035	6.93
627.368	6.43
627.7	7.07
628.032	7.08
628.365	7.25
628.697	6.96
629.029	6.91
629.361	7.06
629.693	6.94
630.025	7.19
630.357	7.18
630.689	6.92
631.021	7.12
631.353	7.28
631.684	7.22
632.016	6.9
632.348	7.14
632.679	7.27
633.011	7.51
633.342	7.42
633.674	7.54
634.005	7.22
634.336	7.59
634.668	7.28
634.999	7.4
635.33	7.19
635.661	7.57
635.992	7.31
636.323	7.34
636.654	7.56
636.985	7.65
637.316	7.45
637.647	7.9
637.977	7.64
638.308	7.72
638.639	7.57
638.969	7.51
639.3	7.84
639.63	8.09
639.961	7.56
640.291	8.1
640.622	7.85
640.952	7.96
641.282	7.77
641.612	7.34
641.943	8.19
642.273	7.93
642.603	7.95
642.933	7.93
643.263	8.01
643.592	8.22
643.922	7.86
644.252	7.99
644.582	8.12
644.911	7.81
645.241	8.09
645.571	7.49
645.9	8.24
646.23	8.14
646.559	8.24
646.888	8.53
647.218	7.59
647.547	8.02
647.876	8.25
648.205	7.83
648.534	7.96
648.863	8.17
649.192	8.24
649.521	8.07
649.85	8.43
650.179	8.07
650.508	8.04
650.837	8.82
651.165	8.28
651.494	8.55
651.822	8.41
652.151	8.24
652.479	8.21
652.808	8.39
653.136	8.55
653.465	8.72
653.793	8.83
654.121	8.28
654.449	8.4
654.777	8.96
655.105	8.6
655.433	8.4
655.761	8.71
656.089	8.85
656.417	8.79
656.745	8.69
657.073	8.75
657.4	8.32
657.728	8.75
658.056	8.98
658.383	9.02
658.711	8.71
659.038	9.22
659.365	8.88
659.693	8.94
660.02	9.33
660.347	9
660.674	9.18
661.001	8.98
661.329	8.99
661.656	9.14
661.982	9.61
662.309	9
662.636	9.53
662.963	9.24
663.29	9.53
663.616	8.46
663.943	9.54
664.27	9.47
664.596	9.43
664.923	9.3
665.249	9.61
665.576	10.23
665.902	9.7
666.228	9.57
666.554	9.08
666.881	9.11
667.207	9.58
667.533	10.02
667.859	9.58
668.185	10.19
668.511	9.62
668.837	9.88
669.162	9.88
669.488	9.54
669.814	9.57
670.139	9.8
670.465	9.24
670.791	9.73
671.116	10.09
671.442	9.75
671.767	10.46
672.092	9.96
672.418	9.52
672.743	10.25
673.068	10.08
673.393	10.33
673.718	10.06
674.043	9.44
674.368	9.73
674.693	9.55
675.018	10.09
675.343	10.33
675.667	10.26
675.992	10.83
676.317	10.09
676.641	9.7
676.966	10.7
677.29	9.83
677.615	10.03
677.939	10.52
678.264	10.17
678.588	10.01
678.912	9.77
679.236	10.03
679.56	10.51
679.885	10.2
680.209	9.82
680.532	11.2
680.856	10.65
681.18	10.49
681.504	10.25
681.828	10.57
682.152	10.36
682.475	10.34
682.799	10.6
683.122	10.7
683.446	11.02
683.769	10.97
684.093	10.89
684.416	10.49
684.739	10.74
685.062	11.14
685.386	10.87
685.709	10.42
686.032	10.69
686.355	10.8
686.678	10.47
687.001	10.64
687.324	10.71
687.646	10.65
687.969	11.11
688.292	11.49
688.614	10.26
688.937	11.08
689.26	10.29
689.582	11.17
689.904	11.02
690.227	11.12
690.549	11.24
