Data from 20-10_forehead_Reflection__3__164.txt Node

Date: Fri Nov 11 21:19:08 CST 2022
User: ToomeyLab
Spectrometer: FLMS14357
Trigger mode: 0
Integration Time (sec): 1.000000E-2
Scans to average: 100
Electric dark correction enabled: true
Nonlinearity correction enabled: false
Boxcar width: 0
XAxis mode: Wavelengths
Number of Pixels in Spectrum: 2048
>>>>>Begin Spectral Data<<<<<
189.047	58.5
189.435	58.5
189.823	58.5
190.211	29.93
190.599	176.91
190.987	24.41
191.375	47.75
191.763	42.86
192.151	69.7
192.538	-5.03
192.926	6.13
193.314	31.41
193.702	-175.67
194.089	126.81
194.477	96.98
194.864	118.02
195.252	95.56
195.639	161.35
196.027	210.61
196.414	0.67
196.801	95.82
197.189	298.08
197.576	8724.62
197.963	-220.47
198.351	-128.4
198.738	-68
199.125	0.08
199.512	47.24
199.899	-111.92
200.286	1.88
200.673	26.73
201.06	20.11
201.447	37.4
201.833	30.19
202.22	-18.04
202.607	27.21
202.994	47.81
203.38	41.12
203.767	34.89
204.154	22.19
204.54	-0.65
204.927	49.44
205.313	0.33
205.699	-10.09
206.086	24.98
206.472	-10.7
206.858	16.88
207.245	33.71
207.631	12.74
208.017	16.58
208.403	6.41
208.789	13.42
209.175	-9.13
209.561	52.46
209.947	56.15
210.333	7.33
210.719	18.93
211.105	53.24
211.491	21.96
211.876	24.05
212.262	24.28
212.648	16.69
213.034	6.89
213.419	-32.34
213.805	4.44
214.19	9.02
214.576	18.79
214.961	-38.44
215.346	-6.85
215.732	-11.06
216.117	38.23
216.502	31.56
216.888	-4.81
217.273	17.02
217.658	-2.89
218.043	4.71
218.428	4.57
218.813	-1.76
219.198	5.37
219.583	7.97
219.968	15.2
220.353	-4.97
220.738	4.88
221.122	6.4
221.507	-28.54
221.892	-6.02
222.276	28.78
222.661	16.88
223.046	-0.66
223.43	0.13
223.815	12.9
224.199	16.95
224.583	-12.88
224.968	-16.41
225.352	6.95
225.736	0.26
226.121	5.09
226.505	1.49
226.889	-3.15
227.273	6.19
227.657	-4.86
228.041	2.05
228.425	-4.67
228.809	-1.55
229.193	7.38
229.577	3.83
229.961	2.99
230.344	2.76
230.728	1.42
231.112	1.47
231.495	3.29
231.879	1.08
232.263	1.06
232.646	3.12
233.03	3.1
233.413	3.62
233.797	3.16
234.18	3.6
234.563	2.87
234.946	3.16
235.33	2.59
235.713	1.42
236.096	2.02
236.479	3.1
236.862	3.27
237.245	2.67
237.628	3.71
238.011	2.91
238.394	2.89
238.777	3.48
239.16	3.92
239.543	2.2
239.925	2.87
240.308	1.85
240.691	4.48
241.073	3.71
241.456	2.14
241.838	3.56
242.221	2.6
242.603	2.85
242.986	2.63
243.368	2.54
243.75	2.48
244.133	2.59
244.515	2.58
244.897	2.9
245.279	2.06
245.661	1.6
246.043	1.64
246.425	2.96
246.807	2.34
247.189	1.93
247.571	2.31
247.953	2.63
248.335	2.53
248.717	2.56
249.098	2.61
249.48	2.35
249.862	2.87
250.243	2.57
250.625	2.55
251.006	2.75
251.388	2.34
251.769	2.43
252.151	3.24
252.532	2.75
252.913	3.43
253.295	2.59
253.676	2.24
254.057	2.53
254.438	2.7
254.819	2.69
255.2	3.49
255.581	2.66
255.962	2.99
256.343	1.82
256.724	3.02
257.105	2.96
257.486	1.59
257.867	3.85
258.247	1.59
258.628	1.89
259.009	1.78
259.389	2.48
259.77	2.78
260.15	3.11
260.531	2.78
260.911	2.46
261.292	2.79
261.672	2.27
262.052	2.63
262.432	2.79
262.813	3.04
263.193	2.47
263.573	2.9
263.953	3.27
264.333	2.55
264.713	2.55
265.093	2.81
265.473	1.59
265.853	2.32
266.233	2.73
266.612	3.09
266.992	2.37
267.372	3.15
267.752	2.49
268.131	2.36
268.511	2.16
268.89	2.44
269.27	2.28
269.649	2.58
270.029	2.79
270.408	2.25
270.787	2.59
271.167	1.84
271.546	2.45
271.925	2.88
272.304	2.56
272.683	2.34
273.062	2.31
273.441	2.64
273.82	2.57
274.199	2.11
274.578	2.18
274.957	2.7
275.336	3.2
275.715	2.77
276.093	2.19
276.472	2.17
276.851	2.14
277.229	2.47
277.608	2.53
277.986	2.74
278.365	2.4
278.743	2.53
279.122	2.93
279.5	2.21
279.878	2.72
280.257	2.11
280.635	2.61
281.013	2.84
281.391	2.11
281.769	2.25
282.147	2.62
282.525	1.95
282.903	1.93
283.281	2.53
283.659	2.35
284.037	2.79
284.415	2.11
284.792	2.37
285.17	2.71
285.548	2.36
285.925	2.12
286.303	2.15
286.68	2.59
287.058	2.23
287.435	2.24
287.813	2.21
288.19	2.23
288.567	2.32
288.945	2.63
289.322	3.24
289.699	2.24
290.076	2.95
290.453	2.27
290.83	2.21
291.207	2.66
291.584	2.7
291.961	2.44
292.338	2.22
292.715	2.58
293.092	2.22
293.469	2.65
293.845	2.71
294.222	2.57
294.599	2.5
294.975	2.84
295.352	2.8
295.728	2.95
296.105	2.78
296.481	2.09
296.858	2.6
297.234	2.57
297.61	2.4
297.986	2.56
298.363	2.67
298.739	3.04
299.115	2.78
299.491	3.08
299.867	2.85
300.243	2.67
300.619	2.91
300.995	2.89
301.371	3.46
301.746	3.11
302.122	2.94
302.498	2.87
302.874	3.29
303.249	2.96
303.625	3.01
304	2.82
304.376	3.28
304.751	3.01
305.127	3.16
305.502	3.51
305.878	3.61
306.253	3.12
306.628	3.3
307.003	3.29
307.378	3.29
307.754	3.68
308.129	3.69
308.504	4.04
308.879	3.7
309.254	3.88
309.629	3.57
310.003	3.62
310.378	3.84
310.753	4.3
311.128	4.35
311.502	4.19
311.877	3.93
312.252	3.98
312.626	4.07
313.001	3.92
313.375	4.17
313.75	4.35
314.124	3.89
314.498	4.23
314.873	4.27
315.247	4.79
315.621	4.53
315.995	4.89
316.369	5.06
316.743	4.16
317.117	4.3
317.491	5.31
317.865	4.32
318.239	5.09
318.613	5.32
318.987	4.95
319.361	4.61
319.734	5.2
320.108	4.8
320.482	5.42
320.855	5.01
321.229	4.91
321.602	4.93
321.976	5.61
322.349	5.62
322.723	5.46
323.096	5.54
323.469	5.32
323.843	5.64
324.216	5.12
324.589	5.56
324.962	6.21
325.335	5.38
325.708	5.64
326.081	5.86
326.454	5.6
326.827	5.88
327.2	6.54
327.573	6.3
327.945	5.98
328.318	5.71
328.691	5.99
329.063	6.42
329.436	5.83
329.809	6.19
330.181	5.71
330.553	5.79
330.926	6.02
331.298	6.5
331.671	6.11
332.043	6.24
332.415	6.42
332.787	6.59
333.159	6.78
333.532	6.43
333.904	6.76
334.276	6.82
334.648	6.34
335.02	6.07
335.391	7.11
335.763	6.27
336.135	6.64
336.507	6.41
336.879	6.67
337.25	7.08
337.622	6.95
337.993	6.92
338.365	6.97
338.736	6.88
339.108	6.82
339.479	6.57
339.851	7
340.222	6.99
340.593	7.36
340.964	7.12
341.336	7.33
341.707	7.05
342.078	6.51
342.449	7.31
342.82	7.46
343.191	7.25
343.562	7.25
343.933	7.61
344.303	7.22
344.674	7.42
345.045	7.4
345.416	8.09
345.786	7.37
346.157	7.33
346.527	7.94
346.898	7.33
347.268	7.48
347.639	7.7
348.009	7.5
348.38	7.87
348.75	7.46
349.12	8.23
349.49	8.2
349.861	7.64
350.231	7.51
350.601	7.93
350.971	8.04
351.341	8.07
351.711	8.1
352.081	8.1
352.45	8.1
352.82	7.62
353.19	8.75
353.56	7.84
353.929	8.16
354.299	7.9
354.669	7.94
355.038	8.25
355.408	8.33
355.777	8.44
356.147	8.65
356.516	8.13
356.885	8.23
357.254	7.95
357.624	7.87
357.993	8.25
358.362	8.48
358.731	8.31
359.1	8.37
359.469	7.92
359.838	8.28
360.207	8.6
360.576	8.61
360.945	8.76
361.314	8.65
361.682	8.4
362.051	8.57
362.42	8.9
362.788	8.54
363.157	8.62
363.525	8.63
363.894	8.73
364.262	9.04
364.631	9.04
364.999	9.12
365.367	8.81
365.735	9.2
366.104	9.01
366.472	9.05
366.84	8.77
367.208	9.12
367.576	9.52
367.944	9.72
368.312	9.13
368.68	9.01
369.048	9.11
369.416	9.48
369.783	9.55
370.151	9.6
370.519	9.8
370.886	9.3
371.254	10
371.621	9.29
371.989	9.54
372.356	10.01
372.724	9.85
373.091	9.87
373.458	9.56
373.826	9.67
374.193	9.37
374.56	9.66
374.927	9.8
375.294	9.54
375.661	10.22
376.028	9.56
376.395	10.14
376.762	10.18
377.129	10.04
377.496	10.28
377.863	10.08
378.229	10.01
378.596	10.01
378.963	10.24
379.329	10.33
379.696	10.17
380.062	10.19
380.429	10.62
380.795	10.47
381.161	10.54
381.528	10.27
381.894	10.75
382.26	10.79
382.626	10.74
382.993	10.4
383.359	10.81
383.725	10.41
384.091	11.11
384.457	10.49
384.823	10.57
385.188	10.62
385.554	10.7
385.92	10.7
386.286	11.07
386.651	11.12
387.017	10.92
387.383	10.86
387.748	10.77
388.114	10.86
388.479	11.04
388.845	11.05
389.21	10.94
389.575	11.28
389.94	11.28
390.306	10.86
390.671	11.36
391.036	11.29
391.401	11.26
391.766	11.33
392.131	11.09
392.496	11.31
392.861	11.31
393.226	11.26
393.591	11.39
393.956	11.46
394.32	11.58
394.685	11.78
395.05	11.77
395.414	11.55
395.779	11.72
396.143	11.84
396.508	11.85
396.872	11.93
397.236	11.73
397.601	11.8
397.965	12.05
398.329	12.11
398.694	12.1
399.058	12.04
399.422	12.09
399.786	11.92
400.15	12.14
400.514	11.97
400.878	12.31
401.242	12.23
401.605	12.33
401.969	12.2
402.333	11.93
402.697	12.36
403.06	12.38
403.424	12.15
403.787	12.58
404.151	12.37
404.514	12.37
404.878	12.5
405.241	12.54
405.604	12.41
405.968	12.4
406.331	12.45
406.694	12.46
407.057	12.52
407.42	12.69
407.783	12.51
408.146	12.66
408.509	12.74
408.872	12.65
409.235	13.01
409.598	12.93
409.961	13.02
410.323	12.62
410.686	12.6
411.049	12.82
411.411	13.15
411.774	13.04
412.136	12.86
412.499	12.87
412.861	12.95
413.223	12.98
413.586	13.24
413.948	13.04
414.31	13.34
414.672	13.28
415.035	13.16
415.397	13.16
415.759	13.17
416.121	13.33
416.483	13.41
416.845	13.26
417.206	13.26
417.568	13.4
417.93	13.29
418.292	12.98
418.653	13.44
419.015	13.57
419.377	13.5
419.738	13.5
420.1	13.3
420.461	13.39
420.822	13.43
421.184	13.45
421.545	13.5
421.906	13.37
422.267	13.51
422.629	13.48
422.99	13.43
423.351	13.48
423.712	13.58
424.073	13.72
424.434	13.9
424.795	13.95
425.155	13.81
425.516	13.73
425.877	13.77
426.238	13.85
426.598	13.7
426.959	13.88
427.32	14.03
427.68	14.03
428.041	14.27
428.401	14.17
428.761	14.31
429.122	14.27
429.482	14.53
429.842	14.43
430.202	14.62
430.563	14.69
430.923	14.58
431.283	14.36
431.643	14.65
432.003	14.78
432.363	14.51
432.722	14.85
433.082	14.83
433.442	15.01
433.802	15
434.161	14.94
434.521	14.93
434.881	14.94
435.24	14.83
435.6	15.01
435.959	14.98
436.319	14.93
436.678	15.03
437.037	15.09
437.396	15.45
437.756	15.12
438.115	15.18
438.474	15.23
438.833	15.49
439.192	15.45
439.551	15.33
439.91	15.47
440.269	15.57
440.628	15.5
440.987	15.56
441.345	15.5
441.704	15.54
442.063	15.6
442.421	15.5
442.78	15.36
443.138	15.59
443.497	15.71
443.855	15.88
444.214	15.82
444.572	16
444.93	15.89
445.288	15.87
445.647	16.01
446.005	15.96
446.363	15.94
446.721	15.89
447.079	16.02
447.437	15.88
447.795	15.91
448.153	15.8
448.51	15.91
448.868	15.98
449.226	16.07
449.584	16.21
449.941	16.2
450.299	16.34
450.656	16.39
451.014	16.55
451.371	16.52
451.729	16.56
452.086	16.68
452.443	16.7
452.801	16.69
453.158	16.78
453.515	16.78
453.872	16.67
454.229	16.8
454.586	16.73
454.943	16.78
455.3	16.98
455.657	16.89
456.014	17.09
456.371	16.97
456.727	17.25
457.084	16.88
457.441	17.21
457.797	17.2
458.154	17.16
458.51	17.14
458.867	17.26
459.223	17.45
459.58	17.39
459.936	17.18
460.292	17.19
460.648	17.24
461.005	17.19
461.361	17.06
461.717	17.07
462.073	17.21
462.429	17.25
462.785	17.3
463.141	17.45
463.496	17.55
463.852	17.78
464.208	17.68
464.564	17.8
464.919	17.8
465.275	17.84
465.631	17.88
465.986	17.96
466.342	17.95
466.697	18.04
467.052	17.92
467.408	18.07
467.763	18
468.118	18.05
468.473	18.21
468.829	18.19
469.184	18.36
469.539	18.3
469.894	18.2
470.249	18.43
470.603	18.24
470.958	18.33
471.313	18.48
471.668	18.5
472.023	18.36
472.377	18.54
472.732	18.47
473.086	18.45
473.441	18.63
473.795	18.68
474.15	18.78
474.504	18.72
474.859	18.67
475.213	19.04
475.567	18.7
475.921	18.79
476.275	18.92
476.63	19.04
476.984	18.87
477.338	19
477.692	18.95
478.045	18.93
478.399	19.18
478.753	18.94
479.107	19.12
479.461	19.21
479.814	18.97
480.168	19.13
480.521	19.21
480.875	19.23
481.228	19.4
481.582	19.28
481.935	19.26
482.289	19.21
482.642	19.34
482.995	19.43
483.348	19.31
483.701	19.39
484.055	19.3
484.408	19.08
484.761	18.9
485.114	18.72
485.466	18.58
485.819	18.68
486.172	18.65
486.525	18.79
486.878	18.9
487.23	19.01
487.583	19.21
487.936	19.43
488.288	19.3
488.641	19.22
488.993	19.14
489.345	19.11
489.698	19.14
490.05	19.16
490.402	19.32
490.754	19.46
491.107	19.56
491.459	19.68
491.811	19.8
492.163	19.94
492.515	19.84
492.866	19.76
493.218	19.55
493.57	19.53
493.922	19.7
494.274	19.81
494.625	20.03
494.977	20.19
495.328	20.38
495.68	20.54
496.031	20.58
496.383	20.61
496.734	20.86
497.086	20.96
497.437	20.9
497.788	20.77
498.139	20.72
498.49	20.74
498.842	20.69
499.193	20.77
499.544	20.83
499.894	20.84
500.245	21.09
500.596	21.11
500.947	21.21
501.298	21.21
501.648	21.2
501.999	21.39
502.35	21.47
502.7	21.27
503.051	21.46
503.401	21.59
503.752	21.5
504.102	21.52
504.452	21.75
504.803	21.66
505.153	21.83
505.503	21.8
505.853	21.7
506.203	21.99
506.553	21.7
506.903	21.87
507.253	21.92
507.603	22.06
507.953	22.02
508.303	21.78
508.652	22.05
509.002	21.91
509.352	22.12
509.701	22.1
510.051	21.98
510.4	22.1
510.75	21.98
511.099	21.98
511.449	22.07
511.798	22.27
512.147	22.19
512.496	22.36
512.846	22.41
513.195	22.45
513.544	22.44
513.893	22.32
514.242	22.24
514.591	22.59
514.939	22.55
515.288	22.63
515.637	22.84
515.986	22.77
516.334	22.8
516.683	22.83
517.032	22.98
517.38	23.06
517.729	23.09
518.077	23.03
518.426	23.03
518.774	23.02
519.122	23.06
519.47	22.95
519.819	22.84
520.167	22.88
520.515	22.85
520.863	22.85
521.211	22.96
521.559	23.02
521.907	23.24
522.255	23.05
522.602	23.42
522.95	23.28
523.298	23.6
523.645	23.51
523.993	23.6
524.341	23.67
524.688	23.73
525.036	23.79
525.383	23.78
525.73	23.8
526.078	23.83
526.425	23.58
526.772	23.54
527.119	23.49
527.466	23.61
527.814	23.59
528.161	23.57
528.508	23.54
528.854	23.65
529.201	23.6
529.548	23.55
529.895	23.31
530.242	23.2
530.588	23.35
530.935	23.33
531.282	23.35
531.628	23.46
531.975	23.62
532.321	23.76
532.667	24.04
533.014	24.09
533.36	24.19
533.706	24.3
534.052	24.27
534.399	24.17
534.745	23.98
535.091	24
535.437	24.15
535.783	24.15
536.129	24.25
536.474	24.51
536.82	24.59
537.166	24.67
537.512	24.74
537.857	24.7
538.203	24.74
538.549	24.71
538.894	24.83
539.239	24.8
539.585	24.93
539.93	25.22
540.276	25.46
540.621	25.4
540.966	25.34
541.311	25.41
541.656	25.45
542.001	25.36
542.346	25.19
542.691	24.96
543.036	24.82
543.381	24.79
543.726	24.85
544.071	24.97
544.415	25.03
544.76	25.13
545.105	25.37
545.449	25.38
545.794	25.63
546.138	25.62
546.483	25.79
546.827	25.91
547.171	25.95
547.516	25.99
547.86	25.92
548.204	25.91
548.548	25.97
548.892	26.03
549.236	26.07
549.58	26.36
549.924	26.42
550.268	26.6
550.612	26.75
550.956	26.91
551.3	26.74
551.643	26.91
551.987	26.83
552.33	26.85
552.674	27.02
553.017	27.34
553.361	27.17
553.704	27.2
554.048	27.1
554.391	27.11
554.734	27.07
555.077	27.06
555.42	27.2
555.764	27.31
556.107	27.38
556.45	27.53
556.793	27.53
557.135	27.47
557.478	27.63
557.821	27.84
558.164	27.85
558.507	27.81
558.849	27.68
559.192	27.87
559.534	27.94
559.877	28.01
560.219	27.99
560.562	27.92
560.904	27.88
561.246	27.89
561.589	28.12
561.931	28.13
562.273	28.12
562.615	28.27
562.957	28.09
563.299	28.25
563.641	28.33
563.983	28.18
564.325	28.27
564.667	28.53
565.008	28.75
565.35	28.55
565.692	28.35
566.033	28.45
566.375	28.74
566.716	28.69
567.058	28.88
567.399	28.75
567.741	28.7
568.082	28.58
568.423	28.69
568.764	28.82
569.105	28.77
569.447	29.16
569.788	28.9
570.129	28.73
570.47	29.07
570.811	29.09
571.151	29.3
571.492	29.29
571.833	29.19
572.174	29.15
572.514	29.36
572.855	29.45
573.195	29.27
573.536	29.46
573.876	29.29
574.217	29.42
574.557	29.33
574.898	29.32
575.238	29.47
575.578	29.7
575.918	29.79
576.258	29.76
576.598	29.81
576.938	29.78
577.278	29.62
577.618	29.88
577.958	29.97
578.298	30.03
578.638	30.1
578.977	30.02
579.317	30.34
579.657	30.15
579.996	30.43
580.336	30.42
580.675	30.46
581.014	30.56
581.354	30.41
581.693	30.58
582.032	30.64
582.372	30.69
582.711	30.73
583.05	30.67
583.389	30.94
583.728	30.9
584.067	31.02
584.406	30.89
584.745	31.3
585.083	31.01
585.422	31.08
585.761	31.05
586.1	31.12
586.438	31.1
586.777	31.02
587.115	31.18
587.454	31.3
587.792	31.5
588.13	31.36
588.469	31.4
588.807	31.7
589.145	31.59
589.483	31.77
589.821	31.62
590.159	31.86
590.497	31.74
590.835	31.64
591.173	31.82
591.511	31.76
591.849	31.87
592.187	31.75
592.524	31.6
592.862	31.97
593.2	32.21
593.537	32.11
593.875	32.38
594.212	32.19
594.55	32.23
594.887	32.4
595.224	32.01
595.561	32.13
595.899	32.19
596.236	32.42
596.573	32.36
596.91	32.62
597.247	32.36
597.584	32.41
597.921	32.79
598.258	32.39
598.594	32.36
598.931	32.34
599.268	32.55
599.604	32.44
599.941	32.47
600.277	32.83
600.614	32.79
600.95	32.83
601.287	33.09
601.623	33.5
601.959	33.33
602.296	33.25
602.632	33.28
602.968	33.24
603.304	33.27
603.64	33.59
603.976	33.18
604.312	33.28
604.648	32.96
604.984	33.34
605.319	33.32
605.655	33.35
605.991	33.1
606.326	33.33
606.662	33.14
606.998	33.31
607.333	33.39
607.668	33.42
608.004	33.35
608.339	33.62
608.674	33.77
609.01	33.66
609.345	33.98
609.68	33.73
610.015	33.92
610.35	34.17
610.685	34.03
611.02	33.93
611.355	33.52
611.689	33.78
612.024	34.01
612.359	33.99
612.694	33.91
613.028	34.38
613.363	34.22
613.697	34.82
614.032	34.34
614.366	34.15
614.7	34.5
615.035	34.43
615.369	34.39
615.703	34.67
616.037	34.94
616.371	34.78
616.705	34.48
617.039	34.66
617.373	34.87
617.707	34.61
618.041	34.67
618.375	34.99
618.709	34.9
619.042	35.27
619.376	34.67
619.71	35.09
620.043	35.06
620.377	35.09
620.71	34.78
621.043	35.16
621.377	35.3
621.71	35.14
622.043	35.52
622.376	35.82
622.709	35.51
623.043	35.29
623.376	35.54
623.709	35.51
624.041	35.83
624.374	35.41
624.707	36.04
625.04	35.53
625.373	35.54
625.705	35.47
626.038	35.68
626.37	36.2
626.703	36.04
627.035	36.05
627.368	35.51
627.7	35.96
628.032	35.82
628.365	35.99
628.697	35.98
629.029	35.78
629.361	35.84
629.693	36.28
630.025	36.28
630.357	35.89
630.689	36.2
631.021	36.01
631.353	36.56
631.684	36.57
632.016	36.39
632.348	36.36
632.679	36.41
633.011	37.09
633.342	37.14
633.674	36.37
634.005	36.15
634.336	36.55
634.668	36.82
634.999	36.64
635.33	36.79
635.661	37.06
635.992	37.05
636.323	36.53
636.654	37.2
636.985	36.87
637.316	36.86
637.647	37.65
637.977	37.31
638.308	37.2
638.639	36.82
638.969	37.2
639.3	37.73
639.63	37.42
639.961	37.29
640.291	37.87
640.622	37.62
640.952	36.96
641.282	37.39
641.612	37.41
641.943	37.6
642.273	37.34
642.603	37.47
642.933	37.9
643.263	37.73
643.592	38.3
643.922	37.85
644.252	37.92
644.582	37.76
644.911	37.82
645.241	37.66
645.571	38.09
645.9	37.98
646.23	38.42
646.559	38.47
646.888	38.46
647.218	38.4
647.547	38.22
647.876	38.33
648.205	38.54
648.534	38.28
648.863	38.56
649.192	38.28
649.521	38.59
649.85	38.86
650.179	38.42
650.508	38.59
650.837	38.73
651.165	38.54
651.494	38.57
651.822	38.53
652.151	38.39
652.479	39.07
652.808	38.64
653.136	39.17
653.465	39.46
653.793	38.55
654.121	38.88
654.449	39.04
654.777	39.7
655.105	39.08
655.433	39.35
655.761	39.23
656.089	39.04
656.417	39.34
656.745	39.77
657.073	38.58
657.4	39.05
657.728	39.69
658.056	39.75
658.383	39.04
658.711	39.92
659.038	39.78
659.365	39.26
659.693	40.16
660.02	40.07
660.347	39.72
660.674	39.35
661.001	39.71
661.329	39.66
661.656	39.55
661.982	40.1
662.309	39.95
662.636	40
662.963	40.04
663.29	40.01
663.616	39.98
663.943	40.05
664.27	40.28
664.596	40.44
664.923	39.77
665.249	39.9
665.576	40.98
665.902	40.3
666.228	40.62
666.554	40.52
666.881	40.48
667.207	39.85
667.533	40.99
667.859	41.15
668.185	40.29
668.511	40.27
668.837	41.02
669.162	40.8
669.488	40.96
669.814	40.35
670.139	41.04
670.465	40.53
670.791	41.03
671.116	41.19
671.442	41.06
671.767	41.66
672.092	41.36
672.418	41.07
672.743	41.27
673.068	41.71
