Data from 20-10_forehead_Reflection__0__161.txt Node

Date: Fri Nov 11 21:18:34 CST 2022
User: ToomeyLab
Spectrometer: FLMS14357
Trigger mode: 0
Integration Time (sec): 1.000000E-2
Scans to average: 100
Electric dark correction enabled: true
Nonlinearity correction enabled: false
Boxcar width: 0
XAxis mode: Wavelengths
Number of Pixels in Spectrum: 2048
>>>>>Begin Spectral Data<<<<<
189.047	-25.99
189.435	-25.99
189.823	-25.99
190.211	53.41
190.599	308.26
190.987	47.86
191.375	120.19
191.763	5.48
192.151	6090.91
192.538	63.99
192.926	7.55
193.314	96.63
193.702	103.76
194.089	89.73
194.477	165.92
194.864	146.43
195.252	117.76
195.639	612.97
196.027	-37.37
196.414	64.62
196.801	75.88
197.189	151.55
197.576	11141.54
197.963	-28.76
198.351	-74.21
198.738	-21.02
199.125	61.07
199.512	54.64
199.899	-252.26
200.286	-3.47
200.673	-8.22
201.06	21.76
201.447	23.56
201.833	9.45
202.22	69.51
202.607	43.31
202.994	48.82
203.38	15.23
203.767	70.49
204.154	18.76
204.54	1.68
204.927	13.94
205.313	54.66
205.699	-48.88
206.086	50.63
206.472	8.57
206.858	37.81
207.245	51.25
207.631	21.73
208.017	25.54
208.403	5.7
208.789	21.11
209.175	-0.44
209.561	62.12
209.947	8.13
210.333	4.89
210.719	16.19
211.105	26.36
211.491	-11.09
211.876	32.86
212.262	40.1
212.648	9.87
213.034	11.97
213.419	-54.66
213.805	-3.63
214.19	-8.89
214.576	18.53
214.961	-83.73
215.346	-29.51
215.732	-23.85
216.117	22.09
216.502	-18.68
216.888	5.16
217.273	15.49
217.658	-30.81
218.043	21.09
218.428	3.7
218.813	-10.03
219.198	10.76
219.583	3.04
219.968	-8.94
220.353	-9.92
220.738	3.71
221.122	15.84
221.507	-7.76
221.892	-12.94
222.276	33.19
222.661	26
223.046	-19.46
223.43	-7.48
223.815	4.86
224.199	5.25
224.583	-0.07
224.968	-16.54
225.352	2.13
225.736	6.99
226.121	-1.78
226.505	4.23
226.889	-14.97
227.273	2.55
227.657	2.11
228.041	-2.68
228.425	0.75
228.809	2.5
229.193	6.65
229.577	3.6
229.961	3.63
230.344	2.96
230.728	2.8
231.112	1.9
231.495	3.22
231.879	1.91
232.263	2.48
232.646	0.15
233.03	3.91
233.413	3.66
233.797	4.47
234.18	1.84
234.563	3.97
234.946	3.92
235.33	4.72
235.713	2.22
236.096	2.28
236.479	3.28
236.862	2.42
237.245	2.34
237.628	4.91
238.011	2.25
238.394	4.19
238.777	1.6
239.16	5.18
239.543	2.06
239.925	3.55
240.308	2.17
240.691	3.61
241.073	2.05
241.456	2.59
241.838	4.32
242.221	2.42
242.603	2.72
242.986	2.93
243.368	3.22
243.75	3.06
244.133	3.04
244.515	2.85
244.897	3.73
245.279	2.85
245.661	3.29
246.043	2.72
246.425	4.05
246.807	3.01
247.189	3.29
247.571	2.88
247.953	3.16
248.335	2.91
248.717	3.26
249.098	3.44
249.48	3
249.862	4.16
250.243	3.39
250.625	3.86
251.006	4.46
251.388	3.54
251.769	3.46
252.151	4.51
252.532	3.55
252.913	3.75
253.295	3.35
253.676	2.23
254.057	2.75
254.438	3.34
254.819	3.37
255.2	4.53
255.581	2.99
255.962	1.96
256.343	2.55
256.724	2.25
257.105	3.62
257.486	3.07
257.867	4.24
258.247	2.66
258.628	3.06
259.009	2.78
259.389	3.05
259.77	3.76
260.15	2.85
260.531	3.38
260.911	3.23
261.292	3.38
261.672	3.05
262.052	3.17
262.432	3.36
262.813	3.37
263.193	3.12
263.573	3.03
263.953	4
264.333	2.52
264.713	3.21
265.093	3.46
265.473	2.37
265.853	2.28
266.233	3.28
266.612	3.25
266.992	3.45
267.372	3.27
267.752	2.8
268.131	3.08
268.511	3.36
268.89	2.47
269.27	2.65
269.649	3.11
270.029	3.16
270.408	3.09
270.787	3.15
271.167	3.07
271.546	2.92
271.925	2.86
272.304	3.26
272.683	2.78
273.062	2.9
273.441	3.19
273.82	2.99
274.199	2.61
274.578	2.72
274.957	3.11
275.336	2.96
275.715	3.25
276.093	2.59
276.472	3.1
276.851	3.1
277.229	2.5
277.608	3.43
277.986	3.51
278.365	3.1
278.743	2.8
279.122	3.47
279.5	2.73
279.878	3.02
280.257	3.16
280.635	2.84
281.013	3.01
281.391	3.02
281.769	2.88
282.147	3.05
282.525	2.44
282.903	2.76
283.281	3.38
283.659	3.52
284.037	3.23
284.415	2.84
284.792	2.74
285.17	3.56
285.548	2.67
285.925	2.61
286.303	2.87
286.68	3
287.058	3.04
287.435	2.81
287.813	3.09
288.19	2.62
288.567	2.88
288.945	3.24
289.322	3.34
289.699	2.95
290.076	3.62
290.453	3.3
290.83	2.97
291.207	2.83
291.584	3.18
291.961	3.23
292.338	3.1
292.715	2.94
293.092	3.45
293.469	2.61
293.845	2.86
294.222	3.17
294.599	3.47
294.975	2.62
295.352	3.27
295.728	2.96
296.105	3.08
296.481	2.89
296.858	2.66
297.234	3.27
297.61	2.99
297.986	3.5
298.363	3.54
298.739	3.46
299.115	3.43
299.491	3.71
299.867	3.49
300.243	3.7
300.619	3.75
300.995	3.66
301.371	4.56
301.746	3.98
302.122	3.74
302.498	4.06
302.874	3.62
303.249	3.85
303.625	3.79
304	3.62
304.376	4.18
304.751	3.77
305.127	4.17
305.502	4.14
305.878	4.41
306.253	4.4
306.628	3.44
307.003	4.06
307.378	4.11
307.754	4.59
308.129	4.29
308.504	4.45
308.879	5.11
309.254	4.59
309.629	4.39
310.003	4.54
310.378	4.77
310.753	5.41
311.128	5.3
311.502	5.06
311.877	4.65
312.252	4.82
312.626	5.11
313.001	4.76
313.375	5.14
313.75	4.98
314.124	5.12
314.498	5.05
314.873	5.15
315.247	5.4
315.621	5.56
315.995	5.88
316.369	6.12
316.743	5.46
317.117	5.67
317.491	5.69
317.865	5.87
318.239	6.11
318.613	6.21
318.987	5.62
319.361	5.81
319.734	6.43
320.108	5.93
320.482	6.19
320.855	6.09
321.229	6.27
321.602	6.32
321.976	6.5
322.349	6.78
322.723	6.65
323.096	6.78
323.469	6.43
323.843	6.7
324.216	6.49
324.589	7.24
324.962	7.52
325.335	6.48
325.708	6.52
326.081	7.05
326.454	6.72
326.827	6.69
327.2	7.66
327.573	7.26
327.945	7.2
328.318	6.98
328.691	6.65
329.063	7.42
329.436	7.03
329.809	7.08
330.181	6.89
330.553	6.84
330.926	7.32
331.298	7.68
331.671	7.22
332.043	7.33
332.415	7.85
332.787	7.56
333.159	7.43
333.532	7.61
333.904	8.46
334.276	7.81
334.648	7.51
335.02	7.75
335.391	8.2
335.763	7.52
336.135	7.54
336.507	7.47
336.879	7.88
337.25	7.74
337.622	8.05
337.993	7.97
338.365	8.82
338.736	7.74
339.108	8.14
339.479	7.68
339.851	8.29
340.222	8.08
340.593	8.6
340.964	8.69
341.336	8.41
341.707	8.06
342.078	7.84
342.449	8.61
342.82	8.5
343.191	8.57
343.562	8.43
343.933	8.54
344.303	8.2
344.674	8.73
345.045	8.23
345.416	9.05
345.786	8.68
346.157	8.42
346.527	9.01
346.898	8.27
347.268	8.71
347.639	8.53
348.009	8.69
348.38	9.23
348.75	9.11
349.12	9.17
349.49	8.87
349.861	9.02
350.231	9.19
350.601	9.42
350.971	9.1
351.341	9.27
351.711	9.32
352.081	9.52
352.45	9.5
352.82	8.87
353.19	9.5
353.56	8.99
353.929	9.46
354.299	9.22
354.669	9.31
355.038	9.29
355.408	9.4
355.777	9.59
356.147	9.58
356.516	9.47
356.885	9.52
357.254	9.5
357.624	9.18
357.993	9.48
358.362	9.84
358.731	9.23
359.1	9.69
359.469	9.57
359.838	9.7
360.207	10.05
360.576	10.12
360.945	10.41
361.314	9.74
361.682	10.03
362.051	10.1
362.42	10.24
362.788	10.24
363.157	10.19
363.525	10.03
363.894	10.11
364.262	10.14
364.631	10.59
364.999	10.38
365.367	10.53
365.735	10.48
366.104	10.24
366.472	10.18
366.84	10.1
367.208	10.63
367.576	10.7
367.944	10.86
368.312	10.31
368.68	10.51
369.048	10.86
369.416	10.74
369.783	10.77
370.151	10.91
370.519	11.11
370.886	10.85
371.254	11.34
371.621	10.84
371.989	10.97
372.356	11.14
372.724	11.4
373.091	11.47
373.458	10.85
373.826	11.06
374.193	10.86
374.56	11.27
374.927	11.14
375.294	11.67
375.661	11.51
376.028	11.15
376.395	11.47
376.762	11.61
377.129	11.47
377.496	11.24
377.863	11.62
378.229	11.51
378.596	11.75
378.963	11.85
379.329	11.8
379.696	11.65
380.062	11.94
380.429	11.64
380.795	12.29
381.161	11.91
381.528	11.93
381.894	12.18
382.26	12.32
382.626	12.15
382.993	12
383.359	12.04
383.725	12.15
384.091	12.08
384.457	11.94
384.823	12.22
385.188	12.28
385.554	12.05
385.92	12.32
386.286	12.25
386.651	12.43
387.017	12.55
387.383	12.45
387.748	12.35
388.114	12.38
388.479	12.82
388.845	12.61
389.21	12.64
389.575	12.65
389.94	12.71
390.306	12.63
390.671	12.65
391.036	12.85
391.401	12.9
391.766	12.91
392.131	12.95
392.496	12.98
392.861	13.03
393.226	12.85
393.591	12.71
393.956	13.1
394.32	13.14
394.685	13.28
395.05	13.38
395.414	13.02
395.779	13.38
396.143	13.1
396.508	13.5
396.872	13.34
397.236	13.32
397.601	13.51
397.965	13.44
398.329	13.52
398.694	13.71
399.058	13.7
399.422	13.75
399.786	13.58
400.15	13.62
400.514	13.82
400.878	13.67
401.242	13.71
401.605	13.76
401.969	13.86
402.333	13.69
402.697	13.84
403.06	14.26
403.424	13.46
403.787	13.88
404.151	14.16
404.514	14.02
404.878	14
405.241	13.88
405.604	13.93
405.968	14
406.331	13.88
406.694	14
407.057	14.26
407.42	14.41
407.783	14.01
408.146	14.32
408.509	14.36
408.872	14.34
409.235	14.25
409.598	14.43
409.961	14.54
410.323	14.27
410.686	14.3
411.049	14.31
411.411	14.41
411.774	14.31
412.136	14.58
412.499	14.84
412.861	14.56
413.223	14.55
413.586	14.52
413.948	14.88
414.31	14.61
414.672	14.91
415.035	14.95
415.397	14.81
415.759	14.96
416.121	14.92
416.483	14.86
416.845	15.04
417.206	14.87
417.568	14.86
417.93	14.95
418.292	14.89
418.653	15.09
419.015	15.13
419.377	15.12
419.738	15.07
420.1	15.02
420.461	15.15
420.822	15.23
421.184	15.17
421.545	15.05
421.906	15.11
422.267	15.06
422.629	15.1
422.99	15.18
423.351	15.11
423.712	15.15
424.073	15.33
424.434	15.47
424.795	15.48
425.155	15.4
425.516	15.42
425.877	15.37
426.238	15.4
426.598	15.48
426.959	15.62
427.32	15.76
427.68	15.72
428.041	15.95
428.401	15.76
428.761	16.07
429.122	16
429.482	16.11
429.842	16.32
430.202	16.2
430.563	16.29
430.923	16.25
431.283	16.28
431.643	16.07
432.003	16.52
432.363	16.45
432.722	16.59
433.082	16.6
433.442	16.76
433.802	16.46
434.161	16.52
434.521	16.56
434.881	16.54
435.24	16.54
435.6	16.51
435.959	16.65
436.319	16.54
436.678	16.75
437.037	16.77
437.396	16.92
437.756	16.91
438.115	17
438.474	16.89
438.833	17.03
439.192	17.08
439.551	17.01
439.91	17.23
440.269	17
440.628	17.24
440.987	17.06
441.345	17.08
441.704	17.23
442.063	17.14
442.421	17.16
442.78	17.08
443.138	17.43
443.497	17.3
443.855	17.57
444.214	17.38
444.572	17.65
444.93	17.57
445.288	17.55
445.647	17.78
446.005	17.67
446.363	17.81
446.721	17.67
447.079	17.78
447.437	17.52
447.795	17.6
448.153	17.54
448.51	17.55
448.868	17.63
449.226	17.74
449.584	17.75
449.941	17.67
450.299	17.92
450.656	18.08
451.014	18.19
451.371	18.15
451.729	18.02
452.086	18.29
452.443	18.39
452.801	18.46
453.158	18.38
453.515	18.45
453.872	18.4
454.229	18.47
454.586	18.45
454.943	18.44
455.3	18.71
455.657	18.69
456.014	18.79
456.371	18.79
456.727	18.73
457.084	18.47
457.441	18.94
457.797	18.81
458.154	18.8
458.51	18.89
458.867	18.85
459.223	19.2
459.58	19.09
459.936	18.95
460.292	19.04
460.648	18.94
461.005	18.75
461.361	18.69
461.717	18.66
462.073	18.79
462.429	18.86
462.785	18.95
463.141	19
463.496	19.32
463.852	19.39
464.208	19.54
464.564	19.42
464.919	19.37
465.275	19.35
465.631	19.5
465.986	19.79
466.342	19.6
466.697	19.69
467.052	19.72
467.408	19.56
467.763	19.81
468.118	19.83
468.473	19.87
468.829	19.75
469.184	19.79
469.539	19.91
469.894	19.95
470.249	20.23
470.603	20
470.958	20.02
471.313	19.99
471.668	20.25
472.023	19.98
472.377	20.31
472.732	20.38
473.086	20.29
473.441	20.28
473.795	20.5
474.15	20.33
474.504	20.18
474.859	20.41
475.213	20.63
475.567	20.41
475.921	20.45
476.275	20.65
476.63	20.59
476.984	20.69
477.338	20.56
477.692	20.48
478.045	20.61
478.399	20.8
478.753	20.51
479.107	20.7
479.461	20.71
479.814	20.82
480.168	20.76
480.521	20.86
480.875	20.98
481.228	20.89
481.582	21.06
481.935	20.95
482.289	20.92
482.642	21.03
482.995	20.93
483.348	20.96
483.701	21.07
484.055	20.98
484.408	20.72
484.761	20.44
485.114	20.38
485.466	20.32
485.819	20.39
486.172	20.31
486.525	20.48
486.878	20.55
487.23	20.63
487.583	20.81
487.936	21.01
488.288	21
488.641	20.8
488.993	20.82
489.345	20.76
489.698	20.8
490.05	20.82
490.402	20.83
490.754	21.14
491.107	21.21
491.459	21.31
491.811	21.48
492.163	21.51
492.515	21.47
492.866	21.33
493.218	21.16
493.57	21.2
493.922	21.31
494.274	21.42
494.625	21.57
494.977	21.93
495.328	21.97
495.68	22.26
496.031	22.17
496.383	22.24
496.734	22.42
497.086	22.51
497.437	22.51
497.788	22.38
498.139	22.45
498.49	22.29
498.842	22.28
499.193	22.3
499.544	22.49
499.894	22.45
500.245	22.49
500.596	22.68
500.947	22.7
501.298	22.78
501.648	23.01
501.999	22.93
502.35	23.01
502.7	22.99
503.051	23.2
503.401	23.14
503.752	22.97
504.102	22.97
504.452	23.45
504.803	23.19
505.153	23.17
505.503	23.33
505.853	23.37
506.203	23.29
506.553	23.23
506.903	23.37
507.253	23.46
507.603	23.51
507.953	23.56
508.303	23.41
508.652	23.44
509.002	23.54
509.352	23.65
509.701	23.7
510.051	23.65
510.4	23.66
510.75	23.54
511.099	23.45
511.449	23.72
511.798	23.79
512.147	23.72
512.496	23.83
512.846	23.77
513.195	24
513.544	23.97
513.893	23.92
514.242	23.98
514.591	24.01
514.939	24.07
515.288	24.34
515.637	24.28
515.986	24.38
516.334	24.38
516.683	24.29
517.032	24.39
517.38	24.44
517.729	24.61
518.077	24.52
518.426	24.57
518.774	24.5
519.122	24.63
519.47	24.49
519.819	24.46
520.167	24.41
520.515	24.42
520.863	24.54
521.211	24.48
521.559	24.5
521.907	24.64
522.255	24.82
522.602	24.96
522.95	25.01
523.298	25.12
523.645	24.92
523.993	25.01
524.341	25.24
524.688	25.17
525.036	25.19
525.383	25.12
525.73	25.27
526.078	25.19
526.425	25.08
526.772	25.15
527.119	25.08
527.466	24.98
527.814	25.06
528.161	25.17
528.508	25.13
528.854	25.13
529.201	25.02
529.548	24.89
529.895	24.86
530.242	24.87
530.588	24.91
530.935	24.9
531.282	24.94
531.628	24.9
531.975	25.12
532.321	25.3
532.667	25.42
533.014	25.45
533.36	25.68
533.706	25.67
534.052	25.68
534.399	25.5
534.745	25.54
535.091	25.47
535.437	25.56
535.783	25.68
536.129	25.65
536.474	25.95
536.82	26.04
537.166	26.05
537.512	26.22
537.857	26.31
538.203	26.11
538.549	26.37
538.894	26.2
539.239	26.39
539.585	26.47
539.93	26.65
540.276	26.89
540.621	26.94
540.966	26.84
541.311	26.85
541.656	26.98
542.001	26.72
542.346	26.59
542.691	26.35
543.036	26.35
543.381	26.45
543.726	26.41
544.071	26.41
544.415	26.53
544.76	26.59
545.105	26.79
545.449	26.91
545.794	27.09
546.138	27.06
546.483	27.16
546.827	27.39
547.171	27.45
547.516	27.55
547.86	27.29
548.204	27.44
548.548	27.45
548.892	27.48
549.236	27.49
549.58	27.54
549.924	27.82
550.268	27.9
550.612	28.07
550.956	28.17
551.3	27.92
551.643	28.18
551.987	28.37
552.33	28.26
552.674	28.24
553.017	28.53
553.361	28.59
553.704	28.55
554.048	28.53
554.391	28.53
554.734	28.46
555.077	28.5
555.42	28.58
555.764	28.73
556.107	28.8
556.45	28.82
556.793	28.74
557.135	28.93
557.478	28.86
557.821	29.01
558.164	28.97
558.507	29.04
558.849	28.93
559.192	28.96
559.534	29.29
559.877	29.5
560.219	29.43
560.562	29.58
560.904	29.34
561.246	29.51
561.589	29.54
561.931	29.46
562.273	29.54
562.615	29.57
562.957	29.51
563.299	29.63
563.641	29.54
563.983	29.6
564.325	29.6
564.667	29.64
565.008	29.95
565.35	29.65
565.692	29.76
566.033	29.92
566.375	29.99
566.716	30.06
567.058	29.98
567.399	30.06
567.741	29.96
568.082	29.98
568.423	29.95
568.764	30.34
569.105	30.06
569.447	30.15
569.788	30.26
570.129	30.35
570.47	30.29
570.811	30.53
571.151	30.47
571.492	30.37
571.833	30.58
572.174	30.58
572.514	30.75
572.855	30.36
573.195	30.45
573.536	30.64
573.876	30.65
574.217	30.67
574.557	30.52
574.898	30.6
575.238	30.62
575.578	30.7
575.918	31.08
576.258	30.95
576.598	31.08
576.938	30.91
577.278	31.06
577.618	31.12
577.958	31.31
578.298	31.31
578.638	31.28
578.977	31.27
579.317	31.55
579.657	31.56
579.996	31.53
580.336	31.69
580.675	31.67
581.014	31.68
581.354	31.52
581.693	31.85
582.032	31.8
582.372	31.91
582.711	31.94
583.05	32.09
583.389	31.86
583.728	32.27
584.067	32.1
584.406	32.2
584.745	32.19
585.083	32.41
585.422	32.38
585.761	32.45
586.1	32.29
586.438	32.57
586.777	32.79
587.115	32.47
587.454	32.45
587.792	32.49
588.13	32.66
588.469	32.62
588.807	32.77
589.145	32.8
589.483	32.9
589.821	32.82
590.159	33.16
590.497	32.79
590.835	33.02
591.173	32.96
591.511	32.79
591.849	32.88
592.187	33.1
592.524	32.94
592.862	33.06
593.2	33.29
593.537	33.21
593.875	33.42
594.212	33.15
594.55	33.3
594.887	33.56
595.224	33.2
595.561	33.3
595.899	33.51
596.236	33.24
596.573	33.46
596.91	33.53
597.247	33.45
597.584	33.7
597.921	33.82
598.258	33.32
598.594	33.52
598.931	33.53
599.268	33.45
599.604	33.83
599.941	33.81
600.277	33.69
600.614	33.7
600.95	34.08
601.287	34.14
601.623	34.45
601.959	34.27
602.296	34.21
602.632	33.99
602.968	34.32
603.304	34.16
603.64	34.44
603.976	34.25
604.312	34.32
604.648	34.43
604.984	34.52
605.319	34.58
605.655	34.41
605.991	34.21
606.326	34.44
606.662	34.39
606.998	34.34
607.333	34.34
607.668	34.26
608.004	34.38
608.339	34.63
608.674	34.73
609.01	34.93
609.345	34.72
609.68	34.64
610.015	35.03
610.35	35.1
610.685	35.17
611.02	34.99
611.355	34.81
611.689	34.89
612.024	34.89
612.359	34.97
612.694	34.98
613.028	35.17
613.363	35.21
613.697	35.47
614.032	35.53
614.366	35.59
614.7	35.46
615.035	35.18
615.369	35.24
615.703	35.47
616.037	35.45
616.371	35.51
616.705	35.91
617.039	35.69
617.373	35.69
617.707	35.99
618.041	35.8
618.375	35.89
618.709	35.9
619.042	36.18
619.376	35.95
619.71	36.22
620.043	36.27
620.377	35.82
620.71	35.9
621.043	36.49
621.377	36.24
621.71	36.18
622.043	35.89
622.376	36.18
622.709	36.41
623.043	35.93
623.376	36.68
623.709	36.54
624.041	36.53
624.374	36.45
624.707	37.1
625.04	36.62
625.373	36.65
625.705	36.62
626.038	36.43
626.37	36.59
626.703	36.38
627.035	37.15
627.368	36.3
627.7	37.07
628.032	36.79
628.365	37.21
628.697	36.87
629.029	36.75
629.361	36.76
629.693	36.93
630.025	36.98
630.357	37.2
630.689	37.19
631.021	37.41
631.353	37.4
631.684	36.89
632.016	37.2
632.348	37.34
632.679	37.09
633.011	37.22
633.342	37.53
633.674	37.29
634.005	37.6
634.336	37.56
634.668	37.43
634.999	38.08
635.33	37.78
635.661	38.05
635.992	37.87
636.323	37.44
636.654	38.09
636.985	37.91
637.316	37.72
637.647	38.45
637.977	37.95
638.308	37.73
638.639	37.71
638.969	37.71
639.3	38.2
639.63	38.02
639.961	38.02
640.291	38.31
640.622	38.26
640.952	37.79
641.282	38.8
641.612	38.4
641.943	38.29
642.273	38.47
642.603	38.72
642.933	38.57
643.263	38.24
643.592	39.04
643.922	39.48
644.252	38.76
644.582	38.45
644.911	38.04
645.241	39.01
645.571	38.69
645.9	38.94
646.23	39.09
646.559	39.09
646.888	39.11
647.218	38.79
647.547	38.93
647.876	39.54
648.205	39.18
648.534	38.82
648.863	39.12
649.192	39.48
649.521	39.58
649.85	39.69
650.179	39.16
650.508	39.61
650.837	39.2
651.165	39.19
651.494	39.26
651.822	39.46
652.151	38.78
652.479	39.83
652.808	39.7
653.136	39.28
653.465	39.71
653.793	39.78
654.121	39.23
654.449	40.06
654.777	40.36
655.105	39.67
655.433	39.56
655.761	40.1
656.089	39.43
656.417	39.85
656.745	40.31
657.073	39.81
657.4	40.23
657.728	40.46
658.056	40.49
658.383	40.35
658.711	40.38
659.038	39.77
659.365	39.93
659.693	39.95
660.02	40.77
660.347	40.55
660.674	40.21
661.001	40.15
661.329	40.13
661.656	40.45
661.982	40.52
662.309	40.41
662.636	40.46
662.963	40.24
663.29	39.97
663.616	40.43
663.943	41.18
664.27	41.11
664.596	40.78
664.923	41.39
665.249	40.96
665.576	41.1
665.902	41.16
666.228	40.97
666.554	41.19
666.881	40.67
667.207	40.88
667.533	41.07
667.859	41.65
668.185	40.87
668.511	41.34
668.837	41.49
669.162	40.9
669.488	42.1
669.814	41.26
670.139	41.21
670.465	41.26
670.791	41.17
671.116	41.33
671.442	41.55
671.767	41.61
