Data from 20-10_crown_Reflection__4__160.txt Node

Date: Fri Nov 11 21:18:03 CST 2022
User: ToomeyLab
Spectrometer: FLMS14357
Trigger mode: 0
Integration Time (sec): 1.000000E-2
Scans to average: 100
Electric dark correction enabled: true
Nonlinearity correction enabled: false
Boxcar width: 0
XAxis mode: Wavelengths
Number of Pixels in Spectrum: 2048
>>>>>Begin Spectral Data<<<<<
189.047	23.51
189.435	23.51
189.823	23.51
190.211	-3
190.599	105.45
190.987	-15.6
191.375	26.07
191.763	19.91
192.151	-5893.94
192.538	-40.81
192.926	-39.96
193.314	38.36
193.702	-365.2
194.089	163.99
194.477	80.55
194.864	-49.63
195.252	100.21
195.639	-309.48
196.027	-73.72
196.414	56.58
196.801	83.82
197.189	282.7
197.576	6558.46
197.963	-640.1
198.351	-325.95
198.738	-78.78
199.125	-37.41
199.512	2.61
199.899	-222.49
200.286	-34.63
200.673	-56.45
201.06	-5.73
201.447	26.09
201.833	-11.36
202.22	-286.94
202.607	11.62
202.994	37.07
203.38	36.85
203.767	-0.06
204.154	3.2
204.54	-23.78
204.927	-9.78
205.313	-16.53
205.699	-43.59
206.086	49.26
206.472	-40.65
206.858	-11.18
207.245	21.45
207.631	-2.9
208.017	-9.58
208.403	48.39
208.789	-31.1
209.175	-4.59
209.561	0.27
209.947	-14.37
210.333	21.05
210.719	13.75
211.105	18.92
211.491	-22.34
211.876	-0.36
212.262	5.61
212.648	-14.08
213.034	-39.06
213.419	-91.82
213.805	-48.01
214.19	-22.01
214.576	3.76
214.961	-111.55
215.346	-21.9
215.732	-63.73
216.117	25.74
216.502	-38.96
216.888	-29.1
217.273	-11.51
217.658	-31.78
218.043	-29.4
218.428	-1.55
218.813	-8.52
219.198	10.51
219.583	8.3
219.968	-21.24
220.353	-41.04
220.738	-21.78
221.122	-12.51
221.507	-39.31
221.892	-20.43
222.276	-1.73
222.661	3.44
223.046	-22.59
223.43	-19
223.815	0.93
224.199	-10.4
224.583	-15.62
224.968	-20.69
225.352	-4.15
225.736	-13.05
226.121	1.48
226.505	-4.68
226.889	-10.89
227.273	1.27
227.657	-6.09
228.041	-2.83
228.425	0.02
228.809	-2.51
229.193	1.93
229.577	2.61
229.961	2.8
230.344	2.47
230.728	1.57
231.112	1.03
231.495	2.88
231.879	0.27
232.263	0.35
232.646	0.32
233.03	1.2
233.413	0.85
233.797	1.39
234.18	-1.34
234.563	1.94
234.946	1.08
235.33	1.73
235.713	0.15
236.096	2.72
236.479	1.94
236.862	3.77
237.245	1.33
237.628	2.81
238.011	1.07
238.394	1.26
238.777	4.25
239.16	3.33
239.543	-0.55
239.925	1.8
240.308	1.25
240.691	1.19
241.073	0.46
241.456	0.7
241.838	1.92
242.221	2.13
242.603	2.66
242.986	1.59
243.368	2.37
243.75	1.95
244.133	2.11
244.515	1.97
244.897	2.84
245.279	2.07
245.661	1.9
246.043	1.63
246.425	2.92
246.807	1.82
247.189	2.03
247.571	2.1
247.953	1.7
248.335	2.26
248.717	2.63
249.098	2.46
249.48	1.96
249.862	2.35
250.243	2.21
250.625	2.42
251.006	2.84
251.388	2.31
251.769	2.43
252.151	1.94
252.532	1.42
252.913	3
253.295	2.27
253.676	1.88
254.057	1.94
254.438	1.99
254.819	1.15
255.2	1.96
255.581	0.66
255.962	1.49
256.343	1.53
256.724	0.73
257.105	2.32
257.486	1.79
257.867	2.29
258.247	1.59
258.628	1.93
259.009	1.73
259.389	1.98
259.77	2.45
260.15	2.21
260.531	2.09
260.911	2.08
261.292	2.6
261.672	1.96
262.052	2.25
262.432	2.35
262.813	2.17
263.193	1.26
263.573	1.75
263.953	1.99
264.333	1.7
264.713	1.9
265.093	2.03
265.473	1.52
265.853	2.13
266.233	1.74
266.612	2.1
266.992	1.57
267.372	2.79
267.752	1.99
268.131	1.6
268.511	1.91
268.89	1.82
269.27	2.48
269.649	1.77
270.029	2.28
270.408	2.47
270.787	2.15
271.167	1.32
271.546	1.48
271.925	2.17
272.304	2.13
272.683	1.79
273.062	1.38
273.441	2.6
273.82	2.03
274.199	1.99
274.578	1.85
274.957	2.07
275.336	2.07
275.715	2.16
276.093	1.41
276.472	1.94
276.851	1.91
277.229	1.9
277.608	2.37
277.986	2.15
278.365	1.17
278.743	2.16
279.122	2.27
279.5	1.89
279.878	2.16
280.257	2.38
280.635	1.74
281.013	1.98
281.391	1.59
281.769	1.74
282.147	1.58
282.525	1.65
282.903	1.49
283.281	1.99
283.659	1.9
284.037	1.61
284.415	1.64
284.792	1.97
285.17	2.25
285.548	1.47
285.925	1.79
286.303	1.97
286.68	1.93
287.058	2.07
287.435	1.66
287.813	2.13
288.19	1.6
288.567	1.83
288.945	1.95
289.322	2.14
289.699	1.23
290.076	2.05
290.453	2.05
290.83	1.94
291.207	1.86
291.584	1.92
291.961	1.7
292.338	2
292.715	1.97
293.092	2.35
293.469	1.72
293.845	2.1
294.222	1.43
294.599	2.17
294.975	1.69
295.352	2.1
295.728	1.73
296.105	1.51
296.481	1.71
296.858	1.4
297.234	2.04
297.61	1.31
297.986	2.36
298.363	2.12
298.739	2.06
299.115	1.9
299.491	2.19
299.867	1.87
300.243	1.77
300.619	1.72
300.995	1.87
301.371	2.07
301.746	2.19
302.122	1.94
302.498	1.88
302.874	1.67
303.249	1.89
303.625	2.04
304	1.72
304.376	2
304.751	1.7
305.127	1.96
305.502	2.08
305.878	2.29
306.253	1.95
306.628	2.12
307.003	1.73
307.378	2.15
307.754	2.36
308.129	2.48
308.504	2.01
308.879	1.99
309.254	1.88
309.629	1.96
310.003	1.88
310.378	2.05
310.753	2.26
311.128	2.06
311.502	2.19
311.877	2.15
312.252	1.95
312.626	1.75
313.001	1.97
313.375	2.1
313.75	1.77
314.124	2.02
314.498	1.78
314.873	2.07
315.247	2.23
315.621	2.13
315.995	2.18
316.369	2.1
316.743	1.98
317.117	2.21
317.491	2.06
317.865	1.92
318.239	2.34
318.613	2.29
318.987	2.02
319.361	1.62
319.734	1.74
320.108	2.49
320.482	2.52
320.855	1.71
321.229	2.49
321.602	2.12
321.976	2.2
322.349	2.35
322.723	2.46
323.096	1.89
323.469	1.81
323.843	2.43
324.216	2.01
324.589	2.39
324.962	2.4
325.335	2.1
325.708	2.61
326.081	2.29
326.454	1.74
326.827	1.89
327.2	2.56
327.573	2.67
327.945	2.4
328.318	2.06
328.691	2.26
329.063	2.49
329.436	1.86
329.809	1.35
330.181	2.05
330.553	1.87
330.926	1.93
331.298	1.98
331.671	1.68
332.043	2.05
332.415	1.67
332.787	2.39
333.159	2.12
333.532	2.51
333.904	2.78
334.276	1.94
334.648	1.72
335.02	2.06
335.391	2.48
335.763	2.34
336.135	2.19
336.507	2.2
336.879	2.08
337.25	2.1
337.622	2.57
337.993	2.52
338.365	2.57
338.736	2.28
339.108	2.24
339.479	1.98
339.851	2.21
340.222	1.81
340.593	2.26
340.964	2.56
341.336	2.41
341.707	2.32
342.078	1.55
342.449	2.32
342.82	2.02
343.191	2.45
343.562	2.25
343.933	2.25
344.303	2.17
344.674	2.33
345.045	2.3
345.416	2.39
345.786	2.02
346.157	2.22
346.527	2.6
346.898	2.07
347.268	2.11
347.639	2.37
348.009	2.15
348.38	2.43
348.75	2.03
349.12	2.62
349.49	2.62
349.861	2.35
350.231	2.45
350.601	2.11
350.971	2.29
351.341	2.76
351.711	2.3
352.081	2.71
352.45	2.09
352.82	2.22
353.19	2.24
353.56	2.37
353.929	2.24
354.299	2.33
354.669	2.26
355.038	2.18
355.408	2.24
355.777	2.37
356.147	2.58
356.516	2.23
356.885	2.45
357.254	2.53
357.624	1.88
357.993	2.43
358.362	2.53
358.731	1.92
359.1	2.22
359.469	1.91
359.838	2.35
360.207	2.86
360.576	2.36
360.945	2.33
361.314	2.07
361.682	2.28
362.051	2.34
362.42	2.47
362.788	2.73
363.157	2.34
363.525	2.27
363.894	2.17
364.262	2.46
364.631	2.76
364.999	2.28
365.367	2.06
365.735	2.25
366.104	2.21
366.472	2.35
366.84	2.02
367.208	2.27
367.576	2.6
367.944	2.63
368.312	2.32
368.68	2.43
369.048	2.56
369.416	2.43
369.783	2.69
370.151	2.44
370.519	2.46
370.886	2.41
371.254	2.67
371.621	2.45
371.989	2.29
372.356	2.53
372.724	2.76
373.091	2.64
373.458	2.41
373.826	2.18
374.193	2.24
374.56	2.37
374.927	2.58
375.294	2.54
375.661	2.77
376.028	1.87
376.395	2.69
376.762	2.63
377.129	2.54
377.496	2.42
377.863	2.49
378.229	2.44
378.596	2.39
378.963	2.53
379.329	2.31
379.696	2.27
380.062	2.59
380.429	2.52
380.795	2.77
381.161	2.63
381.528	2.47
381.894	2.72
382.26	2.53
382.626	2.74
382.993	2.56
383.359	2.48
383.725	2.43
384.091	2.31
384.457	2.57
384.823	2.34
385.188	2.39
385.554	2.26
385.92	2.26
386.286	2.45
386.651	2.65
387.017	2.51
387.383	2.29
387.748	2.41
388.114	2.48
388.479	2.34
388.845	2.38
389.21	2.39
389.575	2.48
389.94	2.41
390.306	2.26
390.671	2.7
391.036	2.62
391.401	2.41
391.766	3.01
392.131	2.5
392.496	2.49
392.861	2.61
393.226	2.47
393.591	2.43
393.956	2.54
394.32	2.57
394.685	2.63
395.05	2.91
395.414	2.55
395.779	2.65
396.143	2.54
396.508	2.75
396.872	2.57
397.236	2.65
397.601	2.7
397.965	2.55
398.329	2.72
398.694	2.66
399.058	2.53
399.422	2.72
399.786	2.47
400.15	2.66
400.514	2.7
400.878	2.65
401.242	2.66
401.605	2.74
401.969	2.69
402.333	2.34
402.697	2.42
403.06	2.82
403.424	2.35
403.787	2.76
404.151	2.71
404.514	2.41
404.878	2.46
405.241	2.51
405.604	2.62
405.968	2.58
406.331	2.53
406.694	2.59
407.057	2.6
407.42	2.57
407.783	2.66
408.146	2.75
408.509	2.78
408.872	2.66
409.235	2.67
409.598	2.69
409.961	2.91
410.323	2.53
410.686	2.79
411.049	2.58
411.411	2.65
411.774	2.54
412.136	2.5
412.499	2.55
412.861	2.7
413.223	2.42
413.586	2.59
413.948	2.93
414.31	2.76
414.672	2.69
415.035	2.71
415.397	2.48
415.759	2.64
416.121	2.74
416.483	2.55
416.845	2.78
417.206	2.6
417.568	2.66
417.93	2.48
418.292	2.46
418.653	2.83
419.015	2.61
419.377	2.57
419.738	2.71
420.1	2.68
420.461	2.68
420.822	2.63
421.184	2.68
421.545	2.7
421.906	2.68
422.267	2.55
422.629	2.61
422.99	2.66
423.351	2.69
423.712	2.62
424.073	2.69
424.434	2.68
424.795	2.73
425.155	2.72
425.516	2.69
425.877	2.7
426.238	2.74
426.598	2.67
426.959	2.55
427.32	2.7
427.68	2.72
428.041	2.77
428.401	2.46
428.761	2.89
429.122	2.66
429.482	2.66
429.842	2.62
430.202	2.72
430.563	2.79
430.923	2.8
431.283	2.65
431.643	2.57
432.003	2.89
432.363	2.73
432.722	2.77
433.082	2.79
433.442	2.92
433.802	2.81
434.161	2.73
434.521	2.69
434.881	2.85
435.24	2.75
435.6	2.6
435.959	2.74
436.319	2.57
436.678	2.79
437.037	2.83
437.396	2.89
437.756	2.7
438.115	2.82
438.474	2.67
438.833	2.75
439.192	2.73
439.551	2.69
439.91	2.91
440.269	2.69
440.628	2.77
440.987	2.81
441.345	2.77
441.704	2.75
442.063	2.88
442.421	2.76
442.78	2.62
443.138	2.92
443.497	2.73
443.855	2.87
444.214	2.73
444.572	2.85
444.93	2.8
445.288	2.83
445.647	2.91
446.005	2.99
446.363	2.8
446.721	2.84
447.079	2.82
447.437	2.69
447.795	2.83
448.153	2.73
448.51	2.79
448.868	2.79
449.226	2.85
449.584	2.83
449.941	2.84
450.299	2.75
450.656	2.84
451.014	2.89
451.371	2.88
451.729	2.85
452.086	2.89
452.443	2.86
452.801	2.86
453.158	2.87
453.515	2.84
453.872	2.85
454.229	2.77
454.586	2.9
454.943	2.87
455.3	2.83
455.657	2.98
456.014	2.93
456.371	2.88
456.727	3
457.084	2.56
457.441	2.94
457.797	2.89
458.154	2.79
458.51	2.87
458.867	2.81
459.223	2.87
459.58	2.89
459.936	2.82
460.292	2.97
460.648	2.92
461.005	2.91
461.361	2.8
461.717	2.71
462.073	2.92
462.429	2.73
462.785	2.84
463.141	2.83
463.496	2.86
463.852	2.88
464.208	3.02
464.564	2.85
464.919	2.98
465.275	2.71
465.631	2.88
465.986	2.97
466.342	2.92
466.697	2.98
467.052	3.05
467.408	2.98
467.763	2.83
468.118	2.99
468.473	2.95
468.829	3.03
469.184	2.94
469.539	2.9
469.894	2.98
470.249	3.18
470.603	2.97
470.958	3
471.313	3.02
471.668	2.99
472.023	2.86
472.377	2.91
472.732	2.86
473.086	2.87
473.441	2.91
473.795	2.97
474.15	3.01
474.504	3.07
474.859	2.87
475.213	3.04
475.567	3.01
475.921	2.91
476.275	2.96
476.63	2.93
476.984	3
477.338	2.91
477.692	2.88
478.045	2.96
478.399	3.03
478.753	2.85
479.107	2.99
479.461	2.98
479.814	3.02
480.168	3.01
480.521	3.04
480.875	3.07
481.228	2.97
481.582	2.97
481.935	2.85
482.289	2.88
482.642	3.03
482.995	3
483.348	2.93
483.701	2.98
484.055	2.92
484.408	2.95
484.761	2.85
485.114	2.79
485.466	2.72
485.819	2.75
486.172	2.78
486.525	2.89
486.878	2.9
487.23	2.89
487.583	2.95
487.936	2.95
488.288	2.91
488.641	2.85
488.993	2.85
489.345	2.79
489.698	2.82
490.05	2.84
490.402	2.84
490.754	2.95
491.107	2.85
491.459	2.95
491.811	3
492.163	2.92
492.515	2.9
492.866	2.91
493.218	2.81
493.57	2.8
493.922	2.89
494.274	2.92
494.625	2.96
494.977	3.06
495.328	3.03
495.68	3.06
496.031	3.02
496.383	3.08
496.734	2.97
497.086	3.05
497.437	3.1
497.788	2.97
498.139	3.03
498.49	2.93
498.842	2.89
499.193	2.98
499.544	3.07
499.894	3.02
500.245	3.06
500.596	3.08
500.947	3.09
501.298	3.09
501.648	3.03
501.999	3.09
502.35	3.07
502.7	3.06
503.051	3.15
503.401	3.12
503.752	2.97
504.102	2.91
504.452	3.09
504.803	3.07
505.153	3.1
505.503	3.06
505.853	3
506.203	3.15
506.553	3.02
506.903	2.94
507.253	3.06
507.603	3.04
507.953	3.1
508.303	2.98
508.652	3.07
509.002	2.95
509.352	3.03
509.701	3.12
510.051	3.09
510.4	3.13
510.75	3.01
511.099	2.92
511.449	3.08
511.798	2.98
512.147	3
512.496	2.95
512.846	3.13
513.195	3.17
513.544	3.1
513.893	2.94
514.242	3.06
514.591	3.08
514.939	3.14
515.288	3.07
515.637	3.06
515.986	3.09
516.334	2.93
516.683	3.17
517.032	3.07
517.38	3.13
517.729	3.06
518.077	3.11
518.426	3.2
518.774	3.13
519.122	3.15
519.47	3.08
519.819	3.14
520.167	3
520.515	3.03
520.863	3.03
521.211	3.07
521.559	3.03
521.907	3.07
522.255	3.09
522.602	3.14
522.95	3.1
523.298	3.14
523.645	3.11
523.993	3.15
524.341	3.16
524.688	3.17
525.036	3.05
525.383	3.08
525.73	3.17
526.078	3.08
526.425	3.05
526.772	3.03
527.119	2.98
527.466	3.03
527.814	3.12
528.161	3.08
528.508	3.07
528.854	2.97
529.201	3.05
529.548	2.96
529.895	2.91
530.242	2.83
530.588	2.86
530.935	2.93
531.282	3
531.628	3.03
531.975	3.01
532.321	2.95
532.667	3.06
533.014	3.03
533.36	3.04
533.706	3.07
534.052	3.03
534.399	2.97
534.745	3.03
535.091	2.97
535.437	2.94
535.783	3.04
536.129	3.12
536.474	3.12
536.82	3.02
537.166	3.11
537.512	3.09
537.857	3.08
538.203	3
538.549	3.15
538.894	3.03
539.239	3.04
539.585	3.11
539.93	3.23
540.276	3.23
540.621	3.28
540.966	3.2
541.311	3.13
541.656	3.09
542.001	3.01
542.346	3.05
542.691	2.92
543.036	2.97
543.381	2.94
543.726	2.99
544.071	3.06
544.415	3.09
544.76	3.09
545.105	3.1
545.449	2.99
545.794	3.13
546.138	3.1
546.483	3.21
546.827	3.16
547.171	3.18
547.516	3.04
547.86	3.02
548.204	3.13
548.548	3.06
548.892	3.05
549.236	3.02
549.58	3.2
549.924	3.24
550.268	3.17
550.612	3.17
550.956	3.29
551.3	3.13
551.643	3.21
551.987	3.35
552.33	3.21
552.674	3.08
553.017	3.2
553.361	3.28
553.704	3.27
554.048	3.1
554.391	3.21
554.734	3.16
555.077	3.39
555.42	3.22
555.764	3.26
556.107	3.26
556.45	3.26
556.793	3.28
557.135	3.27
557.478	3.31
557.821	3.31
558.164	3.22
558.507	3.27
558.849	3.11
559.192	3.1
559.534	3.23
559.877	3.31
560.219	3.3
560.562	3.17
560.904	3.27
561.246	3.12
561.589	3.17
561.931	3.13
562.273	3.27
562.615	3.09
562.957	3.36
563.299	3.16
563.641	3.02
563.983	3.08
564.325	3.01
564.667	3.23
565.008	3.37
565.35	3.23
565.692	3
566.033	3.12
566.375	3.3
566.716	3.14
567.058	3.26
567.399	3.33
567.741	3.23
568.082	3.2
568.423	3.28
568.764	3.3
569.105	3.14
569.447	3.37
569.788	3.26
570.129	3.23
570.47	3.09
570.811	3.38
571.151	3.49
571.492	3.3
571.833	3.09
572.174	3.19
572.514	3.2
572.855	3.17
573.195	2.97
573.536	3.29
573.876	3.39
574.217	3.31
574.557	3.22
574.898	3.3
575.238	3.22
575.578	3.25
575.918	3.33
576.258	3.16
576.598	3.14
576.938	3.31
577.278	3.04
577.618	3.11
577.958	3.14
578.298	3.32
578.638	3.33
578.977	3.35
579.317	3.52
579.657	3.38
579.996	3.23
580.336	3.16
580.675	3.45
581.014	3.36
581.354	3.05
581.693	3.06
582.032	3.05
582.372	3.33
582.711	3.27
583.05	3.11
583.389	3.58
583.728	3.32
584.067	3.19
584.406	2.96
584.745	3.52
585.083	3.23
585.422	2.92
585.761	3.21
586.1	3.2
586.438	3.15
586.777	3.26
587.115	3.25
587.454	3.25
587.792	3.27
588.13	3.31
588.469	3.33
588.807	3.08
589.145	3.46
589.483	3.33
589.821	3.09
590.159	3.32
590.497	3.44
590.835	3.24
591.173	3.38
591.511	3.3
591.849	3.25
592.187	3.22
592.524	3.15
592.862	3.13
593.2	3.36
593.537	3.28
593.875	3.5
594.212	3.17
594.55	3.38
594.887	3.25
595.224	3.09
595.561	3.14
595.899	3.03
596.236	3.2
596.573	3.27
596.91	3.37
597.247	3.35
597.584	3.03
597.921	3.45
598.258	3.33
598.594	3.28
598.931	3.19
599.268	3.31
599.604	3.2
599.941	3.43
600.277	3.5
600.614	3.34
600.95	2.89
601.287	3.28
601.623	3.64
601.959	3.24
602.296	3.37
602.632	3.29
602.968	3.12
603.304	3.44
603.64	3.43
603.976	3.38
604.312	3.27
604.648	3.14
604.984	3.33
605.319	3.25
605.655	3.23
605.991	3.16
606.326	3.41
606.662	3.18
606.998	3.19
607.333	3.35
607.668	3.26
608.004	3.25
608.339	3.3
608.674	3.29
609.01	3.38
609.345	3.19
609.68	3.16
610.015	3.39
610.35	3.15
610.685	3.34
611.02	3.18
611.355	3.19
611.689	3.32
612.024	3.24
612.359	3.33
612.694	3.28
613.028	3.41
613.363	3.45
613.697	3.58
614.032	2.98
614.366	3.26
614.7	3.22
615.035	3.11
615.369	3.15
615.703	3.29
616.037	3.3
616.371	3.13
616.705	3.07
617.039	3.25
617.373	2.96
617.707	3.37
618.041	3.3
618.375	3.02
618.709	3.56
619.042	3.46
619.376	3.36
619.71	3.43
620.043	3.41
620.377	2.99
620.71	3.5
621.043	2.99
621.377	3.46
621.71	3.3
622.043	3.33
622.376	3.59
622.709	3.29
623.043	3.24
623.376	3.06
623.709	3.49
624.041	3.48
624.374	3.01
624.707	3.63
625.04	3.29
625.373	3.02
625.705	3.2
626.038	3.19
626.37	3.17
626.703	3.2
627.035	3.29
627.368	3.04
627.7	3.01
628.032	3.32
628.365	3.39
628.697	3.22
629.029	3.18
629.361	3.2
629.693	3.22
630.025	3.35
630.357	3.3
630.689	3.4
631.021	3.4
631.353	3.61
631.684	3.34
632.016	3.2
632.348	3.18
632.679	3.27
633.011	3.37
633.342	3.23
633.674	3.02
634.005	3.12
634.336	3.43
634.668	3.22
634.999	3.3
635.33	3.15
635.661	3.46
635.992	3.31
636.323	3.07
636.654	3.25
636.985	3.35
637.316	3.54
637.647	3.43
637.977	3.4
638.308	3.71
638.639	3.52
638.969	3.13
639.3	3.23
639.63	3.53
639.961	3.39
640.291	3.31
640.622	3.46
640.952	3.1
641.282	3.07
641.612	3.14
641.943	3.56
642.273	3.22
642.603	3.42
642.933	3.33
643.263	3.07
643.592	3.34
643.922	3.19
644.252	3.44
644.582	3.62
644.911	3.05
645.241	3.28
645.571	2.97
645.9	3.39
646.23	3.65
646.559	3.42
646.888	3.18
647.218	3.29
647.547	3.1
647.876	3.33
648.205	3.28
648.534	3.12
648.863	3.19
649.192	2.97
649.521	3.71
649.85	3.26
650.179	3.03
650.508	3.59
650.837	3.5
651.165	3.37
651.494	3.58
651.822	3.06
652.151	2.91
652.479	2.75
652.808	3.19
653.136	3.31
653.465	3.44
653.793	3.55
654.121	3.4
654.449	2.88
654.777	3.63
655.105	3.3
655.433	3.39
655.761	3.37
656.089	3.62
656.417	3.06
656.745	3.6
657.073	3.11
657.4	3.11
657.728	3.27
658.056	3.5
658.383	2.67
658.711	3.4
659.038	3.26
659.365	3
659.693	3.18
660.02	3.83
660.347	3.41
660.674	3.23
661.001	3.55
661.329	3.21
661.656	3.64
661.982	3.58
662.309	3.25
662.636	3.66
662.963	3.04
663.29	3.28
663.616	2.98
663.943	2.85
664.27	3.32
664.596	3.44
664.923	3.11
665.249	3.81
665.576	3.84
665.902	3.52
666.228	3.27
666.554	3.32
666.881	2.96
667.207	3.59
667.533	3.36
667.859	3.67
668.185	3.17
668.511	2.92
668.837	3.45
669.162	3.58
669.488	3.55
669.814	3.4
670.139	3.51
670.465	2.94
670.791	3.29
671.116	3.28
671.442	3.48
671.767	3.89
672.092	3.25
672.418	3.24
672.743	2.98
673.068	3.26
673.393	3.92
673.718	3.17
674.043	3.32
674.368	3.36
674.693	2.75
675.018	3.82
675.343	3.45
675.667	4.21
675.992	4.27
676.317	3.33
676.641	2.38
676.966	3.33
677.29	3.56
677.615	3.55
677.939	3.39
678.264	3.62
678.588	2.97
678.912	2.85
679.236	3.98
679.56	3.78
679.885	2.91
680.209	3.07
680.532	3.52
680.856	4.13
681.18	3.42
681.504	3.14
681.828	3.48
682.152	3.29
682.475	3.16
682.799	2.93
683.122	3.53
683.446	3.8
683.769	3.45
684.093	3.67
684.416	2.95
684.739	3.5
685.062	3.41
685.386	3.46
685.709	3.62
686.032	3
686.355	3.81
686.678	3.17
687.001	3.12
687.324	3.15
687.646	3.25
687.969	3.65
688.292	4.08
688.614	3.37
688.937	3.48
689.26	2.6
689.582	3.6
689.904	3.37
690.227	3.39
690.549	3.47
690.871	3.2
691.194	3.46
691.516	2.8
691.838	3.73
