Data from 20-10_crown_Reflection__2__158.txt Node

Date: Fri Nov 11 21:17:44 CST 2022
User: ToomeyLab
Spectrometer: FLMS14357
Trigger mode: 0
Integration Time (sec): 1.000000E-2
Scans to average: 100
Electric dark correction enabled: true
Nonlinearity correction enabled: false
Boxcar width: 0
XAxis mode: Wavelengths
Number of Pixels in Spectrum: 2048
>>>>>Begin Spectral Data<<<<<
189.047	-13.48
189.435	-13.48
189.823	-13.48
190.211	-49.32
190.599	8.08
190.987	46.08
191.375	63.48
191.763	-19.14
192.151	20251.52
192.538	-19.11
192.926	105.6
193.314	98.11
193.702	-414.78
194.089	172.15
194.477	-27.03
194.864	103.34
195.252	66.9
195.639	-631.67
196.027	-31.29
196.414	107.06
196.801	115.03
197.189	286.41
197.576	6023.08
197.963	-180.54
198.351	-197.39
198.738	-38.7
199.125	22.48
199.512	31.04
199.899	-215.56
200.286	4.12
200.673	-10.48
201.06	28.99
201.447	9.17
201.833	13.75
202.22	-38.47
202.607	14.88
202.994	-13.93
203.38	9.93
203.767	-4.53
204.154	27.3
204.54	-37.07
204.927	22.01
205.313	12.88
205.699	-55.95
206.086	22.71
206.472	-30.73
206.858	28.34
207.245	21.97
207.631	-21.77
208.017	2.81
208.403	29.24
208.789	49.98
209.175	-12.19
209.561	34.16
209.947	-43.9
210.333	-16.36
210.719	7.83
211.105	40.02
211.491	-32.19
211.876	-13.68
212.262	16.99
212.648	-15.45
213.034	-17.33
213.419	-31.21
213.805	8.59
214.19	-32.89
214.576	-16.82
214.961	-71.13
215.346	-51.76
215.732	-18.37
216.117	38.21
216.502	1.04
216.888	-5.36
217.273	25.53
217.658	-23.38
218.043	12.28
218.428	-17.85
218.813	24.57
219.198	8.72
219.583	15.23
219.968	-10.98
220.353	13.91
220.738	-22.96
221.122	-7.24
221.507	-14.06
221.892	-17.26
222.276	9.76
222.661	4.88
223.046	-11.17
223.43	-20.62
223.815	-1.33
224.199	-1.55
224.583	-1.33
224.968	-4.44
225.352	2.13
225.736	-5.98
226.121	-3.85
226.505	-2.54
226.889	-1.84
227.273	4.48
227.657	-2.82
228.041	0.07
228.425	2.41
228.809	-1.19
229.193	4.46
229.577	5.94
229.961	5.09
230.344	4.78
230.728	3.25
231.112	3.35
231.495	4.4
231.879	0.89
232.263	3.03
232.646	3.29
233.03	4.06
233.413	5.26
233.797	6.71
234.18	4.78
234.563	3.99
234.946	3.21
235.33	3.32
235.713	2.13
236.096	3.51
236.479	4.24
236.862	5.98
237.245	4.11
237.628	3.09
238.011	4.28
238.394	4.55
238.777	4.41
239.16	5.28
239.543	2.61
239.925	2.67
240.308	3.85
240.691	5.43
241.073	2.42
241.456	2.21
241.838	4.44
242.221	3.25
242.603	4.21
242.986	3.2
243.368	3.9
243.75	4.17
244.133	3.86
244.515	3.71
244.897	4.41
245.279	3.46
245.661	3.44
246.043	4.19
246.425	4.03
246.807	3.23
247.189	3.37
247.571	3.86
247.953	4.17
248.335	3.98
248.717	4.24
249.098	4.07
249.48	3.67
249.862	4.19
250.243	3.94
250.625	3.8
251.006	4.4
251.388	4.15
251.769	3.24
252.151	3.63
252.532	3.92
252.913	4.59
253.295	3.79
253.676	3.21
254.057	3.84
254.438	3.85
254.819	2.86
255.2	3.7
255.581	4.05
255.962	2.86
256.343	3.15
256.724	4.06
257.105	4.55
257.486	3.69
257.867	5.39
258.247	3.47
258.628	3.13
259.009	3.57
259.389	3.54
259.77	3.95
260.15	3.74
260.531	3.7
260.911	3.92
261.292	4.13
261.672	3.65
262.052	3.73
262.432	3.76
262.813	3.7
263.193	3.44
263.573	3.82
263.953	4.41
264.333	3.84
264.713	4.08
265.093	3.45
265.473	3.04
265.853	3.38
266.233	3.99
266.612	3.98
266.992	3.1
267.372	4.6
267.752	3.28
268.131	3.8
268.511	3.89
268.89	3.24
269.27	3.31
269.649	3.81
270.029	3.98
270.408	3.61
270.787	3.66
271.167	3.2
271.546	3.54
271.925	3.33
272.304	3.76
272.683	3.7
273.062	3.08
273.441	3.85
273.82	3.47
274.199	3.3
274.578	3.72
274.957	3.78
275.336	3.78
275.715	3.51
276.093	3.34
276.472	2.64
276.851	3.2
277.229	3.41
277.608	3.64
277.986	3.88
278.365	2.81
278.743	3.04
279.122	4.14
279.5	3.67
279.878	3.79
280.257	3.49
280.635	3.29
281.013	3.15
281.391	3.41
281.769	3.31
282.147	3.22
282.525	2.89
282.903	3.19
283.281	3.75
283.659	3.77
284.037	3.56
284.415	3.27
284.792	3.36
285.17	3.87
285.548	3.58
285.925	2.74
286.303	3.38
286.68	3.77
287.058	3.47
287.435	3.25
287.813	3.38
288.19	3.35
288.567	3.66
288.945	3.64
289.322	3.49
289.699	3.21
290.076	3.62
290.453	3.55
290.83	3.36
291.207	3.2
291.584	3.66
291.961	3.52
292.338	3.23
292.715	3.34
293.092	3.39
293.469	3.46
293.845	3.37
294.222	3.17
294.599	3.63
294.975	3.1
295.352	3.15
295.728	2.96
296.105	3.42
296.481	3.14
296.858	3.25
297.234	3.29
297.61	2.81
297.986	3.53
298.363	3.45
298.739	3.22
299.115	3.37
299.491	3.38
299.867	3.4
300.243	3.05
300.619	3.25
300.995	3.23
301.371	3.8
301.746	3.43
302.122	3.26
302.498	3.28
302.874	3.37
303.249	3.36
303.625	2.86
304	3.07
304.376	3.29
304.751	3.24
305.127	3.1
305.502	3.62
305.878	3.83
306.253	3.41
306.628	3.41
307.003	3.29
307.378	3.32
307.754	3.59
308.129	3.25
308.504	3.27
308.879	3.34
309.254	3.37
309.629	3.09
310.003	3.35
310.378	3.42
310.753	3.71
311.128	3.52
311.502	3.49
311.877	3.29
312.252	3.57
312.626	3.29
313.001	3.3
313.375	3.57
313.75	3.18
314.124	3.15
314.498	3.11
314.873	3.69
315.247	3.39
315.621	3.77
315.995	3.59
316.369	3.48
316.743	3.2
317.117	3.42
317.491	3.34
317.865	2.73
318.239	3.7
318.613	3.47
318.987	3.31
319.361	3.15
319.734	3.58
320.108	3.21
320.482	3.64
320.855	3.64
321.229	3.51
321.602	3.72
321.976	2.8
322.349	3.76
322.723	3.72
323.096	3.18
323.469	3.74
323.843	3.78
324.216	2.91
324.589	3.77
324.962	4.2
325.335	3.49
325.708	3.66
326.081	3.56
326.454	3.21
326.827	3.09
327.2	3.89
327.573	4.25
327.945	3.18
328.318	3.58
328.691	3.65
329.063	3.72
329.436	3.13
329.809	3.3
330.181	3.48
330.553	2.9
330.926	3.25
331.298	3.93
331.671	3.67
332.043	2.9
332.415	3.68
332.787	3.46
333.159	3.73
333.532	3.49
333.904	4.1
334.276	3.05
334.648	3.33
335.02	3.58
335.391	3.95
335.763	3.55
336.135	3.17
336.507	3.66
336.879	3.46
337.25	3.27
337.622	3.17
337.993	3.19
338.365	3.33
338.736	3.53
339.108	3.56
339.479	3.08
339.851	3.64
340.222	3.43
340.593	3.69
340.964	3.66
341.336	3.39
341.707	3.56
342.078	3.22
342.449	3.83
342.82	3.69
343.191	3.62
343.562	3.51
343.933	3.51
344.303	3.32
344.674	3.5
345.045	3.51
345.416	3.67
345.786	3.57
346.157	3.37
346.527	3.51
346.898	3.18
347.268	3.03
347.639	3.44
348.009	3.41
348.38	3.56
348.75	3.56
349.12	3.77
349.49	3.7
349.861	3.43
350.231	3.37
350.601	3.6
350.971	3.42
351.341	3.86
351.711	3.29
352.081	3.55
352.45	3.19
352.82	3.7
353.19	3.93
353.56	3.26
353.929	3.72
354.299	3.17
354.669	3.29
355.038	3.23
355.408	3.36
355.777	3.66
356.147	3.68
356.516	3.54
356.885	3.82
357.254	3.24
357.624	3.04
357.993	3.45
358.362	3.73
358.731	3.17
359.1	3.4
359.469	3.24
359.838	3.25
360.207	3.51
360.576	3.62
360.945	3.5
361.314	3.45
361.682	3.67
362.051	3.46
362.42	3.74
362.788	3.6
363.157	3.4
363.525	3.43
363.894	3.37
364.262	3.57
364.631	3.5
364.999	3.56
365.367	3.5
365.735	3.43
366.104	3.4
366.472	3.14
366.84	3.37
367.208	3.3
367.576	3.71
367.944	3.8
368.312	3.41
368.68	3.51
369.048	3.49
369.416	3.59
369.783	3.72
370.151	3.59
370.519	3.39
370.886	3.71
371.254	3.72
371.621	3.65
371.989	3.3
372.356	3.66
372.724	3.97
373.091	3.53
373.458	3.6
373.826	3.34
374.193	3.31
374.56	3.48
374.927	3.36
375.294	3.42
375.661	3.88
376.028	3.34
376.395	3.94
376.762	3.72
377.129	3.36
377.496	3.43
377.863	3.72
378.229	3.69
378.596	3.31
378.963	3.65
379.329	3.72
379.696	3.72
380.062	3.71
380.429	3.73
380.795	3.89
381.161	3.74
381.528	3.55
381.894	3.52
382.26	3.76
382.626	3.83
382.993	3.78
383.359	3.83
383.725	3.7
384.091	3.65
384.457	3.5
384.823	3.53
385.188	3.34
385.554	3.59
385.92	3.61
386.286	3.58
386.651	3.78
387.017	3.67
387.383	3.74
387.748	3.45
388.114	3.85
388.479	3.56
388.845	3.66
389.21	3.74
389.575	3.73
389.94	3.58
390.306	3.27
390.671	3.47
391.036	3.85
391.401	3.58
391.766	3.57
392.131	3.78
392.496	3.47
392.861	3.89
393.226	3.6
393.591	3.48
393.956	3.73
394.32	3.67
394.685	3.71
395.05	3.98
395.414	3.82
395.779	3.72
396.143	3.61
396.508	4.01
396.872	3.85
397.236	3.54
397.601	3.73
397.965	3.73
398.329	3.63
398.694	3.95
399.058	3.81
399.422	3.74
399.786	3.5
400.15	3.94
400.514	4.05
400.878	3.77
401.242	3.81
401.605	3.83
401.969	3.76
402.333	3.38
402.697	3.67
403.06	3.88
403.424	3.68
403.787	3.81
404.151	3.93
404.514	3.72
404.878	3.65
405.241	3.82
405.604	3.74
405.968	3.81
406.331	3.53
406.694	3.55
407.057	3.85
407.42	3.89
407.783	3.93
408.146	3.91
408.509	3.75
408.872	3.9
409.235	3.92
409.598	3.87
409.961	3.89
410.323	3.87
410.686	3.85
411.049	3.78
411.411	3.75
411.774	3.8
412.136	3.78
412.499	3.92
412.861	3.81
413.223	3.64
413.586	3.97
413.948	3.94
414.31	4.02
414.672	3.95
415.035	3.93
415.397	3.92
415.759	3.82
416.121	3.84
416.483	3.7
416.845	3.89
417.206	3.72
417.568	3.74
417.93	3.83
418.292	3.85
418.653	3.96
419.015	3.81
419.377	3.8
419.738	3.84
420.1	3.81
420.461	3.84
420.822	3.76
421.184	3.72
421.545	3.81
421.906	3.85
422.267	3.72
422.629	3.73
422.99	3.71
423.351	3.84
423.712	3.78
424.073	3.97
424.434	3.88
424.795	3.91
425.155	3.76
425.516	3.85
425.877	3.8
426.238	3.8
426.598	3.73
426.959	3.8
427.32	3.85
427.68	3.95
428.041	3.96
428.401	3.73
428.761	4
429.122	3.78
429.482	3.95
429.842	3.95
430.202	3.93
430.563	4.07
430.923	3.86
431.283	3.85
431.643	3.73
432.003	4.04
432.363	3.87
432.722	4.03
433.082	3.84
433.442	4.02
433.802	4.09
434.161	3.91
434.521	3.89
434.881	4.06
435.24	3.85
435.6	3.9
435.959	3.95
436.319	3.85
436.678	3.97
437.037	4.03
437.396	3.99
437.756	3.9
438.115	3.9
438.474	3.96
438.833	4.01
439.192	4.05
439.551	3.98
439.91	3.92
440.269	3.91
440.628	4.07
440.987	4.02
441.345	3.99
441.704	3.94
442.063	3.93
442.421	3.99
442.78	3.9
443.138	3.94
443.497	3.87
443.855	3.96
444.214	3.93
444.572	4.18
444.93	4.05
445.288	4.02
445.647	4.12
446.005	4.13
446.363	4
446.721	4.04
447.079	4.06
447.437	3.95
447.795	3.96
448.153	3.9
448.51	3.95
448.868	4.09
449.226	4.06
449.584	4.01
449.941	4.05
450.299	3.93
450.656	4.17
451.014	4.18
451.371	4.04
451.729	4
452.086	4.15
452.443	4.11
452.801	4.19
453.158	4.04
453.515	4.08
453.872	3.94
454.229	3.86
454.586	4.14
454.943	4.15
455.3	4.09
455.657	4.02
456.014	4.21
456.371	4.19
456.727	4.21
457.084	4.01
457.441	4.27
457.797	4.16
458.154	4.02
458.51	4.16
458.867	4.1
459.223	4.14
459.58	4.14
459.936	4.06
460.292	4.19
460.648	4.2
461.005	4.07
461.361	4.02
461.717	3.98
462.073	4.11
462.429	4.04
462.785	4.08
463.141	4.03
463.496	4.15
463.852	4.18
464.208	4.17
464.564	4.09
464.919	4.17
465.275	4.07
465.631	4.25
465.986	4.27
466.342	4.1
466.697	4.16
467.052	4.14
467.408	4.03
467.763	4.09
468.118	4.25
468.473	4.2
468.829	4.27
469.184	4.4
469.539	4.29
469.894	4.26
470.249	4.32
470.603	4.05
470.958	4.21
471.313	4.38
471.668	4.28
472.023	4.11
472.377	4.38
472.732	4.07
473.086	4.15
473.441	4.17
473.795	4.29
474.15	4.17
474.504	4.39
474.859	4.26
475.213	4.36
475.567	4.3
475.921	4.28
476.275	4.36
476.63	4.26
476.984	4.36
477.338	4.29
477.692	4.02
478.045	4.21
478.399	4.44
478.753	4.21
479.107	4.23
479.461	4.32
479.814	4.18
480.168	4.17
480.521	4.36
480.875	4.25
481.228	4.26
481.582	4.29
481.935	4.22
482.289	4.21
482.642	4.21
482.995	4.29
483.348	4.3
483.701	4.29
484.055	4.17
484.408	4.19
484.761	4.13
485.114	3.97
485.466	3.95
485.819	3.96
486.172	4
486.525	4.07
486.878	4.12
487.23	4.12
487.583	4.2
487.936	4.24
488.288	4.15
488.641	4.08
488.993	4.08
489.345	4.04
489.698	4.1
490.05	4.07
490.402	4.1
490.754	4.18
491.107	4.1
491.459	4.16
491.811	4.32
492.163	4.26
492.515	4.27
492.866	4.16
493.218	4.03
493.57	4.09
493.922	4.12
494.274	4.17
494.625	4.29
494.977	4.29
495.328	4.35
495.68	4.33
496.031	4.37
496.383	4.31
496.734	4.25
497.086	4.33
497.437	4.46
497.788	4.17
498.139	4.29
498.49	4.23
498.842	4.28
499.193	4.27
499.544	4.31
499.894	4.42
500.245	4.34
500.596	4.44
500.947	4.35
501.298	4.34
501.648	4.3
501.999	4.39
502.35	4.41
502.7	4.46
503.051	4.4
503.401	4.33
503.752	4.23
504.102	4.38
504.452	4.42
504.803	4.39
505.153	4.39
505.503	4.39
505.853	4.28
506.203	4.48
506.553	4.26
506.903	4.25
507.253	4.37
507.603	4.44
507.953	4.25
508.303	4.28
508.652	4.4
509.002	4.46
509.352	4.4
509.701	4.47
510.051	4.25
510.4	4.45
510.75	4.21
511.099	4.3
511.449	4.29
511.798	4.31
512.147	4.3
512.496	4.32
512.846	4.49
513.195	4.31
513.544	4.3
513.893	4.28
514.242	4.39
514.591	4.41
514.939	4.34
515.288	4.46
515.637	4.42
515.986	4.45
516.334	4.45
516.683	4.39
517.032	4.54
517.38	4.48
517.729	4.49
518.077	4.43
518.426	4.49
518.774	4.45
519.122	4.45
519.47	4.39
519.819	4.36
520.167	4.29
520.515	4.39
520.863	4.39
521.211	4.34
521.559	4.42
521.907	4.45
522.255	4.42
522.602	4.46
522.95	4.46
523.298	4.45
523.645	4.34
523.993	4.47
524.341	4.51
524.688	4.48
525.036	4.48
525.383	4.41
525.73	4.55
526.078	4.41
526.425	4.41
526.772	4.45
527.119	4.3
527.466	4.39
527.814	4.38
528.161	4.51
528.508	4.35
528.854	4.33
529.201	4.33
529.548	4.32
529.895	4.26
530.242	4.2
530.588	4.18
530.935	4.21
531.282	4.26
531.628	4.32
531.975	4.31
532.321	4.33
532.667	4.43
533.014	4.33
533.36	4.41
533.706	4.43
534.052	4.42
534.399	4.31
534.745	4.31
535.091	4.32
535.437	4.29
535.783	4.38
536.129	4.36
536.474	4.4
536.82	4.45
537.166	4.51
537.512	4.4
537.857	4.35
538.203	4.35
538.549	4.46
538.894	4.46
539.239	4.4
539.585	4.4
539.93	4.48
540.276	4.57
540.621	4.6
540.966	4.5
541.311	4.41
541.656	4.54
542.001	4.41
542.346	4.45
542.691	4.25
543.036	4.28
543.381	4.29
543.726	4.3
544.071	4.32
544.415	4.42
544.76	4.38
545.105	4.41
545.449	4.29
545.794	4.48
546.138	4.46
546.483	4.51
546.827	4.48
547.171	4.53
547.516	4.47
547.86	4.4
548.204	4.47
548.548	4.46
548.892	4.52
549.236	4.45
549.58	4.53
549.924	4.53
550.268	4.57
550.612	4.62
550.956	4.8
551.3	4.51
551.643	4.57
551.987	4.52
552.33	4.73
552.674	4.55
553.017	4.6
553.361	4.64
553.704	4.57
554.048	4.52
554.391	4.64
554.734	4.53
555.077	4.64
555.42	4.66
555.764	4.78
556.107	4.47
556.45	4.64
556.793	4.56
557.135	4.58
557.478	4.65
557.821	4.6
558.164	4.57
558.507	4.63
558.849	4.63
559.192	4.67
559.534	4.69
559.877	4.69
560.219	4.6
560.562	4.68
560.904	4.75
561.246	4.49
561.589	4.66
561.931	4.39
562.273	4.54
562.615	4.54
562.957	4.63
563.299	4.38
563.641	4.61
563.983	4.47
564.325	4.66
564.667	4.75
565.008	4.75
565.35	4.52
565.692	4.53
566.033	4.62
566.375	4.67
566.716	4.74
567.058	4.45
567.399	4.84
567.741	4.58
568.082	4.62
568.423	4.57
568.764	4.72
569.105	4.6
569.447	4.75
569.788	4.53
570.129	4.65
570.47	4.66
570.811	4.67
571.151	4.73
571.492	4.68
571.833	4.63
572.174	4.78
572.514	4.61
572.855	4.56
573.195	4.5
573.536	4.59
573.876	4.62
574.217	4.69
574.557	4.52
574.898	4.51
575.238	4.56
575.578	4.58
575.918	4.73
576.258	4.73
576.598	4.66
576.938	4.58
577.278	4.39
577.618	4.58
577.958	4.7
578.298	4.66
578.638	4.67
578.977	4.58
579.317	4.78
579.657	4.6
579.996	4.67
580.336	4.49
580.675	4.87
581.014	4.74
581.354	4.59
581.693	4.74
582.032	4.55
582.372	4.66
582.711	4.78
583.05	4.52
583.389	4.7
583.728	4.69
584.067	4.79
584.406	4.46
584.745	4.71
585.083	4.53
585.422	4.57
585.761	4.76
586.1	4.63
586.438	4.67
586.777	4.65
587.115	4.55
587.454	4.47
587.792	4.75
588.13	4.51
588.469	4.71
588.807	4.53
589.145	4.6
589.483	4.91
589.821	4.51
590.159	4.66
590.497	4.82
590.835	4.71
591.173	4.8
591.511	4.51
591.849	4.57
592.187	4.71
592.524	4.47
592.862	4.68
593.2	4.84
593.537	4.73
593.875	4.71
594.212	4.82
594.55	4.8
594.887	4.7
595.224	4.68
595.561	4.44
595.899	4.52
596.236	4.5
596.573	4.67
596.91	4.72
597.247	4.67
597.584	4.66
597.921	4.79
598.258	4.57
598.594	4.73
598.931	4.46
599.268	4.54
599.604	4.56
599.941	4.67
600.277	4.67
600.614	5.06
600.95	4.51
601.287	4.51
601.623	4.98
601.959	4.76
602.296	4.52
602.632	4.64
602.968	4.71
603.304	4.84
603.64	4.86
603.976	4.95
604.312	4.65
604.648	4.67
604.984	4.82
605.319	4.65
605.655	4.74
605.991	4.77
606.326	4.87
606.662	4.67
606.998	4.61
607.333	4.73
607.668	4.49
608.004	4.73
608.339	4.59
608.674	4.64
609.01	4.79
609.345	4.52
609.68	4.4
610.015	4.58
610.35	4.49
610.685	4.75
611.02	4.66
611.355	4.56
611.689	4.6
612.024	4.45
612.359	4.56
612.694	4.6
613.028	4.7
613.363	4.73
613.697	4.71
614.032	4.63
614.366	4.68
614.7	4.22
615.035	4.83
615.369	4.71
615.703	4.63
616.037	4.95
616.371	4.35
616.705	4.78
617.039	4.86
617.373	4.96
617.707	4.67
618.041	4.66
618.375	4.58
618.709	4.92
619.042	4.71
619.376	4.59
619.71	4.7
620.043	4.77
620.377	4.78
620.71	4.8
621.043	4.41
621.377	4.87
621.71	4.58
622.043	4.87
622.376	4.9
622.709	4.58
623.043	4.46
623.376	5.06
623.709	4.85
624.041	4.86
624.374	4.63
624.707	4.85
625.04	4.66
625.373	4.43
625.705	4.45
626.038	4.95
626.37	4.76
626.703	4.66
627.035	4.97
627.368	4.49
627.7	4.73
628.032	4.66
628.365	4.95
628.697	4.69
629.029	4.61
629.361	4.49
629.693	4.55
630.025	4.55
630.357	4.94
630.689	4.24
631.021	4.64
631.353	4.7
631.684	4.78
632.016	4.38
632.348	4.39
632.679	4.62
633.011	4.94
633.342	4.97
633.674	4.84
634.005	4.89
634.336	4.75
634.668	4.65
634.999	4.59
635.33	4.53
635.661	4.8
635.992	4.83
636.323	4.73
636.654	4.9
636.985	5.01
637.316	4.9
637.647	4.83
637.977	4.93
638.308	4.97
638.639	4.77
638.969	4.5
639.3	4.79
639.63	5.42
639.961	4.71
640.291	4.95
640.622	4.8
640.952	4.44
641.282	4.88
641.612	4.88
641.943	4.82
642.273	4.66
642.603	5.15
642.933	4.8
643.263	4.96
643.592	4.95
643.922	4.98
644.252	4.8
644.582	5.11
644.911	4.51
645.241	4.68
645.571	4.56
645.9	4.83
646.23	5.38
646.559	4.79
646.888	4.73
647.218	5.08
647.547	4.65
647.876	4.68
648.205	4.88
648.534	4.73
648.863	5.09
649.192	4.73
649.521	4.77
649.85	5.41
650.179	4.53
650.508	4.99
650.837	4.62
651.165	4.55
651.494	5.25
651.822	4.11
652.151	4.75
652.479	4.8
652.808	4.88
653.136	4.35
653.465	4.43
653.793	5.21
654.121	4.67
654.449	4.28
654.777	5.01
655.105	4.28
655.433	4.58
655.761	4.75
656.089	4.82
656.417	4.28
656.745	4.76
657.073	4.35
657.4	4.56
657.728	4.64
658.056	4.83
658.383	4.64
658.711	4.68
659.038	4.58
659.365	4.88
659.693	4.56
660.02	5.57
660.347	4.87
660.674	4.98
661.001	4.88
661.329	4.67
661.656	4.57
661.982	4.91
662.309	4.66
662.636	5.28
662.963	4.9
663.29	4.52
663.616	4.51
663.943	4.75
664.27	4.71
664.596	5.03
664.923	4.7
665.249	5.27
665.576	4.66
665.902	4.81
666.228	4.74
666.554	4.4
666.881	4.3
667.207	4.62
667.533	4.86
667.859	5.14
668.185	5.68
668.511	4.87
668.837	4.83
669.162	5.44
669.488	5.21
669.814	4.45
670.139	4.49
670.465	4.6
670.791	4.61
671.116	5.02
671.442	5.06
671.767	5.18
672.092	4.95
672.418	4.63
672.743	4.95
673.068	4.77
673.393	5.48
673.718	4.59
674.043	4.84
674.368	5.15
674.693	4.51
675.018	4.35
675.343	4.96
675.667	4.81
675.992	5.61
676.317	4.74
676.641	4.22
676.966	5.18
677.29	4.34
677.615	4.74
677.939	4.42
678.264	4.25
678.588	5.06
678.912	4.46
679.236	5.05
679.56	5.2
679.885	4.45
680.209	4.52
680.532	5.21
680.856	5.34
681.18	4.85
681.504	5.01
681.828	5.19
682.152	4.91
682.475	4.82
682.799	4.62
683.122	4.99
683.446	5.11
683.769	5.11
684.093	5.18
684.416	4.32
684.739	5.38
685.062	4.65
685.386	4.64
685.709	5.18
686.032	4.91
686.355	5.57
686.678	4.48
687.001	4.77
687.324	4.81
687.646	4.86
687.969	4.66
688.292	5.65
688.614	4.61
688.937	4.77
689.26	4.38
689.582	5.27
689.904	5.39
690.227	5.01
690.549	4.94
690.871	4.48
691.194	5.05
691.516	4.69
