Data from 20-10_chest_Reflection__2__153.txt Node

Date: Fri Nov 11 21:16:16 CST 2022
User: ToomeyLab
Spectrometer: FLMS14357
Trigger mode: 0
Integration Time (sec): 1.000000E-2
Scans to average: 100
Electric dark correction enabled: true
Nonlinearity correction enabled: false
Boxcar width: 0
XAxis mode: Wavelengths
Number of Pixels in Spectrum: 2048
>>>>>Begin Spectral Data<<<<<
189.047	17.2
189.435	17.2
189.823	17.2
190.211	-17.98
190.599	236.04
190.987	117.33
191.375	-73.22
191.763	71.05
192.151	-596.97
192.538	119.27
192.926	-153.39
193.314	85.45
193.702	111.2
194.089	139
194.477	57.57
194.864	155.66
195.252	65.9
195.639	505.49
196.027	29.03
196.414	62.71
196.801	122.46
197.189	177.73
197.576	2281.54
197.963	-129.1
198.351	-136.57
198.738	10.39
199.125	20.43
199.512	41.12
199.899	-122.17
200.286	22.83
200.673	-6.97
201.06	-2.3
201.447	23.9
201.833	7.04
202.22	-72.64
202.607	26.65
202.994	27.86
203.38	30.97
203.767	4.48
204.154	10.47
204.54	-22.78
204.927	-5.52
205.313	-19.42
205.699	-65.8
206.086	49.98
206.472	15.3
206.858	27.41
207.245	9.37
207.631	22.53
208.017	-15.38
208.403	-13.6
208.789	20.88
209.175	10.92
209.561	45.49
209.947	-65.88
210.333	-11.25
210.719	5.47
211.105	26.95
211.491	54.02
211.876	-1.01
212.262	31.32
212.648	19.44
213.034	-4.83
213.419	-104.92
213.805	-36.22
214.19	-25.16
214.576	21.41
214.961	-45.88
215.346	-8.21
215.732	-38.89
216.117	12.04
216.502	-9.71
216.888	-13.05
217.273	-4.43
217.658	-34.54
218.043	-12.11
218.428	-5.43
218.813	10.16
219.198	-1.17
219.583	25.99
219.968	-0.34
220.353	18.45
220.738	-16.45
221.122	10.16
221.507	-16.71
221.892	-3.99
222.276	16.26
222.661	12.95
223.046	-17.2
223.43	-10.79
223.815	-1.72
224.199	15.58
224.583	-5.86
224.968	-2.47
225.352	3.93
225.736	0.11
226.121	-9.23
226.505	4.77
226.889	-10.23
227.273	3.22
227.657	-4.24
228.041	0.99
228.425	0.03
228.809	5.18
229.193	6.73
229.577	4.58
229.961	5.2
230.344	4.47
230.728	3.6
231.112	3.86
231.495	4.35
231.879	2.96
232.263	1.88
232.646	2.05
233.03	4.5
233.413	4.79
233.797	4
234.18	-0.78
234.563	4.08
234.946	4.77
235.33	4.3
235.713	3.38
236.096	4.44
236.479	4.47
236.862	6.5
237.245	3.28
237.628	3.62
238.011	3.37
238.394	3.68
238.777	4.21
239.16	4.18
239.543	3.49
239.925	4.24
240.308	3.12
240.691	5.26
241.073	3.18
241.456	2.78
241.838	4.8
242.221	3.37
242.603	4.25
242.986	4.14
243.368	4.5
243.75	4.3
244.133	4.39
244.515	4.59
244.897	4.41
245.279	3.67
245.661	3.51
246.043	3.98
246.425	5.5
246.807	4.27
247.189	3.69
247.571	4.19
247.953	4.24
248.335	4.25
248.717	4.24
249.098	4.65
249.48	4.41
249.862	4.47
250.243	4.05
250.625	4.31
251.006	4.95
251.388	4.18
251.769	3.73
252.151	4.11
252.532	3.71
252.913	5
253.295	4.25
253.676	3.34
254.057	4.1
254.438	4.12
254.819	3.94
255.2	4.58
255.581	3.56
255.962	4.08
256.343	5.02
256.724	3.76
257.105	3.95
257.486	3.77
257.867	4.06
258.247	3.91
258.628	3.2
259.009	3.05
259.389	3.64
259.77	4.14
260.15	4.29
260.531	4.55
260.911	3.86
261.292	4.41
261.672	3.99
262.052	4.04
262.432	4.43
262.813	4.44
263.193	3.88
263.573	4.22
263.953	4.36
264.333	3.6
264.713	4.03
265.093	3.93
265.473	2.9
265.853	4.21
266.233	4.33
266.612	2.94
266.992	3.47
267.372	4.88
267.752	4.09
268.131	3.92
268.511	4.21
268.89	3.89
269.27	3.68
269.649	3.83
270.029	4.35
270.408	4.17
270.787	4.16
271.167	3.35
271.546	4.36
271.925	3.35
272.304	3.66
272.683	3.65
273.062	3.71
273.441	3.77
273.82	3.82
274.199	3.77
274.578	4.06
274.957	4.55
275.336	4.53
275.715	3.93
276.093	3.52
276.472	3.4
276.851	3.67
277.229	3.77
277.608	3.87
277.986	3.7
278.365	3.09
278.743	3.2
279.122	3.93
279.5	3.79
279.878	3.77
280.257	3.51
280.635	3.43
281.013	4.14
281.391	4
281.769	3.24
282.147	3.59
282.525	3.27
282.903	3.26
283.281	3.86
283.659	4.04
284.037	3.89
284.415	3.46
284.792	3.48
285.17	3.67
285.548	3.25
285.925	3.65
286.303	3.44
286.68	3.78
287.058	3.79
287.435	3.48
287.813	3.86
288.19	3.4
288.567	3.64
288.945	3.6
289.322	4
289.699	3.09
290.076	4.25
290.453	3.96
290.83	3.61
291.207	3.24
291.584	3.86
291.961	3.72
292.338	3.85
292.715	3.83
293.092	3.57
293.469	4.24
293.845	3.21
294.222	3.49
294.599	3.58
294.975	3.81
295.352	3.69
295.728	4
296.105	3.27
296.481	3.56
296.858	3.2
297.234	3.83
297.61	3.39
297.986	3.69
298.363	3.88
298.739	4.08
299.115	3.83
299.491	4.02
299.867	3.92
300.243	3.84
300.619	3.77
300.995	3.86
301.371	4.39
301.746	3.83
302.122	4.15
302.498	3.96
302.874	3.78
303.249	3.87
303.625	3.56
304	2.91
304.376	3.77
304.751	3.86
305.127	3.43
305.502	4.01
305.878	4.36
306.253	4.08
306.628	3.52
307.003	3.94
307.378	4.02
307.754	4.13
308.129	3.97
308.504	4.17
308.879	4.06
309.254	4.1
309.629	3.95
310.003	4.06
310.378	4.18
310.753	4.44
311.128	4.26
311.502	3.91
311.877	4.01
312.252	4.32
312.626	4.1
313.001	4.1
313.375	3.83
313.75	3.92
314.124	3.99
314.498	4.23
314.873	4.07
315.247	4.39
315.621	4.51
315.995	3.91
316.369	4.01
316.743	3.75
317.117	3.85
317.491	3.6
317.865	3.59
318.239	4.14
318.613	4.16
318.987	4.18
319.361	3.75
319.734	4.02
320.108	3.68
320.482	4.7
320.855	3.78
321.229	4.32
321.602	4.04
321.976	4.12
322.349	4.18
322.723	4.16
323.096	4.04
323.469	3.95
323.843	4.15
324.216	4
324.589	4.35
324.962	4.35
325.335	4.12
325.708	4.4
326.081	4.45
326.454	4.48
326.827	3.87
327.2	4.61
327.573	5.02
327.945	3.92
328.318	3.98
328.691	4.28
329.063	4.35
329.436	3.87
329.809	4.41
330.181	3.69
330.553	3.79
330.926	4.85
331.298	3.99
331.671	3.59
332.043	3.3
332.415	4.48
332.787	4.44
333.159	4.03
333.532	4.32
333.904	4.46
334.276	3.74
334.648	4.11
335.02	4.43
335.391	5.07
335.763	3.94
336.135	4.14
336.507	4.27
336.879	4.11
337.25	4.23
337.622	4.42
337.993	4.35
338.365	4.72
338.736	4.51
339.108	3.99
339.479	3.86
339.851	4.46
340.222	4.33
340.593	4.43
340.964	4.5
341.336	4.5
341.707	4.16
342.078	3.85
342.449	4.43
342.82	4.67
343.191	4.57
343.562	3.87
343.933	4.23
344.303	4.13
344.674	4.53
345.045	4.39
345.416	4.44
345.786	3.89
346.157	4.14
346.527	4.19
346.898	3.94
347.268	4.02
347.639	4.26
348.009	4.2
348.38	4.37
348.75	4.6
349.12	4.83
349.49	4.33
349.861	4.1
350.231	4.62
350.601	4.45
350.971	4.25
351.341	4.46
351.711	4.04
352.081	4.35
352.45	4.38
352.82	4.19
353.19	4.33
353.56	4.16
353.929	4.37
354.299	4.36
354.669	4.55
355.038	4.3
355.408	4.67
355.777	4.61
356.147	4.31
356.516	4.74
356.885	4.56
357.254	4.11
357.624	4.15
357.993	4.15
358.362	4.71
358.731	4.18
359.1	4.47
359.469	3.96
359.838	4.38
360.207	4.49
360.576	4.51
360.945	4.5
361.314	4.27
361.682	4.33
362.051	4.48
362.42	4.53
362.788	4.55
363.157	4.47
363.525	4.22
363.894	4.14
364.262	4.63
364.631	4.71
364.999	4.37
365.367	4.51
365.735	4.58
366.104	4.61
366.472	4.26
366.84	3.96
367.208	4.19
367.576	4.7
367.944	4.65
368.312	4.54
368.68	4.28
369.048	4.62
369.416	4.61
369.783	4.61
370.151	4.44
370.519	4.65
370.886	4.28
371.254	4.42
371.621	4.47
371.989	4.06
372.356	4.64
372.724	4.78
373.091	4.57
373.458	4.45
373.826	4.08
374.193	4.3
374.56	4.37
374.927	4.34
375.294	4.33
375.661	4.47
376.028	4.16
376.395	4.54
376.762	4.4
377.129	4.19
377.496	4.45
377.863	4.47
378.229	4.48
378.596	4.37
378.963	4.54
379.329	4.61
379.696	4.58
380.062	4.58
380.429	4.41
380.795	4.93
381.161	4.57
381.528	4.59
381.894	4.71
382.26	4.61
382.626	4.98
382.993	4.66
383.359	4.97
383.725	4.29
384.091	4.8
384.457	4.81
384.823	4.32
385.188	4.74
385.554	4.62
385.92	4.56
386.286	4.46
386.651	4.23
387.017	4.31
387.383	4.67
387.748	4.58
388.114	4.59
388.479	4.39
388.845	4.57
389.21	4.58
389.575	4.76
389.94	4.59
390.306	4.55
390.671	4.58
391.036	4.63
391.401	4.63
391.766	4.72
392.131	4.46
392.496	4.82
392.861	4.66
393.226	4.55
393.591	4.66
393.956	4.64
394.32	4.61
394.685	4.75
395.05	4.93
395.414	4.44
395.779	4.65
396.143	4.36
396.508	4.83
396.872	4.78
397.236	4.62
397.601	4.61
397.965	4.58
398.329	4.66
398.694	4.81
399.058	4.74
399.422	4.73
399.786	4.6
400.15	4.72
400.514	4.94
400.878	4.82
401.242	4.6
401.605	4.7
401.969	4.77
402.333	4.43
402.697	4.85
403.06	4.94
403.424	4.52
403.787	4.79
404.151	4.67
404.514	4.84
404.878	4.6
405.241	4.64
405.604	4.65
405.968	4.58
406.331	4.47
406.694	4.72
407.057	4.68
407.42	4.69
407.783	4.73
408.146	4.75
408.509	4.68
408.872	4.78
409.235	4.75
409.598	4.68
409.961	4.65
410.323	4.62
410.686	4.62
411.049	4.61
411.411	4.76
411.774	4.65
412.136	4.55
412.499	4.79
412.861	4.82
413.223	4.65
413.586	4.97
413.948	4.94
414.31	4.92
414.672	4.95
415.035	4.76
415.397	4.7
415.759	4.59
416.121	4.63
416.483	4.7
416.845	4.83
417.206	4.72
417.568	4.55
417.93	4.78
418.292	4.51
418.653	4.73
419.015	4.56
419.377	4.6
419.738	4.77
420.1	4.65
420.461	4.74
420.822	4.66
421.184	4.62
421.545	4.67
421.906	4.62
422.267	4.6
422.629	4.58
422.99	4.65
423.351	4.57
423.712	4.7
424.073	4.71
424.434	4.73
424.795	4.8
425.155	4.63
425.516	4.73
425.877	4.7
426.238	4.64
426.598	4.7
426.959	4.63
427.32	4.8
427.68	4.76
428.041	4.76
428.401	4.52
428.761	4.91
429.122	4.77
429.482	4.75
429.842	4.78
430.202	4.78
430.563	5.04
430.923	4.81
431.283	4.73
431.643	4.88
432.003	4.64
432.363	4.78
432.722	4.97
433.082	4.85
433.442	4.75
433.802	4.84
434.161	4.67
434.521	4.89
434.881	4.86
435.24	4.68
435.6	4.78
435.959	4.77
436.319	4.79
436.678	4.65
437.037	4.84
437.396	4.92
437.756	4.84
438.115	4.59
438.474	4.82
438.833	4.81
439.192	4.88
439.551	4.84
439.91	4.93
440.269	4.92
440.628	4.93
440.987	4.66
441.345	4.85
441.704	4.79
442.063	4.75
442.421	4.84
442.78	4.71
443.138	4.92
443.497	4.77
443.855	4.9
444.214	4.63
444.572	5.01
444.93	4.89
445.288	4.81
445.647	4.9
446.005	4.95
446.363	4.91
446.721	4.9
447.079	4.8
447.437	4.85
447.795	4.9
448.153	4.84
448.51	4.82
448.868	4.95
449.226	4.81
449.584	4.83
449.941	4.88
450.299	4.73
450.656	4.94
451.014	4.98
451.371	4.79
451.729	4.9
452.086	4.93
452.443	4.93
452.801	4.98
453.158	4.78
453.515	4.95
453.872	4.93
454.229	4.93
454.586	4.85
454.943	5.02
455.3	4.89
455.657	4.95
456.014	5.09
456.371	5.14
456.727	5.04
457.084	4.73
457.441	5.23
457.797	4.94
458.154	4.86
458.51	4.95
458.867	4.92
459.223	5.09
459.58	5
459.936	5.02
460.292	5.02
460.648	5.01
461.005	4.85
461.361	4.88
461.717	4.84
462.073	4.93
462.429	4.83
462.785	4.86
463.141	4.88
463.496	5.08
463.852	5.05
464.208	5.06
464.564	5
464.919	5.01
465.275	4.89
465.631	4.96
465.986	5.06
466.342	5.04
466.697	4.95
467.052	5.02
467.408	5.1
467.763	5.05
468.118	5.23
468.473	5.05
468.829	5.08
469.184	5.09
469.539	5.18
469.894	5.06
470.249	5.16
470.603	4.89
470.958	4.97
471.313	5.14
471.668	5.19
472.023	4.88
472.377	5.08
472.732	5.02
473.086	4.93
473.441	4.95
473.795	5.01
474.15	4.97
474.504	5.17
474.859	5.06
475.213	5.25
475.567	5.16
475.921	5.19
476.275	5.09
476.63	5.21
476.984	5.03
477.338	5.12
477.692	4.86
478.045	5
478.399	5.19
478.753	4.97
479.107	5.2
479.461	5.07
479.814	5.03
480.168	5.12
480.521	5.19
480.875	5.22
481.228	5.04
481.582	5.22
481.935	4.96
482.289	5.01
482.642	5.12
482.995	4.95
483.348	5.1
483.701	5.05
484.055	4.98
484.408	5.01
484.761	4.89
485.114	4.82
485.466	4.77
485.819	4.79
486.172	4.81
486.525	4.9
486.878	4.89
487.23	4.9
487.583	4.94
487.936	4.99
488.288	4.98
488.641	4.93
488.993	4.93
489.345	4.89
489.698	4.9
490.05	4.89
490.402	4.9
490.754	5.04
491.107	4.9
491.459	5.02
491.811	5.04
492.163	5.13
492.515	5.05
492.866	4.97
493.218	4.95
493.57	4.93
493.922	4.97
494.274	5.04
494.625	5.04
494.977	5.16
495.328	5.19
495.68	5.08
496.031	5.08
496.383	5.18
496.734	5.18
497.086	5.2
497.437	5.23
497.788	5.19
498.139	5.17
498.49	5.1
498.842	5.13
499.193	5.17
499.544	5.18
499.894	5.23
500.245	5.25
500.596	5.23
500.947	5.22
501.298	5.19
501.648	5.22
501.999	5.24
502.35	5.42
502.7	5.25
503.051	5.28
503.401	5.34
503.752	5.22
504.102	5.27
504.452	5.26
504.803	5.31
505.153	5.25
505.503	5.29
505.853	5.25
506.203	5.35
506.553	5.17
506.903	5.23
507.253	5.37
507.603	5.34
507.953	5.35
508.303	5.06
508.652	5.27
509.002	5.13
509.352	5.37
509.701	5.42
510.051	5.27
510.4	5.35
510.75	5.32
511.099	5.27
511.449	5.37
511.798	5.33
512.147	5.22
512.496	5.38
512.846	5.44
513.195	5.4
513.544	5.3
513.893	5.23
514.242	5.39
514.591	5.35
514.939	5.43
515.288	5.48
515.637	5.4
515.986	5.43
516.334	5.49
516.683	5.4
517.032	5.42
517.38	5.46
517.729	5.58
518.077	5.48
518.426	5.51
518.774	5.46
519.122	5.51
519.47	5.51
519.819	5.43
520.167	5.38
520.515	5.48
520.863	5.47
521.211	5.5
521.559	5.46
521.907	5.55
522.255	5.43
522.602	5.5
522.95	5.51
523.298	5.64
523.645	5.55
523.993	5.67
524.341	5.63
524.688	5.64
525.036	5.72
525.383	5.64
525.73	5.53
526.078	5.52
526.425	5.49
526.772	5.48
527.119	5.41
527.466	5.58
527.814	5.55
528.161	5.53
528.508	5.56
528.854	5.52
529.201	5.48
529.548	5.48
529.895	5.39
530.242	5.37
530.588	5.38
530.935	5.4
531.282	5.49
531.628	5.45
531.975	5.51
532.321	5.5
532.667	5.6
533.014	5.6
533.36	5.57
533.706	5.73
534.052	5.53
534.399	5.54
534.745	5.59
535.091	5.56
535.437	5.56
535.783	5.61
536.129	5.66
536.474	5.73
536.82	5.61
537.166	5.69
537.512	5.75
537.857	5.77
538.203	5.66
538.549	5.8
538.894	5.73
539.239	5.8
539.585	5.81
539.93	5.8
540.276	6.06
540.621	5.87
540.966	5.95
541.311	5.89
541.656	5.96
542.001	5.88
542.346	5.87
542.691	5.72
543.036	5.69
543.381	5.76
543.726	5.74
544.071	5.78
544.415	5.82
544.76	5.86
545.105	5.83
545.449	5.8
545.794	5.9
546.138	5.93
546.483	6
546.827	6.1
547.171	6.02
547.516	5.93
547.86	6.04
548.204	6.05
548.548	5.97
548.892	6.03
549.236	6.04
549.58	6.07
549.924	6.2
550.268	6.21
550.612	6.37
550.956	6.38
551.3	6.06
551.643	6.19
551.987	6.28
552.33	6.13
552.674	6.12
553.017	6.39
553.361	6.27
553.704	6.32
554.048	6.21
554.391	6.28
554.734	6.3
555.077	6.3
555.42	6.31
555.764	6.38
556.107	6.39
556.45	6.41
556.793	6.44
557.135	6.5
557.478	6.26
557.821	6.45
558.164	6.21
558.507	6.34
558.849	6.43
559.192	6.43
559.534	6.31
559.877	6.71
560.219	6.6
560.562	6.56
560.904	6.62
561.246	6.34
561.589	6.46
561.931	6.46
562.273	6.48
562.615	6.52
562.957	6.6
563.299	6.65
563.641	6.49
563.983	6.52
564.325	6.47
564.667	6.71
565.008	6.89
565.35	6.64
565.692	6.56
566.033	6.66
566.375	6.81
566.716	6.74
567.058	6.98
567.399	7.07
567.741	6.84
568.082	6.8
568.423	6.89
568.764	6.95
569.105	6.81
569.447	6.95
569.788	7
570.129	6.88
570.47	6.77
570.811	6.92
571.151	6.94
571.492	7.08
571.833	6.94
572.174	7.12
572.514	7.03
572.855	6.98
573.195	6.79
573.536	7.08
573.876	6.99
574.217	7.24
574.557	7.14
574.898	7.22
575.238	7.05
575.578	7.07
575.918	7.22
576.258	7.43
576.598	7.2
576.938	7.22
577.278	7.12
577.618	7.2
577.958	7.17
578.298	7.27
578.638	7.25
578.977	7.46
579.317	7.46
579.657	7.37
579.996	7.17
580.336	7.39
580.675	7.41
581.014	7.43
581.354	7.45
581.693	7.18
582.032	7.41
582.372	7.48
582.711	7.49
583.05	7.67
583.389	7.44
583.728	7.8
584.067	7.64
584.406	7.66
584.745	7.61
585.083	7.6
585.422	7.74
585.761	7.61
586.1	7.85
586.438	7.7
586.777	7.63
587.115	7.67
587.454	7.69
587.792	7.86
588.13	7.72
588.469	7.65
588.807	7.75
589.145	7.82
589.483	7.89
589.821	7.88
590.159	7.95
590.497	8.07
590.835	7.85
591.173	7.97
591.511	7.85
591.849	7.92
592.187	7.88
592.524	7.76
592.862	7.77
593.2	7.98
593.537	8.18
593.875	8.24
594.212	8.06
594.55	8.09
594.887	8.15
595.224	8.15
595.561	8.03
595.899	8.16
596.236	8.19
596.573	8.31
596.91	8.34
597.247	8.16
597.584	8.16
597.921	8.42
598.258	8.26
598.594	8.3
598.931	8.21
599.268	8.48
599.604	8.42
599.941	8.38
600.277	8.4
600.614	8.45
600.95	8.38
601.287	8.49
601.623	8.95
601.959	8.64
602.296	8.21
602.632	8.6
602.968	8.5
603.304	8.49
603.64	8.75
603.976	8.71
604.312	8.87
604.648	8.53
604.984	8.5
605.319	8.61
605.655	8.7
605.991	8.64
606.326	8.84
606.662	8.81
606.998	8.64
607.333	8.69
607.668	8.77
608.004	8.81
608.339	8.8
608.674	8.91
609.01	9.03
609.345	8.91
609.68	8.79
610.015	8.99
610.35	8.9
610.685	9.01
611.02	8.81
611.355	8.86
611.689	8.94
612.024	9.11
612.359	8.94
612.694	8.79
613.028	9.14
613.363	8.94
613.697	9.32
614.032	9.42
614.366	8.82
614.7	9.28
615.035	9.02
615.369	9.02
615.703	9.24
616.037	9.42
616.371	9.13
616.705	9.15
617.039	9.55
617.373	9.26
617.707	9.2
618.041	9.44
618.375	9
618.709	9.42
619.042	9.67
619.376	9.37
619.71	9.71
620.043	9.73
620.377	9.48
620.71	9.54
621.043	9.45
621.377	9.71
621.71	9.44
622.043	9.65
622.376	9.69
622.709	9.44
623.043	9.56
623.376	9.77
623.709	9.79
624.041	9.91
624.374	9.34
624.707	10.11
625.04	9.6
625.373	9.59
625.705	10.03
626.038	10.07
626.37	9.86
626.703	9.81
627.035	10.01
627.368	9.65
627.7	9.91
628.032	10.07
628.365	10.39
628.697	10.3
629.029	10.12
629.361	9.76
629.693	10.24
630.025	9.89
630.357	10.19
630.689	10.11
631.021	10.22
631.353	10.67
631.684	10.36
632.016	10.23
632.348	10.29
632.679	10.1
633.011	10.69
633.342	10.44
633.674	10.43
634.005	10.43
634.336	10.62
634.668	10.52
634.999	10.66
635.33	10.42
635.661	10.76
635.992	10.51
636.323	10.63
636.654	10.8
636.985	10.87
637.316	10.83
637.647	10.81
637.977	10.72
638.308	10.98
638.639	10.73
638.969	10.47
639.3	11.02
639.63	10.92
639.961	10.83
640.291	10.95
640.622	11
640.952	10.89
641.282	10.66
641.612	10.65
641.943	10.93
642.273	10.94
642.603	11.13
642.933	11.31
643.263	10.91
643.592	11.45
643.922	11.43
644.252	11.34
644.582	11.32
644.911	10.78
645.241	11.06
645.571	10.99
645.9	11.56
646.23	11.58
646.559	11.71
646.888	11.52
647.218	11.47
647.547	11.14
647.876	11.28
648.205	11.4
648.534	11.05
648.863	11.55
649.192	11.31
649.521	10.96
649.85	12.25
650.179	11.43
650.508	11.44
650.837	11.65
651.165	11.47
651.494	11.97
651.822	11.89
652.151	11.58
652.479	11.72
652.808	11.66
653.136	11.58
653.465	12.06
653.793	11.95
654.121	11.92
654.449	11.34
654.777	11.96
655.105	12.04
655.433	12.25
655.761	11.91
656.089	12
656.417	11.76
656.745	11.87
657.073	11.92
657.4	11.89
657.728	12.16
658.056	12.16
658.383	11.53
658.711	12.22
659.038	12.12
659.365	12.07
659.693	12.05
660.02	12.85
660.347	12.38
660.674	12.34
661.001	12.25
661.329	12.14
661.656	12.14
661.982	12.82
662.309	12.39
662.636	12.48
662.963	12.67
663.29	12.37
663.616	11.91
663.943	12.84
664.27	12.55
664.596	12.92
664.923	12.8
665.249	12.85
665.576	12.63
665.902	12.84
666.228	12.56
666.554	12.82
666.881	12.41
667.207	12.85
667.533	13.01
667.859	13.1
668.185	12.66
668.511	12.7
668.837	13.07
669.162	13.16
669.488	12.76
669.814	13.4
670.139	12.88
670.465	12.73
670.791	12.6
671.116	13.19
671.442	13.33
671.767	13.56
672.092	12.88
672.418	13.11
672.743	13.1
673.068	13.44
673.393	13.49
673.718	14.03
674.043	13.42
674.368	13.48
674.693	12.91
675.018	13.29
675.343	13.26
675.667	13.57
675.992	13.98
676.317	13.59
676.641	13.61
676.966	13.67
677.29	12.95
677.615	13.63
677.939	13.82
678.264	13.37
678.588	13.56
678.912	13.31
679.236	14.34
679.56	13.67
679.885	13.65
680.209	13.56
680.532	14.06
680.856	14.14
681.18	13.99
681.504	13.54
681.828	13.78
682.152	13.98
682.475	13.73
682.799	13.68
683.122	13.68
683.446	14.41
683.769	14.38
684.093	13.74
684.416	14.26
684.739	14.36
685.062	13.74
685.386	14.1
685.709	14.28
686.032	13.63
686.355	14.38
686.678	14.79
687.001	13.87
687.324	14.23
687.646	13.87
687.969	14.44
