Data from 20-10_crown_Reflection__3__159.txt Node

Date: Fri Nov 11 21:17:53 CST 2022
User: ToomeyLab
Spectrometer: FLMS14357
Trigger mode: 0
Integration Time (sec): 1.000000E-2
Scans to average: 100
Electric dark correction enabled: true
Nonlinearity correction enabled: false
Boxcar width: 0
XAxis mode: Wavelengths
Number of Pixels in Spectrum: 2048
>>>>>Begin Spectral Data<<<<<
189.047	55.05
189.435	55.05
189.823	55.05
190.211	23.51
190.599	-25.19
190.987	122.4
191.375	175.36
191.763	28.18
192.151	-2412.12
192.538	52.22
192.926	46.9
193.314	106.65
193.702	144.35
194.089	153.34
194.477	135.02
194.864	71.81
195.252	85.98
195.639	874.81
196.027	167.37
196.414	34.22
196.801	79.77
197.189	60.62
197.576	-1323.08
197.963	-831.81
198.351	-195.16
198.738	10.72
199.125	5.99
199.512	17.58
199.899	-270.48
200.286	6.55
200.673	-15.6
201.06	-9.61
201.447	22.23
201.833	23.8
202.22	-77.87
202.607	12.59
202.994	40.07
203.38	35.97
203.767	35.45
204.154	10.69
204.54	-22.72
204.927	2.62
205.313	11.12
205.699	-35.51
206.086	55.81
206.472	-1.45
206.858	15.39
207.245	8.72
207.631	-9.73
208.017	36.23
208.403	56.11
208.789	8.01
209.175	7.55
209.561	41.22
209.947	-20.38
210.333	-25.71
210.719	10.78
211.105	32.72
211.491	23.84
211.876	26.66
212.262	38.22
212.648	5.08
213.034	-11.14
213.419	-17.36
213.805	16.57
214.19	-25.51
214.576	7.99
214.961	-97.22
215.346	-59.69
215.732	-25.73
216.117	44.8
216.502	38.82
216.888	13.05
217.273	-0.5
217.658	-20.71
218.043	2.51
218.428	-17.24
218.813	-11.81
219.198	-7.07
219.583	-6.51
219.968	7.64
220.353	-39.13
220.738	-19.74
221.122	-9.32
221.507	-47.5
221.892	-0.93
222.276	1.16
222.661	11.72
223.046	-18.62
223.43	-13.3
223.815	-5.21
224.199	9.05
224.583	-3.64
224.968	-16.74
225.352	1.39
225.736	-2.05
226.121	-0.55
226.505	3.19
226.889	-9.22
227.273	2.72
227.657	-3.88
228.041	0.51
228.425	-3.58
228.809	0.63
229.193	3.27
229.577	2.58
229.961	2.8
230.344	2.33
230.728	1.73
231.112	1.57
231.495	1.81
231.879	1.53
232.263	1.39
232.646	2.4
233.03	2.09
233.413	3.23
233.797	1.55
234.18	0.89
234.563	2.76
234.946	1.38
235.33	2.43
235.713	2.37
236.096	2.24
236.479	1.21
236.862	2.67
237.245	1.47
237.628	2.58
238.011	2.41
238.394	2.79
238.777	2.15
239.16	2.9
239.543	1.16
239.925	2.09
240.308	2.01
240.691	2.43
241.073	2.04
241.456	0.75
241.838	3.24
242.221	2.81
242.603	3.29
242.986	1.54
243.368	2.74
243.75	2.79
244.133	2.39
244.515	2.21
244.897	2.98
245.279	1.42
245.661	1.96
246.043	0.76
246.425	3.37
246.807	1.66
247.189	2.24
247.571	2.66
247.953	2.6
248.335	2.68
248.717	2.74
249.098	2.66
249.48	2.32
249.862	2.82
250.243	2.25
250.625	2.58
251.006	3.25
251.388	2.56
251.769	2.76
252.151	3.17
252.532	1.46
252.913	2.53
253.295	2.06
253.676	1.9
254.057	2.39
254.438	2.61
254.819	2.33
255.2	3.42
255.581	1.69
255.962	1.94
256.343	3.17
256.724	0.58
257.105	1.85
257.486	3.32
257.867	3.49
258.247	1.44
258.628	2.35
259.009	2.32
259.389	2.07
259.77	3.1
260.15	2.5
260.531	2.65
260.911	2.41
261.292	2.62
261.672	2.27
262.052	2.48
262.432	2.62
262.813	2.82
263.193	2.37
263.573	2.39
263.953	2.64
264.333	1.95
264.713	2.33
265.093	2.08
265.473	1.44
265.853	2.48
266.233	2.07
266.612	2.06
266.992	1.36
267.372	2.88
267.752	2.16
268.131	2.17
268.511	2.39
268.89	2.25
269.27	2.22
269.649	2.05
270.029	2.36
270.408	1.7
270.787	1.81
271.167	1.3
271.546	2.47
271.925	2.35
272.304	2.15
272.683	2.25
273.062	2.23
273.441	2.28
273.82	2.78
274.199	2.03
274.578	2.05
274.957	2.57
275.336	2.84
275.715	1.87
276.093	1.77
276.472	1.9
276.851	1.59
277.229	2.01
277.608	2.41
277.986	2.62
278.365	1.89
278.743	2.08
279.122	2.46
279.5	1.88
279.878	2.54
280.257	2.57
280.635	2.03
281.013	2.46
281.391	1.9
281.769	1.98
282.147	1.96
282.525	1.46
282.903	2.13
283.281	2.2
283.659	2.56
284.037	2.28
284.415	2.06
284.792	2.19
285.17	2.55
285.548	1.79
285.925	1.81
286.303	2.1
286.68	2.43
287.058	2.09
287.435	2
287.813	2.58
288.19	2.07
288.567	2.32
288.945	2
289.322	2.43
289.699	1.36
290.076	2.45
290.453	2.32
290.83	2.04
291.207	2.58
291.584	2.4
291.961	2.07
292.338	2.33
292.715	2.22
293.092	2.3
293.469	2.07
293.845	2.27
294.222	1.79
294.599	2.2
294.975	2.19
295.352	2.06
295.728	2.29
296.105	2.12
296.481	1.87
296.858	1.79
297.234	1.88
297.61	1.73
297.986	2.46
298.363	2.4
298.739	2.15
299.115	2.45
299.491	2.67
299.867	2.09
300.243	1.88
300.619	2.32
300.995	2.33
301.371	3.03
301.746	2.7
302.122	2.23
302.498	2.45
302.874	2.38
303.249	1.92
303.625	1.67
304	2.03
304.376	2.21
304.751	2.03
305.127	2.3
305.502	2.14
305.878	2.57
306.253	2.68
306.628	2.19
307.003	2.81
307.378	2.45
307.754	2.51
308.129	2.54
308.504	2.3
308.879	2.05
309.254	2.38
309.629	1.75
310.003	2.43
310.378	2.74
310.753	2.53
311.128	2.51
311.502	2.89
311.877	2.25
312.252	2.45
312.626	2.26
313.001	1.95
313.375	2.07
313.75	2.14
314.124	1.87
314.498	2.35
314.873	2
315.247	2.81
315.621	2.46
315.995	2.46
316.369	2.79
316.743	2.59
317.117	2.49
317.491	2.19
317.865	1.59
318.239	2.51
318.613	2.47
318.987	2.46
319.361	1.79
319.734	2.8
320.108	2.25
320.482	3.02
320.855	2.17
321.229	2.58
321.602	2.44
321.976	2.67
322.349	2.65
322.723	2.54
323.096	2.34
323.469	2.44
323.843	2.47
324.216	2.23
324.589	2.76
324.962	2.76
325.335	2.28
325.708	2.52
326.081	2.66
326.454	2.38
326.827	2.37
327.2	2.94
327.573	3.19
327.945	2.52
328.318	2.53
328.691	2.66
329.063	2.53
329.436	2.01
329.809	2.15
330.181	2.16
330.553	2.09
330.926	2.57
331.298	2.49
331.671	2.7
332.043	1.79
332.415	2.6
332.787	2.81
333.159	2.72
333.532	3.02
333.904	2.7
334.276	2.09
334.648	2.15
335.02	2.57
335.391	2.65
335.763	2.34
336.135	2.8
336.507	2.23
336.879	2.76
337.25	2.44
337.622	2.93
337.993	2.85
338.365	2.75
338.736	2.95
339.108	2.67
339.479	2.56
339.851	2.61
340.222	2.18
340.593	2.69
340.964	2.84
341.336	2.68
341.707	2.45
342.078	2.53
342.449	2.87
342.82	2.71
343.191	2.79
343.562	2.94
343.933	2.54
344.303	2.37
344.674	2.79
345.045	2.08
345.416	2.6
345.786	2.44
346.157	2.56
346.527	2.66
346.898	2.14
347.268	2.47
347.639	2.45
348.009	2.28
348.38	2.36
348.75	2.76
349.12	3.24
349.49	2.9
349.861	2.81
350.231	2.8
350.601	2.61
350.971	2.24
351.341	2.72
351.711	2.64
352.081	2.82
352.45	2.6
352.82	2.16
353.19	2.88
353.56	2.5
353.929	2.09
354.299	2.49
354.669	2.87
355.038	2.81
355.408	2.42
355.777	2.65
356.147	2.81
356.516	2.55
356.885	2.9
357.254	2.67
357.624	2.22
357.993	2.5
358.362	2.81
358.731	2.11
359.1	2.51
359.469	2.33
359.838	2.47
360.207	2.79
360.576	2.7
360.945	2.84
361.314	2.5
361.682	2.73
362.051	2.88
362.42	2.9
362.788	2.88
363.157	2.71
363.525	2.52
363.894	2.57
364.262	2.78
364.631	2.67
364.999	2.4
365.367	2.75
365.735	2.6
366.104	2.5
366.472	2.43
366.84	2.11
367.208	2.65
367.576	3.17
367.944	2.93
368.312	2.57
368.68	2.8
369.048	2.41
369.416	2.69
369.783	2.81
370.151	2.8
370.519	2.89
370.886	2.75
371.254	2.98
371.621	2.7
371.989	2.71
372.356	2.92
372.724	2.92
373.091	2.7
373.458	2.63
373.826	2.65
374.193	2.65
374.56	2.58
374.927	2.49
375.294	2.79
375.661	3.16
376.028	2.54
376.395	2.93
376.762	2.73
377.129	2.47
377.496	2.82
377.863	2.75
378.229	2.72
378.596	2.54
378.963	2.65
379.329	2.89
379.696	2.74
380.062	2.72
380.429	2.97
380.795	2.9
381.161	2.96
381.528	2.79
381.894	3.1
382.26	2.97
382.626	3.05
382.993	2.72
383.359	2.82
383.725	2.81
384.091	2.96
384.457	2.69
384.823	2.75
385.188	2.68
385.554	2.88
385.92	2.71
386.286	2.82
386.651	2.91
387.017	2.71
387.383	2.69
387.748	2.49
388.114	2.76
388.479	2.73
388.845	2.69
389.21	2.63
389.575	3.08
389.94	2.78
390.306	2.71
390.671	2.96
391.036	2.91
391.401	2.97
391.766	2.99
392.131	2.71
392.496	2.8
392.861	2.74
393.226	2.87
393.591	2.86
393.956	2.78
394.32	2.81
394.685	2.85
395.05	3
395.414	2.86
395.779	2.74
396.143	2.72
396.508	2.91
396.872	3.03
397.236	2.62
397.601	2.87
397.965	2.92
398.329	3.02
398.694	2.71
399.058	2.89
399.422	3
399.786	2.7
400.15	2.84
400.514	2.83
400.878	3.07
401.242	2.78
401.605	3.01
401.969	2.98
402.333	2.71
402.697	2.89
403.06	3.08
403.424	2.54
403.787	2.82
404.151	3.04
404.514	2.93
404.878	2.99
405.241	2.8
405.604	2.91
405.968	3.11
406.331	2.57
406.694	2.9
407.057	3
407.42	3.04
407.783	2.89
408.146	3.03
408.509	2.99
408.872	2.88
409.235	3.01
409.598	2.82
409.961	3.07
410.323	2.97
410.686	3.02
411.049	2.6
411.411	3.06
411.774	2.95
412.136	2.86
412.499	2.94
412.861	2.96
413.223	2.75
413.586	2.98
413.948	3.14
414.31	2.98
414.672	2.93
415.035	2.94
415.397	2.71
415.759	2.75
416.121	3.05
416.483	2.85
416.845	2.92
417.206	2.64
417.568	2.9
417.93	2.8
418.292	2.83
418.653	3.06
419.015	3.01
419.377	2.9
419.738	2.96
420.1	2.91
420.461	2.95
420.822	2.88
421.184	2.91
421.545	2.89
421.906	2.86
422.267	2.82
422.629	2.74
422.99	2.91
423.351	2.8
423.712	2.87
424.073	2.99
424.434	3
424.795	3.02
425.155	2.95
425.516	2.89
425.877	2.88
426.238	2.91
426.598	2.88
426.959	2.85
427.32	2.95
427.68	3.06
428.041	3.06
428.401	2.8
428.761	3.02
429.122	3.03
429.482	3.01
429.842	2.92
430.202	2.99
430.563	3.14
430.923	2.93
431.283	2.9
431.643	2.81
432.003	3.07
432.363	2.92
432.722	3.18
433.082	3.02
433.442	3.11
433.802	3.09
434.161	2.97
434.521	2.96
434.881	3.13
435.24	2.97
435.6	2.96
435.959	2.95
436.319	2.82
436.678	3.07
437.037	2.93
437.396	3.19
437.756	3.03
438.115	3.03
438.474	2.89
438.833	2.97
439.192	3.02
439.551	2.94
439.91	3.13
440.269	3.13
440.628	3.14
440.987	3.14
441.345	3.18
441.704	3.07
442.063	3.03
442.421	3.05
442.78	2.87
443.138	3.01
443.497	2.93
443.855	3.15
444.214	3
444.572	3.15
444.93	3.01
445.288	2.97
445.647	3.12
446.005	3.17
446.363	3.16
446.721	3
447.079	3.12
447.437	3.03
447.795	3.07
448.153	3.01
448.51	3
448.868	3.1
449.226	2.94
449.584	3.03
449.941	3.11
450.299	3.02
450.656	3.14
451.014	3.21
451.371	3.19
451.729	3.01
452.086	3.22
452.443	3.09
452.801	3.13
453.158	3.03
453.515	3.13
453.872	3.1
454.229	3.11
454.586	3.14
454.943	3.18
455.3	3.28
455.657	3.15
456.014	3.26
456.371	3.25
456.727	3.28
457.084	2.74
457.441	3.09
457.797	3.17
458.154	3.16
458.51	3.16
458.867	3.04
459.223	3.24
459.58	3.19
459.936	3.11
460.292	3.25
460.648	3.2
461.005	3.11
461.361	3.11
461.717	3.07
462.073	3.14
462.429	3.07
462.785	3.08
463.141	3.09
463.496	3.12
463.852	3.29
464.208	3.27
464.564	3.13
464.919	3.11
465.275	3.14
465.631	3.3
465.986	3.41
466.342	3.27
466.697	3.08
467.052	3.12
467.408	3.23
467.763	3.16
468.118	3.21
468.473	3.28
468.829	3.09
469.184	3.28
469.539	3.11
469.894	3.37
470.249	3.35
470.603	3.16
470.958	3.31
471.313	3.29
471.668	3.35
472.023	3.06
472.377	3.31
472.732	3.36
473.086	3.24
473.441	3.28
473.795	3.24
474.15	3.37
474.504	3.49
474.859	3.3
475.213	3.41
475.567	3.38
475.921	3.35
476.275	3.18
476.63	3.16
476.984	3.33
477.338	3.33
477.692	3.27
478.045	3.24
478.399	3.44
478.753	3.21
479.107	3.16
479.461	3.18
479.814	3.23
480.168	3.19
480.521	3.27
480.875	3.42
481.228	3.42
481.582	3.38
481.935	3.24
482.289	3.15
482.642	3.26
482.995	3.26
483.348	3.23
483.701	3.26
484.055	3.22
484.408	3.17
484.761	3.1
485.114	3.02
485.466	2.97
485.819	3
486.172	3.07
486.525	3.13
486.878	3.19
487.23	3.17
487.583	3.2
487.936	3.2
488.288	3.24
488.641	3.15
488.993	3.1
489.345	3.07
489.698	3.15
490.05	3.1
490.402	3.16
490.754	3.18
491.107	3.15
491.459	3.25
491.811	3.3
492.163	3.33
492.515	3.25
492.866	3.21
493.218	3.15
493.57	3.12
493.922	3.18
494.274	3.16
494.625	3.25
494.977	3.32
495.328	3.38
495.68	3.34
496.031	3.31
496.383	3.36
496.734	3.24
497.086	3.42
497.437	3.35
497.788	3.27
498.139	3.33
498.49	3.31
498.842	3.2
499.193	3.35
499.544	3.33
499.894	3.35
500.245	3.33
500.596	3.35
500.947	3.37
501.298	3.4
501.648	3.41
501.999	3.37
502.35	3.51
502.7	3.36
503.051	3.43
503.401	3.37
503.752	3.35
504.102	3.44
504.452	3.45
504.803	3.36
505.153	3.36
505.503	3.4
505.853	3.35
506.203	3.46
506.553	3.37
506.903	3.43
507.253	3.41
507.603	3.43
507.953	3.44
508.303	3.27
508.652	3.43
509.002	3.4
509.352	3.38
509.701	3.37
510.051	3.4
510.4	3.43
510.75	3.28
511.099	3.27
511.449	3.37
511.798	3.36
512.147	3.35
512.496	3.26
512.846	3.46
513.195	3.33
513.544	3.43
513.893	3.25
514.242	3.36
514.591	3.46
514.939	3.5
515.288	3.46
515.637	3.44
515.986	3.35
516.334	3.45
516.683	3.51
517.032	3.47
517.38	3.41
517.729	3.42
518.077	3.43
518.426	3.54
518.774	3.5
519.122	3.45
519.47	3.45
519.819	3.45
520.167	3.38
520.515	3.34
520.863	3.37
521.211	3.39
521.559	3.34
521.907	3.47
522.255	3.45
522.602	3.48
522.95	3.41
523.298	3.52
523.645	3.49
523.993	3.47
524.341	3.51
524.688	3.42
525.036	3.46
525.383	3.51
525.73	3.48
526.078	3.47
526.425	3.41
526.772	3.45
527.119	3.38
527.466	3.37
527.814	3.38
528.161	3.46
528.508	3.43
528.854	3.39
529.201	3.36
529.548	3.33
529.895	3.26
530.242	3.23
530.588	3.21
530.935	3.24
531.282	3.35
531.628	3.36
531.975	3.42
532.321	3.32
532.667	3.46
533.014	3.42
533.36	3.43
533.706	3.52
534.052	3.32
534.399	3.42
534.745	3.43
535.091	3.37
535.437	3.29
535.783	3.35
536.129	3.47
536.474	3.5
536.82	3.42
537.166	3.54
537.512	3.37
537.857	3.43
538.203	3.4
538.549	3.52
538.894	3.44
539.239	3.45
539.585	3.48
539.93	3.47
540.276	3.52
540.621	3.51
540.966	3.53
541.311	3.51
541.656	3.46
542.001	3.45
542.346	3.46
542.691	3.37
543.036	3.29
543.381	3.34
543.726	3.33
544.071	3.42
544.415	3.43
544.76	3.54
545.105	3.46
545.449	3.32
545.794	3.53
546.138	3.44
546.483	3.58
546.827	3.65
547.171	3.63
547.516	3.48
547.86	3.45
548.204	3.55
548.548	3.46
548.892	3.51
549.236	3.47
549.58	3.6
549.924	3.54
550.268	3.52
550.612	3.63
550.956	3.71
551.3	3.58
551.643	3.68
551.987	3.72
552.33	3.65
552.674	3.47
553.017	3.65
553.361	3.61
553.704	3.6
554.048	3.54
554.391	3.6
554.734	3.53
555.077	3.68
555.42	3.48
555.764	3.55
556.107	3.62
556.45	3.8
556.793	3.57
557.135	3.57
557.478	3.59
557.821	3.74
558.164	3.52
558.507	3.71
558.849	3.71
559.192	3.57
559.534	3.6
559.877	3.65
560.219	3.67
560.562	3.54
560.904	3.69
561.246	3.57
561.589	3.63
561.931	3.44
562.273	3.66
562.615	3.63
562.957	3.66
563.299	3.52
563.641	3.54
563.983	3.51
564.325	3.69
564.667	3.75
565.008	3.75
565.35	3.62
565.692	3.31
566.033	3.46
566.375	3.7
566.716	3.58
567.058	3.7
567.399	3.83
567.741	3.52
568.082	3.71
568.423	3.55
568.764	3.69
569.105	3.52
569.447	3.78
569.788	3.77
570.129	3.62
570.47	3.67
570.811	3.7
571.151	3.76
571.492	3.83
571.833	3.65
572.174	3.74
572.514	3.69
572.855	3.63
573.195	3.66
573.536	3.81
573.876	3.61
574.217	3.71
574.557	3.61
574.898	3.61
575.238	3.75
575.578	3.65
575.918	3.73
576.258	3.74
576.598	3.66
576.938	3.72
577.278	3.53
577.618	3.61
577.958	3.64
578.298	3.75
578.638	3.71
578.977	3.76
579.317	3.84
579.657	3.75
579.996	3.63
580.336	3.69
580.675	3.81
581.014	3.81
581.354	3.62
581.693	3.75
582.032	3.65
582.372	3.66
582.711	3.8
583.05	3.7
583.389	3.65
583.728	3.83
584.067	3.77
584.406	3.5
584.745	3.93
585.083	3.57
585.422	3.47
585.761	3.78
586.1	3.82
586.438	3.66
586.777	3.61
587.115	3.69
587.454	3.6
587.792	3.68
588.13	3.57
588.469	3.59
588.807	3.69
589.145	3.7
589.483	3.82
589.821	3.93
590.159	3.72
590.497	3.97
590.835	3.82
591.173	3.93
591.511	3.7
591.849	3.83
592.187	3.76
592.524	3.62
592.862	3.69
593.2	3.83
593.537	3.76
593.875	3.99
594.212	3.66
594.55	3.66
594.887	3.81
595.224	3.86
595.561	3.84
595.899	3.66
596.236	3.81
596.573	3.73
596.91	3.89
597.247	3.81
597.584	3.79
597.921	3.98
598.258	3.69
598.594	3.76
598.931	3.74
599.268	3.72
599.604	3.79
599.941	3.83
600.277	3.91
600.614	4.07
600.95	3.69
601.287	3.75
601.623	4.15
601.959	3.89
602.296	3.68
602.632	4
602.968	3.84
603.304	3.81
603.64	4.06
603.976	3.88
604.312	3.83
604.648	3.66
604.984	3.79
605.319	3.89
605.655	3.89
605.991	3.74
606.326	3.96
606.662	3.69
606.998	3.71
607.333	3.84
607.668	3.78
608.004	3.76
608.339	3.86
608.674	3.85
609.01	3.92
609.345	3.76
609.68	3.78
610.015	3.66
610.35	3.77
610.685	3.75
611.02	3.52
611.355	3.87
611.689	3.82
612.024	3.62
612.359	3.6
612.694	3.75
613.028	3.68
613.363	3.7
613.697	4.07
614.032	3.9
614.366	3.72
614.7	3.85
615.035	3.79
615.369	3.67
615.703	3.66
616.037	3.89
616.371	3.92
616.705	4.31
617.039	4.08
617.373	4.12
617.707	3.66
618.041	3.76
618.375	3.95
618.709	4.24
619.042	3.82
619.376	4.12
619.71	4.05
620.043	3.79
620.377	3.95
620.71	3.92
621.043	3.69
621.377	3.85
621.71	3.72
622.043	4.05
622.376	4.07
622.709	3.48
623.043	3.55
623.376	4.04
623.709	3.63
624.041	4.12
624.374	3.77
624.707	4.09
625.04	4.03
625.373	3.69
625.705	3.84
626.038	4.08
626.37	4.23
626.703	3.74
627.035	4.09
627.368	3.73
627.7	3.79
628.032	3.91
628.365	4.01
628.697	4
629.029	3.74
629.361	3.63
629.693	4.03
630.025	3.59
630.357	3.84
630.689	3.8
631.021	3.74
631.353	4.06
631.684	3.94
632.016	3.86
632.348	3.78
632.679	3.75
633.011	3.89
633.342	4.09
633.674	3.69
634.005	3.89
634.336	3.65
634.668	3.92
634.999	3.76
635.33	3.93
635.661	4.13
635.992	4.2
636.323	3.69
636.654	4.17
636.985	4.01
637.316	3.94
637.647	4.16
637.977	4.3
638.308	4.13
638.639	3.79
638.969	3.5
639.3	3.83
639.63	4.06
639.961	3.81
640.291	4.16
640.622	4.41
640.952	3.79
641.282	3.93
641.612	3.88
641.943	4.12
642.273	4.03
642.603	3.97
642.933	3.81
643.263	4
643.592	4.17
643.922	3.98
644.252	4.21
644.582	3.93
644.911	3.52
645.241	3.72
645.571	4.06
645.9	4.32
646.23	3.75
646.559	4.29
646.888	4.14
647.218	4.02
647.547	4.06
647.876	3.98
648.205	3.87
648.534	3.77
648.863	3.82
649.192	3.39
649.521	4.06
649.85	4
650.179	3.56
650.508	3.65
650.837	4.76
651.165	4.04
651.494	4.31
651.822	3.92
652.151	3.88
652.479	3.7
652.808	3.85
653.136	3.79
653.465	4.16
653.793	4.1
654.121	3.96
654.449	3.59
654.777	4.68
655.105	3.91
655.433	4.27
655.761	3.94
656.089	3.54
656.417	3.51
656.745	3.83
657.073	3.99
657.4	3.57
657.728	3.84
658.056	4.21
658.383	4.1
658.711	3.47
659.038	4.38
659.365	3.83
659.693	4.11
660.02	4.52
660.347	4.42
660.674	3.9
661.001	3.91
661.329	3.78
661.656	4.16
661.982	4.24
662.309	3.97
662.636	4.55
662.963	3.79
663.29	4.24
663.616	4.12
663.943	3.81
664.27	3.72
664.596	4.39
664.923	4.14
665.249	3.69
665.576	3.86
665.902	4.06
666.228	3.96
666.554	3.6
666.881	3.46
667.207	4.54
667.533	4.14
667.859	4.64
668.185	3.96
668.511	3.97
668.837	4.47
669.162	4.39
669.488	4.28
669.814	4
670.139	4.29
670.465	4.1
670.791	4.01
671.116	4.35
671.442	4.23
671.767	4.59
672.092	4.26
672.418	4.08
672.743	4.03
673.068	4.18
673.393	4.6
673.718	4.39
674.043	4.19
674.368	3.77
674.693	3.49
675.018	4.01
675.343	4.44
675.667	4.22
675.992	4.68
676.317	4.33
676.641	3.47
676.966	4.19
677.29	3.69
677.615	3.99
677.939	4.15
678.264	4.29
678.588	3.8
678.912	3.83
679.236	4.34
679.56	4.61
679.885	4.08
680.209	4.24
680.532	4.44
680.856	4.47
681.18	4.34
681.504	4.22
681.828	4.11
682.152	4.27
682.475	4.08
682.799	3.77
683.122	3.82
683.446	4.81
683.769	4.5
684.093	4.13
684.416	4.03
684.739	5.01
685.062	4.09
685.386	4.39
685.709	4.42
686.032	3.97
686.355	4.3
686.678	4.32
687.001	3.9
687.324	3.66
687.646	3.8
687.969	4.06
688.292	5.15
688.614	4
688.937	4.04
689.26	4.16
689.582	4.27
689.904	4.28
690.227	4.64
690.549	4.06
690.871	4.07
691.194	4.47
691.516	3.62
691.838	4.44
692.16	3.82
692.482	4.17
