Data from 0036_crown_Reflection__1__06.txt Node

Date: Fri Nov 04 14:41:45 CDT 2022
User: ToomeyLab
Spectrometer: FLMS14357
Trigger mode: 0
Integration Time (sec): 1.000000E-2
Scans to average: 100
Electric dark correction enabled: true
Nonlinearity correction enabled: false
Boxcar width: 0
XAxis mode: Wavelengths
Number of Pixels in Spectrum: 2048
>>>>>Begin Spectral Data<<<<<
189.047	31.97
189.435	31.97
189.823	31.97
190.211	41.49
190.599	2.82
190.987	-409.96
191.375	-134.62
191.763	-282.35
192.151	54.36
192.538	417.22
192.926	-977.99
193.314	30.12
193.702	641.2
194.089	259.1
194.477	84.63
194.864	85.8
195.252	52.35
195.639	355.65
196.027	-97.6
196.414	-38.55
196.801	208.7
197.189	-193.54
197.576	-235.96
197.963	1.72
198.351	-2.69
198.738	11.22
199.125	44.85
199.512	-79.4
199.899	47.78
200.286	51.59
200.673	3.84
201.06	71.98
201.447	17.7
201.833	53.52
202.22	-0.61
202.607	16.68
202.994	22.14
203.38	54.13
203.767	-23.86
204.154	34.97
204.54	41.07
204.927	62.58
205.313	31.86
205.699	26.85
206.086	36.73
206.472	44.88
206.858	55.83
207.245	19.42
207.631	10.9
208.017	23.3
208.403	39.91
208.789	22.54
209.175	38.66
209.561	-0.53
209.947	20.37
210.333	41.78
210.719	-5.59
211.105	2.79
211.491	7.78
211.876	27.97
212.262	17.01
212.648	8.73
213.034	11.22
213.419	17.55
213.805	5.89
214.19	0.22
214.576	-5.79
214.961	10.32
215.346	-18.71
215.732	1.95
216.117	-9.33
216.502	16.31
216.888	-2.49
217.273	1.32
217.658	-4.9
218.043	22.64
218.428	10.98
218.813	4.41
219.198	-11.22
219.583	21.38
219.968	-8.11
220.353	-1.72
220.738	3.67
221.122	-18.87
221.507	9.11
221.892	-0.91
222.276	-11.27
222.661	2.93
223.046	8.86
223.43	1.54
223.815	10.36
224.199	4.23
224.583	8.92
224.968	7.34
225.352	4.57
225.736	7.13
226.121	6.68
226.505	1.02
226.889	2.82
227.273	-3.84
227.657	3.23
228.041	6.72
228.425	6.05
228.809	3.28
229.193	4.14
229.577	3.21
229.961	3.53
230.344	1.82
230.728	2.32
231.112	2.92
231.495	3.02
231.879	4.04
232.263	2.96
232.646	3.34
233.03	3.94
233.413	2.81
233.797	3.66
234.18	4.07
234.563	5.84
234.946	2.26
235.33	4.3
235.713	3.81
236.096	3.35
236.479	2.47
236.862	4.17
237.245	2.86
237.628	2.08
238.011	3.2
238.394	4.64
238.777	2.94
239.16	4.85
239.543	4.46
239.925	0.04
240.308	3.42
240.691	4.01
241.073	2.5
241.456	3.95
241.838	2.69
242.221	2.61
242.603	2.87
242.986	3.52
243.368	3.17
243.75	2.79
244.133	2.51
244.515	2.94
244.897	2.33
245.279	2.61
245.661	2.27
246.043	3.2
246.425	2.02
246.807	3.04
247.189	2.84
247.571	2.5
247.953	2.64
248.335	2.28
248.717	2.37
249.098	2.73
249.48	2.48
249.862	2.84
250.243	2.54
250.625	2.88
251.006	2.52
251.388	2.97
251.769	2.44
252.151	3.12
252.532	2.15
252.913	2.03
253.295	2.89
253.676	2.55
254.057	2.33
254.438	3.2
254.819	2.58
255.2	2.04
255.581	2.99
255.962	2.4
256.343	2.64
256.724	1.57
257.105	4.23
257.486	2.74
257.867	2.19
258.247	2.64
258.628	3.2
259.009	3.35
259.389	1.8
259.77	2.64
260.15	2.28
260.531	3.21
260.911	2.29
261.292	2.09
261.672	2.47
262.052	2.33
262.432	2.44
262.813	3.09
263.193	2.62
263.573	2.82
263.953	2.44
264.333	2.16
264.713	2.75
265.093	2.35
265.473	2.8
265.853	2.29
266.233	2.68
266.612	3.1
266.992	3.02
267.372	2.71
267.752	2.11
268.131	1.72
268.511	2.13
268.89	2.35
269.27	2.26
269.649	2.9
270.029	2.36
270.408	2.59
270.787	3.02
271.167	2.81
271.546	2.41
271.925	2.36
272.304	2.22
272.683	2.37
273.062	2.32
273.441	2.34
273.82	2.28
274.199	2.31
274.578	2.24
274.957	2.15
275.336	2.37
275.715	2.72
276.093	2.18
276.472	1.86
276.851	2.63
277.229	1.86
277.608	2.17
277.986	2.35
278.365	2.37
278.743	2.13
279.122	2.65
279.5	1.91
279.878	2.16
280.257	2.37
280.635	2.67
281.013	2.23
281.391	2.64
281.769	2.05
282.147	1.83
282.525	2.6
282.903	2.36
283.281	2.1
283.659	2.98
284.037	2.4
284.415	2.14
284.792	2.32
285.17	2.21
285.548	2.39
285.925	2.19
286.303	1.87
286.68	2.55
287.058	1.99
287.435	2.01
287.813	1.82
288.19	2.06
288.567	2.73
288.945	2.51
289.322	2.32
289.699	2.43
290.076	2.18
290.453	2.68
290.83	2.07
291.207	1.85
291.584	2.1
291.961	2.38
292.338	2.47
292.715	2.22
293.092	1.7
293.469	2.5
293.845	2.28
294.222	2.18
294.599	2.03
294.975	1.71
295.352	2.12
295.728	2.22
296.105	2.35
296.481	2.5
296.858	2.39
297.234	2.36
297.61	1.85
297.986	2.03
298.363	2.1
298.739	1.85
299.115	2.41
299.491	2.01
299.867	2.39
300.243	2.21
300.619	2
300.995	2.13
301.371	2.07
301.746	1.79
302.122	2.1
302.498	2.02
302.874	1.93
303.249	2.05
303.625	2.65
304	2.17
304.376	2.1
304.751	2.38
305.127	2.21
305.502	2.28
305.878	2.21
306.253	1.93
306.628	2.6
307.003	1.81
307.378	1.98
307.754	2.32
308.129	1.79
308.504	1.85
308.879	1.99
309.254	2.66
309.629	2.41
310.003	2.56
310.378	2.51
310.753	2.63
311.128	1.96
311.502	2.38
311.877	2.52
312.252	2.03
312.626	2.13
313.001	2.17
313.375	1.83
313.75	2.47
314.124	2.37
314.498	2.21
314.873	2.47
315.247	2.2
315.621	2.3
315.995	2.62
316.369	2.37
316.743	1.98
317.117	2.07
317.491	2.06
317.865	2.38
318.239	2.1
318.613	2.29
318.987	2.13
319.361	2.15
319.734	2.22
320.108	2.87
320.482	2.86
320.855	2.45
321.229	2.11
321.602	2.65
321.976	2.47
322.349	1.79
322.723	2.12
323.096	1.97
323.469	2.45
323.843	2.2
324.216	2.4
324.589	1.94
324.962	2.54
325.335	2.13
325.708	2.28
326.081	2.28
326.454	2.53
326.827	2.25
327.2	2.14
327.573	1.88
327.945	1.92
328.318	2.51
328.691	2.37
329.063	2.11
329.436	2.07
329.809	2.24
330.181	1.97
330.553	2.56
330.926	2.39
331.298	2.9
331.671	2.8
332.043	2.25
332.415	2.01
332.787	2.28
333.159	1.92
333.532	2.27
333.904	1.82
334.276	2.53
334.648	2.35
335.02	2.3
335.391	2.16
335.763	2.19
336.135	2.81
336.507	2.37
336.879	1.91
337.25	2.37
337.622	2.98
337.993	2.17
338.365	2.11
338.736	2.73
339.108	2.69
339.479	1.84
339.851	2.23
340.222	2.7
340.593	2.48
340.964	2.06
341.336	2.81
341.707	2.51
342.078	2.22
342.449	2.7
342.82	2.36
343.191	2.42
343.562	2.71
343.933	2.69
344.303	2.44
344.674	2.3
345.045	1.99
345.416	2.84
345.786	2.51
346.157	2.45
346.527	2.46
346.898	2.19
347.268	2.49
347.639	2.25
348.009	2.1
348.38	1.89
348.75	2.68
349.12	2.05
349.49	1.94
349.861	2.4
350.231	2.4
350.601	2.21
350.971	2.4
351.341	2.14
351.711	2.41
352.081	2.23
352.45	2.38
352.82	2.38
353.19	2.36
353.56	2.43
353.929	2.39
354.299	2.7
354.669	2.4
355.038	2.44
355.408	2.37
355.777	2.47
356.147	2.38
356.516	2.29
356.885	2.55
357.254	2.68
357.624	2.22
357.993	2.49
358.362	2.44
358.731	1.81
359.1	2.35
359.469	2.43
359.838	2.51
360.207	2.39
360.576	2.53
360.945	2.53
361.314	2.52
361.682	2.41
362.051	2.09
362.42	2.49
362.788	2.27
363.157	2.48
363.525	2.27
363.894	2.34
364.262	2.21
364.631	2.4
364.999	2.21
365.367	2.22
365.735	2.41
366.104	2.55
366.472	2.14
366.84	2.14
367.208	2.33
367.576	2.83
367.944	2.3
368.312	2.38
368.68	2.59
369.048	1.96
369.416	2.35
369.783	2.12
370.151	2.48
370.519	2.47
370.886	2.1
371.254	2.23
371.621	2.35
371.989	2.23
372.356	2.23
372.724	2.46
373.091	2.38
373.458	2.51
373.826	2.48
374.193	2.29
374.56	2.39
374.927	2.3
375.294	2.45
375.661	2.39
376.028	2.15
376.395	2.47
376.762	2.77
377.129	2.52
377.496	2.38
377.863	2.53
378.229	2.4
378.596	2.33
378.963	2.37
379.329	2.42
379.696	2.35
380.062	2.44
380.429	2.33
380.795	2.69
381.161	2.36
381.528	2.56
381.894	2.7
382.26	2.29
382.626	2.42
382.993	2.49
383.359	2.55
383.725	2.67
384.091	2.22
384.457	2.49
384.823	2.37
385.188	2.41
385.554	2.59
385.92	2.39
386.286	2.42
386.651	2.74
387.017	2.48
387.383	2.59
387.748	2.53
388.114	2.74
388.479	2.56
388.845	2.47
389.21	2.59
389.575	2.41
389.94	2.66
390.306	2.55
390.671	2.44
391.036	2.51
391.401	2.63
391.766	2.37
392.131	2.45
392.496	2.36
392.861	2.58
393.226	2.55
393.591	2.58
393.956	2.43
394.32	2.34
394.685	2.59
395.05	2.29
395.414	2.5
395.779	2.32
396.143	2.52
396.508	2.29
396.872	2.35
397.236	2.62
397.601	2.51
397.965	2.56
398.329	2.24
398.694	2.45
399.058	2.67
399.422	2.62
399.786	2.66
400.15	2.51
400.514	2.7
400.878	2.45
401.242	2.47
401.605	2.44
401.969	2.49
402.333	2.57
402.697	2.55
403.06	2.66
403.424	2.28
403.787	2.38
404.151	2.39
404.514	2.47
404.878	2.44
405.241	2.59
405.604	2.47
405.968	2.42
406.331	2.64
406.694	2.42
407.057	2.41
407.42	2.45
407.783	2.36
408.146	2.54
408.509	2.32
408.872	2.57
409.235	2.71
409.598	2.61
409.961	2.62
410.323	2.52
410.686	2.38
411.049	2.65
411.411	2.64
411.774	2.36
412.136	2.38
412.499	2.55
412.861	2.69
413.223	2.61
413.586	2.53
413.948	2.78
414.31	2.33
414.672	2.65
415.035	2.68
415.397	2.65
415.759	2.53
416.121	2.32
416.483	2.43
416.845	2.53
417.206	2.59
417.568	2.6
417.93	2.62
418.292	2.49
418.653	2.52
419.015	2.63
419.377	2.44
419.738	2.31
420.1	2.32
420.461	2.45
420.822	2.36
421.184	2.56
421.545	2.43
421.906	2.39
422.267	2.44
422.629	2.32
422.99	2.32
423.351	2.49
423.712	2.4
424.073	2.44
424.434	2.5
424.795	2.33
425.155	2.42
425.516	2.44
425.877	2.39
426.238	2.36
426.598	2.47
426.959	2.36
427.32	2.42
427.68	2.5
428.041	2.59
428.401	2.44
428.761	2.63
429.122	2.43
429.482	2.43
429.842	2.77
430.202	2.53
430.563	2.69
430.923	2.49
431.283	2.57
431.643	2.52
432.003	2.44
432.363	2.59
432.722	2.39
433.082	2.45
433.442	2.37
433.802	2.22
434.161	2.54
434.521	2.42
434.881	2.48
435.24	2.46
435.6	2.52
435.959	2.44
436.319	2.62
436.678	2.48
437.037	2.54
437.396	2.53
437.756	2.56
438.115	2.55
438.474	2.59
438.833	2.42
439.192	2.44
439.551	2.4
439.91	2.56
440.269	2.5
440.628	2.43
440.987	2.4
441.345	2.35
441.704	2.46
442.063	2.52
442.421	2.45
442.78	2.36
443.138	2.36
443.497	2.48
443.855	2.57
444.214	2.55
444.572	2.53
444.93	2.6
445.288	2.4
445.647	2.43
446.005	2.68
446.363	2.4
446.721	2.45
447.079	2.37
447.437	2.39
447.795	2.38
448.153	2.4
448.51	2.34
448.868	2.41
449.226	2.36
449.584	2.38
449.941	2.38
450.299	2.5
450.656	2.59
451.014	2.32
451.371	2.55
451.729	2.51
452.086	2.46
452.443	2.45
452.801	2.59
453.158	2.55
453.515	2.57
453.872	2.51
454.229	2.49
454.586	2.41
454.943	2.57
455.3	2.65
455.657	2.44
456.014	2.49
456.371	2.57
456.727	2.46
457.084	2.51
457.441	2.5
457.797	2.5
458.154	2.46
458.51	2.53
458.867	2.6
459.223	2.51
459.58	2.56
459.936	2.47
460.292	2.44
460.648	2.53
461.005	2.51
461.361	2.44
461.717	2.46
462.073	2.42
462.429	2.41
462.785	2.5
463.141	2.45
463.496	2.61
463.852	2.7
464.208	2.42
464.564	2.6
464.919	2.62
465.275	2.57
465.631	2.6
465.986	2.47
466.342	2.58
466.697	2.5
467.052	2.3
467.408	2.43
467.763	2.64
468.118	2.61
468.473	2.63
468.829	2.76
469.184	2.45
469.539	2.54
469.894	2.52
470.249	2.55
470.603	2.67
470.958	2.53
471.313	2.62
471.668	2.6
472.023	2.47
472.377	2.37
472.732	2.53
473.086	2.6
473.441	2.6
473.795	2.43
474.15	2.61
474.504	2.51
474.859	2.46
475.213	2.48
475.567	2.53
475.921	2.58
476.275	2.58
476.63	2.47
476.984	2.52
477.338	2.53
477.692	2.66
478.045	2.53
478.399	2.4
478.753	2.41
479.107	2.51
479.461	2.5
479.814	2.63
480.168	2.6
480.521	2.35
480.875	2.52
481.228	2.39
481.582	2.53
481.935	2.46
482.289	2.53
482.642	2.54
482.995	2.48
483.348	2.46
483.701	2.48
484.055	2.42
484.408	2.45
484.761	2.37
485.114	2.3
485.466	2.26
485.819	2.23
486.172	2.25
486.525	2.34
486.878	2.36
487.23	2.45
487.583	2.42
487.936	2.45
488.288	2.39
488.641	2.37
488.993	2.31
489.345	2.35
489.698	2.31
490.05	2.31
490.402	2.37
490.754	2.4
491.107	2.4
491.459	2.42
491.811	2.55
492.163	2.52
492.515	2.46
492.866	2.42
493.218	2.34
493.57	2.32
493.922	2.34
494.274	2.43
494.625	2.48
494.977	2.47
495.328	2.55
495.68	2.54
496.031	2.63
496.383	2.52
496.734	2.53
497.086	2.5
497.437	2.61
497.788	2.49
498.139	2.53
498.49	2.51
498.842	2.39
499.193	2.38
499.544	2.43
499.894	2.46
500.245	2.49
500.596	2.52
500.947	2.49
501.298	2.6
501.648	2.5
501.999	2.58
502.35	2.69
502.7	2.48
503.051	2.52
503.401	2.54
503.752	2.6
504.102	2.38
504.452	2.52
504.803	2.46
505.153	2.48
505.503	2.56
505.853	2.53
506.203	2.46
506.553	2.51
506.903	2.54
507.253	2.48
507.603	2.62
507.953	2.64
508.303	2.6
508.652	2.51
509.002	2.46
509.352	2.62
509.701	2.55
510.051	2.43
510.4	2.34
510.75	2.51
511.099	2.49
511.449	2.4
511.798	2.4
512.147	2.5
512.496	2.46
512.846	2.51
513.195	2.52
513.544	2.52
513.893	2.52
514.242	2.46
514.591	2.48
514.939	2.54
515.288	2.48
515.637	2.51
515.986	2.46
516.334	2.56
516.683	2.5
517.032	2.55
517.38	2.52
517.729	2.52
518.077	2.55
518.426	2.49
518.774	2.44
519.122	2.44
519.47	2.53
519.819	2.43
520.167	2.4
520.515	2.43
520.863	2.46
521.211	2.42
521.559	2.5
521.907	2.47
522.255	2.42
522.602	2.58
522.95	2.46
523.298	2.58
523.645	2.58
523.993	2.58
524.341	2.59
524.688	2.58
525.036	2.55
525.383	2.64
525.73	2.45
526.078	2.51
526.425	2.43
526.772	2.42
527.119	2.4
527.466	2.38
527.814	2.31
528.161	2.36
528.508	2.47
528.854	2.51
529.201	2.51
529.548	2.45
529.895	2.38
530.242	2.23
530.588	2.25
530.935	2.35
531.282	2.37
531.628	2.41
531.975	2.4
532.321	2.49
532.667	2.44
533.014	2.58
533.36	2.45
533.706	2.47
534.052	2.46
534.399	2.43
534.745	2.32
535.091	2.32
535.437	2.33
535.783	2.41
536.129	2.45
536.474	2.52
536.82	2.49
537.166	2.58
537.512	2.64
537.857	2.49
538.203	2.44
538.549	2.43
538.894	2.37
539.239	2.42
539.585	2.55
539.93	2.45
540.276	2.5
540.621	2.48
540.966	2.61
541.311	2.44
541.656	2.55
542.001	2.4
542.346	2.52
542.691	2.4
543.036	2.35
543.381	2.33
543.726	2.36
544.071	2.41
544.415	2.45
544.76	2.5
545.105	2.5
545.449	2.5
545.794	2.45
546.138	2.55
546.483	2.63
546.827	2.52
547.171	2.45
547.516	2.49
547.86	2.55
548.204	2.51
548.548	2.43
548.892	2.44
549.236	2.53
549.58	2.53
549.924	2.6
550.268	2.53
550.612	2.51
550.956	2.59
551.3	2.55
551.643	2.6
551.987	2.52
552.33	2.6
552.674	2.62
553.017	2.68
553.361	2.43
553.704	2.52
554.048	2.65
554.391	2.56
554.734	2.44
555.077	2.51
555.42	2.57
555.764	2.64
556.107	2.48
556.45	2.75
556.793	2.59
557.135	2.68
557.478	2.61
557.821	2.73
558.164	2.47
558.507	2.55
558.849	2.54
559.192	2.65
559.534	2.65
559.877	2.65
560.219	2.54
560.562	2.49
560.904	2.45
561.246	2.51
561.589	2.62
561.931	2.66
562.273	2.65
562.615	2.77
562.957	2.6
563.299	2.52
563.641	2.74
563.983	2.57
564.325	2.68
564.667	2.45
565.008	2.49
565.35	2.79
565.692	2.46
566.033	2.52
566.375	2.45
566.716	2.74
567.058	2.5
567.399	2.59
567.741	2.52
568.082	2.54
568.423	2.55
568.764	2.53
569.105	2.59
569.447	2.74
569.788	2.56
570.129	2.61
570.47	2.54
570.811	2.59
571.151	2.62
571.492	2.79
571.833	2.75
572.174	2.51
572.514	2.79
572.855	2.48
573.195	2.43
573.536	2.52
573.876	2.65
574.217	2.45
574.557	2.7
574.898	2.52
575.238	2.7
575.578	2.66
575.918	2.54
576.258	2.68
576.598	2.51
576.938	2.63
577.278	2.52
577.618	2.66
577.958	2.49
578.298	2.67
578.638	2.72
578.977	2.32
579.317	2.56
579.657	2.77
579.996	2.56
580.336	2.61
580.675	2.73
581.014	2.58
581.354	2.6
581.693	2.72
582.032	2.65
582.372	2.72
582.711	2.52
583.05	2.58
583.389	2.47
583.728	2.63
584.067	2.77
584.406	2.51
584.745	2.75
585.083	2.71
585.422	2.75
585.761	2.47
586.1	2.8
586.438	2.71
586.777	2.69
587.115	2.74
587.454	2.87
587.792	2.56
588.13	2.96
588.469	2.74
588.807	2.67
589.145	2.56
589.483	2.8
589.821	2.73
590.159	2.57
590.497	2.63
590.835	2.8
591.173	2.65
591.511	2.56
591.849	2.73
592.187	2.54
592.524	2.67
592.862	2.43
593.2	2.59
593.537	2.64
593.875	2.68
594.212	2.55
594.55	2.67
594.887	2.57
595.224	2.78
595.561	2.94
595.899	2.4
596.236	2.5
596.573	2.68
596.91	2.57
597.247	2.84
597.584	2.58
597.921	2.59
598.258	2.72
598.594	2.52
598.931	2.59
599.268	2.64
599.604	2.68
599.941	2.74
600.277	2.67
600.614	2.63
600.95	2.57
601.287	2.69
601.623	2.61
601.959	2.78
602.296	2.8
602.632	2.68
602.968	2.72
603.304	2.71
603.64	2.85
603.976	2.7
604.312	3.31
604.648	2.82
604.984	2.66
605.319	2.5
605.655	2.56
605.991	2.44
606.326	2.65
606.662	2.58
606.998	2.6
607.333	2.59
607.668	2.68
608.004	2.63
608.339	2.56
608.674	2.84
609.01	2.63
609.345	2.63
609.68	2.7
610.015	2.66
610.35	2.49
610.685	2.52
611.02	2.77
611.355	2.66
611.689	2.46
612.024	2.66
612.359	2.86
612.694	2.72
613.028	2.8
613.363	2.8
613.697	2.73
614.032	3
614.366	2.83
614.7	2.89
615.035	2.67
615.369	2.74
615.703	2.73
616.037	2.72
616.371	2.76
616.705	2.44
617.039	2.43
617.373	2.54
617.707	2.63
618.041	2.84
618.375	2.8
618.709	3.12
619.042	2.94
619.376	2.88
619.71	2.96
620.043	3.12
620.377	3.04
620.71	2.84
621.043	2.66
621.377	2.64
621.71	2.55
622.043	2.65
622.376	2.93
622.709	2.63
623.043	2.56
623.376	2.68
623.709	3.12
624.041	3.09
624.374	2.85
624.707	2.36
625.04	3.29
625.373	2.48
625.705	2.89
626.038	2.92
626.37	2.85
626.703	2.55
627.035	2.6
627.368	2.5
627.7	2.67
628.032	2.81
628.365	2.73
628.697	2.63
629.029	2.73
629.361	2.51
629.693	2.52
630.025	2.97
630.357	2.86
630.689	2.83
631.021	2.71
631.353	2.6
631.684	2.98
632.016	2.56
632.348	2.88
632.679	2.75
633.011	2.59
633.342	2.7
633.674	3.01
634.005	3.01
634.336	2.58
634.668	2.93
634.999	2.99
635.33	3.01
635.661	2.48
635.992	2.77
636.323	2.59
636.654	3
636.985	3.02
637.316	2.7
637.647	2.81
637.977	2.72
638.308	2.51
638.639	3.17
638.969	2.62
639.3	2.62
639.63	2.75
639.961	2.59
640.291	2.6
640.622	2.84
640.952	3.06
641.282	2.98
641.612	2.79
641.943	3.06
642.273	2.79
642.603	3.1
642.933	2.49
643.263	3.11
643.592	2.91
643.922	3.06
644.252	2.67
644.582	3.09
644.911	2.66
645.241	2.9
645.571	3.59
645.9	3.05
646.23	2.64
646.559	2.79
646.888	3.13
647.218	2.83
647.547	2.91
647.876	2.5
648.205	2.34
648.534	2.63
648.863	3.16
649.192	2.84
649.521	3.03
649.85	2.94
650.179	3.02
650.508	3.03
650.837	2.39
651.165	3.01
651.494	2.89
651.822	2.75
652.151	2.84
652.479	2.6
652.808	2.39
653.136	2.47
653.465	3.33
653.793	3.33
654.121	3.05
654.449	3.03
654.777	3.18
655.105	3.21
655.433	3.02
655.761	2.52
656.089	3.28
656.417	2.79
656.745	3.11
657.073	2.79
657.4	2.98
657.728	3.11
658.056	3.19
658.383	2.92
658.711	2.56
659.038	2.87
659.365	2.72
659.693	3.1
660.02	2.9
660.347	2.76
660.674	2.71
661.001	2.89
661.329	2.89
661.656	3.33
661.982	3.12
662.309	3.01
662.636	2.69
662.963	2.93
663.29	2.77
663.616	2.55
663.943	2.99
664.27	3.13
664.596	2.88
664.923	3.12
665.249	3.39
665.576	2.85
665.902	2.32
666.228	3.06
666.554	3.63
666.881	3.56
667.207	2.53
667.533	2.54
667.859	3.06
668.185	3.43
668.511	2.86
668.837	2.7
669.162	3.24
669.488	3.27
669.814	3.14
670.139	2.94
670.465	3.07
670.791	2.83
671.116	3.27
671.442	2.92
671.767	2.98
672.092	3.18
672.418	3.38
672.743	2.97
673.068	3.23
673.393	2.67
673.718	2.44
674.043	2.67
674.368	2.75
674.693	2.66
675.018	3.33
675.343	2.67
675.667	2.65
675.992	3.03
676.317	3.27
676.641	3.16
676.966	3.07
677.29	2.84
677.615	3.53
677.939	3.35
678.264	3.05
678.588	3
678.912	3.24
679.236	3.31
679.56	3.43
679.885	3.01
680.209	3.14
680.532	2.71
680.856	3.47
681.18	3.59
681.504	3.25
681.828	2.91
682.152	3.23
682.475	3.1
682.799	3.44
683.122	3
683.446	2.17
683.769	3.88
684.093	2.87
684.416	3.41
684.739	3.54
685.062	3.32
685.386	3
685.709	3.53
686.032	3.24
686.355	3.45
686.678	3.52
687.001	3.22
687.324	3.74
687.646	2.83
687.969	2.77
688.292	3.18
688.614	3.77
688.937	3.16
689.26	2.87
689.582	3.68
689.904	3.48
690.227	2.87
690.549	2.52
690.871	3.71
691.194	3.16
691.516	3.79
691.838	4.29
692.16	3.01
692.482	3.2
692.804	2.81
693.126	3.17
