Data from 0036_forehead_Reflection__0__10.txt Node

Date: Fri Nov 04 14:43:19 CDT 2022
User: ToomeyLab
Spectrometer: FLMS14357
Trigger mode: 0
Integration Time (sec): 1.000000E-2
Scans to average: 100
Electric dark correction enabled: true
Nonlinearity correction enabled: false
Boxcar width: 0
XAxis mode: Wavelengths
Number of Pixels in Spectrum: 2048
>>>>>Begin Spectral Data<<<<<
189.047	91.58
189.435	91.58
189.823	91.58
190.211	12.69
190.599	254.09
190.987	37.19
191.375	-430.44
191.763	1864.99
192.151	75.89
192.538	-1458.73
192.926	778.92
193.314	-15.87
193.702	1065.92
194.089	336.62
194.477	-1.8
194.864	38.13
195.252	68.43
195.639	244.13
196.027	-321.74
196.414	6.07
196.801	205.27
197.189	58.43
197.576	-71.19
197.963	24.07
198.351	13.63
198.738	24.72
199.125	9.06
199.512	21.68
199.899	16.06
200.286	55.27
200.673	6.66
201.06	5.85
201.447	18.51
201.833	43.5
202.22	-32.84
202.607	28.92
202.994	40.93
203.38	38.73
203.767	24.91
204.154	34.91
204.54	37.55
204.927	19.6
205.313	19.66
205.699	34.13
206.086	28.39
206.472	54.45
206.858	19.49
207.245	12.57
207.631	-4.86
208.017	8.01
208.403	47.33
208.789	24.44
209.175	25.62
209.561	18.28
209.947	20.47
210.333	41.15
210.719	-11.99
211.105	25.41
211.491	32.83
211.876	28.55
212.262	25.21
212.648	31.51
213.034	9.99
213.419	-7.17
213.805	4.57
214.19	9.72
214.576	5.51
214.961	17.96
215.346	11.87
215.732	18.43
216.117	4.29
216.502	8.62
216.888	-17.24
217.273	22.46
217.658	19.6
218.043	26.82
218.428	29.89
218.813	10.42
219.198	3.92
219.583	28.98
219.968	-15.08
220.353	2.23
220.738	3.11
221.122	-7.2
221.507	-12.28
221.892	-10.67
222.276	-11.87
222.661	8.95
223.046	9.32
223.43	5.51
223.815	4.28
224.199	5.8
224.583	4.28
224.968	1.49
225.352	6.86
225.736	4.51
226.121	8.77
226.505	8.66
226.889	-0.48
227.273	3.2
227.657	3.8
228.041	5.72
228.425	1.45
228.809	2.63
229.193	2.14
229.577	0.8
229.961	1.83
230.344	0.93
230.728	0.79
231.112	2.01
231.495	1.45
231.879	2.93
232.263	2.96
232.646	3.17
233.03	2.28
233.413	2.32
233.797	2.35
234.18	2.75
234.563	2.77
234.946	0.72
235.33	3.15
235.713	3.06
236.096	2.09
236.479	2.28
236.862	3.06
237.245	1.15
237.628	0.98
238.011	1.19
238.394	2.02
238.777	0.93
239.16	1.83
239.543	2.68
239.925	1.22
240.308	2.86
240.691	2.13
241.073	1.12
241.456	0.97
241.838	0.7
242.221	1.59
242.603	1.27
242.986	2.51
243.368	2.63
243.75	2.41
244.133	2.03
244.515	2.24
244.897	1.55
245.279	2.18
245.661	2.04
246.043	2.47
246.425	1.94
246.807	2.04
247.189	2.47
247.571	1.92
247.953	1.78
248.335	1.78
248.717	1.89
249.098	2.08
249.48	2.09
249.862	2.03
250.243	2.42
250.625	2.44
251.006	2.05
251.388	2.25
251.769	2.31
252.151	1.67
252.532	2.07
252.913	2.44
253.295	2.43
253.676	1.61
254.057	2.02
254.438	2.73
254.819	2.49
255.2	2.57
255.581	2.56
255.962	1.68
256.343	1.57
256.724	1.47
257.105	3.52
257.486	2.83
257.867	2.49
258.247	3.31
258.628	2.35
259.009	2.26
259.389	2.29
259.77	1.95
260.15	2.05
260.531	2.67
260.911	1.63
261.292	2.01
261.672	1.94
262.052	2.08
262.432	1.99
262.813	2.54
263.193	2.29
263.573	2.18
263.953	2.33
264.333	1.91
264.713	1.97
265.093	2.13
265.473	1.86
265.853	2.57
266.233	1.87
266.612	2.74
266.992	2.64
267.372	2.42
267.752	1.91
268.131	1.62
268.511	1.69
268.89	2.25
269.27	2.17
269.649	2.37
270.029	2.13
270.408	2.62
270.787	2.32
271.167	2.44
271.546	2.35
271.925	2.17
272.304	1.65
272.683	1.85
273.062	2.03
273.441	1.5
273.82	1.61
274.199	2.29
274.578	1.69
274.957	2.34
275.336	1.8
275.715	2.05
276.093	2.02
276.472	2.27
276.851	2.43
277.229	1.78
277.608	1.56
277.986	2.08
278.365	2.14
278.743	1.73
279.122	1.92
279.5	1.67
279.878	2.44
280.257	2.04
280.635	2.37
281.013	1.75
281.391	2.3
281.769	1.46
282.147	1.91
282.525	2.01
282.903	1.88
283.281	2.15
283.659	2.62
284.037	1.85
284.415	1.86
284.792	2.35
285.17	1.89
285.548	2.07
285.925	2.29
286.303	1.74
286.68	2.56
287.058	1.78
287.435	1.92
287.813	1.99
288.19	2.41
288.567	2.4
288.945	2.29
289.322	2.2
289.699	2.48
290.076	2.18
290.453	2.82
290.83	2.45
291.207	1.65
291.584	2.32
291.961	2.58
292.338	2.46
292.715	2.41
293.092	2.15
293.469	2.94
293.845	2.48
294.222	2.58
294.599	2.86
294.975	2.53
295.352	2.79
295.728	3.2
296.105	2.72
296.481	2.5
296.858	2.81
297.234	3.11
297.61	2.71
297.986	2.93
298.363	2.61
298.739	2.62
299.115	2.88
299.491	2.83
299.867	2.9
300.243	2.99
300.619	2.9
300.995	3.41
301.371	2.82
301.746	2.96
302.122	3.22
302.498	3.12
302.874	2.75
303.249	3.1
303.625	3.08
304	3.24
304.376	3.47
304.751	3.29
305.127	3.78
305.502	2.96
305.878	3.27
306.253	3.61
306.628	4.05
307.003	3.43
307.378	3.61
307.754	4.1
308.129	3.33
308.504	3.47
308.879	3.61
309.254	4.13
309.629	3.53
310.003	4.45
310.378	3.95
310.753	4.35
311.128	3.74
311.502	3.78
311.877	3.97
312.252	3.69
312.626	3.64
313.001	4.47
313.375	3.97
313.75	4.1
314.124	4.32
314.498	3.95
314.873	4.37
315.247	4.35
315.621	4.08
315.995	4.48
316.369	4.87
316.743	4.19
317.117	4.15
317.491	3.95
317.865	4.74
318.239	4.5
318.613	4.5
318.987	4.71
319.361	4.77
319.734	4.88
320.108	4.82
320.482	5.17
320.855	5.26
321.229	4.74
321.602	5.24
321.976	4.67
322.349	4.97
322.723	4.79
323.096	5.32
323.469	5.4
323.843	5.16
324.216	5.32
324.589	5.01
324.962	5.9
325.335	4.71
325.708	5.21
326.081	5.37
326.454	5.61
326.827	5.14
327.2	5.26
327.573	5.43
327.945	5.65
328.318	5.43
328.691	5.5
329.063	5.67
329.436	5.43
329.809	5.67
330.181	5.32
330.553	5.92
330.926	5.55
331.298	6.42
331.671	6.15
332.043	6.01
332.415	5.66
332.787	5.75
333.159	6.32
333.532	5.71
333.904	5.92
334.276	5.91
334.648	6.26
335.02	5.55
335.391	6.13
335.763	5.71
336.135	6.58
336.507	6.52
336.879	6
337.25	6.37
337.622	6.52
337.993	6.24
338.365	5.96
338.736	6.2
339.108	6.27
339.479	6.48
339.851	6.75
340.222	6.78
340.593	6.69
340.964	6.27
341.336	6.9
341.707	6.55
342.078	6.76
342.449	6.66
342.82	6.42
343.191	6.71
343.562	6.96
343.933	6.72
344.303	6.8
344.674	6.26
345.045	7.09
345.416	6.96
345.786	7.03
346.157	6.81
346.527	7.04
346.898	6.82
347.268	6.91
347.639	7.09
348.009	7.29
348.38	6.53
348.75	7.18
349.12	6.97
349.49	6.69
349.861	6.99
350.231	6.83
350.601	7.17
350.971	7.42
351.341	6.84
351.711	7.46
352.081	7.15
352.45	7.02
352.82	7.47
353.19	7.64
353.56	7.43
353.929	7.49
354.299	7.55
354.669	7.28
355.038	7.68
355.408	7.37
355.777	7.51
356.147	7.45
356.516	7.57
356.885	7.67
357.254	7.82
357.624	7.69
357.993	7.64
358.362	7.71
358.731	7.15
359.1	7.58
359.469	7.5
359.838	7.65
360.207	7.76
360.576	7.75
360.945	7.64
361.314	7.81
361.682	8.06
362.051	7.46
362.42	7.95
362.788	7.74
363.157	7.78
363.525	7.84
363.894	7.75
364.262	7.8
364.631	8.11
364.999	8.21
365.367	7.86
365.735	8.29
366.104	8.14
366.472	7.9
366.84	7.97
367.208	7.75
367.576	8.16
367.944	7.99
368.312	8.23
368.68	8.37
369.048	8.18
369.416	8.35
369.783	8.48
370.151	8.64
370.519	8.6
370.886	8.28
371.254	8.3
371.621	8.64
371.989	8.39
372.356	8.65
372.724	9.06
373.091	8.58
373.458	8.79
373.826	8.71
374.193	8.68
374.56	8.72
374.927	8.69
375.294	8.77
375.661	8.62
376.028	8.77
376.395	8.9
376.762	9.03
377.129	8.74
377.496	8.88
377.863	8.93
378.229	8.99
378.596	8.77
378.963	8.67
379.329	8.92
379.696	8.75
380.062	9.12
380.429	9
380.795	9.45
381.161	9.23
381.528	9.39
381.894	9.46
382.26	9.25
382.626	9.16
382.993	9.5
383.359	9.48
383.725	9.53
384.091	9.48
384.457	9.54
384.823	9.17
385.188	9.27
385.554	9.49
385.92	9.19
386.286	9.24
386.651	9.71
387.017	9.38
387.383	9.78
387.748	9.57
388.114	9.65
388.479	9.42
388.845	9.49
389.21	9.68
389.575	9.69
389.94	9.93
390.306	9.66
390.671	9.83
391.036	9.73
391.401	9.63
391.766	9.59
392.131	9.73
392.496	9.64
392.861	9.88
393.226	9.73
393.591	9.65
393.956	9.78
394.32	9.88
394.685	10.24
395.05	9.66
395.414	9.91
395.779	9.85
396.143	10.18
396.508	10.02
396.872	10.07
397.236	10.27
397.601	10.09
397.965	10.53
398.329	10.38
398.694	10.33
399.058	10.51
399.422	10.05
399.786	10.48
400.15	10.37
400.514	10.65
400.878	10.31
401.242	10.59
401.605	10.38
401.969	10.5
402.333	10.74
402.697	10.6
403.06	10.57
403.424	10.48
403.787	10.56
404.151	10.55
404.514	10.45
404.878	10.68
405.241	10.41
405.604	10.43
405.968	10.37
406.331	10.72
406.694	10.44
407.057	10.72
407.42	10.67
407.783	10.66
408.146	10.69
408.509	10.77
408.872	10.86
409.235	10.93
409.598	11.13
409.961	10.98
410.323	11.11
410.686	10.99
411.049	11.18
411.411	11.01
411.774	11.01
412.136	10.8
412.499	11.11
412.861	11.02
413.223	11.06
413.586	11.17
413.948	11.44
414.31	11.26
414.672	11.22
415.035	11.32
415.397	11.47
415.759	11.5
416.121	11.17
416.483	11.24
416.845	11.24
417.206	11.5
417.568	11.21
417.93	11.28
418.292	11.31
418.653	11.32
419.015	11.53
419.377	11.23
419.738	11.13
420.1	11.13
420.461	11.29
420.822	11.21
421.184	11.28
421.545	11.25
421.906	11.35
422.267	11.31
422.629	11.19
422.99	11.15
423.351	11.24
423.712	11.33
424.073	11.49
424.434	11.41
424.795	11.46
425.155	11.55
425.516	11.39
425.877	11.37
426.238	11.36
426.598	11.46
426.959	11.48
427.32	11.63
427.68	11.84
428.041	11.92
428.401	11.97
428.761	12.23
429.122	11.98
429.482	12.03
429.842	12.21
430.202	12.2
430.563	12.23
430.923	12.11
431.283	12.27
431.643	12.08
432.003	12.11
432.363	12.18
432.722	12.32
433.082	12.38
433.442	12.05
433.802	12.22
434.161	12.25
434.521	12.07
434.881	12.01
435.24	12.08
435.6	12.18
435.959	12.18
436.319	12.41
436.678	12.42
437.037	12.57
437.396	12.48
437.756	12.61
438.115	12.75
438.474	12.52
438.833	12.62
439.192	12.46
439.551	12.34
439.91	12.33
440.269	12.54
440.628	12.58
440.987	12.4
441.345	12.29
441.704	12.39
442.063	12.38
442.421	12.49
442.78	12.39
443.138	12.42
443.497	12.63
443.855	12.83
444.214	12.74
444.572	12.76
444.93	12.88
445.288	12.96
445.647	12.95
446.005	13
446.363	12.85
446.721	12.66
447.079	12.65
447.437	12.6
447.795	12.42
448.153	12.52
448.51	12.5
448.868	12.62
449.226	12.65
449.584	12.84
449.941	12.9
450.299	13.04
450.656	13.23
451.014	13.13
451.371	13.31
451.729	13.38
452.086	13.23
452.443	13.33
452.801	13.52
453.158	13.44
453.515	13.51
453.872	13.29
454.229	13.2
454.586	13.28
454.943	13.4
455.3	13.56
455.657	13.65
456.014	13.49
456.371	13.49
456.727	13.46
457.084	13.48
457.441	13.58
457.797	13.72
458.154	13.69
458.51	13.87
458.867	13.86
459.223	13.56
459.58	13.67
459.936	13.61
460.292	13.55
460.648	13.51
461.005	13.48
461.361	13.28
461.717	13.25
462.073	13.28
462.429	13.37
462.785	13.64
463.141	13.69
463.496	13.9
463.852	13.93
464.208	14.04
464.564	13.98
464.919	13.99
465.275	13.85
465.631	14.18
465.986	14.15
466.342	14.31
466.697	13.93
467.052	14.17
467.408	14.21
467.763	14.34
468.118	14.19
468.473	14.15
468.829	14.15
469.184	13.89
469.539	14.09
469.894	14.18
470.249	14.32
470.603	14.48
470.958	14.46
471.313	14.34
471.668	14.37
472.023	14.42
472.377	14.47
472.732	14.48
473.086	14.63
473.441	14.42
473.795	14.58
474.15	14.48
474.504	14.47
474.859	14.55
475.213	14.58
475.567	14.59
475.921	14.68
476.275	14.63
476.63	14.7
476.984	14.85
477.338	14.82
477.692	14.92
478.045	14.63
478.399	14.69
478.753	14.67
479.107	14.69
479.461	14.89
479.814	14.86
480.168	14.74
480.521	14.78
480.875	14.88
481.228	14.87
481.582	15.04
481.935	14.89
482.289	14.96
482.642	14.84
482.995	14.78
483.348	14.87
483.701	14.73
484.055	14.77
484.408	14.64
484.761	14.45
485.114	14.18
485.466	13.93
485.819	13.89
486.172	14.07
486.525	14.24
486.878	14.46
487.23	14.63
487.583	14.74
487.936	14.78
488.288	14.75
488.641	14.55
488.993	14.41
489.345	14.39
489.698	14.41
490.05	14.51
490.402	14.6
490.754	14.79
491.107	15.01
491.459	15.11
491.811	15.34
492.163	15.34
492.515	15.31
492.866	15.08
493.218	14.67
493.57	14.59
493.922	14.73
494.274	14.92
494.625	15.11
494.977	15.33
495.328	15.54
495.68	15.55
496.031	15.76
496.383	15.68
496.734	15.83
497.086	15.82
497.437	15.83
497.788	15.66
498.139	15.6
498.49	15.53
498.842	15.59
499.193	15.74
499.544	15.65
499.894	15.66
500.245	15.84
500.596	15.83
500.947	15.92
501.298	15.95
501.648	15.97
501.999	16.21
502.35	16.09
502.7	16.09
503.051	16.09
503.401	16.16
503.752	16.31
504.102	16.23
504.452	16.19
504.803	16.29
505.153	16.19
505.503	16.19
505.853	16.26
506.203	16.17
506.553	16.2
506.903	16.32
507.253	16.46
507.603	16.42
507.953	16.4
508.303	16.58
508.652	16.33
509.002	16.4
509.352	16.48
509.701	16.34
510.051	16.24
510.4	16.17
510.75	16.36
511.099	16.17
511.449	16.26
511.798	16.33
512.147	16.45
512.496	16.42
512.846	16.57
513.195	16.59
513.544	16.55
513.893	16.66
514.242	16.62
514.591	16.53
514.939	16.6
515.288	16.72
515.637	16.7
515.986	16.91
516.334	16.97
516.683	17.01
517.032	17.13
517.38	17.02
517.729	16.86
518.077	17.02
518.426	17.13
518.774	16.97
519.122	16.84
519.47	16.84
519.819	16.78
520.167	16.61
520.515	16.64
520.863	16.72
521.211	16.78
521.559	16.86
521.907	16.87
522.255	17.11
522.602	17.17
522.95	17.16
523.298	17.33
523.645	17.34
523.993	17.38
524.341	17.34
524.688	17.47
525.036	17.4
525.383	17.61
525.73	17.44
526.078	17.38
526.425	17.39
526.772	17.29
527.119	17.22
527.466	17
527.814	16.96
528.161	17.15
528.508	17.26
528.854	17.42
529.201	17.43
529.548	17.2
529.895	16.91
530.242	16.46
530.588	16.49
530.935	16.8
531.282	16.93
531.628	17.01
531.975	17.13
532.321	17.32
532.667	17.46
533.014	17.66
533.36	17.52
533.706	17.61
534.052	17.65
534.399	17.4
534.745	17.29
535.091	17.06
535.437	17.08
535.783	17.35
536.129	17.56
536.474	17.75
536.82	17.85
537.166	18.01
537.512	18.1
537.857	18.09
538.203	17.83
538.549	17.58
538.894	17.78
539.239	17.85
539.585	18.02
539.93	18.06
540.276	18.46
540.621	18.1
540.966	18.39
541.311	18.36
541.656	18.34
542.001	18.27
542.346	18.21
542.691	17.82
543.036	17.54
543.381	17.39
543.726	17.49
544.071	17.71
544.415	18.01
544.76	18.04
545.105	18.1
545.449	18.2
545.794	18.37
546.138	18.43
546.483	18.69
546.827	18.6
547.171	18.41
547.516	18.48
547.86	18.55
548.204	18.44
548.548	18.31
548.892	18.39
549.236	18.63
549.58	18.67
549.924	18.76
550.268	18.99
550.612	18.96
550.956	19.12
551.3	19.2
551.643	19.19
551.987	19.03
552.33	19.14
552.674	19.26
553.017	19.27
553.361	19.24
553.704	19.33
554.048	19.16
554.391	18.9
554.734	18.98
555.077	19.11
555.42	19.16
555.764	19.32
556.107	19.28
556.45	19.48
556.793	19.48
557.135	19.47
557.478	19.52
557.821	19.66
558.164	19.53
558.507	19.47
558.849	19.36
559.192	19.52
559.534	19.71
559.877	19.69
560.219	19.45
560.562	19.81
560.904	19.63
561.246	19.79
561.589	19.83
561.931	19.96
562.273	19.68
562.615	19.87
562.957	19.73
563.299	19.61
563.641	19.92
563.983	19.7
564.325	19.77
564.667	19.89
565.008	19.81
565.35	20.01
565.692	19.95
566.033	19.93
566.375	19.67
566.716	20.04
567.058	19.94
567.399	19.96
567.741	19.77
568.082	19.72
568.423	19.86
568.764	19.96
569.105	20.04
569.447	20.01
569.788	19.94
570.129	20.14
570.47	20.15
570.811	20.1
571.151	20.07
571.492	20.37
571.833	20.34
572.174	20.15
572.514	20.27
572.855	20.2
573.195	20.18
573.536	20.04
573.876	20.04
574.217	20.08
574.557	20.35
574.898	20.28
575.238	20.46
575.578	20.51
575.918	20.38
576.258	20.66
576.598	20.52
576.938	20.33
577.278	20.42
577.618	20.42
577.958	20.62
578.298	20.6
578.638	20.64
578.977	20.42
579.317	20.7
579.657	21.04
579.996	20.87
580.336	20.92
580.675	20.94
581.014	20.78
581.354	21.14
581.693	20.84
582.032	20.92
582.372	20.89
582.711	20.72
583.05	20.83
583.389	21.04
583.728	21.25
584.067	21.02
584.406	20.68
584.745	21
585.083	21.09
585.422	21.23
585.761	20.86
586.1	21.19
586.438	21.3
586.777	21.18
587.115	21.17
587.454	21.32
587.792	21.05
588.13	21.26
588.469	21.43
588.807	21.51
589.145	21.1
589.483	21.29
589.821	21.46
590.159	21.27
590.497	21.31
590.835	21.47
591.173	21.34
591.511	21.05
591.849	21.35
592.187	21.35
592.524	21.31
592.862	21.31
593.2	21.62
593.537	21.42
593.875	21.42
594.212	21.54
594.55	21.41
594.887	21.47
595.224	21.93
595.561	21.5
595.899	21.33
596.236	21.4
596.573	21.36
596.91	21.68
597.247	21.91
597.584	21.65
597.921	21.58
598.258	21.69
598.594	21.63
598.931	21.39
599.268	21.46
599.604	21.54
599.941	21.71
600.277	21.73
600.614	21.81
600.95	21.79
601.287	22.13
601.623	22.03
601.959	22.04
602.296	22.35
602.632	22.14
602.968	21.92
603.304	21.89
603.64	22.11
603.976	22.17
604.312	22.3
604.648	21.79
604.984	21.73
605.319	22
605.655	22.09
605.991	21.83
606.326	21.8
606.662	21.71
606.998	21.86
607.333	21.99
607.668	22.11
608.004	22.17
608.339	22.15
608.674	22.19
609.01	22.48
609.345	22.5
609.68	22.57
610.015	22.48
610.35	22.55
610.685	22.02
611.02	22.18
611.355	22.11
611.689	22.1
612.024	22.12
612.359	22.51
612.694	22.27
613.028	22.45
613.363	22.81
613.697	22.82
614.032	22.88
614.366	22.68
614.7	22.73
615.035	22.67
615.369	22.88
615.703	22.59
616.037	22.73
616.371	22.66
616.705	22.81
617.039	22.56
617.373	22.71
617.707	22.69
618.041	23.17
618.375	23.03
618.709	22.83
619.042	22.63
619.376	22.96
619.71	22.62
620.043	22.9
620.377	23.06
620.71	22.87
621.043	22.69
621.377	22.92
621.71	22.9
622.043	22.84
622.376	23.29
622.709	23.27
623.043	23.02
623.376	22.95
623.709	23.04
624.041	22.88
624.374	22.95
624.707	23.1
625.04	23.18
625.373	22.93
625.705	23.17
626.038	23.48
626.37	23.59
626.703	23.19
627.035	23.24
627.368	23.03
627.7	23.29
628.032	23.29
628.365	23.31
628.697	23.12
629.029	23.16
629.361	23.02
629.693	22.97
630.025	23.41
630.357	23.53
630.689	23.65
631.021	23.34
631.353	23
631.684	23.78
632.016	23.7
632.348	23.46
632.679	23.8
633.011	23.62
633.342	23.72
633.674	23.85
634.005	23.68
634.336	23.6
634.668	23.58
634.999	23.51
635.33	23.61
635.661	23.6
635.992	23.56
636.323	23.6
636.654	23.57
636.985	23.72
637.316	23.43
637.647	23.76
637.977	23.5
638.308	23.46
638.639	23.79
638.969	23.67
639.3	23.44
639.63	24.04
639.961	23.78
640.291	23.66
640.622	24.24
640.952	24.05
641.282	23.85
641.612	24
641.943	23.99
642.273	23.41
642.603	24.09
642.933	23.79
643.263	24.03
643.592	24.1
643.922	24.31
644.252	24.24
644.582	24.33
644.911	24.29
645.241	24.01
645.571	24.21
645.9	24.07
646.23	23.86
646.559	24.24
646.888	24.38
647.218	24.29
647.547	24.15
647.876	24.04
648.205	23.94
648.534	24.16
648.863	24.44
649.192	24.39
649.521	24.55
649.85	24.4
650.179	24.1
650.508	24.47
650.837	23.86
651.165	24.28
651.494	24.51
651.822	24.19
652.151	24.68
652.479	24.22
652.808	23.86
653.136	24.12
653.465	24.45
653.793	24.59
654.121	24.05
654.449	24.95
654.777	24.62
655.105	24.6
655.433	24.84
655.761	24.35
656.089	24.9
656.417	24.69
656.745	24.81
657.073	24.81
657.4	24.46
657.728	24.64
658.056	24.91
658.383	24.53
658.711	24.17
659.038	24.77
659.365	24.57
659.693	25.3
660.02	25.11
660.347	24.75
660.674	24.67
661.001	24.43
661.329	24.53
661.656	24.79
661.982	24.4
662.309	25
662.636	25.09
662.963	24.69
663.29	24.85
663.616	24.8
663.943	24.75
664.27	25.17
664.596	25.19
664.923	25.01
665.249	25.44
665.576	24.88
665.902	24.66
666.228	24.41
666.554	25.44
666.881	25.4
667.207	25.32
667.533	25.29
667.859	24.87
668.185	25.34
668.511	24.84
668.837	24.92
669.162	25.59
669.488	25.36
669.814	25.09
670.139	25.23
670.465	25
670.791	25.14
671.116	25.01
671.442	25.49
671.767	25.09
672.092	25.13
672.418	25.37
672.743	25.41
673.068	25.23
673.393	25.82
673.718	25.19
