Data from 0036_crown_Reflection__2__07.txt Node

Date: Fri Nov 04 14:42:00 CDT 2022
User: ToomeyLab
Spectrometer: FLMS14357
Trigger mode: 0
Integration Time (sec): 1.000000E-2
Scans to average: 100
Electric dark correction enabled: true
Nonlinearity correction enabled: false
Boxcar width: 0
XAxis mode: Wavelengths
Number of Pixels in Spectrum: 2048
>>>>>Begin Spectral Data<<<<<
189.047	111.89
189.435	111.89
189.823	111.89
190.211	27.1
190.599	133.57
190.987	-379.5
191.375	95.57
191.763	224.09
192.151	131.73
192.538	526.58
192.926	333.49
193.314	137.62
193.702	-880.9
194.089	98.28
194.477	0
194.864	129.79
195.252	4.5
195.639	112.27
196.027	109.02
196.414	40.87
196.801	72.38
197.189	-104.45
197.576	20.04
197.963	11.87
198.351	-3.94
198.738	32.91
199.125	6.95
199.512	-79.4
199.899	52.54
200.286	20.37
200.673	27.61
201.06	-17.48
201.447	-10.44
201.833	33.96
202.22	-18.78
202.607	-3.31
202.994	3.21
203.38	43.72
203.767	-19.06
204.154	29.22
204.54	51.49
204.927	28.42
205.313	3.85
205.699	42.6
206.086	27.02
206.472	70.85
206.858	28.49
207.245	16.73
207.631	-5.95
208.017	11.95
208.403	20.87
208.789	65.48
209.175	29.3
209.561	28.47
209.947	26.45
210.333	40.12
210.719	-10.44
211.105	17.41
211.491	18.52
211.876	25.17
212.262	21.56
212.648	4.92
213.034	4.33
213.419	24.28
213.805	7.22
214.19	21.74
214.576	3.54
214.961	8.97
215.346	-5.89
215.732	4.26
216.117	31.38
216.502	32.82
216.888	11.86
217.273	5.9
217.658	17.93
218.043	-0.46
218.428	-1.36
218.813	23.79
219.198	-2.55
219.583	4.47
219.968	-15.16
220.353	-6.37
220.738	5.85
221.122	-2.82
221.507	9
221.892	-3.03
222.276	-17.26
222.661	25.38
223.046	4.97
223.43	2.63
223.815	7.53
224.199	6.63
224.583	12.91
224.968	5.59
225.352	1.03
225.736	7.65
226.121	9.85
226.505	10.34
226.889	6.05
227.273	3.82
227.657	2.59
228.041	7.39
228.425	8.65
228.809	8.33
229.193	9.45
229.577	4.75
229.961	6.42
230.344	5.85
230.728	6.22
231.112	6.63
231.495	6.29
231.879	7.6
232.263	7.13
232.646	7.28
233.03	7.06
233.413	8.45
233.797	7.15
234.18	6.62
234.563	8.1
234.946	5.31
235.33	8.59
235.713	7.55
236.096	6.49
236.479	5.6
236.862	6.14
237.245	6.64
237.628	6.33
238.011	6.41
238.394	7.3
238.777	6.02
239.16	10.09
239.543	7.66
239.925	5.56
240.308	6.78
240.691	5.96
241.073	6.65
241.456	6.82
241.838	4.53
242.221	5.6
242.603	6.01
242.986	7.06
243.368	6.55
243.75	6.42
244.133	5.96
244.515	6.25
244.897	5.66
245.279	6.28
245.661	6.62
246.043	5.98
246.425	5.72
246.807	6.13
247.189	6.59
247.571	6.36
247.953	5.25
248.335	5.58
248.717	5.72
249.098	5.62
249.48	5.74
249.862	6.01
250.243	5.96
250.625	5.97
251.006	5.53
251.388	6.36
251.769	5.54
252.151	5.45
252.532	5.53
252.913	5.45
253.295	5.23
253.676	5.33
254.057	5.57
254.438	5.76
254.819	6.16
255.2	5.47
255.581	5.59
255.962	5.48
256.343	4.56
256.724	4.83
257.105	5.79
257.486	6.5
257.867	6.51
258.247	5.32
258.628	4.66
259.009	5.78
259.389	4.65
259.77	5.83
260.15	5.04
260.531	5.66
260.911	5.18
261.292	5.13
261.672	5.19
262.052	5.02
262.432	5.36
262.813	5.62
263.193	5.43
263.573	5.56
263.953	5.61
264.333	5.58
264.713	5.45
265.093	4.98
265.473	5.08
265.853	5.38
266.233	5.88
266.612	6
266.992	5.36
267.372	4.92
267.752	4.92
268.131	5.22
268.511	4.87
268.89	5.59
269.27	5.06
269.649	4.99
270.029	5.15
270.408	5.22
270.787	5.37
271.167	5.34
271.546	4.79
271.925	5.7
272.304	5.26
272.683	4.71
273.062	4.58
273.441	4.77
273.82	4.99
274.199	5.04
274.578	4.6
274.957	5.18
275.336	4.92
275.715	5.05
276.093	5.11
276.472	4.84
276.851	5.34
277.229	4.7
277.608	4.23
277.986	5.07
278.365	4.47
278.743	5
279.122	5.12
279.5	4.77
279.878	5.2
280.257	4.86
280.635	5.06
281.013	5.01
281.391	5.48
281.769	4.5
282.147	4.36
282.525	5.04
282.903	5.1
283.281	4.44
283.659	5.26
284.037	4.86
284.415	4.7
284.792	5.06
285.17	4.46
285.548	4.37
285.925	5.04
286.303	4.68
286.68	4.72
287.058	4.34
287.435	4.29
287.813	4.48
288.19	4.37
288.567	4.83
288.945	4.63
289.322	4.69
289.699	4.94
290.076	4.64
290.453	5.09
290.83	4.05
291.207	4.05
291.584	4.39
291.961	4.6
292.338	4.72
292.715	4.65
293.092	3.88
293.469	4.74
293.845	4.49
294.222	4.57
294.599	4.62
294.975	4.62
295.352	4.51
295.728	4.43
296.105	4.38
296.481	4.59
296.858	4.49
297.234	4.85
297.61	4.77
297.986	4.67
298.363	4.3
298.739	4.27
299.115	4.46
299.491	4.29
299.867	4.59
300.243	4.5
300.619	4.35
300.995	4.42
301.371	4.39
301.746	4.11
302.122	4.15
302.498	4.45
302.874	4.46
303.249	4.29
303.625	4.45
304	4.09
304.376	4.51
304.751	4.11
305.127	4.31
305.502	4.19
305.878	4.05
306.253	4.27
306.628	4.5
307.003	4.07
307.378	4.35
307.754	4.61
308.129	4.28
308.504	4.18
308.879	4.15
309.254	4.26
309.629	4.6
310.003	4.48
310.378	4.31
310.753	4.68
311.128	4
311.502	4.53
311.877	4.35
312.252	3.89
312.626	4.34
313.001	4.39
313.375	4.3
313.75	4.2
314.124	4.47
314.498	3.73
314.873	4.27
315.247	4.16
315.621	3.97
315.995	4.47
316.369	4.51
316.743	4.33
317.117	4.19
317.491	4.07
317.865	4.2
318.239	4.32
318.613	4.51
318.987	4.37
319.361	4.5
319.734	4.3
320.108	4.24
320.482	4.22
320.855	4.45
321.229	4.27
321.602	4.52
321.976	4.47
322.349	4.42
322.723	3.95
323.096	4.52
323.469	4.86
323.843	4.3
324.216	4.23
324.589	3.96
324.962	4.71
325.335	3.86
325.708	4.39
326.081	4.27
326.454	4.6
326.827	4.24
327.2	3.96
327.573	3.95
327.945	3.98
328.318	4.22
328.691	4.23
329.063	4.17
329.436	4.04
329.809	4.74
330.181	4.54
330.553	4.66
330.926	4.43
331.298	4.61
331.671	4.8
332.043	4.05
332.415	4.33
332.787	4.25
333.159	4.54
333.532	4.29
333.904	4.53
334.276	4.12
334.648	4.51
335.02	4.18
335.391	4.3
335.763	4.25
336.135	4.45
336.507	4.46
336.879	4.28
337.25	4.36
337.622	4.77
337.993	4.35
338.365	4.1
338.736	4.45
339.108	4.46
339.479	3.99
339.851	4.25
340.222	5.02
340.593	4.46
340.964	4.27
341.336	3.93
341.707	4.65
342.078	4.57
342.449	4.54
342.82	4.36
343.191	4.12
343.562	4.48
343.933	4.72
344.303	4.66
344.674	4.26
345.045	4.14
345.416	4.81
345.786	4.49
346.157	4.66
346.527	4.65
346.898	4.13
347.268	4.38
347.639	4.55
348.009	4.6
348.38	4.02
348.75	4.79
349.12	3.95
349.49	4.41
349.861	4.29
350.231	4.42
350.601	4.08
350.971	4.36
351.341	4.7
351.711	4.79
352.081	4.41
352.45	4.22
352.82	4.38
353.19	4.19
353.56	4.3
353.929	4.31
354.299	4.48
354.669	4.41
355.038	4.4
355.408	4.29
355.777	4.39
356.147	4.63
356.516	4.6
356.885	4.97
357.254	4.72
357.624	4.65
357.993	4.47
358.362	4.65
358.731	4.25
359.1	4.46
359.469	4.47
359.838	4.9
360.207	4.67
360.576	4.6
360.945	4.47
361.314	4.38
361.682	4.58
362.051	4.44
362.42	4.88
362.788	4.46
363.157	4.46
363.525	4.47
363.894	4.57
364.262	4.36
364.631	4.57
364.999	4.53
365.367	4.07
365.735	4.63
366.104	4.87
366.472	4.42
366.84	4.56
367.208	4.28
367.576	4.75
367.944	4.54
368.312	4.61
368.68	4.51
369.048	4.52
369.416	4.6
369.783	4.8
370.151	4.94
370.519	4.98
370.886	4.53
371.254	4.44
371.621	4.73
371.989	4.64
372.356	4.93
372.724	4.91
373.091	4.72
373.458	4.85
373.826	4.84
374.193	4.85
374.56	4.72
374.927	4.58
375.294	4.68
375.661	4.45
376.028	4.51
376.395	4.49
376.762	4.76
377.129	4.6
377.496	4.53
377.863	4.8
378.229	5.12
378.596	4.62
378.963	4.7
379.329	4.41
379.696	4.81
380.062	4.63
380.429	4.83
380.795	5.11
381.161	4.79
381.528	4.77
381.894	5.05
382.26	4.7
382.626	4.85
382.993	4.66
383.359	4.92
383.725	4.94
384.091	4.67
384.457	4.94
384.823	4.71
385.188	4.68
385.554	4.72
385.92	4.41
386.286	4.79
386.651	4.99
387.017	4.49
387.383	4.91
387.748	4.76
388.114	4.87
388.479	4.66
388.845	4.74
389.21	4.68
389.575	4.87
389.94	4.91
390.306	4.6
390.671	4.77
391.036	4.86
391.401	5.04
391.766	4.63
392.131	4.79
392.496	4.55
392.861	5.09
393.226	4.82
393.591	4.68
393.956	4.79
394.32	4.64
394.685	5.02
395.05	4.7
395.414	4.9
395.779	4.73
396.143	4.88
396.508	4.64
396.872	4.75
397.236	4.85
397.601	4.93
397.965	5.02
398.329	4.75
398.694	4.8
399.058	5.01
399.422	4.86
399.786	4.84
400.15	5.04
400.514	5.05
400.878	4.87
401.242	4.68
401.605	4.83
401.969	4.99
402.333	4.95
402.697	4.82
403.06	5.03
403.424	4.84
403.787	4.89
404.151	5.02
404.514	4.86
404.878	4.98
405.241	5.02
405.604	4.84
405.968	4.84
406.331	4.93
406.694	4.86
407.057	4.86
407.42	4.7
407.783	4.78
408.146	5.07
408.509	4.97
408.872	4.99
409.235	5.06
409.598	5.01
409.961	4.96
410.323	4.99
410.686	5.07
411.049	4.81
411.411	5.06
411.774	4.93
412.136	4.88
412.499	5.03
412.861	4.87
413.223	4.86
413.586	5.02
413.948	4.98
414.31	4.88
414.672	5.08
415.035	5.04
415.397	5.14
415.759	4.91
416.121	5
416.483	4.86
416.845	4.99
417.206	4.91
417.568	4.96
417.93	4.93
418.292	4.94
418.653	4.82
419.015	4.97
419.377	4.87
419.738	4.77
420.1	4.68
420.461	4.92
420.822	4.8
421.184	4.77
421.545	4.88
421.906	4.88
422.267	4.74
422.629	4.7
422.99	4.68
423.351	4.72
423.712	4.75
424.073	4.78
424.434	4.78
424.795	4.68
425.155	4.81
425.516	4.76
425.877	4.81
426.238	4.72
426.598	4.77
426.959	4.66
427.32	4.89
427.68	4.95
428.041	4.94
428.401	4.94
428.761	4.99
429.122	4.96
429.482	4.85
429.842	5.23
430.202	5
430.563	5.11
430.923	4.94
431.283	5
431.643	5.07
432.003	4.9
432.363	4.9
432.722	4.93
433.082	5.13
433.442	4.82
433.802	4.83
434.161	5.05
434.521	4.78
434.881	4.84
435.24	4.97
435.6	4.89
435.959	4.88
436.319	4.91
436.678	5.07
437.037	5.01
437.396	4.99
437.756	5.16
438.115	5.16
438.474	5.05
438.833	4.93
439.192	4.81
439.551	4.87
439.91	4.89
440.269	4.93
440.628	4.95
440.987	4.82
441.345	4.81
441.704	4.83
442.063	4.88
442.421	4.83
442.78	4.93
443.138	4.84
443.497	5.01
443.855	4.95
444.214	5.01
444.572	5.09
444.93	4.97
445.288	4.97
445.647	4.88
446.005	4.98
446.363	4.79
446.721	4.86
447.079	4.79
447.437	4.86
447.795	4.74
448.153	4.81
448.51	4.76
448.868	4.82
449.226	4.76
449.584	4.89
449.941	4.92
450.299	4.95
450.656	5.05
451.014	4.84
451.371	5.04
451.729	5.05
452.086	4.98
452.443	5
452.801	4.98
453.158	5.02
453.515	5.13
453.872	5.02
454.229	4.93
454.586	4.96
454.943	5.01
455.3	5.24
455.657	4.83
456.014	4.8
456.371	4.9
456.727	4.9
457.084	4.95
457.441	5.07
457.797	4.97
458.154	4.9
458.51	5.04
458.867	5.03
459.223	4.91
459.58	4.94
459.936	4.87
460.292	4.85
460.648	4.88
461.005	4.93
461.361	4.89
461.717	4.76
462.073	4.85
462.429	4.82
462.785	4.87
463.141	4.82
463.496	4.97
463.852	5.04
464.208	5.13
464.564	5.02
464.919	5.01
465.275	4.99
465.631	5.01
465.986	4.92
466.342	5.01
466.697	4.91
467.052	4.93
467.408	4.91
467.763	5
468.118	5.02
468.473	5.08
468.829	5.06
469.184	4.87
469.539	5.19
469.894	5.04
470.249	5.05
470.603	4.98
470.958	4.97
471.313	4.95
471.668	4.96
472.023	4.99
472.377	4.99
472.732	4.99
473.086	5.16
473.441	4.94
473.795	4.87
474.15	4.99
474.504	5.06
474.859	4.81
475.213	5.05
475.567	5.03
475.921	4.99
476.275	5.08
476.63	4.98
476.984	5.13
477.338	4.99
477.692	5.04
478.045	4.97
478.399	4.84
478.753	4.97
479.107	4.99
479.461	4.93
479.814	5
480.168	5.12
480.521	4.78
480.875	5.05
481.228	4.98
481.582	5.08
481.935	4.98
482.289	5.03
482.642	4.94
482.995	4.95
483.348	4.84
483.701	4.9
484.055	4.8
484.408	4.82
484.761	4.73
485.114	4.61
485.466	4.48
485.819	4.46
486.172	4.55
486.525	4.59
486.878	4.68
487.23	4.73
487.583	4.81
487.936	4.84
488.288	4.8
488.641	4.64
488.993	4.62
489.345	4.64
489.698	4.62
490.05	4.63
490.402	4.7
490.754	4.73
491.107	4.78
491.459	4.82
491.811	4.91
492.163	4.9
492.515	4.89
492.866	4.78
493.218	4.66
493.57	4.55
493.922	4.65
494.274	4.78
494.625	4.82
494.977	4.84
495.328	4.92
495.68	4.9
496.031	4.93
496.383	4.86
496.734	5
497.086	4.87
497.437	4.96
497.788	4.93
498.139	4.96
498.49	4.96
498.842	4.84
499.193	4.9
499.544	4.84
499.894	4.84
500.245	4.84
500.596	4.94
500.947	4.9
501.298	4.99
501.648	5.05
501.999	5.04
502.35	5
502.7	5.02
503.051	4.97
503.401	5.03
503.752	4.98
504.102	4.83
504.452	4.92
504.803	4.89
505.153	4.88
505.503	5.01
505.853	4.83
506.203	4.89
506.553	4.9
506.903	4.83
507.253	4.86
507.603	5.03
507.953	5
508.303	4.93
508.652	4.82
509.002	4.78
509.352	4.86
509.701	4.81
510.051	4.84
510.4	4.81
510.75	4.8
511.099	4.81
511.449	4.72
511.798	4.84
512.147	4.81
512.496	4.81
512.846	4.85
513.195	4.77
513.544	4.83
513.893	4.93
514.242	5
514.591	4.82
514.939	4.89
515.288	4.79
515.637	4.86
515.986	4.83
516.334	5.05
516.683	4.83
517.032	4.96
517.38	4.97
517.729	4.85
518.077	4.89
518.426	4.93
518.774	4.86
519.122	4.72
519.47	4.86
519.819	4.83
520.167	4.8
520.515	4.78
520.863	4.75
521.211	4.8
521.559	4.75
521.907	4.77
522.255	4.79
522.602	4.94
522.95	4.92
523.298	4.92
523.645	4.92
523.993	4.95
524.341	4.85
524.688	4.92
525.036	4.87
525.383	4.96
525.73	4.85
526.078	4.86
526.425	4.87
526.772	4.82
527.119	4.75
527.466	4.65
527.814	4.65
528.161	4.72
528.508	4.72
528.854	4.74
529.201	4.81
529.548	4.71
529.895	4.59
530.242	4.44
530.588	4.47
530.935	4.55
531.282	4.58
531.628	4.64
531.975	4.64
532.321	4.71
532.667	4.75
533.014	4.8
533.36	4.72
533.706	4.85
534.052	4.76
534.399	4.68
534.745	4.58
535.091	4.53
535.437	4.61
535.783	4.61
536.129	4.78
536.474	4.72
536.82	4.72
537.166	4.88
537.512	4.79
537.857	4.74
538.203	4.7
538.549	4.72
538.894	4.62
539.239	4.65
539.585	4.86
539.93	4.79
540.276	4.81
540.621	4.83
540.966	4.98
541.311	4.79
541.656	4.9
542.001	4.8
542.346	4.78
542.691	4.61
543.036	4.53
543.381	4.53
543.726	4.52
544.071	4.61
544.415	4.68
544.76	4.69
545.105	4.65
545.449	4.68
545.794	4.71
546.138	4.68
546.483	4.88
546.827	4.7
547.171	4.79
547.516	4.8
547.86	4.71
548.204	4.82
548.548	4.56
548.892	4.62
549.236	4.72
549.58	4.71
549.924	4.77
550.268	4.74
550.612	4.81
550.956	4.83
551.3	4.91
551.643	4.87
551.987	4.82
552.33	4.89
552.674	4.8
553.017	4.89
553.361	4.92
553.704	4.78
554.048	4.8
554.391	4.87
554.734	4.67
555.077	4.66
555.42	4.83
555.764	4.87
556.107	4.78
556.45	5.08
556.793	4.8
557.135	4.96
557.478	4.8
557.821	4.97
558.164	4.82
558.507	4.88
558.849	4.79
559.192	4.83
559.534	4.78
559.877	5.04
560.219	4.76
560.562	4.81
560.904	4.7
561.246	4.82
561.589	4.89
561.931	4.85
562.273	4.95
562.615	5.09
562.957	4.76
563.299	4.64
563.641	4.88
563.983	4.78
564.325	4.82
564.667	4.86
565.008	4.7
565.35	4.91
565.692	4.91
566.033	4.91
566.375	4.74
566.716	4.98
567.058	4.82
567.399	4.69
567.741	4.69
568.082	4.68
568.423	4.77
568.764	4.88
569.105	4.79
569.447	4.78
569.788	4.9
570.129	4.85
570.47	4.78
570.811	4.63
571.151	4.7
571.492	4.93
571.833	4.98
572.174	4.68
572.514	5.03
572.855	4.66
573.195	4.67
573.536	4.74
573.876	4.82
574.217	4.76
574.557	4.81
574.898	4.83
575.238	4.84
575.578	4.69
575.918	4.66
576.258	4.78
576.598	4.84
576.938	4.73
577.278	4.66
577.618	4.7
577.958	4.78
578.298	4.85
578.638	4.82
578.977	4.78
579.317	4.74
579.657	5.07
579.996	4.81
580.336	4.81
580.675	4.88
581.014	4.67
581.354	4.74
581.693	4.85
582.032	4.78
582.372	4.82
582.711	4.67
583.05	4.75
583.389	4.64
583.728	4.7
584.067	4.72
584.406	4.77
584.745	4.8
585.083	4.75
585.422	4.85
585.761	4.78
586.1	5.02
586.438	5.04
586.777	4.94
587.115	4.84
587.454	4.92
587.792	4.74
588.13	4.93
588.469	4.77
588.807	4.95
589.145	4.7
589.483	4.95
589.821	4.87
590.159	4.83
590.497	4.83
590.835	4.99
591.173	4.52
591.511	4.65
591.849	4.86
592.187	4.81
592.524	4.89
592.862	4.39
593.2	4.7
593.537	4.77
593.875	4.8
594.212	4.81
594.55	4.69
594.887	4.64
595.224	4.87
595.561	4.86
595.899	4.54
596.236	4.68
596.573	4.69
596.91	4.74
597.247	4.85
597.584	4.66
597.921	4.81
598.258	4.87
598.594	4.68
598.931	4.49
599.268	4.78
599.604	4.77
599.941	4.54
600.277	4.71
600.614	4.57
600.95	4.68
601.287	4.65
601.623	4.79
601.959	4.58
602.296	4.83
602.632	4.85
602.968	4.6
603.304	4.73
603.64	4.59
603.976	4.84
604.312	4.85
604.648	4.7
604.984	4.7
605.319	4.77
605.655	4.66
605.991	4.57
606.326	4.52
606.662	4.51
606.998	4.54
607.333	4.74
607.668	4.57
608.004	4.7
608.339	4.7
608.674	4.82
609.01	4.93
609.345	4.63
609.68	4.69
610.015	4.75
610.35	4.65
610.685	4.4
611.02	4.63
611.355	4.93
611.689	4.51
612.024	4.62
612.359	4.63
612.694	4.58
613.028	4.77
613.363	4.56
613.697	4.72
614.032	4.65
614.366	4.86
614.7	4.72
615.035	4.72
615.369	4.85
615.703	4.7
616.037	4.68
616.371	4.9
616.705	4.56
617.039	4.68
617.373	4.6
617.707	4.71
618.041	4.75
618.375	4.49
618.709	5.02
619.042	4.77
619.376	4.85
619.71	4.84
620.043	4.94
620.377	4.89
620.71	4.8
621.043	4.6
621.377	4.62
621.71	4.55
622.043	4.62
622.376	4.69
622.709	4.62
623.043	4.69
623.376	4.63
623.709	4.85
624.041	4.79
624.374	4.67
624.707	4.18
625.04	5.16
625.373	4.43
625.705	4.65
626.038	4.87
626.37	4.58
626.703	4.42
627.035	4.71
627.368	4.63
627.7	4.45
628.032	4.76
628.365	4.79
628.697	4.65
629.029	4.54
629.361	4.55
629.693	4.54
630.025	4.92
630.357	4.61
630.689	4.59
631.021	4.58
631.353	4.55
631.684	4.96
632.016	4.52
632.348	4.54
632.679	4.39
633.011	4.48
633.342	5.01
633.674	4.76
634.005	4.95
634.336	4.66
634.668	4.8
634.999	4.76
635.33	4.96
635.661	4.47
635.992	4.57
636.323	4.61
636.654	4.82
636.985	4.75
637.316	4.52
637.647	4.53
637.977	4.74
638.308	4.73
638.639	4.9
638.969	4.8
639.3	4.53
639.63	4.85
639.961	4.54
640.291	4.2
640.622	5.02
640.952	4.77
641.282	4.23
641.612	4.6
641.943	5.08
642.273	4.44
642.603	4.79
642.933	4.71
643.263	4.71
643.592	4.71
643.922	4.68
644.252	4.65
644.582	4.76
644.911	4.37
645.241	4.4
645.571	4.94
645.9	4.96
646.23	4.41
646.559	4.54
646.888	4.45
647.218	4.88
647.547	5.09
647.876	4.65
648.205	4.64
648.534	4.52
648.863	4.91
649.192	4.72
649.521	5
649.85	4.73
650.179	4.84
650.508	4.59
650.837	4.39
651.165	5.01
651.494	4.74
651.822	4.6
652.151	4.77
652.479	4.69
652.808	4.54
653.136	4.43
653.465	4.73
653.793	4.93
654.121	4.88
654.449	4.79
654.777	4.84
655.105	4.92
655.433	4.59
655.761	4.36
656.089	5.18
656.417	4.77
656.745	4.78
657.073	4.8
657.4	4.53
657.728	4.84
658.056	4.94
658.383	5.28
658.711	4.14
659.038	4.44
659.365	4.28
659.693	4.98
660.02	5.03
660.347	4.75
660.674	4.74
661.001	4.59
661.329	4.76
661.656	5.1
661.982	4.44
662.309	4.58
662.636	4.53
662.963	4.68
663.29	4.51
663.616	4.48
663.943	4.4
664.27	4.86
664.596	4.58
664.923	5
665.249	5.19
665.576	4.52
665.902	4.31
666.228	4.67
666.554	5.34
666.881	4.89
667.207	4.88
667.533	4.88
667.859	4.93
668.185	4.53
668.511	4.79
668.837	4.93
669.162	5.1
669.488	4.77
669.814	4.63
670.139	4.93
670.465	4.45
670.791	4.36
671.116	4.98
671.442	4.69
671.767	4.8
672.092	5.24
672.418	5.03
672.743	5.13
673.068	5
673.393	4.78
673.718	4.52
674.043	4.39
674.368	4.65
674.693	4.83
675.018	4.86
675.343	4.38
675.667	5.04
675.992	4.68
676.317	5.59
676.641	4.99
676.966	4.88
677.29	4.97
677.615	4.57
677.939	5.33
678.264	4.54
678.588	4.5
678.912	4.42
679.236	5.35
679.56	4.85
679.885	4.22
680.209	4.91
680.532	4.76
680.856	5.13
681.18	4.83
681.504	5.09
681.828	5.01
682.152	4.74
682.475	4.5
682.799	4.9
683.122	4.64
683.446	4.95
683.769	5.38
684.093	4.79
684.416	4.9
684.739	4.78
685.062	4.98
685.386	4.84
685.709	5.34
686.032	4.75
686.355	5.14
686.678	4.83
687.001	4.65
687.324	4.78
687.646	4.96
687.969	5.23
688.292	4.96
688.614	4.66
688.937	4.82
689.26	4.48
689.582	5.64
689.904	4.76
690.227	4.92
690.549	4.57
690.871	4.94
691.194	5.2
691.516	4.78
691.838	5.52
692.16	5.18
692.482	4.95
692.804	4.75
693.126	4.46
693.448	4.84
