Data from 0036_crown_Reflection__4__09.txt Node

Date: Fri Nov 04 14:42:23 CDT 2022
User: ToomeyLab
Spectrometer: FLMS14357
Trigger mode: 0
Integration Time (sec): 1.000000E-2
Scans to average: 100
Electric dark correction enabled: true
Nonlinearity correction enabled: false
Boxcar width: 0
XAxis mode: Wavelengths
Number of Pixels in Spectrum: 2048
>>>>>Begin Spectral Data<<<<<
189.047	41.26
189.435	41.26
189.823	41.26
190.211	24.48
190.599	251.68
190.987	-940.7
191.375	102.31
191.763	-131.93
192.151	5.59
192.538	-160.25
192.926	20.37
193.314	-75.27
193.702	338.2
194.089	103.91
194.477	22.71
194.864	192.83
195.252	48.57
195.639	32.94
196.027	-240.3
196.414	-19.71
196.801	-44.58
197.189	-37.09
197.576	0.93
197.963	-7.25
198.351	-10.47
198.738	27.69
199.125	-45.44
199.512	-98.67
199.899	40.96
200.286	70.14
200.673	11.01
201.06	30.24
201.447	26.73
201.833	12.55
202.22	-7.03
202.607	-4
202.994	-5.2
203.38	54.37
203.767	-18.86
204.154	6.09
204.54	32.86
204.927	-6.62
205.313	26.62
205.699	15.64
206.086	8.23
206.472	52.17
206.858	15.7
207.245	9.29
207.631	12.88
208.017	21.19
208.403	32.23
208.789	9.06
209.175	26.29
209.561	39.26
209.947	15.65
210.333	36.08
210.719	9.34
211.105	9.38
211.491	-14.92
211.876	7.36
212.262	24.89
212.648	40.56
213.034	5.96
213.419	14.67
213.805	-9.35
214.19	9.91
214.576	-30.09
214.961	11.18
215.346	-6.48
215.732	1.7
216.117	-35.6
216.502	18.45
216.888	22.2
217.273	2.54
217.658	21.14
218.043	13.72
218.428	32.85
218.813	9.83
219.198	-2.12
219.583	13.93
219.968	-12.06
220.353	0.18
220.738	21.27
221.122	-4.41
221.507	-1.79
221.892	1.9
222.276	-10.02
222.661	4.75
223.046	4.57
223.43	14.57
223.815	1.55
224.199	-2.52
224.583	7.02
224.968	4.22
225.352	0.44
225.736	-1.77
226.121	2.15
226.505	3.41
226.889	4.69
227.273	-4.61
227.657	1.13
228.041	6.11
228.425	5.45
228.809	3.73
229.193	4.79
229.577	4.83
229.961	4.1
230.344	2.1
230.728	2.57
231.112	3.45
231.495	2.51
231.879	4.11
232.263	2.69
232.646	2.94
233.03	3.28
233.413	3.27
233.797	3.9
234.18	4.78
234.563	1.92
234.946	1.05
235.33	3.66
235.713	4.11
236.096	3.31
236.479	3.81
236.862	2.46
237.245	3.93
237.628	2.35
238.011	2.3
238.394	3.1
238.777	1.87
239.16	4.02
239.543	4.04
239.925	2.71
240.308	3.48
240.691	2.94
241.073	1.06
241.456	3
241.838	1.69
242.221	3.14
242.603	2.54
242.986	3.48
243.368	3.08
243.75	3.31
244.133	2.67
244.515	2.79
244.897	2.78
245.279	2.65
245.661	2.46
246.043	2.93
246.425	2.28
246.807	3.47
247.189	2.84
247.571	2.65
247.953	1.98
248.335	2.55
248.717	2.66
249.098	2.77
249.48	2.87
249.862	3.05
250.243	2.98
250.625	3.03
251.006	2.88
251.388	3.07
251.769	2.87
252.151	2.8
252.532	3.69
252.913	2.86
253.295	2.57
253.676	2.45
254.057	3.13
254.438	3.17
254.819	2.83
255.2	2.84
255.581	3.22
255.962	2.86
256.343	2.62
256.724	1.97
257.105	3.61
257.486	3.52
257.867	3.65
258.247	2.25
258.628	2.79
259.009	2.72
259.389	2.41
259.77	2.99
260.15	3.01
260.531	2.97
260.911	2.54
261.292	2.42
261.672	2.44
262.052	2.51
262.432	2.62
262.813	2.87
263.193	2.56
263.573	2.82
263.953	2.7
264.333	2.74
264.713	2.43
265.093	2.83
265.473	2.45
265.853	2.9
266.233	2.63
266.612	3.07
266.992	3.08
267.372	2.75
267.752	3.05
268.131	2.19
268.511	2.17
268.89	2.56
269.27	2.33
269.649	2.54
270.029	3.05
270.408	2.67
270.787	2.9
271.167	2.63
271.546	2.99
271.925	2.73
272.304	2.3
272.683	2.85
273.062	2.41
273.441	2.28
273.82	2.71
274.199	2.39
274.578	2.21
274.957	2.61
275.336	2.03
275.715	2.72
276.093	2.51
276.472	2.57
276.851	2.88
277.229	2.11
277.608	2.19
277.986	2.42
278.365	2.33
278.743	2.69
279.122	2.05
279.5	1.9
279.878	2.84
280.257	2.68
280.635	2.66
281.013	2.37
281.391	2.91
281.769	2.61
282.147	2.06
282.525	2.9
282.903	2.82
283.281	2.21
283.659	2.8
284.037	2.48
284.415	2.37
284.792	2.51
285.17	2.13
285.548	2.46
285.925	2.41
286.303	2.33
286.68	2.52
287.058	2.3
287.435	2.17
287.813	2.17
288.19	2.38
288.567	2.55
288.945	2.19
289.322	2.1
289.699	2.63
290.076	2.22
290.453	2.88
290.83	2.2
291.207	2.15
291.584	2.46
291.961	2.35
292.338	2.56
292.715	2.29
293.092	1.84
293.469	3.02
293.845	2.44
294.222	2.46
294.599	2.02
294.975	1.91
295.352	2.22
295.728	2.54
296.105	2.38
296.481	2.3
296.858	2.67
297.234	2.78
297.61	2.21
297.986	2.12
298.363	2.41
298.739	2.27
299.115	2.34
299.491	2.18
299.867	2.66
300.243	2.39
300.619	2.15
300.995	2.74
301.371	2.5
301.746	2.19
302.122	2.49
302.498	2.05
302.874	2.26
303.249	1.96
303.625	2.32
304	2.53
304.376	2.97
304.751	2.15
305.127	2.72
305.502	2.05
305.878	2.4
306.253	1.98
306.628	2.48
307.003	2.22
307.378	2.22
307.754	2.45
308.129	1.95
308.504	2.22
308.879	2.08
309.254	2.4
309.629	2.91
310.003	2.8
310.378	2.42
310.753	2.5
311.128	2.12
311.502	2.58
311.877	2.37
312.252	2.45
312.626	2.11
313.001	2.26
313.375	1.89
313.75	2.15
314.124	2.44
314.498	2.12
314.873	2.54
315.247	2.65
315.621	2.07
315.995	2.46
316.369	2.24
316.743	2.07
317.117	1.96
317.491	2.11
317.865	2.44
318.239	2.18
318.613	2.57
318.987	2.33
319.361	2.38
319.734	2.17
320.108	2.28
320.482	2.18
320.855	2.56
321.229	2.47
321.602	2.32
321.976	2.77
322.349	2.77
322.723	2.53
323.096	2.34
323.469	2.87
323.843	2.45
324.216	2.01
324.589	1.85
324.962	2.6
325.335	2.03
325.708	2.59
326.081	2.54
326.454	2.48
326.827	2.31
327.2	2.35
327.573	2.09
327.945	2.15
328.318	1.99
328.691	2.49
329.063	1.96
329.436	2.06
329.809	2.4
330.181	2.48
330.553	2.14
330.926	2.56
331.298	2.56
331.671	2.81
332.043	2.49
332.415	2.07
332.787	2.13
333.159	2.64
333.532	2.26
333.904	2.12
334.276	2.47
334.648	2.42
335.02	2.55
335.391	2.29
335.763	2.25
336.135	2.58
336.507	2.39
336.879	1.7
337.25	2.6
337.622	2.5
337.993	2.26
338.365	2.18
338.736	2.41
339.108	2.45
339.479	2.5
339.851	2.21
340.222	2.99
340.593	2.3
340.964	2.54
341.336	2.38
341.707	2.51
342.078	2.55
342.449	2.25
342.82	2.08
343.191	2.3
343.562	2.48
343.933	2.35
344.303	2.75
344.674	2.38
345.045	2.34
345.416	2.56
345.786	2.21
346.157	2.48
346.527	2.48
346.898	2.42
347.268	2.84
347.639	2.28
348.009	2.63
348.38	2.04
348.75	2.77
349.12	2.43
349.49	2.46
349.861	2.41
350.231	2.32
350.601	2.83
350.971	2.32
351.341	2.52
351.711	2.25
352.081	2.71
352.45	1.93
352.82	2.38
353.19	2.48
353.56	2.18
353.929	2.24
354.299	2.4
354.669	2.33
355.038	2.6
355.408	2.36
355.777	2.33
356.147	2.59
356.516	2.44
356.885	2.49
357.254	2.75
357.624	2.9
357.993	2.27
358.362	2.41
358.731	2.53
359.1	2.27
359.469	2.68
359.838	2.54
360.207	2.51
360.576	2.59
360.945	2.28
361.314	2.5
361.682	2.25
362.051	2.06
362.42	2.52
362.788	2.59
363.157	2.46
363.525	2.39
363.894	2.48
364.262	2.27
364.631	2.51
364.999	2.73
365.367	2.22
365.735	2.87
366.104	2.88
366.472	2.28
366.84	2.26
367.208	2.23
367.576	2.57
367.944	2.35
368.312	2.2
368.68	2.32
369.048	2.4
369.416	2.35
369.783	2.45
370.151	2.44
370.519	2.6
370.886	2.61
371.254	2.56
371.621	2.52
371.989	2.48
372.356	2.52
372.724	2.53
373.091	2.42
373.458	2.82
373.826	2.82
374.193	2.39
374.56	2.9
374.927	2.47
375.294	2.49
375.661	2.2
376.028	2.18
376.395	2.39
376.762	2.83
377.129	2.55
377.496	2.05
377.863	2.88
378.229	2.57
378.596	2.61
378.963	2.55
379.329	2.3
379.696	2.43
380.062	2.4
380.429	2.63
380.795	2.64
381.161	2.4
381.528	2.75
381.894	2.85
382.26	2.5
382.626	2.49
382.993	2.63
383.359	2.76
383.725	2.46
384.091	2.78
384.457	2.54
384.823	2.47
385.188	2.43
385.554	2.49
385.92	2.33
386.286	2.45
386.651	2.65
387.017	2.42
387.383	2.95
387.748	2.51
388.114	2.82
388.479	2.56
388.845	2.62
389.21	2.46
389.575	2.46
389.94	2.46
390.306	2.52
390.671	2.52
391.036	2.48
391.401	2.77
391.766	2.41
392.131	2.66
392.496	2.65
392.861	2.54
393.226	2.59
393.591	2.61
393.956	2.32
394.32	2.5
394.685	2.7
395.05	2.38
395.414	2.48
395.779	2.63
396.143	2.56
396.508	2.54
396.872	2.44
397.236	2.76
397.601	2.52
397.965	2.72
398.329	2.33
398.694	2.68
399.058	2.78
399.422	2.58
399.786	2.43
400.15	2.65
400.514	2.59
400.878	2.51
401.242	2.69
401.605	2.45
401.969	2.45
402.333	2.6
402.697	2.69
403.06	2.79
403.424	2.54
403.787	2.61
404.151	2.45
404.514	2.67
404.878	2.69
405.241	2.59
405.604	2.65
405.968	2.62
406.331	2.55
406.694	2.65
407.057	2.7
407.42	2.48
407.783	2.71
408.146	2.71
408.509	2.52
408.872	2.52
409.235	2.76
409.598	2.68
409.961	2.78
410.323	2.67
410.686	2.63
411.049	2.81
411.411	2.69
411.774	2.61
412.136	2.85
412.499	2.63
412.861	2.76
413.223	2.6
413.586	2.79
413.948	2.86
414.31	2.88
414.672	2.76
415.035	2.78
415.397	2.98
415.759	2.67
416.121	2.66
416.483	2.51
416.845	2.63
417.206	2.76
417.568	2.53
417.93	2.68
418.292	2.69
418.653	2.53
419.015	2.71
419.377	2.69
419.738	2.55
420.1	2.44
420.461	2.58
420.822	2.63
421.184	2.7
421.545	2.58
421.906	2.62
422.267	2.59
422.629	2.47
422.99	2.58
423.351	2.61
423.712	2.56
424.073	2.7
424.434	2.56
424.795	2.56
425.155	2.6
425.516	2.65
425.877	2.63
426.238	2.55
426.598	2.62
426.959	2.58
427.32	2.64
427.68	2.72
428.041	2.7
428.401	2.81
428.761	2.73
429.122	2.6
429.482	2.67
429.842	2.79
430.202	2.7
430.563	2.7
430.923	2.64
431.283	2.75
431.643	2.7
432.003	2.83
432.363	2.64
432.722	2.7
433.082	2.72
433.442	2.51
433.802	2.54
434.161	2.76
434.521	2.6
434.881	2.69
435.24	2.73
435.6	2.6
435.959	2.65
436.319	2.66
436.678	2.74
437.037	2.72
437.396	2.78
437.756	2.91
438.115	2.91
438.474	2.76
438.833	2.69
439.192	2.67
439.551	2.59
439.91	2.71
440.269	2.7
440.628	2.72
440.987	2.67
441.345	2.66
441.704	2.62
442.063	2.7
442.421	2.63
442.78	2.64
443.138	2.62
443.497	2.74
443.855	2.77
444.214	2.74
444.572	2.79
444.93	2.69
445.288	2.72
445.647	2.65
446.005	2.68
446.363	2.67
446.721	2.61
447.079	2.64
447.437	2.64
447.795	2.59
448.153	2.69
448.51	2.58
448.868	2.64
449.226	2.74
449.584	2.66
449.941	2.67
450.299	2.69
450.656	2.8
451.014	2.77
451.371	2.75
451.729	2.81
452.086	2.7
452.443	2.86
452.801	2.75
453.158	2.82
453.515	2.85
453.872	2.66
454.229	2.72
454.586	2.77
454.943	2.66
455.3	2.67
455.657	2.76
456.014	2.85
456.371	2.73
456.727	2.75
457.084	2.77
457.441	2.85
457.797	2.74
458.154	2.83
458.51	2.95
458.867	2.8
459.223	2.92
459.58	2.68
459.936	2.73
460.292	2.64
460.648	2.66
461.005	2.61
461.361	2.7
461.717	2.72
462.073	2.77
462.429	2.66
462.785	2.78
463.141	2.65
463.496	2.78
463.852	2.85
464.208	2.8
464.564	2.94
464.919	2.92
465.275	2.78
465.631	2.88
465.986	2.67
466.342	2.89
466.697	2.84
467.052	2.79
467.408	2.62
467.763	2.76
468.118	2.87
468.473	2.87
468.829	2.86
469.184	2.79
469.539	2.81
469.894	2.96
470.249	2.91
470.603	2.91
470.958	2.7
471.313	2.9
471.668	2.91
472.023	2.84
472.377	2.86
472.732	2.78
473.086	2.94
473.441	2.7
473.795	2.68
474.15	2.97
474.504	2.82
474.859	2.74
475.213	2.8
475.567	2.88
475.921	2.89
476.275	2.92
476.63	2.79
476.984	2.91
477.338	2.88
477.692	2.9
478.045	2.77
478.399	2.68
478.753	2.83
479.107	2.81
479.461	2.95
479.814	3.02
480.168	2.9
480.521	2.8
480.875	2.87
481.228	2.74
481.582	2.99
481.935	2.74
482.289	2.84
482.642	2.88
482.995	2.91
483.348	2.84
483.701	2.85
484.055	2.76
484.408	2.88
484.761	2.73
485.114	2.61
485.466	2.56
485.819	2.52
486.172	2.54
486.525	2.66
486.878	2.7
487.23	2.74
487.583	2.73
487.936	2.75
488.288	2.78
488.641	2.69
488.993	2.7
489.345	2.68
489.698	2.68
490.05	2.63
490.402	2.7
490.754	2.74
491.107	2.8
491.459	2.73
491.811	2.91
492.163	2.85
492.515	2.78
492.866	2.79
493.218	2.69
493.57	2.66
493.922	2.69
494.274	2.76
494.625	2.79
494.977	2.84
495.328	2.89
495.68	2.83
496.031	3.01
496.383	2.72
496.734	2.92
497.086	2.88
497.437	2.98
497.788	2.81
498.139	2.87
498.49	2.89
498.842	2.8
499.193	2.9
499.544	2.75
499.894	2.9
500.245	2.92
500.596	2.86
500.947	2.93
501.298	3.02
501.648	2.94
501.999	3.01
502.35	2.98
502.7	2.91
503.051	2.97
503.401	2.96
503.752	2.97
504.102	2.93
504.452	2.91
504.803	2.91
505.153	2.9
505.503	2.86
505.853	2.84
506.203	2.79
506.553	2.91
506.903	2.93
507.253	2.9
507.603	2.97
507.953	2.95
508.303	2.97
508.652	2.85
509.002	2.88
509.352	2.92
509.701	2.86
510.051	2.88
510.4	2.8
510.75	2.92
511.099	2.78
511.449	2.8
511.798	2.8
512.147	2.93
512.496	2.89
512.846	2.97
513.195	2.85
513.544	2.91
513.893	2.93
514.242	2.94
514.591	2.89
514.939	2.85
515.288	2.8
515.637	2.9
515.986	2.94
516.334	3.05
516.683	2.92
517.032	2.96
517.38	2.96
517.729	2.95
518.077	2.91
518.426	3.04
518.774	2.92
519.122	2.79
519.47	2.99
519.819	2.85
520.167	2.86
520.515	2.82
520.863	2.84
521.211	2.89
521.559	2.9
521.907	2.87
522.255	2.85
522.602	2.94
522.95	2.95
523.298	2.96
523.645	2.88
523.993	2.97
524.341	2.84
524.688	2.96
525.036	2.9
525.383	2.99
525.73	2.92
526.078	2.91
526.425	2.85
526.772	2.92
527.119	2.89
527.466	2.85
527.814	2.78
528.161	2.84
528.508	2.88
528.854	2.95
529.201	2.94
529.548	2.9
529.895	2.82
530.242	2.69
530.588	2.67
530.935	2.75
531.282	2.8
531.628	2.86
531.975	2.86
532.321	2.91
532.667	2.94
533.014	2.92
533.36	2.88
533.706	2.92
534.052	2.96
534.399	2.89
534.745	2.8
535.091	2.83
535.437	2.79
535.783	2.84
536.129	2.87
536.474	2.92
536.82	2.92
537.166	3.01
537.512	3.03
537.857	3.04
538.203	2.89
538.549	2.89
538.894	2.9
539.239	2.87
539.585	3.11
539.93	2.97
540.276	3.03
540.621	3.05
540.966	3.01
541.311	2.98
541.656	3.02
542.001	3.02
542.346	2.98
542.691	2.89
543.036	2.85
543.381	2.78
543.726	2.83
544.071	2.83
544.415	2.91
544.76	2.95
545.105	2.89
545.449	2.88
545.794	2.95
546.138	3.01
546.483	3.19
546.827	2.98
547.171	2.99
547.516	2.99
547.86	3.04
548.204	3.05
548.548	2.87
548.892	2.96
549.236	2.95
549.58	3.05
549.924	3.02
550.268	3.05
550.612	3.07
550.956	3.04
551.3	3.14
551.643	3.1
551.987	3.17
552.33	3.03
552.674	3.06
553.017	3.24
553.361	2.91
553.704	2.98
554.048	3.14
554.391	3.12
554.734	2.97
555.077	3.06
555.42	3.03
555.764	3.1
556.107	3.1
556.45	3.18
556.793	2.99
557.135	3.13
557.478	3.16
557.821	3.21
558.164	3.04
558.507	3.1
558.849	2.97
559.192	3.1
559.534	3.16
559.877	2.97
560.219	2.98
560.562	3.09
560.904	3.03
561.246	3
561.589	3.14
561.931	3.03
562.273	3.3
562.615	3.31
562.957	3.04
563.299	3.04
563.641	3.12
563.983	3.11
564.325	3.06
564.667	3
565.008	3.11
565.35	3.27
565.692	2.98
566.033	3.17
566.375	3.05
566.716	3.17
567.058	3.17
567.399	3.13
567.741	3.06
568.082	3.09
568.423	3.09
568.764	3.15
569.105	3.16
569.447	3.13
569.788	3.1
570.129	3.27
570.47	3.22
570.811	3.14
571.151	3.11
571.492	3.19
571.833	3.1
572.174	3.01
572.514	3.23
572.855	3.07
573.195	2.97
573.536	3.02
573.876	3.08
574.217	3.07
574.557	3.06
574.898	3.12
575.238	3.22
575.578	3.13
575.918	3.05
576.258	3.2
576.598	3.19
576.938	3.16
577.278	3.15
577.618	3.07
577.958	3.18
578.298	3.2
578.638	3.29
578.977	3.08
579.317	3.17
579.657	3.34
579.996	3.05
580.336	3.18
580.675	3.31
581.014	3.16
581.354	3.2
581.693	3.26
582.032	3.23
582.372	3.19
582.711	3.19
583.05	2.95
583.389	3.34
583.728	3.13
584.067	3.07
584.406	3.18
584.745	3.42
585.083	3.27
585.422	3.27
585.761	3.1
586.1	3.46
586.438	3.36
586.777	3.42
587.115	3.22
587.454	3.33
587.792	3.17
588.13	3.33
588.469	3.24
588.807	3.46
589.145	3.29
589.483	3.41
589.821	3.25
590.159	3.07
590.497	3.29
590.835	3.43
591.173	3.29
591.511	3.3
591.849	3.28
592.187	3.04
592.524	3.32
592.862	3.04
593.2	3.07
593.537	3.38
593.875	3.32
594.212	3.22
594.55	3.22
594.887	3.13
595.224	3.54
595.561	3.34
595.899	3.09
596.236	3.16
596.573	3.2
596.91	3.26
597.247	3.44
597.584	3.11
597.921	3.07
598.258	3.35
598.594	3.31
598.931	3.11
599.268	3.3
599.604	3.18
599.941	3.28
600.277	3.22
600.614	3.13
600.95	3.32
601.287	3.3
601.623	3.26
601.959	3.21
602.296	3.28
602.632	3.56
602.968	3.35
603.304	3.47
603.64	3.34
603.976	3.37
604.312	3.67
604.648	3.21
604.984	3.31
605.319	3.38
605.655	3.27
605.991	3.31
606.326	3.39
606.662	3.22
606.998	3.2
607.333	3.25
607.668	3.29
608.004	3.22
608.339	3.19
608.674	3.27
609.01	3.42
609.345	3.36
609.68	3.3
610.015	3.42
610.35	3.34
610.685	3.24
611.02	3.45
611.355	3.4
611.689	3.2
612.024	3.36
612.359	3.47
612.694	3.26
613.028	3.59
613.363	3.61
613.697	3.58
614.032	3.5
614.366	3.37
614.7	3.57
615.035	3.36
615.369	3.38
615.703	3.3
616.037	3.44
616.371	3.15
616.705	3.19
617.039	3.3
617.373	3.76
617.707	3.31
618.041	3.42
618.375	3.45
618.709	3.69
619.042	3.19
619.376	3.41
619.71	3.41
620.043	3.51
620.377	3.73
620.71	3.69
621.043	3.38
621.377	3.2
621.71	3.24
622.043	3.26
622.376	3.46
622.709	3.42
623.043	3.54
623.376	3.33
623.709	3.85
624.041	3.67
624.374	3.61
624.707	3.34
625.04	4.07
625.373	3.13
625.705	3.34
626.038	3.71
626.37	3.6
626.703	3.56
627.035	3.41
627.368	3.32
627.7	3.52
628.032	3.54
628.365	3.47
628.697	3.39
629.029	3.39
629.361	3.41
629.693	3.27
630.025	3.59
630.357	3.62
630.689	3.55
631.021	3.51
631.353	3.33
631.684	3.55
632.016	3.21
632.348	3.33
632.679	3.43
633.011	3.61
633.342	3.91
633.674	3.44
634.005	3.81
634.336	3.63
634.668	3.56
634.999	3.65
635.33	3.9
635.661	3.06
635.992	3.6
636.323	3.77
636.654	3.93
636.985	3.73
637.316	3.54
637.647	3.3
637.977	3.75
638.308	3.57
638.639	4.01
638.969	3.07
639.3	3.46
639.63	3.18
639.961	3.38
640.291	3.26
640.622	3.79
640.952	3.66
641.282	3.53
641.612	3.74
641.943	3.46
642.273	2.98
642.603	3.81
642.933	3.66
643.263	3.79
643.592	3.71
643.922	3.6
644.252	3.02
644.582	3.76
644.911	3.42
645.241	3.52
645.571	4.04
645.9	3.76
646.23	3.4
646.559	3.73
646.888	3.79
647.218	3.56
647.547	3.95
647.876	3.81
648.205	3.3
648.534	4.01
648.863	3.9
649.192	3.75
649.521	3.86
649.85	3.59
650.179	3.49
650.508	3.75
650.837	3.83
651.165	3.39
651.494	3.65
651.822	3.67
652.151	3.72
652.479	3.42
652.808	3.06
653.136	3.27
653.465	3.86
653.793	3.7
654.121	4.11
654.449	3.49
654.777	3.68
655.105	4.42
655.433	3.75
655.761	3.52
656.089	4.47
656.417	3.49
656.745	4.04
657.073	3.71
657.4	3.48
657.728	3.61
658.056	4.15
658.383	3.75
658.711	3.23
659.038	3.34
659.365	3.28
659.693	4.15
660.02	3.81
660.347	4
660.674	3.63
661.001	3.81
661.329	3.89
661.656	4.04
661.982	3.8
662.309	3.84
662.636	3.47
662.963	3.71
663.29	3.65
663.616	3.6
663.943	3.8
664.27	3.65
664.596	3.76
664.923	4.2
665.249	4.1
665.576	3.51
665.902	3.49
666.228	3.74
666.554	4.95
666.881	3.95
667.207	3.72
667.533	3.49
667.859	4.12
668.185	4.22
668.511	3.55
668.837	3.89
669.162	4.46
669.488	3.98
669.814	4.02
670.139	4.15
670.465	4.11
670.791	3.49
671.116	3.58
671.442	4.14
671.767	3.53
672.092	4.17
672.418	4.28
672.743	4.15
673.068	4.03
673.393	4.32
673.718	3.49
674.043	3.93
674.368	4.06
674.693	4.12
675.018	3.79
675.343	2.98
675.667	3.85
675.992	4.26
676.317	4.71
676.641	3.48
676.966	3.66
677.29	4.05
677.615	4.06
677.939	4.21
678.264	3.76
678.588	3.44
678.912	4.05
679.236	4.15
679.56	3.78
679.885	3.67
680.209	3.86
680.532	4.26
680.856	4.33
681.18	4.14
681.504	4.18
681.828	4.4
682.152	3.97
682.475	4.02
682.799	4.55
683.122	3.75
683.446	3.7
683.769	4.9
684.093	4.13
684.416	4.14
684.739	4.09
685.062	4.47
685.386	3.93
685.709	4.73
686.032	3.66
686.355	4.49
686.678	4.06
687.001	4.43
687.324	4.29
687.646	4.33
687.969	4.19
688.292	4.02
688.614	4.08
688.937	4.46
689.26	3.92
689.582	4.39
689.904	3.62
690.227	4.04
690.549	3.77
690.871	4.17
691.194	4.19
691.516	4.19
691.838	4.83
692.16	4.41
692.482	3.84
692.804	4.25
693.126	4.61
