Data from 0036_crown_Reflection__0__05.txt Node

Date: Fri Nov 04 14:41:34 CDT 2022
User: ToomeyLab
Spectrometer: FLMS14357
Trigger mode: 0
Integration Time (sec): 1.000000E-2
Scans to average: 100
Electric dark correction enabled: true
Nonlinearity correction enabled: false
Boxcar width: 0
XAxis mode: Wavelengths
Number of Pixels in Spectrum: 2048
>>>>>Begin Spectral Data<<<<<
189.047	187.68
189.435	187.68
189.823	187.68
190.211	1.72
190.599	277.25
190.987	-137.63
191.375	-178.03
191.763	137.82
192.151	55.29
192.538	381.77
192.926	465.57
193.314	110.3
193.702	-112.36
194.089	194.14
194.477	0.14
194.864	18.21
195.252	113.07
195.639	194.75
196.027	-211.03
196.414	-56.87
196.801	6.15
197.189	86.4
197.576	-87.11
197.963	-10.19
198.351	-27.45
198.738	9.41
199.125	1.52
199.512	-55.77
199.899	11.74
200.286	31.03
200.673	37.02
201.06	24.59
201.447	39.34
201.833	56.44
202.22	30.1
202.607	20.98
202.994	-19.13
203.38	37.34
203.767	-15.98
204.154	42.11
204.54	39.42
204.927	46.07
205.313	39.26
205.699	16.93
206.086	22.22
206.472	66.19
206.858	22.13
207.245	15.32
207.631	6.01
208.017	27.49
208.403	30.49
208.789	-10.36
209.175	-10.37
209.561	5.12
209.947	19.45
210.333	36.66
210.719	9.85
211.105	17.51
211.491	10.81
211.876	32.9
212.262	17.91
212.648	5.74
213.034	8.1
213.419	34.28
213.805	-1.45
214.19	19.56
214.576	0.07
214.961	28.85
215.346	21.31
215.732	-3.05
216.117	-14.95
216.502	23.66
216.888	-11.87
217.273	13.09
217.658	12.19
218.043	11.34
218.428	11.51
218.813	12.81
219.198	-7.83
219.583	18.8
219.968	-1.88
220.353	11.66
220.738	9.86
221.122	10.08
221.507	25.65
221.892	1
222.276	-1.69
222.661	12.03
223.046	7.63
223.43	3.32
223.815	13.18
224.199	-3.77
224.583	3.31
224.968	4.28
225.352	9.25
225.736	9.82
226.121	7.64
226.505	1.54
226.889	0.31
227.273	2.33
227.657	-1.61
228.041	1.83
228.425	4.26
228.809	2.15
229.193	1.66
229.577	1.21
229.961	1.92
230.344	0.03
230.728	1.21
231.112	1.96
231.495	1.4
231.879	3.39
232.263	1.65
232.646	1.9
233.03	2.52
233.413	2.48
233.797	3.24
234.18	3.26
234.563	3.24
234.946	0.92
235.33	3.62
235.713	2.26
236.096	2.38
236.479	2.66
236.862	2.14
237.245	1.66
237.628	1.69
238.011	2.56
238.394	3.37
238.777	2.13
239.16	2.64
239.543	4.21
239.925	0.98
240.308	2.57
240.691	1.59
241.073	0.41
241.456	2.52
241.838	0.04
242.221	1.6
242.603	1.43
242.986	2.26
243.368	1.3
243.75	1.86
244.133	1.34
244.515	1.88
244.897	0.93
245.279	1.51
245.661	1.99
246.043	2.03
246.425	0.71
246.807	2.55
247.189	2.35
247.571	1.87
247.953	1.38
248.335	1.42
248.717	1.29
249.098	1.46
249.48	1.29
249.862	1.4
250.243	1.79
250.625	1.87
251.006	1.12
251.388	1.99
251.769	1.57
252.151	1.01
252.532	1.21
252.913	1.56
253.295	1.6
253.676	1.22
254.057	1.36
254.438	1.51
254.819	1.65
255.2	2.58
255.581	1.84
255.962	1.06
256.343	0.78
256.724	1.97
257.105	2.64
257.486	1.66
257.867	1.71
258.247	1.75
258.628	1.05
259.009	1.69
259.389	1.61
259.77	1.56
260.15	1.84
260.531	1.57
260.911	1.24
261.292	1.06
261.672	1.21
262.052	1.37
262.432	1.37
262.813	1.73
263.193	1.86
263.573	1.3
263.953	1.49
264.333	1.25
264.713	1.37
265.093	1.19
265.473	1.01
265.853	1.02
266.233	1.66
266.612	1.6
266.992	1.52
267.372	2.38
267.752	1.29
268.131	1.56
268.511	1
268.89	1.78
269.27	1.8
269.649	2.06
270.029	1.42
270.408	1.81
270.787	2.12
271.167	1.63
271.546	1.69
271.925	1.37
272.304	1.35
272.683	1.38
273.062	1.61
273.441	1.06
273.82	1.31
274.199	1.59
274.578	1.29
274.957	1.43
275.336	1.49
275.715	1.19
276.093	1.33
276.472	1.93
276.851	1.36
277.229	1
277.608	1.36
277.986	1.65
278.365	1.52
278.743	1.22
279.122	1.6
279.5	0.98
279.878	1.19
280.257	0.7
280.635	1.37
281.013	1.21
281.391	1.61
281.769	1.3
282.147	1.03
282.525	1.48
282.903	1.3
283.281	1.32
283.659	1.76
284.037	1.42
284.415	1.21
284.792	1.33
285.17	1.05
285.548	1.46
285.925	1.24
286.303	1.43
286.68	1.3
287.058	0.91
287.435	1.34
287.813	1.15
288.19	1.48
288.567	1.61
288.945	1.52
289.322	1.29
289.699	1.36
290.076	1.55
290.453	2
290.83	1.41
291.207	0.92
291.584	1.49
291.961	1.46
292.338	1.67
292.715	1.54
293.092	0.51
293.469	1.33
293.845	1.16
294.222	1.58
294.599	1.54
294.975	1.83
295.352	1.37
295.728	1.44
296.105	1.63
296.481	1.41
296.858	1.29
297.234	1.59
297.61	1.72
297.986	1.25
298.363	1.21
298.739	1.3
299.115	1.51
299.491	1.21
299.867	1.44
300.243	1.18
300.619	1.44
300.995	1.45
301.371	1.19
301.746	1.25
302.122	1.18
302.498	1.1
302.874	1.58
303.249	1.23
303.625	1.33
304	1.39
304.376	1.58
304.751	1.37
305.127	1.48
305.502	1.07
305.878	1.22
306.253	1.1
306.628	1.73
307.003	0.97
307.378	1.4
307.754	1.59
308.129	1.24
308.504	0.9
308.879	1.06
309.254	1.8
309.629	1.61
310.003	1.62
310.378	1.58
310.753	1.7
311.128	1.22
311.502	1.72
311.877	1.33
312.252	1.47
312.626	1.26
313.001	1.45
313.375	1.17
313.75	1.46
314.124	1.5
314.498	1.03
314.873	2.1
315.247	1.4
315.621	1.31
315.995	1.48
316.369	1.42
316.743	1.2
317.117	1.36
317.491	0.97
317.865	1.92
318.239	1.48
318.613	1.73
318.987	1.76
319.361	1.81
319.734	1.08
320.108	2.12
320.482	1.26
320.855	1.95
321.229	1.05
321.602	1.93
321.976	1.38
322.349	1.68
322.723	1.38
323.096	1.45
323.469	1.12
323.843	1.44
324.216	1.77
324.589	0.96
324.962	1.89
325.335	1.45
325.708	1.58
326.081	1.44
326.454	1.54
326.827	1.26
327.2	1.39
327.573	1.45
327.945	1.36
328.318	1.56
328.691	1.31
329.063	1.64
329.436	1.48
329.809	1.95
330.181	1.04
330.553	1.6
330.926	1.55
331.298	1.86
331.671	1.77
332.043	1.59
332.415	1.39
332.787	1.61
333.159	1.53
333.532	1.23
333.904	1.15
334.276	1.17
334.648	1.65
335.02	1.72
335.391	1.51
335.763	1.53
336.135	1.84
336.507	1.97
336.879	1.01
337.25	1.51
337.622	1.78
337.993	1.81
338.365	1.15
338.736	1.74
339.108	1.56
339.479	1.45
339.851	1.61
340.222	1.85
340.593	1.23
340.964	1.37
341.336	1.63
341.707	1.62
342.078	1.84
342.449	1.77
342.82	1.51
343.191	1.74
343.562	1.93
343.933	1.5
344.303	1.46
344.674	1.25
345.045	1.62
345.416	1.8
345.786	1.52
346.157	1.64
346.527	1.57
346.898	1.29
347.268	1.59
347.639	1.47
348.009	1.82
348.38	1.28
348.75	1.75
349.12	1.26
349.49	1.2
349.861	1.33
350.231	1.49
350.601	1.33
350.971	1.68
351.341	1.41
351.711	1.7
352.081	1.52
352.45	1.31
352.82	1.38
353.19	1.56
353.56	1.47
353.929	1.7
354.299	1.51
354.669	1.32
355.038	1.76
355.408	1.16
355.777	1.53
356.147	1.58
356.516	1.69
356.885	1.77
357.254	1.64
357.624	1.52
357.993	1.68
358.362	1.42
358.731	1.32
359.1	1.47
359.469	1.63
359.838	1.55
360.207	1.63
360.576	1.7
360.945	1.41
361.314	1.73
361.682	1.55
362.051	1.21
362.42	1.66
362.788	1.36
363.157	1.47
363.525	1.46
363.894	1.61
364.262	1.41
364.631	1.54
364.999	1.4
365.367	1.16
365.735	1.72
366.104	1.73
366.472	1.58
366.84	1.38
367.208	1.18
367.576	1.6
367.944	1.09
368.312	1.36
368.68	1.57
369.048	1.38
369.416	1.17
369.783	1.72
370.151	1.67
370.519	1.79
370.886	1.18
371.254	1.36
371.621	1.53
371.989	1.23
372.356	1.34
372.724	1.5
373.091	1.64
373.458	1.79
373.826	1.7
374.193	1.56
374.56	1.78
374.927	1.5
375.294	1.66
375.661	1.33
376.028	1.31
376.395	1.18
376.762	1.54
377.129	1.61
377.496	1.36
377.863	1.68
378.229	1.38
378.596	1.54
378.963	1.33
379.329	1.4
379.696	1.63
380.062	1.6
380.429	1.62
380.795	1.81
381.161	1.39
381.528	1.63
381.894	1.63
382.26	1.63
382.626	1.38
382.993	1.24
383.359	1.75
383.725	1.52
384.091	1.57
384.457	1.67
384.823	1.43
385.188	1.27
385.554	1.62
385.92	1.35
386.286	1.63
386.651	2.02
387.017	1.61
387.383	1.87
387.748	1.44
388.114	1.77
388.479	1.37
388.845	1.64
389.21	1.54
389.575	1.47
389.94	1.61
390.306	1.67
390.671	1.49
391.036	1.44
391.401	1.62
391.766	1.18
392.131	1.58
392.496	1.48
392.861	1.83
393.226	1.64
393.591	1.56
393.956	1.43
394.32	1.43
394.685	1.58
395.05	1.38
395.414	1.56
395.779	1.6
396.143	1.68
396.508	1.52
396.872	1.41
397.236	1.71
397.601	1.53
397.965	1.83
398.329	1.47
398.694	1.6
399.058	1.57
399.422	1.59
399.786	1.73
400.15	1.53
400.514	1.71
400.878	1.56
401.242	1.65
401.605	1.44
401.969	1.87
402.333	1.62
402.697	1.77
403.06	1.69
403.424	1.34
403.787	1.74
404.151	1.67
404.514	1.66
404.878	1.55
405.241	1.64
405.604	1.58
405.968	1.62
406.331	1.68
406.694	1.49
407.057	1.42
407.42	1.49
407.783	1.59
408.146	1.52
408.509	1.56
408.872	1.67
409.235	1.61
409.598	1.47
409.961	1.67
410.323	1.61
410.686	1.49
411.049	1.61
411.411	1.67
411.774	1.6
412.136	1.44
412.499	1.57
412.861	1.61
413.223	1.36
413.586	1.69
413.948	1.65
414.31	1.66
414.672	1.7
415.035	1.43
415.397	1.81
415.759	1.69
416.121	1.54
416.483	1.41
416.845	1.58
417.206	1.61
417.568	1.52
417.93	1.84
418.292	1.6
418.653	1.59
419.015	1.65
419.377	1.49
419.738	1.47
420.1	1.4
420.461	1.49
420.822	1.49
421.184	1.7
421.545	1.48
421.906	1.58
422.267	1.43
422.629	1.44
422.99	1.54
423.351	1.53
423.712	1.59
424.073	1.5
424.434	1.49
424.795	1.39
425.155	1.37
425.516	1.6
425.877	1.55
426.238	1.47
426.598	1.59
426.959	1.46
427.32	1.5
427.68	1.49
428.041	1.58
428.401	1.64
428.761	1.57
429.122	1.56
429.482	1.72
429.842	1.75
430.202	1.57
430.563	1.55
430.923	1.56
431.283	1.71
431.643	1.53
432.003	1.46
432.363	1.47
432.722	1.68
433.082	1.62
433.442	1.4
433.802	1.46
434.161	1.65
434.521	1.49
434.881	1.66
435.24	1.55
435.6	1.54
435.959	1.53
436.319	1.55
436.678	1.66
437.037	1.57
437.396	1.69
437.756	1.69
438.115	1.67
438.474	1.69
438.833	1.57
439.192	1.62
439.551	1.49
439.91	1.54
440.269	1.7
440.628	1.63
440.987	1.6
441.345	1.5
441.704	1.55
442.063	1.55
442.421	1.52
442.78	1.55
443.138	1.53
443.497	1.63
443.855	1.66
444.214	1.64
444.572	1.62
444.93	1.63
445.288	1.56
445.647	1.62
446.005	1.65
446.363	1.7
446.721	1.5
447.079	1.54
447.437	1.57
447.795	1.5
448.153	1.52
448.51	1.44
448.868	1.53
449.226	1.57
449.584	1.47
449.941	1.58
450.299	1.62
450.656	1.68
451.014	1.49
451.371	1.68
451.729	1.79
452.086	1.6
452.443	1.68
452.801	1.62
453.158	1.69
453.515	1.84
453.872	1.64
454.229	1.46
454.586	1.59
454.943	1.62
455.3	1.69
455.657	1.62
456.014	1.53
456.371	1.62
456.727	1.59
457.084	1.71
457.441	1.73
457.797	1.72
458.154	1.7
458.51	1.81
458.867	1.69
459.223	1.59
459.58	1.73
459.936	1.64
460.292	1.53
460.648	1.68
461.005	1.58
461.361	1.63
461.717	1.55
462.073	1.61
462.429	1.52
462.785	1.57
463.141	1.54
463.496	1.57
463.852	1.61
464.208	1.67
464.564	1.7
464.919	1.66
465.275	1.52
465.631	1.57
465.986	1.57
466.342	1.72
466.697	1.51
467.052	1.53
467.408	1.55
467.763	1.69
468.118	1.65
468.473	1.8
468.829	1.7
469.184	1.55
469.539	1.53
469.894	1.58
470.249	1.79
470.603	1.82
470.958	1.67
471.313	1.69
471.668	1.65
472.023	1.66
472.377	1.53
472.732	1.71
473.086	1.68
473.441	1.57
473.795	1.54
474.15	1.67
474.504	1.57
474.859	1.57
475.213	1.57
475.567	1.63
475.921	1.67
476.275	1.81
476.63	1.64
476.984	1.76
477.338	1.64
477.692	1.61
478.045	1.64
478.399	1.46
478.753	1.58
479.107	1.65
479.461	1.69
479.814	1.73
480.168	1.66
480.521	1.67
480.875	1.63
481.228	1.54
481.582	1.75
481.935	1.58
482.289	1.59
482.642	1.76
482.995	1.64
483.348	1.62
483.701	1.64
484.055	1.55
484.408	1.55
484.761	1.56
485.114	1.52
485.466	1.48
485.819	1.43
486.172	1.45
486.525	1.49
486.878	1.51
487.23	1.59
487.583	1.6
487.936	1.55
488.288	1.57
488.641	1.52
488.993	1.51
489.345	1.52
489.698	1.5
490.05	1.48
490.402	1.5
490.754	1.57
491.107	1.55
491.459	1.58
491.811	1.68
492.163	1.66
492.515	1.65
492.866	1.58
493.218	1.51
493.57	1.51
493.922	1.51
494.274	1.57
494.625	1.57
494.977	1.6
495.328	1.6
495.68	1.63
496.031	1.76
496.383	1.58
496.734	1.66
497.086	1.6
497.437	1.72
497.788	1.59
498.139	1.64
498.49	1.68
498.842	1.59
499.193	1.64
499.544	1.62
499.894	1.58
500.245	1.6
500.596	1.82
500.947	1.65
501.298	1.64
501.648	1.62
501.999	1.69
502.35	1.71
502.7	1.77
503.051	1.69
503.401	1.75
503.752	1.71
504.102	1.68
504.452	1.55
504.803	1.61
505.153	1.65
505.503	1.65
505.853	1.65
506.203	1.65
506.553	1.65
506.903	1.72
507.253	1.63
507.603	1.78
507.953	1.7
508.303	1.68
508.652	1.67
509.002	1.75
509.352	1.67
509.701	1.65
510.051	1.6
510.4	1.56
510.75	1.72
511.099	1.6
511.449	1.54
511.798	1.54
512.147	1.6
512.496	1.62
512.846	1.73
513.195	1.57
513.544	1.68
513.893	1.68
514.242	1.75
514.591	1.62
514.939	1.63
515.288	1.69
515.637	1.7
515.986	1.55
516.334	1.8
516.683	1.66
517.032	1.73
517.38	1.68
517.729	1.62
518.077	1.74
518.426	1.72
518.774	1.59
519.122	1.55
519.47	1.65
519.819	1.66
520.167	1.61
520.515	1.66
520.863	1.6
521.211	1.6
521.559	1.63
521.907	1.63
522.255	1.52
522.602	1.7
522.95	1.63
523.298	1.65
523.645	1.76
523.993	1.65
524.341	1.65
524.688	1.73
525.036	1.64
525.383	1.89
525.73	1.68
526.078	1.7
526.425	1.65
526.772	1.68
527.119	1.64
527.466	1.64
527.814	1.57
528.161	1.55
528.508	1.63
528.854	1.67
529.201	1.64
529.548	1.61
529.895	1.51
530.242	1.46
530.588	1.47
530.935	1.54
531.282	1.59
531.628	1.6
531.975	1.56
532.321	1.62
532.667	1.62
533.014	1.71
533.36	1.67
533.706	1.71
534.052	1.7
534.399	1.6
534.745	1.58
535.091	1.55
535.437	1.53
535.783	1.55
536.129	1.62
536.474	1.66
536.82	1.64
537.166	1.75
537.512	1.82
537.857	1.74
538.203	1.71
538.549	1.63
538.894	1.59
539.239	1.54
539.585	1.69
539.93	1.63
540.276	1.71
540.621	1.66
540.966	1.73
541.311	1.59
541.656	1.67
542.001	1.58
542.346	1.64
542.691	1.56
543.036	1.63
543.381	1.59
543.726	1.56
544.071	1.55
544.415	1.62
544.76	1.6
545.105	1.68
545.449	1.64
545.794	1.63
546.138	1.66
546.483	1.74
546.827	1.63
547.171	1.57
547.516	1.61
547.86	1.81
548.204	1.69
548.548	1.56
548.892	1.66
549.236	1.63
549.58	1.74
549.924	1.74
550.268	1.74
550.612	1.69
550.956	1.76
551.3	1.77
551.643	1.78
551.987	1.68
552.33	1.7
552.674	1.63
553.017	1.75
553.361	1.72
553.704	1.63
554.048	1.71
554.391	1.71
554.734	1.66
555.077	1.59
555.42	1.77
555.764	1.79
556.107	1.72
556.45	1.83
556.793	1.79
557.135	1.94
557.478	1.72
557.821	1.83
558.164	1.66
558.507	1.83
558.849	1.85
559.192	1.83
559.534	1.8
559.877	1.9
560.219	1.73
560.562	1.74
560.904	1.57
561.246	1.83
561.589	1.84
561.931	1.7
562.273	1.92
562.615	1.98
562.957	1.83
563.299	1.76
563.641	1.81
563.983	1.7
564.325	1.91
564.667	1.8
565.008	1.7
565.35	1.89
565.692	1.8
566.033	1.77
566.375	1.58
566.716	1.97
567.058	1.78
567.399	1.72
567.741	1.68
568.082	1.8
568.423	1.8
568.764	1.8
569.105	1.64
569.447	1.8
569.788	1.89
570.129	1.89
570.47	1.85
570.811	1.67
571.151	1.87
571.492	1.88
571.833	2
572.174	1.64
572.514	1.85
572.855	1.79
573.195	1.73
573.536	1.76
573.876	1.87
574.217	1.76
574.557	1.8
574.898	1.62
575.238	1.83
575.578	1.83
575.918	1.7
576.258	1.8
576.598	1.83
576.938	1.79
577.278	1.78
577.618	1.87
577.958	1.75
578.298	1.77
578.638	1.95
578.977	1.66
579.317	2.04
579.657	1.99
579.996	1.69
580.336	1.8
580.675	1.94
581.014	1.85
581.354	1.76
581.693	1.84
582.032	1.68
582.372	1.94
582.711	1.73
583.05	1.88
583.389	1.89
583.728	1.77
584.067	1.79
584.406	1.69
584.745	1.84
585.083	1.84
585.422	1.99
585.761	1.77
586.1	2.04
586.438	1.84
586.777	1.86
587.115	1.79
587.454	2.02
587.792	1.81
588.13	1.91
588.469	1.86
588.807	1.94
589.145	1.92
589.483	1.98
589.821	1.92
590.159	2
590.497	1.98
590.835	1.77
591.173	1.85
591.511	1.83
591.849	1.77
592.187	1.94
592.524	2.05
592.862	1.73
593.2	1.83
593.537	1.81
593.875	1.87
594.212	1.92
594.55	1.92
594.887	1.77
595.224	1.94
595.561	1.89
595.899	1.77
596.236	1.74
596.573	1.74
596.91	1.9
597.247	2.12
597.584	1.77
597.921	1.83
598.258	1.96
598.594	1.69
598.931	1.8
599.268	1.83
599.604	1.88
599.941	1.88
600.277	1.79
600.614	1.83
600.95	1.58
601.287	1.96
601.623	2.01
601.959	1.94
602.296	1.98
602.632	1.88
602.968	1.77
603.304	1.98
603.64	1.83
603.976	2.02
604.312	2.04
604.648	1.81
604.984	1.92
605.319	1.86
605.655	1.92
605.991	1.86
606.326	1.86
606.662	1.97
606.998	1.76
607.333	1.83
607.668	1.9
608.004	1.91
608.339	1.77
608.674	1.81
609.01	1.9
609.345	1.97
609.68	1.74
610.015	1.81
610.35	1.74
610.685	1.71
611.02	1.7
611.355	1.98
611.689	1.84
612.024	2.01
612.359	2.04
612.694	1.84
613.028	2.09
613.363	1.91
613.697	1.98
614.032	2.01
614.366	1.78
614.7	2.08
615.035	1.86
615.369	2.11
615.703	2.07
616.037	1.95
616.371	1.8
616.705	1.72
617.039	1.74
617.373	2.17
617.707	1.94
618.041	2.05
618.375	2.24
618.709	2.28
619.042	2.24
619.376	1.86
619.71	1.73
620.043	2.44
620.377	1.98
620.71	2.17
621.043	1.8
621.377	1.92
621.71	1.47
622.043	2.04
622.376	1.93
622.709	2.12
623.043	1.8
623.376	1.97
623.709	2.16
624.041	2.23
624.374	1.97
624.707	1.6
625.04	2.5
625.373	1.59
625.705	1.95
626.038	2.15
626.37	1.91
626.703	1.75
627.035	1.97
627.368	1.73
627.7	1.89
628.032	2.06
628.365	1.86
628.697	2.01
629.029	1.8
629.361	1.83
629.693	1.98
630.025	1.91
630.357	1.97
630.689	1.92
631.021	1.85
631.353	1.89
631.684	2.1
632.016	1.81
632.348	1.92
632.679	1.77
633.011	1.78
633.342	2.18
633.674	2.29
634.005	2.37
634.336	1.95
634.668	2.04
634.999	2.08
635.33	2
635.661	1.87
635.992	2.07
636.323	1.93
636.654	2.27
636.985	2.03
637.316	2.05
637.647	2.19
637.977	2.09
638.308	2
638.639	2.26
638.969	1.92
639.3	1.93
639.63	1.95
639.961	1.87
640.291	2.09
640.622	2.1
640.952	2.1
641.282	2.16
641.612	2.19
641.943	2.05
642.273	2.06
642.603	1.97
642.933	1.87
643.263	2.08
643.592	2.26
643.922	2.15
644.252	2.13
644.582	2.13
644.911	1.72
645.241	2.1
645.571	2.43
645.9	2.22
646.23	1.81
646.559	2
646.888	1.83
647.218	2.28
647.547	2.37
647.876	1.97
648.205	2.32
648.534	1.98
648.863	2.25
649.192	2.25
649.521	2.01
649.85	2.13
650.179	2.25
650.508	2.19
650.837	1.68
651.165	1.65
651.494	1.81
651.822	2.34
652.151	2.23
652.479	2.07
652.808	1.71
653.136	1.75
653.465	2.35
653.793	1.96
654.121	2.52
654.449	2.16
654.777	2.2
655.105	3.04
655.433	2.25
655.761	1.92
656.089	2.16
656.417	2.26
656.745	2.28
657.073	2.32
657.4	1.9
657.728	2.22
658.056	2.17
658.383	2.38
658.711	2.06
659.038	1.96
659.365	1.67
659.693	2.24
660.02	2.45
660.347	2.37
660.674	2.25
661.001	2.09
661.329	2.06
661.656	2.2
661.982	2.21
662.309	2.12
662.636	2.06
662.963	2.39
663.29	2.03
663.616	1.82
663.943	2.53
664.27	2.16
664.596	1.85
664.923	2.62
665.249	2.67
665.576	2.21
665.902	1.95
666.228	2.16
666.554	2.53
666.881	2.51
667.207	1.78
667.533	2.19
667.859	2.17
668.185	2.82
668.511	1.94
668.837	2.54
669.162	2.6
669.488	2.54
669.814	2.22
670.139	2.64
670.465	2.09
670.791	1.91
671.116	2.2
671.442	2.19
671.767	2.26
672.092	2.64
672.418	2.68
672.743	2.48
673.068	2.82
673.393	2.12
673.718	1.52
674.043	1.88
674.368	2.39
674.693	2.17
675.018	2.41
675.343	1.83
675.667	1.94
675.992	2.29
676.317	3.18
676.641	2.26
676.966	2.43
677.29	2.03
677.615	2.07
677.939	2.68
678.264	2.19
678.588	1.68
678.912	2.61
679.236	2.66
679.56	2.37
679.885	1.82
680.209	2.39
680.532	1.98
680.856	2.92
681.18	2.33
681.504	2.73
681.828	2.28
682.152	2.45
682.475	2.21
682.799	2.7
683.122	2.07
683.446	2.45
683.769	3.02
684.093	2.22
684.416	1.95
684.739	3
685.062	2.48
685.386	2.78
685.709	2.47
686.032	2.04
686.355	2.97
686.678	1.87
687.001	2.56
687.324	2.17
687.646	3.12
687.969	2.68
688.292	2.27
688.614	2.78
688.937	2.9
689.26	2.2
689.582	3.15
689.904	2.05
690.227	2.27
690.549	1.96
690.871	2.73
691.194	2.46
691.516	3.06
691.838	3.13
692.16	2.57
692.482	2.74
692.804	1.96
