Data from 0036_chest_Reflection__1__01.txt Node

Date: Fri Nov 04 14:35:39 CDT 2022
User: ToomeyLab
Spectrometer: FLMS14357
Trigger mode: 0
Integration Time (sec): 1.000000E-2
Scans to average: 100
Electric dark correction enabled: true
Nonlinearity correction enabled: false
Boxcar width: 0
XAxis mode: Wavelengths
Number of Pixels in Spectrum: 2048
>>>>>Begin Spectral Data<<<<<
189.047	197.04
189.435	197.04
189.823	197.04
190.211	34.98
190.599	345.39
190.987	133.09
191.375	-101.54
191.763	1748.74
192.151	109.24
192.538	-470.63
192.926	-41.92
193.314	52.68
193.702	-600.37
194.089	178.83
194.477	101.22
194.864	172.92
195.252	64.78
195.639	74.4
196.027	108.18
196.414	-24.82
196.801	-193.81
197.189	-9.12
197.576	-67.35
197.963	7.53
198.351	33.35
198.738	20.29
199.125	-22.91
199.512	7.04
199.899	25.7
200.286	10.58
200.673	12.43
201.06	26.55
201.447	13.64
201.833	10.32
202.22	-6.48
202.607	14.29
202.994	4.52
203.38	70.81
203.767	33.34
204.154	20.23
204.54	32.65
204.927	22.59
205.313	-4.22
205.699	16.14
206.086	19.02
206.472	44.25
206.858	27.43
207.245	25.45
207.631	1.48
208.017	43.86
208.403	39.69
208.789	32.36
209.175	-6.13
209.561	17.85
209.947	14.23
210.333	41.72
210.719	17.12
211.105	-24.3
211.491	27.67
211.876	26.62
212.262	35.02
212.648	21.48
213.034	-2.53
213.419	11.27
213.805	14.18
214.19	11.6
214.576	1.1
214.961	-4.62
215.346	5.35
215.732	29.92
216.117	23.17
216.502	6.72
216.888	-2.08
217.273	14.75
217.658	11.69
218.043	15.31
218.428	16.37
218.813	5.94
219.198	1.14
219.583	25.3
219.968	-13.35
220.353	-7.15
220.738	11.83
221.122	-7.14
221.507	6.72
221.892	5.68
222.276	0.47
222.661	5.74
223.046	1.36
223.43	-0.55
223.815	8.89
224.199	0.34
224.583	-0.78
224.968	5.18
225.352	3.89
225.736	10.67
226.121	12.24
226.505	2.41
226.889	-2.01
227.273	-3.3
227.657	1.96
228.041	2.39
228.425	6.03
228.809	4.91
229.193	5.65
229.577	3.35
229.961	2.62
230.344	2.74
230.728	2.22
231.112	3.62
231.495	2.41
231.879	3.76
232.263	3.5
232.646	2.58
233.03	2.75
233.413	4.6
233.797	1.77
234.18	4.64
234.563	4.07
234.946	-0.02
235.33	4.02
235.713	3.04
236.096	2.2
236.479	2.23
236.862	3.64
237.245	1.72
237.628	2.09
238.011	4.22
238.394	4.25
238.777	2.98
239.16	4.08
239.543	4.1
239.925	2.57
240.308	3.77
240.691	1.84
241.073	2.79
241.456	3.65
241.838	1.33
242.221	3.2
242.603	2.53
242.986	3.85
243.368	2.48
243.75	2.92
244.133	2.8
244.515	3.03
244.897	2.8
245.279	2.78
245.661	2.43
246.043	2.02
246.425	2.79
246.807	3.56
247.189	3.6
247.571	2.89
247.953	2.46
248.335	2.73
248.717	2.79
249.098	2.75
249.48	2.69
249.862	2.96
250.243	3.4
250.625	3.02
251.006	2.87
251.388	2.82
251.769	2.79
252.151	2.53
252.532	2.65
252.913	3.04
253.295	3.45
253.676	2.54
254.057	2.88
254.438	3.35
254.819	2.87
255.2	3.35
255.581	3.99
255.962	2.66
256.343	3.87
256.724	1.98
257.105	3.34
257.486	3.09
257.867	2.7
258.247	2.8
258.628	2.99
259.009	2.68
259.389	2.19
259.77	3.59
260.15	3.29
260.531	2.9
260.911	2.61
261.292	2.56
261.672	2.75
262.052	2.62
262.432	2.65
262.813	2.95
263.193	2.96
263.573	2.97
263.953	2.49
264.333	2.43
264.713	2.51
265.093	3.01
265.473	2.34
265.853	2.71
266.233	2.87
266.612	3.1
266.992	2.93
267.372	2.92
267.752	2.89
268.131	2.23
268.511	2.36
268.89	2.7
269.27	3.06
269.649	2.94
270.029	2.79
270.408	2.83
270.787	3.22
271.167	2.59
271.546	2.32
271.925	2.75
272.304	2.62
272.683	2.69
273.062	2.75
273.441	2.57
273.82	2.71
274.199	2.77
274.578	2.57
274.957	2.64
275.336	2.41
275.715	2.72
276.093	2.5
276.472	2.5
276.851	2.72
277.229	2.33
277.608	2.43
277.986	2.81
278.365	2.55
278.743	2.75
279.122	2.62
279.5	1.68
279.878	2.64
280.257	2.96
280.635	2.22
281.013	2.3
281.391	2.66
281.769	2.41
282.147	2.38
282.525	3.06
282.903	2.14
283.281	2.7
283.659	2.74
284.037	2.61
284.415	2.47
284.792	2.53
285.17	2.66
285.548	2.1
285.925	2.21
286.303	2.73
286.68	2.68
287.058	2.49
287.435	2.22
287.813	2.35
288.19	2.44
288.567	2.83
288.945	2.72
289.322	2.86
289.699	3.01
290.076	2.75
290.453	3.42
290.83	2.83
291.207	2.46
291.584	3.02
291.961	2.65
292.338	2.6
292.715	2.78
293.092	2.27
293.469	3.14
293.845	2.57
294.222	2.56
294.599	3.07
294.975	2.96
295.352	3.01
295.728	3.12
296.105	3.11
296.481	3.24
296.858	2.91
297.234	3.39
297.61	3
297.986	2.86
298.363	3.21
298.739	2.89
299.115	3.04
299.491	2.93
299.867	3.15
300.243	3.2
300.619	2.76
300.995	3.35
301.371	3.03
301.746	3.06
302.122	3.2
302.498	3.24
302.874	3.02
303.249	3.2
303.625	3.01
304	3.37
304.376	3.41
304.751	3.23
305.127	3.64
305.502	3.2
305.878	2.96
306.253	3.2
306.628	3.38
307.003	3.48
307.378	3.09
307.754	3.03
308.129	3.14
308.504	2.96
308.879	3.27
309.254	3.63
309.629	3.72
310.003	3.68
310.378	3.33
310.753	3.79
311.128	3.29
311.502	3.66
311.877	3.49
312.252	3.43
312.626	3.46
313.001	3.49
313.375	3.26
313.75	3.45
314.124	3.53
314.498	3.21
314.873	3.88
315.247	3.46
315.621	3.22
315.995	3.58
316.369	3.92
316.743	3.42
317.117	3.56
317.491	3.1
317.865	4.1
318.239	3.79
318.613	4
318.987	3.61
319.361	3.63
319.734	3.15
320.108	3.93
320.482	4.14
320.855	4.07
321.229	3.4
321.602	4.01
321.976	3.9
322.349	4.03
322.723	3.44
323.096	3.66
323.469	4.2
323.843	3.62
324.216	3.71
324.589	3.3
324.962	4.41
325.335	4.13
325.708	4.13
326.081	3.72
326.454	4.48
326.827	3.94
327.2	3.64
327.573	3.75
327.945	3.39
328.318	3.72
328.691	4.19
329.063	4.26
329.436	3.69
329.809	4.09
330.181	4.01
330.553	3.85
330.926	3.76
331.298	4.58
331.671	4.22
332.043	4.41
332.415	4.02
332.787	3.94
333.159	4.09
333.532	4.28
333.904	3.97
334.276	3.92
334.648	4.08
335.02	4.27
335.391	4.01
335.763	4.18
336.135	4.85
336.507	4.34
336.879	3.58
337.25	4.08
337.622	4.04
337.993	4.21
338.365	4.14
338.736	4.23
339.108	3.93
339.479	3.96
339.851	4.01
340.222	4.53
340.593	4.34
340.964	4.06
341.336	4.08
341.707	4.26
342.078	4.18
342.449	4.33
342.82	3.76
343.191	4.39
343.562	4.61
343.933	4.26
344.303	4.19
344.674	3.96
345.045	4.25
345.416	4.69
345.786	4.15
346.157	4.37
346.527	4.07
346.898	3.88
347.268	4.12
347.639	4.25
348.009	4.37
348.38	4.28
348.75	4.59
349.12	4.03
349.49	4.07
349.861	4.18
350.231	4.15
350.601	4.44
350.971	4.31
351.341	4.32
351.711	4.36
352.081	4.31
352.45	4.27
352.82	4.06
353.19	4.39
353.56	4.24
353.929	3.98
354.299	4.03
354.669	4.29
355.038	4.56
355.408	4.4
355.777	4.23
356.147	4.29
356.516	4.19
356.885	4.74
357.254	4.51
357.624	4.68
357.993	4.5
358.362	4.3
358.731	4.2
359.1	4.32
359.469	4.71
359.838	4.29
360.207	4.52
360.576	4.24
360.945	4.15
361.314	4.5
361.682	4.37
362.051	4.15
362.42	4.52
362.788	4.5
363.157	4.18
363.525	4.31
363.894	4.26
364.262	4.43
364.631	4.4
364.999	4.61
365.367	4.2
365.735	4.36
366.104	4.5
366.472	4.05
366.84	4.37
367.208	4.29
367.576	4.44
367.944	4.44
368.312	4.47
368.68	4.48
369.048	4.17
369.416	4.43
369.783	4.42
370.151	4.32
370.519	4.89
370.886	4.25
371.254	4.35
371.621	4.49
371.989	4.41
372.356	4.7
372.724	4.65
373.091	4.41
373.458	4.67
373.826	4.47
374.193	4.6
374.56	4.61
374.927	4.49
375.294	4.63
375.661	4.35
376.028	4.34
376.395	4.35
376.762	4.43
377.129	4.46
377.496	4.34
377.863	4.67
378.229	4.38
378.596	4.81
378.963	4.56
379.329	4.3
379.696	4.42
380.062	4.43
380.429	4.68
380.795	4.75
381.161	4.86
381.528	4.49
381.894	4.73
382.26	4.54
382.626	4.27
382.993	4.61
383.359	4.56
383.725	4.66
384.091	4.67
384.457	4.73
384.823	4.41
385.188	4.33
385.554	4.55
385.92	4.42
386.286	4.38
386.651	4.83
387.017	4.51
387.383	4.52
387.748	4.42
388.114	4.55
388.479	4.35
388.845	4.6
389.21	4.69
389.575	4.6
389.94	4.63
390.306	4.72
390.671	4.59
391.036	4.68
391.401	4.75
391.766	4.5
392.131	4.42
392.496	4.43
392.861	4.84
393.226	4.73
393.591	4.67
393.956	4.48
394.32	4.52
394.685	4.7
395.05	4.4
395.414	4.65
395.779	4.67
396.143	4.7
396.508	4.52
396.872	4.56
397.236	4.77
397.601	4.61
397.965	4.84
398.329	4.69
398.694	4.64
399.058	4.8
399.422	4.71
399.786	4.79
400.15	4.83
400.514	4.91
400.878	4.66
401.242	4.61
401.605	4.51
401.969	4.86
402.333	4.71
402.697	4.73
403.06	4.72
403.424	4.65
403.787	4.91
404.151	4.7
404.514	4.74
404.878	4.9
405.241	4.76
405.604	4.58
405.968	4.51
406.331	4.85
406.694	4.71
407.057	4.69
407.42	4.63
407.783	4.7
408.146	4.85
408.509	4.53
408.872	4.74
409.235	4.92
409.598	4.85
409.961	5.07
410.323	4.63
410.686	4.76
411.049	4.68
411.411	4.86
411.774	4.6
412.136	4.72
412.499	4.83
412.861	4.81
413.223	4.67
413.586	4.97
413.948	4.93
414.31	5.05
414.672	4.84
415.035	4.84
415.397	4.99
415.759	4.81
416.121	4.75
416.483	4.63
416.845	4.86
417.206	4.98
417.568	4.9
417.93	4.76
418.292	4.84
418.653	4.81
419.015	4.93
419.377	4.84
419.738	4.66
420.1	4.63
420.461	4.92
420.822	4.75
421.184	4.83
421.545	4.81
421.906	4.76
422.267	4.65
422.629	4.64
422.99	4.74
423.351	4.69
423.712	4.79
424.073	4.8
424.434	4.75
424.795	4.72
425.155	4.82
425.516	4.76
425.877	4.81
426.238	4.76
426.598	4.75
426.959	4.75
427.32	4.83
427.68	4.78
428.041	4.85
428.401	4.89
428.761	4.99
429.122	4.81
429.482	4.83
429.842	4.93
430.202	4.91
430.563	5.05
430.923	5.06
431.283	5.01
431.643	4.91
432.003	5
432.363	4.89
432.722	4.91
433.082	4.86
433.442	4.69
433.802	4.88
434.161	5.15
434.521	4.92
434.881	4.98
435.24	5.01
435.6	4.92
435.959	4.85
436.319	5
436.678	5.07
437.037	4.88
437.396	4.96
437.756	5.18
438.115	5.15
438.474	4.95
438.833	5.04
439.192	4.93
439.551	5.05
439.91	4.86
440.269	5.05
440.628	5.04
440.987	4.93
441.345	4.92
441.704	4.9
442.063	4.99
442.421	4.96
442.78	4.92
443.138	4.9
443.497	5.01
443.855	5.1
444.214	5.06
444.572	4.98
444.93	5.02
445.288	5.02
445.647	5.11
446.005	5.09
446.363	5.04
446.721	4.99
447.079	4.99
447.437	4.96
447.795	4.95
448.153	5.05
448.51	4.77
448.868	4.92
449.226	4.92
449.584	4.99
449.941	5.11
450.299	5.06
450.656	5.21
451.014	5.07
451.371	5.26
451.729	5.2
452.086	5.22
452.443	5.1
452.801	5.16
453.158	5.27
453.515	5.21
453.872	5.14
454.229	5.1
454.586	5.06
454.943	5.05
455.3	5.31
455.657	5.14
456.014	5.04
456.371	5.16
456.727	5.26
457.084	5.12
457.441	5.2
457.797	5.24
458.154	5.15
458.51	5.32
458.867	5.24
459.223	5.24
459.58	5.16
459.936	5.18
460.292	5.06
460.648	5.3
461.005	5.2
461.361	5.15
461.717	5.13
462.073	5.15
462.429	5.07
462.785	5.19
463.141	5.18
463.496	5.22
463.852	5.29
464.208	5.27
464.564	5.4
464.919	5.17
465.275	5.48
465.631	5.28
465.986	5.08
466.342	5.39
466.697	5.4
467.052	5.33
467.408	5.34
467.763	5.32
468.118	5.29
468.473	5.35
468.829	5.41
469.184	5.41
469.539	5.4
469.894	5.46
470.249	5.52
470.603	5.5
470.958	5.48
471.313	5.33
471.668	5.46
472.023	5.26
472.377	5.47
472.732	5.34
473.086	5.49
473.441	5.44
473.795	5.43
474.15	5.37
474.504	5.55
474.859	5.32
475.213	5.45
475.567	5.3
475.921	5.44
476.275	5.62
476.63	5.42
476.984	5.5
477.338	5.57
477.692	5.49
478.045	5.48
478.399	5.24
478.753	5.52
479.107	5.43
479.461	5.5
479.814	5.53
480.168	5.49
480.521	5.46
480.875	5.52
481.228	5.49
481.582	5.67
481.935	5.52
482.289	5.49
482.642	5.45
482.995	5.44
483.348	5.47
483.701	5.43
484.055	5.47
484.408	5.48
484.761	5.39
485.114	5.23
485.466	5.13
485.819	5.11
486.172	5.12
486.525	5.19
486.878	5.26
487.23	5.35
487.583	5.37
487.936	5.38
488.288	5.39
488.641	5.37
488.993	5.31
489.345	5.28
489.698	5.25
490.05	5.28
490.402	5.32
490.754	5.4
491.107	5.49
491.459	5.5
491.811	5.55
492.163	5.64
492.515	5.62
492.866	5.51
493.218	5.36
493.57	5.33
493.922	5.4
494.274	5.41
494.625	5.5
494.977	5.58
495.328	5.59
495.68	5.56
496.031	5.86
496.383	5.63
496.734	5.7
497.086	5.67
497.437	5.8
497.788	5.73
498.139	5.75
498.49	5.67
498.842	5.61
499.193	5.69
499.544	5.69
499.894	5.76
500.245	5.8
500.596	5.7
500.947	5.75
501.298	5.86
501.648	5.87
501.999	5.91
502.35	5.82
502.7	5.92
503.051	5.85
503.401	5.88
503.752	5.97
504.102	5.86
504.452	5.94
504.803	5.82
505.153	5.84
505.503	5.89
505.853	5.9
506.203	5.88
506.553	5.88
506.903	5.88
507.253	5.98
507.603	5.96
507.953	5.93
508.303	5.97
508.652	5.92
509.002	5.97
509.352	5.98
509.701	5.91
510.051	5.85
510.4	5.84
510.75	5.93
511.099	5.86
511.449	5.73
511.798	5.79
512.147	5.98
512.496	5.91
512.846	5.97
513.195	5.75
513.544	5.91
513.893	6.1
514.242	6.08
514.591	6
514.939	6
515.288	5.92
515.637	5.98
515.986	6.06
516.334	6.25
516.683	6.15
517.032	6.21
517.38	6.23
517.729	6.12
518.077	6.27
518.426	6.25
518.774	6.08
519.122	6.04
519.47	6.2
519.819	6.08
520.167	5.98
520.515	6.06
520.863	6.06
521.211	6.02
521.559	6.13
521.907	6.09
522.255	6.16
522.602	6.15
522.95	6.17
523.298	6.34
523.645	6.26
523.993	6.24
524.341	6.15
524.688	6.25
525.036	6.23
525.383	6.42
525.73	6.23
526.078	6.46
526.425	6.29
526.772	6.18
527.119	6.2
527.466	6.2
527.814	6.08
528.161	6.19
528.508	6.29
528.854	6.34
529.201	6.41
529.548	6.22
529.895	6.16
530.242	6.01
530.588	6.01
530.935	6.07
531.282	6.13
531.628	6.16
531.975	6.16
532.321	6.35
532.667	6.28
533.014	6.4
533.36	6.4
533.706	6.45
534.052	6.51
534.399	6.41
534.745	6.33
535.091	6.27
535.437	6.22
535.783	6.3
536.129	6.37
536.474	6.54
536.82	6.48
537.166	6.62
537.512	6.64
537.857	6.64
538.203	6.56
538.549	6.51
538.894	6.58
539.239	6.54
539.585	6.67
539.93	6.64
540.276	6.77
540.621	6.73
540.966	6.78
541.311	6.8
541.656	6.79
542.001	6.69
542.346	6.67
542.691	6.65
543.036	6.54
543.381	6.45
543.726	6.53
544.071	6.59
544.415	6.72
544.76	6.74
545.105	6.69
545.449	6.75
545.794	6.81
546.138	6.81
546.483	6.99
546.827	6.81
547.171	6.84
547.516	7
547.86	6.96
548.204	6.96
548.548	6.81
548.892	6.86
549.236	6.87
549.58	7.08
549.924	7.04
550.268	7.11
550.612	7.05
550.956	7.19
551.3	7.19
551.643	7.17
551.987	7.3
552.33	7.27
552.674	7.22
553.017	7.46
553.361	7.28
553.704	7.42
554.048	7.28
554.391	7.29
554.734	7.24
555.077	7.3
555.42	7.17
555.764	7.35
556.107	7.32
556.45	7.48
556.793	7.44
557.135	7.43
557.478	7.48
557.821	7.54
558.164	7.44
558.507	7.48
558.849	7.44
559.192	7.58
559.534	7.44
559.877	7.7
560.219	7.56
560.562	7.62
560.904	7.6
561.246	7.5
561.589	7.82
561.931	7.8
562.273	7.95
562.615	7.98
562.957	7.68
563.299	7.72
563.641	7.81
563.983	7.63
564.325	7.92
564.667	7.73
565.008	7.69
565.35	7.88
565.692	7.82
566.033	7.96
566.375	7.82
566.716	8.05
567.058	8.01
567.399	7.77
567.741	7.87
568.082	7.91
568.423	7.9
568.764	7.9
569.105	7.97
569.447	8.1
569.788	8.1
570.129	8.23
570.47	8.01
570.811	8.06
571.151	8.14
571.492	8.29
571.833	8.27
572.174	7.98
572.514	8.33
572.855	8.06
573.195	8.15
573.536	8.1
573.876	8.26
574.217	8.25
574.557	8.28
574.898	8.26
575.238	8.37
575.578	8.41
575.918	8.3
576.258	8.46
576.598	8.48
576.938	8.43
577.278	8.42
577.618	8.29
577.958	8.38
578.298	8.5
578.638	8.64
578.977	8.43
579.317	8.61
579.657	8.79
579.996	8.63
580.336	8.65
580.675	8.74
581.014	8.61
581.354	8.72
581.693	8.66
582.032	8.83
582.372	8.84
582.711	8.71
583.05	8.66
583.389	9.11
583.728	8.79
584.067	8.91
584.406	8.79
584.745	9
585.083	8.83
585.422	9
585.761	8.99
586.1	9.2
586.438	9.06
586.777	9.27
587.115	9.1
587.454	9.17
587.792	9.22
588.13	9.44
588.469	9.26
588.807	9.23
589.145	9.35
589.483	9.37
589.821	9.36
590.159	9.03
590.497	9.43
590.835	9.24
591.173	9.32
591.511	9.27
591.849	9.28
592.187	9.4
592.524	9.57
592.862	9.09
593.2	9.31
593.537	9.36
593.875	9.57
594.212	9.59
594.55	9.57
594.887	9.46
595.224	9.7
595.561	9.62
595.899	9.37
596.236	9.49
596.573	9.64
596.91	9.76
597.247	10.02
597.584	9.67
597.921	9.6
598.258	9.62
598.594	9.74
598.931	9.61
599.268	9.77
599.604	9.82
599.941	9.71
600.277	9.71
600.614	9.64
600.95	9.74
601.287	9.98
601.623	10.07
601.959	10.25
602.296	10.02
602.632	10.16
602.968	10.15
603.304	10.05
603.64	10.18
603.976	10.34
604.312	10.17
604.648	9.96
604.984	10.22
605.319	10.19
605.655	10.07
605.991	10.08
606.326	9.96
606.662	10.12
606.998	10.19
607.333	10.41
607.668	10.31
608.004	10.27
608.339	10.22
608.674	10.45
609.01	10.42
609.345	10.6
609.68	10.62
610.015	10.6
610.35	10.51
610.685	10.27
611.02	10.49
611.355	10.54
611.689	10.45
612.024	10.6
612.359	10.89
612.694	10.45
613.028	10.82
613.363	10.75
613.697	10.9
614.032	10.67
614.366	11
614.7	10.95
615.035	10.7
615.369	11.17
615.703	10.89
616.037	11.08
616.371	11
616.705	11.01
617.039	10.84
617.373	11.2
617.707	11.46
618.041	11.28
618.375	11.04
618.709	11.28
619.042	11.5
619.376	11.29
619.71	11.02
620.043	11.35
620.377	11.77
620.71	11.39
621.043	11.13
621.377	10.93
621.71	11.03
622.043	11.29
622.376	11.37
622.709	11.62
623.043	11.59
623.376	11.82
623.709	11.58
624.041	11.91
624.374	11.69
624.707	11.2
625.04	11.85
625.373	11.61
625.705	11.89
626.038	11.94
626.37	11.91
626.703	11.89
627.035	11.45
627.368	11.55
627.7	11.74
628.032	11.85
628.365	11.96
628.697	11.85
629.029	11.75
629.361	11.81
629.693	11.71
630.025	12.05
630.357	12.16
630.689	12.2
631.021	12.18
631.353	11.68
631.684	12.26
632.016	12.09
632.348	12.15
632.679	12.43
633.011	12.19
633.342	12.53
633.674	12.54
634.005	12.39
634.336	12.47
634.668	12.33
634.999	12.35
635.33	12.55
635.661	11.92
635.992	12.39
636.323	12.47
636.654	12.75
636.985	12.69
637.316	12.6
637.647	12.46
637.977	12.36
638.308	12.25
638.639	13.07
638.969	12.45
639.3	12.5
639.63	12.64
639.961	12.56
640.291	12.45
640.622	13
640.952	13.04
641.282	12.9
641.612	13.09
641.943	12.99
642.273	12.77
642.603	13.09
642.933	13.09
643.263	12.72
643.592	13.01
643.922	13.31
644.252	12.73
644.582	13.41
644.911	13.27
645.241	13.41
645.571	13.5
645.9	13.58
646.23	12.88
646.559	13.22
646.888	13.38
647.218	13.18
647.547	13.41
647.876	13.37
648.205	13.19
648.534	13.7
648.863	13.68
649.192	13.71
649.521	13.32
649.85	13.51
650.179	13.54
650.508	13.41
650.837	13.33
651.165	13.79
651.494	13.38
651.822	13.72
652.151	13.79
652.479	13.48
652.808	13.26
653.136	13.66
653.465	13.86
653.793	13.84
654.121	14.11
654.449	13.56
654.777	14.06
655.105	14.33
655.433	14.44
655.761	13.63
656.089	14.29
656.417	14.16
656.745	14.32
657.073	14.26
657.4	13.57
657.728	14.14
658.056	14.44
658.383	14.02
658.711	13.87
659.038	14.2
659.365	13.52
659.693	14.66
660.02	14.6
660.347	14.01
660.674	13.99
661.001	14.35
661.329	14.46
661.656	14.41
661.982	14.74
662.309	14.27
662.636	14.1
662.963	14.07
663.29	14
663.616	14.78
663.943	13.94
664.27	14.82
664.596	14.51
664.923	15.09
665.249	14.99
665.576	14.74
665.902	14.11
666.228	14.7
666.554	15.63
666.881	15
667.207	15.17
667.533	14.99
667.859	15.22
668.185	14.91
668.511	14.59
668.837	14.41
669.162	14.93
669.488	14.95
669.814	15.06
670.139	15.55
670.465	14.96
670.791	15.29
671.116	14.98
671.442	15.77
671.767	15.06
672.092	15.49
672.418	15.83
672.743	15.45
673.068	15.36
673.393	15.39
673.718	15.24
674.043	15.19
674.368	14.88
674.693	15.43
675.018	16.23
675.343	14.66
675.667	15.03
675.992	15.39
676.317	15.78
676.641	15.66
676.966	15.03
677.29	15.48
677.615	16.33
677.939	15.88
678.264	15.42
678.588	15.2
678.912	15.75
679.236	16.08
679.56	15.77
679.885	15.31
680.209	16.08
680.532	15.52
680.856	16.03
681.18	15.88
681.504	15.81
681.828	16.03
682.152	15.88
682.475	16.2
682.799	16.18
683.122	16.22
683.446	16.09
683.769	16.96
684.093	16.48
684.416	16.22
684.739	16.58
685.062	16.77
685.386	16.51
685.709	16.62
686.032	16.09
686.355	16.48
686.678	16.3
687.001	16.25
687.324	16.74
