Data from 0036_forehead_Reflection__1__11.txt Node

Date: Fri Nov 04 14:43:32 CDT 2022
User: ToomeyLab
Spectrometer: FLMS14357
Trigger mode: 0
Integration Time (sec): 1.000000E-2
Scans to average: 100
Electric dark correction enabled: true
Nonlinearity correction enabled: false
Boxcar width: 0
XAxis mode: Wavelengths
Number of Pixels in Spectrum: 2048
>>>>>Begin Spectral Data<<<<<
189.047	247.42
189.435	247.42
189.823	247.42
190.211	59.07
190.599	62.67
190.987	-437.19
191.375	-261.4
191.763	1114.29
192.151	113.72
192.538	503.8
192.926	-234.66
193.314	34.63
193.702	-279.4
194.089	188.09
194.477	-4.39
194.864	-60.3
195.252	72.51
195.639	131.44
196.027	20.38
196.414	245.49
196.801	15.2
197.189	86.34
197.576	-162.67
197.963	43.36
198.351	39.7
198.738	30.9
199.125	46.17
199.512	38.94
199.899	50.83
200.286	76.6
200.673	63.58
201.06	44.09
201.447	55.9
201.833	60.8
202.22	4.79
202.607	40.83
202.994	31.71
203.38	58.33
203.767	24.58
204.154	59.29
204.54	46.21
204.927	44.02
205.313	61.01
205.699	30.72
206.086	39.6
206.472	66.64
206.858	32.2
207.245	49.54
207.631	16.9
208.017	33.84
208.403	38.29
208.789	87.43
209.175	15.1
209.561	41.84
209.947	9.25
210.333	56.97
210.719	18.22
211.105	48.73
211.491	39.21
211.876	35.19
212.262	46.32
212.648	66.4
213.034	18
213.419	23.19
213.805	-1.46
214.19	22.99
214.576	8.11
214.961	27.19
215.346	-0.27
215.732	11.17
216.117	16.53
216.502	22.67
216.888	8.4
217.273	17.66
217.658	27.4
218.043	15.89
218.428	26.06
218.813	19.21
219.198	-1.32
219.583	27.17
219.968	12.87
220.353	16.45
220.738	16.39
221.122	-1.83
221.507	2.9
221.892	7.72
222.276	3.58
222.661	15.83
223.046	11.1
223.43	9.32
223.815	15.17
224.199	8.54
224.583	10.06
224.968	7.8
225.352	8.19
225.736	6.08
226.121	5.66
226.505	10.91
226.889	0.44
227.273	2.63
227.657	2.12
228.041	4.72
228.425	9.64
228.809	2.75
229.193	5.24
229.577	3.2
229.961	2.42
230.344	1.55
230.728	1.37
231.112	2.64
231.495	2.05
231.879	2.93
232.263	2.85
232.646	2.96
233.03	2.13
233.413	3.58
233.797	3.73
234.18	3.42
234.563	4.44
234.946	2.2
235.33	3.59
235.713	3.73
236.096	1.62
236.479	3.35
236.862	4.98
237.245	3.48
237.628	1.42
238.011	3.13
238.394	2.09
238.777	1.57
239.16	3.22
239.543	4.29
239.925	2.03
240.308	3.76
240.691	1.84
241.073	0.98
241.456	2.71
241.838	1.78
242.221	3.33
242.603	1.97
242.986	2.44
243.368	2.44
243.75	1.89
244.133	1.79
244.515	2.26
244.897	1.54
245.279	2.14
245.661	1.81
246.043	2.73
246.425	2.44
246.807	2.02
247.189	3.23
247.571	2.55
247.953	1.71
248.335	1.73
248.717	1.98
249.098	2
249.48	1.92
249.862	1.7
250.243	2.46
250.625	2.45
251.006	2.56
251.388	3.23
251.769	2.22
252.151	2.12
252.532	2.38
252.913	2.34
253.295	2.35
253.676	2.51
254.057	2.3
254.438	2.71
254.819	2.29
255.2	2.08
255.581	2.88
255.962	1.95
256.343	2.68
256.724	3.04
257.105	2.91
257.486	2.73
257.867	2.93
258.247	2.4
258.628	2.42
259.009	1.94
259.389	1.62
259.77	2.48
260.15	3.28
260.531	2.56
260.911	2.24
261.292	1.76
261.672	1.99
262.052	1.91
262.432	1.85
262.813	2.19
263.193	2.35
263.573	2.59
263.953	2.1
264.333	1.99
264.713	2.42
265.093	2.31
265.473	1.97
265.853	2.45
266.233	2.44
266.612	2.65
266.992	2.7
267.372	3.22
267.752	2.55
268.131	2.52
268.511	1.97
268.89	2.16
269.27	2.23
269.649	2.09
270.029	2.11
270.408	2.38
270.787	2.46
271.167	2.8
271.546	2.82
271.925	2.1
272.304	2.22
272.683	1.9
273.062	1.9
273.441	1.8
273.82	1.83
274.199	2.29
274.578	1.68
274.957	2.26
275.336	1.93
275.715	1.98
276.093	1.94
276.472	2.85
276.851	1.96
277.229	2
277.608	1.26
277.986	2.12
278.365	2.36
278.743	2.1
279.122	1.74
279.5	1.1
279.878	2.43
280.257	2.2
280.635	2.02
281.013	2.22
281.391	2.04
281.769	1.47
282.147	1.43
282.525	2.48
282.903	2.11
283.281	1.85
283.659	2.24
284.037	2.07
284.415	2.15
284.792	1.75
285.17	1.92
285.548	2.08
285.925	2.22
286.303	2.04
286.68	2.15
287.058	2
287.435	1.93
287.813	1.89
288.19	1.9
288.567	2.3
288.945	2.22
289.322	2.09
289.699	2.53
290.076	2.61
290.453	2.92
290.83	1.95
291.207	1.71
291.584	2.41
291.961	2.02
292.338	2.65
292.715	2.35
293.092	1.55
293.469	2.24
293.845	2.49
294.222	2.29
294.599	2.78
294.975	2.68
295.352	1.95
295.728	2.74
296.105	2.44
296.481	2.57
296.858	2.79
297.234	2.75
297.61	2.56
297.986	2.73
298.363	2.48
298.739	2.57
299.115	2.57
299.491	2.49
299.867	2.64
300.243	2.59
300.619	2.62
300.995	2.94
301.371	3
301.746	2.63
302.122	2.87
302.498	2.64
302.874	2.58
303.249	2.83
303.625	2.84
304	2.93
304.376	3.12
304.751	3.36
305.127	3.42
305.502	2.87
305.878	2.89
306.253	3.11
306.628	3.83
307.003	2.82
307.378	3.48
307.754	3.43
308.129	3.09
308.504	3.06
308.879	3.51
309.254	3.5
309.629	3.12
310.003	4.18
310.378	3.91
310.753	3.94
311.128	3.07
311.502	3.85
311.877	3.78
312.252	3.71
312.626	3.65
313.001	4.13
313.375	3.7
313.75	3.7
314.124	4
314.498	3.6
314.873	4.27
315.247	4.24
315.621	4.19
315.995	4.51
316.369	4.34
316.743	3.91
317.117	4.24
317.491	4.08
317.865	4.41
318.239	4.42
318.613	4.18
318.987	4.08
319.361	4.47
319.734	4.19
320.108	4.3
320.482	4.72
320.855	4.89
321.229	4.48
321.602	4.98
321.976	4.99
322.349	4.76
322.723	4.8
323.096	4.49
323.469	5.31
323.843	5.24
324.216	5.64
324.589	4.85
324.962	5.59
325.335	5.03
325.708	5.25
326.081	5.01
326.454	5.48
326.827	5.16
327.2	5.32
327.573	5.5
327.945	5.26
328.318	5.75
328.691	5.31
329.063	5.3
329.436	5.36
329.809	5.31
330.181	5.84
330.553	6.18
330.926	5.63
331.298	6.07
331.671	6.19
332.043	5.9
332.415	5.48
332.787	5.34
333.159	6.47
333.532	6.03
333.904	6.12
334.276	6.07
334.648	6.38
335.02	6.26
335.391	6.25
335.763	6.54
336.135	6.76
336.507	6.25
336.879	6.28
337.25	6.51
337.622	6.74
337.993	6.1
338.365	6.36
338.736	6.65
339.108	6.62
339.479	6.65
339.851	6.52
340.222	7.02
340.593	7.05
340.964	6.61
341.336	6.62
341.707	7.25
342.078	7.29
342.449	7.31
342.82	6.88
343.191	6.88
343.562	7.23
343.933	7.17
344.303	6.93
344.674	6.8
345.045	6.65
345.416	7.49
345.786	7.03
346.157	7.08
346.527	7.39
346.898	7.04
347.268	7.37
347.639	7.24
348.009	7.47
348.38	7.26
348.75	7.87
349.12	7.38
349.49	7.24
349.861	7.47
350.231	7.33
350.601	7.52
350.971	8.02
351.341	7.7
351.711	7.63
352.081	7.93
352.45	7.49
352.82	7.95
353.19	7.95
353.56	7.8
353.929	8.35
354.299	8.08
354.669	7.76
355.038	8.02
355.408	7.93
355.777	7.99
356.147	8.26
356.516	8.27
356.885	8.44
357.254	8.28
357.624	8.08
357.993	8.34
358.362	8.29
358.731	7.9
359.1	8.07
359.469	8.55
359.838	8.26
360.207	8.57
360.576	8.33
360.945	8.43
361.314	8.51
361.682	8.7
362.051	8.26
362.42	8.42
362.788	8.53
363.157	8.57
363.525	8.31
363.894	8.59
364.262	8.58
364.631	8.53
364.999	8.88
365.367	8.65
365.735	9.08
366.104	9.02
366.472	8.9
366.84	8.94
367.208	8.91
367.576	9.18
367.944	9.22
368.312	9.25
368.68	9.07
369.048	9.07
369.416	9.18
369.783	9.16
370.151	9.44
370.519	9.57
370.886	9.47
371.254	9.57
371.621	9.58
371.989	9.23
372.356	9.94
372.724	9.82
373.091	9.72
373.458	9.83
373.826	9.67
374.193	9.88
374.56	9.77
374.927	9.76
375.294	9.98
375.661	9.97
376.028	9.72
376.395	9.96
376.762	10.23
377.129	9.7
377.496	9.93
377.863	10.18
378.229	10.25
378.596	10.19
378.963	10.02
379.329	10.18
379.696	10.18
380.062	10.26
380.429	10.64
380.795	10.69
381.161	10.33
381.528	10.68
381.894	10.68
382.26	10.49
382.626	10.6
382.993	10.64
383.359	11.02
383.725	10.76
384.091	11.05
384.457	10.85
384.823	10.76
385.188	10.73
385.554	10.83
385.92	10.57
386.286	10.93
386.651	11.23
387.017	10.97
387.383	11.47
387.748	11.05
388.114	11.29
388.479	11.09
388.845	11.22
389.21	11.34
389.575	11.28
389.94	11.52
390.306	11.3
390.671	11.47
391.036	11.5
391.401	11.72
391.766	11.46
392.131	11.4
392.496	11.37
392.861	11.66
393.226	11.58
393.591	11.7
393.956	11.46
394.32	11.44
394.685	11.87
395.05	11.55
395.414	11.85
395.779	11.59
396.143	11.74
396.508	11.69
396.872	11.96
397.236	12.17
397.601	12.06
397.965	12.25
398.329	11.94
398.694	12.1
399.058	12.19
399.422	12.26
399.786	12.44
400.15	12.3
400.514	12.26
400.878	12.48
401.242	12.53
401.605	12.36
401.969	12.59
402.333	12.61
402.697	12.71
403.06	12.8
403.424	12.57
403.787	12.72
404.151	12.65
404.514	12.72
404.878	12.68
405.241	12.65
405.604	12.85
405.968	12.68
406.331	12.93
406.694	12.76
407.057	12.76
407.42	12.77
407.783	12.87
408.146	13.07
408.509	13.01
408.872	13.29
409.235	13.43
409.598	13.44
409.961	13.56
410.323	13.46
410.686	13.29
411.049	13.45
411.411	13.81
411.774	13.21
412.136	13.51
412.499	13.3
412.861	13.4
413.223	13.67
413.586	13.62
413.948	13.96
414.31	13.56
414.672	13.88
415.035	13.87
415.397	13.97
415.759	13.94
416.121	13.79
416.483	13.76
416.845	13.96
417.206	13.87
417.568	14.06
417.93	14.07
418.292	14.02
418.653	14.01
419.015	14.12
419.377	13.85
419.738	13.72
420.1	13.79
420.461	13.88
420.822	13.9
421.184	14.08
421.545	14.06
421.906	14.06
422.267	13.81
422.629	13.89
422.99	13.93
423.351	13.98
423.712	14.08
424.073	14.16
424.434	14.37
424.795	14.36
425.155	14.31
425.516	14.29
425.877	14.24
426.238	14.24
426.598	14.35
426.959	14.24
427.32	14.61
427.68	14.79
428.041	14.84
428.401	15.02
428.761	15.09
429.122	15.15
429.482	15.34
429.842	15.39
430.202	15.38
430.563	15.44
430.923	15.52
431.283	15.57
431.643	15.45
432.003	15.51
432.363	15.51
432.722	15.64
433.082	15.54
433.442	15.45
433.802	15.47
434.161	15.41
434.521	15.52
434.881	15.42
435.24	15.42
435.6	15.34
435.959	15.59
436.319	15.69
436.678	15.78
437.037	16.06
437.396	16.09
437.756	16.13
438.115	16.22
438.474	16.04
438.833	16
439.192	16.15
439.551	16.04
439.91	16.08
440.269	16.1
440.628	16.14
440.987	15.88
441.345	15.9
441.704	16.1
442.063	16.18
442.421	16.03
442.78	16.06
443.138	16.1
443.497	16.31
443.855	16.6
444.214	16.48
444.572	16.68
444.93	16.86
445.288	16.82
445.647	16.67
446.005	16.85
446.363	16.69
446.721	16.57
447.079	16.35
447.437	16.25
447.795	16.28
448.153	16.33
448.51	16.24
448.868	16.47
449.226	16.49
449.584	16.6
449.941	16.84
450.299	17.14
450.656	17.3
451.014	17.16
451.371	17.27
451.729	17.46
452.086	17.52
452.443	17.44
452.801	17.59
453.158	17.57
453.515	17.7
453.872	17.48
454.229	17.46
454.586	17.59
454.943	17.61
455.3	17.81
455.657	17.73
456.014	17.75
456.371	17.76
456.727	17.85
457.084	17.85
457.441	18.14
457.797	18.06
458.154	17.93
458.51	18.24
458.867	18.18
459.223	18.07
459.58	18.11
459.936	18.01
460.292	18.03
460.648	18.04
461.005	17.86
461.361	17.78
461.717	17.77
462.073	17.74
462.429	17.87
462.785	18.24
463.141	18.13
463.496	18.47
463.852	18.54
464.208	18.74
464.564	18.71
464.919	18.77
465.275	18.72
465.631	19.03
465.986	18.92
466.342	19.06
466.697	18.68
467.052	18.89
467.408	18.98
467.763	19.12
468.118	18.93
468.473	19.08
468.829	18.86
469.184	18.94
469.539	19.1
469.894	19.07
470.249	19.29
470.603	19.36
470.958	19.35
471.313	19.37
471.668	19.3
472.023	19.4
472.377	19.51
472.732	19.63
473.086	19.69
473.441	19.69
473.795	19.7
474.15	19.68
474.504	19.81
474.859	19.5
475.213	19.67
475.567	19.93
475.921	20
476.275	20.08
476.63	20.16
476.984	20.08
477.338	20.25
477.692	20.12
478.045	20.14
478.399	19.95
478.753	19.98
479.107	20.08
479.461	20.25
479.814	20.31
480.168	20.26
480.521	20.13
480.875	20.37
481.228	20.21
481.582	20.49
481.935	20.48
482.289	20.5
482.642	20.55
482.995	20.41
483.348	20.2
483.701	20.33
484.055	20.33
484.408	20.16
484.761	19.98
485.114	19.56
485.466	19.22
485.819	19.22
486.172	19.44
486.525	19.7
486.878	20.02
487.23	20.25
487.583	20.42
487.936	20.53
488.288	20.34
488.641	20.21
488.993	19.93
489.345	19.94
489.698	20.03
490.05	20.08
490.402	20.26
490.754	20.49
491.107	20.88
491.459	20.95
491.811	21.19
492.163	21.45
492.515	21.14
492.866	20.97
493.218	20.48
493.57	20.35
493.922	20.62
494.274	20.8
494.625	21.1
494.977	21.38
495.328	21.69
495.68	21.65
496.031	22.05
496.383	22
496.734	22.05
497.086	22.09
497.437	22.19
497.788	22.24
498.139	21.93
498.49	21.89
498.842	21.71
499.193	21.92
499.544	22.08
499.894	22
500.245	22.14
500.596	22.27
500.947	22.35
501.298	22.48
501.648	22.58
501.999	22.65
502.35	22.7
502.7	22.71
503.051	22.67
503.401	22.85
503.752	22.92
504.102	22.82
504.452	22.92
504.803	22.72
505.153	22.91
505.503	22.91
505.853	22.94
506.203	22.97
506.553	22.98
506.903	23.03
507.253	23.2
507.603	23.25
507.953	23.22
508.303	23.27
508.652	23.39
509.002	23.39
509.352	23.2
509.701	23.12
510.051	23.02
510.4	22.98
510.75	23.13
511.099	23.14
511.449	23.16
511.798	23.22
512.147	23.51
512.496	23.62
512.846	23.64
513.195	23.66
513.544	23.73
513.893	23.7
514.242	23.7
514.591	23.71
514.939	23.91
515.288	23.9
515.637	24.08
515.986	24.14
516.334	24.26
516.683	24.13
517.032	24.35
517.38	24.48
517.729	24.38
518.077	24.62
518.426	24.5
518.774	24.53
519.122	24.12
519.47	24.29
519.819	24.18
520.167	24.01
520.515	23.82
520.863	24.06
521.211	24.14
521.559	24.33
521.907	24.53
522.255	24.5
522.602	24.69
522.95	24.95
523.298	24.91
523.645	25.02
523.993	25.15
524.341	25.15
524.688	25.11
525.036	25.25
525.383	25.34
525.73	25.22
526.078	25.29
526.425	25.21
526.772	25.02
527.119	24.95
527.466	24.76
527.814	24.69
528.161	24.94
528.508	25.06
528.854	25.17
529.201	25.29
529.548	25.04
529.895	24.7
530.242	24.15
530.588	24.23
530.935	24.46
531.282	24.7
531.628	24.88
531.975	25.18
532.321	25.37
532.667	25.46
533.014	25.67
533.36	25.73
533.706	25.84
534.052	25.77
534.399	25.55
534.745	25.31
535.091	25.02
535.437	25.13
535.783	25.46
536.129	25.76
536.474	25.9
536.82	26.02
537.166	26.29
537.512	26.59
537.857	26.47
538.203	26.07
538.549	25.92
538.894	26.12
539.239	26.14
539.585	26.47
539.93	26.64
540.276	26.9
540.621	26.98
540.966	27.01
541.311	27.18
541.656	27.3
542.001	27
542.346	26.84
542.691	26.28
543.036	25.86
543.381	25.81
543.726	25.95
544.071	26.34
544.415	26.59
544.76	26.7
545.105	26.72
545.449	26.99
545.794	27.19
546.138	27.29
546.483	27.53
546.827	27.5
547.171	27.34
547.516	27.42
547.86	27.41
548.204	27.4
548.548	27.13
548.892	27.36
549.236	27.55
549.58	27.61
549.924	27.7
550.268	28
550.612	28.3
550.956	28.48
551.3	28.47
551.643	28.39
551.987	28.54
552.33	28.64
552.674	28.5
553.017	28.76
553.361	28.55
553.704	28.59
554.048	28.51
554.391	28.35
554.734	28.53
555.077	28.46
555.42	28.77
555.764	28.68
556.107	28.94
556.45	29.23
556.793	29.24
557.135	29.23
557.478	29.02
557.821	29.45
558.164	29.21
558.507	29.3
558.849	29.27
559.192	29.47
559.534	29.3
559.877	29.33
560.219	29.44
560.562	29.53
560.904	29.51
561.246	29.72
561.589	29.66
561.931	29.68
562.273	29.81
562.615	29.98
562.957	29.67
563.299	29.57
563.641	29.84
563.983	29.9
564.325	29.8
564.667	29.68
565.008	29.99
565.35	30.15
565.692	30.16
566.033	30.34
566.375	30
566.716	30.24
567.058	30.18
567.399	29.99
567.741	30.07
568.082	29.91
568.423	29.96
568.764	30.1
569.105	30.16
569.447	30.28
569.788	30.59
570.129	30.68
570.47	30.85
570.811	30.7
571.151	30.72
571.492	30.92
571.833	30.66
572.174	30.79
572.514	30.75
572.855	30.48
573.195	30.67
573.536	30.4
573.876	30.64
574.217	30.72
574.557	30.88
574.898	30.82
575.238	31.02
575.578	31.07
575.918	31.22
576.258	31.11
576.598	30.99
576.938	31.05
577.278	31.14
577.618	30.95
577.958	31.27
578.298	31.53
578.638	31.71
578.977	31.48
579.317	31.58
579.657	32.12
579.996	31.82
580.336	31.85
580.675	31.96
581.014	32.01
581.354	32.07
581.693	32.16
582.032	31.93
582.372	32.15
582.711	31.91
583.05	32.01
583.389	31.89
583.728	32.26
584.067	32.13
584.406	32.09
584.745	32.43
585.083	32.25
585.422	32.63
585.761	32.47
586.1	32.82
586.438	32.79
586.777	32.59
587.115	32.43
587.454	32.73
587.792	32.7
588.13	33.08
588.469	32.51
588.807	32.84
589.145	32.86
589.483	32.77
589.821	33.16
590.159	32.57
590.497	32.86
590.835	33.21
591.173	32.83
591.511	32.97
591.849	33
592.187	32.77
592.524	33.22
592.862	32.86
593.2	33.27
593.537	33.36
593.875	33.67
594.212	33.43
594.55	33.42
594.887	33.32
595.224	33.37
595.561	33.54
595.899	33.44
596.236	33.28
596.573	33.67
596.91	33.57
597.247	33.81
597.584	33.54
597.921	33.64
598.258	33.82
598.594	33.51
598.931	33.48
599.268	33.38
599.604	33.5
599.941	33.77
600.277	33.91
600.614	33.73
600.95	33.97
601.287	34.42
601.623	34.37
601.959	34.41
602.296	34.3
602.632	34.34
602.968	34.17
603.304	34.62
603.64	34.39
603.976	34.39
604.312	34.7
604.648	34.44
604.984	34.21
605.319	34.19
605.655	34.35
605.991	34.24
606.326	33.93
606.662	33.99
606.998	34.11
607.333	34.4
607.668	34.58
608.004	34.65
608.339	34.92
608.674	34.81
609.01	35.09
609.345	35.33
609.68	35.16
610.015	35.27
610.35	35.25
610.685	34.75
611.02	34.68
611.355	34.65
611.689	34.21
612.024	34.68
612.359	35.03
612.694	34.91
613.028	35.28
613.363	35.34
613.697	35.37
614.032	35.52
614.366	35.66
614.7	35.82
615.035	35.58
615.369	36.02
615.703	35.9
616.037	35.99
616.371	35.74
616.705	35.62
617.039	36.11
617.373	36.23
617.707	36.31
618.041	36.38
618.375	36.33
618.709	36.49
619.042	36.24
619.376	36.06
619.71	35.81
620.043	36.29
620.377	36.15
620.71	36.16
621.043	35.83
621.377	36.14
621.71	36.38
622.043	36.34
622.376	36.18
622.709	36.67
623.043	36.29
623.376	36.43
623.709	36.65
624.041	36.93
624.374	36.72
624.707	36.65
625.04	37.04
625.373	36.78
625.705	36.78
626.038	37.05
626.37	37.51
626.703	36.98
627.035	37.14
627.368	36.9
627.7	37.03
628.032	37.02
628.365	37.03
628.697	36.73
629.029	36.86
629.361	36.62
629.693	36.85
630.025	36.74
630.357	37.16
630.689	37.49
631.021	37.34
631.353	36.72
631.684	37.78
632.016	37.03
632.348	37.36
632.679	37.28
633.011	37.34
633.342	37.68
633.674	37.36
634.005	37.68
634.336	37.58
634.668	37.87
634.999	37.61
635.33	37.76
635.661	37.27
635.992	37.63
636.323	37.81
636.654	37.74
636.985	37.81
637.316	37.93
637.647	37.92
637.977	37.68
638.308	37.9
638.639	38.15
638.969	37.69
639.3	37.76
639.63	38.39
639.961	38.02
640.291	37.96
640.622	38.55
640.952	38.68
641.282	38.35
641.612	38.74
641.943	38.82
642.273	38.38
642.603	38.86
642.933	38.18
643.263	38.85
643.592	38.66
643.922	38.77
644.252	38.46
644.582	38.53
644.911	38.78
645.241	38.85
645.571	38.65
645.9	38.8
646.23	38.68
646.559	39.05
646.888	38.86
647.218	38.77
647.547	38.67
647.876	39.22
648.205	39.08
648.534	38.91
648.863	39.17
649.192	38.52
649.521	38.92
649.85	39.12
650.179	38.95
650.508	39.25
650.837	38.54
651.165	39.54
651.494	38.76
651.822	39.28
652.151	39.54
652.479	39.01
652.808	39.43
653.136	39.56
653.465	39.37
653.793	39.93
654.121	39.55
654.449	39.45
654.777	39.81
655.105	40.05
655.433	40.02
655.761	40.04
656.089	40.01
656.417	39.39
656.745	39.86
657.073	40.03
657.4	40.08
657.728	39.94
658.056	40.19
658.383	39.37
658.711	39.87
659.038	39.64
659.365	39.98
659.693	40.22
660.02	40.19
660.347	39.83
660.674	39.77
661.001	39.59
661.329	39.66
661.656	39.89
661.982	40.22
662.309	39.94
662.636	39.96
662.963	40.54
663.29	40.68
663.616	39.74
663.943	40.47
664.27	40.71
664.596	40.89
664.923	40.83
665.249	40.74
665.576	40.35
665.902	40.41
666.228	40.1
666.554	40.99
666.881	40.15
667.207	40.57
667.533	40.58
667.859	40.74
668.185	40.7
668.511	40.74
668.837	40.98
669.162	40.83
669.488	40.85
669.814	40.88
670.139	41.66
670.465	40.73
670.791	40.59
671.116	41.14
671.442	41.06
671.767	40.59
672.092	41.58
672.418	41.47
672.743	41.45
673.068	41.37
