Data from 0036_forehead_Reflection__2__12.txt Node

Date: Fri Nov 04 14:43:44 CDT 2022
User: ToomeyLab
Spectrometer: FLMS14357
Trigger mode: 0
Integration Time (sec): 1.000000E-2
Scans to average: 100
Electric dark correction enabled: true
Nonlinearity correction enabled: false
Boxcar width: 0
XAxis mode: Wavelengths
Number of Pixels in Spectrum: 2048
>>>>>Begin Spectral Data<<<<<
189.047	241.86
189.435	241.86
189.823	241.86
190.211	78.16
190.599	13.23
190.987	-9.52
191.375	-20.49
191.763	210.92
192.151	52.9
192.538	-214.94
192.926	1427.4
193.314	15.98
193.702	113.48
194.089	128.85
194.477	70.21
194.864	178.05
195.252	101.34
195.639	-18.05
196.027	104.93
196.414	55.47
196.801	181.34
197.189	34.85
197.576	58.79
197.963	7.19
198.351	42.46
198.738	32.45
199.125	47.29
199.512	-23.9
199.899	19.26
200.286	58.34
200.673	36.48
201.06	30.32
201.447	22.36
201.833	62.79
202.22	45.9
202.607	71.95
202.994	60.01
203.38	53.65
203.767	23.86
204.154	35.57
204.54	21.27
204.927	66.29
205.313	63.99
205.699	57.91
206.086	47.22
206.472	70.21
206.858	38.8
207.245	36.08
207.631	15.7
208.017	16.68
208.403	46.93
208.789	35.56
209.175	-10.09
209.561	30.08
209.947	53.57
210.333	39.23
210.719	10.36
211.105	46.66
211.491	15.82
211.876	39.38
212.262	25.21
212.648	33.73
213.034	30.21
213.419	30.14
213.805	-6.36
214.19	31.69
214.576	11
214.961	23.48
215.346	38.77
215.732	15.25
216.117	7.14
216.502	26.12
216.888	15.36
217.273	9.73
217.658	27.5
218.043	22.02
218.428	14.02
218.813	22
219.198	-1.7
219.583	34.84
219.968	-0.39
220.353	19.05
220.738	16.76
221.122	-6.55
221.507	4.01
221.892	0.34
222.276	1.98
222.661	22.58
223.046	13.93
223.43	10.52
223.815	5.84
224.199	23.34
224.583	20.32
224.968	10.59
225.352	6.23
225.736	13.78
226.121	10.11
226.505	8.52
226.889	4.02
227.273	5.51
227.657	6
228.041	10.07
228.425	11.28
228.809	5.82
229.193	8.12
229.577	6.04
229.961	5.05
230.344	4.4
230.728	4.53
231.112	4.8
231.495	4.86
231.879	7.15
232.263	5.57
232.646	5.7
233.03	5.42
233.413	6.29
233.797	5.8
234.18	5.86
234.563	6.33
234.946	4.38
235.33	5.29
235.713	6.29
236.096	5.82
236.479	4.56
236.862	5.53
237.245	6.89
237.628	4.57
238.011	4.92
238.394	6.07
238.777	6.38
239.16	6.89
239.543	7.14
239.925	2.54
240.308	6.57
240.691	5.77
241.073	5.94
241.456	6.23
241.838	4.26
242.221	5.48
242.603	5.1
242.986	6.47
243.368	5.98
243.75	5.27
244.133	5.42
244.515	5.21
244.897	5.01
245.279	5.12
245.661	5.52
246.043	5.22
246.425	5.46
246.807	5.61
247.189	5.23
247.571	5.67
247.953	5.47
248.335	5.01
248.717	4.99
249.098	5.13
249.48	5.09
249.862	5.3
250.243	5.38
250.625	5.76
251.006	5.54
251.388	5.8
251.769	6.16
252.151	5.06
252.532	5.46
252.913	5.49
253.295	6.07
253.676	4.76
254.057	5.24
254.438	6.17
254.819	5.71
255.2	6.05
255.581	5.21
255.962	5.46
256.343	5.25
256.724	4.92
257.105	6.13
257.486	5.63
257.867	6.09
258.247	5.76
258.628	5.16
259.009	5.24
259.389	5.09
259.77	5.73
260.15	5.81
260.531	5.19
260.911	5.21
261.292	4.73
261.672	4.99
262.052	5.07
262.432	5.2
262.813	5.49
263.193	5.39
263.573	5.1
263.953	5.77
264.333	5.41
264.713	5.07
265.093	5.3
265.473	4.95
265.853	4.73
266.233	6.56
266.612	6.21
266.992	5.72
267.372	5.43
267.752	5.5
268.131	4.91
268.511	4.84
268.89	5.32
269.27	5.14
269.649	5.67
270.029	5.47
270.408	5.65
270.787	5.22
271.167	5.01
271.546	5.34
271.925	5.45
272.304	4.8
272.683	4.84
273.062	4.7
273.441	4.54
273.82	5.01
274.199	5.17
274.578	5.05
274.957	4.96
275.336	5
275.715	5.24
276.093	5.24
276.472	5.24
276.851	5.01
277.229	4.35
277.608	4.42
277.986	4.8
278.365	4.75
278.743	4.98
279.122	4.93
279.5	4.23
279.878	5.09
280.257	5.15
280.635	5.26
281.013	4.93
281.391	5.1
281.769	4.52
282.147	5.05
282.525	5.46
282.903	4.68
283.281	5.33
283.659	5.32
284.037	4.86
284.415	4.83
284.792	5.25
285.17	5.25
285.548	4.71
285.925	5.15
286.303	5.02
286.68	5.05
287.058	4.97
287.435	4.98
287.813	5
288.19	4.85
288.567	5.27
288.945	5.1
289.322	5.39
289.699	5.1
290.076	5.58
290.453	5.77
290.83	5.32
291.207	5.43
291.584	5.37
291.961	5.23
292.338	5.51
292.715	5.76
293.092	4.94
293.469	6.22
293.845	5.79
294.222	5.69
294.599	6.18
294.975	6.03
295.352	6.17
295.728	6.02
296.105	6.05
296.481	6.23
296.858	6.17
297.234	6.53
297.61	6.39
297.986	6.26
298.363	6.32
298.739	6.16
299.115	6.22
299.491	6.09
299.867	6.29
300.243	6.37
300.619	6.24
300.995	6.66
301.371	6.49
301.746	6.29
302.122	6.56
302.498	6.34
302.874	6.55
303.249	6.64
303.625	6.67
304	7.09
304.376	7.03
304.751	7.04
305.127	7.34
305.502	7.15
305.878	6.93
306.253	6.84
306.628	7.85
307.003	7.27
307.378	7.08
307.754	7.25
308.129	7.17
308.504	7.46
308.879	7.56
309.254	8.01
309.629	7.93
310.003	8.08
310.378	8.04
310.753	8.1
311.128	7.69
311.502	7.89
311.877	8.17
312.252	8.11
312.626	8.01
313.001	8.29
313.375	8.04
313.75	7.96
314.124	8.27
314.498	8.08
314.873	8.41
315.247	8.51
315.621	8.6
315.995	8.82
316.369	8.48
316.743	8.32
317.117	8.81
317.491	8.25
317.865	9.11
318.239	8.91
318.613	9.03
318.987	9.25
319.361	8.97
319.734	9.11
320.108	9.5
320.482	9.61
320.855	9.9
321.229	9.39
321.602	9.64
321.976	9.37
322.349	9.54
322.723	9.94
323.096	9.7
323.469	9.98
323.843	9.67
324.216	10.21
324.589	9.81
324.962	10.49
325.335	9.84
325.708	9.98
326.081	10.23
326.454	10.38
326.827	10.16
327.2	10.09
327.573	9.99
327.945	10.16
328.318	10.38
328.691	10.31
329.063	10.17
329.436	10.51
329.809	10.84
330.181	10.29
330.553	11.08
330.926	10.35
331.298	10.97
331.671	10.7
332.043	10.98
332.415	10.58
332.787	10.57
333.159	10.98
333.532	10.85
333.904	11.25
334.276	11.1
334.648	11.3
335.02	11.53
335.391	11.14
335.763	11.42
336.135	11.42
336.507	11.4
336.879	11.34
337.25	11.26
337.622	11.41
337.993	11.27
338.365	10.96
338.736	11.73
339.108	11.58
339.479	11.37
339.851	11.31
340.222	12.03
340.593	11.93
340.964	11.35
341.336	11.74
341.707	12.14
342.078	12.12
342.449	12.21
342.82	11.62
343.191	11.78
343.562	11.95
343.933	11.91
344.303	11.89
344.674	11.81
345.045	12.23
345.416	12.13
345.786	12.19
346.157	12.33
346.527	12.41
346.898	12.35
347.268	12.24
347.639	12.32
348.009	12.83
348.38	12
348.75	12.74
349.12	12.42
349.49	12.58
349.861	12.8
350.231	12.95
350.601	12.65
350.971	12.58
351.341	12.9
351.711	13.07
352.081	13.04
352.45	12.79
352.82	12.82
353.19	13.04
353.56	13.19
353.929	13.13
354.299	13.43
354.669	13.15
355.038	13.01
355.408	13.02
355.777	12.91
356.147	13.18
356.516	13.25
356.885	13.72
357.254	13.4
357.624	13.51
357.993	13.36
358.362	13.31
358.731	13.3
359.1	13.57
359.469	13.66
359.838	13.7
360.207	13.61
360.576	13.68
360.945	13.87
361.314	14.01
361.682	13.77
362.051	13.86
362.42	13.94
362.788	13.58
363.157	13.56
363.525	13.67
363.894	13.85
364.262	13.65
364.631	13.73
364.999	13.98
365.367	13.82
365.735	14.14
366.104	14.35
366.472	13.91
366.84	14.09
367.208	14.24
367.576	14.42
367.944	14.38
368.312	14.26
368.68	14.5
369.048	14.48
369.416	14.69
369.783	14.5
370.151	14.62
370.519	15.04
370.886	14.99
371.254	14.3
371.621	15.03
371.989	14.7
372.356	14.99
372.724	15.07
373.091	14.78
373.458	15.19
373.826	14.94
374.193	15.19
374.56	15.25
374.927	15.47
375.294	15.3
375.661	15.09
376.028	15.55
376.395	15.15
376.762	15.4
377.129	15.43
377.496	15.1
377.863	15.17
378.229	15.27
378.596	15.4
378.963	15.14
379.329	15.5
379.696	15.44
380.062	15.72
380.429	15.54
380.795	15.85
381.161	15.84
381.528	16.03
381.894	16.02
382.26	15.85
382.626	16.03
382.993	15.95
383.359	16.29
383.725	16.16
384.091	16.09
384.457	16.22
384.823	16.18
385.188	15.97
385.554	16.05
385.92	16.14
386.286	16.1
386.651	16.61
387.017	16.26
387.383	16.67
387.748	16.33
388.114	16.82
388.479	16.28
388.845	16.63
389.21	16.77
389.575	16.66
389.94	16.59
390.306	16.94
390.671	16.87
391.036	16.63
391.401	17.09
391.766	16.68
392.131	16.86
392.496	17.03
392.861	16.98
393.226	16.85
393.591	16.91
393.956	16.8
394.32	16.87
394.685	17.1
395.05	17.12
395.414	17.44
395.779	17.21
396.143	17.21
396.508	17.1
396.872	17.17
397.236	17.52
397.601	17.3
397.965	17.63
398.329	17.35
398.694	17.54
399.058	17.91
399.422	17.47
399.786	17.55
400.15	17.59
400.514	17.74
400.878	17.6
401.242	17.74
401.605	17.69
401.969	17.96
402.333	18.14
402.697	17.97
403.06	18.26
403.424	17.94
403.787	17.94
404.151	18.05
404.514	17.93
404.878	18.1
405.241	18.04
405.604	17.93
405.968	18.05
406.331	18.13
406.694	18.39
407.057	18.27
407.42	18.19
407.783	18.31
408.146	18.51
408.509	18.5
408.872	18.5
409.235	18.86
409.598	18.89
409.961	18.83
410.323	18.88
410.686	18.73
411.049	19
411.411	18.68
411.774	18.5
412.136	18.53
412.499	18.8
412.861	19.17
413.223	19.01
413.586	18.96
413.948	19.14
414.31	19.08
414.672	19.2
415.035	19.25
415.397	19.45
415.759	19.46
416.121	19.31
416.483	19.08
416.845	19.18
417.206	19.28
417.568	19.32
417.93	19.41
418.292	19.39
418.653	19.28
419.015	19.4
419.377	19.19
419.738	19.16
420.1	19.11
420.461	19.3
420.822	19.24
421.184	19.39
421.545	19.26
421.906	19.38
422.267	19.15
422.629	19.13
422.99	19.16
423.351	19.2
423.712	19.24
424.073	19.59
424.434	19.63
424.795	19.68
425.155	19.58
425.516	19.5
425.877	19.59
426.238	19.35
426.598	19.55
426.959	19.72
427.32	19.72
427.68	20.03
428.041	20.45
428.401	20.38
428.761	20.53
429.122	20.52
429.482	20.63
429.842	20.81
430.202	20.62
430.563	20.81
430.923	20.81
431.283	20.75
431.643	20.5
432.003	20.86
432.363	20.7
432.722	21.02
433.082	20.77
433.442	20.58
433.802	20.71
434.161	20.78
434.521	20.63
434.881	20.67
435.24	20.48
435.6	20.82
435.959	20.68
436.319	21.04
436.678	21.05
437.037	21.22
437.396	21.03
437.756	21.34
438.115	21.58
438.474	21.3
438.833	21.37
439.192	21.29
439.551	21.2
439.91	21.28
440.269	21.34
440.628	21.41
440.987	21.27
441.345	21.18
441.704	21.21
442.063	21.1
442.421	21.17
442.78	21.2
443.138	21.1
443.497	21.43
443.855	21.61
444.214	21.89
444.572	21.83
444.93	21.76
445.288	22
445.647	21.84
446.005	21.91
446.363	21.84
446.721	21.51
447.079	21.46
447.437	21.49
447.795	21.31
448.153	21.51
448.51	21.35
448.868	21.54
449.226	21.71
449.584	21.75
449.941	21.96
450.299	22.12
450.656	22.57
451.014	22.35
451.371	22.53
451.729	22.62
452.086	22.58
452.443	22.6
452.801	22.72
453.158	22.92
453.515	22.74
453.872	22.69
454.229	22.43
454.586	22.51
454.943	22.71
455.3	22.83
455.657	22.7
456.014	22.71
456.371	22.77
456.727	22.81
457.084	23.02
457.441	23
457.797	23.2
458.154	23.12
458.51	23.53
458.867	23.42
459.223	23.15
459.58	23.25
459.936	23.04
460.292	23.09
460.648	23.06
461.005	22.83
461.361	22.63
461.717	22.65
462.073	22.79
462.429	22.88
462.785	23.34
463.141	23.47
463.496	23.62
463.852	23.67
464.208	23.72
464.564	23.88
464.919	23.73
465.275	24.08
465.631	24.02
465.986	23.76
466.342	23.89
466.697	23.98
467.052	23.95
467.408	24.03
467.763	24.03
468.118	24.03
468.473	23.87
468.829	23.8
469.184	23.96
469.539	23.89
469.894	23.94
470.249	24.17
470.603	24.35
470.958	24.28
471.313	24.34
471.668	24.45
472.023	24.34
472.377	24.39
472.732	24.45
473.086	24.78
473.441	24.72
473.795	24.64
474.15	24.74
474.504	24.63
474.859	24.53
475.213	24.52
475.567	24.78
475.921	24.93
476.275	24.92
476.63	24.97
476.984	25.11
477.338	25.15
477.692	25.01
478.045	24.91
478.399	24.89
478.753	25.12
479.107	25.03
479.461	25.09
479.814	25.31
480.168	25.29
480.521	25.22
480.875	25.23
481.228	25.25
481.582	25.46
481.935	25.26
482.289	25.48
482.642	25.3
482.995	25.33
483.348	25.14
483.701	25.11
484.055	25.31
484.408	25.13
484.761	24.82
485.114	24.51
485.466	24.14
485.819	24.2
486.172	24.49
486.525	24.66
486.878	24.96
487.23	25.22
487.583	25.36
487.936	25.32
488.288	25.34
488.641	25.09
488.993	24.88
489.345	24.95
489.698	24.95
490.05	25.09
490.402	25.25
490.754	25.52
491.107	25.7
491.459	25.86
491.811	26.18
492.163	26.39
492.515	26.16
492.866	25.86
493.218	25.35
493.57	25.38
493.922	25.53
494.274	25.79
494.625	26.07
494.977	26.27
495.328	26.69
495.68	26.83
496.031	26.9
496.383	26.92
496.734	27.03
497.086	26.96
497.437	27.13
497.788	27.02
498.139	26.92
498.49	26.74
498.842	26.78
499.193	26.8
499.544	26.86
499.894	26.93
500.245	27.01
500.596	27.16
500.947	27.3
501.298	27.4
501.648	27.35
501.999	27.51
502.35	27.5
502.7	27.56
503.051	27.67
503.401	27.67
503.752	27.82
504.102	27.67
504.452	27.79
504.803	27.82
505.153	27.85
505.503	27.86
505.853	27.82
506.203	27.91
506.553	27.8
506.903	27.96
507.253	27.99
507.603	28.26
507.953	28.24
508.303	28.07
508.652	28.23
509.002	28.2
509.352	28.03
509.701	28.12
510.051	28.09
510.4	27.8
510.75	28
511.099	27.95
511.449	28.08
511.798	28.05
512.147	28.26
512.496	28.37
512.846	28.55
513.195	28.59
513.544	28.55
513.893	28.68
514.242	28.6
514.591	28.68
514.939	28.62
515.288	28.87
515.637	29.03
515.986	29.13
516.334	29.3
516.683	29.3
517.032	29.25
517.38	29.4
517.729	29.07
518.077	29.42
518.426	29.43
518.774	29.27
519.122	29.03
519.47	29.18
519.819	29.01
520.167	29.04
520.515	28.84
520.863	29.1
521.211	29.16
521.559	29.24
521.907	29.4
522.255	29.6
522.602	29.65
522.95	29.78
523.298	30.03
523.645	29.95
523.993	29.94
524.341	30.17
524.688	30.13
525.036	30.21
525.383	30.39
525.73	30.27
526.078	30.16
526.425	30.25
526.772	30.07
527.119	29.9
527.466	29.65
527.814	29.81
528.161	29.94
528.508	30.13
528.854	30.2
529.201	30.23
529.548	30.16
529.895	29.72
530.242	29.16
530.588	29.33
530.935	29.65
531.282	29.82
531.628	29.85
531.975	30.14
532.321	30.37
532.667	30.53
533.014	30.74
533.36	30.59
533.706	30.73
534.052	30.7
534.399	30.57
534.745	30.36
535.091	30.06
535.437	30.28
535.783	30.56
536.129	30.73
536.474	31.04
536.82	31.11
537.166	31.48
537.512	31.59
537.857	31.41
538.203	31.04
538.549	31.05
538.894	31.21
539.239	31.32
539.585	31.47
539.93	31.54
540.276	31.71
540.621	32.01
540.966	32.16
541.311	32.36
541.656	32.04
542.001	31.96
542.346	31.97
542.691	31.46
543.036	30.99
543.381	30.96
543.726	31.17
544.071	31.4
544.415	31.68
544.76	31.75
545.105	31.91
545.449	32.12
545.794	32.27
546.138	32.42
546.483	32.54
546.827	32.41
547.171	32.46
547.516	32.42
547.86	32.56
548.204	32.64
548.548	32.3
548.892	32.49
549.236	32.65
549.58	32.93
549.924	32.9
550.268	33.26
550.612	33.48
550.956	33.61
551.3	33.46
551.643	33.59
551.987	33.5
552.33	33.61
552.674	33.63
553.017	33.55
553.361	33.57
553.704	33.75
554.048	33.71
554.391	33.48
554.734	33.56
555.077	33.58
555.42	33.66
555.764	33.81
556.107	33.88
556.45	34.24
556.793	34.3
557.135	34.3
557.478	34.3
557.821	34.36
558.164	34.32
558.507	34.21
558.849	34.36
559.192	34.51
559.534	34.4
559.877	34.47
560.219	34.56
560.562	34.59
560.904	34.61
561.246	34.68
561.589	34.96
561.931	34.85
562.273	34.82
562.615	34.96
562.957	34.98
563.299	34.84
563.641	35.1
563.983	34.98
564.325	35.02
564.667	35.14
565.008	35.23
565.35	35.29
565.692	35.3
566.033	35.39
566.375	34.93
566.716	35.42
567.058	35.22
567.399	35.15
567.741	35.14
568.082	35.11
568.423	35.26
568.764	35.46
569.105	35.36
569.447	35.52
569.788	35.68
570.129	35.77
570.47	35.73
570.811	35.74
571.151	35.87
571.492	36.26
571.833	35.91
572.174	36.03
572.514	35.9
572.855	35.79
573.195	35.69
573.536	35.7
573.876	35.93
574.217	35.92
574.557	36.14
574.898	35.85
575.238	36.44
575.578	36.42
575.918	36.42
576.258	36.54
576.598	36.52
576.938	36.51
577.278	36.43
577.618	36.61
577.958	36.73
578.298	36.75
578.638	36.98
578.977	37.02
579.317	36.97
579.657	37.13
579.996	37.11
580.336	37.22
580.675	37.35
581.014	37.24
581.354	37.19
581.693	37.52
582.032	37.42
582.372	37.52
582.711	37.21
583.05	37.57
583.389	37.66
583.728	37.49
584.067	37.29
584.406	37.52
584.745	37.77
585.083	37.68
585.422	37.75
585.761	38.03
586.1	37.81
586.438	37.98
586.777	37.96
587.115	37.95
587.454	37.93
587.792	38.28
588.13	38.18
588.469	38.3
588.807	38.02
589.145	38.45
589.483	38.35
589.821	38.31
590.159	38.23
590.497	38.38
590.835	38.47
591.173	38.2
591.511	38.59
591.849	38.46
592.187	38.4
592.524	38.65
592.862	38.32
593.2	38.6
593.537	38.84
593.875	38.92
594.212	38.96
594.55	38.92
594.887	39.14
595.224	39.02
595.561	38.81
595.899	38.66
596.236	38.69
596.573	39.29
596.91	39.27
597.247	39.33
597.584	39.33
597.921	39.12
598.258	39.32
598.594	39.02
598.931	38.97
599.268	39.06
599.604	39.31
599.941	39.57
600.277	39.39
600.614	39.35
600.95	39.59
601.287	39.74
601.623	40.03
601.959	40.27
602.296	40.25
602.632	40.12
602.968	40.05
603.304	40.2
603.64	40.04
603.976	40.22
604.312	40.22
604.648	40.06
604.984	39.84
605.319	39.87
605.655	40.05
605.991	39.97
606.326	39.74
606.662	39.58
606.998	39.87
607.333	40.18
607.668	40.29
608.004	40.46
608.339	40.51
608.674	40.47
609.01	40.89
609.345	41.39
609.68	41.09
610.015	40.99
610.35	40.87
610.685	40.45
611.02	40.29
611.355	40.39
611.689	40.33
612.024	40.56
612.359	40.5
612.694	40.87
613.028	41.03
613.363	41.32
613.697	41.42
614.032	41.52
614.366	41.42
614.7	41.45
615.035	41.29
615.369	41.58
615.703	41.42
616.037	41.76
616.371	41.63
616.705	41.51
617.039	41.78
617.373	41.55
617.707	41.85
618.041	42.01
618.375	41.94
618.709	41.84
619.042	41.59
619.376	41.54
619.71	41.86
620.043	41.96
620.377	42.1
620.71	41.99
621.043	41.63
621.377	41.97
621.71	41.52
622.043	42.09
622.376	42.55
622.709	42.55
623.043	42.41
623.376	42.4
623.709	42.69
624.041	42.56
624.374	42.19
624.707	42.3
625.04	42.52
625.373	42.45
625.705	43.01
626.038	42.49
626.37	43.03
626.703	42.86
627.035	42.73
627.368	42.8
627.7	42.93
628.032	42.98
628.365	42.9
628.697	43
629.029	42.81
629.361	42.43
629.693	42.94
630.025	42.74
630.357	43.11
630.689	43.37
631.021	43.28
631.353	43.14
631.684	43.6
632.016	43.16
632.348	43.02
632.679	43.41
633.011	43.44
633.342	43.87
633.674	43.27
634.005	43.68
634.336	43.88
634.668	44
634.999	43.58
635.33	43.9
635.661	43.65
635.992	43.75
636.323	43.75
636.654	43.81
636.985	43.98
637.316	43.61
637.647	43.86
637.977	44.21
638.308	44.15
638.639	44.26
638.969	43.96
639.3	44.36
639.63	44.17
639.961	44.29
640.291	44.05
640.622	44.88
640.952	45.08
641.282	44.58
641.612	44.63
641.943	44.42
642.273	44.43
642.603	44.48
642.933	44.8
643.263	44.99
643.592	45.15
643.922	44.91
644.252	44.95
644.582	44.86
644.911	44.71
645.241	44.92
645.571	45.19
645.9	45.06
646.23	44.63
646.559	44.81
646.888	45.53
647.218	45.18
647.547	44.99
647.876	45.16
648.205	44.54
648.534	45.09
648.863	45.58
649.192	45.02
649.521	45.41
649.85	45.58
650.179	45.36
650.508	45.74
650.837	44.97
651.165	45.98
651.494	45.09
651.822	45.52
652.151	45.63
652.479	45.77
652.808	45.02
653.136	45.54
653.465	45.71
653.793	45.81
654.121	45.6
654.449	45.76
654.777	45.99
655.105	46.57
655.433	46.33
655.761	46.27
656.089	46.17
656.417	45.56
656.745	46.3
657.073	45.98
657.4	46.12
657.728	46.08
658.056	46.84
658.383	46.29
658.711	46.01
659.038	45.41
659.365	46
659.693	47.16
660.02	46.87
660.347	45.96
660.674	46.49
661.001	45.92
661.329	46.16
661.656	46.22
661.982	46.83
662.309	46.72
662.636	47.08
662.963	46.95
663.29	46.56
663.616	47.22
663.943	46.46
664.27	47.07
664.596	47.36
664.923	47.3
665.249	46.89
665.576	47.04
665.902	46.5
666.228	47.1
666.554	47.74
666.881	47.57
667.207	47.24
667.533	46.73
667.859	47
668.185	47
668.511	47.23
668.837	46.99
669.162	47.48
669.488	47.7
669.814	47.57
670.139	47.39
