Data from 0036_forehead_Reflection__4__14.txt Node

Date: Fri Nov 04 14:44:12 CDT 2022
User: ToomeyLab
Spectrometer: FLMS14357
Trigger mode: 0
Integration Time (sec): 1.000000E-2
Scans to average: 100
Electric dark correction enabled: true
Nonlinearity correction enabled: false
Boxcar width: 0
XAxis mode: Wavelengths
Number of Pixels in Spectrum: 2048
>>>>>Begin Spectral Data<<<<<
189.047	-17.28
189.435	-17.28
189.823	-17.28
190.211	68.5
190.599	104.82
190.987	186.38
191.375	258.38
191.763	324.65
192.151	118.95
192.538	358.73
192.926	961.36
193.314	64.64
193.702	-2255.81
194.089	137.32
194.477	65.38
194.864	85.49
195.252	62.88
195.639	426.41
196.027	122.97
196.414	6.6
196.801	168.95
197.189	-76.06
197.576	30.75
197.963	-23.98
198.351	-2.07
198.738	29.47
199.125	52.05
199.512	54.24
199.899	60.31
200.286	68.07
200.673	18.82
201.06	61.11
201.447	49.29
201.833	33.25
202.22	35.2
202.607	16.35
202.994	10.02
203.38	70.16
203.767	52.69
204.154	55.3
204.54	42.92
204.927	17.85
205.313	26.47
205.699	28.98
206.086	33.62
206.472	65.42
206.858	34.86
207.245	37.73
207.631	13.49
208.017	40.87
208.403	39.39
208.789	24.75
209.175	37.48
209.561	12.55
209.947	43.33
210.333	48.04
210.719	11.38
211.105	63.46
211.491	42.58
211.876	37.54
212.262	28.53
212.648	15.09
213.034	13.03
213.419	53.22
213.805	33.4
214.19	1.75
214.576	18.9
214.961	44.38
215.346	30.84
215.732	21.7
216.117	0.71
216.502	27.92
216.888	5.15
217.273	4.98
217.658	15.55
218.043	16.57
218.428	7.74
218.813	14.72
219.198	16.23
219.583	16.38
219.968	14.79
220.353	4.47
220.738	-2.44
221.122	-10.43
221.507	19.75
221.892	9.73
222.276	0.12
222.661	16.7
223.046	5.75
223.43	17.1
223.815	20.52
224.199	9.12
224.583	4.91
224.968	6.18
225.352	11.13
225.736	7.29
226.121	4.96
226.505	10.63
226.889	4.54
227.273	4.91
227.657	4.99
228.041	7.66
228.425	6.05
228.809	2.51
229.193	3.48
229.577	1.92
229.961	3.6
230.344	2.4
230.728	1.98
231.112	3.14
231.495	1.86
231.879	4.02
232.263	3.47
232.646	4.03
233.03	3.21
233.413	3.84
233.797	4.62
234.18	2.48
234.563	4.12
234.946	1.49
235.33	4.59
235.713	4.14
236.096	2.76
236.479	2.81
236.862	3.56
237.245	3.08
237.628	2.39
238.011	4.96
238.394	3.68
238.777	4.27
239.16	4.54
239.543	4.41
239.925	1.35
240.308	3.24
240.691	1.91
241.073	2.6
241.456	4.15
241.838	2.61
242.221	3.1
242.603	2.73
242.986	2.73
243.368	2.96
243.75	2.81
244.133	2.65
244.515	2.91
244.897	2.3
245.279	2.13
245.661	3.1
246.043	3.14
246.425	3.04
246.807	4.1
247.189	3.37
247.571	2.94
247.953	2.48
248.335	2.61
248.717	2.57
249.098	2.6
249.48	2.68
249.862	2.55
250.243	2.82
250.625	3.29
251.006	2.89
251.388	3.35
251.769	2.79
252.151	3.69
252.532	3.6
252.913	3.85
253.295	3.38
253.676	2.35
254.057	2.69
254.438	3.06
254.819	3.42
255.2	3.65
255.581	2.7
255.962	4.21
256.343	2.31
256.724	3.11
257.105	4.11
257.486	3.38
257.867	3.52
258.247	4.73
258.628	3.02
259.009	2.52
259.389	2.69
259.77	2.68
260.15	3.15
260.531	3.44
260.911	2.68
261.292	2.77
261.672	2.75
262.052	2.92
262.432	2.78
262.813	3.03
263.193	3.05
263.573	2.87
263.953	3.07
264.333	2.69
264.713	2.58
265.093	3.14
265.473	2.81
265.853	2.87
266.233	3.3
266.612	3.36
266.992	3.21
267.372	3
267.752	3.43
268.131	3.01
268.511	2.32
268.89	3.37
269.27	2.85
269.649	3.03
270.029	3.07
270.408	3.14
270.787	3.15
271.167	2.76
271.546	3.01
271.925	3.03
272.304	2.81
272.683	2.94
273.062	2.76
273.441	2.34
273.82	2.7
274.199	2.92
274.578	2.6
274.957	3.18
275.336	2.58
275.715	2.81
276.093	3.14
276.472	3.39
276.851	3.43
277.229	2.78
277.608	2.6
277.986	3.02
278.365	2.61
278.743	2.73
279.122	2.71
279.5	2.39
279.878	3.06
280.257	3.11
280.635	2.99
281.013	3.12
281.391	3.39
281.769	2.64
282.147	2.52
282.525	3.09
282.903	3.02
283.281	2.64
283.659	3.22
284.037	2.99
284.415	2.48
284.792	2.7
285.17	2.64
285.548	2.58
285.925	2.82
286.303	2.75
286.68	2.85
287.058	2.58
287.435	2.57
287.813	2.55
288.19	2.84
288.567	2.87
288.945	2.98
289.322	3.12
289.699	3.17
290.076	2.92
290.453	3.68
290.83	2.8
291.207	3
291.584	2.73
291.961	3.04
292.338	3.36
292.715	3.19
293.092	2.78
293.469	3.41
293.845	3.27
294.222	4.04
294.599	3.14
294.975	3.5
295.352	3.24
295.728	3.64
296.105	3.74
296.481	3.72
296.858	3.52
297.234	3.67
297.61	3.22
297.986	3.64
298.363	3.47
298.739	3.62
299.115	3.55
299.491	3.5
299.867	3.74
300.243	3.69
300.619	3.66
300.995	3.97
301.371	3.73
301.746	3.52
302.122	3.73
302.498	4
302.874	3.82
303.249	4.06
303.625	4.31
304	4.02
304.376	4.34
304.751	4
305.127	4.27
305.502	3.49
305.878	4.12
306.253	4.1
306.628	4.56
307.003	4.47
307.378	4.72
307.754	4.86
308.129	4.01
308.504	4.17
308.879	4.73
309.254	4.75
309.629	4.91
310.003	5.35
310.378	4.69
310.753	5.06
311.128	4.38
311.502	5.18
311.877	4.6
312.252	4.92
312.626	4.49
313.001	5.1
313.375	4.96
313.75	5.08
314.124	5.19
314.498	5.18
314.873	5.41
315.247	5.72
315.621	5.16
315.995	5.54
316.369	5.98
316.743	5.28
317.117	4.94
317.491	5.73
317.865	6
318.239	6.19
318.613	5.7
318.987	6
319.361	6.02
319.734	5.72
320.108	6.08
320.482	6.36
320.855	6.38
321.229	5.99
321.602	6.22
321.976	6.82
322.349	6.02
322.723	6.1
323.096	6.87
323.469	6.72
323.843	6.3
324.216	6.5
324.589	5.87
324.962	6.94
325.335	6.53
325.708	6.76
326.081	6.65
326.454	7.05
326.827	6.55
327.2	6.56
327.573	7.2
327.945	6.89
328.318	6.56
328.691	7.06
329.063	6.97
329.436	6.66
329.809	7.13
330.181	7.23
330.553	7.07
330.926	7.45
331.298	7.57
331.671	7.89
332.043	7.14
332.415	7.31
332.787	7.59
333.159	7.73
333.532	7.27
333.904	7.15
334.276	7.64
334.648	8.12
335.02	7.82
335.391	8.21
335.763	7.99
336.135	8.33
336.507	7.7
336.879	7.27
337.25	7.56
337.622	8.1
337.993	7.54
338.365	8.11
338.736	8.51
339.108	8.4
339.479	7.85
339.851	8.57
340.222	8.47
340.593	7.87
340.964	8.24
341.336	8.52
341.707	8.06
342.078	8.57
342.449	8.68
342.82	8.15
343.191	8.58
343.562	8.53
343.933	8.54
344.303	9
344.674	8.51
345.045	8.71
345.416	9.16
345.786	8.81
346.157	8.88
346.527	8.72
346.898	8.53
347.268	8.94
347.639	8.67
348.009	9.27
348.38	8.54
348.75	9.49
349.12	9.06
349.49	8.84
349.861	9.01
350.231	9
350.601	9.12
350.971	9.29
351.341	9.14
351.711	9.21
352.081	9.33
352.45	9.15
352.82	9.38
353.19	9.66
353.56	9.44
353.929	9.37
354.299	9.68
354.669	9.6
355.038	9.86
355.408	9.45
355.777	9.28
356.147	9.66
356.516	9.71
356.885	9.88
357.254	9.91
357.624	9.62
357.993	9.77
358.362	9.75
358.731	9.55
359.1	9.96
359.469	9.98
359.838	9.86
360.207	9.97
360.576	10.1
360.945	9.74
361.314	10.07
361.682	9.82
362.051	9.93
362.42	10.01
362.788	9.94
363.157	9.92
363.525	9.83
363.894	10.07
364.262	10.22
364.631	10.34
364.999	10.49
365.367	10.44
365.735	10.23
366.104	10.48
366.472	10.37
366.84	10.5
367.208	10.52
367.576	10.7
367.944	10.55
368.312	10.71
368.68	10.51
369.048	10.24
369.416	10.72
369.783	10.69
370.151	10.85
370.519	11.14
370.886	10.91
371.254	11.12
371.621	11.13
371.989	10.78
372.356	11.14
372.724	11.45
373.091	11.3
373.458	11.22
373.826	11.44
374.193	11.24
374.56	11.22
374.927	11.39
375.294	11.73
375.661	11.68
376.028	11.44
376.395	11.49
376.762	11.69
377.129	11.59
377.496	11.49
377.863	11.74
378.229	11.43
378.596	11.64
378.963	11.53
379.329	11.62
379.696	11.6
380.062	11.62
380.429	11.96
380.795	12.05
381.161	12
381.528	11.76
381.894	12.52
382.26	12.14
382.626	11.84
382.993	12.27
383.359	12.38
383.725	12.2
384.091	12.3
384.457	12.37
384.823	12.32
385.188	12.19
385.554	12.42
385.92	12.47
386.286	12.31
386.651	12.7
387.017	12.19
387.383	12.5
387.748	12.46
388.114	12.67
388.479	12.52
388.845	12.44
389.21	12.69
389.575	12.73
389.94	12.88
390.306	13.11
390.671	12.89
391.036	12.93
391.401	13.02
391.766	12.83
392.131	12.97
392.496	13.02
392.861	13.04
393.226	12.96
393.591	12.98
393.956	12.77
394.32	12.85
394.685	13.21
395.05	12.97
395.414	13.12
395.779	13.11
396.143	13.3
396.508	13.08
396.872	13.33
397.236	13.47
397.601	13.32
397.965	13.73
398.329	13.43
398.694	13.45
399.058	13.74
399.422	13.53
399.786	13.76
400.15	13.71
400.514	13.69
400.878	13.81
401.242	13.81
401.605	13.72
401.969	13.74
402.333	13.91
402.697	13.94
403.06	13.96
403.424	13.9
403.787	13.95
404.151	14.02
404.514	13.84
404.878	14.04
405.241	14.09
405.604	14.11
405.968	13.82
406.331	14.11
406.694	14.03
407.057	14.13
407.42	14.2
407.783	14.46
408.146	14.23
408.509	14.32
408.872	14.34
409.235	14.58
409.598	14.6
409.961	14.67
410.323	14.67
410.686	14.28
411.049	14.71
411.411	14.82
411.774	14.51
412.136	14.76
412.499	14.64
412.861	14.83
413.223	14.84
413.586	14.9
413.948	15.08
414.31	14.96
414.672	15.03
415.035	14.87
415.397	15.02
415.759	15.17
416.121	14.78
416.483	14.92
416.845	15.02
417.206	15.01
417.568	15.04
417.93	15.06
418.292	15.16
418.653	15.05
419.015	15.16
419.377	15.1
419.738	15.04
420.1	15.11
420.461	15.04
420.822	15.09
421.184	15.14
421.545	15.14
421.906	15.09
422.267	14.97
422.629	14.93
422.99	15.08
423.351	15.15
423.712	15.19
424.073	15.32
424.434	15.35
424.795	15.34
425.155	15.41
425.516	15.24
425.877	15.36
426.238	15.25
426.598	15.35
426.959	15.43
427.32	15.55
427.68	15.79
428.041	15.82
428.401	15.99
428.761	15.96
429.122	16.04
429.482	16.09
429.842	16.31
430.202	16.41
430.563	16.48
430.923	16.26
431.283	16.32
431.643	16.22
432.003	16.4
432.363	16.41
432.722	16.4
433.082	16.55
433.442	16.39
433.802	16.29
434.161	16.57
434.521	16.31
434.881	16.5
435.24	16.4
435.6	16.4
435.959	16.61
436.319	16.75
436.678	16.65
437.037	16.78
437.396	16.79
437.756	17.19
438.115	17.08
438.474	16.82
438.833	16.89
439.192	16.99
439.551	16.91
439.91	16.99
440.269	16.96
440.628	16.87
440.987	16.84
441.345	16.84
441.704	16.9
442.063	16.9
442.421	17.04
442.78	16.89
443.138	16.89
443.497	17.15
443.855	17.41
444.214	17.37
444.572	17.51
444.93	17.44
445.288	17.49
445.647	17.44
446.005	17.42
446.363	17.31
446.721	17.3
447.079	17.19
447.437	17.2
447.795	17.04
448.153	17.07
448.51	17.05
448.868	17.17
449.226	17.31
449.584	17.43
449.941	17.45
450.299	17.71
450.656	17.94
451.014	17.89
451.371	17.97
451.729	18.17
452.086	18.18
452.443	18.32
452.801	18.26
453.158	18.38
453.515	18.19
453.872	18.11
454.229	18.17
454.586	18.08
454.943	18.29
455.3	18.43
455.657	18.39
456.014	18.36
456.371	18.4
456.727	18.41
457.084	18.57
457.441	18.64
457.797	18.74
458.154	18.65
458.51	18.86
458.867	18.72
459.223	18.6
459.58	18.87
459.936	18.66
460.292	18.5
460.648	18.7
461.005	18.43
461.361	18.37
461.717	18.4
462.073	18.39
462.429	18.49
462.785	18.9
463.141	18.84
463.496	19.19
463.852	19.06
464.208	19.35
464.564	19.4
464.919	19.35
465.275	19.25
465.631	19.34
465.986	19.36
466.342	19.49
466.697	19.24
467.052	19.45
467.408	19.49
467.763	19.67
468.118	19.66
468.473	19.58
468.829	19.54
469.184	19.39
469.539	19.56
469.894	19.68
470.249	19.91
470.603	19.76
470.958	19.82
471.313	20.08
471.668	19.77
472.023	19.89
472.377	20.05
472.732	19.95
473.086	20.24
473.441	20.06
473.795	20.05
474.15	20.05
474.504	20.09
474.859	20.14
475.213	20.19
475.567	20.32
475.921	20.27
476.275	20.36
476.63	20.43
476.984	20.47
477.338	20.56
477.692	20.43
478.045	20.51
478.399	20.45
478.753	20.41
479.107	20.54
479.461	20.52
479.814	20.44
480.168	20.6
480.521	20.46
480.875	20.7
481.228	20.6
481.582	20.72
481.935	20.54
482.289	20.66
482.642	20.57
482.995	20.77
483.348	20.42
483.701	20.49
484.055	20.41
484.408	20.4
484.761	20.16
485.114	19.74
485.466	19.51
485.819	19.52
486.172	19.86
486.525	19.99
486.878	20.34
487.23	20.49
487.583	20.57
487.936	20.61
488.288	20.52
488.641	20.32
488.993	20.14
489.345	20.22
489.698	20.21
490.05	20.41
490.402	20.55
490.754	20.69
491.107	20.87
491.459	21.1
491.811	21.4
492.163	21.42
492.515	21.19
492.866	21.01
493.218	20.59
493.57	20.53
493.922	20.78
494.274	20.95
494.625	21.2
494.977	21.43
495.328	21.72
495.68	21.82
496.031	22.02
496.383	21.94
496.734	22
497.086	21.95
497.437	22.2
497.788	22
498.139	21.89
498.49	21.89
498.842	21.97
499.193	22.07
499.544	22.05
499.894	22.18
500.245	22.07
500.596	22.19
500.947	22.33
501.298	22.44
501.648	22.49
501.999	22.57
502.35	22.63
502.7	22.73
503.051	22.73
503.401	22.76
503.752	22.84
504.102	22.83
504.452	22.91
504.803	22.93
505.153	22.83
505.503	22.7
505.853	22.75
506.203	22.74
506.553	22.9
506.903	23
507.253	23.27
507.603	23.04
507.953	23.21
508.303	23.26
508.652	23.14
509.002	23.24
509.352	23.04
509.701	23.07
510.051	22.91
510.4	22.86
510.75	23.22
511.099	23.12
511.449	23.05
511.798	23.1
512.147	23.29
512.496	23.34
512.846	23.5
513.195	23.45
513.544	23.44
513.893	23.34
514.242	23.52
514.591	23.45
514.939	23.51
515.288	23.43
515.637	23.71
515.986	23.85
516.334	23.87
516.683	23.97
517.032	24.1
517.38	24.09
517.729	23.93
518.077	24.08
518.426	24.21
518.774	24.11
519.122	23.86
519.47	23.95
519.819	23.67
520.167	23.65
520.515	23.59
520.863	23.71
521.211	23.84
521.559	23.94
521.907	24.17
522.255	24.3
522.602	24.43
522.95	24.43
523.298	24.52
523.645	24.52
523.993	24.63
524.341	24.66
524.688	24.77
525.036	24.57
525.383	24.8
525.73	24.61
526.078	24.64
526.425	24.71
526.772	24.53
527.119	24.32
527.466	24.22
527.814	24.28
528.161	24.34
528.508	24.54
528.854	24.55
529.201	24.64
529.548	24.33
529.895	24.06
530.242	23.61
530.588	23.89
530.935	24.16
531.282	24.29
531.628	24.4
531.975	24.63
532.321	24.81
532.667	24.83
533.014	25.07
533.36	25.12
533.706	25.23
534.052	25.04
534.399	24.91
534.745	24.71
535.091	24.57
535.437	24.69
535.783	24.86
536.129	25.11
536.474	25.21
536.82	25.38
537.166	25.77
537.512	25.72
537.857	25.51
538.203	25.2
538.549	25.24
538.894	25.33
539.239	25.39
539.585	25.64
539.93	25.84
540.276	26.02
540.621	26.2
540.966	26.18
541.311	26.14
541.656	26.19
542.001	25.95
542.346	25.77
542.691	25.48
543.036	25.26
543.381	25.16
543.726	25.44
544.071	25.67
544.415	25.78
544.76	25.95
545.105	25.91
545.449	26.15
545.794	26.23
546.138	26.45
546.483	26.63
546.827	26.57
547.171	26.42
547.516	26.42
547.86	26.58
548.204	26.57
548.548	26.31
548.892	26.49
549.236	26.58
549.58	26.79
549.924	26.96
550.268	27.14
550.612	27.16
550.956	27.26
551.3	27.42
551.643	27.56
551.987	27.44
552.33	27.47
552.674	27.48
553.017	27.63
553.361	27.56
553.704	27.51
554.048	27.51
554.391	27.48
554.734	27.45
555.077	27.53
555.42	27.63
555.764	27.76
556.107	27.67
556.45	28.01
556.793	27.89
557.135	28.13
557.478	28.05
557.821	28.16
558.164	28.01
558.507	28.11
558.849	28.11
559.192	28.29
559.534	28.4
559.877	28.21
560.219	28.14
560.562	28.3
560.904	28.28
561.246	28.33
561.589	28.45
561.931	28.54
562.273	28.53
562.615	28.35
562.957	28.46
563.299	28.48
563.641	28.77
563.983	28.65
564.325	28.58
564.667	28.64
565.008	28.69
565.35	28.87
565.692	28.88
566.033	28.75
566.375	28.81
566.716	29.03
567.058	28.7
567.399	28.59
567.741	28.54
568.082	28.48
568.423	28.77
568.764	28.82
569.105	28.85
569.447	29
569.788	29.09
570.129	29.12
570.47	29.39
570.811	29.16
571.151	29.33
571.492	29.39
571.833	29.41
572.174	29.24
572.514	29.12
572.855	29.34
573.195	29.26
573.536	29.3
573.876	29.22
574.217	29.2
574.557	29.3
574.898	29.26
575.238	29.49
575.578	29.76
575.918	29.61
576.258	29.91
576.598	29.9
576.938	29.52
577.278	29.63
577.618	29.64
577.958	29.87
578.298	29.82
578.638	30.09
578.977	29.84
579.317	30.06
579.657	30.26
579.996	30.06
580.336	30.21
580.675	30.37
581.014	30.43
581.354	30.31
581.693	30.43
582.032	30.18
582.372	30.6
582.711	30.34
583.05	30.44
583.389	30.33
583.728	30.61
584.067	30.36
584.406	30.69
584.745	30.77
585.083	30.46
585.422	30.93
585.761	30.3
586.1	30.81
586.438	31.11
586.777	30.68
587.115	30.96
587.454	30.99
587.792	31.16
588.13	31.26
588.469	31.05
588.807	30.78
589.145	30.99
589.483	31.16
589.821	31.3
590.159	31.16
590.497	31.08
590.835	31.24
591.173	31.13
591.511	31.13
591.849	31.17
592.187	31.16
592.524	31.35
592.862	30.94
593.2	31.42
593.537	31.44
593.875	31.7
594.212	31.58
594.55	31.21
594.887	31.48
595.224	31.5
595.561	31.57
595.899	31.41
596.236	31.23
596.573	31.56
596.91	31.45
597.247	31.84
597.584	31.46
597.921	31.41
598.258	31.68
598.594	31.29
598.931	31.43
599.268	31.41
599.604	31.37
599.941	31.77
600.277	31.76
600.614	31.71
600.95	31.88
601.287	32.09
601.623	32.19
601.959	32.4
602.296	32.4
602.632	32.11
602.968	32.12
603.304	32.55
603.64	32.38
603.976	32.29
604.312	32.29
604.648	32.12
604.984	32.02
605.319	32.24
605.655	32.3
605.991	32
606.326	31.72
606.662	31.81
606.998	32.05
607.333	32.39
607.668	32.41
608.004	32.59
608.339	32.65
608.674	32.46
609.01	32.69
609.345	32.89
609.68	32.95
610.015	32.7
610.35	32.68
610.685	32.39
611.02	32.46
611.355	32.22
611.689	32.37
612.024	32.44
612.359	32.7
612.694	32.69
613.028	32.99
613.363	33.16
613.697	33.17
614.032	33.19
614.366	33.25
614.7	33.33
615.035	33.29
615.369	33.24
615.703	33.35
616.037	33.73
616.371	33.39
616.705	33.42
617.039	33.66
617.373	33.73
617.707	33.79
618.041	33.53
618.375	33.62
618.709	33.89
619.042	33.49
619.376	34.01
619.71	33.38
620.043	33.74
620.377	34.03
620.71	33.76
621.043	33.44
621.377	33.37
621.71	33.5
622.043	33.68
622.376	33.65
622.709	34.13
623.043	33.72
623.376	33.84
623.709	34.35
624.041	34.46
624.374	34.33
624.707	33.88
625.04	34.23
625.373	33.99
625.705	34.24
626.038	34.14
626.37	34.4
626.703	34.26
627.035	34.16
627.368	34.16
627.7	34.18
628.032	34.39
628.365	34
628.697	33.86
629.029	34.09
629.361	34.12
629.693	34.31
630.025	34.29
630.357	34.48
630.689	34.75
631.021	34.89
631.353	34.26
631.684	35.24
632.016	34.35
632.348	34.87
632.679	34.41
633.011	34.94
633.342	34.92
633.674	34.84
634.005	35.54
634.336	34.43
634.668	34.79
634.999	34.52
635.33	34.93
635.661	35.03
635.992	34.77
636.323	34.74
636.654	34.95
636.985	35.28
637.316	34.51
637.647	35.26
637.977	34.88
638.308	35.28
638.639	34.95
638.969	35.19
639.3	34.95
639.63	35.2
639.961	35.08
640.291	35.06
640.622	35.51
640.952	35.6
641.282	35.34
641.612	35.62
641.943	35.39
642.273	35.37
642.603	35.7
642.933	35.83
643.263	35.49
643.592	35.57
643.922	35.65
644.252	35.54
644.582	35.55
644.911	35.32
645.241	35.46
645.571	35.56
645.9	35.78
646.23	35.6
646.559	35.5
646.888	35.92
647.218	35.53
647.547	35.81
647.876	35.97
648.205	35.49
648.534	35.8
648.863	36
649.192	35.54
649.521	36.26
649.85	35.83
650.179	35.84
650.508	36.12
650.837	35.61
651.165	35.98
651.494	35.63
651.822	35.81
652.151	35.63
652.479	35.83
652.808	35.56
653.136	35.54
653.465	36.42
653.793	36.3
654.121	36.49
654.449	36.03
654.777	36.5
655.105	36.71
655.433	36.47
655.761	35.87
656.089	36.6
656.417	36.29
656.745	36.58
657.073	36
657.4	36.06
657.728	36.74
658.056	36.68
658.383	36.69
658.711	36.22
659.038	36.34
659.365	36.67
659.693	37.02
660.02	36.68
660.347	36.28
660.674	35.9
661.001	36.43
661.329	36.66
661.656	36.69
661.982	36.26
662.309	36.58
662.636	36.67
662.963	37.01
663.29	36.61
663.616	36.72
663.943	36.89
664.27	36.77
664.596	36.92
664.923	37.37
665.249	37.38
665.576	36.78
665.902	36.27
666.228	36.54
666.554	37.26
666.881	36.95
667.207	36.44
667.533	36.82
667.859	37.11
668.185	36.96
668.511	36.96
668.837	36.76
669.162	37.93
669.488	37.18
669.814	37.34
670.139	37.44
670.465	37.43
670.791	37.33
671.116	37.31
671.442	37.73
671.767	37.2
672.092	37.76
672.418	37.79
