Data from 0036_chest_Reflection__2__02.txt Node

Date: Fri Nov 04 14:35:55 CDT 2022
User: ToomeyLab
Spectrometer: FLMS14357
Trigger mode: 0
Integration Time (sec): 1.000000E-2
Scans to average: 100
Electric dark correction enabled: true
Nonlinearity correction enabled: false
Boxcar width: 0
XAxis mode: Wavelengths
Number of Pixels in Spectrum: 2048
>>>>>Begin Spectral Data<<<<<
189.047	143.06
189.435	143.06
189.823	143.06
190.211	84.74
190.599	313.7
190.987	29.28
191.375	-86.83
191.763	1458.82
192.151	131.01
192.538	1180.76
192.926	-522.72
193.314	40.46
193.702	1027.72
194.089	100.88
194.477	92.41
194.864	-63.81
195.252	57.84
195.639	64.7
196.027	76.31
196.414	72.1
196.801	216.78
197.189	9.98
197.576	-17.78
197.963	-2.42
198.351	-28.57
198.738	13.82
199.125	-39.02
199.512	-33.27
199.899	6.72
200.286	12.09
200.673	9.38
201.06	5.17
201.447	5.28
201.833	3.15
202.22	-3.56
202.607	-30.24
202.994	-2.65
203.38	60.53
203.767	-3.31
204.154	13.83
204.54	39.4
204.927	42.93
205.313	-7.9
205.699	21.19
206.086	12.06
206.472	32.5
206.858	38.61
207.245	7.82
207.631	-6.22
208.017	12.59
208.403	33.82
208.789	-9.73
209.175	-0.55
209.561	35.79
209.947	24.03
210.333	38.43
210.719	15.25
211.105	-3.12
211.491	36.67
211.876	24.28
212.262	13.34
212.648	-7.2
213.034	-17.51
213.419	-2.7
213.805	4.13
214.19	9.08
214.576	3
214.961	-9.68
215.346	-12.3
215.732	2.35
216.117	28.04
216.502	21.94
216.888	8.19
217.273	-5.11
217.658	-0.79
218.043	4.6
218.428	11.06
218.813	1.41
219.198	-10.05
219.583	-0.64
219.968	-12.73
220.353	6.41
220.738	5.88
221.122	-10.48
221.507	13.82
221.892	8.24
222.276	-10.58
222.661	5.71
223.046	7.07
223.43	-2.47
223.815	12
224.199	1.96
224.583	2.07
224.968	1.11
225.352	5.42
225.736	6.47
226.121	7.98
226.505	5.66
226.889	1.77
227.273	1.1
227.657	-1.54
228.041	7.92
228.425	6.76
228.809	2.16
229.193	4.03
229.577	1.59
229.961	2.14
230.344	1.77
230.728	1.32
231.112	2.68
231.495	2.04
231.879	3.7
232.263	2.7
232.646	3.43
233.03	3.32
233.413	3.01
233.797	3.77
234.18	2.29
234.563	2.62
234.946	2.47
235.33	3.69
235.713	2.9
236.096	1.82
236.479	2.56
236.862	3.89
237.245	3.59
237.628	0.89
238.011	2.89
238.394	4.25
238.777	2.35
239.16	2.14
239.543	2.95
239.925	0.63
240.308	2.05
240.691	2.13
241.073	2.6
241.456	2.55
241.838	0.69
242.221	2.27
242.603	3.04
242.986	3.07
243.368	2.41
243.75	2.61
244.133	2.18
244.515	2.58
244.897	2.19
245.279	2.19
245.661	2.49
246.043	2.54
246.425	2.09
246.807	3.09
247.189	3.25
247.571	2.44
247.953	2.39
248.335	1.97
248.717	2.15
249.098	2.43
249.48	2.34
249.862	2.29
250.243	2.69
250.625	2.9
251.006	2.4
251.388	2.35
251.769	1.95
252.151	2.55
252.532	2.37
252.913	2.8
253.295	2.97
253.676	2.11
254.057	2.16
254.438	2.6
254.819	2.41
255.2	2.36
255.581	2.77
255.962	1.97
256.343	1.71
256.724	1.79
257.105	2.47
257.486	2.49
257.867	1.89
258.247	3
258.628	2.36
259.009	1.96
259.389	1.74
259.77	2.11
260.15	2.56
260.531	2.77
260.911	2.01
261.292	2.07
261.672	2.16
262.052	2.13
262.432	1.98
262.813	2.36
263.193	2.21
263.573	2.02
263.953	2.19
264.333	2.45
264.713	2.42
265.093	2.09
265.473	2.12
265.853	2.34
266.233	2.29
266.612	1.91
266.992	2.5
267.372	2.77
267.752	1.72
268.131	1.91
268.511	2.11
268.89	2.31
269.27	2.13
269.649	2.33
270.029	2.45
270.408	2.64
270.787	2.91
271.167	1.81
271.546	2.15
271.925	2.1
272.304	1.66
272.683	1.9
273.062	2.14
273.441	2
273.82	1.73
274.199	2.44
274.578	1.97
274.957	2.32
275.336	2.15
275.715	2.29
276.093	2.16
276.472	2.41
276.851	2.9
277.229	1.74
277.608	1.82
277.986	2.06
278.365	1.93
278.743	1.92
279.122	1.78
279.5	1.55
279.878	2.45
280.257	2.36
280.635	1.74
281.013	2.24
281.391	2.26
281.769	2.08
282.147	1.79
282.525	2.54
282.903	1.99
283.281	2.37
283.659	2.57
284.037	2.03
284.415	1.95
284.792	2.34
285.17	1.75
285.548	1.72
285.925	2.14
286.303	2.17
286.68	1.93
287.058	1.93
287.435	2.08
287.813	1.73
288.19	2.03
288.567	2.14
288.945	2.06
289.322	2.01
289.699	1.99
290.076	1.91
290.453	2.75
290.83	2.1
291.207	1.96
291.584	1.88
291.961	2.31
292.338	2.43
292.715	2.2
293.092	1.51
293.469	2.51
293.845	1.84
294.222	2
294.599	2.11
294.975	2.17
295.352	2.22
295.728	2.46
296.105	2.49
296.481	2.38
296.858	1.94
297.234	1.93
297.61	1.82
297.986	2.2
298.363	2.52
298.739	1.96
299.115	2.3
299.491	1.84
299.867	2.1
300.243	2.13
300.619	2.12
300.995	2.49
301.371	2.43
301.746	1.7
302.122	2.13
302.498	1.76
302.874	2.36
303.249	2.31
303.625	2.46
304	2.23
304.376	2.37
304.751	2.39
305.127	2.56
305.502	2.17
305.878	2.12
306.253	2.36
306.628	2.67
307.003	1.92
307.378	2.17
307.754	2.07
308.129	2.05
308.504	1.96
308.879	2.33
309.254	2.43
309.629	2.09
310.003	2.4
310.378	2.31
310.753	2.64
311.128	2.08
311.502	2.5
311.877	2.13
312.252	2.44
312.626	2.23
313.001	2.36
313.375	2.15
313.75	2.34
314.124	2.54
314.498	2.14
314.873	2.47
315.247	2.2
315.621	1.86
315.995	2.12
316.369	2.57
316.743	2.25
317.117	2.05
317.491	2.26
317.865	2.54
318.239	2.52
318.613	2.91
318.987	3.2
319.361	2.22
319.734	1.68
320.108	2.46
320.482	2.37
320.855	2.78
321.229	3
321.602	2.58
321.976	2.65
322.349	2.68
322.723	2.66
323.096	2.36
323.469	2.69
323.843	2.46
324.216	2.78
324.589	2.2
324.962	2.64
325.335	2.14
325.708	2.55
326.081	2.42
326.454	2.73
326.827	2.52
327.2	2.55
327.573	2.7
327.945	2.33
328.318	2.6
328.691	2.53
329.063	2.43
329.436	2.6
329.809	2.46
330.181	2.61
330.553	2.6
330.926	2.22
331.298	2.92
331.671	2.88
332.043	2.58
332.415	2.15
332.787	2.69
333.159	2.92
333.532	2.69
333.904	2.21
334.276	2.17
334.648	2.83
335.02	2.5
335.391	2.87
335.763	2.23
336.135	2.71
336.507	2.47
336.879	1.94
337.25	2.39
337.622	2.57
337.993	2.34
338.365	2.62
338.736	2.72
339.108	2.43
339.479	2.48
339.851	2.85
340.222	2.89
340.593	2.96
340.964	2.29
341.336	2.68
341.707	2.48
342.078	2.34
342.449	2.68
342.82	2.73
343.191	2.57
343.562	2.87
343.933	2.47
344.303	2.67
344.674	2.51
345.045	2.34
345.416	2.89
345.786	2.48
346.157	2.55
346.527	2.57
346.898	2.35
347.268	2.88
347.639	2.57
348.009	2.69
348.38	2.25
348.75	2.66
349.12	2.32
349.49	2.73
349.861	2.42
350.231	2.61
350.601	2.24
350.971	2.43
351.341	2.29
351.711	2.57
352.081	2.49
352.45	2.3
352.82	2.55
353.19	2.33
353.56	2.35
353.929	2.5
354.299	2.54
354.669	2.8
355.038	2.8
355.408	2.5
355.777	2.38
356.147	2.68
356.516	2.87
356.885	2.88
357.254	2.72
357.624	2.56
357.993	2.22
358.362	2.61
358.731	2.28
359.1	2.3
359.469	2.99
359.838	2.62
360.207	2.54
360.576	2.68
360.945	2.46
361.314	2.76
361.682	2.64
362.051	2.1
362.42	2.61
362.788	2.68
363.157	2.73
363.525	2.48
363.894	2.52
364.262	2.47
364.631	2.48
364.999	2.64
365.367	2.34
365.735	2.77
366.104	2.78
366.472	2.45
366.84	2.63
367.208	2.27
367.576	2.66
367.944	2.67
368.312	2.62
368.68	2.64
369.048	2.37
369.416	2.4
369.783	2.55
370.151	2.54
370.519	2.78
370.886	2.09
371.254	2.3
371.621	2.42
371.989	2.26
372.356	2.36
372.724	2.6
373.091	2.5
373.458	2.74
373.826	2.59
374.193	2.61
374.56	2.55
374.927	2.71
375.294	2.46
375.661	2.54
376.028	2.61
376.395	2.3
376.762	2.84
377.129	2.58
377.496	2.58
377.863	2.52
378.229	2.39
378.596	2.8
378.963	2.62
379.329	2.52
379.696	2.68
380.062	2.55
380.429	2.67
380.795	2.65
381.161	2.27
381.528	2.62
381.894	2.73
382.26	2.57
382.626	2.75
382.993	2.83
383.359	2.81
383.725	2.75
384.091	2.67
384.457	2.73
384.823	2.82
385.188	2.41
385.554	2.63
385.92	2.43
386.286	2.56
386.651	2.89
387.017	2.57
387.383	2.84
387.748	2.76
388.114	2.79
388.479	2.37
388.845	2.57
389.21	2.57
389.575	2.55
389.94	2.75
390.306	2.59
390.671	2.59
391.036	2.61
391.401	2.83
391.766	2.32
392.131	2.65
392.496	2.6
392.861	2.8
393.226	2.61
393.591	2.7
393.956	2.49
394.32	2.43
394.685	2.65
395.05	2.46
395.414	2.6
395.779	2.71
396.143	2.75
396.508	2.62
396.872	2.54
397.236	2.69
397.601	2.47
397.965	2.67
398.329	2.66
398.694	2.8
399.058	2.9
399.422	2.72
399.786	2.74
400.15	2.48
400.514	2.8
400.878	2.58
401.242	2.67
401.605	2.48
401.969	2.58
402.333	2.75
402.697	2.71
403.06	2.87
403.424	2.64
403.787	2.63
404.151	2.69
404.514	2.72
404.878	2.68
405.241	2.76
405.604	2.57
405.968	2.57
406.331	2.83
406.694	2.52
407.057	2.68
407.42	2.4
407.783	2.69
408.146	2.54
408.509	2.73
408.872	2.82
409.235	2.67
409.598	2.68
409.961	2.93
410.323	2.73
410.686	2.81
411.049	2.67
411.411	2.71
411.774	2.75
412.136	2.59
412.499	2.57
412.861	2.7
413.223	2.67
413.586	2.87
413.948	2.87
414.31	2.73
414.672	2.75
415.035	2.89
415.397	2.73
415.759	2.85
416.121	2.61
416.483	2.55
416.845	2.65
417.206	2.81
417.568	2.72
417.93	2.79
418.292	2.69
418.653	2.75
419.015	2.77
419.377	2.64
419.738	2.52
420.1	2.63
420.461	2.7
420.822	2.69
421.184	2.7
421.545	2.63
421.906	2.8
422.267	2.58
422.629	2.58
422.99	2.64
423.351	2.61
423.712	2.69
424.073	2.7
424.434	2.67
424.795	2.64
425.155	2.56
425.516	2.72
425.877	2.76
426.238	2.61
426.598	2.67
426.959	2.59
427.32	2.64
427.68	2.74
428.041	2.73
428.401	2.74
428.761	2.74
429.122	2.69
429.482	2.86
429.842	2.87
430.202	2.75
430.563	2.92
430.923	2.7
431.283	2.78
431.643	2.65
432.003	2.75
432.363	2.78
432.722	2.66
433.082	2.87
433.442	2.69
433.802	2.58
434.161	3.03
434.521	2.73
434.881	2.79
435.24	2.8
435.6	2.83
435.959	2.73
436.319	2.84
436.678	2.79
437.037	2.76
437.396	2.88
437.756	2.9
438.115	2.95
438.474	2.76
438.833	2.74
439.192	2.78
439.551	2.75
439.91	2.74
440.269	2.78
440.628	2.83
440.987	2.77
441.345	2.82
441.704	2.82
442.063	2.9
442.421	2.83
442.78	2.73
443.138	2.67
443.497	2.83
443.855	2.89
444.214	2.78
444.572	2.71
444.93	2.84
445.288	2.74
445.647	2.64
446.005	2.92
446.363	2.81
446.721	2.71
447.079	2.77
447.437	2.82
447.795	2.69
448.153	2.84
448.51	2.71
448.868	2.69
449.226	2.74
449.584	2.74
449.941	2.68
450.299	2.93
450.656	2.9
451.014	2.72
451.371	2.88
451.729	2.87
452.086	2.76
452.443	2.86
452.801	3.01
453.158	2.98
453.515	2.93
453.872	2.78
454.229	2.8
454.586	2.88
454.943	2.89
455.3	2.93
455.657	2.8
456.014	2.83
456.371	2.82
456.727	2.81
457.084	2.93
457.441	2.97
457.797	2.93
458.154	2.97
458.51	3.15
458.867	2.91
459.223	2.84
459.58	3.02
459.936	2.85
460.292	2.81
460.648	2.84
461.005	2.92
461.361	2.89
461.717	2.86
462.073	2.91
462.429	2.82
462.785	2.84
463.141	2.75
463.496	2.91
463.852	3.01
464.208	2.97
464.564	2.9
464.919	2.8
465.275	2.83
465.631	3
465.986	2.8
466.342	3.01
466.697	2.93
467.052	2.78
467.408	2.83
467.763	3
468.118	3
468.473	3.01
468.829	3.08
469.184	2.89
469.539	3.03
469.894	3.14
470.249	3.02
470.603	3.03
470.958	2.95
471.313	3.03
471.668	2.97
472.023	2.83
472.377	2.97
472.732	3.08
473.086	3.12
473.441	2.95
473.795	2.88
474.15	2.94
474.504	3.06
474.859	3.03
475.213	3.05
475.567	3.03
475.921	3.05
476.275	3.04
476.63	2.95
476.984	3.11
477.338	3.13
477.692	3.03
478.045	3.04
478.399	2.93
478.753	3.1
479.107	3.04
479.461	2.95
479.814	3.07
480.168	3.12
480.521	2.92
480.875	3.06
481.228	3.07
481.582	3.2
481.935	2.93
482.289	3.02
482.642	3.08
482.995	3.02
483.348	3.13
483.701	2.98
484.055	2.96
484.408	2.96
484.761	2.91
485.114	2.84
485.466	2.75
485.819	2.78
486.172	2.81
486.525	2.84
486.878	2.88
487.23	2.94
487.583	2.92
487.936	2.92
488.288	2.94
488.641	2.92
488.993	2.9
489.345	2.9
489.698	2.92
490.05	2.88
490.402	2.93
490.754	2.98
491.107	2.93
491.459	2.93
491.811	3.1
492.163	3.1
492.515	3.01
492.866	3.07
493.218	2.94
493.57	2.94
493.922	2.93
494.274	2.99
494.625	3.03
494.977	3.04
495.328	3.12
495.68	3.07
496.031	3.18
496.383	3.1
496.734	3.05
497.086	3.07
497.437	3.28
497.788	3.18
498.139	3.16
498.49	3.16
498.842	3.05
499.193	3.14
499.544	3.08
499.894	3.12
500.245	3.12
500.596	3.08
500.947	3.22
501.298	3.24
501.648	3.21
501.999	3.31
502.35	3.32
502.7	3.23
503.051	3.16
503.401	3.26
503.752	3.34
504.102	3.21
504.452	3.22
504.803	3.2
505.153	3.14
505.503	3.1
505.853	3.21
506.203	3.22
506.553	3.25
506.903	3.23
507.253	3.22
507.603	3.37
507.953	3.28
508.303	3.2
508.652	3.21
509.002	3.26
509.352	3.32
509.701	3.2
510.051	3.29
510.4	3.2
510.75	3.42
511.099	3.2
511.449	3.1
511.798	3.22
512.147	3.28
512.496	3.31
512.846	3.29
513.195	3.18
513.544	3.31
513.893	3.25
514.242	3.41
514.591	3.26
514.939	3.34
515.288	3.3
515.637	3.43
515.986	3.35
516.334	3.44
516.683	3.28
517.032	3.32
517.38	3.39
517.729	3.34
518.077	3.47
518.426	3.52
518.774	3.44
519.122	3.25
519.47	3.33
519.819	3.32
520.167	3.38
520.515	3.32
520.863	3.32
521.211	3.32
521.559	3.42
521.907	3.37
522.255	3.39
522.602	3.38
522.95	3.36
523.298	3.4
523.645	3.52
523.993	3.39
524.341	3.47
524.688	3.43
525.036	3.53
525.383	3.6
525.73	3.46
526.078	3.5
526.425	3.38
526.772	3.4
527.119	3.41
527.466	3.43
527.814	3.44
528.161	3.38
528.508	3.45
528.854	3.55
529.201	3.53
529.548	3.47
529.895	3.37
530.242	3.24
530.588	3.31
530.935	3.37
531.282	3.41
531.628	3.43
531.975	3.45
532.321	3.5
532.667	3.56
533.014	3.56
533.36	3.5
533.706	3.61
534.052	3.56
534.399	3.44
534.745	3.5
535.091	3.46
535.437	3.48
535.783	3.49
536.129	3.57
536.474	3.65
536.82	3.54
537.166	3.68
537.512	3.76
537.857	3.78
538.203	3.73
538.549	3.67
538.894	3.67
539.239	3.6
539.585	3.72
539.93	3.78
540.276	3.77
540.621	3.71
540.966	3.76
541.311	3.74
541.656	3.78
542.001	3.69
542.346	3.79
542.691	3.63
543.036	3.58
543.381	3.64
543.726	3.64
544.071	3.7
544.415	3.74
544.76	3.77
545.105	3.76
545.449	3.8
545.794	3.86
546.138	3.74
546.483	3.99
546.827	3.84
547.171	3.9
547.516	3.95
547.86	3.95
548.204	3.92
548.548	3.81
548.892	3.89
549.236	3.94
549.58	3.93
549.924	3.98
550.268	4.1
550.612	4.07
550.956	4.08
551.3	4.04
551.643	3.99
551.987	4.07
552.33	4.04
552.674	4.12
553.017	4.1
553.361	4.15
553.704	4.06
554.048	4.1
554.391	4.13
554.734	4.12
555.077	4.08
555.42	4.12
555.764	4.34
556.107	4.19
556.45	4.4
556.793	4.17
557.135	4.38
557.478	4.26
557.821	4.39
558.164	4.32
558.507	4.27
558.849	4.34
559.192	4.25
559.534	4.26
559.877	4.52
560.219	4.42
560.562	4.31
560.904	4.34
561.246	4.38
561.589	4.49
561.931	4.39
562.273	4.44
562.615	4.69
562.957	4.53
563.299	4.37
563.641	4.59
563.983	4.38
564.325	4.43
564.667	4.53
565.008	4.45
565.35	4.72
565.692	4.54
566.033	4.48
566.375	4.58
566.716	4.68
567.058	4.64
567.399	4.67
567.741	4.49
568.082	4.57
568.423	4.66
568.764	4.71
569.105	4.64
569.447	4.68
569.788	4.6
570.129	4.79
570.47	4.71
570.811	4.65
571.151	4.74
571.492	4.93
571.833	4.96
572.174	4.85
572.514	5.01
572.855	4.75
573.195	4.71
573.536	4.76
573.876	4.99
574.217	4.82
574.557	4.93
574.898	4.86
575.238	4.91
575.578	4.96
575.918	5.03
576.258	5.12
576.598	4.96
576.938	5.01
577.278	5.02
577.618	5.1
577.958	5.12
578.298	5.26
578.638	5.28
578.977	5.01
579.317	5.22
579.657	5.34
579.996	5.14
580.336	5.27
580.675	5.34
581.014	5.15
581.354	5.27
581.693	5.28
582.032	5.31
582.372	5.36
582.711	5.29
583.05	5.23
583.389	5.35
583.728	5.42
584.067	5.49
584.406	5.53
584.745	5.59
585.083	5.35
585.422	5.75
585.761	5.33
586.1	5.88
586.438	5.63
586.777	5.69
587.115	5.64
587.454	5.76
587.792	5.56
588.13	5.9
588.469	5.75
588.807	5.67
589.145	5.69
589.483	5.66
589.821	5.63
590.159	5.71
590.497	5.67
590.835	5.88
591.173	5.82
591.511	5.9
591.849	5.79
592.187	5.87
592.524	5.99
592.862	5.71
593.2	5.79
593.537	5.83
593.875	6
594.212	5.93
594.55	6.11
594.887	6.02
595.224	5.93
595.561	6.08
595.899	5.83
596.236	5.92
596.573	6.27
596.91	6.08
597.247	6.23
597.584	6.05
597.921	6.06
598.258	6.29
598.594	6.14
598.931	6.13
599.268	6.14
599.604	6.22
599.941	6.09
600.277	6.18
600.614	6.29
600.95	6.21
601.287	6.5
601.623	6.44
601.959	6.4
602.296	6.55
602.632	6.38
602.968	6.56
603.304	6.42
603.64	6.57
603.976	6.53
604.312	6.87
604.648	6.48
604.984	6.36
605.319	6.51
605.655	6.55
605.991	6.64
606.326	6.58
606.662	6.56
606.998	6.67
607.333	6.71
607.668	6.61
608.004	6.76
608.339	6.7
608.674	6.73
609.01	7.06
609.345	6.93
609.68	6.95
610.015	7.01
610.35	6.81
610.685	6.88
611.02	6.94
611.355	7.23
611.689	6.89
612.024	7
612.359	7.29
612.694	6.94
613.028	7.21
613.363	7.12
613.697	7.24
614.032	7.25
614.366	7.25
614.7	7.25
615.035	7.05
615.369	7.49
615.703	7.19
616.037	7.38
616.371	7.25
616.705	7.08
617.039	7.29
617.373	7.45
617.707	7.39
618.041	7.49
618.375	7.46
618.709	7.65
619.042	7.44
619.376	7.46
619.71	7.67
620.043	7.97
620.377	7.94
620.71	7.75
621.043	7.49
621.377	7.36
621.71	7.62
622.043	7.6
622.376	7.94
622.709	7.87
623.043	7.82
623.376	7.57
623.709	8.06
624.041	8.16
624.374	7.91
624.707	7.73
625.04	8.33
625.373	7.75
625.705	7.83
626.038	8.18
626.37	8.01
626.703	8.11
627.035	7.79
627.368	8.07
627.7	7.97
628.032	8.4
628.365	8.28
628.697	8.24
629.029	8.2
629.361	8.28
629.693	8.14
630.025	8.37
630.357	8.37
630.689	8.47
631.021	8.09
631.353	8.25
631.684	8.73
632.016	8.15
632.348	8.43
632.679	8.58
633.011	8.22
633.342	8.63
633.674	8.82
634.005	8.81
634.336	8.69
634.668	8.74
634.999	8.62
635.33	8.88
635.661	8.39
635.992	8.7
636.323	8.82
636.654	9.19
636.985	9.19
637.316	8.78
637.647	9.1
637.977	8.95
638.308	8.73
638.639	9.28
638.969	9.05
639.3	9.06
639.63	9.07
639.961	9.12
640.291	9.09
640.622	9.3
640.952	9.05
641.282	9.24
641.612	9.42
641.943	9.13
642.273	9.1
642.603	9.27
642.933	9.17
643.263	9.1
643.592	9.65
643.922	9.71
644.252	9.24
644.582	9.8
644.911	9.65
645.241	9.69
645.571	9.77
645.9	9.94
646.23	9.35
646.559	9.45
646.888	9.58
647.218	9.52
647.547	9.64
647.876	9.76
648.205	9.58
648.534	9.78
648.863	9.59
649.192	9.89
649.521	9.97
649.85	10.13
650.179	10.02
650.508	9.81
650.837	9.77
651.165	9.84
651.494	9.7
651.822	10.22
652.151	10.29
652.479	10.05
652.808	9.64
653.136	10.17
653.465	10.04
653.793	10.17
654.121	10.2
654.449	10.45
654.777	10.2
655.105	10.49
655.433	10.39
655.761	10.09
656.089	10.71
656.417	10.62
656.745	10.95
657.073	10.43
657.4	10.38
657.728	10.87
658.056	11.1
658.383	10.68
658.711	10.21
659.038	10.33
659.365	10.23
659.693	11.2
660.02	11.03
660.347	11.04
660.674	10.67
661.001	10.83
661.329	10.73
661.656	11.1
661.982	11.1
662.309	11.01
662.636	10.89
662.963	10.91
663.29	10.92
663.616	10.67
663.943	10.99
664.27	11.45
664.596	11.16
664.923	11.64
665.249	11.47
665.576	10.9
665.902	10.86
666.228	11.02
666.554	11.52
666.881	11.5
667.207	11.5
667.533	11.67
667.859	11.12
668.185	11.74
668.511	11.82
668.837	11.7
669.162	11.74
669.488	11.88
669.814	11.84
670.139	11.75
670.465	11.84
670.791	11.52
671.116	11.91
671.442	11.93
671.767	11.46
672.092	11.64
672.418	11.92
672.743	11.87
673.068	11.88
673.393	11.49
673.718	11.38
674.043	11.54
674.368	12.46
674.693	12.09
675.018	12.36
675.343	11.65
675.667	11.69
675.992	12.17
676.317	12.65
676.641	12.45
676.966	11.92
677.29	12.36
677.615	12.48
677.939	12.31
678.264	11.74
678.588	12.38
678.912	12.21
679.236	12.32
679.56	12.48
679.885	12
680.209	12.88
680.532	12.34
680.856	12.71
681.18	13.01
681.504	12.59
681.828	12.46
682.152	12.94
682.475	12.51
682.799	12.77
683.122	12.74
683.446	13.09
683.769	13.39
684.093	12.67
684.416	12.19
684.739	13.32
685.062	13.43
685.386	12.47
685.709	13.4
686.032	13.02
686.355	13.36
686.678	13.03
687.001	13.11
687.324	12.67
687.646	13.68
687.969	13.4
688.292	13.17
688.614	13.57
688.937	13.01
689.26	13.33
689.582	13.31
689.904	13.41
690.227	13.31
690.549	13.14
