Data from 0036_chest_Reflection__4__04.txt Node

Date: Fri Nov 04 14:36:48 CDT 2022
User: ToomeyLab
Spectrometer: FLMS14357
Trigger mode: 0
Integration Time (sec): 1.000000E-2
Scans to average: 100
Electric dark correction enabled: true
Nonlinearity correction enabled: false
Boxcar width: 0
XAxis mode: Wavelengths
Number of Pixels in Spectrum: 2048
>>>>>Begin Spectral Data<<<<<
189.047	59.07
189.435	59.07
189.823	59.07
190.211	125.47
190.599	256.91
190.987	-112.74
191.375	-168.4
191.763	1484.03
192.151	108.39
192.538	-393.42
192.926	-315.22
193.314	-96.2
193.702	-18.73
194.089	183.99
194.477	1.08
194.864	178.73
195.252	71.52
195.639	367.54
196.027	9.47
196.414	-120.39
196.801	106.9
197.189	-35.78
197.576	-89.29
197.963	10.8
198.351	9.34
198.738	6.52
199.125	-42.39
199.512	-13.28
199.899	21.17
200.286	14.38
200.673	28.81
201.06	-26.06
201.447	12.84
201.833	-5.13
202.22	1.84
202.607	-39.84
202.994	-4.63
203.38	48.84
203.767	35.93
204.154	25.17
204.54	32.47
204.927	-4.28
205.313	43.16
205.699	11.03
206.086	11.26
206.472	45.17
206.858	29.49
207.245	4.1
207.631	13.7
208.017	13.68
208.403	55.69
208.789	20.41
209.175	32.76
209.561	29.73
209.947	22.93
210.333	28.6
210.719	9.96
211.105	-2.38
211.491	16.67
211.876	23.46
212.262	12.05
212.648	14.32
213.034	-1.78
213.419	-1.67
213.805	6.09
214.19	26.76
214.576	-0.18
214.961	7.64
215.346	-19.33
215.732	9.91
216.117	16.69
216.502	23.62
216.888	-2.82
217.273	3.83
217.658	6.71
218.043	-2.62
218.428	6.26
218.813	-3.23
219.198	-4.18
219.583	0.4
219.968	-4.11
220.353	-4.43
220.738	-3.67
221.122	-1.73
221.507	3.29
221.892	-15.33
222.276	-0.6
222.661	6.95
223.046	9.28
223.43	3.16
223.815	5.82
224.199	1.2
224.583	-6.13
224.968	-1.93
225.352	6.84
225.736	2.11
226.121	7.88
226.505	7.55
226.889	1.36
227.273	3.08
227.657	3.47
228.041	7.71
228.425	3.68
228.809	2.56
229.193	1.99
229.577	2.53
229.961	2.04
230.344	0.91
230.728	1.06
231.112	2.46
231.495	2.27
231.879	2.76
232.263	2.91
232.646	2.88
233.03	2.63
233.413	3.61
233.797	2.6
234.18	1.99
234.563	4.38
234.946	0.8
235.33	2.89
235.713	4.31
236.096	1.68
236.479	1.6
236.862	2.48
237.245	2.25
237.628	0.93
238.011	2.81
238.394	3.36
238.777	1.81
239.16	3.15
239.543	2.63
239.925	2.25
240.308	2.77
240.691	1.59
241.073	1.41
241.456	2.86
241.838	0.69
242.221	1.21
242.603	2.24
242.986	3.25
243.368	2.89
243.75	2.18
244.133	1.78
244.515	2.53
244.897	1.88
245.279	1.78
245.661	1.94
246.043	2.77
246.425	2.28
246.807	2.95
247.189	2.41
247.571	2.3
247.953	2.04
248.335	1.81
248.717	2.02
249.098	2.21
249.48	2.11
249.862	2.05
250.243	2.38
250.625	2.45
251.006	2.44
251.388	2.3
251.769	1.54
252.151	2.13
252.532	1.82
252.913	2.18
253.295	1.7
253.676	1.84
254.057	2.2
254.438	2.28
254.819	1.98
255.2	2.32
255.581	2.32
255.962	2.85
256.343	1.54
256.724	1.39
257.105	3.5
257.486	2.57
257.867	2.27
258.247	2.56
258.628	2.07
259.009	1.89
259.389	2.2
259.77	1.75
260.15	2.28
260.531	2.35
260.911	1.7
261.292	1.89
261.672	1.92
262.052	1.9
262.432	1.89
262.813	2.23
263.193	2.2
263.573	2.33
263.953	1.81
264.333	2.12
264.713	1.97
265.093	1.96
265.473	2.32
265.853	2.45
266.233	2.41
266.612	2.43
266.992	1.97
267.372	1.85
267.752	2.19
268.131	1.79
268.511	1.94
268.89	2.26
269.27	2.05
269.649	2.13
270.029	2.1
270.408	2.41
270.787	2.74
271.167	2.39
271.546	1.93
271.925	1.99
272.304	1.76
272.683	1.85
273.062	2.06
273.441	1.64
273.82	1.71
274.199	2.27
274.578	1.98
274.957	2.26
275.336	1.8
275.715	1.98
276.093	1.87
276.472	2.01
276.851	2.46
277.229	1.88
277.608	1.91
277.986	2.23
278.365	1.93
278.743	2.25
279.122	1.7
279.5	1.66
279.878	2.28
280.257	2.27
280.635	1.49
281.013	1.51
281.391	2.05
281.769	1.79
282.147	1.44
282.525	2.29
282.903	2.05
283.281	1.76
283.659	2.44
284.037	2.27
284.415	1.76
284.792	2.11
285.17	1.58
285.548	1.95
285.925	2.11
286.303	2
286.68	1.85
287.058	1.73
287.435	1.84
287.813	1.68
288.19	1.94
288.567	2.46
288.945	1.98
289.322	1.73
289.699	2
290.076	1.65
290.453	2.49
290.83	1.92
291.207	1.84
291.584	1.95
291.961	2.18
292.338	2.36
292.715	1.71
293.092	1.73
293.469	2.01
293.845	1.91
294.222	2.16
294.599	2.04
294.975	2.17
295.352	1.99
295.728	1.96
296.105	2.11
296.481	2.53
296.858	1.88
297.234	2.28
297.61	1.87
297.986	1.88
298.363	1.88
298.739	1.68
299.115	2.03
299.491	1.88
299.867	1.98
300.243	2.02
300.619	2.06
300.995	2.18
301.371	1.84
301.746	1.75
302.122	2.03
302.498	1.83
302.874	1.98
303.249	1.68
303.625	2.28
304	1.84
304.376	2.36
304.751	1.8
305.127	2.15
305.502	2.08
305.878	1.87
306.253	1.67
306.628	2.7
307.003	1.58
307.378	1.86
307.754	2.05
308.129	2.12
308.504	1.72
308.879	1.88
309.254	2.1
309.629	2.1
310.003	2.63
310.378	2.33
310.753	2.53
311.128	1.74
311.502	2.37
311.877	2.18
312.252	2.21
312.626	2.22
313.001	2.02
313.375	1.91
313.75	2.08
314.124	2.29
314.498	1.59
314.873	2.04
315.247	2
315.621	1.99
315.995	1.75
316.369	2.2
316.743	2.21
317.117	1.79
317.491	1.83
317.865	2.56
318.239	2.29
318.613	2.16
318.987	2.09
319.361	2.16
319.734	1.48
320.108	2.25
320.482	2.69
320.855	3.05
321.229	2.15
321.602	2.43
321.976	2.44
322.349	2.07
322.723	1.91
323.096	2
323.469	2.48
323.843	2.34
324.216	2.02
324.589	2.23
324.962	2.8
325.335	2.33
325.708	2.63
326.081	2.2
326.454	2.33
326.827	1.78
327.2	1.94
327.573	2.04
327.945	2.13
328.318	2.01
328.691	1.59
329.063	2.33
329.436	2.17
329.809	1.85
330.181	2.42
330.553	2.14
330.926	1.88
331.298	2.6
331.671	2.47
332.043	1.92
332.415	1.65
332.787	1.95
333.159	2.73
333.532	1.85
333.904	2.06
334.276	2.22
334.648	2.16
335.02	2.44
335.391	2.48
335.763	1.7
336.135	2.97
336.507	2.4
336.879	1.6
337.25	2.24
337.622	2.26
337.993	2.04
338.365	2.07
338.736	2.63
339.108	2.44
339.479	1.95
339.851	2.24
340.222	2.57
340.593	2.4
340.964	1.83
341.336	2.34
341.707	2.22
342.078	2.45
342.449	2.4
342.82	2.3
343.191	1.98
343.562	2.61
343.933	2.38
344.303	2.37
344.674	1.9
345.045	2.33
345.416	2.71
345.786	2.39
346.157	2.28
346.527	2.31
346.898	2.06
347.268	2.28
347.639	2.25
348.009	2.54
348.38	1.84
348.75	2.97
349.12	2.23
349.49	2.25
349.861	1.78
350.231	2.34
350.601	2.59
350.971	2.14
351.341	1.71
351.711	2.41
352.081	2.18
352.45	1.94
352.82	2.23
353.19	2.28
353.56	1.93
353.929	2.44
354.299	2.57
354.669	2.16
355.038	2.28
355.408	2.16
355.777	2.45
356.147	2.4
356.516	2.44
356.885	2.45
357.254	2.43
357.624	2.2
357.993	2.14
358.362	2.47
358.731	2.18
359.1	2.21
359.469	2.69
359.838	2.33
360.207	2.47
360.576	2.23
360.945	2.07
361.314	2.25
361.682	2.54
362.051	2.35
362.42	2.39
362.788	2.15
363.157	2.35
363.525	2.1
363.894	2.26
364.262	2.37
364.631	2.4
364.999	2.06
365.367	2
365.735	2.51
366.104	2.45
366.472	2.22
366.84	2.03
367.208	2.34
367.576	2.24
367.944	2.38
368.312	2.32
368.68	2.07
369.048	2.26
369.416	2.11
369.783	2.29
370.151	2.2
370.519	2.71
370.886	2.29
371.254	2.17
371.621	2.44
371.989	2.35
372.356	2.2
372.724	2.33
373.091	2.07
373.458	2.61
373.826	2.7
374.193	2.08
374.56	2.45
374.927	2.39
375.294	2.1
375.661	2.11
376.028	2.19
376.395	2.07
376.762	2.32
377.129	2.27
377.496	2.21
377.863	2.32
378.229	2.14
378.596	2.41
378.963	2.45
379.329	2.13
379.696	2.29
380.062	2.22
380.429	2.15
380.795	2.24
381.161	2.33
381.528	2.5
381.894	2.47
382.26	1.86
382.626	2.26
382.993	2.56
383.359	2.44
383.725	2.37
384.091	2.61
384.457	2.45
384.823	2.03
385.188	2.28
385.554	2.33
385.92	2.1
386.286	2.46
386.651	2.82
387.017	2.22
387.383	2.58
387.748	2.27
388.114	2.3
388.479	2.35
388.845	2.39
389.21	2.32
389.575	2.33
389.94	2.44
390.306	2.47
390.671	2.21
391.036	2.36
391.401	2.32
391.766	1.92
392.131	2.32
392.496	2.3
392.861	2.38
393.226	2.51
393.591	2.48
393.956	2.24
394.32	2.19
394.685	2.58
395.05	2.22
395.414	2.52
395.779	2.14
396.143	2.41
396.508	2.29
396.872	2.27
397.236	2.56
397.601	2.37
397.965	2.52
398.329	2.31
398.694	2.54
399.058	2.52
399.422	2.41
399.786	2.38
400.15	2.43
400.514	2.5
400.878	2.32
401.242	2.55
401.605	2.38
401.969	2.45
402.333	2.49
402.697	2.52
403.06	2.51
403.424	2.11
403.787	2.37
404.151	2.24
404.514	2.46
404.878	2.39
405.241	2.54
405.604	2.3
405.968	2.44
406.331	2.49
406.694	2.46
407.057	2.43
407.42	2.42
407.783	2.27
408.146	2.39
408.509	2.28
408.872	2.35
409.235	2.59
409.598	2.53
409.961	2.52
410.323	2.38
410.686	2.35
411.049	2.22
411.411	2.48
411.774	2.38
412.136	2.34
412.499	2.56
412.861	2.36
413.223	2.46
413.586	2.5
413.948	2.68
414.31	2.63
414.672	2.52
415.035	2.35
415.397	2.73
415.759	2.48
416.121	2.35
416.483	2.3
416.845	2.46
417.206	2.63
417.568	2.43
417.93	2.74
418.292	2.37
418.653	2.4
419.015	2.6
419.377	2.42
419.738	2.25
420.1	2.31
420.461	2.45
420.822	2.38
421.184	2.38
421.545	2.42
421.906	2.41
422.267	2.34
422.629	2.29
422.99	2.42
423.351	2.4
423.712	2.42
424.073	2.36
424.434	2.39
424.795	2.32
425.155	2.28
425.516	2.45
425.877	2.4
426.238	2.34
426.598	2.47
426.959	2.36
427.32	2.39
427.68	2.44
428.041	2.47
428.401	2.47
428.761	2.54
429.122	2.36
429.482	2.48
429.842	2.69
430.202	2.36
430.563	2.5
430.923	2.44
431.283	2.57
431.643	2.5
432.003	2.61
432.363	2.55
432.722	2.52
433.082	2.51
433.442	2.35
433.802	2.44
434.161	2.47
434.521	2.51
434.881	2.53
435.24	2.59
435.6	2.44
435.959	2.52
436.319	2.52
436.678	2.49
437.037	2.55
437.396	2.58
437.756	2.46
438.115	2.57
438.474	2.53
438.833	2.47
439.192	2.54
439.551	2.39
439.91	2.41
440.269	2.62
440.628	2.4
440.987	2.54
441.345	2.44
441.704	2.51
442.063	2.64
442.421	2.45
442.78	2.48
443.138	2.43
443.497	2.57
443.855	2.64
444.214	2.55
444.572	2.56
444.93	2.43
445.288	2.55
445.647	2.57
446.005	2.65
446.363	2.56
446.721	2.45
447.079	2.5
447.437	2.61
447.795	2.43
448.153	2.52
448.51	2.39
448.868	2.43
449.226	2.51
449.584	2.49
449.941	2.56
450.299	2.57
450.656	2.64
451.014	2.56
451.371	2.59
451.729	2.64
452.086	2.57
452.443	2.58
452.801	2.59
453.158	2.57
453.515	2.59
453.872	2.44
454.229	2.56
454.586	2.5
454.943	2.55
455.3	2.64
455.657	2.5
456.014	2.53
456.371	2.63
456.727	2.61
457.084	2.66
457.441	2.71
457.797	2.68
458.154	2.56
458.51	2.8
458.867	2.71
459.223	2.58
459.58	2.56
459.936	2.63
460.292	2.62
460.648	2.65
461.005	2.59
461.361	2.67
461.717	2.51
462.073	2.63
462.429	2.53
462.785	2.61
463.141	2.6
463.496	2.64
463.852	2.64
464.208	2.71
464.564	2.76
464.919	2.58
465.275	2.8
465.631	2.61
465.986	2.62
466.342	2.81
466.697	2.64
467.052	2.61
467.408	2.62
467.763	2.73
468.118	2.69
468.473	2.85
468.829	2.77
469.184	2.62
469.539	2.63
469.894	2.6
470.249	2.85
470.603	2.72
470.958	2.7
471.313	2.68
471.668	2.7
472.023	2.75
472.377	2.75
472.732	2.71
473.086	2.83
473.441	2.72
473.795	2.55
474.15	2.66
474.504	2.75
474.859	2.52
475.213	2.73
475.567	2.8
475.921	2.72
476.275	2.67
476.63	2.64
476.984	2.85
477.338	2.82
477.692	2.87
478.045	2.71
478.399	2.56
478.753	2.65
479.107	2.7
479.461	2.74
479.814	2.75
480.168	2.81
480.521	2.67
480.875	2.73
481.228	2.75
481.582	2.86
481.935	2.65
482.289	2.73
482.642	2.78
482.995	2.66
483.348	2.73
483.701	2.66
484.055	2.65
484.408	2.73
484.761	2.6
485.114	2.58
485.466	2.52
485.819	2.51
486.172	2.52
486.525	2.56
486.878	2.61
487.23	2.64
487.583	2.68
487.936	2.63
488.288	2.63
488.641	2.6
488.993	2.6
489.345	2.62
489.698	2.61
490.05	2.59
490.402	2.64
490.754	2.71
491.107	2.76
491.459	2.64
491.811	2.75
492.163	2.77
492.515	2.71
492.866	2.73
493.218	2.69
493.57	2.67
493.922	2.63
494.274	2.71
494.625	2.7
494.977	2.78
495.328	2.79
495.68	2.79
496.031	2.96
496.383	2.73
496.734	2.7
497.086	2.85
497.437	2.94
497.788	2.77
498.139	2.82
498.49	2.9
498.842	2.75
499.193	2.84
499.544	2.79
499.894	2.77
500.245	2.82
500.596	2.85
500.947	2.92
501.298	2.88
501.648	2.84
501.999	2.94
502.35	2.87
502.7	2.94
503.051	2.93
503.401	3.01
503.752	3.04
504.102	2.79
504.452	2.91
504.803	2.9
505.153	2.78
505.503	2.9
505.853	2.79
506.203	2.83
506.553	2.95
506.903	2.93
507.253	2.95
507.603	3.02
507.953	3.05
508.303	3.02
508.652	2.98
509.002	2.94
509.352	2.95
509.701	2.98
510.051	3.03
510.4	2.89
510.75	3.03
511.099	2.96
511.449	2.88
511.798	2.78
512.147	2.98
512.496	2.88
512.846	3
513.195	2.9
513.544	2.98
513.893	2.96
514.242	2.93
514.591	2.92
514.939	2.95
515.288	2.92
515.637	3.07
515.986	3
516.334	3.06
516.683	3.09
517.032	2.95
517.38	3.06
517.729	3.02
518.077	3.15
518.426	3.17
518.774	3.11
519.122	3.03
519.47	3.06
519.819	3.02
520.167	2.95
520.515	2.97
520.863	3.03
521.211	3.08
521.559	3.05
521.907	3.03
522.255	2.98
522.602	3.05
522.95	3.07
523.298	3.15
523.645	3.08
523.993	3.17
524.341	3.04
524.688	3.13
525.036	3.06
525.383	3.28
525.73	3.09
526.078	3.17
526.425	3.17
526.772	3.09
527.119	3.11
527.466	3.06
527.814	2.95
528.161	3.05
528.508	3.12
528.854	3.13
529.201	3.17
529.548	3.1
529.895	3
530.242	2.93
530.588	2.96
530.935	3.03
531.282	3.05
531.628	3.06
531.975	3.06
532.321	3.21
532.667	3.13
533.014	3.25
533.36	3.2
533.706	3.29
534.052	3.26
534.399	3.15
534.745	3.14
535.091	3.08
535.437	3.12
535.783	3.17
536.129	3.14
536.474	3.24
536.82	3.2
537.166	3.25
537.512	3.34
537.857	3.35
538.203	3.34
538.549	3.2
538.894	3.29
539.239	3.24
539.585	3.31
539.93	3.31
540.276	3.37
540.621	3.42
540.966	3.4
541.311	3.31
541.656	3.42
542.001	3.39
542.346	3.41
542.691	3.34
543.036	3.34
543.381	3.26
543.726	3.28
544.071	3.26
544.415	3.34
544.76	3.36
545.105	3.38
545.449	3.45
545.794	3.37
546.138	3.47
546.483	3.55
546.827	3.44
547.171	3.38
547.516	3.47
547.86	3.57
548.204	3.56
548.548	3.49
548.892	3.47
549.236	3.53
549.58	3.46
549.924	3.65
550.268	3.58
550.612	3.56
550.956	3.61
551.3	3.58
551.643	3.55
551.987	3.64
552.33	3.72
552.674	3.68
553.017	3.86
553.361	3.65
553.704	3.73
554.048	3.65
554.391	3.81
554.734	3.76
555.077	3.75
555.42	3.81
555.764	3.81
556.107	3.87
556.45	3.83
556.793	3.86
557.135	3.95
557.478	3.79
557.821	3.85
558.164	3.91
558.507	3.85
558.849	3.92
559.192	3.91
559.534	3.86
559.877	4.02
560.219	3.75
560.562	3.93
560.904	3.97
561.246	4.05
561.589	3.99
561.931	4.05
562.273	4.06
562.615	4.18
562.957	3.97
563.299	4.01
563.641	3.92
563.983	4.03
564.325	4.12
564.667	4.07
565.008	4.13
565.35	4.17
565.692	3.99
566.033	4.13
566.375	4.08
566.716	4.21
567.058	4.07
567.399	4.13
567.741	4
568.082	4.14
568.423	4.16
568.764	4.12
569.105	4.11
569.447	4.21
569.788	4.2
570.129	4.18
570.47	4.27
570.811	4.19
571.151	4.24
571.492	4.47
571.833	4.3
572.174	4.34
572.514	4.52
572.855	4.26
573.195	4.2
573.536	4.35
573.876	4.31
574.217	4.37
574.557	4.49
574.898	4.32
575.238	4.5
575.578	4.57
575.918	4.33
576.258	4.5
576.598	4.51
576.938	4.36
577.278	4.49
577.618	4.44
577.958	4.53
578.298	4.58
578.638	4.8
578.977	4.47
579.317	4.61
579.657	4.75
579.996	4.63
580.336	4.57
580.675	4.69
581.014	4.38
581.354	4.66
581.693	4.78
582.032	4.5
582.372	4.76
582.711	4.59
583.05	4.47
583.389	4.83
583.728	4.78
584.067	4.76
584.406	4.86
584.745	4.81
585.083	4.93
585.422	5.06
585.761	4.79
586.1	4.89
586.438	4.87
586.777	5.06
587.115	4.84
587.454	4.96
587.792	4.81
588.13	5.2
588.469	5.09
588.807	5.09
589.145	5.25
589.483	5.15
589.821	5.07
590.159	4.91
590.497	5.15
590.835	5.16
591.173	5.01
591.511	5.2
591.849	5.27
592.187	5.23
592.524	5.22
592.862	4.89
593.2	5.09
593.537	5.27
593.875	5.2
594.212	5.07
594.55	5.28
594.887	5.37
595.224	5.52
595.561	5.33
595.899	5.17
596.236	5.31
596.573	5.29
596.91	5.47
597.247	5.53
597.584	5.22
597.921	5.4
598.258	5.58
598.594	5.48
598.931	5.47
599.268	5.41
599.604	5.57
599.941	5.49
600.277	5.47
600.614	5.56
600.95	5.63
601.287	5.83
601.623	5.58
601.959	5.85
602.296	5.75
602.632	5.67
602.968	5.78
603.304	5.82
603.64	5.98
603.976	5.82
604.312	5.94
604.648	5.74
604.984	5.8
605.319	5.81
605.655	5.82
605.991	5.91
606.326	5.87
606.662	5.77
606.998	6.01
607.333	6.05
607.668	6.07
608.004	5.93
608.339	5.94
608.674	5.98
609.01	6.16
609.345	6.1
609.68	6.22
610.015	6.26
610.35	6.22
610.685	6
611.02	6.19
611.355	6.34
611.689	6.11
612.024	6.36
612.359	6.44
612.694	6.03
613.028	6.3
613.363	6.37
613.697	6.54
614.032	6.38
614.366	6.25
614.7	6.52
615.035	6.35
615.369	6.47
615.703	6.29
616.037	6.47
616.371	6.47
616.705	6.38
617.039	6.46
617.373	6.61
617.707	6.61
618.041	6.72
618.375	6.73
618.709	6.74
619.042	6.83
619.376	6.51
619.71	6.65
620.043	7.03
620.377	6.82
620.71	6.87
621.043	6.48
621.377	6.69
621.71	6.71
622.043	6.97
622.376	6.85
622.709	6.98
623.043	6.72
623.376	6.99
623.709	7.13
624.041	7.49
624.374	6.73
624.707	6.71
625.04	7.49
625.373	6.95
625.705	7.26
626.038	7.39
626.37	7.47
626.703	6.89
627.035	6.91
627.368	7.04
627.7	7.14
628.032	7.05
628.365	7.22
628.697	7.28
629.029	7.2
629.361	6.94
629.693	7.03
630.025	7.65
630.357	7.36
630.689	7.39
631.021	7.26
631.353	7.28
631.684	7.43
632.016	7.14
632.348	7.45
632.679	7.62
633.011	7.44
633.342	7.87
633.674	7.79
634.005	7.62
634.336	7.38
634.668	7.81
634.999	7.85
635.33	7.83
635.661	7.35
635.992	7.48
636.323	7.68
636.654	7.89
636.985	7.98
637.316	7.68
637.647	7.99
637.977	7.71
638.308	7.93
638.639	8.13
638.969	7.94
639.3	7.98
639.63	7.83
639.961	7.65
640.291	7.73
640.622	8.2
640.952	8.12
641.282	8.34
641.612	8.23
641.943	8
642.273	8.28
642.603	8.23
642.933	8.06
643.263	7.98
643.592	8.33
643.922	8.11
644.252	8.24
644.582	8.4
644.911	8.33
645.241	8.15
645.571	8.4
645.9	8.44
646.23	7.93
646.559	8.28
646.888	8.17
647.218	8.49
647.547	8.88
647.876	8.56
648.205	8.07
648.534	8.49
648.863	8.75
649.192	8.95
649.521	8.81
649.85	8.77
650.179	8.58
650.508	8.29
650.837	8.51
651.165	8.58
651.494	9.14
651.822	8.52
652.151	8.9
652.479	8.94
652.808	8.1
653.136	8.69
653.465	8.98
653.793	9.1
654.121	8.97
654.449	8.87
654.777	8.9
655.105	9.06
655.433	8.99
655.761	8.83
656.089	9.52
656.417	9.14
656.745	8.78
657.073	9.08
657.4	8.65
657.728	9.56
658.056	9.4
658.383	9.22
658.711	8.87
659.038	9.16
659.365	8.94
659.693	9.35
660.02	9.97
660.347	9.44
660.674	9.45
661.001	9.51
661.329	9.41
661.656	9.75
661.982	9.44
662.309	9.33
662.636	9.22
662.963	9.27
663.29	9.3
663.616	9.33
663.943	9.72
664.27	9.8
664.596	9.64
664.923	10.1
665.249	9.93
665.576	9.5
665.902	8.81
666.228	9.54
666.554	10
666.881	10.21
667.207	9.98
667.533	10.01
667.859	10.13
668.185	10.01
668.511	9.74
668.837	9.98
669.162	10.21
669.488	10.27
669.814	10.13
670.139	10.16
670.465	10.34
670.791	9.77
671.116	10.11
671.442	10.37
671.767	9.62
672.092	10.58
672.418	10.91
672.743	10.68
673.068	10.55
673.393	10.2
673.718	9.82
674.043	10.18
674.368	10.05
674.693	10.35
675.018	11.02
675.343	9.91
675.667	10.25
675.992	10.41
676.317	10.75
676.641	10.42
676.966	10.5
677.29	10.59
677.615	10.84
677.939	10.85
678.264	10.8
678.588	10.64
678.912	10.97
679.236	10.98
679.56	10.57
679.885	10.82
680.209	10.81
680.532	10.54
680.856	11.44
681.18	11.27
681.504	11.22
681.828	11.31
682.152	11.07
682.475	11.27
682.799	11.27
683.122	11.31
683.446	10.73
683.769	11.38
684.093	10.92
684.416	10.52
684.739	11.8
685.062	11.25
685.386	11.36
685.709	11.6
686.032	11.42
686.355	11.19
686.678	11.41
687.001	10.89
687.324	11.28
687.646	11.64
687.969	12.14
688.292	11.67
688.614	11.48
688.937	11.78
689.26	11.59
689.582	11.25
689.904	11.76
690.227	11.67
690.549	11.32
690.871	11.35
691.194	12
