Data from 0036_crown_Reflection__3__08.txt Node

Date: Fri Nov 04 14:42:12 CDT 2022
User: ToomeyLab
Spectrometer: FLMS14357
Trigger mode: 0
Integration Time (sec): 1.000000E-2
Scans to average: 100
Electric dark correction enabled: true
Nonlinearity correction enabled: false
Boxcar width: 0
XAxis mode: Wavelengths
Number of Pixels in Spectrum: 2048
>>>>>Begin Spectral Data<<<<<
189.047	161.74
189.435	161.74
189.823	161.74
190.211	76
190.599	417.11
190.987	-361.79
191.375	-147.53
191.763	472.55
192.151	106.87
192.538	-475.7
192.926	676.58
193.314	10.89
193.702	368.91
194.089	277.29
194.477	-86.04
194.864	63.14
195.252	66.54
195.639	110.18
196.027	-243.54
196.414	120.72
196.801	147.87
197.189	-30.5
197.576	-122.46
197.963	-18.36
198.351	-31.27
198.738	23.62
199.125	-46.33
199.512	-38.93
199.899	34.52
200.286	12.52
200.673	41.85
201.06	0.06
201.447	28.08
201.833	-16.28
202.22	-3.27
202.607	9.48
202.994	-48.7
203.38	2.26
203.767	-1.63
204.154	37
204.54	0.21
204.927	2.92
205.313	-31
205.699	21.33
206.086	18.36
206.472	33.7
206.858	23.4
207.245	22.23
207.631	21.68
208.017	8.72
208.403	9.2
208.789	43.66
209.175	-13.61
209.561	24.43
209.947	28.87
210.333	36.39
210.719	0.61
211.105	-3.66
211.491	17.8
211.876	47.37
212.262	20.47
212.648	19.92
213.034	2.51
213.419	10.32
213.805	7.64
214.19	24.62
214.576	23.81
214.961	6.46
215.346	-11.03
215.732	15.64
216.117	17.82
216.502	18.18
216.888	15.26
217.273	12.57
217.658	31.75
218.043	9.85
218.428	13.12
218.813	-3.62
219.198	-7.17
219.583	12.31
219.968	2.42
220.353	-10.57
220.738	23.04
221.122	-4.72
221.507	-1.07
221.892	7.09
222.276	5.86
222.661	4.95
223.046	4.29
223.43	-5.21
223.815	17.15
224.199	6.67
224.583	5.1
224.968	4.25
225.352	0.5
225.736	9.24
226.121	4.7
226.505	8.25
226.889	-0.2
227.273	-0.16
227.657	1.52
228.041	6.6
228.425	7.86
228.809	4.53
229.193	6.89
229.577	4.5
229.961	6.26
230.344	5.16
230.728	5.41
231.112	6.39
231.495	5.79
231.879	7.13
232.263	6.1
232.646	5.3
233.03	6.37
233.413	5.36
233.797	5.81
234.18	5.66
234.563	7.43
234.946	3.61
235.33	6.74
235.713	7.01
236.096	3.87
236.479	5.59
236.862	4.39
237.245	7.43
237.628	4.3
238.011	6.19
238.394	6.19
238.777	5.48
239.16	5.85
239.543	6.07
239.925	4.4
240.308	6.12
240.691	5.88
241.073	7.34
241.456	5.98
241.838	4.7
242.221	4.77
242.603	5.29
242.986	7.14
243.368	5.18
243.75	5.59
244.133	5.67
244.515	5.65
244.897	5.48
245.279	5.32
245.661	5.5
246.043	5.73
246.425	5.72
246.807	5.8
247.189	5.29
247.571	5.34
247.953	5.19
248.335	5.31
248.717	5.5
249.098	5.33
249.48	5.54
249.862	5.73
250.243	5.7
250.625	5.65
251.006	5.82
251.388	5.68
251.769	5.49
252.151	5.62
252.532	4.89
252.913	5.13
253.295	6.04
253.676	5.19
254.057	5.36
254.438	5.57
254.819	5.23
255.2	5.15
255.581	4.49
255.962	6.13
256.343	4.59
256.724	4.65
257.105	6.1
257.486	5.57
257.867	5.46
258.247	5.85
258.628	5.25
259.009	4.63
259.389	5.18
259.77	4.97
260.15	5.13
260.531	5.09
260.911	4.87
261.292	4.91
261.672	5.09
262.052	4.87
262.432	4.96
262.813	5.29
263.193	5.03
263.573	5.15
263.953	5.02
264.333	4.75
264.713	5.25
265.093	5.11
265.473	4.4
265.853	4.34
266.233	4.88
266.612	5.27
266.992	5.36
267.372	5.12
267.752	4.56
268.131	4.54
268.511	4.71
268.89	4.85
269.27	4.75
269.649	4.9
270.029	4.86
270.408	4.65
270.787	5.27
271.167	4.91
271.546	4.57
271.925	4.87
272.304	4.77
272.683	4.74
273.062	4.22
273.441	4.46
273.82	4.72
274.199	5.27
274.578	4.61
274.957	5.05
275.336	4.62
275.715	4.96
276.093	4.71
276.472	5.09
276.851	5.18
277.229	4.21
277.608	4.13
277.986	4.99
278.365	4.99
278.743	5.15
279.122	4.48
279.5	3.86
279.878	4.56
280.257	4.68
280.635	4.46
281.013	4.53
281.391	4.62
281.769	4.75
282.147	4.49
282.525	4.57
282.903	4.59
283.281	4.53
283.659	4.77
284.037	4.92
284.415	4.4
284.792	4.89
285.17	4.36
285.548	4.46
285.925	4.29
286.303	4.49
286.68	4.39
287.058	4.17
287.435	4.16
287.813	4.12
288.19	4.38
288.567	4.71
288.945	4.7
289.322	4.25
289.699	4.88
290.076	4.56
290.453	4.75
290.83	4.65
291.207	4
291.584	4.3
291.961	4.24
292.338	4.35
292.715	4.64
293.092	3.94
293.469	4.18
293.845	4.33
294.222	4.02
294.599	4.49
294.975	4.38
295.352	4.32
295.728	4.66
296.105	4.33
296.481	4.56
296.858	4.32
297.234	4.94
297.61	4.39
297.986	4.28
298.363	4.28
298.739	4.04
299.115	4.21
299.491	4.07
299.867	4.27
300.243	4.34
300.619	4.59
300.995	4.45
301.371	4.52
301.746	4.07
302.122	4.61
302.498	4.38
302.874	4.3
303.249	4.29
303.625	4.37
304	4.11
304.376	4.31
304.751	4.68
305.127	4.75
305.502	3.99
305.878	4.04
306.253	4.36
306.628	5.04
307.003	4.36
307.378	4.29
307.754	4.51
308.129	3.89
308.504	4.33
308.879	4.19
309.254	4.43
309.629	4.53
310.003	4.71
310.378	3.9
310.753	4.79
311.128	3.96
311.502	4.19
311.877	4.24
312.252	4.09
312.626	4.06
313.001	4.46
313.375	4.34
313.75	4.16
314.124	4.22
314.498	4.13
314.873	4.34
315.247	4.4
315.621	4.41
315.995	4.84
316.369	4.53
316.743	3.99
317.117	4.24
317.491	4
317.865	4.57
318.239	4.34
318.613	4.78
318.987	4.04
319.361	4.25
319.734	3.86
320.108	4.13
320.482	4.17
320.855	4.55
321.229	4.18
321.602	4.38
321.976	4.54
322.349	3.94
322.723	4.27
323.096	3.58
323.469	4.83
323.843	4.24
324.216	4.41
324.589	3.93
324.962	4.63
325.335	4.1
325.708	4.57
326.081	4.54
326.454	4.3
326.827	4.12
327.2	4.48
327.573	4.27
327.945	4.12
328.318	4.09
328.691	4.12
329.063	4.31
329.436	3.91
329.809	4.36
330.181	4.48
330.553	4.61
330.926	4.67
331.298	4.78
331.671	4.61
332.043	4.52
332.415	3.91
332.787	4.12
333.159	4.6
333.532	4.26
333.904	4.13
334.276	4.16
334.648	4.03
335.02	4.35
335.391	4.75
335.763	4.18
336.135	4.68
336.507	4.23
336.879	3.78
337.25	4.44
337.622	4.66
337.993	4.25
338.365	4.17
338.736	4.73
339.108	4.42
339.479	4.02
339.851	4.4
340.222	4.67
340.593	4.35
340.964	3.95
341.336	4.36
341.707	4.45
342.078	4.42
342.449	4.36
342.82	4.03
343.191	4.27
343.562	4.75
343.933	4.35
344.303	4.54
344.674	4.07
345.045	4.2
345.416	4.71
345.786	4.37
346.157	4.49
346.527	4.54
346.898	4.15
347.268	4.2
347.639	4.55
348.009	4.5
348.38	4.34
348.75	4.71
349.12	4.02
349.49	4.07
349.861	4.21
350.231	4.07
350.601	4.26
350.971	4.19
351.341	4.63
351.711	4.51
352.081	4.24
352.45	4.26
352.82	4.52
353.19	4.82
353.56	4.16
353.929	4.2
354.299	4.28
354.669	4.46
355.038	4.06
355.408	4.63
355.777	4.03
356.147	4.31
356.516	4.45
356.885	4.64
357.254	4.71
357.624	4.41
357.993	4.14
358.362	4.35
358.731	4.41
359.1	4.45
359.469	4.58
359.838	4.66
360.207	4.45
360.576	4.3
360.945	4.18
361.314	4.62
361.682	4.53
362.051	4.19
362.42	4.54
362.788	4.36
363.157	4.49
363.525	4.31
363.894	4.52
364.262	4.26
364.631	4.56
364.999	4.61
365.367	4.17
365.735	4.46
366.104	4.75
366.472	4.34
366.84	4.42
367.208	4.27
367.576	4.99
367.944	4.49
368.312	4.53
368.68	4.59
369.048	4.47
369.416	4.33
369.783	4.49
370.151	4.49
370.519	4.66
370.886	4.56
371.254	4.09
371.621	4.38
371.989	4.55
372.356	4.87
372.724	4.74
373.091	4.71
373.458	4.74
373.826	4.65
374.193	4.52
374.56	4.65
374.927	4.45
375.294	4.4
375.661	4.7
376.028	4.45
376.395	4.26
376.762	4.77
377.129	4.49
377.496	4.16
377.863	4.8
378.229	4.72
378.596	4.52
378.963	4.61
379.329	4.66
379.696	4.5
380.062	4.65
380.429	4.73
380.795	4.67
381.161	4.56
381.528	4.65
381.894	4.8
382.26	4.48
382.626	4.45
382.993	4.62
383.359	4.9
383.725	4.59
384.091	4.47
384.457	4.65
384.823	4.73
385.188	4.51
385.554	4.74
385.92	4.4
386.286	4.48
386.651	4.99
387.017	4.52
387.383	4.6
387.748	4.64
388.114	4.72
388.479	4.75
388.845	4.69
389.21	4.77
389.575	4.51
389.94	4.65
390.306	4.6
390.671	4.84
391.036	4.49
391.401	4.95
391.766	4.57
392.131	4.68
392.496	4.37
392.861	4.66
393.226	4.78
393.591	4.87
393.956	4.45
394.32	4.56
394.685	4.86
395.05	4.49
395.414	4.78
395.779	4.65
396.143	4.86
396.508	4.63
396.872	4.7
397.236	4.81
397.601	4.78
397.965	4.88
398.329	4.51
398.694	4.7
399.058	4.95
399.422	4.65
399.786	4.8
400.15	4.65
400.514	4.77
400.878	4.53
401.242	4.71
401.605	4.59
401.969	4.78
402.333	4.78
402.697	4.89
403.06	4.86
403.424	4.42
403.787	4.95
404.151	4.81
404.514	4.57
404.878	4.71
405.241	4.92
405.604	4.67
405.968	4.56
406.331	4.55
406.694	4.59
407.057	4.76
407.42	4.58
407.783	4.69
408.146	4.78
408.509	4.73
408.872	4.73
409.235	4.7
409.598	4.87
409.961	4.91
410.323	4.72
410.686	4.62
411.049	4.69
411.411	4.67
411.774	4.7
412.136	4.7
412.499	4.64
412.861	4.7
413.223	4.64
413.586	4.87
413.948	5.01
414.31	4.97
414.672	4.97
415.035	4.92
415.397	4.98
415.759	4.81
416.121	4.7
416.483	4.78
416.845	4.76
417.206	4.77
417.568	4.79
417.93	4.82
418.292	4.79
418.653	4.62
419.015	4.82
419.377	4.76
419.738	4.62
420.1	4.39
420.461	4.75
420.822	4.69
421.184	4.74
421.545	4.69
421.906	4.84
422.267	4.49
422.629	4.56
422.99	4.65
423.351	4.6
423.712	4.66
424.073	4.75
424.434	4.66
424.795	4.64
425.155	4.64
425.516	4.71
425.877	4.6
426.238	4.53
426.598	4.61
426.959	4.56
427.32	4.65
427.68	4.72
428.041	4.78
428.401	4.82
428.761	4.91
429.122	4.58
429.482	4.89
429.842	5.01
430.202	4.78
430.563	4.75
430.923	4.91
431.283	4.98
431.643	4.57
432.003	4.98
432.363	4.87
432.722	4.75
433.082	4.75
433.442	4.9
433.802	4.65
434.161	4.73
434.521	4.49
434.881	4.74
435.24	4.67
435.6	4.7
435.959	4.64
436.319	4.94
436.678	4.9
437.037	4.91
437.396	4.95
437.756	4.86
438.115	4.97
438.474	4.82
438.833	4.9
439.192	4.85
439.551	4.74
439.91	4.7
440.269	4.85
440.628	4.82
440.987	4.75
441.345	4.76
441.704	4.72
442.063	4.77
442.421	4.76
442.78	4.64
443.138	4.59
443.497	4.81
443.855	4.84
444.214	4.97
444.572	4.83
444.93	4.88
445.288	4.77
445.647	4.66
446.005	4.86
446.363	4.8
446.721	4.81
447.079	4.62
447.437	4.7
447.795	4.6
448.153	4.66
448.51	4.57
448.868	4.63
449.226	4.63
449.584	4.68
449.941	4.77
450.299	4.82
450.656	4.83
451.014	4.8
451.371	4.88
451.729	4.87
452.086	4.88
452.443	4.83
452.801	4.77
453.158	4.74
453.515	4.71
453.872	4.8
454.229	4.66
454.586	4.74
454.943	4.83
455.3	4.86
455.657	4.62
456.014	4.71
456.371	4.89
456.727	4.81
457.084	4.78
457.441	4.87
457.797	4.81
458.154	4.8
458.51	4.99
458.867	4.77
459.223	4.67
459.58	4.78
459.936	4.75
460.292	4.76
460.648	4.82
461.005	4.73
461.361	4.67
461.717	4.63
462.073	4.68
462.429	4.68
462.785	4.82
463.141	4.71
463.496	4.91
463.852	4.77
464.208	4.92
464.564	4.97
464.919	4.8
465.275	4.7
465.631	5.01
465.986	4.71
466.342	4.93
466.697	4.92
467.052	4.77
467.408	4.8
467.763	4.87
468.118	4.89
468.473	4.9
468.829	4.73
469.184	4.69
469.539	4.67
469.894	4.86
470.249	4.95
470.603	4.82
470.958	4.91
471.313	4.89
471.668	4.83
472.023	4.66
472.377	4.79
472.732	4.93
473.086	4.85
473.441	4.8
473.795	4.9
474.15	4.82
474.504	4.82
474.859	4.71
475.213	4.76
475.567	4.75
475.921	4.98
476.275	4.87
476.63	4.79
476.984	5.01
477.338	4.92
477.692	4.78
478.045	4.83
478.399	4.74
478.753	4.75
479.107	4.72
479.461	4.75
479.814	4.85
480.168	4.87
480.521	4.82
480.875	4.81
481.228	4.75
481.582	4.83
481.935	4.7
482.289	4.77
482.642	4.88
482.995	4.8
483.348	4.82
483.701	4.82
484.055	4.68
484.408	4.75
484.761	4.62
485.114	4.5
485.466	4.43
485.819	4.39
486.172	4.43
486.525	4.49
486.878	4.53
487.23	4.61
487.583	4.63
487.936	4.63
488.288	4.65
488.641	4.59
488.993	4.55
489.345	4.57
489.698	4.56
490.05	4.54
490.402	4.59
490.754	4.59
491.107	4.67
491.459	4.68
491.811	4.81
492.163	4.79
492.515	4.72
492.866	4.64
493.218	4.55
493.57	4.53
493.922	4.51
494.274	4.6
494.625	4.73
494.977	4.71
495.328	4.85
495.68	4.76
496.031	4.89
496.383	4.76
496.734	4.91
497.086	4.73
497.437	4.92
497.788	4.84
498.139	4.8
498.49	4.8
498.842	4.69
499.193	4.74
499.544	4.76
499.894	4.57
500.245	4.7
500.596	4.85
500.947	4.81
501.298	4.84
501.648	4.79
501.999	4.91
502.35	4.86
502.7	4.81
503.051	4.83
503.401	4.87
503.752	4.9
504.102	4.84
504.452	4.85
504.803	4.75
505.153	4.8
505.503	4.83
505.853	4.96
506.203	4.74
506.553	4.9
506.903	4.88
507.253	4.86
507.603	4.96
507.953	4.98
508.303	4.9
508.652	4.88
509.002	4.8
509.352	4.79
509.701	4.8
510.051	4.71
510.4	4.68
510.75	4.82
511.099	4.66
511.449	4.59
511.798	4.71
512.147	4.82
512.496	4.82
512.846	4.77
513.195	4.71
513.544	4.74
513.893	4.82
514.242	4.82
514.591	4.82
514.939	4.71
515.288	4.75
515.637	4.8
515.986	4.75
516.334	4.87
516.683	4.75
517.032	4.89
517.38	4.87
517.729	4.84
518.077	4.8
518.426	4.9
518.774	4.87
519.122	4.63
519.47	4.85
519.819	4.71
520.167	4.66
520.515	4.74
520.863	4.69
521.211	4.68
521.559	4.74
521.907	4.73
522.255	4.68
522.602	4.77
522.95	4.76
523.298	4.83
523.645	4.91
523.993	4.82
524.341	4.86
524.688	4.85
525.036	4.76
525.383	5.02
525.73	4.79
526.078	4.83
526.425	4.8
526.772	4.76
527.119	4.64
527.466	4.62
527.814	4.6
528.161	4.7
528.508	4.77
528.854	4.74
529.201	4.8
529.548	4.72
529.895	4.56
530.242	4.42
530.588	4.43
530.935	4.51
531.282	4.54
531.628	4.58
531.975	4.61
532.321	4.7
532.667	4.73
533.014	4.76
533.36	4.73
533.706	4.74
534.052	4.73
534.399	4.74
534.745	4.62
535.091	4.51
535.437	4.53
535.783	4.57
536.129	4.64
536.474	4.76
536.82	4.69
537.166	4.81
537.512	4.84
537.857	4.89
538.203	4.78
538.549	4.63
538.894	4.64
539.239	4.66
539.585	4.71
539.93	4.76
540.276	4.83
540.621	4.9
540.966	4.89
541.311	4.74
541.656	4.86
542.001	4.78
542.346	4.72
542.691	4.57
543.036	4.54
543.381	4.56
543.726	4.55
544.071	4.56
544.415	4.7
544.76	4.71
545.105	4.67
545.449	4.7
545.794	4.74
546.138	4.75
546.483	4.92
546.827	4.7
547.171	4.65
547.516	4.81
547.86	4.84
548.204	4.77
548.548	4.6
548.892	4.75
549.236	4.69
549.58	4.75
549.924	4.77
550.268	4.73
550.612	4.9
550.956	4.84
551.3	4.91
551.643	4.85
551.987	4.75
552.33	4.67
552.674	4.77
553.017	4.92
553.361	4.83
553.704	4.79
554.048	4.79
554.391	4.84
554.734	4.71
555.077	4.68
555.42	4.77
555.764	4.87
556.107	4.88
556.45	4.95
556.793	4.8
557.135	4.94
557.478	4.81
557.821	5.02
558.164	4.77
558.507	4.92
558.849	4.94
559.192	4.98
559.534	4.93
559.877	4.95
560.219	4.68
560.562	4.79
560.904	4.83
561.246	4.86
561.589	4.93
561.931	4.96
562.273	4.92
562.615	5.03
562.957	4.71
563.299	4.78
563.641	4.96
563.983	4.89
564.325	4.89
564.667	4.76
565.008	4.84
565.35	4.92
565.692	4.83
566.033	4.85
566.375	4.91
566.716	4.91
567.058	4.85
567.399	4.81
567.741	4.67
568.082	4.7
568.423	4.8
568.764	4.79
569.105	4.76
569.447	4.84
569.788	4.86
570.129	4.88
570.47	4.91
570.811	4.77
571.151	4.95
571.492	4.93
571.833	4.89
572.174	4.72
572.514	4.79
572.855	4.72
573.195	4.79
573.536	4.67
573.876	4.82
574.217	4.7
574.557	4.87
574.898	4.72
575.238	4.83
575.578	4.97
575.918	4.84
576.258	4.92
576.598	4.87
576.938	4.78
577.278	4.75
577.618	4.78
577.958	4.82
578.298	4.8
578.638	5
578.977	4.8
579.317	4.82
579.657	5.03
579.996	4.85
580.336	4.92
580.675	4.78
581.014	4.86
581.354	4.84
581.693	4.95
582.032	4.96
582.372	5.04
582.711	4.74
583.05	4.73
583.389	4.83
583.728	4.84
584.067	4.93
584.406	4.64
584.745	4.96
585.083	4.72
585.422	5.19
585.761	4.84
586.1	5.06
586.438	4.98
586.777	5.01
587.115	4.81
587.454	5.01
587.792	4.92
588.13	5.05
588.469	5.01
588.807	4.87
589.145	4.91
589.483	5.11
589.821	4.75
590.159	5.05
590.497	5
590.835	4.86
591.173	4.62
591.511	4.87
591.849	4.88
592.187	5
592.524	4.91
592.862	4.68
593.2	4.83
593.537	4.94
593.875	4.85
594.212	4.83
594.55	4.89
594.887	4.85
595.224	5
595.561	4.83
595.899	4.7
596.236	4.8
596.573	4.85
596.91	4.74
597.247	5.01
597.584	4.75
597.921	4.79
598.258	5.04
598.594	4.83
598.931	4.78
599.268	4.88
599.604	4.79
599.941	4.73
600.277	4.83
600.614	4.73
600.95	4.74
601.287	4.94
601.623	4.95
601.959	4.95
602.296	5.06
602.632	4.99
602.968	4.81
603.304	5.09
603.64	4.87
603.976	4.9
604.312	5.06
604.648	4.73
604.984	4.64
605.319	4.91
605.655	4.79
605.991	4.69
606.326	4.71
606.662	4.77
606.998	4.75
607.333	4.87
607.668	4.87
608.004	4.84
608.339	4.83
608.674	4.83
609.01	5.04
609.345	4.89
609.68	4.71
610.015	4.91
610.35	4.72
610.685	4.88
611.02	4.67
611.355	4.79
611.689	4.73
612.024	4.75
612.359	4.83
612.694	4.71
613.028	4.85
613.363	4.85
613.697	4.83
614.032	5.1
614.366	4.87
614.7	5.16
615.035	4.72
615.369	5.09
615.703	4.81
616.037	4.98
616.371	4.85
616.705	4.51
617.039	4.73
617.373	4.95
617.707	5.3
618.041	4.96
618.375	4.95
618.709	5.16
619.042	5.04
619.376	4.68
619.71	4.75
620.043	5.2
620.377	4.97
620.71	5.16
621.043	4.8
621.377	4.74
621.71	4.59
622.043	4.74
622.376	5
622.709	4.62
623.043	4.84
623.376	4.92
623.709	5.31
624.041	4.95
624.374	4.58
624.707	4.74
625.04	5.34
625.373	4.6
625.705	4.99
626.038	5.2
626.37	5.3
626.703	4.85
627.035	5
627.368	4.51
627.7	4.61
628.032	4.76
628.365	5.05
628.697	4.81
629.029	4.78
629.361	4.86
629.693	4.75
630.025	4.74
630.357	4.91
630.689	4.81
631.021	4.96
631.353	4.87
631.684	5.23
632.016	4.73
632.348	5.11
632.679	4.95
633.011	4.76
633.342	5.2
633.674	4.77
634.005	4.86
634.336	4.97
634.668	5.27
634.999	4.68
635.33	5.03
635.661	4.8
635.992	5.03
636.323	5.11
636.654	4.83
636.985	5.38
637.316	5.05
637.647	4.86
637.977	5.07
638.308	4.93
638.639	5.31
638.969	4.66
639.3	4.93
639.63	4.6
639.961	5
640.291	4.89
640.622	5.23
640.952	5.05
641.282	5.23
641.612	5.14
641.943	5.29
642.273	4.99
642.603	5.03
642.933	4.82
643.263	5.2
643.592	4.83
643.922	5.11
644.252	5.07
644.582	5.06
644.911	4.44
645.241	5.04
645.571	5.21
645.9	5.09
646.23	4.85
646.559	4.61
646.888	4.7
647.218	5.09
647.547	5.34
647.876	5.27
648.205	4.72
648.534	5.17
648.863	5.04
649.192	5.01
649.521	5
649.85	5.05
650.179	5.11
650.508	4.79
650.837	4.79
651.165	4.89
651.494	5.04
651.822	4.97
652.151	4.95
652.479	4.69
652.808	4.58
653.136	4.85
653.465	5.07
653.793	4.89
654.121	5.1
654.449	5.01
654.777	4.9
655.105	5.22
655.433	4.71
655.761	4.86
656.089	5.4
656.417	5.14
656.745	5.34
657.073	5.24
657.4	4.81
657.728	5.11
658.056	5.53
658.383	5.6
658.711	5.1
659.038	4.76
659.365	4.59
659.693	5.47
660.02	5.53
660.347	5.29
660.674	4.9
661.001	5.19
661.329	5.17
661.656	5.29
661.982	5.31
662.309	5.09
662.636	4.97
662.963	5.31
663.29	4.94
663.616	4.92
663.943	5.36
664.27	5.27
664.596	5.22
664.923	5.5
665.249	5.49
665.576	5.55
665.902	4.45
666.228	5.1
666.554	5.64
666.881	5.33
667.207	4.83
667.533	5.3
667.859	5.64
668.185	4.97
668.511	4.85
668.837	5.41
669.162	5.61
669.488	5.37
669.814	5.26
670.139	5.21
670.465	5.15
670.791	5.17
671.116	5.05
671.442	4.97
671.767	4.94
672.092	5.1
672.418	5.46
672.743	5.63
673.068	5.43
673.393	5.4
673.718	4.98
674.043	4.98
674.368	4.68
674.693	5.08
675.018	5.32
675.343	4.7
675.667	5.13
675.992	5.04
676.317	6.07
676.641	5.15
676.966	4.64
677.29	4.71
677.615	6.05
677.939	5.16
678.264	4.53
678.588	5.6
678.912	5
679.236	5.21
679.56	5.19
679.885	5.02
680.209	5.17
680.532	5.48
680.856	5.55
681.18	5.48
681.504	5.04
681.828	5.36
682.152	5.13
682.475	5.12
682.799	5.52
683.122	5.31
683.446	5.17
683.769	6.08
684.093	5.32
684.416	5.44
684.739	5.68
685.062	5.43
685.386	5.43
685.709	5.61
686.032	4.95
686.355	4.91
686.678	4.85
687.001	5.48
687.324	5.49
687.646	5.12
687.969	5.31
688.292	5.51
688.614	6.1
688.937	5.14
689.26	5.62
689.582	5.35
689.904	4.9
690.227	4.76
690.549	4.59
690.871	5.33
691.194	5.21
691.516	5.47
691.838	5.94
692.16	5.07
692.482	5.77
692.804	5.13
693.126	5.12
693.448	4.97
