Data from 0036_chest_Reflection__0__00.txt Node

Date: Fri Nov 04 14:35:28 CDT 2022
User: ToomeyLab
Spectrometer: FLMS14357
Trigger mode: 0
Integration Time (sec): 1.000000E-2
Scans to average: 100
Electric dark correction enabled: true
Nonlinearity correction enabled: false
Boxcar width: 0
XAxis mode: Wavelengths
Number of Pixels in Spectrum: 2048
>>>>>Begin Spectral Data<<<<<
189.047	83.68
189.435	83.68
189.823	83.68
190.211	84.44
190.599	22.52
190.987	93.85
191.375	26.65
191.763	196.92
192.151	112.19
192.538	887.34
192.926	1173.07
193.314	67.88
193.702	-1527.72
194.089	347.65
194.477	33.43
194.864	49.08
195.252	189.39
195.639	244.3
196.027	-220.18
196.414	13.93
196.801	16.82
197.189	-123.42
197.576	138.38
197.963	-1.57
198.351	-8.07
198.738	16.97
199.125	-67.28
199.512	-36.56
199.899	14.37
200.286	39.27
200.673	7.96
201.06	45.6
201.447	22.35
201.833	8.87
202.22	-16.97
202.607	-10.96
202.994	-16.53
203.38	31.87
203.767	-21.53
204.154	29.73
204.54	47.01
204.927	37.14
205.313	-2.53
205.699	-5.93
206.086	38.18
206.472	61.57
206.858	27.03
207.245	26.82
207.631	1.93
208.017	13.15
208.403	20.31
208.789	-18.39
209.175	-8.13
209.561	24.12
209.947	15.19
210.333	46.17
210.719	21.12
211.105	4.91
211.491	13.02
211.876	19.72
212.262	5.04
212.648	-5.58
213.034	-1.86
213.419	1.86
213.805	10.45
214.19	13.52
214.576	12.27
214.961	25.94
215.346	-16.64
215.732	-1.74
216.117	-19.21
216.502	5.32
216.888	-3.44
217.273	5.26
217.658	23.58
218.043	5.33
218.428	7.28
218.813	1.17
219.198	-2.89
219.583	36.51
219.968	-9.11
220.353	-2.3
220.738	1.78
221.122	-9.38
221.507	5.62
221.892	-5.34
222.276	-7.92
222.661	25.17
223.046	5.28
223.43	2.56
223.815	13.31
224.199	3.26
224.583	-1.07
224.968	5.28
225.352	5.69
225.736	9.67
226.121	6.38
226.505	1.76
226.889	-0.21
227.273	1.04
227.657	3.12
228.041	8.48
228.425	7.7
228.809	6.76
229.193	3.24
229.577	4.14
229.961	4.39
230.344	3.57
230.728	4.27
231.112	4.7
231.495	3.9
231.879	5.64
232.263	4.35
232.646	4.37
233.03	4.26
233.413	4.79
233.797	4.47
234.18	5.11
234.563	5.09
234.946	2.59
235.33	4.85
235.713	5.55
236.096	3.82
236.479	4.36
236.862	4.42
237.245	4.84
237.628	3.07
238.011	5.36
238.394	3.95
238.777	3.81
239.16	3.65
239.543	4.12
239.925	3.62
240.308	4.64
240.691	4.62
241.073	2.68
241.456	5.33
241.838	3.26
242.221	3.51
242.603	3.67
242.986	4.86
243.368	4.2
243.75	4.56
244.133	4.21
244.515	4.6
244.897	4.1
245.279	4.36
245.661	3.78
246.043	4.38
246.425	4.67
246.807	4.64
247.189	4.41
247.571	4.27
247.953	4
248.335	4.24
248.717	4.17
249.098	4.21
249.48	4.43
249.862	4.28
250.243	4.43
250.625	4.61
251.006	4.32
251.388	4.37
251.769	4.69
252.151	4.43
252.532	4.38
252.913	4.02
253.295	4.69
253.676	3.88
254.057	4.38
254.438	4.44
254.819	3.92
255.2	4.18
255.581	3.9
255.962	4.31
256.343	4.05
256.724	3.66
257.105	4.79
257.486	4.66
257.867	5.26
258.247	4.17
258.628	4.63
259.009	4.64
259.389	4.26
259.77	4.54
260.15	4.35
260.531	4.44
260.911	4.27
261.292	4.25
261.672	4.05
262.052	4.02
262.432	3.97
262.813	4.34
263.193	4.29
263.573	4.47
263.953	4.03
264.333	3.39
264.713	4.16
265.093	4.12
265.473	4.22
265.853	4.62
266.233	4.53
266.612	4.48
266.992	4.22
267.372	4.66
267.752	4.16
268.131	3.51
268.511	4.01
268.89	3.85
269.27	3.93
269.649	3.72
270.029	4.14
270.408	4.21
270.787	4.46
271.167	4.04
271.546	4.24
271.925	3.94
272.304	3.96
272.683	3.36
273.062	3.87
273.441	3.62
273.82	3.7
274.199	4.11
274.578	3.76
274.957	3.99
275.336	3.94
275.715	3.89
276.093	4.08
276.472	4.08
276.851	3.66
277.229	3.91
277.608	3.39
277.986	4.12
278.365	3.86
278.743	4.4
279.122	3.65
279.5	2.83
279.878	3.87
280.257	3.49
280.635	3.81
281.013	4.19
281.391	4.19
281.769	3.69
282.147	3.58
282.525	4.07
282.903	3.97
283.281	4.18
283.659	4.33
284.037	3.73
284.415	3.56
284.792	3.89
285.17	3.37
285.548	3.55
285.925	3.73
286.303	3.62
286.68	3.98
287.058	3.46
287.435	3.7
287.813	3.85
288.19	3.71
288.567	3.82
288.945	4.11
289.322	4.03
289.699	3.96
290.076	4.1
290.453	4.27
290.83	3.67
291.207	3.68
291.584	4.02
291.961	3.93
292.338	4.31
292.715	4.3
293.092	3.57
293.469	4.09
293.845	4.3
294.222	3.88
294.599	3.97
294.975	3.84
295.352	4.3
295.728	4.06
296.105	4.4
296.481	4.46
296.858	3.7
297.234	4.52
297.61	4.16
297.986	4.16
298.363	4.18
298.739	3.77
299.115	4.09
299.491	4.21
299.867	4.33
300.243	4.14
300.619	3.79
300.995	3.82
301.371	4.32
301.746	3.99
302.122	3.96
302.498	3.72
302.874	3.84
303.249	3.84
303.625	4.32
304	4.06
304.376	4.37
304.751	4.27
305.127	4.54
305.502	4.05
305.878	4.14
306.253	4.19
306.628	4.76
307.003	4.24
307.378	4.07
307.754	4.62
308.129	4.28
308.504	4.01
308.879	4.12
309.254	4.77
309.629	4.51
310.003	4.35
310.378	4.07
310.753	4.64
311.128	4.16
311.502	4.5
311.877	4.41
312.252	4.53
312.626	3.83
313.001	4.16
313.375	4.15
313.75	4.49
314.124	4.21
314.498	4.25
314.873	4.25
315.247	4.13
315.621	3.97
315.995	4.53
316.369	4.88
316.743	4.5
317.117	3.82
317.491	3.92
317.865	4.87
318.239	4.55
318.613	4.58
318.987	4.26
319.361	4.42
319.734	4.08
320.108	4.72
320.482	4.69
320.855	5.15
321.229	4.32
321.602	4.38
321.976	4.38
322.349	5.07
322.723	4.36
323.096	4.7
323.469	5.45
323.843	4.94
324.216	4.98
324.589	4.12
324.962	5.16
325.335	4.22
325.708	4.78
326.081	4.88
326.454	4.85
326.827	4.86
327.2	4.28
327.573	4.41
327.945	4.37
328.318	4.52
328.691	4.51
329.063	4.36
329.436	3.98
329.809	4.48
330.181	4.65
330.553	4.82
330.926	4.45
331.298	4.89
331.671	4.81
332.043	4.72
332.415	4.25
332.787	4.51
333.159	4.4
333.532	4.62
333.904	4.36
334.276	4.76
334.648	5.04
335.02	4.72
335.391	4.67
335.763	4.72
336.135	4.93
336.507	4.76
336.879	4.18
337.25	4.5
337.622	4.54
337.993	4.49
338.365	4.7
338.736	5.02
339.108	5
339.479	4.53
339.851	4.88
340.222	4.94
340.593	5.09
340.964	4.69
341.336	4.91
341.707	4.97
342.078	4.78
342.449	4.78
342.82	4.28
343.191	4.71
343.562	4.84
343.933	4.64
344.303	4.93
344.674	4.58
345.045	4.9
345.416	4.93
345.786	4.83
346.157	4.4
346.527	4.78
346.898	4.52
347.268	4.85
347.639	5.01
348.009	4.74
348.38	4.41
348.75	5.06
349.12	4.4
349.49	4.53
349.861	4.65
350.231	4.56
350.601	4.88
350.971	4.87
351.341	4.86
351.711	4.93
352.081	4.75
352.45	4.49
352.82	5.02
353.19	4.68
353.56	4.84
353.929	4.65
354.299	4.55
354.669	4.82
355.038	4.77
355.408	4.73
355.777	4.76
356.147	4.92
356.516	4.76
356.885	5.28
357.254	5.04
357.624	4.75
357.993	4.78
358.362	4.9
358.731	4.83
359.1	4.88
359.469	4.78
359.838	4.98
360.207	4.93
360.576	5.14
360.945	4.77
361.314	5.05
361.682	4.75
362.051	4.53
362.42	4.9
362.788	4.84
363.157	4.73
363.525	4.7
363.894	4.86
364.262	4.8
364.631	4.73
364.999	4.96
365.367	4.61
365.735	5.09
366.104	4.93
366.472	4.96
366.84	4.89
367.208	4.58
367.576	5
367.944	4.63
368.312	4.98
368.68	4.86
369.048	4.62
369.416	4.72
369.783	4.93
370.151	5.13
370.519	5.35
370.886	4.89
371.254	4.52
371.621	4.96
371.989	4.56
372.356	4.82
372.724	5.03
373.091	4.81
373.458	4.99
373.826	5.06
374.193	4.89
374.56	5.14
374.927	5.09
375.294	5.1
375.661	4.84
376.028	4.72
376.395	4.56
376.762	5.18
377.129	5.01
377.496	4.63
377.863	5.15
378.229	4.85
378.596	4.77
378.963	4.66
379.329	5.09
379.696	4.76
380.062	4.83
380.429	4.99
380.795	4.99
381.161	5.05
381.528	5.08
381.894	5.06
382.26	4.75
382.626	5.16
382.993	5.02
383.359	5
383.725	4.8
384.091	5.23
384.457	5.02
384.823	4.92
385.188	4.99
385.554	4.89
385.92	4.79
386.286	4.72
386.651	5.34
387.017	4.87
387.383	5.11
387.748	4.88
388.114	4.96
388.479	4.87
388.845	5.1
389.21	5.07
389.575	5.32
389.94	4.99
390.306	4.87
390.671	4.66
391.036	5.07
391.401	5.07
391.766	4.92
392.131	5
392.496	4.9
392.861	5.17
393.226	5.07
393.591	5.16
393.956	4.75
394.32	4.85
394.685	5.02
395.05	4.8
395.414	5.2
395.779	4.79
396.143	5.36
396.508	4.93
396.872	4.89
397.236	5.15
397.601	5.24
397.965	5.26
398.329	4.72
398.694	5.02
399.058	5.18
399.422	5.01
399.786	5.13
400.15	5.09
400.514	5.29
400.878	5.17
401.242	5.11
401.605	4.92
401.969	4.92
402.333	5.08
402.697	5.05
403.06	5.25
403.424	5.07
403.787	4.91
404.151	4.92
404.514	5
404.878	5.1
405.241	5.03
405.604	5.18
405.968	5.05
406.331	5.21
406.694	5.11
407.057	4.98
407.42	4.99
407.783	5.1
408.146	5.19
408.509	5.28
408.872	5.08
409.235	5.14
409.598	5.25
409.961	5.33
410.323	5.11
410.686	5.1
411.049	5.07
411.411	5.22
411.774	5
412.136	5.13
412.499	5.17
412.861	5.34
413.223	5.15
413.586	5.23
413.948	5.23
414.31	5.27
414.672	5.43
415.035	5.02
415.397	5.19
415.759	5.27
416.121	5.11
416.483	5.17
416.845	5.18
417.206	5.24
417.568	5.23
417.93	5.36
418.292	5.35
418.653	5.24
419.015	5.24
419.377	5.12
419.738	5.17
420.1	5
420.461	5.12
420.822	5.14
421.184	5.25
421.545	5.18
421.906	5.12
422.267	5.17
422.629	5.03
422.99	5.08
423.351	5.04
423.712	5.14
424.073	5.21
424.434	5.11
424.795	5.02
425.155	5.19
425.516	5.17
425.877	5.15
426.238	5.2
426.598	5.09
426.959	5.13
427.32	5.08
427.68	5.2
428.041	5.31
428.401	5.36
428.761	5.35
429.122	5.27
429.482	5.19
429.842	5.59
430.202	5.45
430.563	5.38
430.923	5.47
431.283	5.44
431.643	5.43
432.003	5.38
432.363	5.23
432.722	5.28
433.082	5.49
433.442	5.38
433.802	5.05
434.161	5.5
434.521	5.26
434.881	5.25
435.24	5.44
435.6	5.19
435.959	5.27
436.319	5.49
436.678	5.41
437.037	5.39
437.396	5.33
437.756	5.35
438.115	5.47
438.474	5.36
438.833	5.37
439.192	5.28
439.551	5.34
439.91	5.31
440.269	5.43
440.628	5.32
440.987	5.29
441.345	5.24
441.704	5.35
442.063	5.41
442.421	5.28
442.78	5.26
443.138	5.33
443.497	5.35
443.855	5.45
444.214	5.51
444.572	5.53
444.93	5.48
445.288	5.41
445.647	5.26
446.005	5.34
446.363	5.39
446.721	5.32
447.079	5.25
447.437	5.37
447.795	5.22
448.153	5.4
448.51	5.2
448.868	5.27
449.226	5.31
449.584	5.46
449.941	5.38
450.299	5.57
450.656	5.5
451.014	5.38
451.371	5.59
451.729	5.61
452.086	5.55
452.443	5.54
452.801	5.63
453.158	5.42
453.515	5.52
453.872	5.59
454.229	5.38
454.586	5.4
454.943	5.53
455.3	5.55
455.657	5.33
456.014	5.46
456.371	5.56
456.727	5.73
457.084	5.55
457.441	5.55
457.797	5.55
458.154	5.58
458.51	5.62
458.867	5.53
459.223	5.71
459.58	5.67
459.936	5.73
460.292	5.59
460.648	5.53
461.005	5.47
461.361	5.6
461.717	5.42
462.073	5.55
462.429	5.45
462.785	5.56
463.141	5.53
463.496	5.66
463.852	5.71
464.208	5.68
464.564	5.65
464.919	5.64
465.275	5.6
465.631	5.63
465.986	5.7
466.342	5.8
466.697	5.63
467.052	5.64
467.408	5.61
467.763	5.71
468.118	5.81
468.473	5.89
468.829	5.77
469.184	5.55
469.539	5.81
469.894	5.84
470.249	5.7
470.603	5.9
470.958	5.72
471.313	5.78
471.668	5.84
472.023	5.77
472.377	5.76
472.732	5.81
473.086	5.85
473.441	5.7
473.795	5.8
474.15	5.85
474.504	5.88
474.859	5.57
475.213	5.74
475.567	5.75
475.921	5.8
476.275	5.91
476.63	5.92
476.984	5.88
477.338	5.97
477.692	5.86
478.045	5.8
478.399	5.79
478.753	5.85
479.107	5.78
479.461	5.93
479.814	5.86
480.168	5.94
480.521	5.68
480.875	5.88
481.228	5.81
481.582	6.01
481.935	5.79
482.289	5.86
482.642	5.9
482.995	5.88
483.348	5.95
483.701	5.75
484.055	5.77
484.408	5.72
484.761	5.72
485.114	5.6
485.466	5.5
485.819	5.46
486.172	5.51
486.525	5.59
486.878	5.67
487.23	5.72
487.583	5.82
487.936	5.77
488.288	5.74
488.641	5.67
488.993	5.72
489.345	5.71
489.698	5.66
490.05	5.65
490.402	5.74
490.754	5.79
491.107	5.84
491.459	5.85
491.811	6.04
492.163	6.02
492.515	5.91
492.866	5.94
493.218	5.75
493.57	5.72
493.922	5.76
494.274	5.82
494.625	5.89
494.977	6
495.328	6.22
495.68	6.1
496.031	6.23
496.383	5.97
496.734	6.03
497.086	6.07
497.437	6.28
497.788	6.13
498.139	6.01
498.49	6.11
498.842	6
499.193	6.08
499.544	6.04
499.894	6.12
500.245	6.14
500.596	6.13
500.947	6.24
501.298	6.28
501.648	6.22
501.999	6.24
502.35	6.3
502.7	6.33
503.051	6.26
503.401	6.37
503.752	6.29
504.102	6.3
504.452	6.25
504.803	6.28
505.153	6.25
505.503	6.3
505.853	6.23
506.203	6.19
506.553	6.3
506.903	6.32
507.253	6.33
507.603	6.54
507.953	6.4
508.303	6.34
508.652	6.34
509.002	6.31
509.352	6.37
509.701	6.38
510.051	6.31
510.4	6.25
510.75	6.39
511.099	6.31
511.449	6.27
511.798	6.3
512.147	6.47
512.496	6.44
512.846	6.44
513.195	6.42
513.544	6.49
513.893	6.55
514.242	6.55
514.591	6.49
514.939	6.55
515.288	6.54
515.637	6.58
515.986	6.61
516.334	6.8
516.683	6.59
517.032	6.6
517.38	6.69
517.729	6.56
518.077	6.72
518.426	6.71
518.774	6.57
519.122	6.51
519.47	6.79
519.819	6.59
520.167	6.56
520.515	6.57
520.863	6.62
521.211	6.67
521.559	6.7
521.907	6.69
522.255	6.7
522.602	6.85
522.95	6.76
523.298	6.89
523.645	6.83
523.993	6.87
524.341	6.88
524.688	6.85
525.036	6.86
525.383	7.03
525.73	6.78
526.078	7.1
526.425	6.84
526.772	6.77
527.119	6.76
527.466	6.77
527.814	6.74
528.161	6.8
528.508	6.84
528.854	6.97
529.201	6.98
529.548	6.82
529.895	6.77
530.242	6.62
530.588	6.58
530.935	6.66
531.282	6.77
531.628	6.8
531.975	6.85
532.321	6.97
532.667	6.96
533.014	7.08
533.36	7.05
533.706	7.12
534.052	7.09
534.399	7.09
534.745	6.97
535.091	6.9
535.437	6.91
535.783	7.02
536.129	7.06
536.474	7.17
536.82	7.14
537.166	7.32
537.512	7.36
537.857	7.3
538.203	7.28
538.549	7.15
538.894	7.16
539.239	7.26
539.585	7.35
539.93	7.36
540.276	7.39
540.621	7.42
540.966	7.59
541.311	7.39
541.656	7.45
542.001	7.41
542.346	7.53
542.691	7.34
543.036	7.27
543.381	7.2
543.726	7.23
544.071	7.35
544.415	7.42
544.76	7.45
545.105	7.48
545.449	7.53
545.794	7.58
546.138	7.69
546.483	7.77
546.827	7.67
547.171	7.69
547.516	7.67
547.86	7.74
548.204	7.73
548.548	7.7
548.892	7.74
549.236	7.76
549.58	7.91
549.924	7.94
550.268	7.94
550.612	7.83
550.956	8.03
551.3	8.14
551.643	7.95
551.987	8.17
552.33	8.22
552.674	8.25
553.017	8.23
553.361	8.11
553.704	8.26
554.048	8.1
554.391	8.13
554.734	8.18
555.077	8.19
555.42	8.32
555.764	8.42
556.107	8.46
556.45	8.48
556.793	8.44
557.135	8.41
557.478	8.44
557.821	8.41
558.164	8.45
558.507	8.49
558.849	8.47
559.192	8.52
559.534	8.68
559.877	8.56
560.219	8.59
560.562	8.76
560.904	8.61
561.246	8.71
561.589	8.82
561.931	8.6
562.273	8.86
562.615	8.96
562.957	8.78
563.299	8.8
563.641	8.88
563.983	8.98
564.325	9.03
564.667	8.98
565.008	9.1
565.35	8.95
565.692	8.97
566.033	8.83
566.375	8.97
566.716	8.94
567.058	9.05
567.399	8.96
567.741	9.06
568.082	9
568.423	9.05
568.764	9.07
569.105	9.19
569.447	9.19
569.788	9.38
570.129	9.24
570.47	9.34
570.811	9.21
571.151	9.46
571.492	9.61
571.833	9.58
572.174	9.38
572.514	9.68
572.855	9.43
573.195	9.42
573.536	9.26
573.876	9.52
574.217	9.58
574.557	9.57
574.898	9.61
575.238	9.78
575.578	9.64
575.918	9.73
576.258	9.86
576.598	9.98
576.938	9.76
577.278	9.66
577.618	9.8
577.958	9.81
578.298	9.99
578.638	10.12
578.977	9.81
579.317	9.97
579.657	10.23
579.996	9.95
580.336	10.16
580.675	10.19
581.014	10.15
581.354	10.15
581.693	10.34
582.032	10.46
582.372	10.37
582.711	10.23
583.05	10.3
583.389	10.32
583.728	10.66
584.067	10.71
584.406	10.4
584.745	10.59
585.083	10.45
585.422	10.6
585.761	10.41
586.1	10.96
586.438	10.72
586.777	10.77
587.115	10.85
587.454	10.91
587.792	10.75
588.13	11.05
588.469	10.81
588.807	10.94
589.145	11.1
589.483	11.05
589.821	10.99
590.159	11.12
590.497	11.13
590.835	11.38
591.173	10.98
591.511	11.05
591.849	11.21
592.187	11.14
592.524	11.23
592.862	11.11
593.2	11.14
593.537	11.2
593.875	11.15
594.212	11.39
594.55	11.5
594.887	11.35
595.224	11.36
595.561	11.31
595.899	11.45
596.236	11.5
596.573	11.45
596.91	11.57
597.247	11.71
597.584	11.58
597.921	11.76
598.258	11.91
598.594	11.6
598.931	11.61
599.268	11.74
599.604	11.86
599.941	11.84
600.277	11.92
600.614	11.91
600.95	12.01
601.287	12.15
601.623	12.14
601.959	12.33
602.296	12.29
602.632	12.32
602.968	12.4
603.304	12.42
603.64	12.01
603.976	12.42
604.312	12.54
604.648	12.36
604.984	12.41
605.319	12.5
605.655	12.55
605.991	12.4
606.326	12.39
606.662	12.47
606.998	12.43
607.333	12.59
607.668	12.6
608.004	12.68
608.339	12.73
608.674	12.63
609.01	12.91
609.345	13.13
609.68	13
610.015	13.07
610.35	13.02
610.685	12.94
611.02	13.11
611.355	13.2
611.689	12.88
612.024	12.99
612.359	13.26
612.694	12.96
613.028	13.18
613.363	13.21
613.697	13.65
614.032	13.39
614.366	13.49
614.7	13.68
615.035	13.37
615.369	13.6
615.703	13.63
616.037	13.71
616.371	13.62
616.705	13.66
617.039	13.55
617.373	13.81
617.707	14.09
618.041	13.99
618.375	13.81
618.709	14.19
619.042	13.97
619.376	13.97
619.71	13.82
620.043	14.51
620.377	14.39
620.71	13.95
621.043	13.95
621.377	14.04
621.71	14.27
622.043	14.4
622.376	14.25
622.709	14.49
623.043	13.96
623.376	14.44
623.709	14.65
624.041	14.67
624.374	14.37
624.707	14.2
625.04	15.07
625.373	14.46
625.705	14.49
626.038	14.9
626.37	15.1
626.703	15.08
627.035	14.64
627.368	14.85
627.7	14.82
628.032	14.84
628.365	15.16
628.697	14.93
629.029	14.95
629.361	14.74
629.693	14.74
630.025	15.1
630.357	15.29
630.689	15.21
631.021	15.15
631.353	15.06
631.684	15.35
632.016	15
632.348	15.6
632.679	15.13
633.011	15.77
633.342	15.71
633.674	15.29
634.005	15.67
634.336	15.92
634.668	15.69
634.999	15.64
635.33	16.3
635.661	15.73
635.992	15.88
636.323	15.88
636.654	15.87
636.985	16.12
637.316	16.05
637.647	16.09
637.977	16.17
638.308	16.03
638.639	16.53
638.969	16.13
639.3	16.28
639.63	16.32
639.961	16.4
640.291	16.28
640.622	16.54
640.952	16.72
641.282	16.42
641.612	16.53
641.943	16.77
642.273	16.87
642.603	17
642.933	16.71
643.263	17.1
643.592	17.38
643.922	17.42
644.252	16.83
644.582	17.28
644.911	17.07
645.241	17.3
645.571	17.73
645.9	17.09
646.23	16.95
646.559	16.56
646.888	17.21
647.218	17.33
647.547	17.18
647.876	17.58
648.205	16.94
648.534	17.47
648.863	17.34
649.192	17.33
649.521	17.36
649.85	17.44
650.179	17.69
650.508	17.6
650.837	17.56
651.165	17.68
651.494	17.82
651.822	17.57
652.151	17.86
652.479	17.81
652.808	17.47
653.136	17.8
653.465	18.26
653.793	17.93
654.121	18.28
654.449	18.07
654.777	18.26
655.105	17.99
655.433	18.26
655.761	18.27
656.089	18.77
656.417	18.25
656.745	18.58
657.073	18.72
657.4	18.49
657.728	18.66
658.056	18.79
658.383	18.73
658.711	18.4
659.038	18.3
659.365	18.32
659.693	19.19
660.02	19.05
660.347	18.86
660.674	18.41
661.001	18.84
661.329	19.04
661.656	18.84
661.982	18.88
662.309	19.01
662.636	18.83
662.963	19.26
663.29	18.95
663.616	19.12
663.943	19.29
664.27	19.44
664.596	18.99
664.923	19.65
665.249	19.76
665.576	19.2
665.902	19.26
666.228	19.14
666.554	20.26
666.881	20.14
667.207	19.59
667.533	19.97
667.859	19.51
668.185	19.73
668.511	19.5
668.837	19.31
669.162	19.99
669.488	19.89
669.814	20.07
670.139	20.31
670.465	20.03
670.791	20.1
671.116	20.43
671.442	20.19
671.767	20.31
672.092	20.15
672.418	20.37
672.743	20.7
673.068	20.62
673.393	20.58
673.718	20.21
674.043	20.58
674.368	20.51
674.693	21.13
675.018	21.17
675.343	20.12
675.667	20.39
675.992	20.89
676.317	21.38
676.641	20.78
676.966	20.99
677.29	20.69
677.615	21.48
677.939	21.45
678.264	20.75
678.588	21.38
678.912	21.19
679.236	21.29
679.56	20.54
679.885	20.91
680.209	21.24
680.532	21.71
680.856	21.58
681.18	21.42
681.504	21.35
681.828	21.53
682.152	21.58
682.475	21.37
682.799	22.21
683.122	22.1
683.446	21.77
683.769	22.26
684.093	22.09
684.416	21.72
684.739	21.99
685.062	22.19
685.386	21.74
