Data from 0385_forehead_Reflection__4__245.txt Node

Date: Tue Dec 12 20:25:31 CST 2023
User: ToomeyLab
Spectrometer: FLMS14357
Trigger mode: 0
Integration Time (sec): 1.000000E-2
Scans to average: 100
Electric dark correction enabled: true
Nonlinearity correction enabled: false
Boxcar width: 0
XAxis mode: Wavelengths
Number of Pixels in Spectrum: 2048
>>>>>Begin Spectral Data<<<<<
189.047	-81.82
189.435	-81.82
189.823	-81.82
190.211	54.58
190.599	-119.05
190.987	144.16
191.375	1294.77
191.763	-21.8
192.151	55.77
192.538	-526.42
192.926	888.96
193.314	-197.19
193.702	115.21
194.089	1458.7
194.477	-26.82
194.864	495.63
195.252	-232.46
195.639	76.93
196.027	-13.38
196.414	144.39
196.801	78.44
197.189	55.82
197.576	117.74
197.963	17.46
198.351	-10.28
198.738	21.24
199.125	-16.48
199.512	-35.02
199.899	-3.87
200.286	-18.17
200.673	-21.35
201.06	5.97
201.447	-218.1
201.833	-49.17
202.22	-10.48
202.607	-5580
202.994	55.95
203.38	18.99
203.767	58.22
204.154	-11.53
204.54	66.42
204.927	0.2
205.313	40.79
205.699	-31.51
206.086	-47.18
206.472	19.19
206.858	91.37
207.245	-0.79
207.631	-21.94
208.017	53.63
208.403	24.86
208.789	24.46
209.175	-35.55
209.561	42.64
209.947	-64.98
210.333	32.56
210.719	-24.23
211.105	-23.58
211.491	37.33
211.876	54.93
212.262	28.97
212.648	-68.07
213.034	-51.71
213.419	4.79
213.805	-11.13
214.19	32.18
214.576	12.93
214.961	16.12
215.346	15.99
215.732	39.2
216.117	12.91
216.502	-7.48
216.888	-8.61
217.273	-7.48
217.658	-10.47
218.043	13.13
218.428	10.08
218.813	7.33
219.198	-28.35
219.583	-25.03
219.968	24.28
220.353	-33.18
220.738	14.71
221.122	-0.17
221.507	-13.84
221.892	-7.51
222.276	7.18
222.661	-0.78
223.046	13.49
223.43	17.26
223.815	-11.36
224.199	11.04
224.583	3.28
224.968	8.24
225.352	-3.24
225.736	-1.64
226.121	8.23
226.505	0.41
226.889	1.67
227.273	9.47
227.657	4.46
228.041	9.42
228.425	7.4
228.809	6.34
229.193	2.84
229.577	4.22
229.961	3.28
230.344	5.32
230.728	6.03
231.112	5.27
231.495	5.71
231.879	6.43
232.263	4.97
232.646	4.52
233.03	6.67
233.413	4.44
233.797	3.18
234.18	2.45
234.563	3.87
234.946	8.39
235.33	6.89
235.713	5.07
236.096	2.85
236.479	4.56
236.862	5.03
237.245	5.09
237.628	5.47
238.011	5.37
238.394	4.34
238.777	4.27
239.16	6.12
239.543	6.24
239.925	2.72
240.308	7.88
240.691	4.78
241.073	5.13
241.456	6.64
241.838	6.07
242.221	5.98
242.603	4.66
242.986	4.09
243.368	5.79
243.75	5.31
244.133	5.2
244.515	5.26
244.897	5.87
245.279	6.18
245.661	5.78
246.043	4.37
246.425	6.31
246.807	4.2
247.189	5.29
247.571	5.34
247.953	5.18
248.335	5.47
248.717	5.38
249.098	5.58
249.48	5.19
249.862	5.38
250.243	5.06
250.625	5.46
251.006	5.58
251.388	5.09
251.769	6.02
252.151	4.09
252.532	6.34
252.913	5.72
253.295	5.49
253.676	5.14
254.057	4.97
254.438	5.99
254.819	6.08
255.2	4.66
255.581	5.83
255.962	4.73
256.343	4.85
256.724	6.59
257.105	5.5
257.486	4.32
257.867	3.83
258.247	4.09
258.628	4.96
259.009	4.35
259.389	5.36
259.77	4.68
260.15	5.09
260.531	5.7
260.911	5.55
261.292	4.98
261.672	5.04
262.052	5.32
262.432	5.46
262.813	5.64
263.193	5.68
263.573	5.41
263.953	6.12
264.333	6.26
264.713	5.53
265.093	5.65
265.473	6.21
265.853	3.83
266.233	4.98
266.612	4.68
266.992	5.06
267.372	5.5
267.752	6.25
268.131	4.82
268.511	4.91
268.89	4.89
269.27	4.58
269.649	5.61
270.029	5.55
270.408	5.85
270.787	4.65
271.167	5.6
271.546	5.53
271.925	6.11
272.304	6.12
272.683	5.03
273.062	4.92
273.441	5.32
273.82	4.88
274.199	5.52
274.578	5.11
274.957	5.03
275.336	5.74
275.715	5.51
276.093	4.9
276.472	5.93
276.851	6.29
277.229	5.09
277.608	4.87
277.986	5.02
278.365	4.94
278.743	5.11
279.122	5.76
279.5	4.71
279.878	4.37
280.257	4.99
280.635	5.02
281.013	4.89
281.391	5.83
281.769	5.29
282.147	5.18
282.525	5
282.903	4.88
283.281	5.04
283.659	4.96
284.037	5.57
284.415	5.33
284.792	5.52
285.17	5.28
285.548	5.19
285.925	5.53
286.303	5
286.68	5.39
287.058	5.33
287.435	5.24
287.813	5.01
288.19	5.35
288.567	4.89
288.945	5.44
289.322	5.04
289.699	5.5
290.076	5.52
290.453	5.92
290.83	5.23
291.207	6.07
291.584	5.72
291.961	5.64
292.338	5.8
292.715	5.83
293.092	5.44
293.469	5.26
293.845	6.01
294.222	5.93
294.599	6.48
294.975	5.9
295.352	6.81
295.728	6.61
296.105	5.92
296.481	6.34
296.858	6.28
297.234	7.1
297.61	6.49
297.986	6.5
298.363	6.5
298.739	6.45
299.115	6.47
299.491	6.5
299.867	6.73
300.243	6.61
300.619	6.64
300.995	6.65
301.371	7.08
301.746	7.37
302.122	7.8
302.498	7.25
302.874	7.72
303.249	7.69
303.625	6.81
304	7.37
304.376	7.53
304.751	7.46
305.127	7.59
305.502	8.32
305.878	7.13
306.253	7.5
306.628	7.86
307.003	7.7
307.378	7.58
307.754	7.75
308.129	8.37
308.504	8.71
308.879	7.94
309.254	8.36
309.629	8.19
310.003	8.7
310.378	8.65
310.753	8.61
311.128	9
311.502	8.06
311.877	8.54
312.252	8.43
312.626	8.63
313.001	8.42
313.375	8.34
313.75	9.07
314.124	8.95
314.498	9.31
314.873	9.18
315.247	9.32
315.621	9.34
315.995	9.49
316.369	9.74
316.743	9.3
317.117	9.35
317.491	9.62
317.865	10.07
318.239	9.43
318.613	10.04
318.987	10.7
319.361	9.45
319.734	9.63
320.108	10.45
320.482	10.44
320.855	9.72
321.229	10.52
321.602	10.42
321.976	11.2
322.349	10.93
322.723	10.16
323.096	10.35
323.469	10.79
323.843	11.31
324.216	10.73
324.589	11.11
324.962	11.19
325.335	11.19
325.708	11.21
326.081	11.23
326.454	10.68
326.827	11.64
327.2	11.78
327.573	10.89
327.945	11.13
328.318	11.73
328.691	10.74
329.063	11.6
329.436	11.57
329.809	11.43
330.181	11.65
330.553	11.92
330.926	11.92
331.298	12.09
331.671	11.76
332.043	12.35
332.415	12.14
332.787	12.31
333.159	12.05
333.532	12.59
333.904	12.56
334.276	12.09
334.648	12.43
335.02	11.88
335.391	12.26
335.763	12.12
336.135	12.44
336.507	12.45
336.879	12.36
337.25	12.18
337.622	12.46
337.993	12.46
338.365	12.49
338.736	12.86
339.108	12.56
339.479	13.39
339.851	12.73
340.222	12.74
340.593	12.7
340.964	13.19
341.336	13.56
341.707	13.12
342.078	12.82
342.449	13.04
342.82	13.75
343.191	13.68
343.562	13.58
343.933	14.14
344.303	13.72
344.674	13.82
345.045	13.48
345.416	13.96
345.786	13.81
346.157	13.68
346.527	14.21
346.898	14
347.268	13.9
347.639	14.23
348.009	13.79
348.38	13.67
348.75	14.57
349.12	14.24
349.49	13.89
349.861	14.4
350.231	14.42
350.601	14.57
350.971	14.08
351.341	14.57
351.711	14.77
352.081	14.73
352.45	14.86
352.82	14.78
353.19	14.64
353.56	14.81
353.929	14.68
354.299	14.99
354.669	15.02
355.038	14.79
355.408	14.95
355.777	15.14
356.147	14.96
356.516	15.04
356.885	15.27
357.254	15.27
357.624	14.95
357.993	15.28
358.362	15.26
358.731	15.59
359.1	15.36
359.469	15.62
359.838	15.49
360.207	15.62
360.576	15.36
360.945	15.63
361.314	15.5
361.682	16.09
362.051	16.26
362.42	15.96
362.788	15.81
363.157	16.04
363.525	15.77
363.894	15.87
364.262	15.75
364.631	15.73
364.999	16.26
365.367	16.84
365.735	16.56
366.104	16.29
366.472	16.59
366.84	16.36
367.208	16.51
367.576	16.58
367.944	16.97
368.312	16.52
368.68	16.72
369.048	16.6
369.416	16.68
369.783	16.84
370.151	17.22
370.519	16.87
370.886	17.09
371.254	17.09
371.621	17.29
371.989	16.88
372.356	17.4
372.724	17.08
373.091	17.07
373.458	17.12
373.826	17.2
374.193	17.33
374.56	17.93
374.927	17.52
375.294	17.51
375.661	17.8
376.028	17.89
376.395	17.84
376.762	18.29
377.129	17.73
377.496	17.72
377.863	17.75
378.229	17.73
378.596	17.98
378.963	17.87
379.329	17.72
379.696	18
380.062	18.29
380.429	17.94
380.795	18.46
381.161	18.6
381.528	18.39
381.894	18.54
382.26	18.51
382.626	18.74
382.993	18.92
383.359	18.6
383.725	18.32
384.091	18.85
384.457	19.15
384.823	18.97
385.188	18.73
385.554	18.58
385.92	18.91
386.286	19.26
386.651	19.39
387.017	19.13
387.383	19.12
387.748	19.08
388.114	19.36
388.479	19.3
388.845	19.21
389.21	19.05
389.575	19.2
389.94	19.66
390.306	19.18
390.671	19.62
391.036	19.78
391.401	19.44
391.766	19.88
392.131	19.81
392.496	19.75
392.861	19.49
393.226	19.71
393.591	19.92
393.956	20.03
394.32	19.78
394.685	20
395.05	20.03
395.414	20.08
395.779	19.99
396.143	20.14
396.508	19.98
396.872	20.31
397.236	20.34
397.601	20.26
397.965	20.34
398.329	20.37
398.694	20.55
399.058	20.58
399.422	20.54
399.786	20.46
400.15	20.76
400.514	20.94
400.878	20.85
401.242	20.76
401.605	20.98
401.969	20.9
402.333	20.95
402.697	20.83
403.06	20.79
403.424	21.13
403.787	20.87
404.151	21.26
404.514	21.36
404.878	20.97
405.241	21.35
405.604	21.12
405.968	21.28
406.331	21.4
406.694	21.82
407.057	21.44
407.42	21.42
407.783	21.44
408.146	21.55
408.509	21.88
408.872	21.66
409.235	21.77
409.598	21.73
409.961	21.9
410.323	22.05
410.686	22.08
411.049	22
411.411	22.3
411.774	21.99
412.136	22.35
412.499	22.38
412.861	22.4
413.223	22.51
413.586	22.21
413.948	22.38
414.31	22.63
414.672	22.59
415.035	22.6
415.397	22.63
415.759	22.76
416.121	22.8
416.483	22.71
416.845	22.61
417.206	22.76
417.568	22.59
417.93	22.83
418.292	22.83
418.653	22.79
419.015	22.84
419.377	22.65
419.738	22.82
420.1	22.79
420.461	22.99
420.822	22.93
421.184	22.82
421.545	23.1
421.906	23.04
422.267	23.13
422.629	23.01
422.99	23.04
423.351	22.97
423.712	23.08
424.073	23.29
424.434	23.25
424.795	23.4
425.155	23.24
425.516	23.36
425.877	23.23
426.238	23.27
426.598	23.46
426.959	23.63
427.32	23.72
427.68	23.5
428.041	23.87
428.401	24
428.761	23.94
429.122	24.06
429.482	24.46
429.842	24.45
430.202	24.43
430.563	24.32
430.923	24.53
431.283	24.47
431.643	24.85
432.003	24.61
432.363	24.54
432.722	24.47
433.082	25.03
433.442	24.68
433.802	25.11
434.161	24.75
434.521	24.87
434.881	24.83
435.24	24.81
435.6	24.81
435.959	25.02
436.319	25.19
436.678	25.11
437.037	25.36
437.396	25.31
437.756	25.44
438.115	25.55
438.474	25.37
438.833	25.49
439.192	25.61
439.551	25.58
439.91	25.59
440.269	25.57
440.628	25.8
440.987	25.5
441.345	25.67
441.704	25.62
442.063	25.78
442.421	25.64
442.78	25.47
443.138	25.77
443.497	25.78
443.855	25.94
444.214	26.17
444.572	26.29
444.93	26.02
445.288	26.06
445.647	26.25
446.005	26.3
446.363	26.31
446.721	26.25
447.079	26.42
447.437	26.25
447.795	26.41
448.153	26.16
448.51	26.17
448.868	26.31
449.226	26.35
449.584	26.45
449.941	26.48
450.299	26.56
450.656	26.51
451.014	26.91
451.371	27.06
451.729	27.07
452.086	26.98
452.443	27.21
452.801	27.02
453.158	27.21
453.515	27.6
453.872	27.26
454.229	27.61
454.586	27.49
454.943	27.52
455.3	27.35
455.657	27.53
456.014	27.79
456.371	27.69
456.727	28.12
457.084	27.66
457.441	27.77
457.797	28.08
458.154	28.02
458.51	28.19
458.867	28.02
459.223	28.24
459.58	28.19
459.936	28.16
460.292	28.28
460.648	28.13
461.005	28.07
461.361	27.98
461.717	27.93
462.073	28.02
462.429	28.08
462.785	28.09
463.141	28.28
463.496	28.26
463.852	28.93
464.208	28.55
464.564	28.84
464.919	29.02
465.275	29.01
465.631	29.08
465.986	29.22
466.342	29.01
466.697	29.09
467.052	29.29
467.408	29.38
467.763	29.32
468.118	29.4
468.473	29.29
468.829	29.47
469.184	29.3
469.539	29.4
469.894	29.7
470.249	29.7
470.603	29.54
470.958	29.74
471.313	29.85
471.668	29.85
472.023	29.9
472.377	30.02
472.732	30.07
473.086	29.98
473.441	30.17
473.795	30.05
474.15	30.16
474.504	30.08
474.859	29.99
475.213	30.22
475.567	30.22
475.921	30.32
476.275	30.25
476.63	30.53
476.984	30.59
477.338	30.31
477.692	30.83
478.045	30.63
478.399	30.47
478.753	30.49
479.107	30.45
479.461	30.58
479.814	30.72
480.168	30.39
480.521	30.44
480.875	30.69
481.228	30.87
481.582	30.69
481.935	31.06
482.289	30.81
482.642	31.02
482.995	30.84
483.348	30.76
483.701	30.95
484.055	30.87
484.408	30.76
484.761	30.62
485.114	30.28
485.466	29.99
485.819	30.01
486.172	30.09
486.525	30.25
486.878	30.43
487.23	30.54
487.583	30.7
487.936	30.92
488.288	30.93
488.641	30.95
488.993	30.77
489.345	30.73
489.698	30.71
490.05	30.79
490.402	30.93
490.754	31.14
491.107	31.23
491.459	31.42
491.811	31.61
492.163	31.79
492.515	31.93
492.866	31.68
493.218	31.24
493.57	31.23
493.922	31.31
494.274	31.75
494.625	31.81
494.977	32.12
495.328	32.14
495.68	32.36
496.031	32.7
496.383	32.72
496.734	32.84
497.086	32.61
497.437	32.96
497.788	33
498.139	33.08
498.49	33.02
498.842	32.75
499.193	33.05
499.544	33.29
499.894	33.15
500.245	33.16
500.596	33.4
500.947	33.25
501.298	33.59
501.648	33.52
501.999	33.48
502.35	33.65
502.7	33.55
503.051	33.68
503.401	33.73
503.752	33.89
504.102	33.75
504.452	33.96
504.803	34.18
505.153	33.98
505.503	34.32
505.853	34.01
506.203	34.05
506.553	34.1
506.903	34.22
507.253	34.15
507.603	34.46
507.953	34.42
508.303	34.5
508.652	34.52
509.002	34.4
509.352	34.33
509.701	34.55
510.051	34.7
510.4	34.42
510.75	34.43
511.099	34.44
511.449	34.45
511.798	34.67
512.147	34.75
512.496	34.8
512.846	34.96
513.195	34.86
513.544	35.1
513.893	34.9
514.242	35.02
514.591	35.01
514.939	35.06
515.288	35.2
515.637	35.08
515.986	35.36
516.334	35.41
516.683	35.45
517.032	35.71
517.38	35.54
517.729	35.85
518.077	35.65
518.426	35.84
518.774	35.72
519.122	35.64
519.47	35.7
519.819	35.77
520.167	35.58
520.515	35.37
520.863	35.57
521.211	35.63
521.559	35.79
521.907	35.75
522.255	36
522.602	36.1
522.95	36.32
523.298	36.47
523.645	36.6
523.993	36.42
524.341	36.61
524.688	36.58
525.036	36.78
525.383	36.77
525.73	36.67
526.078	36.52
526.425	36.59
526.772	36.74
527.119	36.4
527.466	36.32
527.814	36.23
528.161	36.52
528.508	36.6
528.854	36.47
529.201	36.53
529.548	36.67
529.895	36.29
530.242	35.99
530.588	36.04
530.935	36
531.282	36.15
531.628	36.52
531.975	36.55
532.321	36.62
532.667	36.89
533.014	36.97
533.36	37.06
533.706	37.22
534.052	37.34
534.399	37.23
534.745	36.94
535.091	36.97
535.437	36.86
535.783	37.18
536.129	37.28
536.474	37.48
536.82	37.65
537.166	37.65
537.512	37.88
537.857	38.18
538.203	37.88
538.549	37.75
538.894	37.78
539.239	37.92
539.585	38.24
539.93	38.46
540.276	38.46
540.621	38.59
540.966	38.65
541.311	38.73
541.656	38.81
542.001	38.64
542.346	38.66
542.691	38.3
543.036	37.93
543.381	37.9
543.726	38.05
544.071	38.31
544.415	38.47
544.76	38.48
545.105	38.56
545.449	38.72
545.794	39.09
546.138	39.04
546.483	39.31
546.827	39.23
547.171	39.4
547.516	39.5
547.86	39.45
548.204	39.42
548.548	39.59
548.892	39.46
549.236	39.46
549.58	39.85
549.924	39.88
550.268	40.05
550.612	40.04
550.956	40.48
551.3	40.31
551.643	40.4
551.987	40.57
552.33	40.54
552.674	40.68
553.017	40.7
553.361	41.06
553.704	40.75
554.048	41.12
554.391	40.73
554.734	40.74
555.077	40.91
555.42	40.82
555.764	40.89
556.107	41.09
556.45	41.11
556.793	41.13
557.135	41.43
557.478	41.27
557.821	41.29
558.164	41.42
558.507	41.55
558.849	41.46
559.192	41.53
559.534	41.5
559.877	41.77
560.219	41.71
560.562	41.74
560.904	41.93
561.246	41.97
561.589	42.04
561.931	42.24
562.273	42.09
562.615	42.08
562.957	42.14
563.299	42.16
563.641	42.24
563.983	42.39
564.325	42.58
564.667	42.49
565.008	42.2
565.35	42.65
565.692	42.55
566.033	42.67
566.375	42.45
566.716	42.45
567.058	42.61
567.399	42.47
567.741	42.86
568.082	42.53
568.423	42.42
568.764	42.61
569.105	42.66
569.447	42.76
569.788	42.85
570.129	42.96
570.47	43.34
570.811	43.34
571.151	42.89
571.492	43.07
571.833	43.35
572.174	43.22
572.514	43.08
572.855	43.26
573.195	42.85
573.536	43.41
573.876	43.34
574.217	43.32
574.557	43.29
574.898	43.28
575.238	43.69
575.578	43.54
575.918	43.59
576.258	43.75
576.598	43.69
576.938	43.65
577.278	43.78
577.618	43.78
577.958	44
578.298	43.84
578.638	44.08
578.977	44.23
579.317	44.07
579.657	44.13
579.996	44.3
580.336	44.53
580.675	44.68
581.014	44.56
581.354	44.9
581.693	44.49
582.032	44.74
582.372	45.16
582.711	45.14
583.05	44.7
583.389	45.17
583.728	45.05
584.067	45.03
584.406	45.48
584.745	45.56
585.083	45.27
585.422	45.63
585.761	45.42
586.1	45.51
586.438	45.55
586.777	46.01
587.115	45.51
587.454	45.39
587.792	45.35
588.13	46.15
588.469	46.11
588.807	46.04
589.145	45.89
589.483	46.46
589.821	46.23
590.159	46.04
590.497	45.93
590.835	46.28
591.173	45.85
591.511	45.97
591.849	46.11
592.187	45.87
592.524	45.83
592.862	46.13
593.2	46.32
593.537	46.35
593.875	46.57
594.212	46.51
594.55	46.31
594.887	46.59
595.224	46.46
595.561	46.56
595.899	46.89
596.236	46.83
596.573	46.8
596.91	46.64
597.247	46.67
597.584	47.05
597.921	47.05
598.258	47.1
598.594	46.91
598.931	46.61
599.268	46.51
599.604	46.85
599.941	47.04
600.277	47.16
600.614	47.26
600.95	47.15
601.287	46.98
601.623	47.29
601.959	47.28
602.296	47.73
602.632	47.6
602.968	47.66
603.304	47.45
603.64	47.87
603.976	47.53
604.312	47.94
604.648	47.75
604.984	47.85
605.319	47.52
605.655	47.79
605.991	47.91
606.326	47.45
606.662	47.4
606.998	47.37
607.333	47.49
607.668	47.44
608.004	48.12
608.339	48.18
608.674	48.19
609.01	48.73
609.345	48.3
609.68	48.18
610.015	48.6
610.35	48.85
610.685	48.39
611.02	48.18
611.355	48.16
611.689	48.14
612.024	48.24
612.359	48.43
612.694	48.76
613.028	48.67
613.363	48.61
613.697	48.99
614.032	48.5
614.366	48.9
614.7	49.18
615.035	49.27
615.369	49.16
615.703	49.13
616.037	49.12
616.371	49.1
616.705	49.22
617.039	49.02
617.373	49.55
617.707	49.37
618.041	49.67
618.375	49.17
618.709	49.33
619.042	49.54
619.376	49.56
619.71	49.49
620.043	49.85
620.377	49.81
620.71	49.77
621.043	50
621.377	49.89
621.71	50.39
622.043	50.39
622.376	49.79
622.709	50.33
623.043	50.52
623.376	50.37
623.709	50.6
624.041	50.14
624.374	50.19
624.707	50.18
625.04	50.78
625.373	50.48
625.705	50.46
626.038	50.95
626.37	50.34
626.703	50.34
627.035	50.38
627.368	50.85
627.7	50.35
628.032	50.8
628.365	51
628.697	50.4
629.029	50.58
629.361	50.19
629.693	50.63
630.025	50.4
630.357	50.82
630.689	50.84
631.021	51.08
631.353	51.19
631.684	51.6
632.016	51.06
632.348	50.9
632.679	50.76
633.011	51.39
633.342	50.91
633.674	51.38
634.005	51.22
634.336	51.19
634.668	51.25
634.999	51.64
635.33	51.51
635.661	51.58
635.992	51.58
636.323	51.28
636.654	51.17
636.985	52.1
637.316	51.88
637.647	50.89
637.977	51.66
638.308	52
638.639	51.8
638.969	52.17
639.3	52.06
639.63	51.8
639.961	52.03
640.291	51.69
640.622	52.23
640.952	52.13
641.282	51.94
641.612	51.65
641.943	52.27
642.273	52.66
642.603	52.02
642.933	52.71
643.263	51.87
643.592	52.56
643.922	52.48
644.252	52.19
644.582	51.87
644.911	52.59
645.241	52.3
645.571	53.17
645.9	52.75
646.23	52.53
646.559	52.91
646.888	52.69
647.218	53.25
647.547	52.82
647.876	52.68
648.205	52.76
648.534	53.29
648.863	53.12
649.192	53.5
649.521	53.48
649.85	52.47
650.179	53.35
650.508	53.81
650.837	53.08
651.165	52.97
651.494	52.89
651.822	53.18
652.151	53.31
652.479	53.17
652.808	53.12
653.136	53.38
653.465	53.44
653.793	53.18
654.121	53.69
654.449	53.24
654.777	53.82
655.105	53.76
655.433	53.99
655.761	53.03
656.089	53.79
656.417	53.57
656.745	53.03
657.073	53.19
657.4	53.84
657.728	53.77
658.056	54.2
658.383	53.84
658.711	54.2
659.038	54.52
659.365	53.83
659.693	54.1
660.02	53.72
660.347	54.01
660.674	54.15
661.001	54.11
661.329	54.2
661.656	53.96
661.982	53.83
662.309	54.08
662.636	53.9
662.963	54.61
663.29	54.68
663.616	54.72
663.943	54.76
664.27	54.85
664.596	53.55
664.923	55.34
665.249	54.35
665.576	55.17
665.902	54.89
666.228	55.05
666.554	54.37
666.881	54.28
667.207	54.87
667.533	54.83
667.859	54.86
668.185	55.46
668.511	56.06
668.837	55.18
