Data from 0385_chest_Reflection__4__232.txt Node

Date: Tue Dec 12 20:22:02 CST 2023
User: ToomeyLab
Spectrometer: FLMS14357
Trigger mode: 0
Integration Time (sec): 1.000000E-2
Scans to average: 100
Electric dark correction enabled: true
Nonlinearity correction enabled: false
Boxcar width: 0
XAxis mode: Wavelengths
Number of Pixels in Spectrum: 2048
>>>>>Begin Spectral Data<<<<<
189.047	52.28
189.435	52.28
189.823	52.28
190.211	-166.14
190.599	-31.03
190.987	32.36
191.375	-1407.19
191.763	-95.87
192.151	29.59
192.538	-824.53
192.926	722.08
193.314	-425.45
193.702	88.02
194.089	-624.7
194.477	48.47
194.864	-42.12
195.252	-115.22
195.639	307.4
196.027	87.04
196.414	115.93
196.801	1116.77
197.189	57.31
197.576	-33.29
197.963	110.99
198.351	-20.59
198.738	16.09
199.125	22.36
199.512	-31.55
199.899	41.82
200.286	-30.71
200.673	-38.6
201.06	-33.18
201.447	-153.47
201.833	-63.4
202.22	22.4
202.607	-6210.48
202.994	3.02
203.38	-8.35
203.767	-53.25
204.154	-26.72
204.54	11.7
204.927	-47.88
205.313	-11.06
205.699	-15.55
206.086	-48.2
206.472	52.41
206.858	-49.96
207.245	4.67
207.631	-30.17
208.017	7.35
208.403	-40.98
208.789	-15.11
209.175	-52.03
209.561	-6.67
209.947	-16.61
210.333	-4.2
210.719	-64.7
211.105	-52.48
211.491	39.71
211.876	-3.44
212.262	-12.7
212.648	-90.63
213.034	-170.56
213.419	-12.71
213.805	-19.24
214.19	50.78
214.576	36.95
214.961	20.08
215.346	-29.85
215.732	0.37
216.117	-30.16
216.502	-35.66
216.888	-35.91
217.273	-37.67
217.658	-67.15
218.043	-34.21
218.428	5.46
218.813	7.66
219.198	-45.29
219.583	-9.91
219.968	8.84
220.353	-40.78
220.738	-10.61
221.122	-13.69
221.507	-23.5
221.892	-8.96
222.276	0.11
222.661	-15.53
223.046	-13.14
223.43	-2.07
223.815	-12.47
224.199	-1.87
224.583	-5.1
224.968	8.57
225.352	-15.66
225.736	-4.85
226.121	-14.67
226.505	1.31
226.889	-7.32
227.273	5.03
227.657	4.89
228.041	1.02
228.425	0.57
228.809	0.32
229.193	0.06
229.577	2.46
229.961	1.7
230.344	2.12
230.728	3.17
231.112	2.23
231.495	1.43
231.879	2.07
232.263	0.71
232.646	0.51
233.03	3.18
233.413	0.36
233.797	-0.38
234.18	-1.18
234.563	-2.25
234.946	2.17
235.33	3.23
235.713	2.78
236.096	-0.11
236.479	2.44
236.862	1.27
237.245	1.79
237.628	1.32
238.011	2.44
238.394	1.67
238.777	2.72
239.16	3.13
239.543	1.43
239.925	0.51
240.308	0.33
240.691	0.96
241.073	3.15
241.456	2.64
241.838	1.16
242.221	3.24
242.603	2.29
242.986	2.25
243.368	3.21
243.75	2.15
244.133	2.57
244.515	2.37
244.897	2.93
245.279	2.86
245.661	1.58
246.043	1.96
246.425	2.66
246.807	1.89
247.189	1.81
247.571	2.38
247.953	2.14
248.335	2.34
248.717	2.43
249.098	2.46
249.48	2.2
249.862	2.18
250.243	2.02
250.625	3.16
251.006	2.38
251.388	2.45
251.769	1.78
252.151	0.68
252.532	1.5
252.913	2.08
253.295	2.9
253.676	2.67
254.057	2.42
254.438	2.9
254.819	2.17
255.2	2.24
255.581	1.39
255.962	0.71
256.343	2.63
256.724	1.41
257.105	3.34
257.486	1.67
257.867	2.43
258.247	1.59
258.628	2.43
259.009	1.49
259.389	1.85
259.77	2.17
260.15	2.36
260.531	3.12
260.911	2.97
261.292	2.18
261.672	2.32
262.052	2.54
262.432	2.49
262.813	2.88
263.193	2.05
263.573	2.38
263.953	3.53
264.333	2.8
264.713	2.56
265.093	1.73
265.473	2.91
265.853	0.89
266.233	1.73
266.612	1.2
266.992	3.05
267.372	2.67
267.752	3.33
268.131	1.51
268.511	1.87
268.89	1.48
269.27	1.39
269.649	2.16
270.029	1.68
270.408	2.66
270.787	2.28
271.167	1.99
271.546	2.25
271.925	2.73
272.304	2.61
272.683	1.18
273.062	2.16
273.441	2.47
273.82	2.13
274.199	2.16
274.578	2.1
274.957	1.92
275.336	2.04
275.715	2.03
276.093	1.64
276.472	2.97
276.851	3.12
277.229	2.76
277.608	2.22
277.986	1.26
278.365	2.58
278.743	1.61
279.122	2.24
279.5	1.31
279.878	1.64
280.257	1.92
280.635	1.96
281.013	1.63
281.391	2.1
281.769	1.69
282.147	1.96
282.525	1.54
282.903	1.79
283.281	2.2
283.659	1.93
284.037	2.11
284.415	2.06
284.792	2.21
285.17	1.29
285.548	2.17
285.925	1.79
286.303	1.77
286.68	2.22
287.058	2.29
287.435	2.1
287.813	1.74
288.19	2.28
288.567	2.09
288.945	2.54
289.322	1.55
289.699	2.31
290.076	2.21
290.453	2.47
290.83	2.21
291.207	2.22
291.584	1.75
291.961	2.1
292.338	2.15
292.715	2.46
293.092	2.02
293.469	1.91
293.845	2.4
294.222	2.42
294.599	2.55
294.975	2.08
295.352	2.82
295.728	2.54
296.105	2.51
296.481	2.7
296.858	2.02
297.234	2.27
297.61	2.15
297.986	2.63
298.363	2.51
298.739	2.45
299.115	2.03
299.491	2.46
299.867	2.29
300.243	2.13
300.619	2.65
300.995	2.94
301.371	2.83
301.746	1.98
302.122	2.75
302.498	2.52
302.874	2.41
303.249	3
303.625	2.07
304	2.66
304.376	2.46
304.751	2.73
305.127	2.52
305.502	2.81
305.878	2.45
306.253	2.1
306.628	2.08
307.003	2.62
307.378	2.44
307.754	2.69
308.129	2.29
308.504	3.28
308.879	2.84
309.254	3.09
309.629	2.83
310.003	2.72
310.378	3
310.753	2.79
311.128	2.77
311.502	2.3
311.877	2.68
312.252	1.85
312.626	2.53
313.001	2.2
313.375	2.64
313.75	2.67
314.124	2.86
314.498	1.87
314.873	2.23
315.247	2.63
315.621	2.43
315.995	2.89
316.369	2.67
316.743	1.6
317.117	2.04
317.491	2.94
317.865	2.35
318.239	2.91
318.613	2.77
318.987	3.35
319.361	2.32
319.734	2.38
320.108	2.77
320.482	2.67
320.855	2.29
321.229	2.6
321.602	3.48
321.976	2.56
322.349	3.07
322.723	1.9
323.096	2.46
323.469	2.54
323.843	2.91
324.216	3.03
324.589	2.87
324.962	2.99
325.335	3.48
325.708	2.85
326.081	3.14
326.454	3.05
326.827	3.33
327.2	2.98
327.573	2.22
327.945	2.8
328.318	3.32
328.691	2.19
329.063	3.18
329.436	2.68
329.809	2.71
330.181	2.35
330.553	2.36
330.926	2.95
331.298	3.04
331.671	2.69
332.043	3.3
332.415	3.16
332.787	3.13
333.159	3.23
333.532	2.53
333.904	2.57
334.276	3.34
334.648	2.73
335.02	2.83
335.391	2.93
335.763	2.91
336.135	3.35
336.507	3.55
336.879	2.93
337.25	2.94
337.622	2.61
337.993	2.64
338.365	2.64
338.736	2.96
339.108	3.18
339.479	3.06
339.851	2.33
340.222	2.5
340.593	2.98
340.964	2.7
341.336	2.93
341.707	2.72
342.078	2.8
342.449	2.82
342.82	2.94
343.191	2.89
343.562	2.93
343.933	3.11
344.303	2.78
344.674	3.02
345.045	2.74
345.416	2.97
345.786	2.77
346.157	2.71
346.527	3.06
346.898	2.47
347.268	2.6
347.639	3
348.009	3.08
348.38	3.03
348.75	3.21
349.12	3.16
349.49	2.71
349.861	2.65
350.231	2.58
350.601	2.79
350.971	3.28
351.341	2.82
351.711	3.26
352.081	2.83
352.45	2.5
352.82	2.87
353.19	3.13
353.56	2.21
353.929	2.6
354.299	2.44
354.669	2.75
355.038	2.5
355.408	2.55
355.777	3.55
356.147	2.65
356.516	3.21
356.885	2.69
357.254	3.12
357.624	2.63
357.993	2.87
358.362	3.09
358.731	2.94
359.1	2.6
359.469	2.85
359.838	2.8
360.207	2.61
360.576	3.16
360.945	2.67
361.314	2.86
361.682	2.69
362.051	3.1
362.42	3.14
362.788	2.88
363.157	3.26
363.525	2.98
363.894	2.85
364.262	2.89
364.631	2.93
364.999	2.78
365.367	2.97
365.735	2.71
366.104	2.97
366.472	2.46
366.84	2.9
367.208	3.04
367.576	2.74
367.944	3.33
368.312	2.91
368.68	2.84
369.048	2.86
369.416	2.93
369.783	2.74
370.151	3.13
370.519	2.9
370.886	2.93
371.254	3.07
371.621	3.59
371.989	3.07
372.356	3.09
372.724	3.03
373.091	2.83
373.458	3.25
373.826	3.01
374.193	2.75
374.56	3.21
374.927	3.13
375.294	3.05
375.661	3.3
376.028	3.1
376.395	3.46
376.762	3.38
377.129	3.33
377.496	3.16
377.863	3.04
378.229	3.04
378.596	2.68
378.963	3.23
379.329	2.84
379.696	3.12
380.062	3.5
380.429	3.17
380.795	3.05
381.161	3.01
381.528	3.04
381.894	3.14
382.26	3.25
382.626	3.08
382.993	3.23
383.359	2.96
383.725	3.08
384.091	3.31
384.457	2.59
384.823	3.25
385.188	3.08
385.554	3.26
385.92	3.2
386.286	3.23
386.651	3.38
387.017	3.42
387.383	3.1
387.748	2.93
388.114	3.42
388.479	3.26
388.845	3.24
389.21	3.21
389.575	3.02
389.94	3.24
390.306	3.11
390.671	3.13
391.036	3.33
391.401	3.2
391.766	3.09
392.131	3.36
392.496	3.06
392.861	2.85
393.226	3.43
393.591	3.21
393.956	3.09
394.32	3.14
394.685	3.33
395.05	3.28
395.414	3.09
395.779	3.19
396.143	3.38
396.508	3.12
396.872	3.28
397.236	3.26
397.601	3.1
397.965	3.23
398.329	3.5
398.694	3.1
399.058	3.57
399.422	3.27
399.786	3.32
400.15	3.21
400.514	3.59
400.878	3.2
401.242	3.19
401.605	3.27
401.969	3.13
402.333	3.33
402.697	3.1
403.06	2.93
403.424	3.47
403.787	2.98
404.151	3.4
404.514	2.84
404.878	2.98
405.241	3.2
405.604	3.04
405.968	3.21
406.331	3.66
406.694	3.39
407.057	3.22
407.42	3.48
407.783	3.31
408.146	3.22
408.509	3.33
408.872	3.38
409.235	3.31
409.598	3.12
409.961	3.25
410.323	3.28
410.686	3.12
411.049	3.26
411.411	3.42
411.774	3.21
412.136	3.5
412.499	3.33
412.861	3.34
413.223	3.52
413.586	3.3
413.948	3.38
414.31	3.4
414.672	3.39
415.035	3.1
415.397	3.49
415.759	3.48
416.121	3.49
416.483	3.35
416.845	3.12
417.206	3.37
417.568	3.27
417.93	3.54
418.292	3.36
418.653	3.5
419.015	3.37
419.377	3.4
419.738	3.35
420.1	3.29
420.461	3.41
420.822	3.32
421.184	3.32
421.545	3.57
421.906	3.26
422.267	3.38
422.629	3.21
422.99	3.39
423.351	3.33
423.712	3.33
424.073	3.38
424.434	3.31
424.795	3.45
425.155	3.25
425.516	3.31
425.877	3.36
426.238	3.32
426.598	3.33
426.959	3.31
427.32	3.39
427.68	3.32
428.041	3.4
428.401	3.61
428.761	3.47
429.122	3.56
429.482	3.6
429.842	3.43
430.202	3.4
430.563	3.55
430.923	3.48
431.283	3.33
431.643	3.63
432.003	3.33
432.363	3.58
432.722	3.5
433.082	3.61
433.442	3.58
433.802	3.65
434.161	3.5
434.521	3.63
434.881	3.48
435.24	3.42
435.6	3.5
435.959	3.59
436.319	3.64
436.678	3.74
437.037	3.51
437.396	3.45
437.756	3.49
438.115	3.53
438.474	3.38
438.833	3.74
439.192	3.7
439.551	3.66
439.91	3.46
440.269	3.49
440.628	3.42
440.987	3.42
441.345	3.54
441.704	3.58
442.063	3.6
442.421	3.61
442.78	3.58
443.138	3.56
443.497	3.54
443.855	3.58
444.214	3.68
444.572	3.78
444.93	3.74
445.288	3.37
445.647	3.7
446.005	3.59
446.363	3.54
446.721	3.55
447.079	3.53
447.437	3.47
447.795	3.57
448.153	3.57
448.51	3.61
448.868	3.6
449.226	3.61
449.584	3.61
449.941	3.63
450.299	3.65
450.656	3.56
451.014	3.78
451.371	3.66
451.729	3.73
452.086	3.62
452.443	4.01
452.801	3.78
453.158	3.63
453.515	3.67
453.872	3.67
454.229	3.81
454.586	3.53
454.943	3.67
455.3	3.61
455.657	3.7
456.014	3.93
456.371	3.87
456.727	3.77
457.084	3.8
457.441	3.73
457.797	3.79
458.154	3.75
458.51	3.77
458.867	3.95
459.223	3.73
459.58	3.67
459.936	3.7
460.292	3.66
460.648	3.75
461.005	3.7
461.361	3.66
461.717	3.9
462.073	3.73
462.429	3.7
462.785	3.85
463.141	3.69
463.496	3.71
463.852	3.99
464.208	3.83
464.564	4.01
464.919	4.04
465.275	3.8
465.631	3.86
465.986	3.9
466.342	3.79
466.697	3.9
467.052	4.01
467.408	3.84
467.763	3.89
468.118	3.84
468.473	4.15
468.829	3.96
469.184	3.87
469.539	3.99
469.894	3.87
470.249	4.14
470.603	4.1
470.958	3.91
471.313	4.04
471.668	4.26
472.023	4.12
472.377	3.78
472.732	3.95
473.086	4.13
473.441	4.08
473.795	3.8
474.15	4.03
474.504	3.77
474.859	4.2
475.213	3.96
475.567	4.09
475.921	3.98
476.275	3.83
476.63	4.25
476.984	4.01
477.338	3.95
477.692	3.99
478.045	4.26
478.399	3.98
478.753	3.93
479.107	4.05
479.461	3.91
479.814	4.1
480.168	3.98
480.521	3.98
480.875	4.24
481.228	4.09
481.582	4.11
481.935	4.19
482.289	4.12
482.642	4.15
482.995	4.04
483.348	4.08
483.701	4.28
484.055	4.11
484.408	4.04
484.761	4.01
485.114	3.9
485.466	3.81
485.819	3.87
486.172	3.84
486.525	3.9
486.878	3.96
487.23	3.94
487.583	4.01
487.936	4.05
488.288	3.94
488.641	4.02
488.993	3.99
489.345	3.98
489.698	4
490.05	4.05
490.402	4.01
490.754	4.01
491.107	4.08
491.459	4.1
491.811	4.2
492.163	4.19
492.515	4.25
492.866	4.04
493.218	4.07
493.57	4.07
493.922	3.96
494.274	4.11
494.625	4.2
494.977	4.27
495.328	4.32
495.68	4.24
496.031	4.39
496.383	4.26
496.734	4.35
497.086	4.47
497.437	4.42
497.788	4.28
498.139	4.23
498.49	4.38
498.842	4.32
499.193	4.28
499.544	4.38
499.894	4.27
500.245	4.52
500.596	4.37
500.947	4.38
501.298	4.42
501.648	4.44
501.999	4.29
502.35	4.36
502.7	4.37
503.051	4.41
503.401	4.41
503.752	4.5
504.102	4.39
504.452	4.58
504.803	4.41
505.153	4.48
505.503	4.58
505.853	4.6
506.203	4.59
506.553	4.51
506.903	4.47
507.253	4.64
507.603	4.61
507.953	4.6
508.303	4.54
508.652	4.57
509.002	4.68
509.352	4.63
509.701	4.6
510.051	4.72
510.4	4.63
510.75	4.44
511.099	4.59
511.449	4.66
511.798	4.64
512.147	4.7
512.496	4.67
512.846	4.66
513.195	4.58
513.544	4.69
513.893	4.69
514.242	4.66
514.591	4.61
514.939	4.68
515.288	4.71
515.637	4.68
515.986	4.69
516.334	4.82
516.683	4.6
517.032	4.94
517.38	4.65
517.729	4.85
518.077	4.79
518.426	4.9
518.774	4.79
519.122	4.81
519.47	4.73
519.819	4.83
520.167	4.74
520.515	4.68
520.863	4.81
521.211	4.74
521.559	4.82
521.907	4.76
522.255	4.86
522.602	4.92
522.95	4.84
523.298	4.86
523.645	5.06
523.993	4.99
524.341	4.9
524.688	5
525.036	5.08
525.383	5
525.73	4.86
526.078	4.95
526.425	4.92
526.772	4.9
527.119	4.93
527.466	4.92
527.814	4.8
528.161	4.99
528.508	4.96
528.854	5
529.201	4.96
529.548	4.98
529.895	4.93
530.242	4.77
530.588	4.78
530.935	4.8
531.282	4.92
531.628	5
531.975	4.95
532.321	4.99
532.667	4.97
533.014	5.12
533.36	5.05
533.706	5.12
534.052	5.09
534.399	5.16
534.745	5.08
535.091	4.98
535.437	5.05
535.783	5.07
536.129	5.17
536.474	5.16
536.82	5.18
537.166	5.27
537.512	5.34
537.857	5.31
538.203	5.19
538.549	5.2
538.894	5.31
539.239	5.3
539.585	5.39
539.93	5.37
540.276	5.41
540.621	5.4
540.966	5.43
541.311	5.42
541.656	5.42
542.001	5.48
542.346	5.33
542.691	5.37
543.036	5.27
543.381	5.24
543.726	5.28
544.071	5.32
544.415	5.39
544.76	5.47
545.105	5.44
545.449	5.57
545.794	5.66
546.138	5.5
546.483	5.67
546.827	5.71
547.171	5.62
547.516	5.65
547.86	5.72
548.204	5.73
548.548	5.78
548.892	5.72
549.236	5.8
549.58	5.83
549.924	5.86
550.268	5.86
550.612	5.79
550.956	5.81
551.3	6.03
551.643	5.83
551.987	6.14
552.33	5.87
552.674	6
553.017	5.97
553.361	6.09
553.704	6.11
554.048	6.07
554.391	6.03
554.734	6.04
555.077	6.16
555.42	6.16
555.764	6.16
556.107	6.14
556.45	6.03
556.793	6.1
557.135	6.31
557.478	6.12
557.821	6.17
558.164	6.22
558.507	6.3
558.849	6.28
559.192	6.32
559.534	6.36
559.877	6.4
560.219	6.38
560.562	6.35
560.904	6.44
561.246	6.64
561.589	6.38
561.931	6.54
562.273	6.26
562.615	6.31
562.957	6.45
563.299	6.61
563.641	6.55
563.983	6.43
564.325	6.6
564.667	6.66
565.008	6.56
565.35	6.66
565.692	6.71
566.033	6.74
566.375	6.55
566.716	6.45
567.058	6.78
567.399	6.87
567.741	6.62
568.082	6.63
568.423	6.73
568.764	6.78
569.105	6.71
569.447	6.76
569.788	6.9
570.129	6.77
570.47	6.92
570.811	6.99
571.151	6.8
571.492	6.93
571.833	7
572.174	6.89
572.514	6.94
572.855	7.06
573.195	6.89
573.536	6.94
573.876	7
574.217	7
574.557	7.02
574.898	7.03
575.238	7.29
575.578	7.03
575.918	7.19
576.258	7.12
576.598	7.17
576.938	7.14
577.278	7.45
577.618	7.42
577.958	7.12
578.298	7.48
578.638	7.21
578.977	7.32
579.317	7.38
579.657	7.41
579.996	7.53
580.336	7.48
580.675	7.53
581.014	7.57
581.354	7.64
581.693	7.68
582.032	7.39
582.372	7.93
582.711	7.51
583.05	7.93
583.389	7.98
583.728	7.87
584.067	7.83
584.406	7.89
584.745	7.9
585.083	7.73
585.422	8.05
585.761	7.97
586.1	7.95
586.438	8.07
586.777	7.78
587.115	7.77
587.454	8.08
587.792	7.79
588.13	8.28
588.469	8.09
588.807	7.87
589.145	8.09
589.483	7.82
589.821	8.13
590.159	8.29
590.497	8.13
590.835	8.3
591.173	8.28
591.511	8.29
591.849	8.29
592.187	8.41
592.524	8.1
592.862	8.24
593.2	8.21
593.537	8.29
593.875	8.56
594.212	8.25
594.55	8.27
594.887	8.7
595.224	8.33
595.561	8.57
595.899	8.33
596.236	8.81
596.573	8.71
596.91	8.85
597.247	8.6
597.584	8.66
597.921	8.5
598.258	8.72
598.594	8.85
598.931	8.75
599.268	8.71
599.604	8.73
599.941	8.9
600.277	8.85
600.614	8.85
600.95	8.87
601.287	9.1
601.623	9.01
601.959	8.89
602.296	9.42
602.632	8.78
602.968	9.13
603.304	9.19
603.64	9.02
603.976	9.01
604.312	9.35
604.648	9.3
604.984	9.22
605.319	9.1
605.655	9.04
605.991	9.31
606.326	9.15
606.662	9.4
606.998	9.2
607.333	9.36
607.668	9.28
608.004	9.38
608.339	9.39
608.674	9.47
609.01	9.6
609.345	9.66
609.68	9.51
610.015	9.47
610.35	9.62
610.685	9.99
611.02	9.63
611.355	9.6
611.689	9.6
612.024	9.53
612.359	9.82
612.694	9.46
613.028	9.78
613.363	9.87
613.697	9.77
614.032	9.99
614.366	10.15
614.7	9.75
615.035	10.12
615.369	9.85
615.703	10.11
616.037	10
616.371	9.75
616.705	9.98
617.039	9.97
617.373	9.9
617.707	9.76
618.041	10.24
618.375	9.95
618.709	10.23
619.042	10.08
619.376	10.28
619.71	10.42
620.043	10.54
620.377	10.65
620.71	10
621.043	10.45
621.377	10.2
621.71	10.49
622.043	10.7
622.376	10.91
622.709	10.94
623.043	10.49
623.376	10.92
623.709	10.6
624.041	10.75
624.374	10.72
624.707	10.56
625.04	10.78
625.373	10.66
625.705	10.83
626.038	10.67
626.37	10.8
626.703	11.18
627.035	10.87
627.368	11.15
627.7	10.89
628.032	10.98
628.365	10.87
628.697	10.9
629.029	11.12
629.361	10.89
629.693	10.86
630.025	10.8
630.357	11.29
630.689	10.92
631.021	11.32
631.353	11.27
631.684	11.17
632.016	11.28
632.348	11.34
632.679	10.88
633.011	11.73
633.342	11.29
633.674	11.59
634.005	11.4
634.336	11.71
634.668	11.64
634.999	11.25
635.33	11.28
635.661	11.55
635.992	11.71
636.323	11.43
636.654	11.69
636.985	11.74
637.316	11.52
637.647	11.81
637.977	11.85
638.308	12.21
638.639	12.34
638.969	11.54
639.3	12.04
639.63	12.12
639.961	12.22
640.291	11.85
640.622	11.78
640.952	12.71
641.282	12.09
641.612	12.62
641.943	12.25
642.273	12.66
642.603	12.69
642.933	11.91
643.263	12.14
643.592	12.3
643.922	12.42
644.252	12.43
644.582	12.09
644.911	12.26
645.241	12
645.571	12.55
645.9	12.21
646.23	12.16
646.559	12.94
646.888	12.07
647.218	12.36
647.547	12.5
647.876	12.61
648.205	12.55
648.534	12.81
648.863	12.63
649.192	12.78
649.521	13.17
649.85	12.37
650.179	12.66
650.508	13.21
650.837	12.97
651.165	12.76
651.494	12.35
651.822	12.59
652.151	13.07
652.479	13.12
652.808	13.29
653.136	13.14
653.465	13.31
653.793	13.17
654.121	13.3
654.449	12.87
654.777	13.42
655.105	13.14
655.433	13.31
655.761	12.97
656.089	13.52
656.417	13.67
656.745	13.76
657.073	13.11
657.4	13.51
657.728	13.31
658.056	13.8
658.383	13.44
658.711	13.86
659.038	13.59
659.365	14.13
659.693	14.14
660.02	13.26
660.347	13.8
660.674	13.66
661.001	13.8
661.329	13.56
661.656	13.72
661.982	13.69
662.309	13.8
662.636	13.48
662.963	13.84
663.29	14.17
663.616	13.89
663.943	13.88
664.27	13.95
664.596	14
664.923	14.82
665.249	13.65
665.576	14.2
665.902	14.37
666.228	15.13
666.554	14.25
666.881	14.09
667.207	14.34
667.533	14.94
667.859	14.09
668.185	14.02
668.511	14.59
668.837	14.14
669.162	15.46
669.488	14.61
669.814	14.14
670.139	14.13
670.465	14.08
670.791	14.85
671.116	14.1
671.442	14.42
671.767	14.3
672.092	15.15
672.418	14.39
672.743	14.55
673.068	14.8
673.393	14.81
673.718	15.13
674.043	15.02
674.368	14.41
674.693	14.73
675.018	14.57
675.343	14.81
675.667	15.74
675.992	15.29
676.317	14.98
676.641	15.02
676.966	14.85
677.29	14.47
677.615	14.95
677.939	15.23
678.264	15.33
678.588	15.01
678.912	15.51
679.236	15.33
679.56	15.34
679.885	14.85
680.209	15.73
680.532	15.18
680.856	15.29
681.18	15.31
681.504	16.1
681.828	15.52
682.152	15.58
682.475	15.9
682.799	15.35
683.122	15.33
683.446	15.78
683.769	16.19
684.093	15.05
684.416	15.43
684.739	15.87
685.062	15.59
685.386	15.66
685.709	16.16
686.032	15.37
686.355	15.14
686.678	16.39
687.001	16.13
687.324	15.36
