Data from 0385_crown_Reflection__2__238.txt Node

Date: Tue Dec 12 20:24:05 CST 2023
User: ToomeyLab
Spectrometer: FLMS14357
Trigger mode: 0
Integration Time (sec): 1.000000E-2
Scans to average: 100
Electric dark correction enabled: true
Nonlinearity correction enabled: false
Boxcar width: 0
XAxis mode: Wavelengths
Number of Pixels in Spectrum: 2048
>>>>>Begin Spectral Data<<<<<
189.047	-81.6
189.435	-81.6
189.823	-81.6
190.211	74.93
190.599	-251.62
190.987	92.9
191.375	-47.06
191.763	-37.97
192.151	103.7
192.538	540.38
192.926	-123
193.314	-75.57
193.702	83.99
194.089	1331.17
194.477	-3.58
194.864	331.47
195.252	-231.15
195.639	-199.35
196.027	109.76
196.414	139.95
196.801	-1633.53
197.189	6.24
197.576	59.83
197.963	-25.72
198.351	-68.3
198.738	56.3
199.125	2.56
199.512	-45.51
199.899	-29.22
200.286	-13.31
200.673	-25.58
201.06	-28.3
201.447	-195.62
201.833	-36.5
202.22	-38.7
202.607	-8403.81
202.994	24.43
203.38	25.17
203.767	-26.02
204.154	-14.58
204.54	16.56
204.927	-80.01
205.313	14.85
205.699	7.53
206.086	-62.46
206.472	47.9
206.858	-3.88
207.245	-32.22
207.631	3.89
208.017	-16.19
208.403	-119.16
208.789	-75.3
209.175	-54.93
209.561	13.51
209.947	-49.77
210.333	18.17
210.719	-19.95
211.105	-40.59
211.491	6.54
211.876	-28.82
212.262	-7.61
212.648	-62.13
213.034	-80.81
213.419	-50.87
213.805	-23.39
214.19	40.56
214.576	15.51
214.961	-16.53
215.346	21.64
215.732	7.24
216.117	35.47
216.502	-28.68
216.888	-59.05
217.273	-48.92
217.658	-84.53
218.043	-25.7
218.428	3.31
218.813	-3.8
219.198	-61.27
219.583	17.87
219.968	-13.34
220.353	-4.48
220.738	11.4
221.122	-0.35
221.507	-3.26
221.892	-7.67
222.276	-3.11
222.661	19.85
223.046	-18.06
223.43	-11.5
223.815	1.98
224.199	0.19
224.583	13.88
224.968	7.17
225.352	-5.19
225.736	5.82
226.121	-5.4
226.505	-2.62
226.889	0.17
227.273	-0.1
227.657	13.66
228.041	3.33
228.425	-1.53
228.809	6.51
229.193	3.26
229.577	6.24
229.961	4.4
230.344	5.71
230.728	6.94
231.112	6.67
231.495	5.47
231.879	6.69
232.263	4.89
232.646	4.56
233.03	6.47
233.413	3.91
233.797	5.47
234.18	2.54
234.563	4.03
234.946	7.61
235.33	7.16
235.713	5.56
236.096	4.63
236.479	5.47
236.862	6.1
237.245	5.47
237.628	4.89
238.011	4.61
238.394	2.78
238.777	5.74
239.16	4.95
239.543	4.07
239.925	5.57
240.308	3.28
240.691	4.69
241.073	7.98
241.456	5.02
241.838	3.3
242.221	5.99
242.603	6.65
242.986	4.96
243.368	5.87
243.75	5.44
244.133	5.75
244.515	6.03
244.897	6.06
245.279	6.63
245.661	4.88
246.043	4.47
246.425	5.14
246.807	4.86
247.189	6.1
247.571	5.82
247.953	5.61
248.335	5.55
248.717	5.64
249.098	5.86
249.48	5.42
249.862	5.71
250.243	5.68
250.625	5.88
251.006	5.25
251.388	5.03
251.769	5.83
252.151	3.82
252.532	5.47
252.913	5.01
253.295	5.95
253.676	5.55
254.057	5.18
254.438	5.67
254.819	5.45
255.2	5.9
255.581	5.26
255.962	3.86
256.343	4.35
256.724	5.88
257.105	5.89
257.486	4.78
257.867	5.24
258.247	4.07
258.628	5.06
259.009	4.96
259.389	4.73
259.77	4.56
260.15	4.43
260.531	5.5
260.911	5.76
261.292	4.93
261.672	4.9
262.052	5.17
262.432	5.35
262.813	5.39
263.193	5.72
263.573	5.16
263.953	5.55
264.333	6.17
264.713	4.23
265.093	4.74
265.473	5.26
265.853	4.24
266.233	3.54
266.612	4.43
266.992	4.27
267.372	5.51
267.752	5.64
268.131	3.71
268.511	4.81
268.89	3.91
269.27	4.16
269.649	4.71
270.029	4.59
270.408	5.36
270.787	4.3
271.167	4.58
271.546	4.61
271.925	5.85
272.304	5.04
272.683	4.01
273.062	4.58
273.441	5.39
273.82	3.98
274.199	4.89
274.578	4.37
274.957	4.58
275.336	4.81
275.715	5.09
276.093	4.65
276.472	4.42
276.851	4.45
277.229	4.64
277.608	4.09
277.986	4.57
278.365	5.47
278.743	4.65
279.122	5.52
279.5	4.15
279.878	3.67
280.257	4.05
280.635	4.47
281.013	4.59
281.391	4.32
281.769	4.14
282.147	4.22
282.525	3.81
282.903	4.26
283.281	4.74
283.659	4.31
284.037	4.98
284.415	4.04
284.792	4.79
285.17	4.71
285.548	4.36
285.925	3.79
286.303	4.18
286.68	4.38
287.058	4.5
287.435	4.24
287.813	3.83
288.19	4.57
288.567	4.14
288.945	4.32
289.322	3.87
289.699	4.19
290.076	3.94
290.453	4.27
290.83	4.22
291.207	4.82
291.584	4.45
291.961	4.2
292.338	4.07
292.715	4.2
293.092	4.14
293.469	4.23
293.845	4
294.222	4.3
294.599	4.18
294.975	4.02
295.352	4.16
295.728	4.18
296.105	3.38
296.481	4.22
296.858	3.78
297.234	4.59
297.61	3.95
297.986	4.01
298.363	3.68
298.739	4.13
299.115	3.75
299.491	3.97
299.867	3.96
300.243	3.75
300.619	3.81
300.995	4.22
301.371	3.94
301.746	3.92
302.122	4.23
302.498	4.1
302.874	4.22
303.249	3.99
303.625	3.33
304	3.75
304.376	4.04
304.751	4.1
305.127	3.64
305.502	3.81
305.878	4.27
306.253	3.78
306.628	3.75
307.003	3.51
307.378	3.86
307.754	4.09
308.129	3.58
308.504	4.53
308.879	3.42
309.254	4.28
309.629	3.65
310.003	3.63
310.378	4.31
310.753	4.08
311.128	3.86
311.502	3.36
311.877	3.42
312.252	3.11
312.626	3.82
313.001	3.18
313.375	3.65
313.75	3.62
314.124	3.81
314.498	4.06
314.873	3.28
315.247	3.62
315.621	3.42
315.995	3.72
316.369	3.62
316.743	3.45
317.117	2.87
317.491	2.96
317.865	3.39
318.239	3.72
318.613	4.01
318.987	3.81
319.361	3.48
319.734	3.55
320.108	3.86
320.482	3.5
320.855	2.38
321.229	3.21
321.602	3.33
321.976	3.22
322.349	3.83
322.723	3.32
323.096	3.03
323.469	3.51
323.843	3.62
324.216	3.8
324.589	3.98
324.962	4.12
325.335	3.99
325.708	3.74
326.081	3.66
326.454	3.62
326.827	3.93
327.2	3.76
327.573	2.74
327.945	3.43
328.318	3.48
328.691	3.36
329.063	3.81
329.436	3.81
329.809	3.09
330.181	2.6
330.553	3.71
330.926	3.2
331.298	3.32
331.671	3.9
332.043	3.39
332.415	3.58
332.787	3.57
333.159	3.46
333.532	3.35
333.904	3.57
334.276	4.27
334.648	2.72
335.02	3.15
335.391	3.2
335.763	3.37
336.135	3.61
336.507	3.65
336.879	3.48
337.25	3.91
337.622	2.87
337.993	3.48
338.365	3.4
338.736	3.37
339.108	3.47
339.479	3.85
339.851	2.94
340.222	2.86
340.593	3.4
340.964	3.49
341.336	3.77
341.707	3.18
342.078	3.31
342.449	3.26
342.82	3.26
343.191	3.58
343.562	3.44
343.933	4.12
344.303	3.26
344.674	3.68
345.045	3.83
345.416	3.45
345.786	3.38
346.157	3.6
346.527	4.07
346.898	3.49
347.268	3.45
347.639	3.44
348.009	3.56
348.38	3.43
348.75	3.75
349.12	3.54
349.49	3.06
349.861	3.55
350.231	4.17
350.601	3.98
350.971	3.44
351.341	3.26
351.711	3.72
352.081	3.63
352.45	3.55
352.82	3.68
353.19	3.77
353.56	3.24
353.929	3.2
354.299	3.38
354.669	3.37
355.038	2.93
355.408	3.13
355.777	3.9
356.147	3.9
356.516	3.11
356.885	3.46
357.254	3.96
357.624	3.42
357.993	3.6
358.362	3.62
358.731	3.62
359.1	3.58
359.469	3.48
359.838	3.28
360.207	3.04
360.576	3.94
360.945	3.13
361.314	4.02
361.682	3.58
362.051	4.08
362.42	3.8
362.788	3.46
363.157	4.13
363.525	3.88
363.894	3.78
364.262	3.75
364.631	3.24
364.999	3.72
365.367	3.95
365.735	3.52
366.104	3.58
366.472	3.69
366.84	3.68
367.208	3.71
367.576	3.7
367.944	3.64
368.312	3.65
368.68	3.81
369.048	4
369.416	3.82
369.783	4.03
370.151	3.71
370.519	3.68
370.886	3.82
371.254	3.61
371.621	3.96
371.989	3.78
372.356	3.58
372.724	3.44
373.091	3.67
373.458	3.97
373.826	3.85
374.193	3.68
374.56	4.05
374.927	3.78
375.294	4.05
375.661	3.75
376.028	4.06
376.395	4.24
376.762	4.26
377.129	3.94
377.496	3.79
377.863	3.77
378.229	3.58
378.596	4.03
378.963	4.27
379.329	3.77
379.696	3.67
380.062	4.21
380.429	3.86
380.795	4.13
381.161	4.08
381.528	3.83
381.894	3.78
382.26	3.95
382.626	4.15
382.993	4.06
383.359	4.01
383.725	3.91
384.091	3.62
384.457	3.54
384.823	4.12
385.188	4.06
385.554	4.11
385.92	3.63
386.286	4.11
386.651	4.1
387.017	4.03
387.383	3.95
387.748	4.25
388.114	4.19
388.479	4.34
388.845	3.98
389.21	4.14
389.575	3.67
389.94	4.15
390.306	4.41
390.671	3.92
391.036	4.08
391.401	4.04
391.766	4
392.131	4.29
392.496	3.9
392.861	4.02
393.226	4.07
393.591	4.01
393.956	4.25
394.32	4.33
394.685	4.17
395.05	4.04
395.414	4.14
395.779	4.17
396.143	4.29
396.508	3.95
396.872	4.19
397.236	4.23
397.601	4.11
397.965	4.31
398.329	4.36
398.694	4.12
399.058	4.49
399.422	4.42
399.786	4.17
400.15	3.83
400.514	4.47
400.878	4.35
401.242	3.91
401.605	4.43
401.969	4.34
402.333	4.17
402.697	4.12
403.06	3.73
403.424	4.33
403.787	4.3
404.151	4.3
404.514	4.03
404.878	3.84
405.241	4.21
405.604	4.12
405.968	4.18
406.331	4.33
406.694	4.29
407.057	4.14
407.42	4.23
407.783	4.16
408.146	4.29
408.509	4.17
408.872	4.18
409.235	4.27
409.598	4.11
409.961	4.23
410.323	4.35
410.686	4.39
411.049	4.4
411.411	4.46
411.774	4.54
412.136	4.46
412.499	4.44
412.861	4.45
413.223	4.86
413.586	4.27
413.948	4.48
414.31	4.65
414.672	4.54
415.035	4.24
415.397	4.3
415.759	4.37
416.121	4.38
416.483	4.58
416.845	4.16
417.206	4.55
417.568	4.31
417.93	4.57
418.292	4.24
418.653	4.49
419.015	4.22
419.377	4.18
419.738	4.38
420.1	4.39
420.461	4.27
420.822	4.41
421.184	4.32
421.545	4.67
421.906	4.32
422.267	4.29
422.629	4.33
422.99	4.32
423.351	4.29
423.712	4.36
424.073	4.35
424.434	4.47
424.795	4.46
425.155	4.3
425.516	4.32
425.877	4.34
426.238	4.4
426.598	4.39
426.959	4.36
427.32	4.39
427.68	4.39
428.041	4.58
428.401	4.5
428.761	4.55
429.122	4.52
429.482	4.58
429.842	4.47
430.202	4.31
430.563	4.39
430.923	4.5
431.283	4.56
431.643	4.51
432.003	4.48
432.363	4.46
432.722	4.45
433.082	4.66
433.442	4.68
433.802	4.53
434.161	4.59
434.521	4.42
434.881	4.38
435.24	4.48
435.6	4.59
435.959	4.52
436.319	4.64
436.678	4.72
437.037	4.51
437.396	4.36
437.756	4.48
438.115	4.55
438.474	4.65
438.833	4.62
439.192	4.62
439.551	4.43
439.91	4.35
440.269	4.49
440.628	4.53
440.987	4.51
441.345	4.57
441.704	4.51
442.063	4.51
442.421	4.4
442.78	4.53
443.138	4.47
443.497	4.52
443.855	4.53
444.214	4.53
444.572	4.66
444.93	4.66
445.288	4.31
445.647	4.7
446.005	4.58
446.363	4.37
446.721	4.32
447.079	4.58
447.437	4.44
447.795	4.58
448.153	4.53
448.51	4.62
448.868	4.62
449.226	4.69
449.584	4.54
449.941	4.52
450.299	4.68
450.656	4.47
451.014	4.72
451.371	4.67
451.729	4.77
452.086	4.66
452.443	4.71
452.801	4.79
453.158	4.61
453.515	4.44
453.872	4.6
454.229	4.74
454.586	4.59
454.943	4.49
455.3	4.66
455.657	4.63
456.014	4.79
456.371	4.56
456.727	4.64
457.084	4.57
457.441	4.76
457.797	4.61
458.154	4.65
458.51	4.76
458.867	4.69
459.223	4.65
459.58	4.67
459.936	4.48
460.292	4.68
460.648	4.7
461.005	4.72
461.361	4.68
461.717	4.71
462.073	4.55
462.429	4.63
462.785	4.59
463.141	4.6
463.496	4.6
463.852	4.92
464.208	4.75
464.564	4.71
464.919	4.87
465.275	4.6
465.631	4.8
465.986	4.97
466.342	4.68
466.697	4.8
467.052	4.88
467.408	4.73
467.763	4.64
468.118	4.82
468.473	4.83
468.829	4.66
469.184	4.71
469.539	4.92
469.894	4.8
470.249	4.83
470.603	4.72
470.958	4.74
471.313	5.04
471.668	4.84
472.023	4.8
472.377	4.71
472.732	4.75
473.086	4.8
473.441	4.92
473.795	4.92
474.15	4.84
474.504	4.53
474.859	4.85
475.213	4.74
475.567	4.72
475.921	4.63
476.275	4.7
476.63	4.89
476.984	4.79
477.338	4.8
477.692	4.89
478.045	4.8
478.399	4.68
478.753	4.81
479.107	4.79
479.461	4.7
479.814	4.71
480.168	4.73
480.521	4.61
480.875	4.77
481.228	4.81
481.582	4.8
481.935	4.81
482.289	4.88
482.642	4.88
482.995	4.66
483.348	4.65
483.701	4.9
484.055	4.76
484.408	4.65
484.761	4.66
485.114	4.57
485.466	4.47
485.819	4.52
486.172	4.51
486.525	4.59
486.878	4.63
487.23	4.61
487.583	4.6
487.936	4.73
488.288	4.68
488.641	4.65
488.993	4.62
489.345	4.63
489.698	4.57
490.05	4.62
490.402	4.64
490.754	4.69
491.107	4.68
491.459	4.79
491.811	4.81
492.163	4.81
492.515	4.79
492.866	4.65
493.218	4.63
493.57	4.63
493.922	4.63
494.274	4.71
494.625	4.81
494.977	4.83
495.328	4.89
495.68	4.83
496.031	4.99
496.383	4.78
496.734	4.78
497.086	4.77
497.437	4.81
497.788	4.81
498.139	4.81
498.49	4.88
498.842	4.74
499.193	4.82
499.544	4.83
499.894	4.81
500.245	4.91
500.596	4.92
500.947	4.94
501.298	4.98
501.648	4.98
501.999	4.73
502.35	4.72
502.7	4.84
503.051	4.93
503.401	4.85
503.752	4.88
504.102	4.8
504.452	4.94
504.803	5.02
505.153	4.89
505.503	4.94
505.853	4.93
506.203	4.82
506.553	4.93
506.903	5.02
507.253	4.93
507.603	5.02
507.953	4.9
508.303	4.92
508.652	4.91
509.002	4.99
509.352	4.83
509.701	4.9
510.051	4.87
510.4	4.84
510.75	4.69
511.099	4.88
511.449	4.94
511.798	4.88
512.147	4.86
512.496	4.94
512.846	4.87
513.195	4.86
513.544	4.99
513.893	4.85
514.242	4.85
514.591	4.8
514.939	4.86
515.288	4.83
515.637	4.83
515.986	4.88
516.334	4.98
516.683	4.92
517.032	5.01
517.38	4.8
517.729	4.84
518.077	4.83
518.426	5.01
518.774	4.98
519.122	4.86
519.47	4.8
519.819	4.79
520.167	4.75
520.515	4.78
520.863	4.74
521.211	4.8
521.559	4.87
521.907	4.89
522.255	4.95
522.602	4.93
522.95	4.93
523.298	4.79
523.645	4.97
523.993	5
524.341	4.84
524.688	4.92
525.036	4.92
525.383	4.92
525.73	4.81
526.078	4.83
526.425	4.87
526.772	4.8
527.119	4.77
527.466	4.71
527.814	4.72
528.161	4.85
528.508	4.82
528.854	4.85
529.201	4.83
529.548	4.74
529.895	4.73
530.242	4.62
530.588	4.64
530.935	4.67
531.282	4.73
531.628	4.73
531.975	4.75
532.321	4.83
532.667	4.75
533.014	4.73
533.36	4.83
533.706	4.81
534.052	4.75
534.399	4.89
534.745	4.73
535.091	4.65
535.437	4.73
535.783	4.72
536.129	4.74
536.474	4.82
536.82	4.85
537.166	4.97
537.512	4.88
537.857	4.9
538.203	4.74
538.549	4.76
538.894	4.85
539.239	4.87
539.585	4.88
539.93	4.87
540.276	4.82
540.621	4.75
540.966	4.8
541.311	4.91
541.656	4.93
542.001	4.83
542.346	4.84
542.691	4.73
543.036	4.69
543.381	4.63
543.726	4.72
544.071	4.66
544.415	4.82
544.76	4.78
545.105	4.78
545.449	4.81
545.794	4.87
546.138	4.75
546.483	4.78
546.827	4.84
547.171	4.93
547.516	4.88
547.86	4.88
548.204	4.88
548.548	4.81
548.892	4.81
549.236	4.81
549.58	5.01
549.924	4.9
550.268	4.81
550.612	4.67
550.956	5.03
551.3	4.99
551.643	4.77
551.987	5.04
552.33	4.88
552.674	4.9
553.017	4.99
553.361	5.07
553.704	4.95
554.048	4.81
554.391	4.93
554.734	4.94
555.077	4.98
555.42	4.8
555.764	5.02
556.107	5.08
556.45	4.74
556.793	4.84
557.135	4.84
557.478	4.98
557.821	4.86
558.164	5.13
558.507	4.93
558.849	5
559.192	4.93
559.534	4.98
559.877	5.05
560.219	4.81
560.562	5
560.904	4.88
561.246	4.88
561.589	5.04
561.931	4.9
562.273	4.8
562.615	4.84
562.957	5.16
563.299	5.03
563.641	4.88
563.983	4.76
564.325	5.01
564.667	4.9
565.008	4.61
565.35	4.77
565.692	4.88
566.033	4.97
566.375	4.82
566.716	4.78
567.058	4.98
567.399	4.88
567.741	4.95
568.082	4.81
568.423	4.83
568.764	4.91
569.105	4.94
569.447	4.99
569.788	4.9
570.129	4.78
570.47	5.06
570.811	5.03
571.151	4.96
571.492	5.01
571.833	4.89
572.174	5.03
572.514	4.62
572.855	4.99
573.195	4.84
573.536	4.71
573.876	4.8
574.217	4.92
574.557	4.75
574.898	4.83
575.238	4.92
575.578	4.65
575.918	4.91
576.258	4.95
576.598	4.78
576.938	4.77
577.278	4.77
577.618	4.78
577.958	4.86
578.298	4.88
578.638	4.74
578.977	4.9
579.317	4.7
579.657	4.8
579.996	4.85
580.336	5.08
580.675	4.61
581.014	4.8
581.354	4.78
581.693	4.8
582.032	4.8
582.372	4.84
582.711	4.88
583.05	4.85
583.389	4.93
583.728	4.94
584.067	5.02
584.406	4.99
584.745	5.03
585.083	4.91
585.422	5.09
585.761	5.28
586.1	4.61
586.438	5.07
586.777	4.97
587.115	4.67
587.454	4.79
587.792	4.51
588.13	5.11
588.469	4.93
588.807	4.71
589.145	4.93
589.483	4.86
589.821	5.16
590.159	4.7
590.497	4.73
590.835	4.79
591.173	4.65
591.511	5.01
591.849	4.82
592.187	4.91
592.524	4.68
592.862	4.74
593.2	4.68
593.537	4.68
593.875	4.92
594.212	4.94
594.55	4.88
594.887	5.07
595.224	4.76
595.561	5.01
595.899	4.58
596.236	4.78
596.573	4.69
596.91	4.98
597.247	4.62
597.584	4.82
597.921	4.91
598.258	4.81
598.594	5
598.931	4.79
599.268	4.67
599.604	4.5
599.941	4.83
600.277	4.79
600.614	4.92
600.95	4.87
601.287	4.84
601.623	5
601.959	4.89
602.296	5.02
602.632	4.52
602.968	4.85
603.304	4.69
603.64	5.12
603.976	4.64
604.312	4.68
604.648	4.65
604.984	4.53
605.319	4.76
605.655	4.91
605.991	4.78
606.326	4.52
606.662	4.86
606.998	4.62
607.333	4.64
607.668	4.69
608.004	4.74
608.339	4.82
608.674	4.79
609.01	4.94
609.345	4.91
609.68	4.79
610.015	4.72
610.35	4.67
610.685	4.74
611.02	4.76
611.355	4.89
611.689	4.8
612.024	4.62
612.359	4.97
612.694	4.67
613.028	4.79
613.363	4.66
613.697	4.89
614.032	4.73
614.366	5.21
614.7	4.75
615.035	4.86
615.369	4.6
615.703	4.81
616.037	4.68
616.371	4.57
616.705	4.83
617.039	4.54
617.373	4.82
617.707	4.33
618.041	4.9
618.375	4.39
618.709	4.55
619.042	4.6
619.376	4.59
619.71	4.77
620.043	4.49
620.377	4.52
620.71	4.13
621.043	4.69
621.377	4.13
621.71	4.71
622.043	4.93
622.376	4.86
622.709	4.83
623.043	4.5
623.376	4.88
623.709	4.8
624.041	4.63
624.374	4.37
624.707	4.84
625.04	4.62
625.373	4.85
625.705	4.68
626.038	4.68
626.37	4.66
626.703	5.06
627.035	4.43
627.368	4.71
627.7	4.4
628.032	4.59
628.365	4.48
628.697	4.77
629.029	4.81
629.361	4.49
629.693	4.73
630.025	4.32
630.357	4.73
630.689	4.69
631.021	4.69
631.353	4.82
631.684	4.49
632.016	4.5
632.348	4.71
632.679	4.43
633.011	5.3
633.342	4.99
633.674	4.65
634.005	4.75
634.336	4.9
634.668	4.94
634.999	4.77
635.33	5.05
635.661	5.06
635.992	4.66
636.323	4.31
636.654	4.66
636.985	4.86
637.316	4.81
637.647	4.62
637.977	5.02
638.308	4.82
638.639	4.73
638.969	4.87
639.3	4.17
639.63	4.84
639.961	4.79
640.291	4.23
640.622	4.5
640.952	5.01
641.282	5.04
641.612	4.7
641.943	4.95
642.273	4.81
642.603	5.34
642.933	4.47
643.263	4.21
643.592	4.97
643.922	5.14
644.252	5.06
644.582	4.05
644.911	4.82
645.241	4.28
645.571	5.25
645.9	4.49
646.23	4.77
646.559	4.66
646.888	4.9
647.218	4.96
647.547	4.5
647.876	5.18
648.205	4.39
648.534	5.04
648.863	4.8
649.192	5.01
649.521	4.98
649.85	4.02
650.179	4.9
650.508	4.8
650.837	4.87
651.165	4.51
651.494	4.85
651.822	4.78
652.151	4.8
652.479	4.37
652.808	4.68
653.136	4.84
653.465	4.5
653.793	4.52
654.121	5.05
654.449	4.72
654.777	4.8
655.105	4.91
655.433	4.96
655.761	4.74
656.089	4.41
656.417	4.88
656.745	4.73
657.073	4.23
657.4	5.16
657.728	4.5
658.056	4.84
658.383	4.19
658.711	4.87
659.038	4.6
659.365	4.85
659.693	4.75
660.02	3.83
660.347	5.03
660.674	4.68
661.001	4.75
661.329	4.69
661.656	4.67
661.982	4.94
662.309	5.03
662.636	4.38
662.963	4.91
663.29	4.81
663.616	4.73
663.943	4.85
664.27	5.1
664.596	5.02
664.923	5.22
665.249	4.32
665.576	4.66
665.902	4.84
666.228	5.33
666.554	3.96
666.881	4.08
667.207	4.66
667.533	5.14
667.859	4.77
668.185	4.37
668.511	4.88
668.837	4.75
669.162	5.45
669.488	4.05
669.814	4.89
670.139	4.59
670.465	4.24
670.791	4.5
671.116	4.6
671.442	4.6
671.767	4.63
672.092	4.98
672.418	5.26
672.743	5.18
673.068	4.41
673.393	4.58
673.718	4.57
674.043	4.54
674.368	4.37
674.693	3.71
675.018	4.78
675.343	4.5
675.667	5.54
675.992	4.26
676.317	3.7
676.641	4.61
676.966	4.82
677.29	4.13
677.615	4.68
677.939	4.23
678.264	5.16
678.588	5.02
678.912	4.8
679.236	3.95
679.56	5.01
679.885	5.12
680.209	5.07
680.532	5.15
680.856	4.53
681.18	4.53
681.504	4.25
681.828	4.63
682.152	4.55
682.475	4.96
682.799	4.61
683.122	5
683.446	4.4
683.769	5.89
684.093	4.28
684.416	4.25
684.739	4.75
685.062	5.32
685.386	5.18
685.709	5.34
686.032	4.69
686.355	4.59
686.678	5.09
687.001	4.8
687.324	4.23
687.646	5.77
687.969	4.26
688.292	5.19
688.614	4.06
688.937	4.85
689.26	4.65
689.582	4.11
689.904	4.82
690.227	4.81
690.549	4.91
690.871	4.64
691.194	4.99
691.516	5.63
691.838	4.81
