Data from 0385_chest_Reflection__3__231.txt Node

Date: Tue Dec 12 20:21:49 CST 2023
User: ToomeyLab
Spectrometer: FLMS14357
Trigger mode: 0
Integration Time (sec): 1.000000E-2
Scans to average: 100
Electric dark correction enabled: true
Nonlinearity correction enabled: false
Boxcar width: 0
XAxis mode: Wavelengths
Number of Pixels in Spectrum: 2048
>>>>>Begin Spectral Data<<<<<
189.047	-123.3
189.435	-123.3
189.823	-123.3
190.211	-172.11
190.599	36.14
190.987	108.65
191.375	779.74
191.763	78.3
192.151	112.09
192.538	-1886.42
192.926	436.4
193.314	-86.55
193.702	72.67
194.089	158.3
194.477	70.7
194.864	374.13
195.252	602.26
195.639	256.69
196.027	55
196.414	31.76
196.801	1355.09
197.189	57.83
197.576	1.52
197.963	62.88
198.351	19.24
198.738	9.48
199.125	6.82
199.512	-25.39
199.899	-36.54
200.286	25.95
200.673	-95.26
201.06	-13.37
201.447	-85.64
201.833	-11.61
202.22	-28.42
202.607	-3039.05
202.994	-18.08
203.38	0.4
203.767	-40.99
204.154	32.87
204.54	23.75
204.927	8.17
205.313	19.22
205.699	-14.16
206.086	-5.52
206.472	47.01
206.858	6.97
207.245	5.84
207.631	28.06
208.017	18.02
208.403	-42.69
208.789	10.36
209.175	11.95
209.561	15.84
209.947	-53.51
210.333	18.67
210.719	-133.34
211.105	-14.4
211.491	13.97
211.876	0.6
212.262	-5.01
212.648	-95.67
213.034	-11.03
213.419	18.85
213.805	-8.24
214.19	0.22
214.576	10.51
214.961	-6.61
215.346	-6.41
215.732	2.2
216.117	1.52
216.502	-31.61
216.888	-90.11
217.273	-59.86
217.658	15.57
218.043	10.77
218.428	0.07
218.813	8.54
219.198	-48.27
219.583	-13.44
219.968	-9.67
220.353	8.73
220.738	6.05
221.122	-9.36
221.507	-21.72
221.892	-21.44
222.276	-1.53
222.661	1.78
223.046	-28.96
223.43	0.78
223.815	-11.03
224.199	11.89
224.583	-8.43
224.968	-2.87
225.352	-12.6
225.736	10.91
226.121	-7.34
226.505	-2.68
226.889	-13.97
227.273	1.15
227.657	7.74
228.041	7.44
228.425	2.17
228.809	5.6
229.193	-3.5
229.577	6.21
229.961	3.97
230.344	5.15
230.728	6.46
231.112	5.77
231.495	4.64
231.879	6.74
232.263	3.4
232.646	5.01
233.03	5.06
233.413	3.18
233.797	4.49
234.18	-0.18
234.563	2.86
234.946	4.76
235.33	5.78
235.713	3.12
236.096	4.48
236.479	5.21
236.862	1.76
237.245	3.66
237.628	4.26
238.011	4.18
238.394	3.29
238.777	3.26
239.16	5.59
239.543	2.56
239.925	3.82
240.308	3.8
240.691	4.15
241.073	5.06
241.456	5.34
241.838	2.75
242.221	4.4
242.603	4.84
242.986	4.7
243.368	5.05
243.75	4.54
244.133	4.77
244.515	4.56
244.897	4.78
245.279	4.93
245.661	4.61
246.043	3.85
246.425	4.56
246.807	3.38
247.189	4.17
247.571	4.12
247.953	4.38
248.335	4.89
248.717	4.68
249.098	4.93
249.48	4.31
249.862	4.7
250.243	4.43
250.625	4.99
251.006	4.97
251.388	4.26
251.769	3.31
252.151	2.93
252.532	3.45
252.913	5.65
253.295	5.28
253.676	3.73
254.057	4.33
254.438	4.64
254.819	4.79
255.2	4.57
255.581	3.37
255.962	3.6
256.343	3.07
256.724	2.92
257.105	5.16
257.486	2.47
257.867	3.01
258.247	3.8
258.628	3.91
259.009	3.61
259.389	4.68
259.77	3.94
260.15	4.4
260.531	4.54
260.911	4.54
261.292	4.22
261.672	4.17
262.052	4.42
262.432	4.54
262.813	4.66
263.193	4.22
263.573	3.62
263.953	5.22
264.333	5.47
264.713	4.75
265.093	4.1
265.473	4.42
265.853	4.11
266.233	3.69
266.612	3.22
266.992	4.01
267.372	4.18
267.752	5.3
268.131	2.64
268.511	3.29
268.89	3.55
269.27	3.53
269.649	4
270.029	4.08
270.408	4.16
270.787	3.66
271.167	4.61
271.546	4.64
271.925	4.38
272.304	4.36
272.683	3.9
273.062	4.21
273.441	4.51
273.82	3.46
274.199	3.49
274.578	4.04
274.957	3.65
275.336	4.43
275.715	3.84
276.093	3.35
276.472	4.1
276.851	4.43
277.229	3.98
277.608	3.34
277.986	3.29
278.365	3.97
278.743	4.21
279.122	4.46
279.5	3.66
279.878	3.12
280.257	2.68
280.635	4.12
281.013	4.02
281.391	4.25
281.769	3.33
282.147	4.1
282.525	4.06
282.903	4.3
283.281	3.84
283.659	3.82
284.037	4.26
284.415	4.31
284.792	3.69
285.17	3.57
285.548	4.6
285.925	4.38
286.303	4.02
286.68	3.72
287.058	4.43
287.435	4.15
287.813	3.8
288.19	3.93
288.567	3.72
288.945	4.21
289.322	3.72
289.699	3.82
290.076	3.25
290.453	4.14
290.83	3.76
291.207	4.02
291.584	4.41
291.961	3.78
292.338	4.02
292.715	3.78
293.092	3.5
293.469	3.52
293.845	3.51
294.222	4.08
294.599	4.07
294.975	3.75
295.352	4.16
295.728	4.09
296.105	3.83
296.481	4.13
296.858	3.87
297.234	4.34
297.61	4.51
297.986	4.41
298.363	4.09
298.739	4.11
299.115	3.6
299.491	4.08
299.867	3.55
300.243	3.93
300.619	3.8
300.995	3.99
301.371	4.13
301.746	3.98
302.122	4.59
302.498	4.1
302.874	4.13
303.249	4.91
303.625	3.68
304	4.03
304.376	4.28
304.751	4.64
305.127	3.81
305.502	4.48
305.878	3.85
306.253	3.48
306.628	3.94
307.003	3.89
307.378	3.79
307.754	3.71
308.129	3.89
308.504	5.33
308.879	3.54
309.254	4.01
309.629	3.21
310.003	4.04
310.378	3.8
310.753	4
311.128	4.31
311.502	3.26
311.877	4.08
312.252	3.42
312.626	4.11
313.001	3.85
313.375	3.5
313.75	4.2
314.124	4.31
314.498	4.28
314.873	3.63
315.247	4.33
315.621	4.2
315.995	4.47
316.369	4.16
316.743	3.42
317.117	3.64
317.491	3.93
317.865	3.65
318.239	3.68
318.613	4.32
318.987	4.11
319.361	3.42
319.734	3.5
320.108	3.89
320.482	3.82
320.855	3.72
321.229	4.19
321.602	4.53
321.976	3.47
322.349	3.41
322.723	3.95
323.096	3.51
323.469	4.35
323.843	4.67
324.216	4.3
324.589	3.55
324.962	4.16
325.335	4.56
325.708	4.5
326.081	4.4
326.454	4.28
326.827	5.07
327.2	4.13
327.573	3.92
327.945	3.97
328.318	4.33
328.691	3.35
329.063	4.16
329.436	3.77
329.809	4.49
330.181	3.42
330.553	4.36
330.926	4.1
331.298	3.74
331.671	4.03
332.043	3.62
332.415	4.08
332.787	4.06
333.159	4.13
333.532	3.91
333.904	3.75
334.276	4.84
334.648	3.88
335.02	3.35
335.391	3.58
335.763	3.69
336.135	3.94
336.507	4.15
336.879	3.78
337.25	3.67
337.622	3.98
337.993	3.41
338.365	3.15
338.736	4.04
339.108	3.88
339.479	4
339.851	3.48
340.222	3.47
340.593	3.87
340.964	3.56
341.336	3.91
341.707	4.04
342.078	3.54
342.449	3.38
342.82	3.96
343.191	4.07
343.562	4.17
343.933	4.09
344.303	4.38
344.674	3.75
345.045	4.08
345.416	4.33
345.786	3.74
346.157	3.3
346.527	4.42
346.898	3.46
347.268	3.9
347.639	3.98
348.009	4.29
348.38	4.03
348.75	4.21
349.12	4.04
349.49	3.67
349.861	3.83
350.231	3.64
350.601	4.1
350.971	3.75
351.341	3.44
351.711	4.54
352.081	3.94
352.45	4.02
352.82	3.84
353.19	4.13
353.56	3.89
353.929	3.72
354.299	3.86
354.669	3.33
355.038	3.55
355.408	3.75
355.777	4.19
356.147	3.93
356.516	3.9
356.885	4.03
357.254	3.95
357.624	3.53
357.993	3.95
358.362	4.01
358.731	4.17
359.1	3.83
359.469	3.65
359.838	3.72
360.207	3.74
360.576	4.01
360.945	3.51
361.314	4.21
361.682	4.03
362.051	4.42
362.42	4.23
362.788	3.79
363.157	4.09
363.525	4
363.894	3.86
364.262	4.01
364.631	3.89
364.999	4.1
365.367	4.24
365.735	3.79
366.104	4.01
366.472	3.66
366.84	3.86
367.208	4.1
367.576	3.7
367.944	3.65
368.312	4.09
368.68	3.87
369.048	3.66
369.416	3.87
369.783	4.08
370.151	3.81
370.519	3.81
370.886	4.03
371.254	4.09
371.621	4.1
371.989	3.89
372.356	4.08
372.724	3.92
373.091	4.03
373.458	4.07
373.826	4.04
374.193	3.99
374.56	4.43
374.927	3.97
375.294	4.06
375.661	4.33
376.028	3.98
376.395	4.25
376.762	4.58
377.129	4.28
377.496	4.02
377.863	3.91
378.229	4.12
378.596	3.88
378.963	4.21
379.329	4.05
379.696	3.59
380.062	4.2
380.429	3.9
380.795	4.29
381.161	3.93
381.528	3.87
381.894	4.28
382.26	3.88
382.626	4.09
382.993	4.35
383.359	3.79
383.725	3.96
384.091	4.12
384.457	3.74
384.823	3.99
385.188	4.28
385.554	4.03
385.92	4.11
386.286	4.26
386.651	4.16
387.017	4.22
387.383	3.95
387.748	4.15
388.114	4.36
388.479	4.33
388.845	4.18
389.21	4
389.575	3.82
389.94	4.04
390.306	4.28
390.671	4.19
391.036	4.19
391.401	4.25
391.766	4.14
392.131	4.38
392.496	4.08
392.861	4.38
393.226	4.46
393.591	3.99
393.956	3.98
394.32	4.29
394.685	4
395.05	3.93
395.414	4.04
395.779	4.2
396.143	4.43
396.508	4.07
396.872	4.01
397.236	3.86
397.601	4.25
397.965	4.15
398.329	4.16
398.694	3.73
399.058	4.17
399.422	3.82
399.786	4.15
400.15	4.02
400.514	4.38
400.878	3.98
401.242	3.98
401.605	4.24
401.969	4.02
402.333	4.07
402.697	4.23
403.06	3.74
403.424	4.16
403.787	3.95
404.151	3.94
404.514	3.81
404.878	4.04
405.241	4.12
405.604	4.01
405.968	3.87
406.331	4.18
406.694	4.28
407.057	4.22
407.42	4.14
407.783	4.01
408.146	4.15
408.509	4.27
408.872	4.22
409.235	4.1
409.598	3.91
409.961	4.19
410.323	4.16
410.686	4.14
411.049	4.12
411.411	4.32
411.774	4.35
412.136	4.24
412.499	4.31
412.861	4.12
413.223	4.24
413.586	3.94
413.948	4.27
414.31	4.06
414.672	4.33
415.035	4.24
415.397	4.32
415.759	4.3
416.121	4.06
416.483	4.17
416.845	4
417.206	4.25
417.568	4.24
417.93	4.41
418.292	4.06
418.653	4.43
419.015	4.24
419.377	4.23
419.738	4.16
420.1	4.12
420.461	4.16
420.822	4.15
421.184	4.25
421.545	4.22
421.906	4.18
422.267	4.24
422.629	4.15
422.99	4.14
423.351	4.15
423.712	4.02
424.073	4.12
424.434	4.18
424.795	4.18
425.155	4.08
425.516	4.09
425.877	4.22
426.238	4.23
426.598	4.22
426.959	4.16
427.32	4.15
427.68	4.16
428.041	4.27
428.401	4.33
428.761	4.2
429.122	4.27
429.482	4.42
429.842	4.42
430.202	4.13
430.563	4.21
430.923	4.27
431.283	4.23
431.643	4.35
432.003	4.04
432.363	4.34
432.722	4.15
433.082	4.49
433.442	4.29
433.802	4.46
434.161	4.22
434.521	4.37
434.881	4.32
435.24	4.31
435.6	4.22
435.959	4.32
436.319	4.34
436.678	4.44
437.037	4.29
437.396	4.33
437.756	4.33
438.115	4.38
438.474	4.25
438.833	4.47
439.192	4.31
439.551	4.16
439.91	4.19
440.269	4.22
440.628	4.39
440.987	4.24
441.345	4.29
441.704	4.34
442.063	4.27
442.421	4.37
442.78	4.31
443.138	4.34
443.497	4.29
443.855	4.31
444.214	4.32
444.572	4.39
444.93	4.38
445.288	4.14
445.647	4.31
446.005	4.35
446.363	4.16
446.721	4.36
447.079	4.4
447.437	4.16
447.795	4.43
448.153	4.19
448.51	4.25
448.868	4.29
449.226	4.35
449.584	4.29
449.941	4.32
450.299	4.42
450.656	4.24
451.014	4.4
451.371	4.49
451.729	4.57
452.086	4.34
452.443	4.4
452.801	4.39
453.158	4.3
453.515	4.45
453.872	4.18
454.229	4.42
454.586	4.21
454.943	4.27
455.3	4.31
455.657	4.32
456.014	4.39
456.371	4.36
456.727	4.39
457.084	4.41
457.441	4.39
457.797	4.34
458.154	4.39
458.51	4.32
458.867	4.42
459.223	4.56
459.58	4.28
459.936	4.29
460.292	4.44
460.648	4.4
461.005	4.27
461.361	4.31
461.717	4.42
462.073	4.34
462.429	4.34
462.785	4.37
463.141	4.31
463.496	4.31
463.852	4.57
464.208	4.46
464.564	4.48
464.919	4.6
465.275	4.39
465.631	4.61
465.986	4.44
466.342	4.17
466.697	4.41
467.052	4.58
467.408	4.47
467.763	4.56
468.118	4.61
468.473	4.52
468.829	4.55
469.184	4.31
469.539	4.45
469.894	4.45
470.249	4.63
470.603	4.56
470.958	4.56
471.313	4.68
471.668	4.59
472.023	4.45
472.377	4.39
472.732	4.55
473.086	4.61
473.441	4.53
473.795	4.43
474.15	4.78
474.504	4.35
474.859	4.52
475.213	4.55
475.567	4.62
475.921	4.62
476.275	4.43
476.63	4.54
476.984	4.56
477.338	4.6
477.692	4.56
478.045	4.72
478.399	4.4
478.753	4.54
479.107	4.45
479.461	4.64
479.814	4.64
480.168	4.49
480.521	4.44
480.875	4.48
481.228	4.75
481.582	4.58
481.935	4.66
482.289	4.61
482.642	4.69
482.995	4.5
483.348	4.49
483.701	4.72
484.055	4.55
484.408	4.59
484.761	4.51
485.114	4.42
485.466	4.36
485.819	4.35
486.172	4.32
486.525	4.38
486.878	4.42
487.23	4.42
487.583	4.49
487.936	4.54
488.288	4.45
488.641	4.5
488.993	4.48
489.345	4.45
489.698	4.42
490.05	4.45
490.402	4.48
490.754	4.43
491.107	4.51
491.459	4.6
491.811	4.58
492.163	4.53
492.515	4.65
492.866	4.59
493.218	4.47
493.57	4.49
493.922	4.45
494.274	4.48
494.625	4.58
494.977	4.64
495.328	4.71
495.68	4.48
496.031	4.86
496.383	4.72
496.734	4.66
497.086	4.78
497.437	4.61
497.788	4.74
498.139	4.74
498.49	4.88
498.842	4.64
499.193	4.71
499.544	4.85
499.894	4.72
500.245	4.79
500.596	4.79
500.947	4.72
501.298	4.83
501.648	4.85
501.999	4.72
502.35	4.72
502.7	4.86
503.051	4.76
503.401	4.75
503.752	4.89
504.102	4.75
504.452	4.82
504.803	4.83
505.153	4.88
505.503	4.85
505.853	5.02
506.203	4.86
506.553	4.84
506.903	4.85
507.253	4.86
507.603	4.93
507.953	4.85
508.303	4.78
508.652	4.85
509.002	4.89
509.352	4.85
509.701	5.02
510.051	4.86
510.4	4.88
510.75	4.76
511.099	4.79
511.449	4.89
511.798	4.91
512.147	4.96
512.496	5.02
512.846	4.89
513.195	4.86
513.544	4.88
513.893	4.94
514.242	4.94
514.591	4.83
514.939	5.03
515.288	4.99
515.637	4.87
515.986	4.94
516.334	4.96
516.683	5.04
517.032	5.02
517.38	4.94
517.729	4.97
518.077	4.95
518.426	5.14
518.774	5
519.122	5.05
519.47	5
519.819	4.93
520.167	4.88
520.515	4.85
520.863	5.03
521.211	4.92
521.559	5.02
521.907	5.05
522.255	5
522.602	5.06
522.95	5.01
523.298	5.07
523.645	5.25
523.993	5.04
524.341	5.09
524.688	5.02
525.036	5.14
525.383	5.05
525.73	5.07
526.078	5.11
526.425	5.06
526.772	5.12
527.119	5.12
527.466	5.05
527.814	5.09
528.161	5.15
528.508	5.14
528.854	5.07
529.201	5.1
529.548	5.09
529.895	5.02
530.242	4.96
530.588	4.99
530.935	5.01
531.282	4.99
531.628	5.11
531.975	5.11
532.321	5.09
532.667	5.13
533.014	5.16
533.36	5.19
533.706	5.14
534.052	5.16
534.399	5.29
534.745	5.21
535.091	5.13
535.437	5.23
535.783	5.19
536.129	5.33
536.474	5.19
536.82	5.36
537.166	5.41
537.512	5.33
537.857	5.33
538.203	5.4
538.549	5.38
538.894	5.4
539.239	5.36
539.585	5.4
539.93	5.45
540.276	5.31
540.621	5.45
540.966	5.31
541.311	5.44
541.656	5.58
542.001	5.47
542.346	5.52
542.691	5.39
543.036	5.4
543.381	5.27
543.726	5.37
544.071	5.39
544.415	5.35
544.76	5.49
545.105	5.51
545.449	5.58
545.794	5.68
546.138	5.5
546.483	5.76
546.827	5.73
547.171	5.74
547.516	5.56
547.86	5.8
548.204	5.76
548.548	5.69
548.892	5.71
549.236	5.77
549.58	5.79
549.924	5.71
550.268	5.83
550.612	5.75
550.956	5.83
551.3	5.95
551.643	5.95
551.987	6.1
552.33	5.97
552.674	6.09
553.017	5.94
553.361	5.94
553.704	6.04
554.048	6.09
554.391	5.88
554.734	6.15
555.077	6.14
555.42	5.88
555.764	6.11
556.107	6.11
556.45	5.95
556.793	6.04
557.135	6.07
557.478	6.21
557.821	6
558.164	6.24
558.507	6.16
558.849	6.24
559.192	6.19
559.534	6.16
559.877	6.14
560.219	6.07
560.562	6.17
560.904	6.21
561.246	6.3
561.589	6.17
561.931	6.29
562.273	6.19
562.615	6.16
562.957	6.3
563.299	6.46
563.641	6.33
563.983	6.39
564.325	6.58
564.667	6.5
565.008	6.26
565.35	6.52
565.692	6.63
566.033	6.43
566.375	6.21
566.716	6.39
567.058	6.56
567.399	6.53
567.741	6.5
568.082	6.55
568.423	6.54
568.764	6.71
569.105	6.47
569.447	6.54
569.788	6.62
570.129	6.59
570.47	6.89
570.811	6.75
571.151	6.65
571.492	6.73
571.833	6.81
572.174	6.93
572.514	6.67
572.855	6.84
573.195	6.8
573.536	6.91
573.876	6.84
574.217	6.94
574.557	6.78
574.898	6.78
575.238	6.94
575.578	6.79
575.918	7.04
576.258	6.8
576.598	6.92
576.938	6.97
577.278	7.03
577.618	7.05
577.958	6.97
578.298	7.25
578.638	7.01
578.977	7.15
579.317	6.94
579.657	7.18
579.996	7.25
580.336	7.17
580.675	7.29
581.014	7.14
581.354	7.16
581.693	7.16
582.032	7.35
582.372	7.37
582.711	7.44
583.05	7.38
583.389	7.46
583.728	7.39
584.067	7.87
584.406	7.71
584.745	7.46
585.083	7.51
585.422	7.81
585.761	7.77
586.1	7.69
586.438	7.64
586.777	7.64
587.115	7.61
587.454	7.67
587.792	7.6
588.13	7.94
588.469	7.68
588.807	7.68
589.145	7.68
589.483	7.98
589.821	7.77
590.159	7.94
590.497	7.63
590.835	7.77
591.173	7.72
591.511	7.81
591.849	7.69
592.187	7.72
592.524	7.56
592.862	8.09
593.2	7.9
593.537	7.84
593.875	8.05
594.212	7.84
594.55	8.23
594.887	8.39
595.224	7.86
595.561	8.19
595.899	8.19
596.236	8.17
596.573	7.96
596.91	8.4
597.247	8.21
597.584	8.18
597.921	8.24
598.258	8.43
598.594	8.5
598.931	8.4
599.268	8.27
599.604	8.38
599.941	8.43
600.277	8.4
600.614	8.52
600.95	8.53
601.287	8.36
601.623	8.38
601.959	8.51
602.296	8.56
602.632	8.62
602.968	8.78
603.304	8.32
603.64	8.74
603.976	8.53
604.312	8.77
604.648	8.84
604.984	8.69
605.319	8.8
605.655	8.57
605.991	8.82
606.326	8.59
606.662	8.87
606.998	8.87
607.333	9.03
607.668	8.81
608.004	9.01
608.339	9.09
608.674	9.02
609.01	8.8
609.345	9.16
609.68	8.86
610.015	8.98
610.35	8.95
610.685	9.23
611.02	9.32
611.355	9.22
611.689	9.04
612.024	9.01
612.359	9.36
612.694	9.26
613.028	9.3
613.363	9.43
613.697	9.42
614.032	9.51
614.366	10.06
614.7	9.4
615.035	9.7
615.369	9.64
615.703	9.51
616.037	9.44
616.371	9.48
616.705	9.32
617.039	9.57
617.373	9.68
617.707	9.38
618.041	9.8
618.375	9.56
618.709	9.66
619.042	9.81
619.376	9.39
619.71	9.94
620.043	9.67
620.377	9.95
620.71	9.76
621.043	9.77
621.377	9.51
621.71	9.93
622.043	9.99
622.376	10.19
622.709	9.83
623.043	9.98
623.376	10.5
623.709	10.14
624.041	9.96
624.374	10.21
624.707	10
625.04	10.16
625.373	10.52
625.705	10.21
626.038	10.27
626.37	10.53
626.703	10.74
627.035	10.48
627.368	10.69
627.7	10.2
628.032	9.91
628.365	10.69
628.697	10.39
629.029	10.44
629.361	10.33
629.693	10.52
630.025	10.28
630.357	10.86
630.689	10.52
631.021	10.84
631.353	10.71
631.684	10.35
632.016	10.87
632.348	10.94
632.679	10.7
633.011	11.29
633.342	11.11
633.674	11.19
634.005	11.01
634.336	11.33
634.668	10.94
634.999	11.24
635.33	10.88
635.661	11.35
635.992	11.24
636.323	10.81
636.654	10.97
636.985	11.27
637.316	11.03
637.647	11.16
637.977	11.38
638.308	11.29
638.639	11.24
638.969	11.39
639.3	11.04
639.63	11.36
639.961	11.52
640.291	11.43
640.622	11.64
640.952	11.56
641.282	11.32
641.612	11.6
641.943	11.67
642.273	12.14
642.603	12.03
642.933	11.72
643.263	11.79
643.592	12
643.922	12.15
644.252	11.78
644.582	11.62
644.911	11.96
645.241	11.48
645.571	12.59
645.9	11.91
646.23	11.51
646.559	11.77
646.888	11.77
647.218	11.84
647.547	11.87
647.876	12.36
648.205	12.04
648.534	12.28
648.863	12.21
649.192	12.89
649.521	12.41
649.85	11.99
650.179	12.46
650.508	12.28
650.837	12.12
651.165	11.97
651.494	12.2
651.822	12.41
652.151	12.85
652.479	12.46
652.808	12.79
653.136	12.86
653.465	12.81
653.793	12.77
654.121	12.57
654.449	12.37
654.777	12.58
655.105	13.56
655.433	12.97
655.761	12.88
656.089	12.8
656.417	13.01
656.745	12.58
657.073	12.36
657.4	12.5
657.728	12.58
658.056	13.06
658.383	12.26
658.711	12.93
659.038	12.87
659.365	12.8
659.693	13.13
660.02	12.99
660.347	12.78
660.674	13.12
661.001	13.19
661.329	13.39
661.656	12.96
661.982	13.07
662.309	12.94
662.636	13.05
662.963	13.45
663.29	13.92
663.616	13.39
663.943	13.5
664.27	13.91
664.596	14.27
664.923	14.11
665.249	12.98
665.576	13.2
665.902	13.55
666.228	13.77
666.554	13.21
666.881	12.96
667.207	14.01
667.533	14.42
667.859	13.43
668.185	13.81
668.511	13.85
668.837	14.14
669.162	14.5
669.488	14.17
669.814	14.46
670.139	13.31
670.465	12.94
670.791	14.16
671.116	13.68
671.442	13.88
671.767	13.82
672.092	14.66
672.418	14
672.743	14.36
673.068	13.38
673.393	14
673.718	14.13
674.043	14.19
674.368	13.92
674.693	14.43
675.018	13.78
675.343	13.81
675.667	14.77
675.992	13.78
676.317	14.17
676.641	14.18
676.966	14.38
677.29	14.38
677.615	14.54
677.939	14.42
678.264	15.2
678.588	14.3
678.912	14.62
679.236	14.39
679.56	14.41
679.885	14.24
680.209	14.93
680.532	14.97
680.856	15.14
681.18	15.28
681.504	14.53
681.828	15.1
682.152	14.77
682.475	14.96
682.799	14.84
683.122	15.09
683.446	15.11
683.769	15.43
684.093	14.72
684.416	15.35
684.739	15.49
685.062	15.41
685.386	15.28
685.709	14.76
686.032	15.06
686.355	15.84
686.678	15.77
687.001	15.54
687.324	15.57
687.646	16.08
