Data from 0385_forehead_Reflection__1__242.txt Node

Date: Tue Dec 12 20:25:02 CST 2023
User: ToomeyLab
Spectrometer: FLMS14357
Trigger mode: 0
Integration Time (sec): 1.000000E-2
Scans to average: 100
Electric dark correction enabled: true
Nonlinearity correction enabled: false
Boxcar width: 0
XAxis mode: Wavelengths
Number of Pixels in Spectrum: 2048
>>>>>Begin Spectral Data<<<<<
189.047	-86.13
189.435	-86.13
189.823	-86.13
190.211	-59.55
190.599	-359.45
190.987	111.42
191.375	722.88
191.763	87.89
192.151	51.49
192.538	-331.32
192.926	549.01
193.314	-45.11
193.702	38.58
194.089	-1043.72
194.477	-41.6
194.864	130.1
195.252	194.29
195.639	452.45
196.027	77.92
196.414	21.39
196.801	2451.5
197.189	-42.48
197.576	-121.91
197.963	174.6
198.351	76.92
198.738	56.02
199.125	52.36
199.512	-9.34
199.899	23.23
200.286	14.14
200.673	18.29
201.06	-3.71
201.447	-79.03
201.833	33.19
202.22	15.96
202.607	-2329.52
202.994	103.58
203.38	40.23
203.767	43.12
204.154	74.24
204.54	26.72
204.927	-6.06
205.313	12.54
205.699	25.63
206.086	-66.05
206.472	48.63
206.858	50.6
207.245	33.07
207.631	40.01
208.017	74.31
208.403	15.97
208.789	35.73
209.175	-17
209.561	59.09
209.947	-16.12
210.333	50.71
210.719	68.7
211.105	-4.81
211.491	57.6
211.876	35.27
212.262	30.47
212.648	13.52
213.034	-25
213.419	12.78
213.805	38.26
214.19	43.83
214.576	20.7
214.961	16.15
215.346	14.84
215.732	31.2
216.117	-10.5
216.502	25.09
216.888	45.68
217.273	19.68
217.658	11.04
218.043	-9.58
218.428	45.11
218.813	-10.7
219.198	-34.81
219.583	21.82
219.968	15.87
220.353	19.19
220.738	15.46
221.122	18.35
221.507	-9.49
221.892	-2.49
222.276	26.1
222.661	1.4
223.046	8.99
223.43	17.33
223.815	2.49
224.199	23.14
224.583	19.03
224.968	15.18
225.352	6.25
225.736	9.19
226.121	7.85
226.505	12.43
226.889	13.14
227.273	9.8
227.657	16
228.041	10.76
228.425	4.33
228.809	5.18
229.193	3.97
229.577	5.61
229.961	3.41
230.344	6.15
230.728	6.59
231.112	5.9
231.495	7.04
231.879	6.68
232.263	4.57
232.646	7.33
233.03	7.23
233.413	5.13
233.797	7.8
234.18	2.99
234.563	3.91
234.946	8.02
235.33	9.23
235.713	8.62
236.096	5.85
236.479	6.01
236.862	4.78
237.245	7.58
237.628	5.21
238.011	6.23
238.394	5.98
238.777	4.62
239.16	5.04
239.543	7.26
239.925	5.88
240.308	8.05
240.691	4.92
241.073	6.76
241.456	7.01
241.838	5.15
242.221	7.06
242.603	7.19
242.986	5.25
243.368	6.29
243.75	5.86
244.133	5.44
244.515	5.77
244.897	5.97
245.279	6.45
245.661	4.89
246.043	5.36
246.425	6.41
246.807	3.56
247.189	6.23
247.571	6.51
247.953	5.99
248.335	5.63
248.717	5.59
249.098	5.78
249.48	5.78
249.862	5.59
250.243	5.78
250.625	6.63
251.006	5.67
251.388	6.14
251.769	6.3
252.151	5.69
252.532	6.18
252.913	7.33
253.295	6.29
253.676	5.71
254.057	5.4
254.438	5.99
254.819	6.11
255.2	6.1
255.581	6.3
255.962	5.11
256.343	6.89
256.724	5.69
257.105	6.41
257.486	6.43
257.867	5.88
258.247	6.12
258.628	6.88
259.009	6
259.389	5.3
259.77	5.89
260.15	6.16
260.531	6.23
260.911	6.39
261.292	5.35
261.672	5.57
262.052	5.65
262.432	5.99
262.813	5.21
263.193	5.85
263.573	6.14
263.953	6.52
264.333	7.1
264.713	5.9
265.093	5.8
265.473	6.61
265.853	5.45
266.233	5.22
266.612	6.2
266.992	5.73
267.372	6.29
267.752	5.96
268.131	5.3
268.511	5.71
268.89	4.75
269.27	5.15
269.649	4.72
270.029	5.69
270.408	6.07
270.787	5.66
271.167	6.13
271.546	6.06
271.925	6.49
272.304	6.25
272.683	5.08
273.062	5.69
273.441	5.73
273.82	5.28
274.199	6.02
274.578	5.81
274.957	5.58
275.336	5.78
275.715	6.32
276.093	4.66
276.472	5.89
276.851	6.26
277.229	5.07
277.608	5.6
277.986	5.62
278.365	5.39
278.743	5.5
279.122	5.94
279.5	5.58
279.878	5.43
280.257	5.64
280.635	5.67
281.013	5.42
281.391	5.76
281.769	5.69
282.147	5.25
282.525	5.55
282.903	5.39
283.281	5.47
283.659	5.83
284.037	5.71
284.415	5.5
284.792	5.84
285.17	5.94
285.548	5.45
285.925	5.59
286.303	5.81
286.68	5.71
287.058	5.5
287.435	5.83
287.813	5.6
288.19	5.75
288.567	5.7
288.945	5.94
289.322	5.66
289.699	5.46
290.076	6.1
290.453	6.19
290.83	5.38
291.207	6.5
291.584	6.03
291.961	5.98
292.338	6.4
292.715	5.97
293.092	5.97
293.469	6.21
293.845	6.34
294.222	6.61
294.599	7.22
294.975	6.3
295.352	6.46
295.728	6.02
296.105	6.94
296.481	7.03
296.858	6.74
297.234	7.29
297.61	6.68
297.986	6.98
298.363	6.71
298.739	6.41
299.115	6.41
299.491	6.57
299.867	6.67
300.243	6.82
300.619	6.96
300.995	7.22
301.371	7.32
301.746	7.53
302.122	7.68
302.498	7.59
302.874	7.44
303.249	7.57
303.625	7.47
304	8.04
304.376	7.69
304.751	8.55
305.127	8.03
305.502	8.3
305.878	7.95
306.253	7.92
306.628	7.87
307.003	8.12
307.378	7.81
307.754	8.34
308.129	8.67
308.504	9.13
308.879	8.19
309.254	9
309.629	8.41
310.003	8.51
310.378	9
310.753	9.64
311.128	9.21
311.502	8.51
311.877	8.8
312.252	8.66
312.626	9.05
313.001	9.19
313.375	8.79
313.75	9.83
314.124	9.76
314.498	9.5
314.873	9.75
315.247	9.79
315.621	9.67
315.995	9.9
316.369	10.12
316.743	8.89
317.117	10.04
317.491	10.13
317.865	10.5
318.239	10.31
318.613	11.13
318.987	10.18
319.361	10.5
319.734	10.18
320.108	10.84
320.482	11.05
320.855	10.83
321.229	11.45
321.602	11.49
321.976	11.15
322.349	11.18
322.723	10.78
323.096	11.06
323.469	11.77
323.843	12.37
324.216	11.51
324.589	11.49
324.962	12.28
325.335	12.33
325.708	11.51
326.081	12.11
326.454	12.08
326.827	12.4
327.2	11.96
327.573	11.85
327.945	12.18
328.318	12.31
328.691	12.12
329.063	12.07
329.436	13.05
329.809	12.75
330.181	11.78
330.553	12.72
330.926	12.66
331.298	12.19
331.671	13.34
332.043	12.8
332.415	13.19
332.787	13.58
333.159	13.48
333.532	13.21
333.904	13.42
334.276	13.37
334.648	13.5
335.02	12.44
335.391	12.82
335.763	13.41
336.135	13.12
336.507	13.53
336.879	13.09
337.25	13.54
337.622	13.6
337.993	13.34
338.365	13.82
338.736	13.89
339.108	14.07
339.479	14.17
339.851	13.21
340.222	13.6
340.593	14.03
340.964	14.46
341.336	14.28
341.707	14.1
342.078	13.52
342.449	14.32
342.82	14.64
343.191	14.25
343.562	14.31
343.933	14.85
344.303	14.76
344.674	14.56
345.045	14.46
345.416	14.79
345.786	14.47
346.157	14.89
346.527	15.28
346.898	14.82
347.268	15.18
347.639	15.15
348.009	15.29
348.38	14.83
348.75	15.65
349.12	15.24
349.49	14.92
349.861	15.3
350.231	15.58
350.601	15.85
350.971	15.42
351.341	15.89
351.711	15.86
352.081	16.27
352.45	15.94
352.82	15.98
353.19	15.96
353.56	15.99
353.929	15.66
354.299	15.61
354.669	16.24
355.038	15.43
355.408	16.01
355.777	16.06
356.147	16.19
356.516	16.35
356.885	16.08
357.254	16.46
357.624	16.36
357.993	16.02
358.362	16.44
358.731	16.82
359.1	16.5
359.469	16.41
359.838	16.51
360.207	16.42
360.576	17.4
360.945	16.97
361.314	17.21
361.682	16.67
362.051	17.18
362.42	17.19
362.788	16.95
363.157	17.61
363.525	17.17
363.894	17.05
364.262	16.96
364.631	16.85
364.999	17.26
365.367	17.81
365.735	17.48
366.104	17.69
366.472	17.47
366.84	18.02
367.208	17.94
367.576	17.65
367.944	17.91
368.312	17.72
368.68	18.34
369.048	17.93
369.416	18.09
369.783	17.98
370.151	18.08
370.519	18.25
370.886	18.38
371.254	18.05
371.621	18.67
371.989	18.22
372.356	18.51
372.724	18.52
373.091	18.31
373.458	18.65
373.826	18.57
374.193	18.67
374.56	18.73
374.927	19.01
375.294	19.12
375.661	19.46
376.028	19.23
376.395	19.58
376.762	19.79
377.129	19.15
377.496	19.25
377.863	19.36
378.229	19.16
378.596	18.98
378.963	19.21
379.329	19.4
379.696	19.38
380.062	19.71
380.429	19.8
380.795	19.88
381.161	19.93
381.528	20.01
381.894	20.02
382.26	19.8
382.626	19.94
382.993	20.2
383.359	19.88
383.725	19.85
384.091	20.09
384.457	20.05
384.823	20.32
385.188	20.24
385.554	20.38
385.92	20.3
386.286	20.65
386.651	20.62
387.017	20.81
387.383	20.74
387.748	20.85
388.114	20.76
388.479	20.76
388.845	20.77
389.21	20.89
389.575	20.91
389.94	20.75
390.306	20.94
390.671	20.81
391.036	21.14
391.401	21.37
391.766	21.58
392.131	21.6
392.496	21.21
392.861	21.17
393.226	21.54
393.591	21.47
393.956	21.28
394.32	21.86
394.685	21.82
395.05	21.62
395.414	21.62
395.779	21.36
396.143	22.08
396.508	21.89
396.872	21.75
397.236	21.99
397.601	22.03
397.965	22.19
398.329	21.99
398.694	22.04
399.058	22.42
399.422	22.23
399.786	22.39
400.15	22.01
400.514	22.61
400.878	22.96
401.242	22.49
401.605	22.62
401.969	22.47
402.333	23.01
402.697	22.86
403.06	22.52
403.424	23.18
403.787	22.93
404.151	22.7
404.514	22.9
404.878	22.91
405.241	23.1
405.604	22.74
405.968	22.67
406.331	23.12
406.694	23.34
407.057	23.12
407.42	23.37
407.783	23.28
408.146	23.29
408.509	23.29
408.872	23.3
409.235	23.7
409.598	23.2
409.961	23.55
410.323	23.81
410.686	23.63
411.049	23.9
411.411	23.65
411.774	23.98
412.136	23.95
412.499	23.83
412.861	23.86
413.223	24.29
413.586	24.15
413.948	24.43
414.31	24.23
414.672	24.35
415.035	24.47
415.397	24.3
415.759	24.53
416.121	24.31
416.483	24.62
416.845	24.52
417.206	24.72
417.568	24.5
417.93	24.57
418.292	24.68
418.653	24.75
419.015	24.83
419.377	24.68
419.738	24.93
420.1	24.8
420.461	24.68
420.822	24.95
421.184	24.78
421.545	24.88
421.906	24.81
422.267	24.88
422.629	24.76
422.99	24.89
423.351	24.81
423.712	24.88
424.073	24.98
424.434	25.12
424.795	25.17
425.155	25.11
425.516	25.29
425.877	25.23
426.238	25.25
426.598	25.32
426.959	25.39
427.32	25.59
427.68	25.79
428.041	25.8
428.401	25.8
428.761	25.79
429.122	25.99
429.482	26.13
429.842	26.11
430.202	26.57
430.563	26.35
430.923	26.3
431.283	26.28
431.643	26.42
432.003	26.43
432.363	26.54
432.722	26.54
433.082	26.85
433.442	26.84
433.802	26.87
434.161	26.92
434.521	26.89
434.881	27.01
435.24	26.9
435.6	27.01
435.959	26.86
436.319	27.06
436.678	27.2
437.037	27.43
437.396	27.18
437.756	26.96
438.115	27.29
438.474	27.34
438.833	27.48
439.192	27.62
439.551	27.47
439.91	27.54
440.269	27.49
440.628	27.79
440.987	27.49
441.345	27.59
441.704	27.76
442.063	27.86
442.421	27.68
442.78	27.52
443.138	27.81
443.497	27.73
443.855	27.73
444.214	28.06
444.572	28.37
444.93	28.26
445.288	28.07
445.647	28.64
446.005	28.49
446.363	28.33
446.721	28.29
447.079	28.45
447.437	28.35
447.795	28.41
448.153	28.31
448.51	28.43
448.868	28.44
449.226	28.44
449.584	28.51
449.941	28.76
450.299	28.77
450.656	28.8
451.014	29.12
451.371	28.99
451.729	29.32
452.086	29.19
452.443	29.56
452.801	29.36
453.158	29.31
453.515	29.6
453.872	29.69
454.229	29.84
454.586	29.5
454.943	29.65
455.3	29.58
455.657	29.91
456.014	29.98
456.371	29.95
456.727	29.99
457.084	29.87
457.441	29.99
457.797	30.2
458.154	30.19
458.51	30.35
458.867	30.39
459.223	30.31
459.58	30.57
459.936	30.32
460.292	30.26
460.648	30.37
461.005	30.37
461.361	30.25
461.717	30.19
462.073	30.31
462.429	30.32
462.785	30.48
463.141	30.33
463.496	30.67
463.852	31
464.208	31.11
464.564	31.03
464.919	31.1
465.275	31.42
465.631	31.29
465.986	31.49
466.342	31.11
466.697	31.36
467.052	31.63
467.408	31.53
467.763	31.49
468.118	31.55
468.473	31.73
468.829	31.66
469.184	31.5
469.539	31.94
469.894	32.13
470.249	31.87
470.603	31.99
470.958	32.07
471.313	32.28
471.668	32.26
472.023	32.19
472.377	32.46
472.732	32.4
473.086	32.26
473.441	32.36
473.795	32.38
474.15	32.46
474.504	32.66
474.859	32.79
475.213	32.7
475.567	32.59
475.921	32.82
476.275	32.55
476.63	32.9
476.984	32.79
477.338	32.86
477.692	32.93
478.045	33.02
478.399	32.79
478.753	32.88
479.107	32.85
479.461	32.97
479.814	33.08
480.168	32.89
480.521	32.98
480.875	33.26
481.228	32.96
481.582	33.37
481.935	33.31
482.289	33.49
482.642	33.51
482.995	33.36
483.348	33.25
483.701	33.34
484.055	33.31
484.408	33.06
484.761	32.89
485.114	32.59
485.466	32.48
485.819	32.52
486.172	32.57
486.525	32.58
486.878	32.68
487.23	32.93
487.583	33.16
487.936	33.2
488.288	33.36
488.641	33.23
488.993	33.23
489.345	33.12
489.698	33.15
490.05	33.14
490.402	33.22
490.754	33.48
491.107	33.66
491.459	33.84
491.811	34.04
492.163	34.17
492.515	34.21
492.866	33.93
493.218	33.83
493.57	33.73
493.922	33.84
494.274	33.97
494.625	34.21
494.977	34.44
495.328	34.56
495.68	34.81
496.031	35.23
496.383	35.15
496.734	35.07
497.086	35.31
497.437	35.24
497.788	35.43
498.139	35.58
498.49	35.32
498.842	35.44
499.193	35.32
499.544	35.51
499.894	35.44
500.245	35.8
500.596	35.69
500.947	35.89
501.298	36.1
501.648	36.08
501.999	35.86
502.35	36
502.7	36.24
503.051	36.21
503.401	36.08
503.752	36.49
504.102	36.39
504.452	36.43
504.803	36.52
505.153	36.52
505.503	36.51
505.853	36.57
506.203	36.48
506.553	36.49
506.903	36.68
507.253	36.78
507.603	36.81
507.953	36.85
508.303	36.99
508.652	36.7
509.002	37.11
509.352	37.22
509.701	37.21
510.051	36.89
510.4	37.09
510.75	36.83
511.099	37.06
511.449	37.16
511.798	37.08
512.147	37.3
512.496	37.19
512.846	37.22
513.195	37.22
513.544	37.44
513.893	37.29
514.242	37.42
514.591	37.38
514.939	37.64
515.288	37.61
515.637	37.69
515.986	37.95
516.334	37.83
516.683	38.15
517.032	38.03
517.38	38.23
517.729	38.12
518.077	38.24
518.426	38.17
518.774	38.42
519.122	38.05
519.47	37.93
519.819	38.2
520.167	37.83
520.515	37.96
520.863	37.88
521.211	37.97
521.559	38.13
521.907	38.17
522.255	38.5
522.602	38.64
522.95	38.85
523.298	38.75
523.645	39.07
523.993	39.11
524.341	38.97
524.688	38.91
525.036	39.21
525.383	39.26
525.73	39.22
526.078	39.11
526.425	38.99
526.772	39.14
527.119	39.09
527.466	38.87
527.814	38.74
528.161	38.96
528.508	38.88
528.854	38.9
529.201	38.98
529.548	38.97
529.895	38.75
530.242	38.54
530.588	38.57
530.935	38.59
531.282	38.53
531.628	38.8
531.975	38.87
532.321	39.25
532.667	39.25
533.014	39.41
533.36	39.57
533.706	39.67
534.052	39.76
534.399	39.73
534.745	39.69
535.091	39.53
535.437	39.49
535.783	39.55
536.129	39.69
536.474	39.93
536.82	39.94
537.166	40.07
537.512	40.25
537.857	40.57
538.203	40.3
538.549	40.46
538.894	40.28
539.239	40.52
539.585	40.7
539.93	40.86
540.276	41.11
540.621	40.92
540.966	41.25
541.311	41.23
541.656	41.23
542.001	40.98
542.346	40.97
542.691	40.78
543.036	40.46
543.381	40.52
543.726	40.64
544.071	40.59
544.415	40.88
544.76	40.82
545.105	41.08
545.449	41.05
545.794	41.61
546.138	41.47
546.483	41.72
546.827	41.65
547.171	41.98
547.516	41.88
547.86	41.9
548.204	41.94
548.548	42.06
548.892	41.97
549.236	42.1
549.58	42.4
549.924	42.26
550.268	42.25
550.612	42.43
550.956	42.96
551.3	42.9
551.643	42.91
551.987	43.02
552.33	43.25
552.674	43.18
553.017	43.12
553.361	43.37
553.704	43.36
554.048	43.31
554.391	43.45
554.734	43.56
555.077	43.39
555.42	43.15
555.764	43.68
556.107	43.46
556.45	43.57
556.793	43.54
557.135	43.77
557.478	43.87
557.821	44.1
558.164	44.08
558.507	44.06
558.849	43.99
559.192	44.12
559.534	44
559.877	44.33
560.219	44.34
560.562	44.33
560.904	44.46
561.246	44.64
561.589	44.41
561.931	44.6
562.273	44.79
562.615	44.59
562.957	44.51
563.299	44.78
563.641	44.43
563.983	44.95
564.325	44.88
564.667	44.93
565.008	45.02
565.35	45.23
565.692	45.45
566.033	45.04
566.375	44.9
566.716	44.97
567.058	45.09
567.399	45.12
567.741	45.13
568.082	45.15
568.423	45.06
568.764	45.17
569.105	45.33
569.447	45.21
569.788	45.36
570.129	45.52
570.47	45.66
570.811	45.77
571.151	45.44
571.492	45.6
571.833	45.54
572.174	45.67
572.514	45.53
572.855	45.8
573.195	45.92
573.536	45.89
573.876	45.92
574.217	46.12
574.557	45.95
574.898	45.96
575.238	45.94
575.578	46.03
575.918	46.34
576.258	46.34
576.598	46.33
576.938	46.19
577.278	46.61
577.618	46.57
577.958	46.38
578.298	46.56
578.638	46.68
578.977	46.89
579.317	46.65
579.657	46.86
579.996	47.32
580.336	47.25
580.675	47.28
581.014	47.18
581.354	47.07
581.693	47.22
582.032	47.11
582.372	47.67
582.711	47.46
583.05	47.47
583.389	47.4
583.728	47.92
584.067	47.54
584.406	47.98
584.745	48.11
585.083	47.59
585.422	48.45
585.761	48.11
586.1	47.93
586.438	48.15
586.777	48.08
587.115	48.08
587.454	48.35
587.792	48.18
588.13	48.57
588.469	48.26
588.807	48.52
589.145	48.3
589.483	48.76
589.821	48.75
590.159	48.41
590.497	48.83
590.835	48.56
591.173	48.72
591.511	48.68
591.849	48.65
592.187	48.46
592.524	48.8
592.862	48.74
593.2	49.3
593.537	48.78
593.875	48.98
594.212	48.84
594.55	49.04
594.887	49.38
595.224	48.87
595.561	49.18
595.899	49.59
596.236	49.51
596.573	49.48
596.91	49.37
597.247	49.08
597.584	49.31
597.921	49.54
598.258	49.73
598.594	49.35
598.931	49.27
599.268	49.13
599.604	49.23
599.941	49.62
600.277	49.76
600.614	49.96
600.95	49.93
601.287	49.94
601.623	49.97
601.959	50.22
602.296	50.28
602.632	50.18
602.968	50.24
603.304	49.96
603.64	50.46
603.976	50.49
604.312	50.36
604.648	50.68
604.984	50.91
605.319	50.13
605.655	50.14
605.991	50.14
606.326	49.95
606.662	50.37
606.998	50.23
607.333	50
607.668	50.43
608.004	50.69
608.339	50.68
608.674	51.05
609.01	51.2
609.345	51.02
609.68	50.82
610.015	51.15
610.35	51.21
610.685	51.09
611.02	51.06
611.355	50.69
611.689	51.13
612.024	50.65
612.359	51.12
612.694	51.24
613.028	51.22
613.363	51.17
613.697	51.38
614.032	51.3
614.366	51.37
614.7	52.31
615.035	51.88
615.369	52.21
615.703	51.8
616.037	51.91
616.371	51.54
616.705	52.17
617.039	51.94
617.373	52.17
617.707	52.09
618.041	52.5
618.375	51.9
618.709	52.26
619.042	52.52
619.376	52.33
619.71	52.29
620.043	53.08
620.377	52.91
620.71	52.25
621.043	52.7
621.377	52.33
621.71	52.88
622.043	52.82
622.376	52.82
622.709	52.76
623.043	52.9
623.376	53.24
623.709	53.11
624.041	53.03
624.374	52.8
624.707	53.1
625.04	53.07
625.373	53.12
625.705	52.85
626.038	53.02
626.37	52.95
626.703	53.45
627.035	52.69
627.368	53.28
627.7	53.22
628.032	53.18
628.365	53.17
628.697	52.91
629.029	53.2
629.361	53.26
629.693	53.27
630.025	53.37
630.357	53.76
630.689	53.36
631.021	53.54
631.353	53.96
631.684	53.96
632.016	53.99
632.348	53.74
632.679	53.65
633.011	53.7
633.342	53.87
633.674	54.01
634.005	54.05
634.336	54.04
634.668	54.25
634.999	53.66
635.33	53.92
635.661	54.37
635.992	54.63
636.323	54.38
636.654	54.36
636.985	54.19
637.316	54.4
637.647	54.14
637.977	54.09
638.308	54.6
638.639	54.41
638.969	54.75
639.3	55.03
639.63	54.43
639.961	54.46
640.291	54.98
640.622	54.71
640.952	55.18
641.282	54.88
641.612	54.79
641.943	55.12
642.273	55.33
642.603	55.05
642.933	55.03
643.263	55.24
643.592	55.36
643.922	55.51
644.252	55.1
644.582	54.94
644.911	55.64
645.241	55.43
645.571	55.16
645.9	55.67
646.23	55.21
646.559	55.42
646.888	55.42
647.218	55.85
647.547	55.68
647.876	55.99
648.205	55.34
648.534	55.96
648.863	55.63
649.192	56.13
649.521	56.17
649.85	55.2
650.179	55.71
650.508	56.02
650.837	55.84
651.165	55.31
651.494	55.43
651.822	55.62
652.151	55.87
652.479	56.23
652.808	56.37
653.136	56.4
653.465	55.93
653.793	56
654.121	56.29
654.449	56.02
654.777	55.81
655.105	56.56
655.433	56.27
655.761	56.52
656.089	56.43
656.417	56.56
656.745	56.92
657.073	56.27
657.4	56.05
657.728	56.88
658.056	56.41
658.383	56.81
658.711	56.45
659.038	57.04
659.365	56.78
659.693	56.55
660.02	57.03
660.347	56.32
660.674	56.88
661.001	56.8
661.329	56.71
661.656	56.36
661.982	57.1
662.309	57.32
662.636	57.17
662.963	56.9
663.29	57.6
663.616	57.27
663.943	57.07
664.27	57.6
664.596	57.27
664.923	57.87
665.249	56.4
665.576	58.04
665.902	57.72
666.228	57.95
666.554	57.4
666.881	57.58
667.207	57.22
667.533	57.73
667.859	57.7
668.185	57.22
668.511	57.92
668.837	58.14
