Data from 0385_chest_Reflection__5__233.txt Node

Date: Tue Dec 12 20:22:12 CST 2023
User: ToomeyLab
Spectrometer: FLMS14357
Trigger mode: 0
Integration Time (sec): 1.000000E-2
Scans to average: 100
Electric dark correction enabled: true
Nonlinearity correction enabled: false
Boxcar width: 0
XAxis mode: Wavelengths
Number of Pixels in Spectrum: 2048
>>>>>Begin Spectral Data<<<<<
189.047	-162.01
189.435	-162.01
189.823	-162.01
190.211	-59.65
190.599	-322.09
190.987	206.55
191.375	-2308.5
191.763	140.65
192.151	34.63
192.538	164.53
192.926	229.7
193.314	-80.68
193.702	130.72
194.089	-377.33
194.477	131.71
194.864	-21.57
195.252	365.76
195.639	-104.9
196.027	63.49
196.414	121.69
196.801	2249.1
197.189	33.5
197.576	278.23
197.963	86.77
198.351	23.04
198.738	40.24
199.125	-7.91
199.512	-3.65
199.899	34.13
200.286	31.56
200.673	-67.42
201.06	-57.37
201.447	-202.87
201.833	-65.26
202.22	-8.1
202.607	-3302.86
202.994	-6.01
203.38	-6.98
203.767	-57.3
204.154	20.21
204.54	31.88
204.927	68.75
205.313	4.68
205.699	11.58
206.086	-30.91
206.472	24.01
206.858	-10.79
207.245	-18.03
207.631	3.99
208.017	6.62
208.403	-18.86
208.789	-11.16
209.175	-87.58
209.561	-11.86
209.947	-75.82
210.333	12.07
210.719	-30.41
211.105	-0.38
211.491	42.65
211.876	46.99
212.262	5.56
212.648	-39.5
213.034	-102.45
213.419	-36.33
213.805	-5.69
214.19	42.74
214.576	30.4
214.961	1.47
215.346	-12.28
215.732	29.31
216.117	-36.46
216.502	-35.32
216.888	-53.74
217.273	-47.38
217.658	-96.37
218.043	-55.07
218.428	-1.65
218.813	11.87
219.198	-58.96
219.583	21.83
219.968	16.8
220.353	6.17
220.738	16.59
221.122	12.33
221.507	-6.38
221.892	-1.2
222.276	8.27
222.661	15.36
223.046	-2.71
223.43	1.62
223.815	-10
224.199	1.86
224.583	-8.49
224.968	7.21
225.352	0.6
225.736	-1.2
226.121	-3.41
226.505	-5.57
226.889	-9.43
227.273	8.25
227.657	9.9
228.041	3.18
228.425	-5.37
228.809	-1.29
229.193	2.22
229.577	3.63
229.961	2.68
230.344	3.39
230.728	4.64
231.112	4.92
231.495	3.77
231.879	4.92
232.263	3.04
232.646	3.46
233.03	4.68
233.413	2.22
233.797	1.82
234.18	3.54
234.563	2.72
234.946	5
235.33	5.16
235.713	5.42
236.096	3.69
236.479	3.1
236.862	4.5
237.245	3.58
237.628	5.06
238.011	2.96
238.394	3.5
238.777	2.39
239.16	2.83
239.543	4.71
239.925	4.18
240.308	3.51
240.691	3.76
241.073	4.76
241.456	5.34
241.838	2.69
242.221	5.14
242.603	4.73
242.986	3.37
243.368	4.69
243.75	3.22
244.133	3.83
244.515	4.04
244.897	4.81
245.279	4.43
245.661	3.92
246.043	3.02
246.425	4.33
246.807	3.28
247.189	3.95
247.571	4.45
247.953	3.25
248.335	4.01
248.717	4.1
249.098	4.05
249.48	3.6
249.862	3.95
250.243	3.78
250.625	4.73
251.006	3.96
251.388	3.86
251.769	3.07
252.151	2.96
252.532	3.7
252.913	4.79
253.295	4.59
253.676	3.19
254.057	3.93
254.438	4.19
254.819	3.39
255.2	4.61
255.581	4.46
255.962	3.11
256.343	3.35
256.724	3.88
257.105	4.24
257.486	2.87
257.867	2.58
258.247	3.57
258.628	3.6
259.009	2.92
259.389	3.51
259.77	3.08
260.15	3.54
260.531	4.03
260.911	3.91
261.292	3.19
261.672	3.54
262.052	3.55
262.432	3.75
262.813	3.38
263.193	3.71
263.573	2.93
263.953	4.45
264.333	5.15
264.713	3.67
265.093	4.26
265.473	4.73
265.853	2.56
266.233	3.34
266.612	2.7
266.992	3.24
267.372	3.66
267.752	4.17
268.131	2.18
268.511	2.89
268.89	3
269.27	3.17
269.649	3.18
270.029	3.07
270.408	3.72
270.787	3.2
271.167	3.46
271.546	3.21
271.925	3.31
272.304	3.74
272.683	2.85
273.062	3.43
273.441	3.97
273.82	2.89
274.199	3.7
274.578	3.06
274.957	3.12
275.336	3.64
275.715	3.8
276.093	2.56
276.472	3.47
276.851	3.64
277.229	2.62
277.608	3.34
277.986	2.75
278.365	3.32
278.743	3.78
279.122	3.78
279.5	3.08
279.878	3.03
280.257	2.72
280.635	3.34
281.013	3.33
281.391	3.8
281.769	3.05
282.147	2.99
282.525	3.19
282.903	3.75
283.281	3.24
283.659	3.8
284.037	3.53
284.415	3
284.792	3.44
285.17	2.37
285.548	2.9
285.925	3.3
286.303	3.17
286.68	3.5
287.058	3.8
287.435	3.48
287.813	3
288.19	3.14
288.567	3.43
288.945	3.36
289.322	2.63
289.699	3.19
290.076	3.2
290.453	3.56
290.83	3.15
291.207	3.76
291.584	3.45
291.961	3.48
292.338	3.07
292.715	2.89
293.092	3.12
293.469	2.88
293.845	3.28
294.222	3.59
294.599	2.91
294.975	2.6
295.352	3.47
295.728	3.52
296.105	3.19
296.481	3.4
296.858	3.49
297.234	3.62
297.61	2.93
297.986	3.37
298.363	3.48
298.739	3.26
299.115	2.9
299.491	3.21
299.867	3.2
300.243	3.32
300.619	3.2
300.995	3.73
301.371	3.16
301.746	2.99
302.122	4.06
302.498	3
302.874	3.35
303.249	3.91
303.625	2.93
304	3.25
304.376	3.05
304.751	3.63
305.127	3.7
305.502	3.95
305.878	3.07
306.253	3.4
306.628	3.39
307.003	3.39
307.378	3.55
307.754	3.75
308.129	2.82
308.504	4.06
308.879	3.55
309.254	3.27
309.629	3.07
310.003	3.73
310.378	3.67
310.753	3.86
311.128	4.02
311.502	3
311.877	3.38
312.252	3.11
312.626	3.63
313.001	3.26
313.375	2.73
313.75	3.32
314.124	3.65
314.498	3
314.873	2.92
315.247	3.58
315.621	3.07
315.995	3.58
316.369	3.16
316.743	2.82
317.117	2.7
317.491	3.12
317.865	3.28
318.239	3.02
318.613	3.4
318.987	3.95
319.361	2.64
319.734	2.44
320.108	3.25
320.482	2.79
320.855	2.75
321.229	3.07
321.602	3.86
321.976	3.14
322.349	4.1
322.723	2.96
323.096	3.12
323.469	3.41
323.843	4.01
324.216	3.62
324.589	3.28
324.962	3.65
325.335	3.38
325.708	3.36
326.081	4.06
326.454	2.92
326.827	3.57
327.2	3.37
327.573	2.74
327.945	3.32
328.318	3.92
328.691	2.27
329.063	3.8
329.436	3.9
329.809	3.29
330.181	3.23
330.553	3.4
330.926	3.4
331.298	3.45
331.671	3.26
332.043	2.57
332.415	3.33
332.787	2.92
333.159	3.08
333.532	3.04
333.904	2.85
334.276	3.98
334.648	2.85
335.02	2.48
335.391	2.68
335.763	3.01
336.135	3.25
336.507	3.15
336.879	3.05
337.25	3.09
337.622	3.07
337.993	3.05
338.365	2.83
338.736	3.52
339.108	2.59
339.479	3.66
339.851	3.73
340.222	2.45
340.593	3.39
340.964	3.39
341.336	3.26
341.707	3.08
342.078	2.98
342.449	3
342.82	3.4
343.191	3.36
343.562	3.43
343.933	3.43
344.303	3.55
344.674	3.35
345.045	3.16
345.416	3.25
345.786	3.05
346.157	3.45
346.527	3.69
346.898	2.93
347.268	2.85
347.639	3.17
348.009	3.14
348.38	3.11
348.75	3.7
349.12	3.34
349.49	2.83
349.861	3.47
350.231	3.18
350.601	3.83
350.971	3.39
351.341	3.25
351.711	3.68
352.081	3.25
352.45	3.06
352.82	3.16
353.19	3.17
353.56	2.96
353.929	2.95
354.299	3.03
354.669	3.3
355.038	3
355.408	3.02
355.777	3.54
356.147	2.99
356.516	3.28
356.885	3.07
357.254	3.25
357.624	2.67
357.993	3.29
358.362	3.56
358.731	3.49
359.1	2.87
359.469	2.94
359.838	3.11
360.207	2.97
360.576	3.58
360.945	3.23
361.314	3.64
361.682	3.54
362.051	3.79
362.42	3.66
362.788	3.3
363.157	3.84
363.525	3.31
363.894	3.19
364.262	3.35
364.631	2.98
364.999	3.5
365.367	3.49
365.735	3.5
366.104	3.26
366.472	3.1
366.84	3.13
367.208	3.48
367.576	3.38
367.944	3.33
368.312	3.22
368.68	3.19
369.048	3.36
369.416	3.23
369.783	3.37
370.151	3.49
370.519	3.25
370.886	3.54
371.254	3.14
371.621	3.26
371.989	3.15
372.356	3.1
372.724	3.08
373.091	3.28
373.458	3
373.826	3.31
374.193	2.87
374.56	3.54
374.927	3.52
375.294	3.38
375.661	3.56
376.028	3.13
376.395	3.42
376.762	3.59
377.129	3.67
377.496	3.44
377.863	3.43
378.229	3.44
378.596	3.43
378.963	3.41
379.329	3.08
379.696	3.26
380.062	3.89
380.429	3.48
380.795	3.48
381.161	3.65
381.528	3.42
381.894	3.42
382.26	3.27
382.626	2.92
382.993	3.39
383.359	3.23
383.725	3.17
384.091	3.25
384.457	3.45
384.823	3.22
385.188	3.5
385.554	3.43
385.92	3.41
386.286	3.5
386.651	3.44
387.017	3.73
387.383	3.35
387.748	3.5
388.114	3.56
388.479	3.66
388.845	3.51
389.21	3.5
389.575	3.43
389.94	3.24
390.306	3.49
390.671	3.41
391.036	3.45
391.401	3.26
391.766	3.3
392.131	3.39
392.496	3.47
392.861	3.04
393.226	3.64
393.591	3.38
393.956	3.45
394.32	3.52
394.685	3.5
395.05	3.55
395.414	3.5
395.779	3.35
396.143	3.56
396.508	3.55
396.872	3.33
397.236	3.42
397.601	3.39
397.965	3.43
398.329	3.52
398.694	3.31
399.058	3.72
399.422	3.5
399.786	3.4
400.15	3.43
400.514	3.88
400.878	3.49
401.242	3.17
401.605	3.81
401.969	3.54
402.333	3.43
402.697	3.34
403.06	2.81
403.424	3.34
403.787	3.35
404.151	3.47
404.514	3.42
404.878	3.43
405.241	3.35
405.604	3.18
405.968	3.38
406.331	3.67
406.694	3.63
407.057	3.35
407.42	3.37
407.783	3.33
408.146	3.59
408.509	3.48
408.872	3.53
409.235	3.44
409.598	3.43
409.961	3.38
410.323	3.49
410.686	3.4
411.049	3.56
411.411	3.48
411.774	3.53
412.136	3.44
412.499	3.29
412.861	3.58
413.223	3.73
413.586	3.49
413.948	3.65
414.31	3.76
414.672	3.56
415.035	3.43
415.397	3.55
415.759	3.55
416.121	3.44
416.483	3.64
416.845	3.49
417.206	3.7
417.568	3.34
417.93	3.64
418.292	3.31
418.653	3.57
419.015	3.66
419.377	3.43
419.738	3.53
420.1	3.53
420.461	3.54
420.822	3.6
421.184	3.54
421.545	3.82
421.906	3.55
422.267	3.44
422.629	3.5
422.99	3.55
423.351	3.5
423.712	3.49
424.073	3.53
424.434	3.55
424.795	3.48
425.155	3.32
425.516	3.42
425.877	3.51
426.238	3.55
426.598	3.41
426.959	3.43
427.32	3.46
427.68	3.49
428.041	3.52
428.401	3.46
428.761	3.51
429.122	3.58
429.482	3.86
429.842	3.7
430.202	3.55
430.563	3.64
430.923	3.54
431.283	3.51
431.643	3.59
432.003	3.37
432.363	3.6
432.722	3.44
433.082	3.39
433.442	3.35
433.802	3.74
434.161	3.4
434.521	3.61
434.881	3.47
435.24	3.64
435.6	3.53
435.959	3.56
436.319	3.63
436.678	3.75
437.037	3.53
437.396	3.53
437.756	3.64
438.115	3.55
438.474	3.58
438.833	3.61
439.192	3.77
439.551	3.58
439.91	3.46
440.269	3.6
440.628	3.62
440.987	3.47
441.345	3.58
441.704	3.5
442.063	3.46
442.421	3.65
442.78	3.6
443.138	3.47
443.497	3.57
443.855	3.63
444.214	3.62
444.572	3.83
444.93	3.71
445.288	3.51
445.647	3.83
446.005	3.54
446.363	3.37
446.721	3.49
447.079	3.58
447.437	3.5
447.795	3.67
448.153	3.49
448.51	3.6
448.868	3.6
449.226	3.67
449.584	3.5
449.941	3.57
450.299	3.66
450.656	3.51
451.014	3.58
451.371	3.64
451.729	3.83
452.086	3.57
452.443	3.86
452.801	3.8
453.158	3.66
453.515	3.75
453.872	3.66
454.229	3.7
454.586	3.52
454.943	3.6
455.3	3.5
455.657	3.63
456.014	3.68
456.371	3.68
456.727	3.76
457.084	3.61
457.441	3.67
457.797	3.71
458.154	3.58
458.51	3.65
458.867	3.83
459.223	3.62
459.58	3.62
459.936	3.59
460.292	3.59
460.648	3.77
461.005	3.6
461.361	3.6
461.717	3.67
462.073	3.57
462.429	3.68
462.785	3.61
463.141	3.68
463.496	3.54
463.852	3.91
464.208	3.66
464.564	3.55
464.919	3.74
465.275	3.7
465.631	3.8
465.986	3.76
466.342	3.57
466.697	3.75
467.052	3.83
467.408	3.74
467.763	3.78
468.118	3.79
468.473	3.82
468.829	3.79
469.184	3.6
469.539	3.73
469.894	3.88
470.249	3.91
470.603	3.76
470.958	3.76
471.313	3.97
471.668	3.89
472.023	3.7
472.377	3.51
472.732	3.84
473.086	3.76
473.441	3.99
473.795	3.84
474.15	3.82
474.504	3.64
474.859	3.76
475.213	3.67
475.567	3.62
475.921	3.83
476.275	3.68
476.63	3.67
476.984	3.88
477.338	3.74
477.692	3.83
478.045	3.84
478.399	3.71
478.753	3.74
479.107	3.65
479.461	3.82
479.814	3.89
480.168	3.66
480.521	3.72
480.875	4
481.228	3.81
481.582	3.79
481.935	3.92
482.289	3.83
482.642	3.84
482.995	3.84
483.348	3.65
483.701	3.85
484.055	3.75
484.408	3.76
484.761	3.71
485.114	3.66
485.466	3.64
485.819	3.6
486.172	3.59
486.525	3.62
486.878	3.65
487.23	3.7
487.583	3.7
487.936	3.73
488.288	3.64
488.641	3.73
488.993	3.72
489.345	3.72
489.698	3.68
490.05	3.72
490.402	3.7
490.754	3.69
491.107	3.77
491.459	3.82
491.811	3.87
492.163	3.81
492.515	3.92
492.866	3.75
493.218	3.72
493.57	3.71
493.922	3.68
494.274	3.76
494.625	3.88
494.977	3.93
495.328	3.96
495.68	3.85
496.031	4.08
496.383	3.9
496.734	3.91
497.086	4.03
497.437	3.79
497.788	3.88
498.139	3.91
498.49	3.92
498.842	3.84
499.193	3.82
499.544	3.93
499.894	3.95
500.245	4
500.596	4.03
500.947	3.98
501.298	4.07
501.648	4.04
501.999	3.96
502.35	3.97
502.7	3.98
503.051	3.96
503.401	4.04
503.752	4.14
504.102	4.09
504.452	4.09
504.803	4.09
505.153	4.08
505.503	4.14
505.853	4
506.203	4
506.553	3.99
506.903	4.15
507.253	4
507.603	4.07
507.953	4
508.303	3.98
508.652	4.14
509.002	4.18
509.352	3.95
509.701	4.05
510.051	4.14
510.4	4.07
510.75	4.06
511.099	3.94
511.449	4.1
511.798	4.14
512.147	4.08
512.496	4.14
512.846	4.12
513.195	4.06
513.544	4.14
513.893	4.15
514.242	4.02
514.591	3.95
514.939	4.23
515.288	4.14
515.637	3.98
515.986	4.14
516.334	4.18
516.683	3.96
517.032	4.1
517.38	4.11
517.729	4.29
518.077	4.09
518.426	4.28
518.774	4.27
519.122	4.11
519.47	4.07
519.819	4.13
520.167	4.08
520.515	4.11
520.863	4.2
521.211	4.06
521.559	4.19
521.907	4.16
522.255	4.21
522.602	4.27
522.95	4.18
523.298	4.2
523.645	4.43
523.993	4.35
524.341	4.31
524.688	4.17
525.036	4.39
525.383	4.2
525.73	4.17
526.078	4.23
526.425	4.28
526.772	4.22
527.119	4.29
527.466	4.21
527.814	4.07
528.161	4.25
528.508	4.28
528.854	4.25
529.201	4.27
529.548	4.27
529.895	4.18
530.242	4.08
530.588	4.1
530.935	4.16
531.282	4.24
531.628	4.22
531.975	4.25
532.321	4.28
532.667	4.29
533.014	4.3
533.36	4.36
533.706	4.31
534.052	4.37
534.399	4.44
534.745	4.38
535.091	4.28
535.437	4.35
535.783	4.35
536.129	4.42
536.474	4.34
536.82	4.34
537.166	4.47
537.512	4.46
537.857	4.5
538.203	4.45
538.549	4.5
538.894	4.44
539.239	4.5
539.585	4.53
539.93	4.59
540.276	4.42
540.621	4.59
540.966	4.63
541.311	4.55
541.656	4.58
542.001	4.64
542.346	4.56
542.691	4.43
543.036	4.51
543.381	4.44
543.726	4.49
544.071	4.47
544.415	4.52
544.76	4.54
545.105	4.57
545.449	4.62
545.794	4.74
546.138	4.61
546.483	4.75
546.827	4.63
547.171	4.78
547.516	4.72
547.86	4.72
548.204	4.73
548.548	4.72
548.892	4.71
549.236	4.87
549.58	4.83
549.924	4.78
550.268	4.91
550.612	4.83
550.956	4.91
551.3	5.08
551.643	4.89
551.987	5.01
552.33	4.92
552.674	5.14
553.017	5.08
553.361	5.16
553.704	5.01
554.048	5.01
554.391	4.89
554.734	4.92
555.077	5.12
555.42	4.9
555.764	5.17
556.107	5.04
556.45	5.02
556.793	5
557.135	4.87
557.478	5.11
557.821	5.09
558.164	5.05
558.507	5.26
558.849	5.14
559.192	5.25
559.534	5.22
559.877	5.23
560.219	5.34
560.562	5.26
560.904	5.43
561.246	5.4
561.589	5.28
561.931	5.36
562.273	5.3
562.615	5.25
562.957	5.37
563.299	5.52
563.641	5.45
563.983	5.54
564.325	5.34
564.667	5.5
565.008	5.21
565.35	5.26
565.692	5.53
566.033	5.7
566.375	5.42
566.716	5.46
567.058	5.46
567.399	5.54
567.741	5.45
568.082	5.49
568.423	5.56
568.764	5.55
569.105	5.57
569.447	5.7
569.788	5.68
570.129	5.64
570.47	5.58
570.811	5.74
571.151	5.74
571.492	5.82
571.833	5.75
572.174	5.76
572.514	5.76
572.855	5.83
573.195	5.58
573.536	5.78
573.876	5.88
574.217	5.84
574.557	5.8
574.898	5.87
575.238	5.84
575.578	5.78
575.918	6.04
576.258	5.95
576.598	6
576.938	6.02
577.278	6.04
577.618	6.02
577.958	6
578.298	6.22
578.638	6.24
578.977	5.99
579.317	6.13
579.657	6.07
579.996	6.36
580.336	6.27
580.675	6.34
581.014	6.1
581.354	6.32
581.693	6.33
582.032	6.13
582.372	6.27
582.711	6.09
583.05	6.35
583.389	6.47
583.728	6.37
584.067	6.6
584.406	6.56
584.745	6.67
585.083	6.52
585.422	6.5
585.761	6.84
586.1	6.45
586.438	6.65
586.777	6.6
587.115	6.77
587.454	6.58
587.792	6.5
588.13	7.12
588.469	6.82
588.807	6.32
589.145	6.78
589.483	6.7
589.821	6.86
590.159	6.54
590.497	6.84
590.835	6.94
591.173	6.77
591.511	6.74
591.849	6.88
592.187	6.87
592.524	6.68
592.862	6.84
593.2	7.15
593.537	6.93
593.875	7.04
594.212	7.11
594.55	6.98
594.887	7.31
595.224	7.15
595.561	7.14
595.899	6.97
596.236	7.07
596.573	7.23
596.91	7.3
597.247	7.09
597.584	7.36
597.921	7.27
598.258	7.29
598.594	7.34
598.931	7.23
599.268	7.19
599.604	7.35
599.941	7.39
600.277	7.23
600.614	7.54
600.95	7.33
601.287	7.64
601.623	7.65
601.959	7.64
602.296	7.64
602.632	7.45
602.968	7.72
603.304	7.56
603.64	7.87
603.976	7.36
604.312	7.65
604.648	7.93
604.984	7.77
605.319	7.66
605.655	7.81
605.991	7.89
606.326	7.68
606.662	7.92
606.998	7.8
607.333	7.79
607.668	7.86
608.004	7.88
608.339	8.18
608.674	7.97
609.01	8.02
609.345	8.25
609.68	8.19
610.015	7.86
610.35	8.27
610.685	8.25
611.02	8.35
611.355	8.02
611.689	8.05
612.024	8.23
612.359	8.42
612.694	8.08
613.028	8.2
613.363	8.04
613.697	8.46
614.032	8.67
614.366	8.83
614.7	8.51
615.035	8.76
615.369	8.39
615.703	8.56
616.037	8.44
616.371	8.6
616.705	8.75
617.039	8.93
617.373	8.64
617.707	8.43
618.041	8.92
618.375	8.47
618.709	8.48
619.042	8.97
619.376	8.69
619.71	8.57
620.043	8.74
620.377	9.1
620.71	8.69
621.043	9
621.377	8.89
621.71	9.45
622.043	9.36
622.376	9.06
622.709	8.99
623.043	9.19
623.376	9.6
623.709	9.41
624.041	9.23
624.374	8.88
624.707	9.11
625.04	9.33
625.373	9.64
625.705	9
626.038	9.44
626.37	9.44
626.703	9.64
627.035	9.31
627.368	9.55
627.7	9.37
628.032	9.11
628.365	9.58
628.697	9.53
629.029	9.77
629.361	9.62
629.693	9.53
630.025	9.51
630.357	9.54
630.689	9.52
631.021	9.75
631.353	9.89
631.684	9.67
632.016	9.68
632.348	9.51
632.679	9.79
633.011	10.29
633.342	10.03
633.674	10.21
634.005	10.08
634.336	10.19
634.668	9.99
634.999	10.13
635.33	10.23
635.661	9.96
635.992	10.34
636.323	9.81
636.654	10.05
636.985	10.28
637.316	10.16
637.647	10.14
637.977	10.43
638.308	10.52
638.639	10.54
638.969	9.99
639.3	10.38
639.63	10.53
639.961	10.57
640.291	10.37
640.622	10.43
640.952	11.01
641.282	10.68
641.612	10.59
641.943	10.72
642.273	11.19
642.603	10.99
642.933	10.94
643.263	10.42
643.592	10.57
643.922	10.83
644.252	10.95
644.582	10.49
644.911	10.6
645.241	10.76
645.571	11.18
645.9	10.77
646.23	11.12
646.559	11.3
646.888	10.9
647.218	10.88
647.547	11.05
647.876	11.44
648.205	10.84
648.534	11.68
648.863	11.33
649.192	11.71
649.521	11.67
649.85	10.91
650.179	11.82
650.508	12.09
650.837	11.27
651.165	11.19
651.494	11.32
651.822	11.31
652.151	12
652.479	11.61
652.808	11.5
653.136	11.98
653.465	11.55
653.793	11.68
654.121	12.06
654.449	11.67
654.777	12.04
655.105	11.79
655.433	12.1
655.761	11.65
656.089	11.28
656.417	12.13
656.745	11.76
657.073	11.76
657.4	11.99
657.728	11.74
658.056	12.36
658.383	11.71
658.711	11.76
659.038	11.96
659.365	12.24
659.693	12.1
660.02	12.62
660.347	12.26
660.674	12.7
661.001	12.49
661.329	12.05
661.656	12.12
661.982	12.6
662.309	12.68
662.636	12.51
662.963	12.71
663.29	12.85
663.616	12.33
663.943	12.85
664.27	12.78
664.596	13.2
664.923	13.31
665.249	12.13
665.576	12.56
665.902	13.12
666.228	13.39
666.554	12.79
666.881	12.3
667.207	12.96
667.533	13.02
667.859	12.73
668.185	12.86
668.511	13
668.837	12.83
669.162	13.66
669.488	12.9
669.814	13.16
670.139	13.01
670.465	12.56
670.791	13.09
671.116	13.53
671.442	13.28
671.767	13.51
672.092	14.32
672.418	13.22
672.743	13.87
673.068	13.17
673.393	13.61
673.718	13.44
674.043	13.52
674.368	12.53
674.693	13.75
675.018	13.79
675.343	13.48
675.667	14.21
675.992	13.76
676.317	13.5
676.641	14.31
676.966	13.63
677.29	13.92
677.615	13.31
677.939	13.78
678.264	13.79
678.588	13.71
678.912	14.17
679.236	13.41
679.56	14.4
679.885	14.15
680.209	14.21
680.532	14.4
680.856	14.11
681.18	14.22
681.504	14.13
681.828	14.72
682.152	14.12
682.475	14.68
682.799	14.89
683.122	14.2
683.446	14.51
683.769	15.04
684.093	14.19
684.416	14.72
684.739	14.83
685.062	15.11
685.386	15.13
685.709	14.86
686.032	14.76
686.355	14.86
686.678	15.01
687.001	14.82
687.324	15.03
687.646	15.52
687.969	14.64
688.292	14.25
688.614	15.4
688.937	15.05
689.26	15.32
