Data from 0385_forehead_Reflection__2__243.txt Node

Date: Tue Dec 12 20:25:12 CST 2023
User: ToomeyLab
Spectrometer: FLMS14357
Trigger mode: 0
Integration Time (sec): 1.000000E-2
Scans to average: 100
Electric dark correction enabled: true
Nonlinearity correction enabled: false
Boxcar width: 0
XAxis mode: Wavelengths
Number of Pixels in Spectrum: 2048
>>>>>Begin Spectral Data<<<<<
189.047	-30.99
189.435	-30.99
189.823	-30.99
190.211	-322.66
190.599	-194.47
190.987	48.68
191.375	526.8
191.763	125.73
192.151	29.87
192.538	-2654.34
192.926	848.09
193.314	-138.04
193.702	108.08
194.089	-527.13
194.477	109.65
194.864	-97.88
195.252	84.42
195.639	307.51
196.027	115.19
196.414	-12.6
196.801	1452.69
197.189	58.44
197.576	319.39
197.963	152.63
198.351	36.98
198.738	30.95
199.125	41.62
199.512	2.36
199.899	53.84
200.286	-1.58
200.673	-26.45
201.06	17.25
201.447	-92.49
201.833	23.33
202.22	-14.64
202.607	-3712.38
202.994	56.36
203.38	3.96
203.767	-17.65
204.154	29.84
204.54	42.58
204.927	49.78
205.313	45.23
205.699	19.82
206.086	-42.92
206.472	60.65
206.858	34.39
207.245	12.6
207.631	41.37
208.017	71.2
208.403	44.67
208.789	22.48
209.175	-2.21
209.561	-10.42
209.947	-9.99
210.333	-1.53
210.719	-29.65
211.105	37.48
211.491	11.38
211.876	54.86
212.262	64
212.648	-8.55
213.034	-90.16
213.419	-17.41
213.805	34.81
214.19	32.25
214.576	8.31
214.961	26.19
215.346	44.39
215.732	25.35
216.117	-2.25
216.502	-31.02
216.888	-5.28
217.273	-8.98
217.658	-15.96
218.043	-34.22
218.428	39.37
218.813	12.51
219.198	-24.12
219.583	9.01
219.968	7.09
220.353	17.5
220.738	30.84
221.122	5.67
221.507	12.53
221.892	1.6
222.276	9.33
222.661	13.84
223.046	1.02
223.43	18.42
223.815	-8.28
224.199	16.87
224.583	5.28
224.968	13.83
225.352	4.91
225.736	21.26
226.121	1.25
226.505	14.09
226.889	16.69
227.273	8.59
227.657	20.12
228.041	8.6
228.425	10.19
228.809	5.53
229.193	6.26
229.577	7.7
229.961	7.12
230.344	7.09
230.728	8.48
231.112	7.36
231.495	6.99
231.879	7.95
232.263	5.3
232.646	7.56
233.03	7.38
233.413	5.57
233.797	5.89
234.18	4.59
234.563	4.47
234.946	5.84
235.33	8.16
235.713	8.54
236.096	6.43
236.479	7.22
236.862	6.19
237.245	7.23
237.628	7.45
238.011	9.17
238.394	7.34
238.777	6.18
239.16	8.73
239.543	10.19
239.925	7.51
240.308	6.35
240.691	7.58
241.073	7.87
241.456	7.62
241.838	6.91
242.221	7.81
242.603	7.54
242.986	5.84
243.368	6.85
243.75	6.28
244.133	7.05
244.515	7.36
244.897	7.14
245.279	7.1
245.661	6.09
246.043	7.29
246.425	8.16
246.807	6.81
247.189	7.63
247.571	6.99
247.953	6.18
248.335	7.05
248.717	6.66
249.098	6.84
249.48	6.66
249.862	6.71
250.243	7.13
250.625	7.5
251.006	6.94
251.388	6.73
251.769	7.56
252.151	6.66
252.532	8.13
252.913	9.05
253.295	7.4
253.676	6.15
254.057	6.86
254.438	7.07
254.819	7.54
255.2	6.21
255.581	7.71
255.962	7.26
256.343	7.51
256.724	8.36
257.105	8.08
257.486	7.57
257.867	7.44
258.247	6.28
258.628	7.06
259.009	6.91
259.389	7.37
259.77	7.01
260.15	7.07
260.531	7.83
260.911	7.08
261.292	6.58
261.672	6.62
262.052	6.81
262.432	6.82
262.813	6.79
263.193	7.49
263.573	6.82
263.953	7.98
264.333	8.1
264.713	6.91
265.093	7.17
265.473	8.23
265.853	6.59
266.233	6.06
266.612	5.78
266.992	6.7
267.372	7.55
267.752	7.87
268.131	5.51
268.511	5.93
268.89	6.12
269.27	6.29
269.649	7.01
270.029	6.52
270.408	7.31
270.787	7.14
271.167	7.24
271.546	7.22
271.925	7.82
272.304	7.45
272.683	6.24
273.062	6.89
273.441	7.05
273.82	6.17
274.199	6.54
274.578	6.77
274.957	6.46
275.336	6.98
275.715	7.39
276.093	6.23
276.472	7.6
276.851	7.05
277.229	6.28
277.608	6.74
277.986	6.46
278.365	6.4
278.743	6.27
279.122	6.49
279.5	6.02
279.878	6.07
280.257	6.48
280.635	6.57
281.013	6.09
281.391	7.03
281.769	6.29
282.147	6.54
282.525	6.06
282.903	7.01
283.281	6.57
283.659	7.05
284.037	7.26
284.415	7.05
284.792	6.99
285.17	6.2
285.548	7.03
285.925	6.58
286.303	6.73
286.68	6.91
287.058	7.25
287.435	7.1
287.813	6.55
288.19	6.74
288.567	6.62
288.945	7.17
289.322	6.6
289.699	7.01
290.076	6.61
290.453	7.03
290.83	7.05
291.207	7.28
291.584	7.05
291.961	7.32
292.338	7.42
292.715	7.44
293.092	7.09
293.469	7.1
293.845	7.42
294.222	7.48
294.599	7.91
294.975	7
295.352	7.76
295.728	7.86
296.105	7.73
296.481	7.82
296.858	7.89
297.234	8.04
297.61	8.12
297.986	7.32
298.363	8.04
298.739	8.01
299.115	7.76
299.491	7.76
299.867	7.78
300.243	7.93
300.619	8.19
300.995	8.13
301.371	8.72
301.746	8.4
302.122	9.37
302.498	8.94
302.874	8.64
303.249	9.18
303.625	8.69
304	9.01
304.376	9.35
304.751	8.77
305.127	8.77
305.502	9.55
305.878	9.08
306.253	9.19
306.628	9.16
307.003	9.5
307.378	9.62
307.754	10.04
308.129	9.47
308.504	10.73
308.879	9.05
309.254	10.05
309.629	9.81
310.003	10.14
310.378	10.24
310.753	10.54
311.128	10.91
311.502	9.66
311.877	10.1
312.252	10.24
312.626	10.29
313.001	10.53
313.375	10.24
313.75	10.75
314.124	11.04
314.498	10.76
314.873	10.7
315.247	11.54
315.621	10.98
315.995	11.31
316.369	11.73
316.743	10.98
317.117	11.17
317.491	11.59
317.865	12.07
318.239	11.43
318.613	12.12
318.987	12.16
319.361	11.78
319.734	11.95
320.108	12
320.482	12.21
320.855	11.63
321.229	12.15
321.602	12.04
321.976	12.34
322.349	12.58
322.723	12.11
323.096	12.58
323.469	12.87
323.843	13.01
324.216	13.24
324.589	13.72
324.962	12.94
325.335	13.44
325.708	13.25
326.081	12.95
326.454	13.02
326.827	13.68
327.2	12.53
327.573	12.97
327.945	13.33
328.318	13.48
328.691	13.06
329.063	13.68
329.436	13.36
329.809	14.28
330.181	12.42
330.553	13.58
330.926	14.09
331.298	13.81
331.671	13.99
332.043	13.61
332.415	14.12
332.787	14.01
333.159	14.52
333.532	14.6
333.904	14.56
334.276	15.44
334.648	13.78
335.02	13.72
335.391	14.29
335.763	14.59
336.135	14.48
336.507	15.34
336.879	14.02
337.25	14.35
337.622	14.73
337.993	14.21
338.365	14.66
338.736	15.26
339.108	14.56
339.479	15.13
339.851	14.51
340.222	14.89
340.593	15.2
340.964	15.36
341.336	15.56
341.707	14.6
342.078	15.5
342.449	14.96
342.82	15.34
343.191	14.67
343.562	15.86
343.933	15.76
344.303	15.6
344.674	15.99
345.045	15.46
345.416	15.87
345.786	15.99
346.157	15.98
346.527	16.33
346.898	15.88
347.268	15.9
347.639	16.19
348.009	15.98
348.38	15.63
348.75	16.63
349.12	16.55
349.49	16.03
349.861	16.56
350.231	16.85
350.601	16.75
350.971	16.57
351.341	16.56
351.711	16.81
352.081	16.85
352.45	16.72
352.82	16.79
353.19	16.86
353.56	16.37
353.929	16.46
354.299	16.91
354.669	16.71
355.038	16.85
355.408	17.05
355.777	17.61
356.147	16.9
356.516	17.25
356.885	17.39
357.254	17.15
357.624	17.2
357.993	17.29
358.362	17.59
358.731	17.52
359.1	17.25
359.469	17.31
359.838	17.61
360.207	17.51
360.576	17.72
360.945	17.7
361.314	17.91
361.682	17.95
362.051	18.35
362.42	18.25
362.788	17.85
363.157	18.44
363.525	17.97
363.894	17.98
364.262	18.09
364.631	17.92
364.999	18.13
365.367	18.44
365.735	18.39
366.104	18.42
366.472	18.26
366.84	18.73
367.208	18.53
367.576	18.58
367.944	19.19
368.312	19.16
368.68	18.93
369.048	18.83
369.416	18.48
369.783	18.97
370.151	18.82
370.519	19.21
370.886	18.95
371.254	19.52
371.621	19.44
371.989	18.99
372.356	19.43
372.724	19.37
373.091	19.54
373.458	19.55
373.826	19.57
374.193	19.27
374.56	19.91
374.927	19.75
375.294	19.58
375.661	20.03
376.028	20.04
376.395	20.19
376.762	20.25
377.129	20.05
377.496	19.8
377.863	20.18
378.229	20.14
378.596	20.08
378.963	20.31
379.329	20.3
379.696	20.39
380.062	20.42
380.429	20.42
380.795	20.37
381.161	20.82
381.528	20.69
381.894	20.98
382.26	20.54
382.626	21.02
382.993	20.72
383.359	20.67
383.725	20.74
384.091	20.63
384.457	20.91
384.823	21.08
385.188	21.01
385.554	21.15
385.92	21.08
386.286	21.24
386.651	21.41
387.017	22.17
387.383	21.44
387.748	21.67
388.114	21.42
388.479	21.79
388.845	21.11
389.21	21.63
389.575	21.34
389.94	21.9
390.306	21.78
390.671	21.85
391.036	22.03
391.401	21.89
391.766	22.26
392.131	22.23
392.496	21.95
392.861	21.95
393.226	21.93
393.591	22.22
393.956	21.85
394.32	22.49
394.685	22.56
395.05	22.23
395.414	22.36
395.779	22.37
396.143	22.56
396.508	22.42
396.872	22.53
397.236	22.63
397.601	22.82
397.965	22.68
398.329	22.7
398.694	22.5
399.058	23.05
399.422	23.18
399.786	23.06
400.15	22.71
400.514	23.35
400.878	23.24
401.242	23.23
401.605	23.46
401.969	23.4
402.333	23.28
402.697	23.58
403.06	23.43
403.424	23.74
403.787	23.45
404.151	23.68
404.514	23.49
404.878	23.51
405.241	23.59
405.604	23.52
405.968	23.54
406.331	23.88
406.694	24.17
407.057	23.83
407.42	23.85
407.783	23.87
408.146	23.97
408.509	24.08
408.872	24.3
409.235	24.34
409.598	24.4
409.961	24.48
410.323	24.46
410.686	24.36
411.049	24.82
411.411	24.61
411.774	24.63
412.136	24.71
412.499	24.7
412.861	24.65
413.223	24.9
413.586	24.73
413.948	25.08
414.31	25.14
414.672	25
415.035	25.29
415.397	25.07
415.759	25.22
416.121	25.4
416.483	25.23
416.845	25.25
417.206	25.49
417.568	25.17
417.93	25.57
418.292	25.51
418.653	25.53
419.015	25.62
419.377	25.48
419.738	25.52
420.1	25.41
420.461	25.58
420.822	25.65
421.184	25.67
421.545	25.71
421.906	25.74
422.267	25.74
422.629	25.77
422.99	25.73
423.351	25.57
423.712	25.71
424.073	25.86
424.434	26.02
424.795	26
425.155	26.05
425.516	26.14
425.877	26.05
426.238	26.07
426.598	26.19
426.959	26.37
427.32	26.42
427.68	26.38
428.041	26.73
428.401	26.77
428.761	26.94
429.122	26.9
429.482	27.31
429.842	27.26
430.202	27.58
430.563	27.39
430.923	27.56
431.283	27.59
431.643	27.71
432.003	27.57
432.363	27.49
432.722	27.64
433.082	27.74
433.442	27.81
433.802	28.05
434.161	28.09
434.521	27.97
434.881	27.78
435.24	27.93
435.6	28.1
435.959	28.09
436.319	28.23
436.678	28.41
437.037	28.42
437.396	28.23
437.756	28.41
438.115	28.55
438.474	28.5
438.833	28.6
439.192	28.6
439.551	28.39
439.91	28.6
440.269	28.61
440.628	28.57
440.987	28.84
441.345	28.7
441.704	28.72
442.063	29.14
442.421	29.16
442.78	29.04
443.138	29.18
443.497	29.01
443.855	29.17
444.214	29.54
444.572	29.56
444.93	29.48
445.288	29.16
445.647	29.79
446.005	29.78
446.363	29.7
446.721	29.68
447.079	29.69
447.437	29.66
447.795	29.91
448.153	29.78
448.51	29.64
448.868	29.92
449.226	29.88
449.584	30.01
449.941	30.06
450.299	30.23
450.656	30.06
451.014	30.34
451.371	30.62
451.729	30.78
452.086	30.89
452.443	30.9
452.801	30.91
453.158	30.9
453.515	30.89
453.872	30.96
454.229	31.16
454.586	31.18
454.943	31.08
455.3	31.13
455.657	31.28
456.014	31.33
456.371	31.54
456.727	31.49
457.084	31.41
457.441	31.52
457.797	31.6
458.154	31.9
458.51	31.85
458.867	32.22
459.223	31.9
459.58	31.97
459.936	31.58
460.292	31.91
460.648	32.01
461.005	31.8
461.361	31.82
461.717	31.74
462.073	31.61
462.429	31.84
462.785	31.99
463.141	32.13
463.496	32.15
463.852	32.55
464.208	32.74
464.564	32.68
464.919	32.75
465.275	32.9
465.631	33
465.986	33.14
466.342	32.83
466.697	32.92
467.052	32.9
467.408	33.11
467.763	33.17
468.118	33.43
468.473	33.45
468.829	33.16
469.184	33.06
469.539	33.28
469.894	33.45
470.249	33.58
470.603	33.59
470.958	33.51
471.313	33.87
471.668	33.94
472.023	33.86
472.377	34.03
472.732	34.06
473.086	33.85
473.441	33.93
473.795	33.99
474.15	34.17
474.504	34.2
474.859	34.35
475.213	34.28
475.567	34.24
475.921	34.22
476.275	34.29
476.63	34.55
476.984	34.77
477.338	34.65
477.692	34.68
478.045	34.68
478.399	34.67
478.753	34.87
479.107	34.73
479.461	34.77
479.814	34.84
480.168	34.47
480.521	34.74
480.875	35
481.228	35.15
481.582	34.93
481.935	35.25
482.289	35.07
482.642	35.13
482.995	34.97
483.348	35.06
483.701	35.14
484.055	35.12
484.408	35.07
484.761	34.78
485.114	34.42
485.466	34.39
485.819	34.47
486.172	34.43
486.525	34.39
486.878	34.43
487.23	34.74
487.583	34.74
487.936	35.18
488.288	35.2
488.641	35.23
488.993	35.16
489.345	35.07
489.698	35.11
490.05	35.08
490.402	35.1
490.754	35.27
491.107	35.44
491.459	35.68
491.811	35.91
492.163	36.03
492.515	36.05
492.866	35.94
493.218	35.82
493.57	35.69
493.922	35.71
494.274	35.89
494.625	36.15
494.977	36.33
495.328	36.6
495.68	36.79
496.031	37.28
496.383	37.16
496.734	37.36
497.086	37.43
497.437	37.32
497.788	37.4
498.139	37.42
498.49	37.45
498.842	37.18
499.193	37.28
499.544	37.39
499.894	37.37
500.245	37.44
500.596	37.62
500.947	37.74
501.298	37.63
501.648	38.07
501.999	37.93
502.35	38.22
502.7	38.14
503.051	37.86
503.401	38.2
503.752	38.32
504.102	38.4
504.452	38.53
504.803	38.57
505.153	38.54
505.503	38.78
505.853	38.63
506.203	38.59
506.553	38.57
506.903	38.78
507.253	38.8
507.603	38.9
507.953	39.08
508.303	39.13
508.652	39.02
509.002	39.03
509.352	39.2
509.701	39.03
510.051	38.92
510.4	39.01
510.75	38.88
511.099	39
511.449	39.15
511.798	39.15
512.147	39.22
512.496	39.34
512.846	39.29
513.195	39.41
513.544	39.6
513.893	39.5
514.242	39.62
514.591	39.64
514.939	39.56
515.288	39.91
515.637	39.89
515.986	40.12
516.334	39.88
516.683	40.3
517.032	40.35
517.38	40.29
517.729	40.34
518.077	40.51
518.426	40.6
518.774	40.42
519.122	40.32
519.47	40.42
519.819	40.33
520.167	40.21
520.515	40.08
520.863	40.18
521.211	40.11
521.559	40.23
521.907	40.42
522.255	40.52
522.602	40.85
522.95	41.06
523.298	41.06
523.645	41.19
523.993	41.31
524.341	41.36
524.688	41.32
525.036	41.59
525.383	41.56
525.73	41.33
526.078	41.4
526.425	41.44
526.772	41.52
527.119	41.16
527.466	41.18
527.814	41.04
528.161	41.24
528.508	41.18
528.854	41.32
529.201	41.63
529.548	41.48
529.895	41.24
530.242	40.89
530.588	41
530.935	41.12
531.282	41.06
531.628	41.12
531.975	41.34
532.321	41.56
532.667	41.8
533.014	41.86
533.36	41.92
533.706	42.13
534.052	42.23
534.399	42.14
534.745	42.09
535.091	41.89
535.437	41.96
535.783	42.1
536.129	42.1
536.474	42.42
536.82	42.53
537.166	42.61
537.512	42.89
537.857	43.1
538.203	42.92
538.549	42.72
538.894	42.74
539.239	42.79
539.585	43.01
539.93	43.14
540.276	43.16
540.621	43.41
540.966	43.5
541.311	43.82
541.656	43.79
542.001	43.71
542.346	43.46
542.691	43.44
543.036	42.92
543.381	42.93
543.726	43.21
544.071	43.13
544.415	43.3
544.76	43.46
545.105	43.71
545.449	43.79
545.794	43.98
546.138	44.16
546.483	44.27
546.827	44.26
547.171	44.31
547.516	44.33
547.86	44.33
548.204	44.51
548.548	44.46
548.892	44.57
549.236	44.53
549.58	44.75
549.924	44.92
550.268	45.04
550.612	44.99
550.956	45.57
551.3	45.51
551.643	45.51
551.987	45.73
552.33	45.81
552.674	45.74
553.017	45.69
553.361	45.96
553.704	45.82
554.048	45.73
554.391	45.94
554.734	45.93
555.077	46.15
555.42	45.88
555.764	45.98
556.107	46.21
556.45	46.2
556.793	46.33
557.135	46.56
557.478	46.44
557.821	46.18
558.164	46.73
558.507	46.39
558.849	46.76
559.192	46.86
559.534	46.68
559.877	46.83
560.219	47.06
560.562	47.18
560.904	47.07
561.246	47.41
561.589	47.23
561.931	47.31
562.273	47.17
562.615	47.31
562.957	47.47
563.299	47.33
563.641	47.24
563.983	47.68
564.325	47.64
564.667	47.84
565.008	47.7
565.35	47.85
565.692	47.9
566.033	47.74
566.375	47.63
566.716	47.88
567.058	47.98
567.399	47.69
567.741	47.99
568.082	48.02
568.423	47.9
568.764	48.18
569.105	48.02
569.447	48.19
569.788	48.22
570.129	48.46
570.47	48.67
570.811	48.63
571.151	48.43
571.492	48.31
571.833	48.59
572.174	48.56
572.514	48.48
572.855	49.09
573.195	48.71
573.536	48.91
573.876	48.8
574.217	48.93
574.557	48.87
574.898	48.9
575.238	48.85
575.578	49.25
575.918	49.11
576.258	49.2
576.598	49.48
576.938	49.15
577.278	49.48
577.618	49.64
577.958	49.35
578.298	49.47
578.638	49.48
578.977	49.65
579.317	50.13
579.657	49.99
579.996	50.04
580.336	50.15
580.675	50.26
581.014	50.41
581.354	50.35
581.693	50.52
582.032	50.7
582.372	50.78
582.711	50.7
583.05	50.56
583.389	50.8
583.728	50.77
584.067	50.84
584.406	51.11
584.745	50.94
585.083	50.64
585.422	51.37
585.761	51.18
586.1	51.3
586.438	51.26
586.777	51.25
587.115	51.66
587.454	51.27
587.792	51.37
588.13	51.56
588.469	51.49
588.807	51.35
589.145	51.58
589.483	51.82
589.821	52.02
590.159	51.77
590.497	51.7
590.835	51.92
591.173	51.56
591.511	51.67
591.849	51.62
592.187	51.54
592.524	52.09
592.862	52.2
593.2	52.13
593.537	51.91
593.875	52.21
594.212	51.98
594.55	52.36
594.887	52.41
595.224	52.17
595.561	52.77
595.899	52.96
596.236	52.51
596.573	52.84
596.91	52.73
597.247	52.43
597.584	52.8
597.921	53.01
598.258	53.24
598.594	52.93
598.931	52.78
599.268	52.56
599.604	52.52
599.941	52.88
600.277	53.02
600.614	52.99
600.95	53.12
601.287	53.35
601.623	53.27
601.959	53.3
602.296	53.65
602.632	53.12
602.968	53.33
603.304	53.46
603.64	53.95
603.976	53.54
604.312	54.21
604.648	53.65
604.984	53.86
605.319	53.63
605.655	53.84
605.991	53.52
606.326	53.73
606.662	53.38
606.998	53.57
607.333	53.86
607.668	53.75
608.004	53.98
608.339	53.95
608.674	54.22
609.01	54.21
609.345	54.67
609.68	54.42
610.015	54.12
610.35	54.29
610.685	54.35
611.02	54.31
611.355	54.29
611.689	54.37
612.024	54.3
612.359	54.71
612.694	54.89
613.028	54.43
613.363	54.82
613.697	54.94
614.032	54.64
614.366	55.13
614.7	55.34
615.035	55.12
615.369	55.23
615.703	55.13
616.037	55.43
616.371	55.21
616.705	55.14
617.039	55.48
617.373	55.77
617.707	55.4
618.041	55.8
618.375	55.4
618.709	55.61
619.042	55.6
619.376	55.86
619.71	55.77
620.043	56.22
620.377	56.05
620.71	55.85
621.043	55.79
621.377	55.59
621.71	56.31
622.043	56.01
622.376	55.85
622.709	56.19
623.043	56.95
623.376	57.02
623.709	56.45
624.041	56.22
624.374	56.35
624.707	56.77
625.04	56.57
625.373	56.94
625.705	56.68
626.038	56.97
626.37	56.71
626.703	57
627.035	56.35
627.368	56.6
627.7	57.07
628.032	57.12
628.365	56.93
628.697	56.67
629.029	56.88
629.361	56.94
629.693	56.95
630.025	56.53
630.357	57.22
630.689	56.89
631.021	57.32
631.353	58.03
631.684	57.55
632.016	57.44
632.348	57.42
632.679	57.36
633.011	57.01
633.342	57.47
633.674	58.38
634.005	57.73
634.336	57.51
634.668	56.66
634.999	57.15
635.33	57.62
635.661	57.89
635.992	57.72
636.323	57.93
636.654	57.53
636.985	58.06
637.316	58.06
637.647	57.63
637.977	58.45
638.308	57.93
638.639	58.29
638.969	58.51
639.3	58.76
639.63	58.57
639.961	58.65
640.291	58.52
640.622	58.77
640.952	59.42
641.282	58.28
641.612	58.45
641.943	59.13
642.273	58.8
642.603	58.94
642.933	58.68
643.263	58.56
643.592	58.47
643.922	58.92
644.252	58.98
644.582	58.5
644.911	59.52
645.241	59.44
645.571	59.25
645.9	58.89
646.23	58.54
646.559	59.35
646.888	59.44
647.218	59.32
647.547	58.83
647.876	59.48
648.205	59.5
648.534	59.19
648.863	59.77
649.192	59.92
649.521	59.66
649.85	59.49
650.179	60.26
650.508	59.32
650.837	59.45
651.165	59.84
651.494	59.23
651.822	59.32
652.151	60.17
652.479	59.71
652.808	59.63
653.136	60.65
653.465	60.07
653.793	59.45
654.121	60.04
654.449	59.87
654.777	59.4
655.105	60.27
655.433	60.18
655.761	59.59
656.089	60.05
656.417	60.17
656.745	60.12
657.073	60.82
657.4	60.71
657.728	60.47
658.056	60.11
658.383	59.74
658.711	60.42
659.038	60.52
659.365	60.93
659.693	60.66
660.02	60.48
660.347	60.76
660.674	60.99
661.001	61.06
661.329	60.74
661.656	60.25
661.982	60.77
662.309	60.82
662.636	60.37
662.963	61.4
663.29	61.38
663.616	61.47
663.943	61.07
664.27	61.27
664.596	60.84
664.923	61.86
665.249	60.93
665.576	61.41
665.902	62.09
666.228	61.87
666.554	61.19
666.881	61.21
667.207	61.63
667.533	61.71
667.859	61.4
