Data from 0385_chest_Reflection__2__230.txt Node

Date: Tue Dec 12 20:21:38 CST 2023
User: ToomeyLab
Spectrometer: FLMS14357
Trigger mode: 0
Integration Time (sec): 1.000000E-2
Scans to average: 100
Electric dark correction enabled: true
Nonlinearity correction enabled: false
Boxcar width: 0
XAxis mode: Wavelengths
Number of Pixels in Spectrum: 2048
>>>>>Begin Spectral Data<<<<<
189.047	-128.85
189.435	-128.85
189.823	-128.85
190.211	90.69
190.599	-67.86
190.987	204.8
191.375	1335.29
191.763	90.25
192.151	79.46
192.538	-889.43
192.926	388.3
193.314	-167.06
193.702	21.61
194.089	837.65
194.477	-53.6
194.864	174.4
195.252	197.27
195.639	19.7
196.027	11.23
196.414	112.33
196.801	-207.78
197.189	23.39
197.576	-108.74
197.963	116.36
198.351	-44.31
198.738	29.01
199.125	-5.01
199.512	1.33
199.899	58.93
200.286	8.87
200.673	-60.1
201.06	-4.92
201.447	-154.88
201.833	-36.46
202.22	-3.42
202.607	-3098.1
202.994	14.71
203.38	12.11
203.767	49.25
204.154	51.01
204.54	43.48
204.927	-22.48
205.313	29.23
205.699	-15.7
206.086	20.96
206.472	33.23
206.858	-8.37
207.245	10.98
207.631	-30.93
208.017	-43.78
208.403	-36.44
208.789	63.56
209.175	-100.36
209.561	10.3
209.947	-15.67
210.333	17.95
210.719	28.94
211.105	-42.97
211.491	2.79
211.876	17.99
212.262	42.83
212.648	-27.61
213.034	-102.06
213.419	20.55
213.805	5.69
214.19	68.09
214.576	19.34
214.961	-20.18
215.346	-0.44
215.732	35.06
216.117	24.01
216.502	-46.03
216.888	-68.87
217.273	1.22
217.658	-38.12
218.043	-20.47
218.428	5.49
218.813	28.12
219.198	-30.58
219.583	0.85
219.968	16.48
220.353	-24.08
220.738	-2.91
221.122	-2.45
221.507	-29.88
221.892	-29.7
222.276	22.25
222.661	9.4
223.046	-20.11
223.43	2.07
223.815	1.08
224.199	5.79
224.583	1.63
224.968	5.16
225.352	-10.08
225.736	6.83
226.121	-6.62
226.505	1.29
226.889	3.38
227.273	2.86
227.657	9.73
228.041	3.73
228.425	8.36
228.809	2.14
229.193	1.77
229.577	5.83
229.961	3.68
230.344	6.1
230.728	6.44
231.112	5.72
231.495	5.09
231.879	6.19
232.263	4.26
232.646	5.71
233.03	4.65
233.413	3.34
233.797	4.06
234.18	2.61
234.563	6.22
234.946	4.48
235.33	8.37
235.713	7.36
236.096	4.95
236.479	4.5
236.862	3.59
237.245	3.36
237.628	5.02
238.011	4.38
238.394	4.11
238.777	6.05
239.16	2.37
239.543	5.73
239.925	5.83
240.308	4.84
240.691	4.71
241.073	5.37
241.456	4.5
241.838	3.96
242.221	5.43
242.603	5.04
242.986	4.07
243.368	5.19
243.75	4.24
244.133	5.52
244.515	4.79
244.897	5.03
245.279	6
245.661	4.47
246.043	4.61
246.425	5.38
246.807	4.15
247.189	4.99
247.571	3.89
247.953	4.28
248.335	4.43
248.717	4.91
249.098	4.97
249.48	4.86
249.862	4.51
250.243	4.55
250.625	5.3
251.006	4.99
251.388	5.47
251.769	5.49
252.151	5.4
252.532	4.87
252.913	4.93
253.295	5.05
253.676	4.07
254.057	4.6
254.438	4.69
254.819	4.48
255.2	3.94
255.581	4.73
255.962	4.6
256.343	3.68
256.724	4.77
257.105	4.27
257.486	3.04
257.867	4.22
258.247	4.05
258.628	4.03
259.009	3.93
259.389	4.63
259.77	4.27
260.15	4.07
260.531	4.99
260.911	4.89
261.292	4.34
261.672	4.16
262.052	4.63
262.432	4.69
262.813	4.43
263.193	4.93
263.573	4.49
263.953	5.54
264.333	5.2
264.713	4.51
265.093	4.25
265.473	4.94
265.853	2.92
266.233	4.19
266.612	3.61
266.992	4.28
267.372	4.11
267.752	5.48
268.131	3.76
268.511	3.64
268.89	3.33
269.27	4.2
269.649	4.01
270.029	4.15
270.408	4.97
270.787	3.39
271.167	4.37
271.546	4.04
271.925	4.51
272.304	4.26
272.683	3.47
273.062	4.32
273.441	4.13
273.82	4.15
274.199	4.33
274.578	4.27
274.957	4.31
275.336	4.46
275.715	4.58
276.093	3.59
276.472	5.37
276.851	4.89
277.229	3.88
277.608	4.42
277.986	3.69
278.365	4.21
278.743	4.15
279.122	4.27
279.5	3.88
279.878	3.47
280.257	4.09
280.635	4.41
281.013	3.9
281.391	3.88
281.769	4.12
282.147	4.21
282.525	3.8
282.903	4.15
283.281	3.58
283.659	3.96
284.037	4.4
284.415	4.48
284.792	4.55
285.17	3.89
285.548	4.35
285.925	3.62
286.303	4.27
286.68	3.85
287.058	4.13
287.435	3.84
287.813	3.52
288.19	4.09
288.567	4.11
288.945	3.98
289.322	3.43
289.699	3.99
290.076	4
290.453	4.33
290.83	3.26
291.207	4.93
291.584	3.95
291.961	4.5
292.338	4.49
292.715	4.03
293.092	4.16
293.469	4.29
293.845	4.15
294.222	4.28
294.599	3.88
294.975	4.08
295.352	3.94
295.728	4.13
296.105	4.53
296.481	4.66
296.858	4.23
297.234	4.94
297.61	4.46
297.986	4.45
298.363	4.36
298.739	4.22
299.115	4.09
299.491	4.19
299.867	4.09
300.243	4.25
300.619	4.14
300.995	4.3
301.371	3.72
301.746	4.71
302.122	4.75
302.498	4.36
302.874	4.01
303.249	4.49
303.625	3.68
304	4.18
304.376	4.6
304.751	4.41
305.127	4.11
305.502	4.27
305.878	3.9
306.253	3.6
306.628	4.01
307.003	4.4
307.378	4.28
307.754	4.26
308.129	3.62
308.504	4.66
308.879	3.85
309.254	4.9
309.629	3.74
310.003	4.61
310.378	4.24
310.753	4.38
311.128	4.56
311.502	3.98
311.877	4.25
312.252	3.94
312.626	4.12
313.001	3.78
313.375	4.01
313.75	4.41
314.124	4.45
314.498	4.07
314.873	4.06
315.247	4.17
315.621	3.88
315.995	4.57
316.369	4.64
316.743	4.15
317.117	4.08
317.491	4.12
317.865	3.93
318.239	3.49
318.613	4.52
318.987	4.28
319.361	4.04
319.734	4.24
320.108	4.32
320.482	4.62
320.855	4.06
321.229	4.65
321.602	4.37
321.976	4.57
322.349	4.67
322.723	4.25
323.096	3.69
323.469	3.84
323.843	4.89
324.216	4.57
324.589	3.95
324.962	4.84
325.335	5.09
325.708	4.09
326.081	4.68
326.454	3.88
326.827	4.75
327.2	4.35
327.573	3.72
327.945	4.32
328.318	4.74
328.691	3.66
329.063	4.45
329.436	4.27
329.809	3.99
330.181	3.89
330.553	4.04
330.926	4.28
331.298	4.46
331.671	4.19
332.043	4.06
332.415	4.18
332.787	3.99
333.159	4.02
333.532	3.74
333.904	4.05
334.276	4.56
334.648	3.94
335.02	3.79
335.391	3.92
335.763	3.95
336.135	4.15
336.507	4.86
336.879	4.09
337.25	4.35
337.622	3.79
337.993	3.57
338.365	3.67
338.736	3.93
339.108	4.35
339.479	4.45
339.851	3.61
340.222	4.29
340.593	3.92
340.964	4.2
341.336	4.18
341.707	3.92
342.078	3.65
342.449	4.13
342.82	4.44
343.191	4.29
343.562	3.8
343.933	4.54
344.303	4.45
344.674	4.34
345.045	4.25
345.416	4.34
345.786	4.17
346.157	4.13
346.527	4.59
346.898	3.91
347.268	4.01
347.639	4.26
348.009	4.24
348.38	3.91
348.75	4.93
349.12	4.21
349.49	3.94
349.861	4.33
350.231	3.98
350.601	4.44
350.971	4.22
351.341	4.5
351.711	4.53
352.081	4.68
352.45	4.03
352.82	3.96
353.19	3.87
353.56	4.05
353.929	3.82
354.299	4
354.669	3.96
355.038	3.79
355.408	3.86
355.777	4.57
356.147	3.78
356.516	4.57
356.885	4.27
357.254	3.83
357.624	3.83
357.993	3.97
358.362	4.45
358.731	4.27
359.1	4.03
359.469	3.79
359.838	4.18
360.207	4.01
360.576	4.32
360.945	3.87
361.314	4.09
361.682	4.15
362.051	4.11
362.42	4.26
362.788	3.96
363.157	4.55
363.525	4.2
363.894	4.01
364.262	4.31
364.631	3.74
364.999	4.03
365.367	3.98
365.735	4.11
366.104	3.98
366.472	3.99
366.84	4.06
367.208	4.01
367.576	4.02
367.944	4.2
368.312	4.18
368.68	3.95
369.048	4.32
369.416	3.84
369.783	4.08
370.151	4.45
370.519	3.8
370.886	4.01
371.254	3.95
371.621	4.35
371.989	3.88
372.356	4.18
372.724	4.09
373.091	3.93
373.458	4.09
373.826	4.04
374.193	4.11
374.56	4.42
374.927	4.16
375.294	3.97
375.661	4.5
376.028	4.43
376.395	4.65
376.762	4.66
377.129	4.16
377.496	4.04
377.863	4.08
378.229	4.13
378.596	3.85
378.963	4.28
379.329	4.02
379.696	4.14
380.062	4.5
380.429	4.15
380.795	4.64
381.161	4.16
381.528	4.52
381.894	4.64
382.26	3.79
382.626	4.1
382.993	4.31
383.359	4.16
383.725	4.21
384.091	3.91
384.457	4
384.823	4.23
385.188	4.38
385.554	4.27
385.92	4.09
386.286	4.25
386.651	4.23
387.017	4.69
387.383	4.13
387.748	4.11
388.114	4.46
388.479	4.38
388.845	3.96
389.21	4.54
389.575	4.03
389.94	4.34
390.306	4.4
390.671	4.19
391.036	4.3
391.401	4.37
391.766	4.3
392.131	4.46
392.496	4.16
392.861	4.23
393.226	4.49
393.591	4.16
393.956	4.19
394.32	4.55
394.685	4.23
395.05	4.28
395.414	4.2
395.779	4.24
396.143	4.39
396.508	4.21
396.872	4.27
397.236	4.35
397.601	4.19
397.965	4.23
398.329	4.55
398.694	4.17
399.058	4.5
399.422	4.27
399.786	4.29
400.15	4.15
400.514	4.35
400.878	4.28
401.242	4.19
401.605	4.38
401.969	4.06
402.333	4.3
402.697	4.21
403.06	4.15
403.424	4.42
403.787	4.18
404.151	4.4
404.514	3.96
404.878	4.23
405.241	4.25
405.604	4.2
405.968	4.32
406.331	4.47
406.694	4.6
407.057	4.22
407.42	4.15
407.783	4.38
408.146	4.34
408.509	4.26
408.872	4.14
409.235	4.21
409.598	4.23
409.961	4.24
410.323	4.2
410.686	4.64
411.049	4.45
411.411	4.33
411.774	4.33
412.136	4.34
412.499	4.53
412.861	4.39
413.223	4.27
413.586	4.2
413.948	4.26
414.31	4.27
414.672	4.36
415.035	4.28
415.397	4.08
415.759	4.22
416.121	4.2
416.483	4.38
416.845	4.25
417.206	4.48
417.568	4.41
417.93	4.21
418.292	4.38
418.653	4.46
419.015	4.17
419.377	4.34
419.738	4.16
420.1	4.29
420.461	4.28
420.822	4.42
421.184	4.39
421.545	4.51
421.906	4.31
422.267	4.26
422.629	4.34
422.99	4.29
423.351	4.24
423.712	4.3
424.073	4.29
424.434	4.31
424.795	4.4
425.155	4.25
425.516	4.19
425.877	4.26
426.238	4.24
426.598	4.21
426.959	4.28
427.32	4.38
427.68	4.32
428.041	4.3
428.401	4.35
428.761	4.46
429.122	4.29
429.482	4.55
429.842	4.44
430.202	4.43
430.563	4.37
430.923	4.25
431.283	4.39
431.643	4.54
432.003	4.36
432.363	4.53
432.722	4.34
433.082	4.59
433.442	4.41
433.802	4.52
434.161	4.39
434.521	4.4
434.881	4.42
435.24	4.41
435.6	4.48
435.959	4.44
436.319	4.46
436.678	4.57
437.037	4.47
437.396	4.36
437.756	4.4
438.115	4.39
438.474	4.49
438.833	4.43
439.192	4.63
439.551	4.5
439.91	4.44
440.269	4.4
440.628	4.33
440.987	4.3
441.345	4.43
441.704	4.4
442.063	4.4
442.421	4.5
442.78	4.31
443.138	4.41
443.497	4.45
443.855	4.45
444.214	4.42
444.572	4.59
444.93	4.56
445.288	4.19
445.647	4.55
446.005	4.44
446.363	4.29
446.721	4.3
447.079	4.5
447.437	4.32
447.795	4.46
448.153	4.52
448.51	4.53
448.868	4.5
449.226	4.59
449.584	4.36
449.941	4.4
450.299	4.52
450.656	4.44
451.014	4.51
451.371	4.57
451.729	4.7
452.086	4.53
452.443	4.62
452.801	4.4
453.158	4.41
453.515	4.41
453.872	4.63
454.229	4.52
454.586	4.33
454.943	4.56
455.3	4.45
455.657	4.53
456.014	4.71
456.371	4.48
456.727	4.64
457.084	4.61
457.441	4.65
457.797	4.64
458.154	4.49
458.51	4.48
458.867	4.71
459.223	4.69
459.58	4.45
459.936	4.4
460.292	4.47
460.648	4.55
461.005	4.47
461.361	4.53
461.717	4.64
462.073	4.52
462.429	4.5
462.785	4.58
463.141	4.62
463.496	4.39
463.852	4.74
464.208	4.62
464.564	4.6
464.919	4.8
465.275	4.58
465.631	4.73
465.986	4.55
466.342	4.46
466.697	4.61
467.052	4.98
467.408	4.76
467.763	4.65
468.118	4.71
468.473	4.6
468.829	4.6
469.184	4.5
469.539	4.69
469.894	4.77
470.249	4.64
470.603	4.56
470.958	4.68
471.313	5
471.668	4.97
472.023	4.63
472.377	4.54
472.732	4.68
473.086	4.79
473.441	4.91
473.795	4.63
474.15	4.81
474.504	4.55
474.859	4.57
475.213	4.79
475.567	4.53
475.921	4.8
476.275	4.56
476.63	4.73
476.984	4.82
477.338	4.59
477.692	4.58
478.045	4.88
478.399	4.73
478.753	4.61
479.107	4.82
479.461	4.73
479.814	4.89
480.168	4.49
480.521	4.57
480.875	4.74
481.228	4.94
481.582	4.77
481.935	4.8
482.289	4.79
482.642	4.77
482.995	4.67
483.348	4.65
483.701	4.93
484.055	4.71
484.408	4.68
484.761	4.7
485.114	4.51
485.466	4.54
485.819	4.46
486.172	4.44
486.525	4.52
486.878	4.53
487.23	4.58
487.583	4.6
487.936	4.66
488.288	4.6
488.641	4.64
488.993	4.61
489.345	4.59
489.698	4.57
490.05	4.59
490.402	4.61
490.754	4.6
491.107	4.59
491.459	4.72
491.811	4.85
492.163	4.82
492.515	4.84
492.866	4.72
493.218	4.68
493.57	4.63
493.922	4.61
494.274	4.76
494.625	4.77
494.977	4.94
495.328	4.91
495.68	4.85
496.031	4.99
496.383	4.78
496.734	4.88
497.086	4.87
497.437	4.95
497.788	4.92
498.139	4.96
498.49	5.02
498.842	4.86
499.193	4.87
499.544	4.93
499.894	4.9
500.245	5.14
500.596	4.99
500.947	4.93
501.298	5.04
501.648	4.98
501.999	4.95
502.35	5.01
502.7	4.94
503.051	4.89
503.401	4.96
503.752	5.09
504.102	5.03
504.452	5.06
504.803	5
505.153	4.99
505.503	5.02
505.853	5.09
506.203	5.1
506.553	4.98
506.903	4.99
507.253	4.99
507.603	5.04
507.953	5.02
508.303	5.17
508.652	5.1
509.002	5.13
509.352	5.01
509.701	4.97
510.051	5.04
510.4	5.07
510.75	4.97
511.099	4.94
511.449	5.06
511.798	5.12
512.147	5.11
512.496	5.21
512.846	5.17
513.195	5.08
513.544	5.18
513.893	5.14
514.242	5.05
514.591	5.17
514.939	5.16
515.288	5.15
515.637	5.06
515.986	5.14
516.334	5.18
516.683	5.04
517.032	5.13
517.38	5.1
517.729	5.23
518.077	5.14
518.426	5.35
518.774	5.26
519.122	5.18
519.47	5.29
519.819	5.19
520.167	5.15
520.515	5.12
520.863	5.25
521.211	5.09
521.559	5.2
521.907	5.23
522.255	5.25
522.602	5.38
522.95	5.4
523.298	5.32
523.645	5.52
523.993	5.38
524.341	5.36
524.688	5.34
525.036	5.48
525.383	5.36
525.73	5.3
526.078	5.32
526.425	5.33
526.772	5.32
527.119	5.39
527.466	5.31
527.814	5.22
528.161	5.35
528.508	5.37
528.854	5.37
529.201	5.35
529.548	5.38
529.895	5.27
530.242	5.15
530.588	5.2
530.935	5.21
531.282	5.24
531.628	5.27
531.975	5.31
532.321	5.35
532.667	5.33
533.014	5.4
533.36	5.42
533.706	5.42
534.052	5.47
534.399	5.5
534.745	5.52
535.091	5.42
535.437	5.49
535.783	5.47
536.129	5.52
536.474	5.47
536.82	5.49
537.166	5.63
537.512	5.61
537.857	5.67
538.203	5.69
538.549	5.58
538.894	5.54
539.239	5.66
539.585	5.6
539.93	5.65
540.276	5.74
540.621	5.77
540.966	5.69
541.311	5.74
541.656	5.94
542.001	5.84
542.346	5.73
542.691	5.62
543.036	5.64
543.381	5.59
543.726	5.68
544.071	5.68
544.415	5.67
544.76	5.77
545.105	5.76
545.449	5.82
545.794	5.94
546.138	5.75
546.483	5.94
546.827	5.96
547.171	5.99
547.516	5.87
547.86	5.81
548.204	5.92
548.548	5.94
548.892	6
549.236	5.91
549.58	6.06
549.924	6.02
550.268	6.11
550.612	5.99
550.956	6.26
551.3	6.3
551.643	6.23
551.987	6.31
552.33	6.25
552.674	6.29
553.017	6.39
553.361	6.55
553.704	6.2
554.048	6.4
554.391	6.31
554.734	6.23
555.077	6.45
555.42	6.27
555.764	6.36
556.107	6.53
556.45	6.2
556.793	6.32
557.135	6.4
557.478	6.36
557.821	6.4
558.164	6.64
558.507	6.5
558.849	6.45
559.192	6.42
559.534	6.6
559.877	6.47
560.219	6.47
560.562	6.73
560.904	6.58
561.246	6.55
561.589	6.65
561.931	6.55
562.273	6.62
562.615	6.39
562.957	6.75
563.299	6.75
563.641	6.74
563.983	6.87
564.325	6.86
564.667	6.8
565.008	6.55
565.35	6.75
565.692	6.82
566.033	6.85
566.375	6.81
566.716	6.81
567.058	6.89
567.399	6.84
567.741	6.81
568.082	6.98
568.423	6.92
568.764	7.03
569.105	6.97
569.447	7.01
569.788	7.1
570.129	6.94
570.47	7.07
570.811	7.13
571.151	7.13
571.492	7.22
571.833	7.09
572.174	7.08
572.514	7.23
572.855	7.15
573.195	7.32
573.536	7.04
573.876	7.16
574.217	7.19
574.557	7.31
574.898	7.34
575.238	7.27
575.578	7.48
575.918	7.37
576.258	7.44
576.598	7.38
576.938	7.5
577.278	7.3
577.618	7.5
577.958	7.45
578.298	7.54
578.638	7.5
578.977	7.62
579.317	7.71
579.657	7.63
579.996	7.64
580.336	7.69
580.675	7.61
581.014	7.73
581.354	7.63
581.693	7.74
582.032	7.59
582.372	8.01
582.711	7.9
583.05	8.04
583.389	7.76
583.728	7.81
584.067	7.98
584.406	8.04
584.745	7.97
585.083	7.73
585.422	8.19
585.761	8.4
586.1	8.13
586.438	8.38
586.777	8.27
587.115	8
587.454	8.18
587.792	7.85
588.13	8.27
588.469	8.47
588.807	8.25
589.145	8.61
589.483	8.23
589.821	8.57
590.159	8.59
590.497	8.54
590.835	8.41
591.173	8.47
591.511	8.38
591.849	8.44
592.187	8.4
592.524	8.33
592.862	8.33
593.2	8.4
593.537	8.43
593.875	8.5
594.212	8.48
594.55	8.99
594.887	8.86
595.224	8.7
595.561	8.99
595.899	8.74
596.236	8.82
596.573	8.64
596.91	9.16
597.247	8.81
597.584	8.89
597.921	8.9
598.258	8.99
598.594	9.04
598.931	8.95
599.268	8.91
599.604	8.95
599.941	9.05
600.277	8.96
600.614	9.24
600.95	9.28
601.287	9.12
601.623	9.28
601.959	9.21
602.296	9.54
602.632	8.95
602.968	9.26
603.304	9.39
603.64	9.62
603.976	9.19
604.312	9.61
604.648	9.64
604.984	9.51
605.319	9.53
605.655	9.52
605.991	9.64
606.326	9.39
606.662	9.59
606.998	9.4
607.333	9.7
607.668	9.56
608.004	9.72
608.339	9.8
608.674	9.88
609.01	9.74
609.345	10.15
609.68	9.97
610.015	9.53
610.35	9.71
610.685	10.1
611.02	9.88
611.355	9.91
611.689	9.73
612.024	9.84
612.359	10.05
612.694	10.13
613.028	10.17
613.363	10.09
613.697	10.13
614.032	10.2
614.366	10.69
614.7	10.3
615.035	10.46
615.369	10.54
615.703	10.56
616.037	10.21
616.371	10.17
616.705	10.31
617.039	10.36
617.373	10.46
617.707	10.43
618.041	10.3
618.375	10.27
618.709	10.58
619.042	10.47
619.376	10.68
619.71	10.14
620.043	10.49
620.377	11.06
620.71	10.37
621.043	10.54
621.377	10.27
621.71	11.08
622.043	11.63
622.376	10.88
622.709	11.32
623.043	10.88
623.376	11.14
623.709	11.29
624.041	11.41
624.374	11.25
624.707	11.13
625.04	11.33
625.373	11.53
625.705	11.21
626.038	11.12
626.37	11.4
626.703	11.5
627.035	11.21
627.368	11.52
627.7	11.18
628.032	11.32
628.365	11.25
628.697	11.61
629.029	11.61
629.361	11.35
629.693	11.55
630.025	11.27
630.357	11.51
630.689	11.6
631.021	11.76
631.353	12.1
631.684	12.01
632.016	11.79
632.348	12.05
632.679	11.5
633.011	11.92
633.342	11.95
633.674	11.87
634.005	12.24
634.336	12.34
634.668	12.18
634.999	12.23
635.33	12.28
635.661	12.43
635.992	12.52
636.323	12.44
636.654	12.18
636.985	12.11
637.316	12.61
637.647	12.05
637.977	12.41
638.308	12.71
638.639	12.16
638.969	12.55
639.3	12.88
639.63	12.66
639.961	12.75
640.291	12.24
640.622	12.73
640.952	12.72
641.282	12.7
641.612	12.65
641.943	12.53
642.273	12.75
642.603	13.07
642.933	12.69
643.263	12.88
643.592	12.74
643.922	13.07
644.252	13.27
644.582	12.44
644.911	13.22
645.241	12.63
645.571	13.39
645.9	13.13
646.23	12.9
646.559	13.28
646.888	13.74
647.218	13.46
647.547	12.99
647.876	13.26
648.205	13.49
648.534	13.8
648.863	13.54
649.192	14.17
649.521	13.99
649.85	13.38
650.179	13.95
650.508	14.11
650.837	14.13
651.165	13.68
651.494	13.84
651.822	13.94
652.151	13.96
652.479	13.8
652.808	13.56
653.136	14.06
653.465	13.9
653.793	14.02
654.121	13.92
654.449	13.93
654.777	14.39
655.105	14.69
655.433	13.83
655.761	14.16
656.089	14.2
656.417	14.31
656.745	14.93
657.073	14.11
657.4	14.56
657.728	13.86
658.056	14.16
658.383	13.96
658.711	14.49
659.038	14.62
659.365	14.86
659.693	14.47
660.02	14.6
660.347	14.64
660.674	14.79
661.001	14.81
661.329	14.66
661.656	14.56
661.982	14.77
662.309	15.05
662.636	14.54
662.963	15.03
663.29	15.07
663.616	15.21
663.943	15.19
664.27	15.27
664.596	15.32
664.923	15.98
665.249	14.63
665.576	15.72
665.902	15.18
666.228	15.26
666.554	15.36
666.881	14.51
667.207	15.33
667.533	15.37
667.859	15.04
668.185	15.43
668.511	15.44
668.837	15.25
669.162	16.25
669.488	15.12
669.814	15.41
670.139	15.62
670.465	15
670.791	15.78
671.116	16.15
671.442	15.36
671.767	15.6
672.092	15.98
672.418	16.6
672.743	16.19
673.068	15.43
673.393	15.88
673.718	16.2
674.043	15.64
674.368	15.29
674.693	16.3
675.018	15.49
675.343	16.72
675.667	16.31
675.992	15.98
676.317	15.79
676.641	16.19
676.966	16.61
677.29	16.42
677.615	16.31
677.939	16.29
678.264	16.86
678.588	16.92
678.912	16.82
679.236	16.27
679.56	16.81
679.885	16.65
680.209	16.87
680.532	16.26
680.856	16.51
681.18	16.58
681.504	16.77
681.828	16.57
682.152	16.77
682.475	16.84
682.799	16.84
683.122	17.28
683.446	17.35
683.769	17.7
684.093	17.09
684.416	16.95
684.739	17.52
685.062	16.88
685.386	17.55
685.709	17.26
686.032	17.13
686.355	17.5
686.678	17.51
687.001	17.44
