Data from 0385_crown_Reflection__3__239.txt Node

Date: Tue Dec 12 20:24:14 CST 2023
User: ToomeyLab
Spectrometer: FLMS14357
Trigger mode: 0
Integration Time (sec): 1.000000E-2
Scans to average: 100
Electric dark correction enabled: true
Nonlinearity correction enabled: false
Boxcar width: 0
XAxis mode: Wavelengths
Number of Pixels in Spectrum: 2048
>>>>>Begin Spectral Data<<<<<
189.047	-42.85
189.435	-42.85
189.823	-42.85
190.211	-75.98
190.599	-98.56
190.987	145.21
191.375	2695.42
191.763	141.43
192.151	77.08
192.538	-1130.57
192.926	22.6
193.314	167.83
193.702	107.95
194.089	-931.17
194.477	139.85
194.864	197.41
195.252	-112.72
195.639	87.49
196.027	57.42
196.414	31.32
196.801	-74.25
197.189	-16.85
197.576	263.93
197.963	135.29
198.351	13.86
198.738	21.58
199.125	3.67
199.512	-25.98
199.899	34.87
200.286	-0.33
200.673	-61.47
201.06	-17.72
201.447	-120.97
201.833	-13.4
202.22	-40.61
202.607	-5657.14
202.994	-19.09
203.38	47.19
203.767	6.35
204.154	-31.71
204.54	43.3
204.927	-57.54
205.313	16.01
205.699	-48.14
206.086	-18.64
206.472	31.17
206.858	10.25
207.245	12.65
207.631	3.8
208.017	13.31
208.403	-108.89
208.789	-35.18
209.175	-65.46
209.561	18.58
209.947	-69.61
210.333	-18.51
210.719	-81.79
211.105	16.66
211.491	-11.63
211.876	-6.06
212.262	11.48
212.648	-95.44
213.034	-123.35
213.419	-52.65
213.805	-24.14
214.19	38.94
214.576	0.84
214.961	2.2
215.346	-9.43
215.732	2.88
216.117	-41.72
216.502	-6.88
216.888	-9.06
217.273	-31.76
217.658	-67.29
218.043	-51.98
218.428	2.38
218.813	-3.89
219.198	-50.45
219.583	-7.44
219.968	-4.79
220.353	-18.26
220.738	-15.39
221.122	-1.35
221.507	-9.65
221.892	-0.52
222.276	-14.72
222.661	8.7
223.046	-24.03
223.43	16.02
223.815	-1.2
224.199	19.98
224.583	2.85
224.968	9.51
225.352	-13.63
225.736	4.62
226.121	-2.56
226.505	-5.24
226.889	0.6
227.273	-0.69
227.657	8.67
228.041	3.47
228.425	-1.21
228.809	-1.65
229.193	-1.15
229.577	5.24
229.961	1.04
230.344	4.25
230.728	3.92
231.112	4.55
231.495	4.19
231.879	5.75
232.263	3.37
232.646	3.42
233.03	4.09
233.413	1.49
233.797	1.55
234.18	3.09
234.563	0.44
234.946	6.47
235.33	4.15
235.713	6.36
236.096	3.67
236.479	3.12
236.862	3.18
237.245	4.14
237.628	3.57
238.011	5.32
238.394	1.9
238.777	2.45
239.16	3.92
239.543	3.89
239.925	7.17
240.308	4.76
240.691	2.7
241.073	4.75
241.456	4.21
241.838	3.18
242.221	4.03
242.603	3.78
242.986	3.22
243.368	4.57
243.75	3.69
244.133	4.19
244.515	4.75
244.897	4.48
245.279	4.5
245.661	2.83
246.043	3.35
246.425	4.07
246.807	3.77
247.189	4.14
247.571	4
247.953	3.52
248.335	4
248.717	4.14
249.098	4.12
249.48	3.98
249.862	3.83
250.243	3.83
250.625	4.74
251.006	3.59
251.388	4.77
251.769	4.11
252.151	2.46
252.532	3.19
252.913	4.47
253.295	5.12
253.676	3.36
254.057	3.97
254.438	4.3
254.819	3.77
255.2	2.99
255.581	4
255.962	1.94
256.343	3.51
256.724	3.16
257.105	4.42
257.486	3.17
257.867	2.88
258.247	2.66
258.628	4.93
259.009	1.99
259.389	4.05
259.77	3.28
260.15	3.17
260.531	3.77
260.911	4.05
261.292	3.44
261.672	3.89
262.052	3.94
262.432	3.95
262.813	3.64
263.193	3.82
263.573	3.55
263.953	5.07
264.333	3.96
264.713	4.36
265.093	3.53
265.473	4.23
265.853	3.55
266.233	3.5
266.612	2.6
266.992	3.76
267.372	3.45
267.752	4.02
268.131	2.47
268.511	3.27
268.89	2.62
269.27	3.07
269.649	3.51
270.029	3.56
270.408	3.34
270.787	3.3
271.167	4.1
271.546	3.95
271.925	3.99
272.304	4.56
272.683	3.38
273.062	3.63
273.441	3.27
273.82	2.86
274.199	3.15
274.578	3.28
274.957	3.15
275.336	3.6
275.715	3.68
276.093	2.78
276.472	4.15
276.851	3.44
277.229	3.4
277.608	3.43
277.986	3.2
278.365	3.1
278.743	3.46
279.122	3.25
279.5	2.51
279.878	2.12
280.257	3.15
280.635	3.07
281.013	3.12
281.391	3.8
281.769	3.9
282.147	3.4
282.525	2.69
282.903	3.14
283.281	2.67
283.659	3.41
284.037	3.36
284.415	3
284.792	3.33
285.17	2.43
285.548	3.27
285.925	3.46
286.303	3.4
286.68	3.24
287.058	3.39
287.435	3.21
287.813	3.09
288.19	3.35
288.567	3.08
288.945	3.32
289.322	2.49
289.699	3.39
290.076	2.81
290.453	4.06
290.83	2.7
291.207	3.46
291.584	2.95
291.961	3.05
292.338	3.41
292.715	3.31
293.092	3.05
293.469	3.34
293.845	3.27
294.222	2.69
294.599	3.18
294.975	3.04
295.352	2.99
295.728	3
296.105	3.17
296.481	3.41
296.858	2.82
297.234	3.74
297.61	3.15
297.986	3.56
298.363	3.16
298.739	3.36
299.115	2.73
299.491	2.87
299.867	3.12
300.243	2.68
300.619	3.21
300.995	3.15
301.371	3.04
301.746	3.24
302.122	3.71
302.498	3.82
302.874	3.08
303.249	3.6
303.625	2.97
304	3.19
304.376	3.55
304.751	3.67
305.127	2.59
305.502	3.16
305.878	2.77
306.253	3.05
306.628	2.97
307.003	2.79
307.378	2.85
307.754	3.52
308.129	2.54
308.504	3.71
308.879	2.57
309.254	3.07
309.629	2.96
310.003	3.41
310.378	3.31
310.753	3.2
311.128	3.36
311.502	2.41
311.877	2.72
312.252	2.85
312.626	2.53
313.001	3.11
313.375	2.74
313.75	3.32
314.124	2.9
314.498	2.79
314.873	2.38
315.247	3.23
315.621	2.19
315.995	3.25
316.369	2.64
316.743	2.8
317.117	2.53
317.491	2.98
317.865	2.55
318.239	2.3
318.613	3.39
318.987	2.99
319.361	3
319.734	2.73
320.108	2.81
320.482	2.99
320.855	1.94
321.229	3.17
321.602	3.06
321.976	3.19
322.349	3.16
322.723	2.85
323.096	3.16
323.469	3
323.843	3.36
324.216	3.18
324.589	2.57
324.962	3.23
325.335	3.56
325.708	2.97
326.081	2.98
326.454	2.69
326.827	3.39
327.2	3.11
327.573	2.36
327.945	3.47
328.318	3.05
328.691	2.12
329.063	3.32
329.436	2.86
329.809	2.89
330.181	2.29
330.553	2.36
330.926	2.64
331.298	2.72
331.671	3.36
332.043	2.8
332.415	3.26
332.787	3.25
333.159	2.74
333.532	2.95
333.904	2.29
334.276	3.46
334.648	2.45
335.02	2.33
335.391	2.47
335.763	2.42
336.135	3.1
336.507	2.91
336.879	2.83
337.25	2.46
337.622	2.36
337.993	2.97
338.365	2.41
338.736	3.13
339.108	2.82
339.479	2.69
339.851	2.58
340.222	2.15
340.593	2.89
340.964	2.48
341.336	2.69
341.707	2.32
342.078	2.57
342.449	2.58
342.82	2.67
343.191	3.05
343.562	3.14
343.933	2.78
344.303	2.89
344.674	2.95
345.045	2.92
345.416	2.66
345.786	2.66
346.157	2.72
346.527	3.44
346.898	2.8
347.268	2.72
347.639	2.8
348.009	2.68
348.38	2.87
348.75	3.43
349.12	2.96
349.49	2.41
349.861	3.06
350.231	2.66
350.601	3.42
350.971	2.93
351.341	2.97
351.711	3.37
352.081	2.78
352.45	2.91
352.82	3.07
353.19	2.47
353.56	2.44
353.929	2.26
354.299	2.78
354.669	2.87
355.038	2.24
355.408	2.6
355.777	3.41
356.147	2.97
356.516	3.19
356.885	3.06
357.254	2.66
357.624	2.13
357.993	2.73
358.362	2.87
358.731	2.89
359.1	2.57
359.469	2.56
359.838	2.57
360.207	2.66
360.576	2.76
360.945	2.34
361.314	2.53
361.682	2.87
362.051	3.31
362.42	3.04
362.788	2.52
363.157	3.12
363.525	3.06
363.894	2.79
364.262	2.54
364.631	2.36
364.999	2.76
365.367	3.17
365.735	3.07
366.104	2.94
366.472	2.49
366.84	2.53
367.208	2.67
367.576	2.66
367.944	3.07
368.312	2.93
368.68	3.05
369.048	2.88
369.416	2.93
369.783	2.98
370.151	2.97
370.519	2.78
370.886	2.83
371.254	2.93
371.621	2.93
371.989	2.7
372.356	2.87
372.724	2.87
373.091	2.84
373.458	2.77
373.826	2.96
374.193	2.61
374.56	3.35
374.927	3
375.294	2.85
375.661	3.21
376.028	3.1
376.395	3.01
376.762	3.61
377.129	2.82
377.496	2.96
377.863	3.03
378.229	2.77
378.596	2.78
378.963	2.91
379.329	2.82
379.696	2.99
380.062	3.37
380.429	2.67
380.795	3.25
381.161	2.89
381.528	2.73
381.894	2.89
382.26	2.69
382.626	3.01
382.993	2.73
383.359	2.55
383.725	2.84
384.091	3.21
384.457	3.01
384.823	3.17
385.188	3.13
385.554	3.04
385.92	2.88
386.286	3.19
386.651	3.07
387.017	3.26
387.383	3.26
387.748	3.04
388.114	3.23
388.479	3.4
388.845	3.23
389.21	3.29
389.575	2.94
389.94	3.33
390.306	3.23
390.671	3.13
391.036	3.4
391.401	3.14
391.766	3.19
392.131	3.25
392.496	2.92
392.861	2.91
393.226	3.36
393.591	3.07
393.956	3
394.32	3.07
394.685	3.08
395.05	3.09
395.414	3.03
395.779	3.09
396.143	3.33
396.508	2.83
396.872	3.01
397.236	3.25
397.601	3.11
397.965	3.12
398.329	3.21
398.694	3.04
399.058	3.5
399.422	3
399.786	3.04
400.15	2.74
400.514	3.14
400.878	3.28
401.242	2.99
401.605	3.34
401.969	3.3
402.333	3.23
402.697	3.21
403.06	3.05
403.424	3.35
403.787	2.96
404.151	3.24
404.514	2.9
404.878	3.28
405.241	3.21
405.604	3.03
405.968	2.99
406.331	3.36
406.694	3.45
407.057	3.06
407.42	3.26
407.783	3.13
408.146	3.24
408.509	3.17
408.872	3.31
409.235	3.15
409.598	2.94
409.961	3.4
410.323	3.24
410.686	3.51
411.049	3.19
411.411	3.36
411.774	3.35
412.136	3.54
412.499	3.39
412.861	3.1
413.223	3.55
413.586	3.31
413.948	3.24
414.31	3.44
414.672	3.54
415.035	3.29
415.397	3.3
415.759	3.45
416.121	3.4
416.483	3.29
416.845	3.35
417.206	3.38
417.568	3.43
417.93	3.32
418.292	3.38
418.653	3.48
419.015	3.36
419.377	3.34
419.738	3.42
420.1	3.28
420.461	3.45
420.822	3.39
421.184	3.27
421.545	3.51
421.906	3.23
422.267	3.23
422.629	3.29
422.99	3.3
423.351	3.32
423.712	3.35
424.073	3.21
424.434	3.26
424.795	3.24
425.155	3.15
425.516	3.3
425.877	3.36
426.238	3.32
426.598	3.24
426.959	3.33
427.32	3.32
427.68	3.4
428.041	3.35
428.401	3.32
428.761	3.31
429.122	3.41
429.482	3.48
429.842	3.52
430.202	3.39
430.563	3.39
430.923	3.56
431.283	3.45
431.643	3.42
432.003	3.26
432.363	3.47
432.722	3.46
433.082	3.35
433.442	3.52
433.802	3.47
434.161	3.6
434.521	3.51
434.881	3.36
435.24	3.45
435.6	3.37
435.959	3.52
436.319	3.44
436.678	3.62
437.037	3.55
437.396	3.3
437.756	3.38
438.115	3.37
438.474	3.3
438.833	3.6
439.192	3.66
439.551	3.51
439.91	3.36
440.269	3.48
440.628	3.43
440.987	3.39
441.345	3.53
441.704	3.53
442.063	3.54
442.421	3.51
442.78	3.52
443.138	3.43
443.497	3.29
443.855	3.4
444.214	3.42
444.572	3.6
444.93	3.5
445.288	3.26
445.647	3.55
446.005	3.44
446.363	3.26
446.721	3.33
447.079	3.52
447.437	3.44
447.795	3.51
448.153	3.48
448.51	3.52
448.868	3.46
449.226	3.5
449.584	3.58
449.941	3.5
450.299	3.59
450.656	3.54
451.014	3.52
451.371	3.6
451.729	3.62
452.086	3.58
452.443	3.7
452.801	3.62
453.158	3.52
453.515	3.74
453.872	3.47
454.229	3.68
454.586	3.56
454.943	3.52
455.3	3.46
455.657	3.68
456.014	3.82
456.371	3.72
456.727	3.66
457.084	3.44
457.441	3.75
457.797	3.74
458.154	3.44
458.51	3.55
458.867	3.6
459.223	3.73
459.58	3.54
459.936	3.27
460.292	3.66
460.648	3.69
461.005	3.4
461.361	3.5
461.717	3.68
462.073	3.52
462.429	3.6
462.785	3.53
463.141	3.46
463.496	3.59
463.852	3.81
464.208	3.8
464.564	3.8
464.919	3.72
465.275	3.69
465.631	3.75
465.986	3.4
466.342	3.52
466.697	3.56
467.052	3.78
467.408	3.78
467.763	3.75
468.118	3.76
468.473	3.72
468.829	3.78
469.184	3.61
469.539	3.63
469.894	3.63
470.249	3.68
470.603	3.85
470.958	3.7
471.313	3.88
471.668	3.82
472.023	3.71
472.377	3.59
472.732	3.63
473.086	3.81
473.441	3.8
473.795	3.75
474.15	3.79
474.504	3.53
474.859	3.7
475.213	3.6
475.567	3.71
475.921	3.75
476.275	3.51
476.63	3.8
476.984	3.75
477.338	3.8
477.692	3.64
478.045	3.75
478.399	3.61
478.753	3.74
479.107	3.77
479.461	3.67
479.814	3.78
480.168	3.66
480.521	3.57
480.875	3.77
481.228	3.86
481.582	3.82
481.935	3.69
482.289	3.77
482.642	3.88
482.995	3.69
483.348	3.69
483.701	3.87
484.055	3.64
484.408	3.71
484.761	3.71
485.114	3.58
485.466	3.56
485.819	3.49
486.172	3.54
486.525	3.55
486.878	3.62
487.23	3.66
487.583	3.62
487.936	3.68
488.288	3.63
488.641	3.72
488.993	3.58
489.345	3.6
489.698	3.59
490.05	3.63
490.402	3.65
490.754	3.67
491.107	3.71
491.459	3.71
491.811	3.83
492.163	3.63
492.515	3.76
492.866	3.7
493.218	3.66
493.57	3.6
493.922	3.59
494.274	3.71
494.625	3.77
494.977	3.85
495.328	3.81
495.68	3.68
496.031	3.94
496.383	3.77
496.734	3.83
497.086	3.8
497.437	3.74
497.788	3.78
498.139	3.9
498.49	3.84
498.842	3.77
499.193	3.77
499.544	3.82
499.894	3.82
500.245	3.86
500.596	3.98
500.947	3.76
501.298	3.88
501.648	3.92
501.999	3.72
502.35	3.77
502.7	3.86
503.051	3.78
503.401	3.84
503.752	4.01
504.102	3.82
504.452	3.77
504.803	3.94
505.153	3.9
505.503	3.95
505.853	4.04
506.203	4.01
506.553	3.87
506.903	3.98
507.253	3.98
507.603	3.99
507.953	3.97
508.303	3.91
508.652	4.03
509.002	4.04
509.352	3.96
509.701	3.94
510.051	3.96
510.4	3.94
510.75	3.8
511.099	3.79
511.449	3.96
511.798	3.9
512.147	3.9
512.496	4
512.846	3.99
513.195	3.9
513.544	4.06
513.893	3.83
514.242	3.87
514.591	3.88
514.939	3.97
515.288	3.86
515.637	3.7
515.986	3.85
516.334	3.97
516.683	3.91
517.032	3.98
517.38	3.84
517.729	4.04
518.077	3.98
518.426	4.03
518.774	4.07
519.122	3.95
519.47	3.88
519.819	3.86
520.167	3.76
520.515	3.89
520.863	3.94
521.211	3.85
521.559	4.01
521.907	3.88
522.255	3.87
522.602	3.97
522.95	4
523.298	4.07
523.645	4.05
523.993	4.17
524.341	4.01
524.688	3.91
525.036	4.04
525.383	4.01
525.73	3.94
526.078	3.82
526.425	3.97
526.772	3.86
527.119	4.01
527.466	3.93
527.814	3.84
528.161	3.96
528.508	3.89
528.854	3.97
529.201	3.88
529.548	3.85
529.895	3.76
530.242	3.73
530.588	3.72
530.935	3.82
531.282	3.87
531.628	3.9
531.975	3.84
532.321	3.83
532.667	3.82
533.014	3.89
533.36	3.91
533.706	3.89
534.052	4
534.399	3.98
534.745	3.93
535.091	3.85
535.437	3.87
535.783	3.91
536.129	3.98
536.474	3.87
536.82	4.02
537.166	3.96
537.512	3.91
537.857	4.08
538.203	3.92
538.549	3.99
538.894	4.02
539.239	3.94
539.585	4.02
539.93	4.16
540.276	3.96
540.621	4.03
540.966	4.05
541.311	3.99
541.656	4.18
542.001	4
542.346	3.98
542.691	3.9
543.036	3.86
543.381	3.76
543.726	3.9
544.071	3.89
544.415	3.9
544.76	3.92
545.105	4.02
545.449	4.02
545.794	4.09
546.138	3.89
546.483	4.12
546.827	3.98
547.171	4.1
547.516	4
547.86	4.06
548.204	4.05
548.548	4.06
548.892	4.11
549.236	4.01
549.58	4.06
549.924	3.98
550.268	4.01
550.612	4
550.956	4.2
551.3	4.13
551.643	4.04
551.987	4.16
552.33	4.19
552.674	4.15
553.017	4.23
553.361	4.2
553.704	4.15
554.048	4.19
554.391	3.96
554.734	4.12
555.077	4.22
555.42	3.92
555.764	4.32
556.107	4.11
556.45	4.07
556.793	4.03
557.135	4.08
557.478	4.16
557.821	4.08
558.164	4.24
558.507	4.08
558.849	4.04
559.192	4.26
559.534	4.27
559.877	4.07
560.219	4.06
560.562	4.18
560.904	4.18
561.246	4.05
561.589	4.07
561.931	4.08
562.273	3.91
562.615	4.12
562.957	4.23
563.299	3.97
563.641	4.22
563.983	4.28
564.325	4.29
564.667	4.28
565.008	3.98
565.35	4.06
565.692	4.32
566.033	4.17
566.375	3.97
566.716	3.98
567.058	4.27
567.399	4.09
567.741	4.17
568.082	4
568.423	4.19
568.764	4.17
569.105	4.24
569.447	4.02
569.788	4.12
570.129	4.04
570.47	4.01
570.811	4.13
571.151	4.31
571.492	4.28
571.833	4.12
572.174	4.14
572.514	4.2
572.855	4.25
573.195	4.11
573.536	4.06
573.876	4.16
574.217	4.18
574.557	4.06
574.898	4.23
575.238	4.26
575.578	4.11
575.918	4.09
576.258	4.19
576.598	4.14
576.938	4.12
577.278	4.14
577.618	4.18
577.958	4.31
578.298	4.36
578.638	4.1
578.977	3.93
579.317	4.13
579.657	4.23
579.996	4.33
580.336	4.45
580.675	4.06
581.014	4.12
581.354	4.37
581.693	4.04
582.032	4.06
582.372	4.27
582.711	4.26
583.05	4.19
583.389	4.27
583.728	4.27
584.067	3.9
584.406	4.32
584.745	4.47
585.083	4.11
585.422	4.3
585.761	4.19
586.1	4.4
586.438	4.47
586.777	4.22
587.115	4.34
587.454	4.44
587.792	4.03
588.13	4.4
588.469	4.29
588.807	3.99
589.145	4.05
589.483	4.11
589.821	4.54
590.159	4.14
590.497	4.05
590.835	4.02
591.173	4.08
591.511	4.21
591.849	4.29
592.187	4.23
592.524	4.21
592.862	3.97
593.2	4.15
593.537	4.14
593.875	4.29
594.212	4.27
594.55	4.35
594.887	4.59
595.224	4.43
595.561	4.35
595.899	4.31
596.236	4.46
596.573	4.26
596.91	4.51
597.247	4.32
597.584	4.11
597.921	4.37
598.258	4.51
598.594	4.29
598.931	4.23
599.268	4.21
599.604	4.02
599.941	4.3
600.277	4.33
600.614	4.57
600.95	4.26
601.287	4.23
601.623	4.31
601.959	4.1
602.296	4.48
602.632	4.34
602.968	4.44
603.304	4.2
603.64	4.61
603.976	4.01
604.312	4.26
604.648	4.37
604.984	4.32
605.319	4.28
605.655	4.24
605.991	4.24
606.326	4.03
606.662	4.33
606.998	4.08
607.333	4.11
607.668	4.2
608.004	4.31
608.339	4.28
608.674	4.32
609.01	4.23
609.345	4.24
609.68	4.36
610.015	3.88
610.35	4.23
610.685	4.04
611.02	4.52
611.355	4.29
611.689	4.15
612.024	3.97
612.359	4.31
612.694	4.37
613.028	4.36
613.363	4.35
613.697	4.34
614.032	4.26
614.366	4.34
614.7	4.25
615.035	4.26
615.369	4.21
615.703	4.01
616.037	4.1
616.371	4.05
616.705	4.38
617.039	4.22
617.373	4.31
617.707	4.2
618.041	4.25
618.375	4.03
618.709	4.24
619.042	4.2
619.376	4.04
619.71	4.17
620.043	3.97
620.377	4.43
620.71	3.73
621.043	4.08
621.377	3.88
621.71	4.53
622.043	4.26
622.376	4.55
622.709	4.57
623.043	4.26
623.376	4.71
623.709	4.32
624.041	4.33
624.374	4
624.707	4.26
625.04	4.05
625.373	4.64
625.705	4.4
626.038	4.17
626.37	4.34
626.703	4.01
627.035	4.09
627.368	4.37
627.7	3.96
628.032	4.23
628.365	4.17
628.697	4.29
629.029	4.25
629.361	3.94
629.693	4.24
630.025	4.07
630.357	4.36
630.689	4.33
631.021	4.5
631.353	4.51
631.684	4.38
632.016	4.3
632.348	4.44
632.679	4.04
633.011	4.74
633.342	4.9
633.674	4.21
634.005	4.54
634.336	4.32
634.668	4.37
634.999	4.51
635.33	4.56
635.661	4.63
635.992	4.55
636.323	4.21
636.654	4.24
636.985	4.22
637.316	4.18
637.647	4.56
637.977	4.13
638.308	4.36
638.639	4.22
638.969	4.34
639.3	4.28
639.63	5.07
639.961	4.26
640.291	4.08
640.622	4.54
640.952	4.37
641.282	4.34
641.612	4.24
641.943	4.6
642.273	4.59
642.603	4.4
642.933	4.2
643.263	4.05
643.592	4.4
643.922	4.76
644.252	4.22
644.582	3.96
644.911	4.2
645.241	4.07
645.571	4.9
645.9	4.04
646.23	3.94
646.559	4.59
646.888	4.55
647.218	4.34
647.547	4.77
647.876	4.22
648.205	4.29
648.534	4.62
648.863	4.45
649.192	4.72
649.521	4.79
649.85	4.16
650.179	4.7
650.508	4.8
650.837	4.77
651.165	3.55
651.494	3.99
651.822	4.28
652.151	4.68
652.479	3.94
652.808	3.99
653.136	4.95
653.465	4.3
653.793	4.39
654.121	4.33
654.449	4.43
654.777	4.52
655.105	4.15
655.433	4.25
655.761	4.7
656.089	4.51
656.417	4.13
656.745	4.19
657.073	3.79
657.4	4.15
657.728	3.85
658.056	4.04
658.383	3.96
658.711	4.1
659.038	4.57
659.365	4.47
659.693	4.29
660.02	3.9
660.347	4.57
660.674	4.44
661.001	4.47
661.329	4.43
661.656	4.29
661.982	4.27
662.309	4.66
662.636	4.21
662.963	4.6
663.29	4.72
663.616	4.21
663.943	4.59
664.27	4.92
664.596	4.99
664.923	4.91
665.249	4.18
665.576	4.36
665.902	4.2
666.228	4.69
666.554	4.42
666.881	3.32
667.207	4.44
667.533	4.24
667.859	4.15
668.185	4.06
668.511	4.9
668.837	4.11
669.162	5.21
669.488	3.82
669.814	5.03
670.139	4.97
670.465	4
670.791	4.55
671.116	4.3
671.442	4.36
671.767	4.25
672.092	4.34
672.418	4.2
672.743	5.15
673.068	3.68
673.393	4.68
673.718	4.47
674.043	4.89
674.368	4.3
674.693	4.44
675.018	4.54
675.343	4.69
675.667	4.96
675.992	4.26
676.317	4.09
676.641	4.86
676.966	4.91
677.29	4.6
677.615	4.29
677.939	4.69
678.264	4.84
678.588	4.83
678.912	4.99
679.236	4.35
679.56	4.96
679.885	4.62
680.209	4.61
680.532	4.66
680.856	4.58
681.18	4.77
681.504	4.69
681.828	4.29
682.152	4.24
682.475	4.95
682.799	4.57
683.122	4.39
683.446	5.12
683.769	5.01
684.093	3.89
684.416	4.25
684.739	4.38
685.062	4.85
685.386	4.56
685.709	5.37
686.032	4.48
686.355	4.29
686.678	4.89
687.001	4.35
687.324	4.37
687.646	5.1
687.969	4.24
688.292	4.58
688.614	4.76
688.937	3.97
689.26	4.08
689.582	3.92
689.904	4.2
690.227	4.45
690.549	4.49
690.871	4.85
691.194	5.28
691.516	4.54
691.838	4.62
692.16	5.04
692.482	4.65
