Data from 0385_chest_Reflection__6__234.txt Node

Date: Tue Dec 12 20:22:22 CST 2023
User: ToomeyLab
Spectrometer: FLMS14357
Trigger mode: 0
Integration Time (sec): 1.000000E-2
Scans to average: 100
Electric dark correction enabled: true
Nonlinearity correction enabled: false
Boxcar width: 0
XAxis mode: Wavelengths
Number of Pixels in Spectrum: 2048
>>>>>Begin Spectral Data<<<<<
189.047	-54.16
189.435	-54.16
189.823	-54.16
190.211	8.11
190.599	-212.29
190.987	72.64
191.375	-258.17
191.763	35.29
192.151	33.3
192.538	400.38
192.926	932.06
193.314	187.49
193.702	48.71
194.089	1779.35
194.477	2.16
194.864	409.9
195.252	6.3
195.639	239.72
196.027	92.86
196.414	-75.01
196.801	753.89
197.189	-65.56
197.576	68.5
197.963	40.58
198.351	-0.71
198.738	54.3
199.125	-32.83
199.512	29.82
199.899	-14.3
200.286	38.85
200.673	-24.81
201.06	1.83
201.447	-189.29
201.833	-28.04
202.22	5.72
202.607	-3195.24
202.994	-10.75
203.38	41.04
203.767	3.71
204.154	-0.74
204.54	9.55
204.927	-53.02
205.313	32.27
205.699	-5.22
206.086	-35.87
206.472	39.37
206.858	-19.45
207.245	-27.89
207.631	13.24
208.017	-4.91
208.403	-65.67
208.789	-5.07
209.175	7.13
209.561	42.96
209.947	-49.54
210.333	10.61
210.719	-12.74
211.105	-69.67
211.491	51.02
211.876	-1.12
212.262	7.71
212.648	-64.04
213.034	-87.52
213.419	-5.74
213.805	-26.21
214.19	-2.03
214.576	21.59
214.961	-19.77
215.346	-3
215.732	20.55
216.117	2.82
216.502	-30.3
216.888	-26.94
217.273	-17.87
217.658	-75.68
218.043	9.64
218.428	-0.56
218.813	19.35
219.198	-31.8
219.583	-18.89
219.968	6.91
220.353	-25.4
220.738	12.91
221.122	-14.4
221.507	5.78
221.892	14.86
222.276	-3.43
222.661	-1.93
223.046	-18.07
223.43	18.57
223.815	0.78
224.199	-1.71
224.583	11.34
224.968	-2.31
225.352	-3.13
225.736	10.44
226.121	4.39
226.505	6.4
226.889	-13.98
227.273	-2.47
227.657	8.82
228.041	-0.33
228.425	4.06
228.809	5.42
229.193	-1.13
229.577	6.01
229.961	2.24
230.344	3.25
230.728	3.89
231.112	4.09
231.495	3.59
231.879	4.2
232.263	3.31
232.646	2.32
233.03	3.81
233.413	3.29
233.797	2.14
234.18	-0.49
234.563	3.77
234.946	4.06
235.33	3.67
235.713	4.57
236.096	2.11
236.479	3.39
236.862	3.76
237.245	1.91
237.628	2.52
238.011	3.42
238.394	3.17
238.777	3.53
239.16	1.39
239.543	4.4
239.925	4.4
240.308	4.07
240.691	5.86
241.073	5.64
241.456	4.8
241.838	2.69
242.221	3.69
242.603	3.96
242.986	2.37
243.368	3.5
243.75	3.84
244.133	3.82
244.515	4.02
244.897	4.55
245.279	4.2
245.661	3.7
246.043	2.24
246.425	5.14
246.807	2.62
247.189	4.19
247.571	3.38
247.953	2.8
248.335	3.9
248.717	3.56
249.098	3.64
249.48	3.57
249.862	3.45
250.243	3.25
250.625	3.68
251.006	3.44
251.388	3.13
251.769	3.07
252.151	3.28
252.532	2.98
252.913	2.78
253.295	4.37
253.676	3.14
254.057	3.29
254.438	3.56
254.819	2.54
255.2	2.49
255.581	2.48
255.962	2.34
256.343	2.34
256.724	3.75
257.105	4.45
257.486	2.39
257.867	1.67
258.247	2.43
258.628	2.19
259.009	2.62
259.389	3.66
259.77	2.46
260.15	2.82
260.531	4.05
260.911	4.03
261.292	2.88
261.672	3.25
262.052	3.26
262.432	3.59
262.813	3.48
263.193	3.67
263.573	3.24
263.953	4.17
264.333	4.58
264.713	3.38
265.093	3.19
265.473	2.58
265.853	2.6
266.233	1.66
266.612	2.52
266.992	3.25
267.372	3.53
267.752	4.08
268.131	2.54
268.511	2.69
268.89	2.7
269.27	2.6
269.649	3.31
270.029	2.87
270.408	3.78
270.787	3.08
271.167	3.85
271.546	2.75
271.925	4.11
272.304	3.54
272.683	3
273.062	3.04
273.441	3.1
273.82	2.34
274.199	3.22
274.578	3.17
274.957	3.11
275.336	3.38
275.715	2.69
276.093	1.93
276.472	3.22
276.851	3.62
277.229	2.84
277.608	3.6
277.986	2.38
278.365	2.79
278.743	2.9
279.122	3.57
279.5	2.6
279.878	1.95
280.257	2.89
280.635	2.06
281.013	2.88
281.391	3.2
281.769	2.34
282.147	3.29
282.525	2.37
282.903	3.28
283.281	3.59
283.659	3.22
284.037	3.22
284.415	2.79
284.792	3.26
285.17	2.26
285.548	2.8
285.925	2.85
286.303	2.62
286.68	2.81
287.058	3.16
287.435	3.15
287.813	2.65
288.19	2.83
288.567	2.97
288.945	3.28
289.322	2.26
289.699	2.83
290.076	2.64
290.453	3.45
290.83	2.33
291.207	2.75
291.584	2.93
291.961	2.76
292.338	3.13
292.715	2.75
293.092	3.17
293.469	2.81
293.845	2.7
294.222	3.13
294.599	3.04
294.975	2.34
295.352	3.09
295.728	2.83
296.105	2.87
296.481	3.22
296.858	2.56
297.234	3.24
297.61	3
297.986	3.02
298.363	3.38
298.739	3.19
299.115	2.39
299.491	2.7
299.867	2.78
300.243	3.27
300.619	3.28
300.995	2.92
301.371	3.55
301.746	2.92
302.122	2.98
302.498	2.72
302.874	3.27
303.249	3.71
303.625	3.16
304	3.18
304.376	2.69
304.751	2.84
305.127	3.16
305.502	2.95
305.878	3.02
306.253	2.55
306.628	3.02
307.003	2.27
307.378	3.23
307.754	3.04
308.129	2.44
308.504	3.84
308.879	2.46
309.254	3.38
309.629	2.62
310.003	3.19
310.378	3.17
310.753	3.4
311.128	3.6
311.502	2.81
311.877	2.87
312.252	2.48
312.626	3.22
313.001	2.48
313.375	3.11
313.75	2.76
314.124	3.37
314.498	2.77
314.873	3.25
315.247	3.24
315.621	2.75
315.995	3.16
316.369	2.85
316.743	2.89
317.117	2.39
317.491	2.14
317.865	3.15
318.239	2.91
318.613	3.23
318.987	3.49
319.361	2.46
319.734	2.76
320.108	3.55
320.482	2.8
320.855	3.24
321.229	3
321.602	3.07
321.976	3.47
322.349	3.46
322.723	2.36
323.096	2.32
323.469	2.57
323.843	3.51
324.216	3.29
324.589	2.7
324.962	3.28
325.335	3.49
325.708	3.53
326.081	3.47
326.454	2.77
326.827	3.89
327.2	3.24
327.573	2.68
327.945	3.09
328.318	3.54
328.691	2.61
329.063	3.02
329.436	2.97
329.809	3.31
330.181	2.39
330.553	3.24
330.926	3.38
331.298	2.56
331.671	3.53
332.043	3.05
332.415	3.13
332.787	2.87
333.159	2.93
333.532	3.37
333.904	3.11
334.276	3.44
334.648	2.83
335.02	2.37
335.391	2.56
335.763	2.99
336.135	3.22
336.507	3.47
336.879	2.14
337.25	3.07
337.622	3.21
337.993	2.87
338.365	2.77
338.736	2.86
339.108	2.88
339.479	2.91
339.851	3.27
340.222	2.76
340.593	2.79
340.964	3.15
341.336	3.12
341.707	2.61
342.078	2.73
342.449	2.55
342.82	2.74
343.191	3.15
343.562	2.79
343.933	3.41
344.303	3.38
344.674	3.16
345.045	2.71
345.416	3.38
345.786	3
346.157	2.83
346.527	3.1
346.898	3.18
347.268	3.02
347.639	3.04
348.009	2.59
348.38	2.91
348.75	3.49
349.12	3.09
349.49	2.76
349.861	3.22
350.231	3.24
350.601	3.15
350.971	3.07
351.341	2.78
351.711	3.34
352.081	3.13
352.45	2.59
352.82	3.06
353.19	3.16
353.56	2.75
353.929	2.69
354.299	2.43
354.669	2.97
355.038	2.9
355.408	2.84
355.777	3.53
356.147	3.19
356.516	2.81
356.885	2.83
357.254	3.03
357.624	3
357.993	2.87
358.362	3.16
358.731	3.28
359.1	2.59
359.469	2.95
359.838	3.34
360.207	2.72
360.576	3.39
360.945	2.64
361.314	3.37
361.682	3.02
362.051	3
362.42	3.03
362.788	3
363.157	3.48
363.525	3.29
363.894	2.78
364.262	3.03
364.631	2.87
364.999	3.29
365.367	3.07
365.735	2.88
366.104	2.72
366.472	2.91
366.84	2.86
367.208	3.09
367.576	2.8
367.944	3.39
368.312	3.36
368.68	2.86
369.048	3.12
369.416	2.92
369.783	3.25
370.151	3.26
370.519	2.69
370.886	2.85
371.254	2.94
371.621	3.47
371.989	2.95
372.356	3.41
372.724	3.26
373.091	2.82
373.458	3.01
373.826	2.98
374.193	2.96
374.56	3.1
374.927	3.18
375.294	2.87
375.661	3.43
376.028	3.21
376.395	3.55
376.762	3.4
377.129	3.03
377.496	2.99
377.863	3.04
378.229	3.13
378.596	3.02
378.963	3.36
379.329	2.98
379.696	3.04
380.062	3.12
380.429	3.14
380.795	3.17
381.161	3.22
381.528	3.39
381.894	3.15
382.26	3.04
382.626	2.85
382.993	3.04
383.359	2.88
383.725	3.2
384.091	2.99
384.457	3.11
384.823	3.29
385.188	3.21
385.554	3.45
385.92	2.92
386.286	3.21
386.651	3.23
387.017	3.66
387.383	3.27
387.748	3.4
388.114	3.17
388.479	3.28
388.845	3.1
389.21	2.87
389.575	2.93
389.94	3.15
390.306	3.38
390.671	3.16
391.036	3.18
391.401	3.17
391.766	3.22
392.131	3.09
392.496	2.89
392.861	2.93
393.226	3.18
393.591	3.07
393.956	3.05
394.32	3.4
394.685	3.24
395.05	3.08
395.414	3.08
395.779	3.2
396.143	3.18
396.508	3.2
396.872	3.36
397.236	3.21
397.601	3.12
397.965	3.12
398.329	3.39
398.694	3.24
399.058	3.4
399.422	3.15
399.786	3.25
400.15	3.06
400.514	3.41
400.878	3.12
401.242	3.33
401.605	3.19
401.969	3.03
402.333	3.25
402.697	3.06
403.06	2.82
403.424	3.29
403.787	3.13
404.151	3.28
404.514	2.93
404.878	3.09
405.241	3.2
405.604	2.95
405.968	3.07
406.331	3.33
406.694	3.44
407.057	3
407.42	3.08
407.783	2.93
408.146	3.15
408.509	3.05
408.872	3.03
409.235	2.9
409.598	3.18
409.961	2.98
410.323	3.23
410.686	3.44
411.049	3.12
411.411	3.39
411.774	3.09
412.136	3.46
412.499	3.3
412.861	3.21
413.223	3.35
413.586	3.11
413.948	3.11
414.31	3.35
414.672	3.31
415.035	3.26
415.397	3.1
415.759	3.03
416.121	3.2
416.483	3.37
416.845	3.23
417.206	3.43
417.568	3.2
417.93	3.3
418.292	3.28
418.653	3.31
419.015	3.25
419.377	3.18
419.738	3.2
420.1	3.04
420.461	3.18
420.822	3.28
421.184	3.17
421.545	3.41
421.906	3.22
422.267	3.19
422.629	3.18
422.99	3.18
423.351	3.14
423.712	3.21
424.073	3.05
424.434	3.26
424.795	3.26
425.155	3.07
425.516	3.08
425.877	3.12
426.238	3.12
426.598	3.12
426.959	3.18
427.32	3.25
427.68	3.15
428.041	3.23
428.401	3.28
428.761	3.15
429.122	3.31
429.482	3.36
429.842	3.37
430.202	3.31
430.563	3.38
430.923	3.2
431.283	3.19
431.643	3.24
432.003	3.19
432.363	3.44
432.722	3.19
433.082	3.17
433.442	3.13
433.802	3.4
434.161	3.34
434.521	3.32
434.881	3.14
435.24	3.21
435.6	3.33
435.959	3.34
436.319	3.29
436.678	3.28
437.037	3.39
437.396	3.03
437.756	3.13
438.115	3.24
438.474	3.2
438.833	3.24
439.192	3.39
439.551	3.27
439.91	3.16
440.269	3.17
440.628	3.27
440.987	3.12
441.345	3.33
441.704	3.37
442.063	3.25
442.421	3.33
442.78	3.3
443.138	3.21
443.497	3.24
443.855	3.35
444.214	3.32
444.572	3.4
444.93	3.28
445.288	3.24
445.647	3.29
446.005	3.26
446.363	3.16
446.721	3.32
447.079	3.23
447.437	2.98
447.795	3.36
448.153	3.25
448.51	3.27
448.868	3.25
449.226	3.32
449.584	3.19
449.941	3.31
450.299	3.37
450.656	3.26
451.014	3.33
451.371	3.32
451.729	3.39
452.086	3.26
452.443	3.52
452.801	3.24
453.158	3.2
453.515	3.41
453.872	3.31
454.229	3.52
454.586	3.23
454.943	3.2
455.3	3.27
455.657	3.24
456.014	3.49
456.371	3.27
456.727	3.36
457.084	3.4
457.441	3.47
457.797	3.46
458.154	3.38
458.51	3.34
458.867	3.52
459.223	3.54
459.58	3.35
459.936	3.12
460.292	3.32
460.648	3.34
461.005	3.37
461.361	3.32
461.717	3.35
462.073	3.31
462.429	3.29
462.785	3.29
463.141	3.31
463.496	3.3
463.852	3.61
464.208	3.43
464.564	3.32
464.919	3.38
465.275	3.54
465.631	3.61
465.986	3.38
466.342	3.22
466.697	3.35
467.052	3.64
467.408	3.36
467.763	3.51
468.118	3.3
468.473	3.38
468.829	3.55
469.184	3.28
469.539	3.49
469.894	3.46
470.249	3.46
470.603	3.44
470.958	3.47
471.313	3.7
471.668	3.53
472.023	3.36
472.377	3.46
472.732	3.44
473.086	3.38
473.441	3.53
473.795	3.36
474.15	3.37
474.504	3.33
474.859	3.46
475.213	3.33
475.567	3.48
475.921	3.63
476.275	3.36
476.63	3.51
476.984	3.37
477.338	3.21
477.692	3.39
478.045	3.51
478.399	3.23
478.753	3.39
479.107	3.49
479.461	3.58
479.814	3.55
480.168	3.25
480.521	3.43
480.875	3.59
481.228	3.48
481.582	3.38
481.935	3.44
482.289	3.62
482.642	3.52
482.995	3.39
483.348	3.48
483.701	3.49
484.055	3.39
484.408	3.44
484.761	3.38
485.114	3.3
485.466	3.25
485.819	3.24
486.172	3.22
486.525	3.29
486.878	3.31
487.23	3.31
487.583	3.3
487.936	3.37
488.288	3.33
488.641	3.34
488.993	3.31
489.345	3.36
489.698	3.34
490.05	3.34
490.402	3.39
490.754	3.37
491.107	3.36
491.459	3.36
491.811	3.49
492.163	3.38
492.515	3.51
492.866	3.38
493.218	3.36
493.57	3.32
493.922	3.3
494.274	3.42
494.625	3.49
494.977	3.55
495.328	3.6
495.68	3.45
496.031	3.73
496.383	3.5
496.734	3.56
497.086	3.56
497.437	3.46
497.788	3.57
498.139	3.49
498.49	3.61
498.842	3.45
499.193	3.61
499.544	3.5
499.894	3.51
500.245	3.7
500.596	3.65
500.947	3.69
501.298	3.56
501.648	3.73
501.999	3.47
502.35	3.58
502.7	3.62
503.051	3.51
503.401	3.68
503.752	3.73
504.102	3.64
504.452	3.57
504.803	3.65
505.153	3.64
505.503	3.7
505.853	3.73
506.203	3.62
506.553	3.58
506.903	3.61
507.253	3.53
507.603	3.72
507.953	3.64
508.303	3.65
508.652	3.64
509.002	3.66
509.352	3.69
509.701	3.69
510.051	3.71
510.4	3.52
510.75	3.62
511.099	3.54
511.449	3.65
511.798	3.71
512.147	3.67
512.496	3.76
512.846	3.71
513.195	3.72
513.544	3.7
513.893	3.71
514.242	3.69
514.591	3.69
514.939	3.69
515.288	3.61
515.637	3.61
515.986	3.69
516.334	3.75
516.683	3.65
517.032	3.77
517.38	3.77
517.729	3.86
518.077	3.76
518.426	3.78
518.774	3.65
519.122	3.77
519.47	3.69
519.819	3.7
520.167	3.7
520.515	3.65
520.863	3.75
521.211	3.64
521.559	3.78
521.907	3.7
522.255	3.88
522.602	3.86
522.95	3.93
523.298	3.86
523.645	3.99
523.993	3.84
524.341	3.91
524.688	3.87
525.036	3.92
525.383	3.89
525.73	3.86
526.078	3.77
526.425	3.79
526.772	3.75
527.119	3.83
527.466	3.84
527.814	3.63
528.161	3.88
528.508	3.87
528.854	3.8
529.201	3.79
529.548	3.83
529.895	3.79
530.242	3.68
530.588	3.71
530.935	3.75
531.282	3.76
531.628	3.85
531.975	3.79
532.321	3.83
532.667	3.81
533.014	3.86
533.36	3.85
533.706	3.77
534.052	3.86
534.399	3.87
534.745	3.89
535.091	3.83
535.437	3.88
535.783	3.86
536.129	3.92
536.474	3.9
536.82	3.98
537.166	4.06
537.512	3.99
537.857	4.11
538.203	3.98
538.549	4.04
538.894	4.04
539.239	4.07
539.585	4.05
539.93	4.11
540.276	4.07
540.621	4.15
540.966	4.11
541.311	4.18
541.656	4.13
542.001	4.09
542.346	4.12
542.691	4.11
543.036	4.02
543.381	3.97
543.726	4.05
544.071	4.07
544.415	4.04
544.76	4.11
545.105	4.22
545.449	4.2
545.794	4.25
546.138	4.15
546.483	4.17
546.827	4.27
547.171	4.25
547.516	4.18
547.86	4.27
548.204	4.27
548.548	4.29
548.892	4.29
549.236	4.35
549.58	4.28
549.924	4.3
550.268	4.53
550.612	4.34
550.956	4.34
551.3	4.51
551.643	4.56
551.987	4.59
552.33	4.6
552.674	4.6
553.017	4.71
553.361	4.65
553.704	4.38
554.048	4.54
554.391	4.51
554.734	4.57
555.077	4.59
555.42	4.46
555.764	4.63
556.107	4.64
556.45	4.59
556.793	4.53
557.135	4.66
557.478	4.77
557.821	4.59
558.164	4.67
558.507	4.73
558.849	4.76
559.192	4.72
559.534	4.67
559.877	4.74
560.219	4.66
560.562	4.91
560.904	4.79
561.246	4.63
561.589	4.69
561.931	4.72
562.273	4.68
562.615	4.7
562.957	4.76
563.299	4.8
563.641	4.97
563.983	4.86
564.325	4.84
564.667	5.02
565.008	4.6
565.35	5.07
565.692	4.98
566.033	5.07
566.375	5.03
566.716	4.78
567.058	4.9
567.399	5
567.741	4.95
568.082	4.88
568.423	5.05
568.764	5.04
569.105	5.03
569.447	5.2
569.788	5.24
570.129	5.07
570.47	5.07
570.811	5.22
571.151	5.12
571.492	5.28
571.833	5.15
572.174	5.14
572.514	5.18
572.855	5.27
573.195	5.2
573.536	5.12
573.876	5.23
574.217	5.36
574.557	5.22
574.898	5.14
575.238	5.41
575.578	5.17
575.918	5.3
576.258	5.44
576.598	5.26
576.938	5.46
577.278	5.56
577.618	5.52
577.958	5.33
578.298	5.54
578.638	5.43
578.977	5.44
579.317	5.65
579.657	5.56
579.996	5.62
580.336	5.6
580.675	5.7
581.014	5.72
581.354	5.76
581.693	5.59
582.032	5.76
582.372	5.59
582.711	5.97
583.05	5.97
583.389	5.88
583.728	5.76
584.067	5.71
584.406	5.74
584.745	5.94
585.083	5.59
585.422	6.23
585.761	6.01
586.1	5.97
586.438	6.12
586.777	5.94
587.115	5.95
587.454	6.05
587.792	5.65
588.13	6.29
588.469	6.07
588.807	5.95
589.145	6.06
589.483	5.99
589.821	6.32
590.159	6.15
590.497	6.17
590.835	6.27
591.173	6.11
591.511	6.17
591.849	6.16
592.187	6.16
592.524	6.23
592.862	6.35
593.2	6.13
593.537	6.14
593.875	6.59
594.212	6.6
594.55	6.49
594.887	6.7
595.224	6.59
595.561	6.84
595.899	6.52
596.236	6.45
596.573	6.49
596.91	6.75
597.247	6.57
597.584	6.89
597.921	6.53
598.258	6.69
598.594	6.68
598.931	6.6
599.268	6.5
599.604	6.59
599.941	6.49
600.277	6.87
600.614	6.95
600.95	6.85
601.287	6.72
601.623	6.86
601.959	6.77
602.296	6.98
602.632	6.75
602.968	7.07
603.304	6.82
603.64	7.06
603.976	6.87
604.312	6.89
604.648	6.86
604.984	7.07
605.319	7.15
605.655	6.94
605.991	7.03
606.326	7.01
606.662	7.44
606.998	6.94
607.333	7.06
607.668	7.43
608.004	7.19
608.339	7.29
608.674	7.38
609.01	7.26
609.345	7.15
609.68	7.45
610.015	7.26
610.35	7.42
610.685	7.4
611.02	7.15
611.355	7.32
611.689	7.45
612.024	7.61
612.359	7.52
612.694	7.72
613.028	7.53
613.363	7.82
613.697	7.87
614.032	7.69
614.366	7.67
614.7	7.55
615.035	7.75
615.369	7.68
615.703	7.83
616.037	7.84
616.371	7.88
616.705	7.78
617.039	7.91
617.373	7.87
617.707	7.49
618.041	7.89
618.375	7.87
618.709	8
619.042	8.24
619.376	7.77
619.71	8.37
620.043	8.32
620.377	8.22
620.71	7.9
621.043	7.93
621.377	7.48
621.71	8.23
622.043	8.2
622.376	8.38
622.709	8.32
623.043	8.43
623.376	8.72
623.709	8.63
624.041	8.41
624.374	8.64
624.707	8.37
625.04	8.43
625.373	8.7
625.705	8.66
626.038	8.51
626.37	8.81
626.703	8.98
627.035	8.49
627.368	8.96
627.7	8.71
628.032	8.64
628.365	8.89
628.697	8.81
629.029	8.63
629.361	8.7
629.693	8.68
630.025	8.64
630.357	9.05
630.689	8.55
631.021	8.89
631.353	9.42
631.684	8.95
632.016	9.17
632.348	8.92
632.679	8.75
633.011	9.63
633.342	9.4
633.674	9.31
634.005	9.41
634.336	9.04
634.668	9.8
634.999	9.5
635.33	9.2
635.661	9.57
635.992	9.26
636.323	9.41
636.654	9.44
636.985	9.78
637.316	9.23
637.647	9.53
637.977	9.88
638.308	9.61
638.639	9.57
638.969	9.58
639.3	9.73
639.63	9.55
639.961	9.65
640.291	9.36
640.622	9.46
640.952	10.6
641.282	9.93
641.612	9.94
641.943	9.91
642.273	9.97
642.603	10.1
642.933	10.1
643.263	9.75
643.592	10.26
643.922	10.21
644.252	10.33
644.582	9.86
644.911	10.22
645.241	9.87
645.571	10.61
645.9	10.11
646.23	10.07
646.559	10.55
646.888	9.87
647.218	10.28
647.547	10.15
647.876	10.48
648.205	10.05
648.534	10.19
648.863	10.75
649.192	11.23
649.521	10.92
649.85	10.11
650.179	10.84
650.508	10.59
650.837	11.22
651.165	10.75
651.494	10.27
651.822	10.59
652.151	11.12
652.479	10.93
652.808	10.79
653.136	11.13
653.465	11.1
653.793	10.74
654.121	11.1
654.449	11.24
654.777	11.19
655.105	11.03
655.433	11.64
655.761	10.86
656.089	10.84
656.417	11.61
656.745	11.15
657.073	11.02
657.4	11.57
657.728	10.72
658.056	11.23
658.383	10.87
658.711	10.78
659.038	10.94
659.365	10.84
659.693	11.3
660.02	11.61
660.347	11.56
660.674	11.61
661.001	11.59
661.329	11.51
661.656	11.63
661.982	11.37
662.309	12
662.636	11.59
662.963	11.83
663.29	12.14
663.616	11.62
663.943	12.03
664.27	11.9
664.596	12.46
664.923	12.2
665.249	11.33
665.576	11.88
665.902	11.89
666.228	12.12
666.554	11.75
666.881	11.63
667.207	11.98
667.533	11.96
667.859	12.23
668.185	12.41
668.511	12.62
668.837	12.05
669.162	12.85
669.488	11.59
669.814	12.26
670.139	11.5
670.465	12.1
670.791	12.65
671.116	12.2
671.442	13
671.767	12.39
672.092	12.74
672.418	12.59
672.743	12.75
673.068	12.08
673.393	12.71
673.718	12.53
674.043	12.77
674.368	11.6
674.693	12.73
675.018	12.7
675.343	12.81
675.667	13.15
675.992	13.06
676.317	12.02
676.641	13.39
676.966	12.95
677.29	12.68
677.615	13.1
677.939	12.63
678.264	14.02
678.588	13.55
678.912	12.68
679.236	12.81
679.56	12.63
679.885	13.37
680.209	13.45
680.532	13.39
680.856	13.11
681.18	13.37
681.504	13.69
681.828	13.45
682.152	13.03
682.475	13.63
682.799	13.75
683.122	13.55
683.446	13.44
683.769	14.07
684.093	13.23
684.416	13.58
684.739	14.07
685.062	13.98
685.386	14.11
685.709	14.48
686.032	13.34
686.355	13.77
686.678	14.6
687.001	14.14
687.324	13.64
687.646	14.78
687.969	13.77
688.292	14.26
688.614	14.36
688.937	13.92
