Data from 0385_crown_Reflection__1__237.txt Node

Date: Tue Dec 12 20:23:56 CST 2023
User: ToomeyLab
Spectrometer: FLMS14357
Trigger mode: 0
Integration Time (sec): 1.000000E-2
Scans to average: 100
Electric dark correction enabled: true
Nonlinearity correction enabled: false
Boxcar width: 0
XAxis mode: Wavelengths
Number of Pixels in Spectrum: 2048
>>>>>Begin Spectral Data<<<<<
189.047	68.29
189.435	68.29
189.823	68.29
190.211	-5.02
190.599	-154.98
190.987	86.54
191.375	554.25
191.763	-17.05
192.151	117.23
192.538	-1509.43
192.926	622.34
193.314	-209.7
193.702	52.11
194.089	492.31
194.477	53.4
194.864	53.52
195.252	365.28
195.639	132.32
196.027	117.39
196.414	177.01
196.801	2529.34
197.189	5.27
197.576	138.72
197.963	67.07
198.351	-22.61
198.738	29.86
199.125	13.44
199.512	-11.51
199.899	-13.51
200.286	-16.36
200.673	21.85
201.06	-37.63
201.447	-120.5
201.833	-86.34
202.22	-62.7
202.607	-6689.52
202.994	8.72
203.38	46.29
203.767	-28.67
204.154	24.74
204.54	38.07
204.927	15.83
205.313	-17.03
205.699	-57.08
206.086	-6.41
206.472	5.67
206.858	34.5
207.245	-0.64
207.631	-2.64
208.017	-10.19
208.403	-68.73
208.789	18.8
209.175	-41.74
209.561	18.49
209.947	-41.26
210.333	-3.04
210.719	-68.43
211.105	-75.68
211.491	37.89
211.876	8.35
212.262	-12.07
212.648	-131.01
213.034	-125.68
213.419	-3.25
213.805	-1.91
214.19	23.36
214.576	3.48
214.961	-18.92
215.346	-24.35
215.732	14.07
216.117	-0.36
216.502	-18.22
216.888	-61.3
217.273	-61.53
217.658	-126.55
218.043	-35.09
218.428	-19.12
218.813	-21.56
219.198	-36.77
219.583	-4.21
219.968	-21
220.353	-38.96
220.738	4.8
221.122	-23.13
221.507	-27.97
221.892	-13.91
222.276	20.77
222.661	1.95
223.046	-10.11
223.43	1.07
223.815	-2.29
224.199	12.69
224.583	-11.18
224.968	5.7
225.352	-18.29
225.736	17.51
226.121	1
226.505	0.18
226.889	4.76
227.273	3.2
227.657	13.67
228.041	3.42
228.425	5.71
228.809	6.95
229.193	6.95
229.577	9.58
229.961	4.48
230.344	10.53
230.728	9.61
231.112	9.77
231.495	8.96
231.879	10.08
232.263	8.22
232.646	9.42
233.03	8.96
233.413	6.52
233.797	8.6
234.18	6.42
234.563	6.81
234.946	7.41
235.33	9.37
235.713	10.22
236.096	8.09
236.479	8
236.862	8.83
237.245	6.03
237.628	7.2
238.011	9.44
238.394	7.53
238.777	9.28
239.16	8.31
239.543	7.51
239.925	8.86
240.308	7.83
240.691	7.04
241.073	7
241.456	9.92
241.838	7.74
242.221	9.05
242.603	9.07
242.986	6.84
243.368	9.55
243.75	8.51
244.133	8.69
244.515	8.58
244.897	8.66
245.279	9.25
245.661	8.19
246.043	7.35
246.425	7.03
246.807	6.93
247.189	8.34
247.571	7.9
247.953	7.65
248.335	8.29
248.717	8.03
249.098	8.43
249.48	7.97
249.862	7.9
250.243	7.71
250.625	9.14
251.006	7.89
251.388	8.23
251.769	7.52
252.151	6.07
252.532	7.99
252.913	7.87
253.295	8.57
253.676	7.16
254.057	7.42
254.438	8.19
254.819	7.63
255.2	6.53
255.581	7.18
255.962	7.1
256.343	6.8
256.724	7.25
257.105	6.71
257.486	6.21
257.867	6.72
258.247	6.15
258.628	6.05
259.009	6.01
259.389	7.68
259.77	8.07
260.15	7.1
260.531	8.11
260.911	8.19
261.292	7.3
261.672	7.37
262.052	7.49
262.432	7.24
262.813	7.25
263.193	8.08
263.573	7.11
263.953	7.89
264.333	7.97
264.713	6.95
265.093	7.03
265.473	7.22
265.853	6.19
266.233	6.28
266.612	7.34
266.992	6.63
267.372	7.97
267.752	8.07
268.131	6.69
268.511	6.92
268.89	6.1
269.27	5.81
269.649	6.82
270.029	6.25
270.408	7.06
270.787	6.23
271.167	6.41
271.546	6.81
271.925	7.24
272.304	6.61
272.683	6.76
273.062	6.62
273.441	6.86
273.82	6.3
274.199	6.74
274.578	6.88
274.957	6.26
275.336	6.81
275.715	6.57
276.093	5.79
276.472	6.62
276.851	6.53
277.229	5.87
277.608	6.62
277.986	5.36
278.365	6.67
278.743	5.84
279.122	6.15
279.5	5.98
279.878	5.73
280.257	5.77
280.635	6.02
281.013	6.51
281.391	6.49
281.769	5.47
282.147	5.66
282.525	5.85
282.903	5.81
283.281	5.58
283.659	6.1
284.037	5.85
284.415	5.78
284.792	6.3
285.17	5.97
285.548	6.22
285.925	5.91
286.303	5.96
286.68	5.72
287.058	6.16
287.435	6.12
287.813	5.5
288.19	5.95
288.567	5.85
288.945	5.72
289.322	5.22
289.699	5.65
290.076	6
290.453	5.94
290.83	5.44
291.207	5.58
291.584	5.77
291.961	6.15
292.338	5.63
292.715	5.91
293.092	5.51
293.469	5.61
293.845	5.43
294.222	5.36
294.599	5.91
294.975	5.16
295.352	5.91
295.728	6.23
296.105	5.79
296.481	6.3
296.858	5.58
297.234	5.88
297.61	5.71
297.986	6.03
298.363	6.31
298.739	5.79
299.115	5.58
299.491	5.63
299.867	5.36
300.243	5.2
300.619	5.42
300.995	5.01
301.371	5.89
301.746	5.48
302.122	5.81
302.498	5.37
302.874	5.46
303.249	5.71
303.625	5.03
304	5.42
304.376	4.62
304.751	5.17
305.127	4.98
305.502	5.89
305.878	5.2
306.253	5.23
306.628	5.08
307.003	5.72
307.378	5.21
307.754	5.63
308.129	5.58
308.504	6.13
308.879	5.36
309.254	5.51
309.629	4.98
310.003	5.56
310.378	4.97
310.753	4.99
311.128	5.44
311.502	4.63
311.877	4.78
312.252	4.84
312.626	5.28
313.001	5.26
313.375	5.06
313.75	5.26
314.124	5.17
314.498	4.93
314.873	4.74
315.247	5.24
315.621	4.83
315.995	5.48
316.369	5.48
316.743	4.67
317.117	4.76
317.491	5.1
317.865	5.43
318.239	5.19
318.613	4.86
318.987	5.37
319.361	4.57
319.734	5.45
320.108	5.65
320.482	4.17
320.855	5.29
321.229	4.89
321.602	4.91
321.976	5.06
322.349	4.98
322.723	4.16
323.096	5.32
323.469	4.76
323.843	5.78
324.216	5.1
324.589	4.67
324.962	5.14
325.335	5.4
325.708	5.18
326.081	4.79
326.454	4.69
326.827	5.41
327.2	4.93
327.573	4.68
327.945	4.73
328.318	5.66
328.691	4.77
329.063	5.12
329.436	5.17
329.809	4.88
330.181	3.99
330.553	4.46
330.926	5.29
331.298	4.57
331.671	4.59
332.043	4.76
332.415	5.11
332.787	5.41
333.159	4.63
333.532	5.2
333.904	5.23
334.276	5.12
334.648	4.79
335.02	4.06
335.391	4.5
335.763	4.67
336.135	5.61
336.507	5.67
336.879	5.15
337.25	4.74
337.622	4.49
337.993	5.3
338.365	4.81
338.736	4.42
339.108	4.56
339.479	5.31
339.851	4.35
340.222	4.43
340.593	4.92
340.964	4.9
341.336	5.3
341.707	4.73
342.078	5.17
342.449	4.5
342.82	4.96
343.191	4.75
343.562	4.71
343.933	4.97
344.303	5.06
344.674	4.97
345.045	5.48
345.416	4.94
345.786	4.75
346.157	5.15
346.527	5.13
346.898	4.99
347.268	4.93
347.639	5.4
348.009	5.07
348.38	4.93
348.75	5.43
349.12	5.39
349.49	5.07
349.861	5.52
350.231	5.18
350.601	5.4
350.971	5.02
351.341	5.23
351.711	5.44
352.081	5.17
352.45	4.74
352.82	5.5
353.19	5.34
353.56	4.83
353.929	5.03
354.299	4.77
354.669	5.36
355.038	4.68
355.408	4.92
355.777	5.51
356.147	5.37
356.516	5.16
356.885	5.38
357.254	5.44
357.624	4.89
357.993	4.6
358.362	5.23
358.731	5.35
359.1	5.13
359.469	5.13
359.838	5.21
360.207	5.58
360.576	5.62
360.945	4.91
361.314	5.23
361.682	5.3
362.051	5.62
362.42	5.46
362.788	5.14
363.157	5.58
363.525	5.58
363.894	5.18
364.262	5.55
364.631	5.13
364.999	5.34
365.367	5.43
365.735	5.13
366.104	5.38
366.472	5.21
366.84	5.24
367.208	5.26
367.576	5.51
367.944	5.27
368.312	5.28
368.68	5.31
369.048	5.55
369.416	5.39
369.783	5.25
370.151	5.08
370.519	5.36
370.886	5.47
371.254	5.37
371.621	6.06
371.989	5.23
372.356	5.47
372.724	5.36
373.091	5.22
373.458	5.66
373.826	5.53
374.193	4.99
374.56	5.6
374.927	5.86
375.294	5.04
375.661	5.89
376.028	5.67
376.395	5.85
376.762	5.83
377.129	5.53
377.496	5.72
377.863	5.55
378.229	5.33
378.596	5.54
378.963	6.02
379.329	5.35
379.696	5.66
380.062	5.79
380.429	5.58
380.795	5.84
381.161	5.93
381.528	5.71
381.894	5.53
382.26	5.82
382.626	5.36
382.993	5.99
383.359	5.51
383.725	5.51
384.091	5.72
384.457	5.4
384.823	6.12
385.188	5.72
385.554	6.01
385.92	5.59
386.286	5.81
386.651	5.81
387.017	5.81
387.383	5.77
387.748	5.98
388.114	5.93
388.479	6.02
388.845	5.67
389.21	5.74
389.575	5.59
389.94	5.59
390.306	5.84
390.671	5.65
391.036	6.02
391.401	5.91
391.766	5.99
392.131	5.87
392.496	5.94
392.861	5.8
393.226	5.91
393.591	5.91
393.956	5.87
394.32	6.04
394.685	6.1
395.05	6.12
395.414	5.92
395.779	5.79
396.143	6
396.508	5.75
396.872	5.93
397.236	5.94
397.601	5.82
397.965	5.93
398.329	5.85
398.694	5.99
399.058	6.14
399.422	5.94
399.786	6.12
400.15	5.59
400.514	6.24
400.878	6.04
401.242	5.73
401.605	6.15
401.969	5.67
402.333	6.1
402.697	5.94
403.06	5.92
403.424	5.89
403.787	5.79
404.151	6.35
404.514	6.1
404.878	6.13
405.241	6.02
405.604	5.65
405.968	5.91
406.331	6.13
406.694	6.17
407.057	6.05
407.42	5.87
407.783	6.01
408.146	6.08
408.509	6.02
408.872	6.02
409.235	5.93
409.598	6.05
409.961	5.93
410.323	6.12
410.686	6.09
411.049	6.08
411.411	6.26
411.774	6.12
412.136	6.13
412.499	6.27
412.861	5.97
413.223	6.42
413.586	6.06
413.948	6.14
414.31	5.93
414.672	5.99
415.035	6.18
415.397	6.04
415.759	6.26
416.121	6.2
416.483	6.18
416.845	6.1
417.206	6.35
417.568	6.19
417.93	6.14
418.292	6.05
418.653	6.14
419.015	6.09
419.377	6.24
419.738	6.08
420.1	6.17
420.461	6.29
420.822	6.16
421.184	6.16
421.545	6.31
421.906	6.02
422.267	6.17
422.629	6.16
422.99	6.16
423.351	6.11
423.712	6.11
424.073	6.11
424.434	6.16
424.795	6.22
425.155	5.99
425.516	6.07
425.877	6.19
426.238	6.08
426.598	6.07
426.959	6.07
427.32	6.19
427.68	6.1
428.041	6.22
428.401	6.13
428.761	6.26
429.122	6.27
429.482	6.46
429.842	6.37
430.202	6.28
430.563	6.19
430.923	6.23
431.283	6.12
431.643	6.37
432.003	6.41
432.363	6.44
432.722	6.31
433.082	6.3
433.442	6.34
433.802	6.28
434.161	6.25
434.521	6.33
434.881	6.23
435.24	6.32
435.6	6.29
435.959	6.32
436.319	6.33
436.678	6.4
437.037	6.25
437.396	6.1
437.756	6.46
438.115	6.51
438.474	6.44
438.833	6.46
439.192	6.41
439.551	6.27
439.91	6.25
440.269	6.18
440.628	6.2
440.987	6.12
441.345	6.21
441.704	6.29
442.063	6.27
442.421	6.4
442.78	6.43
443.138	6.34
443.497	6.22
443.855	6.2
444.214	6.36
444.572	6.41
444.93	6.34
445.288	6.22
445.647	6.32
446.005	6.24
446.363	6.24
446.721	6.18
447.079	6.32
447.437	6.13
447.795	6.39
448.153	6.16
448.51	6.28
448.868	6.32
449.226	6.32
449.584	6.38
449.941	6.27
450.299	6.48
450.656	6.3
451.014	6.35
451.371	6.34
451.729	6.48
452.086	6.34
452.443	6.6
452.801	6.44
453.158	6.49
453.515	6.46
453.872	6.24
454.229	6.47
454.586	6.23
454.943	6.14
455.3	6.27
455.657	6.16
456.014	6.49
456.371	6.45
456.727	6.42
457.084	6.22
457.441	6.48
457.797	6.29
458.154	6.3
458.51	6.3
458.867	6.48
459.223	6.53
459.58	6.36
459.936	6.18
460.292	6.3
460.648	6.42
461.005	6.24
461.361	6.21
461.717	6.47
462.073	6.28
462.429	6.36
462.785	6.31
463.141	6.25
463.496	6.33
463.852	6.57
464.208	6.39
464.564	6.41
464.919	6.47
465.275	6.38
465.631	6.38
465.986	6.51
466.342	6.33
466.697	6.48
467.052	6.77
467.408	6.36
467.763	6.47
468.118	6.4
468.473	6.35
468.829	6.56
469.184	6.05
469.539	6.58
469.894	6.43
470.249	6.66
470.603	6.42
470.958	6.33
471.313	6.67
471.668	6.6
472.023	6.34
472.377	6.37
472.732	6.47
473.086	6.54
473.441	6.66
473.795	6.54
474.15	6.56
474.504	6.35
474.859	6.48
475.213	6.22
475.567	6.44
475.921	6.39
476.275	6.33
476.63	6.57
476.984	6.51
477.338	6.4
477.692	6.43
478.045	6.53
478.399	6.5
478.753	6.47
479.107	6.43
479.461	6.46
479.814	6.58
480.168	6.28
480.521	6.45
480.875	6.48
481.228	6.45
481.582	6.41
481.935	6.46
482.289	6.51
482.642	6.5
482.995	6.41
483.348	6.38
483.701	6.57
484.055	6.32
484.408	6.31
484.761	6.43
485.114	6.28
485.466	6.16
485.819	6.17
486.172	6.11
486.525	6.14
486.878	6.12
487.23	6.18
487.583	6.23
487.936	6.34
488.288	6.3
488.641	6.25
488.993	6.27
489.345	6.24
489.698	6.17
490.05	6.17
490.402	6.22
490.754	6.18
491.107	6.32
491.459	6.32
491.811	6.38
492.163	6.38
492.515	6.38
492.866	6.34
493.218	6.24
493.57	6.22
493.922	6.18
494.274	6.2
494.625	6.35
494.977	6.43
495.328	6.49
495.68	6.38
496.031	6.54
496.383	6.5
496.734	6.49
497.086	6.39
497.437	6.31
497.788	6.43
498.139	6.48
498.49	6.5
498.842	6.35
499.193	6.49
499.544	6.41
499.894	6.41
500.245	6.44
500.596	6.32
500.947	6.36
501.298	6.5
501.648	6.5
501.999	6.37
502.35	6.45
502.7	6.49
503.051	6.2
503.401	6.48
503.752	6.6
504.102	6.31
504.452	6.45
504.803	6.43
505.153	6.66
505.503	6.5
505.853	6.5
506.203	6.42
506.553	6.4
506.903	6.44
507.253	6.53
507.603	6.47
507.953	6.34
508.303	6.41
508.652	6.35
509.002	6.5
509.352	6.43
509.701	6.51
510.051	6.44
510.4	6.39
510.75	6.42
511.099	6.28
511.449	6.45
511.798	6.33
512.147	6.47
512.496	6.48
512.846	6.51
513.195	6.39
513.544	6.41
513.893	6.45
514.242	6.36
514.591	6.44
514.939	6.31
515.288	6.36
515.637	6.42
515.986	6.49
516.334	6.55
516.683	6.49
517.032	6.37
517.38	6.33
517.729	6.53
518.077	6.41
518.426	6.57
518.774	6.45
519.122	6.32
519.47	6.37
519.819	6.37
520.167	6.36
520.515	6.29
520.863	6.35
521.211	6.34
521.559	6.34
521.907	6.38
522.255	6.42
522.602	6.51
522.95	6.45
523.298	6.47
523.645	6.46
523.993	6.34
524.341	6.44
524.688	6.39
525.036	6.54
525.383	6.42
525.73	6.36
526.078	6.35
526.425	6.43
526.772	6.32
527.119	6.46
527.466	6.36
527.814	6.29
528.161	6.39
528.508	6.34
528.854	6.23
529.201	6.29
529.548	6.29
529.895	6.22
530.242	6.14
530.588	6.13
530.935	6.12
531.282	6.09
531.628	6.11
531.975	6.14
532.321	6.2
532.667	6.18
533.014	6.28
533.36	6.24
533.706	6.25
534.052	6.22
534.399	6.2
534.745	6.19
535.091	6.14
535.437	6.18
535.783	6.14
536.129	6.24
536.474	6.14
536.82	6.24
537.166	6.36
537.512	6.25
537.857	6.34
538.203	6.35
538.549	6.28
538.894	6.29
539.239	6.21
539.585	6.19
539.93	6.44
540.276	6.31
540.621	6.23
540.966	6.31
541.311	6.34
541.656	6.36
542.001	6.16
542.346	6.27
542.691	6.24
543.036	6.14
543.381	6.02
543.726	6.1
544.071	6.05
544.415	6.13
544.76	6.14
545.105	6.18
545.449	6.28
545.794	6.29
546.138	6.13
546.483	6.31
546.827	6.22
547.171	6.35
547.516	6.17
547.86	6.25
548.204	6.23
548.548	6.11
548.892	6.23
549.236	6.11
549.58	6.32
549.924	6.35
550.268	6.3
550.612	6.14
550.956	6.34
551.3	6.4
551.643	6.36
551.987	6.35
552.33	6.34
552.674	6.38
553.017	6.4
553.361	6.37
553.704	6.27
554.048	6.3
554.391	6.38
554.734	6.4
555.077	6.27
555.42	6.17
555.764	6.42
556.107	6.36
556.45	6.21
556.793	5.99
557.135	6.28
557.478	6.34
557.821	6.24
558.164	6.38
558.507	6.27
558.849	6.14
559.192	6.28
559.534	6.19
559.877	6.31
560.219	6.34
560.562	6.34
560.904	6.19
561.246	6.3
561.589	6.25
561.931	6.27
562.273	6.2
562.615	6.22
562.957	6.44
563.299	6.3
563.641	6.33
563.983	6.2
564.325	6.29
564.667	6.17
565.008	6
565.35	5.97
565.692	6.43
566.033	6.29
566.375	6.18
566.716	5.96
567.058	6.41
567.399	6.32
567.741	6.19
568.082	6.25
568.423	6.29
568.764	6.11
569.105	6.13
569.447	6.05
569.788	6.26
570.129	6.14
570.47	6.12
570.811	6.28
571.151	6.27
571.492	6.24
571.833	6.12
572.174	6.04
572.514	6.11
572.855	6.22
573.195	6.1
573.536	6.02
573.876	6.19
574.217	6.17
574.557	5.93
574.898	6.13
575.238	6.24
575.578	6.05
575.918	6.1
576.258	5.95
576.598	6.04
576.938	6.07
577.278	6.23
577.618	6.19
577.958	5.93
578.298	6.11
578.638	5.92
578.977	6.2
579.317	6.1
579.657	6.05
579.996	6.1
580.336	5.98
580.675	5.92
581.014	6.07
581.354	6.17
581.693	6.1
582.032	5.82
582.372	6.1
582.711	5.99
583.05	6.17
583.389	5.88
583.728	6.13
584.067	6.25
584.406	6.2
584.745	6.04
585.083	5.92
585.422	6.2
585.761	6.18
586.1	5.84
586.438	6.14
586.777	6.18
587.115	5.83
587.454	5.98
587.792	5.77
588.13	6.23
588.469	5.94
588.807	5.77
589.145	6.12
589.483	5.9
589.821	6.27
590.159	6.14
590.497	6.27
590.835	5.82
591.173	5.95
591.511	6.06
591.849	5.72
592.187	6.02
592.524	5.82
592.862	5.88
593.2	5.86
593.537	5.74
593.875	6.04
594.212	5.92
594.55	6.21
594.887	6.17
595.224	5.96
595.561	5.99
595.899	5.86
596.236	6.03
596.573	6.11
596.91	6.06
597.247	5.91
597.584	5.96
597.921	5.96
598.258	6.13
598.594	5.93
598.931	5.86
599.268	5.7
599.604	5.76
599.941	5.84
600.277	5.71
600.614	5.97
600.95	5.99
601.287	5.7
601.623	5.82
601.959	6.07
602.296	5.89
602.632	5.43
602.968	5.88
603.304	5.9
603.64	6.22
603.976	5.84
604.312	5.73
604.648	6.14
604.984	5.85
605.319	5.71
605.655	5.65
605.991	5.97
606.326	5.62
606.662	5.76
606.998	5.63
607.333	5.73
607.668	5.66
608.004	5.97
608.339	5.98
608.674	5.84
609.01	5.85
609.345	5.96
609.68	5.81
610.015	5.71
610.35	5.83
610.685	5.73
611.02	5.64
611.355	5.68
611.689	5.7
612.024	5.67
612.359	5.83
612.694	5.58
613.028	5.87
613.363	5.84
613.697	5.85
614.032	5.93
614.366	5.96
614.7	5.86
615.035	5.82
615.369	5.64
615.703	5.65
616.037	5.86
616.371	5.64
616.705	5.59
617.039	5.58
617.373	5.63
617.707	5.84
618.041	5.53
618.375	5.4
618.709	5.25
619.042	5.67
619.376	5.87
619.71	5.51
620.043	5.82
620.377	5.82
620.71	5.53
621.043	5.66
621.377	5.5
621.71	5.65
622.043	5.72
622.376	5.58
622.709	5.76
623.043	5.83
623.376	6.12
623.709	5.62
624.041	5.79
624.374	5.53
624.707	5.76
625.04	5.64
625.373	5.72
625.705	5.53
626.038	5.88
626.37	5.69
626.703	5.91
627.035	5.48
627.368	5.66
627.7	5.29
628.032	5.41
628.365	5.44
628.697	5.62
629.029	5.54
629.361	5.65
629.693	5.55
630.025	5.48
630.357	5.51
630.689	5.16
631.021	5.49
631.353	5.89
631.684	5.61
632.016	5.6
632.348	5.42
632.679	5.33
633.011	5.85
633.342	5.62
633.674	5.85
634.005	5.72
634.336	5.44
634.668	5.58
634.999	5.9
635.33	5.95
635.661	5.79
635.992	5.37
636.323	5.19
636.654	5.82
636.985	5.41
637.316	5.33
637.647	5.27
637.977	5.83
638.308	5.34
638.639	5.46
638.969	5.48
639.3	5.72
639.63	6.04
639.961	5.64
640.291	5.16
640.622	5.83
640.952	5.95
641.282	5.01
641.612	5.6
641.943	5.43
642.273	5.86
642.603	5.82
642.933	5.25
643.263	5.35
643.592	5.6
643.922	5.58
644.252	6.02
644.582	4.89
644.911	5.2
645.241	5.21
645.571	5.34
645.9	5.24
646.23	5.3
646.559	5.59
646.888	5.4
647.218	5.49
647.547	5.48
647.876	5.19
648.205	5.16
648.534	5.77
648.863	5.39
649.192	5.84
649.521	5.55
649.85	4.75
650.179	5.21
650.508	5.63
650.837	5.5
651.165	5.29
651.494	5.16
651.822	5.43
652.151	5.9
652.479	5.54
652.808	5.7
653.136	5.62
653.465	5.74
653.793	5.3
654.121	5.83
654.449	5.54
654.777	5.79
655.105	5.56
655.433	5.61
655.761	5.56
656.089	5.33
656.417	5.49
656.745	5.2
657.073	4.62
657.4	5.67
657.728	5.29
658.056	5.59
658.383	5.27
658.711	5.06
659.038	5.43
659.365	5.7
659.693	5.28
660.02	5.25
660.347	5.72
660.674	5.79
661.001	5.22
661.329	5.58
661.656	5.25
661.982	5.33
662.309	5.65
662.636	5.53
662.963	5.66
663.29	6.01
663.616	5.47
663.943	5.75
664.27	5.59
664.596	5.24
664.923	6.38
665.249	5.18
665.576	5
665.902	5.52
666.228	5.3
666.554	5.12
666.881	4.57
667.207	5.73
667.533	5.24
667.859	4.82
668.185	5.62
668.511	5.47
668.837	4.95
669.162	6.33
669.488	5.24
669.814	5.31
670.139	5.04
670.465	4.71
670.791	5.79
671.116	5.05
671.442	5.43
671.767	5.27
672.092	5.49
672.418	5.23
672.743	5.39
673.068	5.23
673.393	5.28
673.718	5.54
674.043	5.48
674.368	4.6
674.693	5.27
675.018	4.88
675.343	4.87
675.667	5.35
675.992	4.65
676.317	4.8
676.641	5.02
676.966	5.33
677.29	5.1
677.615	5.36
677.939	4.8
678.264	5.82
678.588	5.5
678.912	5.68
679.236	4.71
679.56	5.35
679.885	5.29
680.209	5.61
680.532	5.03
680.856	5.13
681.18	5.45
681.504	5.23
681.828	5.1
682.152	5.42
682.475	5.44
682.799	5.21
683.122	5.48
683.446	5.34
683.769	6.19
684.093	4.56
684.416	4.95
684.739	5.52
685.062	5.52
685.386	6.13
685.709	5.5
686.032	5.1
686.355	4.92
686.678	5.93
687.001	5.13
687.324	5.51
687.646	5.39
687.969	5.09
688.292	5.46
688.614	5.79
688.937	5.39
689.26	4.96
689.582	5.65
689.904	4.8
690.227	4.96
690.549	5.53
690.871	5.14
691.194	5.8
691.516	5.11
