Data from 0385_crown_Reflection__4__240.txt Node

Date: Tue Dec 12 20:24:22 CST 2023
User: ToomeyLab
Spectrometer: FLMS14357
Trigger mode: 0
Integration Time (sec): 1.000000E-2
Scans to average: 100
Electric dark correction enabled: true
Nonlinearity correction enabled: false
Boxcar width: 0
XAxis mode: Wavelengths
Number of Pixels in Spectrum: 2048
>>>>>Begin Spectral Data<<<<<
189.047	-55.23
189.435	-55.23
189.823	-55.23
190.211	-27.52
190.599	-145.5
190.987	199.62
191.375	1776.47
191.763	89.31
192.151	78.63
192.538	367.55
192.926	817.61
193.314	444.09
193.702	27.37
194.089	-381.38
194.477	63.74
194.864	86.14
195.252	380.26
195.639	-76.39
196.027	105.6
196.414	-168.54
196.801	1275.45
197.189	52.19
197.576	204.5
197.963	145.79
198.351	-16.25
198.738	20.2
199.125	-15.41
199.512	-0.33
199.899	34.32
200.286	1.77
200.673	-99.88
201.06	2.09
201.447	-117.53
201.833	4.22
202.22	-23.76
202.607	-7377.14
202.994	-4.26
203.38	-27.45
203.767	-15.55
204.154	31.81
204.54	8.63
204.927	-25.85
205.313	15.6
205.699	39.07
206.086	8.48
206.472	18.94
206.858	22.38
207.245	-27.82
207.631	29.68
208.017	32.13
208.403	-27.18
208.789	38.15
209.175	-21.41
209.561	-0.53
209.947	-42.74
210.333	24.79
210.719	-58.79
211.105	-58.11
211.491	32.75
211.876	-15.06
212.262	8.45
212.648	-15.77
213.034	-13.08
213.419	22.98
213.805	0.55
214.19	33.01
214.576	12.07
214.961	16.9
215.346	-3.72
215.732	46.33
216.117	19.32
216.502	-61.42
216.888	-31.75
217.273	25.04
217.658	-19.15
218.043	-40.45
218.428	-26.11
218.813	-7.37
219.198	-68.5
219.583	30.97
219.968	27.59
220.353	18.99
220.738	8.39
221.122	-11.06
221.507	-4.77
221.892	-8.57
222.276	7.11
222.661	0.41
223.046	-5.99
223.43	3.37
223.815	5.29
224.199	8.72
224.583	12.21
224.968	3.07
225.352	-10.79
225.736	17.42
226.121	0.03
226.505	-0.95
226.889	-4.68
227.273	-1.86
227.657	6.35
228.041	10.08
228.425	6.7
228.809	3.13
229.193	2.8
229.577	7.17
229.961	5.76
230.344	6.73
230.728	7.71
231.112	6.46
231.495	7.48
231.879	7.13
232.263	3.41
232.646	5.3
233.03	7.59
233.413	5.48
233.797	6.31
234.18	3.36
234.563	4.2
234.946	7.46
235.33	7.18
235.713	7.56
236.096	6.31
236.479	6.68
236.862	6.31
237.245	6.11
237.628	4.82
238.011	5.22
238.394	5.64
238.777	5.79
239.16	7.08
239.543	7.45
239.925	6.79
240.308	4.45
240.691	7.26
241.073	6.67
241.456	7.38
241.838	5.7
242.221	7.82
242.603	6.41
242.986	6.23
243.368	7.2
243.75	6.16
244.133	6.55
244.515	6.97
244.897	6.34
245.279	7.35
245.661	5.51
246.043	6.31
246.425	8.01
246.807	4.77
247.189	5.64
247.571	5.92
247.953	6.54
248.335	6.02
248.717	6.35
249.098	6.26
249.48	5.94
249.862	6.03
250.243	6.03
250.625	6.91
251.006	6.09
251.388	6.46
251.769	6.38
252.151	6.1
252.532	6.11
252.913	6.79
253.295	6.84
253.676	5.24
254.057	5.56
254.438	6
254.819	5.61
255.2	5.74
255.581	6.13
255.962	3.69
256.343	5.64
256.724	6.36
257.105	6.03
257.486	5.56
257.867	4.2
258.247	4.45
258.628	5.34
259.009	5.59
259.389	5.82
259.77	4.49
260.15	5.28
260.531	6.58
260.911	6.15
261.292	5.44
261.672	5.48
262.052	5.64
262.432	5.61
262.813	5.81
263.193	5.16
263.573	5.65
263.953	6.24
264.333	6.89
264.713	6.14
265.093	5.05
265.473	5.59
265.853	4.82
266.233	4.26
266.612	4.59
266.992	4.87
267.372	5.41
267.752	5.78
268.131	4.76
268.511	4.67
268.89	4.14
269.27	4.33
269.649	5.49
270.029	4.87
270.408	5.76
270.787	4.72
271.167	5.24
271.546	5.58
271.925	5.92
272.304	6.04
272.683	5.12
273.062	5.35
273.441	5.5
273.82	4.74
274.199	4.98
274.578	4.88
274.957	4.94
275.336	4.94
275.715	6.01
276.093	4.48
276.472	5.27
276.851	5.4
277.229	4.96
277.608	4.27
277.986	4.15
278.365	5.19
278.743	4.76
279.122	5.61
279.5	4.07
279.878	4.06
280.257	4.79
280.635	4.78
281.013	3.93
281.391	4.86
281.769	5.09
282.147	4.23
282.525	4.47
282.903	4.54
283.281	4.79
283.659	4.58
284.037	4.91
284.415	4.31
284.792	4.79
285.17	4.4
285.548	4.25
285.925	4.78
286.303	4.43
286.68	4.67
287.058	4.41
287.435	4.66
287.813	4.37
288.19	4.97
288.567	4.7
288.945	4.62
289.322	3.86
289.699	4.57
290.076	4.71
290.453	4.99
290.83	4.44
291.207	4.7
291.584	4.6
291.961	4.68
292.338	4.5
292.715	4.39
293.092	4.39
293.469	4.12
293.845	4.59
294.222	3.99
294.599	4.71
294.975	4.15
295.352	4.42
295.728	4.5
296.105	4.06
296.481	4.49
296.858	4.04
297.234	4.6
297.61	4.11
297.986	4.38
298.363	4.75
298.739	4.1
299.115	3.98
299.491	4.26
299.867	4.03
300.243	3.83
300.619	4.24
300.995	3.83
301.371	4.52
301.746	4.35
302.122	4.16
302.498	4.1
302.874	4.26
303.249	4.77
303.625	3.9
304	4.21
304.376	4.15
304.751	4.1
305.127	3.58
305.502	4.21
305.878	3.93
306.253	3.76
306.628	4.36
307.003	3.68
307.378	3.62
307.754	3.56
308.129	4.07
308.504	4.78
308.879	3.44
309.254	4.12
309.629	3.9
310.003	4.04
310.378	4.55
310.753	4.43
311.128	4.24
311.502	3.55
311.877	3.33
312.252	2.9
312.626	3.81
313.001	3.68
313.375	3.43
313.75	4.06
314.124	4.02
314.498	4.04
314.873	3.91
315.247	4.11
315.621	3.4
315.995	4.56
316.369	3.55
316.743	3.92
317.117	3.34
317.491	3.48
317.865	3.49
318.239	3.59
318.613	3.68
318.987	4.14
319.361	3.64
319.734	3.69
320.108	3.5
320.482	3.69
320.855	3.15
321.229	3.35
321.602	4.15
321.976	3.8
322.349	3.66
322.723	3.31
323.096	3.56
323.469	3.75
323.843	4.01
324.216	3.64
324.589	3.54
324.962	4.18
325.335	4.04
325.708	4.09
326.081	3.84
326.454	3.42
326.827	4.21
327.2	3.89
327.573	2.95
327.945	3.79
328.318	4.15
328.691	3.28
329.063	3.69
329.436	3.96
329.809	4.01
330.181	3.34
330.553	3.89
330.926	3.91
331.298	3.71
331.671	4.21
332.043	3.59
332.415	3.9
332.787	3.28
333.159	3.95
333.532	3.52
333.904	3.77
334.276	4.16
334.648	4.15
335.02	3.25
335.391	4.07
335.763	3.79
336.135	3.94
336.507	4.14
336.879	3.83
337.25	3.67
337.622	3.8
337.993	3.94
338.365	3.86
338.736	3.4
339.108	3.44
339.479	3.74
339.851	3.18
340.222	3.49
340.593	3.84
340.964	3.87
341.336	4.03
341.707	3.41
342.078	3.54
342.449	3.63
342.82	4.32
343.191	3.73
343.562	3.91
343.933	4.15
344.303	3.95
344.674	3.42
345.045	3.9
345.416	4.11
345.786	3.77
346.157	4.37
346.527	4.04
346.898	3.57
347.268	3.73
347.639	3.89
348.009	3.85
348.38	3.72
348.75	4.45
349.12	4.19
349.49	3.62
349.861	4.09
350.231	3.77
350.601	4.35
350.971	4.24
351.341	3.76
351.711	4.17
352.081	3.9
352.45	3.81
352.82	3.97
353.19	4.15
353.56	3.48
353.929	3.52
354.299	3.71
354.669	3.49
355.038	3.64
355.408	3.95
355.777	4.41
356.147	3.9
356.516	4.04
356.885	4.13
357.254	3.86
357.624	3.75
357.993	4.24
358.362	4.39
358.731	4.44
359.1	3.65
359.469	3.84
359.838	4.03
360.207	4.04
360.576	4.3
360.945	4.11
361.314	4.22
361.682	4.06
362.051	4.44
362.42	4.07
362.788	4.04
363.157	4.21
363.525	4.25
363.894	3.94
364.262	4.04
364.631	3.97
364.999	4.4
365.367	4.17
365.735	3.91
366.104	4.11
366.472	3.85
366.84	3.97
367.208	3.94
367.576	3.76
367.944	4.45
368.312	4.07
368.68	3.91
369.048	4.38
369.416	4.16
369.783	4.38
370.151	4.13
370.519	3.63
370.886	4.11
371.254	4.31
371.621	4.64
371.989	3.98
372.356	4.09
372.724	4.3
373.091	4.13
373.458	4.28
373.826	4.37
374.193	3.97
374.56	4.16
374.927	4.4
375.294	4.37
375.661	4.42
376.028	4.54
376.395	4.53
376.762	4.77
377.129	4.14
377.496	4.17
377.863	4.4
378.229	4.44
378.596	4.03
378.963	4.43
379.329	4.05
379.696	4.2
380.062	4.59
380.429	4.34
380.795	4.41
381.161	4.37
381.528	4.64
381.894	4.6
382.26	3.93
382.626	4.5
382.993	4.78
383.359	4.34
383.725	4.28
384.091	4.35
384.457	4.37
384.823	4.5
385.188	4.41
385.554	4.4
385.92	4.55
386.286	4.58
386.651	4.73
387.017	4.72
387.383	4.23
387.748	4.55
388.114	4.6
388.479	4.58
388.845	4.41
389.21	4.56
389.575	4.16
389.94	4.37
390.306	4.61
390.671	4.64
391.036	4.65
391.401	4.63
391.766	4.45
392.131	4.6
392.496	4.38
392.861	4.35
393.226	4.62
393.591	4.53
393.956	4.24
394.32	4.73
394.685	4.48
395.05	4.37
395.414	4.54
395.779	4.5
396.143	4.67
396.508	4.57
396.872	4.61
397.236	4.59
397.601	4.59
397.965	4.69
398.329	4.63
398.694	4.61
399.058	4.72
399.422	4.52
399.786	4.73
400.15	4.45
400.514	4.73
400.878	4.69
401.242	4.63
401.605	4.71
401.969	4.78
402.333	4.51
402.697	4.65
403.06	4.41
403.424	4.75
403.787	4.41
404.151	4.72
404.514	4.41
404.878	4.47
405.241	4.67
405.604	4.26
405.968	4.68
406.331	4.67
406.694	5.04
407.057	4.49
407.42	4.63
407.783	4.67
408.146	4.69
408.509	4.43
408.872	4.73
409.235	4.6
409.598	4.5
409.961	4.55
410.323	4.7
410.686	4.78
411.049	4.75
411.411	4.86
411.774	4.79
412.136	4.88
412.499	4.61
412.861	4.76
413.223	5.02
413.586	4.61
413.948	4.86
414.31	5.07
414.672	4.97
415.035	4.78
415.397	4.77
415.759	4.77
416.121	4.81
416.483	4.72
416.845	4.65
417.206	4.96
417.568	4.61
417.93	4.69
418.292	4.74
418.653	5.02
419.015	4.86
419.377	4.72
419.738	4.72
420.1	4.66
420.461	4.82
420.822	4.83
421.184	4.69
421.545	4.89
421.906	4.73
422.267	4.8
422.629	4.73
422.99	4.78
423.351	4.65
423.712	4.7
424.073	4.77
424.434	4.77
424.795	4.74
425.155	4.75
425.516	4.62
425.877	4.68
426.238	4.72
426.598	4.72
426.959	4.72
427.32	4.85
427.68	4.81
428.041	4.8
428.401	4.82
428.761	4.96
429.122	4.89
429.482	5.05
429.842	4.98
430.202	4.63
430.563	4.91
430.923	4.9
431.283	4.82
431.643	4.92
432.003	4.73
432.363	4.99
432.722	4.77
433.082	4.78
433.442	4.92
433.802	4.93
434.161	4.88
434.521	5.03
434.881	4.77
435.24	4.85
435.6	4.85
435.959	4.91
436.319	4.8
436.678	5.02
437.037	4.81
437.396	4.8
437.756	4.83
438.115	4.94
438.474	4.91
438.833	5.08
439.192	5.08
439.551	4.97
439.91	4.69
440.269	5.01
440.628	4.75
440.987	4.66
441.345	4.93
441.704	4.83
442.063	4.86
442.421	4.83
442.78	4.9
443.138	4.8
443.497	4.93
443.855	4.86
444.214	4.83
444.572	4.98
444.93	4.93
445.288	4.77
445.647	4.91
446.005	4.89
446.363	4.58
446.721	4.77
447.079	4.93
447.437	4.67
447.795	4.85
448.153	4.85
448.51	4.84
448.868	4.86
449.226	4.99
449.584	4.82
449.941	4.87
450.299	4.99
450.656	4.89
451.014	4.81
451.371	4.94
451.729	5.05
452.086	4.96
452.443	5.04
452.801	4.78
453.158	4.98
453.515	4.94
453.872	4.88
454.229	5
454.586	4.88
454.943	4.8
455.3	4.93
455.657	4.96
456.014	5.01
456.371	5.22
456.727	4.87
457.084	4.91
457.441	4.88
457.797	5.06
458.154	5.11
458.51	4.91
458.867	5.01
459.223	5.15
459.58	5
459.936	4.84
460.292	5.08
460.648	5.01
461.005	4.88
461.361	4.87
461.717	4.83
462.073	4.94
462.429	4.93
462.785	4.82
463.141	4.82
463.496	4.94
463.852	4.98
464.208	5.14
464.564	4.92
464.919	4.88
465.275	4.92
465.631	5.1
465.986	4.92
466.342	4.79
466.697	4.94
467.052	5.05
467.408	5.01
467.763	5.04
468.118	5.1
468.473	4.9
468.829	5.02
469.184	4.96
469.539	5
469.894	5.14
470.249	4.94
470.603	4.97
470.958	4.95
471.313	5.17
471.668	5.18
472.023	5.05
472.377	5
472.732	5
473.086	4.88
473.441	5.03
473.795	4.95
474.15	5.05
474.504	4.89
474.859	5.07
475.213	4.94
475.567	4.98
475.921	5.07
476.275	4.91
476.63	5.16
476.984	5
477.338	5
477.692	5.05
478.045	5.01
478.399	4.94
478.753	4.8
479.107	5
479.461	5.03
479.814	4.95
480.168	4.84
480.521	4.98
480.875	5.01
481.228	4.95
481.582	4.94
481.935	5.01
482.289	4.97
482.642	5.01
482.995	5
483.348	4.81
483.701	5.01
484.055	4.91
484.408	4.77
484.761	4.84
485.114	4.71
485.466	4.68
485.819	4.62
486.172	4.6
486.525	4.64
486.878	4.67
487.23	4.71
487.583	4.71
487.936	4.76
488.288	4.73
488.641	4.76
488.993	4.72
489.345	4.65
489.698	4.68
490.05	4.7
490.402	4.7
490.754	4.74
491.107	4.76
491.459	4.79
491.811	4.83
492.163	4.81
492.515	4.82
492.866	4.73
493.218	4.66
493.57	4.67
493.922	4.63
494.274	4.78
494.625	4.8
494.977	4.89
495.328	4.99
495.68	4.94
496.031	4.91
496.383	4.91
496.734	4.9
497.086	4.75
497.437	4.87
497.788	4.91
498.139	4.87
498.49	4.91
498.842	4.76
499.193	4.84
499.544	4.87
499.894	4.81
500.245	4.99
500.596	4.85
500.947	4.85
501.298	4.89
501.648	4.98
501.999	4.87
502.35	4.71
502.7	4.83
503.051	4.79
503.401	4.9
503.752	5
504.102	4.96
504.452	4.85
504.803	4.82
505.153	4.91
505.503	4.91
505.853	4.91
506.203	4.91
506.553	4.84
506.903	4.91
507.253	4.87
507.603	5.01
507.953	4.89
508.303	4.82
508.652	4.87
509.002	4.98
509.352	4.77
509.701	4.86
510.051	4.84
510.4	4.83
510.75	4.79
511.099	4.84
511.449	4.91
511.798	4.75
512.147	4.8
512.496	4.99
512.846	4.83
513.195	4.71
513.544	4.86
513.893	4.8
514.242	4.76
514.591	4.78
514.939	4.87
515.288	4.67
515.637	4.71
515.986	4.84
516.334	4.84
516.683	4.88
517.032	4.86
517.38	4.75
517.729	4.77
518.077	4.86
518.426	4.8
518.774	4.63
519.122	4.85
519.47	4.68
519.819	4.71
520.167	4.68
520.515	4.69
520.863	4.7
521.211	4.74
521.559	4.75
521.907	4.73
522.255	4.81
522.602	4.91
522.95	4.68
523.298	4.71
523.645	5
523.993	4.84
524.341	4.85
524.688	4.72
525.036	4.86
525.383	4.7
525.73	4.67
526.078	4.7
526.425	4.66
526.772	4.64
527.119	4.71
527.466	4.65
527.814	4.66
528.161	4.74
528.508	4.71
528.854	4.61
529.201	4.74
529.548	4.6
529.895	4.59
530.242	4.47
530.588	4.45
530.935	4.54
531.282	4.53
531.628	4.59
531.975	4.57
532.321	4.64
532.667	4.53
533.014	4.62
533.36	4.58
533.706	4.65
534.052	4.69
534.399	4.62
534.745	4.58
535.091	4.46
535.437	4.57
535.783	4.52
536.129	4.59
536.474	4.6
536.82	4.57
537.166	4.68
537.512	4.67
537.857	4.69
538.203	4.66
538.549	4.68
538.894	4.6
539.239	4.56
539.585	4.63
539.93	4.77
540.276	4.6
540.621	4.73
540.966	4.61
541.311	4.61
541.656	4.77
542.001	4.64
542.346	4.61
542.691	4.54
543.036	4.43
543.381	4.38
543.726	4.52
544.071	4.51
544.415	4.54
544.76	4.49
545.105	4.59
545.449	4.6
545.794	4.52
546.138	4.52
546.483	4.6
546.827	4.68
547.171	4.55
547.516	4.68
547.86	4.71
548.204	4.63
548.548	4.53
548.892	4.64
549.236	4.6
549.58	4.64
549.924	4.67
550.268	4.6
550.612	4.62
550.956	4.82
551.3	4.7
551.643	4.69
551.987	4.68
552.33	4.64
552.674	4.72
553.017	4.69
553.361	4.83
553.704	4.43
554.048	4.65
554.391	4.49
554.734	4.7
555.077	4.8
555.42	4.63
555.764	4.74
556.107	4.83
556.45	4.59
556.793	4.6
557.135	4.62
557.478	4.68
557.821	4.51
558.164	4.64
558.507	4.67
558.849	4.58
559.192	4.71
559.534	4.66
559.877	4.49
560.219	4.6
560.562	4.72
560.904	4.62
561.246	4.75
561.589	4.64
561.931	4.54
562.273	4.52
562.615	4.45
562.957	4.47
563.299	4.6
563.641	4.65
563.983	4.67
564.325	4.58
564.667	4.55
565.008	4.41
565.35	4.54
565.692	4.74
566.033	4.58
566.375	4.52
566.716	4.54
567.058	4.7
567.399	4.65
567.741	4.53
568.082	4.46
568.423	4.49
568.764	4.41
569.105	4.49
569.447	4.63
569.788	4.54
570.129	4.54
570.47	4.56
570.811	4.48
571.151	4.51
571.492	4.59
571.833	4.47
572.174	4.52
572.514	4.48
572.855	4.53
573.195	4.42
573.536	4.32
573.876	4.32
574.217	4.48
574.557	4.4
574.898	4.37
575.238	4.54
575.578	4.38
575.918	4.52
576.258	4.46
576.598	4.59
576.938	4.41
577.278	4.41
577.618	4.54
577.958	4.49
578.298	4.48
578.638	4.39
578.977	4.53
579.317	4.39
579.657	4.4
579.996	4.5
580.336	4.41
580.675	4.32
581.014	4.46
581.354	4.38
581.693	4.52
582.032	4.11
582.372	4.63
582.711	4.41
583.05	4.38
583.389	4.4
583.728	4.4
584.067	4.15
584.406	4.78
584.745	4.53
585.083	4.27
585.422	4.48
585.761	4.7
586.1	4.33
586.438	4.4
586.777	4.61
587.115	4.34
587.454	4.4
587.792	4.14
588.13	4.82
588.469	4.36
588.807	4.33
589.145	4.36
589.483	4.44
589.821	4.49
590.159	4.37
590.497	4.33
590.835	4.3
591.173	4.3
591.511	4.65
591.849	4.33
592.187	4.33
592.524	4.34
592.862	4.4
593.2	4.22
593.537	4.14
593.875	4.41
594.212	4.36
594.55	4.53
594.887	4.75
595.224	4.29
595.561	4.26
595.899	4.08
596.236	4.36
596.573	4.2
596.91	4.45
597.247	4.23
597.584	4.24
597.921	4.32
598.258	4.24
598.594	4.32
598.931	4.19
599.268	4.09
599.604	4.21
599.941	4.27
600.277	4.32
600.614	4.29
600.95	4.41
601.287	4.13
601.623	4.63
601.959	4.22
602.296	4.47
602.632	4.04
602.968	4.42
603.304	4.16
603.64	4.5
603.976	4.09
604.312	4.22
604.648	4.22
604.984	4.36
605.319	4.36
605.655	4.4
605.991	4.3
606.326	3.91
606.662	4.17
606.998	4.1
607.333	4.19
607.668	4.26
608.004	4.25
608.339	4.29
608.674	4.36
609.01	4.07
609.345	4.26
609.68	4.2
610.015	3.83
610.35	4.16
610.685	4.39
611.02	4.38
611.355	4.24
611.689	4.21
612.024	4.14
612.359	4.27
612.694	4.36
613.028	4.24
613.363	4.11
613.697	4.28
614.032	4.51
614.366	4.55
614.7	4.06
615.035	4.27
615.369	3.81
615.703	3.68
616.037	4.05
616.371	4.16
616.705	4.14
617.039	4.13
617.373	4.3
617.707	3.94
618.041	4.09
618.375	4.09
618.709	3.94
619.042	4.27
619.376	3.91
619.71	3.95
620.043	4.38
620.377	4.12
620.71	3.88
621.043	4.05
621.377	3.51
621.71	4.04
622.043	3.96
622.376	4.4
622.709	4.07
623.043	4.17
623.376	4.29
623.709	4.07
624.041	4.2
624.374	4.07
624.707	4.19
625.04	3.8
625.373	4.51
625.705	4.35
626.038	4.19
626.37	4.29
626.703	4.37
627.035	3.68
627.368	4.36
627.7	4.2
628.032	4.05
628.365	4
628.697	3.97
629.029	4.22
629.361	3.92
629.693	4.06
630.025	3.97
630.357	4.16
630.689	4.19
631.021	4.28
631.353	4.56
631.684	4.22
632.016	4.13
632.348	4.46
632.679	4.03
633.011	4.37
633.342	3.85
633.674	3.95
634.005	4.23
634.336	4.12
634.668	4.01
634.999	4.02
635.33	3.99
635.661	4.43
635.992	4.04
636.323	3.67
636.654	4.33
636.985	4.21
637.316	3.97
637.647	3.78
637.977	4.3
638.308	4.38
638.639	3.93
638.969	4.04
639.3	4.28
639.63	4.36
639.961	3.99
640.291	3.96
640.622	3.83
640.952	4.44
641.282	4.07
641.612	4.04
641.943	4
642.273	3.97
642.603	4.26
642.933	3.81
643.263	3.9
643.592	4.39
643.922	3.93
644.252	3.92
644.582	3.62
644.911	4.24
645.241	3.82
645.571	4.27
645.9	3.79
646.23	4.19
646.559	4.32
646.888	4.5
647.218	4.09
647.547	3.91
647.876	3.9
648.205	3.93
648.534	3.85
648.863	4.14
649.192	4.3
649.521	4.6
649.85	3.73
650.179	4.07
650.508	4.13
650.837	4.12
651.165	3.89
651.494	4
651.822	4.35
652.151	4.36
652.479	4.29
652.808	4.23
653.136	4.37
653.465	4.61
653.793	4.25
654.121	4.56
654.449	4.01
654.777	3.93
655.105	4.5
655.433	4.66
655.761	4.34
656.089	3.79
656.417	4.12
656.745	4.1
657.073	3.69
657.4	4.62
657.728	3.74
658.056	4.4
658.383	3.54
658.711	3.49
659.038	3.78
659.365	4.05
659.693	4.02
660.02	4.03
660.347	4.41
660.674	4.11
661.001	4.19
661.329	3.99
661.656	3.95
661.982	3.67
662.309	4.47
662.636	3.75
662.963	4.24
663.29	4.18
663.616	3.88
663.943	4.33
664.27	4.52
664.596	4.53
664.923	4.73
665.249	3.29
665.576	3.71
665.902	3.65
666.228	4.12
666.554	3.41
666.881	3.64
667.207	4.11
667.533	3.76
667.859	4.07
668.185	3.89
668.511	4.53
668.837	3.46
669.162	4.7
669.488	4.53
669.814	4.02
670.139	4.28
670.465	3.26
670.791	3.46
671.116	3.68
671.442	3.55
671.767	3.99
672.092	4.45
672.418	4
672.743	4.28
673.068	2.95
673.393	3.78
673.718	4.19
674.043	4.4
674.368	2.64
674.693	3.28
675.018	4.02
675.343	3.59
675.667	4.05
675.992	4.44
676.317	3.69
676.641	3.48
676.966	3.89
677.29	3.4
677.615	4.07
677.939	4.68
678.264	4.61
678.588	4.08
678.912	4.33
679.236	3.61
679.56	3.69
679.885	4.37
680.209	4.52
680.532	4.03
680.856	3.74
681.18	4.43
681.504	3.97
681.828	3.7
682.152	3.89
682.475	3.78
682.799	3.77
683.122	3.71
683.446	4.49
683.769	4.94
684.093	3.35
684.416	3.94
684.739	4.08
685.062	4.24
685.386	4.08
685.709	4.05
686.032	3.93
686.355	3.49
686.678	3.86
687.001	4.25
687.324	3.77
687.646	4.46
687.969	3.89
688.292	4.12
688.614	3.55
688.937	4.42
689.26	4.18
689.582	3.99
689.904	3.14
690.227	4.12
690.549	4.25
690.871	4.02
691.194	3.59
691.516	4.6
691.838	3.43
692.16	4.49
692.482	3.74
