Data from 0385_forehead_Reflection__0__241.txt Node

Date: Tue Dec 12 20:24:53 CST 2023
User: ToomeyLab
Spectrometer: FLMS14357
Trigger mode: 0
Integration Time (sec): 1.000000E-2
Scans to average: 100
Electric dark correction enabled: true
Nonlinearity correction enabled: false
Boxcar width: 0
XAxis mode: Wavelengths
Number of Pixels in Spectrum: 2048
>>>>>Begin Spectral Data<<<<<
189.047	53.48
189.435	53.48
189.823	53.48
190.211	-12.3
190.599	-181.11
190.987	-22.75
191.375	-808.5
191.763	28.25
192.151	76.31
192.538	-1855.47
192.926	554.4
193.314	-164.34
193.702	10.68
194.089	403.64
194.477	83.15
194.864	143.82
195.252	65.99
195.639	84.11
196.027	63.66
196.414	40.35
196.801	1928.74
197.189	60.57
197.576	133.75
197.963	93.57
198.351	-2.57
198.738	38.19
199.125	23.81
199.512	19.9
199.899	-12.42
200.286	66.27
200.673	-6.45
201.06	-5.89
201.447	-169.19
201.833	-14.42
202.22	12.7
202.607	-1680.95
202.994	-116.58
203.38	36.89
203.767	12.91
204.154	23.59
204.54	27.65
204.927	16.73
205.313	31.9
205.699	-22.93
206.086	15.67
206.472	20.72
206.858	-16.13
207.245	-17.34
207.631	36.52
208.017	1.06
208.403	-68.06
208.789	59.76
209.175	-65.48
209.561	34.09
209.947	-4.42
210.333	15.77
210.719	59.89
211.105	-40.77
211.491	56.86
211.876	-18.6
212.262	13.61
212.648	-16.74
213.034	-67.18
213.419	15.86
213.805	-4.19
214.19	75.42
214.576	5.52
214.961	6.87
215.346	2.34
215.732	30.67
216.117	7.21
216.502	-26.95
216.888	-8.21
217.273	-38.43
217.658	-7.79
218.043	-21.56
218.428	24.98
218.813	25.26
219.198	-50.2
219.583	-0.7
219.968	-2.6
220.353	59.49
220.738	14.7
221.122	3.19
221.507	-10.32
221.892	-16.5
222.276	14.82
222.661	-6.3
223.046	-31.48
223.43	24.71
223.815	-9.36
224.199	-0.36
224.583	-3.77
224.968	6.22
225.352	6.68
225.736	6.52
226.121	10.5
226.505	-5.66
226.889	-2.27
227.273	0.62
227.657	8.16
228.041	4.46
228.425	1.02
228.809	2.28
229.193	2.68
229.577	6.08
229.961	1.79
230.344	4.34
230.728	4.57
231.112	4.28
231.495	3.97
231.879	5.89
232.263	3.84
232.646	4.17
233.03	3.83
233.413	2.22
233.797	4.69
234.18	0.81
234.563	-1.12
234.946	6.76
235.33	5.49
235.713	5.76
236.096	4.31
236.479	5.37
236.862	4.49
237.245	3.08
237.628	4.49
238.011	4.57
238.394	3.83
238.777	6.19
239.16	4.55
239.543	3.59
239.925	4.77
240.308	2.83
240.691	2.81
241.073	6.55
241.456	3.9
241.838	4.36
242.221	5.25
242.603	5.47
242.986	3.44
243.368	4.52
243.75	4.24
244.133	4.16
244.515	4.61
244.897	5.14
245.279	4.69
245.661	3.93
246.043	4.03
246.425	4.79
246.807	3.73
247.189	5.22
247.571	5.57
247.953	4.57
248.335	4.68
248.717	4.57
249.098	4.6
249.48	4.15
249.862	4.75
250.243	4.51
250.625	4.98
251.006	4.52
251.388	4.93
251.769	3.81
252.151	4.07
252.532	5.38
252.913	4.04
253.295	5.19
253.676	3.94
254.057	4.53
254.438	4.73
254.819	5.64
255.2	4.05
255.581	5.54
255.962	4.42
256.343	5.11
256.724	6.05
257.105	5.35
257.486	4.66
257.867	4.7
258.247	3.54
258.628	4.78
259.009	4.43
259.389	4.67
259.77	4.55
260.15	4.38
260.531	5.33
260.911	4.72
261.292	4.1
261.672	4.31
262.052	4.44
262.432	4.58
262.813	4.92
263.193	5.17
263.573	4.65
263.953	5.63
264.333	5.86
264.713	4.05
265.093	4.5
265.473	4.72
265.853	4.65
266.233	3.65
266.612	5.5
266.992	4.86
267.372	5.11
267.752	5.43
268.131	4.09
268.511	4.66
268.89	4.06
269.27	4.15
269.649	4.69
270.029	3.95
270.408	5.34
270.787	4.25
271.167	4.77
271.546	4.36
271.925	5.87
272.304	5.52
272.683	3.95
273.062	4.22
273.441	4.66
273.82	4.33
274.199	4.28
274.578	4.39
274.957	4.48
275.336	4.3
275.715	4.86
276.093	3.74
276.472	4.81
276.851	4.65
277.229	4.18
277.608	4.32
277.986	3.76
278.365	4.71
278.743	4.38
279.122	4.87
279.5	3.71
279.878	3.97
280.257	3.86
280.635	4.87
281.013	4.32
281.391	4.47
281.769	4.3
282.147	4.67
282.525	3.9
282.903	3.92
283.281	4.22
283.659	4.55
284.037	4.77
284.415	4.41
284.792	4.43
285.17	4.38
285.548	5.02
285.925	4.11
286.303	4.18
286.68	4.69
287.058	4.78
287.435	4.63
287.813	4.13
288.19	4.3
288.567	4.55
288.945	4.59
289.322	4.31
289.699	5.12
290.076	4.97
290.453	4.88
290.83	4.52
291.207	4.75
291.584	4.57
291.961	4.74
292.338	5.38
292.715	4.67
293.092	4.52
293.469	4.19
293.845	4.81
294.222	4.97
294.599	5.39
294.975	5.27
295.352	5.83
295.728	5.02
296.105	5.41
296.481	5.38
296.858	5.48
297.234	5.98
297.61	5.43
297.986	5.64
298.363	5.74
298.739	5.43
299.115	5.15
299.491	5.67
299.867	5.71
300.243	6.03
300.619	5.81
300.995	6.07
301.371	5.86
301.746	5.77
302.122	6.53
302.498	5.95
302.874	6.23
303.249	6.42
303.625	5.9
304	5.76
304.376	6.65
304.751	7.06
305.127	5.87
305.502	6.63
305.878	6.39
306.253	6.17
306.628	6.5
307.003	6.35
307.378	7.11
307.754	6.91
308.129	6.92
308.504	7.63
308.879	6.37
309.254	7.24
309.629	6.77
310.003	7.47
310.378	7.58
310.753	7.38
311.128	7.67
311.502	7.06
311.877	7.22
312.252	7.38
312.626	7.39
313.001	7.49
313.375	7.46
313.75	7.87
314.124	8.39
314.498	7.85
314.873	7.86
315.247	8.59
315.621	7.79
315.995	8.4
316.369	8.78
316.743	8.07
317.117	8.22
317.491	8.35
317.865	8.41
318.239	8.87
318.613	8.63
318.987	9.01
319.361	8.62
319.734	8.84
320.108	8.94
320.482	8.9
320.855	8.96
321.229	9
321.602	9.56
321.976	9.22
322.349	9.33
322.723	8.97
323.096	9.7
323.469	9.33
323.843	9.98
324.216	9.6
324.589	9.7
324.962	10.41
325.335	10.21
325.708	9.95
326.081	10.3
326.454	9.92
326.827	10.81
327.2	10.2
327.573	10.19
327.945	10.51
328.318	10.58
328.691	9.87
329.063	10.25
329.436	11.13
329.809	10.53
330.181	10.26
330.553	10.88
330.926	10.31
331.298	10.42
331.671	10.47
332.043	10.99
332.415	11.27
332.787	11.14
333.159	11.2
333.532	10.34
333.904	11.1
334.276	11.47
334.648	10.8
335.02	11.03
335.391	11.13
335.763	11.21
336.135	11.95
336.507	11.81
336.879	11.65
337.25	11.08
337.622	10.98
337.993	11.32
338.365	11.54
338.736	11.46
339.108	11.61
339.479	11.66
339.851	11.3
340.222	11.89
340.593	11.85
340.964	11.74
341.336	12.09
341.707	11.91
342.078	12.3
342.449	11.83
342.82	12.43
343.191	12.54
343.562	12.08
343.933	12.11
344.303	12.52
344.674	12.77
345.045	12.38
345.416	12.66
345.786	12.04
346.157	12.73
346.527	13.19
346.898	12.49
347.268	12.46
347.639	12.69
348.009	12.65
348.38	12.51
348.75	13.16
349.12	13.27
349.49	12.44
349.861	13.24
350.231	12.93
350.601	13.2
350.971	13.03
351.341	13.73
351.711	13.32
352.081	13.5
352.45	13.2
352.82	13.61
353.19	13.39
353.56	13.14
353.929	13.87
354.299	13.48
354.669	13.45
355.038	13.43
355.408	13.3
355.777	13.63
356.147	13.55
356.516	13.68
356.885	13.78
357.254	13.82
357.624	13.67
357.993	13.54
358.362	13.82
358.731	14.04
359.1	13.83
359.469	13.78
359.838	13.99
360.207	14.13
360.576	14.46
360.945	13.89
361.314	14.33
361.682	14.6
362.051	14.94
362.42	14.36
362.788	14.57
363.157	14.96
363.525	14.48
363.894	14.28
364.262	14.53
364.631	14.35
364.999	14.82
365.367	15.07
365.735	14.81
366.104	14.67
366.472	14.95
366.84	14.8
367.208	15.09
367.576	14.86
367.944	15.35
368.312	15.61
368.68	15.31
369.048	15.32
369.416	15.3
369.783	15.35
370.151	15.55
370.519	15.42
370.886	15.85
371.254	15.48
371.621	15.61
371.989	15.47
372.356	15.89
372.724	15.84
373.091	15.34
373.458	15.6
373.826	15.45
374.193	15.92
374.56	15.8
374.927	15.74
375.294	16.26
375.661	16.18
376.028	16.36
376.395	16.62
376.762	16.84
377.129	16.44
377.496	16.24
377.863	16.43
378.229	16.21
378.596	16.31
378.963	16.4
379.329	16.37
379.696	16.47
380.062	16.91
380.429	16.75
380.795	16.91
381.161	16.65
381.528	16.6
381.894	17.14
382.26	17.03
382.626	17.24
382.993	17.15
383.359	16.67
383.725	16.67
384.091	17.25
384.457	16.85
384.823	17.44
385.188	16.77
385.554	17.19
385.92	17.17
386.286	17.45
386.651	17.35
387.017	17.59
387.383	17.44
387.748	17.54
388.114	17.63
388.479	17.78
388.845	17.58
389.21	17.52
389.575	17.38
389.94	18.14
390.306	17.75
390.671	17.99
391.036	17.99
391.401	17.99
391.766	18.08
392.131	18.28
392.496	17.89
392.861	17.9
393.226	18.07
393.591	18.15
393.956	18.22
394.32	18.26
394.685	18.37
395.05	18.26
395.414	18.36
395.779	18.11
396.143	18.56
396.508	18.45
396.872	18.36
397.236	18.56
397.601	18.88
397.965	18.93
398.329	18.84
398.694	18.91
399.058	18.77
399.422	19.04
399.786	18.84
400.15	18.7
400.514	18.92
400.878	19.04
401.242	18.73
401.605	19.2
401.969	19
402.333	19.16
402.697	19.23
403.06	19.05
403.424	19.49
403.787	19.18
404.151	19.34
404.514	19.24
404.878	19.33
405.241	19.78
405.604	19.41
405.968	19.37
406.331	19.41
406.694	19.7
407.057	19.75
407.42	19.51
407.783	19.83
408.146	19.57
408.509	19.66
408.872	19.76
409.235	20.04
409.598	19.91
409.961	20.08
410.323	20.44
410.686	20.22
411.049	20.28
411.411	20.14
411.774	20.16
412.136	20.26
412.499	20.31
412.861	20.29
413.223	20.59
413.586	20.44
413.948	20.55
414.31	20.48
414.672	20.36
415.035	20.75
415.397	20.74
415.759	20.91
416.121	20.86
416.483	20.85
416.845	20.67
417.206	21.04
417.568	20.76
417.93	20.83
418.292	20.83
418.653	21.02
419.015	20.91
419.377	20.91
419.738	20.92
420.1	20.85
420.461	21.07
420.822	21.14
421.184	21
421.545	21.08
421.906	20.96
422.267	21.02
422.629	21.03
422.99	21.02
423.351	21.05
423.712	21.23
424.073	21.29
424.434	21.38
424.795	21.33
425.155	21.24
425.516	21.3
425.877	21.41
426.238	21.51
426.598	21.43
426.959	21.49
427.32	21.65
427.68	21.92
428.041	21.98
428.401	21.99
428.761	22.18
429.122	22.2
429.482	22.35
429.842	22.52
430.202	22.5
430.563	22.31
430.923	22.53
431.283	22.34
431.643	22.76
432.003	22.39
432.363	22.72
432.722	22.53
433.082	22.89
433.442	22.85
433.802	22.86
434.161	22.85
434.521	22.74
434.881	22.8
435.24	22.93
435.6	22.97
435.959	22.86
436.319	23.14
436.678	23.15
437.037	23.16
437.396	23.2
437.756	23.34
438.115	23.36
438.474	23.42
438.833	23.6
439.192	23.66
439.551	23.5
439.91	23.61
440.269	23.39
440.628	23.7
440.987	23.38
441.345	23.74
441.704	23.58
442.063	23.7
442.421	23.67
442.78	23.74
443.138	23.76
443.497	23.8
443.855	23.97
444.214	24.08
444.572	24.4
444.93	24.15
445.288	23.91
445.647	24.51
446.005	24.41
446.363	24.34
446.721	24.15
447.079	24.27
447.437	24.22
447.795	24.29
448.153	24.26
448.51	24.27
448.868	24.23
449.226	24.36
449.584	24.52
449.941	24.55
450.299	24.75
450.656	24.64
451.014	24.95
451.371	25.12
451.729	25.3
452.086	25.11
452.443	25.28
452.801	25.2
453.158	25.44
453.515	25.46
453.872	25.3
454.229	25.51
454.586	25.33
454.943	25.38
455.3	25.32
455.657	25.63
456.014	25.62
456.371	25.49
456.727	25.95
457.084	25.65
457.441	25.95
457.797	25.97
458.154	26
458.51	25.95
458.867	26.25
459.223	26.13
459.58	26.06
459.936	25.87
460.292	26.11
460.648	26
461.005	25.9
461.361	25.91
461.717	26.04
462.073	25.89
462.429	26.1
462.785	26.18
463.141	26.25
463.496	26.27
463.852	26.63
464.208	26.69
464.564	26.96
464.919	26.93
465.275	26.91
465.631	26.83
465.986	27.05
466.342	26.88
466.697	26.92
467.052	27.05
467.408	27.19
467.763	27.02
468.118	27.36
468.473	27.05
468.829	27.29
469.184	27.21
469.539	27.46
469.894	27.39
470.249	27.38
470.603	27.56
470.958	27.44
471.313	27.82
471.668	27.85
472.023	27.58
472.377	27.79
472.732	27.68
473.086	27.85
473.441	27.97
473.795	28.07
474.15	28.13
474.504	27.7
474.859	27.94
475.213	27.94
475.567	28.09
475.921	28.3
476.275	28.22
476.63	28.35
476.984	28.34
477.338	28.48
477.692	28.53
478.045	28.36
478.399	28.29
478.753	28.46
479.107	28.43
479.461	28.4
479.814	28.56
480.168	28.29
480.521	28.44
480.875	28.73
481.228	28.51
481.582	28.76
481.935	28.94
482.289	28.85
482.642	28.83
482.995	28.81
483.348	28.78
483.701	28.8
484.055	28.67
484.408	28.6
484.761	28.28
485.114	28.08
485.466	27.78
485.819	27.78
486.172	27.94
486.525	28.05
486.878	28.23
487.23	28.36
487.583	28.57
487.936	28.69
488.288	28.78
488.641	28.62
488.993	28.46
489.345	28.44
489.698	28.46
490.05	28.59
490.402	28.71
490.754	28.86
491.107	29.11
491.459	29.26
491.811	29.35
492.163	29.5
492.515	29.54
492.866	29.39
493.218	29.1
493.57	28.87
493.922	29.09
494.274	29.41
494.625	29.43
494.977	29.77
495.328	29.97
495.68	30.13
496.031	30.39
496.383	30.42
496.734	30.65
497.086	30.54
497.437	30.51
497.788	30.62
498.139	30.68
498.49	30.58
498.842	30.4
499.193	30.5
499.544	30.58
499.894	30.68
500.245	30.68
500.596	31.06
500.947	30.84
501.298	31.26
501.648	31.13
501.999	31.09
502.35	31.35
502.7	31.32
503.051	31.28
503.401	31.25
503.752	31.41
504.102	31.45
504.452	31.67
504.803	31.47
505.153	31.57
505.503	31.69
505.853	31.75
506.203	31.54
506.553	31.46
506.903	31.83
507.253	31.8
507.603	31.88
507.953	31.85
508.303	31.96
508.652	32.01
509.002	32.12
509.352	32.08
509.701	31.94
510.051	32.15
510.4	32.1
510.75	32.06
511.099	31.91
511.449	32.22
511.798	32.28
512.147	32.25
512.496	32.35
512.846	32.32
513.195	32.42
513.544	32.54
513.893	32.55
514.242	32.41
514.591	32.33
514.939	32.48
515.288	32.73
515.637	32.77
515.986	32.92
516.334	32.66
516.683	32.91
517.032	33.09
517.38	33.19
517.729	33.3
518.077	33.08
518.426	33.13
518.774	33.23
519.122	33.09
519.47	32.97
519.819	33.08
520.167	33.06
520.515	32.8
520.863	32.86
521.211	32.96
521.559	33.14
521.907	33.17
522.255	33.42
522.602	33.66
522.95	33.64
523.298	33.75
523.645	33.99
523.993	33.73
524.341	33.86
524.688	33.9
525.036	34.03
525.383	34.21
525.73	33.95
526.078	33.93
526.425	34.07
526.772	33.84
527.119	33.71
527.466	33.62
527.814	33.71
528.161	33.76
528.508	33.81
528.854	33.79
529.201	33.84
529.548	33.94
529.895	33.55
530.242	33.21
530.588	33.24
530.935	33.4
531.282	33.43
531.628	33.68
531.975	33.86
532.321	33.99
532.667	34.14
533.014	34.25
533.36	34.44
533.706	34.46
534.052	34.56
534.399	34.4
534.745	34.16
535.091	34.19
535.437	34.3
535.783	34.38
536.129	34.43
536.474	34.75
536.82	34.88
537.166	34.92
537.512	35.23
537.857	35.26
538.203	34.95
538.549	35.03
538.894	34.98
539.239	35.23
539.585	35.49
539.93	35.57
540.276	35.78
540.621	35.77
540.966	36.07
541.311	35.96
541.656	36.04
542.001	35.91
542.346	35.71
542.691	35.41
543.036	35.16
543.381	35.14
543.726	35.35
544.071	35.56
544.415	35.65
544.76	35.72
545.105	35.73
545.449	35.72
545.794	36.24
546.138	36.13
546.483	36.42
546.827	36.51
547.171	36.62
547.516	36.5
547.86	36.45
548.204	36.62
548.548	36.75
548.892	36.65
549.236	36.64
549.58	36.87
549.924	36.83
550.268	37.15
550.612	37.14
550.956	37.49
551.3	37.35
551.643	37.44
551.987	37.56
552.33	37.61
552.674	37.85
553.017	37.88
553.361	37.91
553.704	37.85
554.048	37.84
554.391	37.76
554.734	38.04
555.077	37.73
555.42	37.74
555.764	38.1
556.107	37.85
556.45	38.31
556.793	38.12
557.135	38.36
557.478	38.39
557.821	38.4
558.164	38.7
558.507	38.59
558.849	38.47
559.192	38.47
559.534	38.51
559.877	38.78
560.219	38.68
560.562	39.04
560.904	38.7
561.246	39.02
561.589	38.98
561.931	38.97
562.273	38.79
562.615	38.87
562.957	39.03
563.299	39.22
563.641	39.15
563.983	39.14
564.325	39.47
564.667	39.43
565.008	39.41
565.35	39.57
565.692	39.62
566.033	39.7
566.375	39.56
566.716	39.58
567.058	39.63
567.399	39.42
567.741	39.64
568.082	39.59
568.423	39.4
568.764	39.79
569.105	39.46
569.447	39.51
569.788	39.84
570.129	39.95
570.47	40
570.811	39.86
571.151	39.95
571.492	39.89
571.833	40.15
572.174	40.09
572.514	40.11
572.855	40.25
573.195	40.06
573.536	40.1
573.876	40.29
574.217	40.08
574.557	40.13
574.898	40.11
575.238	40.19
575.578	40.52
575.918	40.62
576.258	40.53
576.598	40.49
576.938	40.81
577.278	40.86
577.618	40.79
577.958	40.77
578.298	40.86
578.638	41.03
578.977	40.75
579.317	41.31
579.657	41.19
579.996	41.44
580.336	41.19
580.675	41.54
581.014	41.39
581.354	41.52
581.693	41.81
582.032	41.77
582.372	42.09
582.711	41.5
583.05	41.86
583.389	41.75
583.728	42.07
584.067	42.24
584.406	42.28
584.745	42.18
585.083	42.06
585.422	42.24
585.761	42.23
586.1	42.4
586.438	42.4
586.777	42.17
587.115	42.61
587.454	42.47
587.792	42.22
588.13	42.11
588.469	42.2
588.807	42.79
589.145	42.29
589.483	42.83
589.821	42.99
590.159	42.86
590.497	42.75
590.835	42.88
591.173	42.72
591.511	42.76
591.849	42.7
592.187	42.64
592.524	42.79
592.862	42.97
593.2	43.08
593.537	43.29
593.875	43.11
594.212	43.36
594.55	43.23
594.887	43.27
595.224	43.27
595.561	43.37
595.899	43.63
596.236	43.42
596.573	43.77
596.91	43.43
597.247	43.54
597.584	43.55
597.921	43.7
598.258	43.68
598.594	43.38
598.931	43.3
599.268	43.3
599.604	43.33
599.941	43.42
600.277	43.59
600.614	43.5
600.95	43.58
601.287	43.96
601.623	44.18
601.959	44.09
602.296	44.3
602.632	44.12
602.968	44.59
603.304	43.83
603.64	44.89
603.976	44.43
604.312	44.91
604.648	44.59
604.984	44.65
605.319	44.18
605.655	44.31
605.991	44.08
606.326	44.23
606.662	43.95
606.998	44.1
607.333	44.42
607.668	44.35
608.004	44.88
608.339	44.97
608.674	44.9
609.01	44.79
609.345	44.89
609.68	45.02
610.015	44.88
610.35	45.19
610.685	44.98
611.02	45.1
611.355	44.85
611.689	44.95
612.024	45.07
612.359	45
612.694	45.06
613.028	44.86
613.363	45.18
613.697	44.96
614.032	45.78
614.366	45.32
614.7	45.37
615.035	46.09
615.369	45.76
615.703	45.69
616.037	45.85
616.371	45.54
616.705	46.07
617.039	45.7
617.373	45.84
617.707	45.6
618.041	45.66
618.375	45.67
618.709	46.27
619.042	45.88
619.376	45.74
619.71	46.23
620.043	46.87
620.377	46.31
620.71	45.66
621.043	46.45
621.377	45.59
621.71	47.04
622.043	46.74
622.376	46.73
622.709	46.39
623.043	46.69
623.376	46.88
623.709	46.45
624.041	46.76
624.374	46.62
624.707	46.58
625.04	46.25
625.373	47.16
625.705	47.2
626.038	47.6
626.37	47.03
626.703	47.06
627.035	46.74
627.368	47
627.7	46.55
628.032	46.96
628.365	47.1
628.697	46.99
629.029	47.06
629.361	46.77
629.693	47.13
630.025	46.98
630.357	46.87
630.689	47.18
631.021	47.71
631.353	47.63
631.684	47.53
632.016	47.64
632.348	47.69
632.679	47.53
633.011	47.82
633.342	47.41
633.674	48.03
634.005	47.52
634.336	47.72
634.668	47.68
634.999	47.85
635.33	47.74
635.661	47.7
635.992	47.9
636.323	47.65
636.654	48.01
636.985	47.9
637.316	47.86
637.647	47.99
637.977	48.08
638.308	48.49
638.639	48.28
638.969	48.21
639.3	48.5
639.63	48.23
639.961	48.65
640.291	48.41
640.622	48.35
640.952	48.58
641.282	48.23
641.612	48.4
641.943	48.65
642.273	48.76
642.603	48.95
642.933	49.23
643.263	48.63
643.592	48.82
643.922	49.37
644.252	49.1
644.582	48.68
644.911	48.88
645.241	49.13
645.571	49.11
645.9	49.22
646.23	48.63
646.559	49.25
646.888	48.43
647.218	48.72
647.547	48.74
647.876	49.42
648.205	48.89
648.534	49.56
648.863	49.28
649.192	50.03
649.521	49.8
649.85	49.16
650.179	49.01
650.508	49.54
650.837	49.88
651.165	49.42
651.494	49.38
651.822	49.36
652.151	49.7
652.479	49.72
652.808	50.37
653.136	49.97
653.465	49.47
653.793	49.54
654.121	49.94
654.449	50.47
654.777	49.85
655.105	50.16
655.433	49.33
655.761	49.82
656.089	50.54
656.417	50.31
656.745	49.82
657.073	49.84
657.4	50.22
657.728	49.91
658.056	49.35
658.383	50.26
658.711	50.2
659.038	50.17
659.365	50.44
659.693	50.5
660.02	50.08
660.347	50.59
660.674	50.51
661.001	50.96
661.329	50.58
661.656	50.1
661.982	50.32
662.309	51.02
662.636	49.81
662.963	50.35
663.29	50.77
663.616	50.57
663.943	50.48
664.27	50.71
664.596	50.05
664.923	51.47
665.249	50.79
665.576	51.44
665.902	51.39
666.228	51.36
666.554	50.62
666.881	50.74
667.207	51.73
667.533	50.86
667.859	50.98
668.185	50.91
668.511	51.57
668.837	51
669.162	51.24
