Data from 0381_chest_Reflection__0__104.txt Node

Date: Mon Dec 11 18:56:01 CST 2023
User: ToomeyLab
Spectrometer: FLMS14357
Trigger mode: 0
Integration Time (sec): 1.000000E-2
Scans to average: 100
Electric dark correction enabled: true
Nonlinearity correction enabled: false
Boxcar width: 0
XAxis mode: Wavelengths
Number of Pixels in Spectrum: 2048
>>>>>Begin Spectral Data<<<<<
189.047	-9.35
189.435	-9.35
189.823	-9.35
190.211	56.37
190.599	-413.33
190.987	-90.06
191.375	66.21
191.763	86.43
192.151	-59.88
192.538	153.16
192.926	100.53
193.314	13.5
193.702	-77.07
194.089	-220.41
194.477	187.51
194.864	1868.04
195.252	-30.9
195.639	-3175.17
196.027	-13.44
196.414	53.98
196.801	62.82
197.189	-796.09
197.576	30.43
197.963	80.13
198.351	-49.19
198.738	-41.56
199.125	-47.92
199.512	-42.7
199.899	-5.67
200.286	34.35
200.673	-159.56
201.06	30.38
201.447	11.78
201.833	-10.4
202.22	49.07
202.607	-39.76
202.994	-13.63
203.38	-207.8
203.767	15.67
204.154	14.38
204.54	-7.15
204.927	-131.76
205.313	-31.23
205.699	-60.71
206.086	20.19
206.472	27.59
206.858	17.08
207.245	-4.18
207.631	-14.88
208.017	3.16
208.403	38.48
208.789	-39.72
209.175	27.35
209.561	-14.66
209.947	7.82
210.333	34.21
210.719	-9
211.105	19.41
211.491	32.36
211.876	32.53
212.262	-66.52
212.648	32.17
213.034	4.52
213.419	1.4
213.805	-26.53
214.19	-12.1
214.576	18.49
214.961	2.97
215.346	29.2
215.732	-11.5
216.117	22.92
216.502	9.15
216.888	-0.81
217.273	24.59
217.658	-14.9
218.043	-1.99
218.428	3.31
218.813	8.55
219.198	-17.32
219.583	5.56
219.968	-9.34
220.353	-4.06
220.738	22.54
221.122	-0.02
221.507	28.06
221.892	7.03
222.276	-2.97
222.661	-5.31
223.046	-17.52
223.43	-4.78
223.815	-2.61
224.199	0.89
224.583	-4.27
224.968	5.73
225.352	3.74
225.736	4.55
226.121	-6.01
226.505	-3.11
226.889	6.82
227.273	4.95
227.657	13.15
228.041	8.44
228.425	0.68
228.809	0.88
229.193	4.78
229.577	2.83
229.961	3.52
230.344	5.2
230.728	3.87
231.112	4.94
231.495	4.75
231.879	5.07
232.263	2.67
232.646	3.84
233.03	3.74
233.413	4.86
233.797	5.34
234.18	4.4
234.563	4.65
234.946	4.22
235.33	4.34
235.713	3.27
236.096	3.48
236.479	5.16
236.862	3.03
237.245	4.14
237.628	3.45
238.011	6.13
238.394	3.75
238.777	5.66
239.16	4.33
239.543	5.21
239.925	3.17
240.308	4.29
240.691	4.27
241.073	5.06
241.456	5.23
241.838	7.41
242.221	3.99
242.603	4.06
242.986	3.87
243.368	4.19
243.75	4.55
244.133	4.76
244.515	4.28
244.897	4.39
245.279	5.11
245.661	5.17
246.043	5.03
246.425	5.62
246.807	5.3
247.189	5.33
247.571	4.4
247.953	4.15
248.335	5.24
248.717	4.85
249.098	4.34
249.48	4.51
249.862	4.7
250.243	4.72
250.625	4.58
251.006	4.47
251.388	4.29
251.769	5.14
252.151	6.03
252.532	4.42
252.913	4.83
253.295	5.29
253.676	4.11
254.057	4.37
254.438	5.09
254.819	4.67
255.2	4.06
255.581	3.77
255.962	4.01
256.343	5.05
256.724	4.82
257.105	4.12
257.486	3.89
257.867	4.76
258.247	4.11
258.628	4.15
259.009	5.53
259.389	5.41
259.77	4.7
260.15	4.33
260.531	4.84
260.911	3.95
261.292	4.25
261.672	4.33
262.052	4.3
262.432	4.31
262.813	4.61
263.193	3.98
263.573	4.02
263.953	3.98
264.333	3.39
264.713	4.47
265.093	4.52
265.473	5.11
265.853	4.37
266.233	3.48
266.612	4.66
266.992	4.83
267.372	5.35
267.752	4.45
268.131	4.42
268.511	4.15
268.89	4.6
269.27	4.62
269.649	4.93
270.029	4.63
270.408	4.09
270.787	3.32
271.167	3.56
271.546	4.02
271.925	4.2
272.304	4.18
272.683	3.89
273.062	4.17
273.441	4.26
273.82	4.08
274.199	3.97
274.578	4.06
274.957	4.33
275.336	3.8
275.715	3.92
276.093	5.52
276.472	4.1
276.851	4.64
277.229	4.06
277.608	4.21
277.986	4.43
278.365	4.1
278.743	4.25
279.122	4.11
279.5	4.39
279.878	4.48
280.257	3.6
280.635	3.88
281.013	3.3
281.391	4.01
281.769	3.42
282.147	4.28
282.525	3.36
282.903	4.35
283.281	4.3
283.659	3.75
284.037	3.66
284.415	4.28
284.792	4.35
285.17	3.77
285.548	3.49
285.925	3.65
286.303	3.86
286.68	3.96
287.058	4.13
287.435	4.23
287.813	4.23
288.19	3.89
288.567	3.82
288.945	4.17
289.322	3.6
289.699	3.79
290.076	4.1
290.453	4.02
290.83	4.81
291.207	4.37
291.584	4.18
291.961	4.04
292.338	4.24
292.715	4.31
293.092	4.05
293.469	4.55
293.845	4.4
294.222	4.74
294.599	4.46
294.975	4.2
295.352	3.73
295.728	4.38
296.105	3.78
296.481	4.38
296.858	4.41
297.234	4.75
297.61	4.72
297.986	4.65
298.363	4.76
298.739	4.74
299.115	4.55
299.491	4.62
299.867	4.35
300.243	4.71
300.619	4.48
300.995	4.8
301.371	4.45
301.746	3.93
302.122	4.38
302.498	4.93
302.874	4.87
303.249	4.46
303.625	4.6
304	4.7
304.376	4.53
304.751	4.2
305.127	4.85
305.502	5.07
305.878	4.88
306.253	4.88
306.628	5.25
307.003	5.1
307.378	4.62
307.754	4.92
308.129	4.78
308.504	5.15
308.879	5.06
309.254	5.09
309.629	5.08
310.003	4.97
310.378	4.81
310.753	5.25
311.128	5.03
311.502	4.72
311.877	5.19
312.252	5.32
312.626	4.85
313.001	5.29
313.375	5.06
313.75	5
314.124	5.23
314.498	4.79
314.873	4.8
315.247	5.24
315.621	5.64
315.995	5.84
316.369	5.3
316.743	5.53
317.117	5.44
317.491	5.46
317.865	5.01
318.239	5.53
318.613	5.32
318.987	4.98
319.361	5.97
319.734	5.69
320.108	5.39
320.482	5.02
320.855	5.19
321.229	5.41
321.602	5.67
321.976	5.85
322.349	5.78
322.723	5.91
323.096	6.03
323.469	6.07
323.843	5.41
324.216	5.29
324.589	5.85
324.962	5.2
325.335	5.54
325.708	5.61
326.081	6.08
326.454	5.68
326.827	5.79
327.2	4.83
327.573	5.47
327.945	5.86
328.318	5.61
328.691	5.28
329.063	5.32
329.436	5.34
329.809	5.02
330.181	5.79
330.553	5.1
330.926	5.75
331.298	5.8
331.671	5.48
332.043	5.71
332.415	6.31
332.787	6.12
333.159	5.11
333.532	6.04
333.904	5.95
334.276	6.14
334.648	5.74
335.02	5.73
335.391	5.6
335.763	6.21
336.135	5.92
336.507	6.06
336.879	5.86
337.25	5.81
337.622	5.41
337.993	5.53
338.365	5.35
338.736	6.23
339.108	5.94
339.479	5.72
339.851	5.67
340.222	5.64
340.593	5.79
340.964	5.89
341.336	6.12
341.707	5.53
342.078	5.76
342.449	5.58
342.82	5.32
343.191	5.05
343.562	5.61
343.933	5.59
344.303	5.43
344.674	5.77
345.045	6.19
345.416	5.4
345.786	5.98
346.157	5.93
346.527	5.85
346.898	5.98
347.268	5.88
347.639	5.87
348.009	5.96
348.38	5.61
348.75	5.52
349.12	5.94
349.49	5.49
349.861	5.35
350.231	5.98
350.601	6.06
350.971	5.73
351.341	5.5
351.711	5.95
352.081	5.26
352.45	5.64
352.82	5.45
353.19	5.61
353.56	5.88
353.929	5.76
354.299	5.92
354.669	5.86
355.038	5.55
355.408	5.48
355.777	6.11
356.147	6.09
356.516	5.61
356.885	5.95
357.254	6.33
357.624	5.9
357.993	5.46
358.362	6.02
358.731	5.96
359.1	5.96
359.469	5.83
359.838	5.89
360.207	5.57
360.576	5.74
360.945	6.41
361.314	6.15
361.682	6.21
362.051	6.02
362.42	6.17
362.788	5.82
363.157	5.7
363.525	5.59
363.894	6.07
364.262	5.97
364.631	5.96
364.999	5.8
365.367	6.21
365.735	5.71
366.104	5.58
366.472	5.79
366.84	5.89
367.208	5.65
367.576	6.31
367.944	5.97
368.312	5.85
368.68	5.88
369.048	5.99
369.416	5.82
369.783	6.04
370.151	6.24
370.519	6.48
370.886	5.98
371.254	6.2
371.621	6.02
371.989	6.04
372.356	6.02
372.724	6.5
373.091	6.28
373.458	5.62
373.826	6.21
374.193	6.05
374.56	6.04
374.927	6.01
375.294	6.03
375.661	6.08
376.028	6.24
376.395	6
376.762	6.24
377.129	6.18
377.496	5.9
377.863	6.2
378.229	6.45
378.596	5.93
378.963	6.1
379.329	6.03
379.696	6.05
380.062	6.06
380.429	5.89
380.795	6.02
381.161	6.14
381.528	6.4
381.894	6.2
382.26	6.34
382.626	6.15
382.993	6.46
383.359	6.48
383.725	5.78
384.091	6.21
384.457	5.7
384.823	6.52
385.188	6.06
385.554	6.26
385.92	6.18
386.286	5.95
386.651	5.94
387.017	5.98
387.383	6.07
387.748	6.13
388.114	6.03
388.479	6.07
388.845	6.07
389.21	6.18
389.575	6.44
389.94	6.14
390.306	6.34
390.671	6.17
391.036	6.04
391.401	6.39
391.766	6.04
392.131	6.24
392.496	6.44
392.861	6.28
393.226	6.39
393.591	6.23
393.956	6.15
394.32	6.35
394.685	6.06
395.05	6.23
395.414	6.56
395.779	6.18
396.143	6.09
396.508	6.23
396.872	6.17
397.236	6.37
397.601	6.11
397.965	6.58
398.329	6.4
398.694	6.22
399.058	6.15
399.422	6.21
399.786	6.37
400.15	6.2
400.514	6.39
400.878	6.58
401.242	6.31
401.605	6.33
401.969	6.26
402.333	6.32
402.697	6.19
403.06	6.29
403.424	6.37
403.787	6.5
404.151	6.13
404.514	6.21
404.878	6.26
405.241	6.17
405.604	6.38
405.968	6.33
406.331	6.15
406.694	6.29
407.057	6.45
407.42	6.39
407.783	6.38
408.146	6.49
408.509	6.42
408.872	6.65
409.235	6.42
409.598	6.25
409.961	6.59
410.323	6.78
410.686	6.37
411.049	6.22
411.411	6.44
411.774	6.54
412.136	6.44
412.499	6.49
412.861	6.36
413.223	6.45
413.586	6.61
413.948	6.44
414.31	6.5
414.672	6.28
415.035	6.27
415.397	6.27
415.759	6.75
416.121	6.3
416.483	6.61
416.845	6.64
417.206	6.58
417.568	6.64
417.93	6.64
418.292	6.34
418.653	6.37
419.015	6.35
419.377	6.51
419.738	6.54
420.1	6.5
420.461	6.45
420.822	6.3
421.184	6.38
421.545	6.48
421.906	6.42
422.267	6.49
422.629	6.46
422.99	6.28
423.351	6.32
423.712	6.32
424.073	6.39
424.434	6.41
424.795	6.45
425.155	6.43
425.516	6.45
425.877	6.39
426.238	6.36
426.598	6.36
426.959	6.3
427.32	6.53
427.68	6.55
428.041	6.28
428.401	6.4
428.761	6.51
429.122	6.42
429.482	6.48
429.842	6.48
430.202	6.68
430.563	6.79
430.923	6.67
431.283	6.44
431.643	6.64
432.003	6.47
432.363	6.64
432.722	6.69
433.082	6.57
433.442	6.68
433.802	6.65
434.161	6.8
434.521	6.44
434.881	6.54
435.24	6.58
435.6	6.51
435.959	6.62
436.319	6.66
436.678	6.68
437.037	6.64
437.396	6.73
437.756	6.84
438.115	6.85
438.474	6.86
438.833	6.7
439.192	6.79
439.551	6.71
439.91	6.81
440.269	6.72
440.628	6.47
440.987	6.81
441.345	6.65
441.704	6.76
442.063	6.66
442.421	6.72
442.78	6.75
443.138	6.75
443.497	6.67
443.855	6.67
444.214	6.92
444.572	6.57
444.93	6.86
445.288	6.73
445.647	6.8
446.005	6.61
446.363	6.74
446.721	6.86
447.079	6.61
447.437	6.72
447.795	6.7
448.153	6.67
448.51	6.69
448.868	6.6
449.226	6.61
449.584	6.8
449.941	6.76
450.299	6.68
450.656	6.66
451.014	6.82
451.371	6.71
451.729	6.84
452.086	6.8
452.443	7.08
452.801	6.86
453.158	6.91
453.515	6.88
453.872	6.78
454.229	6.76
454.586	6.83
454.943	6.92
455.3	6.91
455.657	7.06
456.014	6.93
456.371	7.19
456.727	6.9
457.084	6.96
457.441	7.04
457.797	6.93
458.154	7
458.51	7.15
458.867	6.9
459.223	6.98
459.58	7
459.936	7.01
460.292	7
460.648	6.9
461.005	6.88
461.361	6.92
461.717	6.96
462.073	6.94
462.429	6.83
462.785	6.84
463.141	6.81
463.496	7.04
463.852	6.96
464.208	6.94
464.564	7.05
464.919	7.04
465.275	6.99
465.631	6.95
465.986	7.11
466.342	7.04
466.697	7.09
467.052	7.16
467.408	7.26
467.763	7.14
468.118	6.9
468.473	6.97
468.829	7.04
469.184	7.27
469.539	7.12
469.894	7.18
470.249	7.05
470.603	7.11
470.958	7.18
471.313	7.06
471.668	7.22
472.023	7.15
472.377	7.06
472.732	7.09
473.086	7.15
473.441	7.19
473.795	7.05
474.15	7.15
474.504	7.22
474.859	7.17
475.213	7.23
475.567	7.28
475.921	7.22
476.275	7.16
476.63	7.13
476.984	7.34
477.338	7.07
477.692	7.08
478.045	7.2
478.399	7.17
478.753	6.91
479.107	7.11
479.461	7.22
479.814	7.2
480.168	7.35
480.521	7.34
480.875	7.31
481.228	7.16
481.582	7.35
481.935	7.19
482.289	7.35
482.642	7.35
482.995	7.23
483.348	7.3
483.701	7.16
484.055	7.19
484.408	7.13
484.761	7.11
485.114	7.08
485.466	6.94
485.819	6.84
486.172	6.84
486.525	6.9
486.878	7
487.23	7.05
487.583	7.11
487.936	7.13
488.288	7.22
488.641	7.09
488.993	7.04
489.345	7.1
489.698	7.08
490.05	7.04
490.402	7.01
490.754	7.17
491.107	7.16
491.459	7.29
491.811	7.29
492.163	7.31
492.515	7.36
492.866	7.27
493.218	7.11
493.57	7.12
493.922	7.14
494.274	7.22
494.625	7.27
494.977	7.39
495.328	7.39
495.68	7.51
496.031	7.41
496.383	7.39
496.734	7.57
497.086	7.49
497.437	7.54
497.788	7.52
498.139	7.46
498.49	7.49
498.842	7.52
499.193	7.56
499.544	7.42
499.894	7.49
500.245	7.51
500.596	7.7
500.947	7.58
501.298	7.67
501.648	7.54
501.999	7.53
502.35	7.51
502.7	7.74
503.051	7.57
503.401	7.6
503.752	7.67
504.102	7.63
504.452	7.62
504.803	7.83
505.153	7.78
505.503	7.78
505.853	7.8
506.203	7.63
506.553	7.82
506.903	7.71
507.253	7.77
507.603	7.72
507.953	7.71
508.303	7.74
508.652	7.76
509.002	7.7
509.352	7.94
509.701	7.73
510.051	7.77
510.4	7.72
510.75	7.72
511.099	7.68
511.449	7.85
511.798	7.73
512.147	7.85
512.496	7.8
512.846	7.9
513.195	7.97
513.544	7.86
513.893	7.91
514.242	7.92
514.591	7.71
514.939	7.86
515.288	8.03
515.637	7.87
515.986	8
516.334	8.07
516.683	8
517.032	8.09
517.38	8.03
517.729	8.05
518.077	8.13
518.426	8.06
518.774	8.02
519.122	8.02
519.47	7.88
519.819	7.95
520.167	7.93
520.515	7.94
520.863	7.93
521.211	7.97
521.559	7.9
521.907	7.97
522.255	7.98
522.602	7.99
522.95	8.03
523.298	8.07
523.645	8.24
523.993	8.04
524.341	8.17
524.688	8.06
525.036	8.13
525.383	8.22
525.73	8.2
526.078	8.33
526.425	8.23
526.772	8.34
527.119	8.17
527.466	8.16
527.814	8.11
528.161	8.11
528.508	8.2
528.854	8.13
529.201	8.24
529.548	8.17
529.895	8.12
530.242	7.98
530.588	7.95
530.935	8.03
531.282	8.06
531.628	8.04
531.975	8.12
532.321	8.2
532.667	8.26
533.014	8.19
533.36	8.33
533.706	8.48
534.052	8.33
534.399	8.4
534.745	8.33
535.091	8.29
535.437	8.19
535.783	8.33
536.129	8.37
536.474	8.37
536.82	8.45
537.166	8.51
537.512	8.42
537.857	8.64
538.203	8.44
538.549	8.49
538.894	8.5
539.239	8.67
539.585	8.56
539.93	8.53
540.276	8.82
540.621	8.72
540.966	8.81
541.311	8.7
541.656	8.84
542.001	8.8
542.346	8.81
542.691	8.63
543.036	8.58
543.381	8.53
543.726	8.51
544.071	8.64
544.415	8.63
544.76	8.62
545.105	8.72
545.449	8.8
545.794	8.76
546.138	8.83
546.483	8.91
546.827	9.03
547.171	8.96
547.516	9
547.86	9.07
548.204	9.06
548.548	8.98
548.892	9.15
549.236	8.95
549.58	9.14
549.924	9.2
550.268	9.02
550.612	9.14
550.956	9.19
551.3	9.18
551.643	9.28
551.987	9.39
552.33	9.36
552.674	9.45
553.017	9.3
553.361	9.32
553.704	9.42
554.048	9.6
554.391	9.26
554.734	9.51
555.077	9.56
555.42	9.54
555.764	9.43
556.107	9.56
556.45	9.45
556.793	9.38
557.135	9.55
557.478	9.63
557.821	9.51
558.164	9.62
558.507	9.67
558.849	9.62
559.192	9.64
559.534	9.59
559.877	9.82
560.219	9.6
560.562	9.86
560.904	9.81
561.246	9.9
561.589	9.79
561.931	9.85
562.273	9.68
562.615	9.75
562.957	9.85
563.299	9.9
563.641	9.9
563.983	10.13
564.325	9.96
564.667	10.01
565.008	9.98
565.35	10.34
565.692	10.12
566.033	10
566.375	10.33
566.716	10.18
567.058	10.29
567.399	10.22
567.741	9.95
568.082	10.22
568.423	10.03
568.764	10.02
569.105	10.08
569.447	10.21
569.788	10.25
570.129	10.27
570.47	9.99
570.811	10.3
571.151	10.39
571.492	10.54
571.833	10.29
572.174	10.44
572.514	10.57
572.855	10.4
573.195	10.41
573.536	10.42
573.876	10.44
574.217	10.41
574.557	10.5
574.898	10.52
575.238	10.66
575.578	10.64
575.918	10.78
576.258	10.62
576.598	10.78
576.938	10.8
577.278	10.52
577.618	10.65
577.958	10.88
578.298	10.94
578.638	11
578.977	10.88
579.317	10.94
579.657	10.81
579.996	10.98
580.336	10.93
580.675	11.07
581.014	10.96
581.354	10.94
581.693	11.06
582.032	11.04
582.372	11.14
582.711	11
583.05	11.23
583.389	11.08
583.728	11.48
584.067	11.06
584.406	11.12
584.745	11.18
585.083	11.38
585.422	11.51
585.761	11.55
586.1	11.43
586.438	11.29
586.777	11.61
587.115	11.3
587.454	11.61
587.792	11.44
588.13	11.65
588.469	11.63
588.807	11.66
589.145	11.71
589.483	11.58
589.821	11.53
590.159	11.62
590.497	11.49
590.835	11.71
591.173	11.58
591.511	11.83
591.849	11.84
592.187	11.66
592.524	12.04
592.862	11.86
593.2	11.71
593.537	11.66
593.875	11.8
594.212	11.86
594.55	11.93
594.887	12.15
595.224	11.98
595.561	12.26
595.899	11.96
596.236	12.27
596.573	12.16
596.91	12.14
597.247	12.32
597.584	12.07
597.921	12.04
598.258	12.22
598.594	12.22
598.931	12.4
599.268	12.09
599.604	12.26
599.941	12.35
600.277	12.42
600.614	12.47
600.95	12.45
601.287	12.68
601.623	12.53
601.959	12.83
602.296	12.65
602.632	12.78
602.968	12.72
603.304	12.81
603.64	12.86
603.976	13.05
604.312	12.78
604.648	12.88
604.984	12.87
605.319	12.96
605.655	12.7
605.991	12.9
606.326	13.01
606.662	12.86
606.998	12.91
607.333	12.89
607.668	12.83
608.004	12.81
608.339	13.24
608.674	13.08
609.01	12.96
609.345	13.06
609.68	13.12
610.015	13.39
610.35	13.33
610.685	13.06
611.02	13.29
611.355	13.27
611.689	13.2
612.024	13.18
612.359	13.22
612.694	13.36
613.028	13.37
613.363	13.23
613.697	13.58
614.032	13.51
614.366	13.77
614.7	13.5
615.035	13.61
615.369	13.69
615.703	13.37
616.037	13.61
616.371	13.93
616.705	13.89
617.039	14.12
617.373	13.76
617.707	13.94
618.041	14.12
618.375	14.17
618.709	13.66
619.042	13.78
619.376	14.09
619.71	13.87
620.043	13.73
620.377	14.03
620.71	14.07
621.043	14.14
621.377	13.86
621.71	14.19
622.043	13.89
622.376	14.11
622.709	14.75
623.043	14.29
623.376	14.2
623.709	14.58
624.041	14.34
624.374	15.09
624.707	14.4
625.04	14.84
625.373	14.39
625.705	14.65
626.038	14.49
626.37	14.68
626.703	14.85
627.035	14.82
627.368	14.71
627.7	14.98
628.032	14.56
628.365	14.99
628.697	14.71
629.029	14.87
629.361	15.01
629.693	14.87
630.025	14.68
630.357	14.64
630.689	14.6
631.021	14.7
631.353	14.74
631.684	15.05
632.016	15.01
632.348	15.11
632.679	15.48
633.011	15.11
633.342	15.27
633.674	15.6
634.005	15.47
634.336	15.04
634.668	15.32
634.999	15.57
635.33	15.42
635.661	15.56
635.992	15.85
636.323	15.54
636.654	15.52
636.985	15.55
637.316	15.22
637.647	15.51
637.977	15.77
638.308	15.62
638.639	15.9
638.969	15.54
639.3	15.91
639.63	15.39
639.961	15.76
640.291	16.25
640.622	15.87
640.952	15.96
641.282	15.79
641.612	15.91
641.943	15.96
642.273	16.31
642.603	16.4
642.933	16.22
643.263	15.75
643.592	15.9
643.922	16.18
644.252	15.69
644.582	15.94
644.911	16.25
645.241	16.09
645.571	16.35
645.9	16.62
646.23	16.46
646.559	16.38
646.888	16.06
647.218	16.09
647.547	16.34
647.876	16.75
648.205	16.42
648.534	16.7
648.863	16.4
649.192	16.65
649.521	16.6
649.85	16.59
650.179	16.93
650.508	16.85
650.837	16
651.165	17.35
651.494	16.62
651.822	16.55
652.151	17.23
652.479	16.44
652.808	16.96
653.136	16.58
653.465	17.01
653.793	17.31
654.121	17
654.449	16.94
654.777	17.44
655.105	16.95
655.433	17.33
655.761	17.08
656.089	17.1
656.417	17.76
656.745	17.61
657.073	17.43
657.4	17.76
657.728	16.92
658.056	17.86
658.383	17.4
658.711	17.32
659.038	17.63
659.365	17.44
659.693	17.92
660.02	17.24
660.347	17.13
660.674	17.15
661.001	17.2
661.329	18.1
661.656	17.91
661.982	17.21
662.309	17.64
662.636	17.51
662.963	17.86
663.29	17.72
663.616	17.82
663.943	17.72
664.27	17.94
664.596	17.77
664.923	17.79
665.249	17.99
665.576	18.02
665.902	17.6
666.228	17.85
666.554	18.35
666.881	17.22
667.207	18.29
667.533	17.79
667.859	18.1
668.185	18.48
668.511	18.41
668.837	18.71
669.162	18.4
669.488	18.03
669.814	18.5
670.139	18.19
670.465	18.65
670.791	18.28
671.116	18.65
671.442	18.77
671.767	17.99
672.092	18.54
672.418	18.64
672.743	18.75
673.068	18.64
673.393	19.05
673.718	18.2
674.043	19.02
674.368	18.92
674.693	18.68
675.018	19.54
675.343	18.26
675.667	18.46
675.992	19.11
676.317	18.77
676.641	19.34
676.966	19.46
677.29	19.13
677.615	19.53
677.939	19.06
678.264	19.04
678.588	19.52
678.912	18.96
679.236	19.5
679.56	19.92
679.885	19.52
680.209	19.32
680.532	19.47
680.856	19.4
681.18	19.38
681.504	19.13
681.828	19.24
682.152	19.17
682.475	18.98
682.799	19.75
683.122	19.26
683.446	19.24
683.769	19.65
684.093	19.46
684.416	18.99
