Data from 0381_forehead_Reflection__4__119.txt Node

Date: Mon Dec 11 18:59:46 CST 2023
User: ToomeyLab
Spectrometer: FLMS14357
Trigger mode: 0
Integration Time (sec): 1.000000E-2
Scans to average: 100
Electric dark correction enabled: true
Nonlinearity correction enabled: false
Boxcar width: 0
XAxis mode: Wavelengths
Number of Pixels in Spectrum: 2048
>>>>>Begin Spectral Data<<<<<
189.047	143.04
189.435	143.04
189.823	143.04
190.211	83.64
190.599	9.66
190.987	60.43
191.375	21.75
191.763	140.81
192.151	-23.68
192.538	41.92
192.926	117.75
193.314	66.56
193.702	117.15
194.089	-335.49
194.477	229.85
194.864	952.97
195.252	25.49
195.639	-1078.52
196.027	568.54
196.414	165.43
196.801	-50.77
197.189	465.45
197.576	62.67
197.963	17.41
198.351	-0.25
198.738	7.2
199.125	-62.89
199.512	49.16
199.899	9.7
200.286	25.04
200.673	-196.23
201.06	16.57
201.447	48.21
201.833	37.32
202.22	51.64
202.607	-31.94
202.994	-44.09
203.38	-1.88
203.767	29.56
204.154	46.22
204.54	-19.81
204.927	-29.91
205.313	11.05
205.699	-20.07
206.086	-8.05
206.472	15.01
206.858	14.74
207.245	15.42
207.631	48.11
208.017	12.53
208.403	47.19
208.789	-13.09
209.175	14.13
209.561	-11.45
209.947	1.73
210.333	17.53
210.719	1.02
211.105	-3.05
211.491	34.34
211.876	24.7
212.262	-6.32
212.648	26.81
213.034	39.45
213.419	-2.81
213.805	-3.61
214.19	9.62
214.576	15.5
214.961	14.68
215.346	-13.04
215.732	17.21
216.117	11.77
216.502	6.3
216.888	3.92
217.273	36.61
217.658	2.65
218.043	-30.35
218.428	5.24
218.813	14.34
219.198	4.06
219.583	28.98
219.968	6.46
220.353	1.55
220.738	35.15
221.122	7.4
221.507	30.82
221.892	14.35
222.276	6.28
222.661	-2.98
223.046	-6.7
223.43	11.17
223.815	-2.42
224.199	2.83
224.583	7.14
224.968	13.34
225.352	3.2
225.736	12.8
226.121	2.48
226.505	5.7
226.889	4.96
227.273	7.39
227.657	9.25
228.041	6.88
228.425	0.51
228.809	0.08
229.193	4.14
229.577	5.9
229.961	3.35
230.344	4.42
230.728	3.11
231.112	2.68
231.495	4.36
231.879	2.85
232.263	3.87
232.646	5.26
233.03	3.47
233.413	2.38
233.797	5.92
234.18	2.46
234.563	4.16
234.946	3.21
235.33	5.94
235.713	2.32
236.096	4.76
236.479	5.09
236.862	2.6
237.245	3.02
237.628	3.73
238.011	3.72
238.394	2.91
238.777	3.73
239.16	3.56
239.543	4.9
239.925	2.22
240.308	2.77
240.691	3.76
241.073	3.13
241.456	3.17
241.838	5.36
242.221	3.63
242.603	2.19
242.986	2.75
243.368	3.31
243.75	3.9
244.133	3.75
244.515	2.91
244.897	3.32
245.279	3.1
245.661	2.95
246.043	3.68
246.425	4.01
246.807	3.74
247.189	3.06
247.571	3.61
247.953	3.36
248.335	3.59
248.717	3.48
249.098	3.33
249.48	3.28
249.862	3.57
250.243	3.42
250.625	3.34
251.006	3.15
251.388	3.55
251.769	4.52
252.151	4.75
252.532	3.81
252.913	3.64
253.295	4.28
253.676	3.99
254.057	3.29
254.438	3.74
254.819	3.06
255.2	2.35
255.581	2.89
255.962	3.53
256.343	4.29
256.724	4.5
257.105	3.89
257.486	3.48
257.867	4.93
258.247	2.93
258.628	4.23
259.009	4.03
259.389	4.64
259.77	3.15
260.15	3.51
260.531	3.88
260.911	2.84
261.292	3.01
261.672	2.97
262.052	3.26
262.432	3.37
262.813	3.2
263.193	3.07
263.573	3.22
263.953	3.43
264.333	2.72
264.713	3.49
265.093	3.82
265.473	3.21
265.853	3.37
266.233	3.25
266.612	3.4
266.992	3.99
267.372	4.52
267.752	4.57
268.131	3.52
268.511	3.46
268.89	3.91
269.27	4.08
269.649	3.54
270.029	4.24
270.408	3.81
270.787	2.95
271.167	2.47
271.546	3.06
271.925	3.35
272.304	3.18
272.683	2.82
273.062	3.06
273.441	3.13
273.82	3.23
274.199	3.32
274.578	3.18
274.957	3.63
275.336	3.4
275.715	3.29
276.093	3.43
276.472	3.66
276.851	3.65
277.229	3.34
277.608	3.14
277.986	3.81
278.365	2.99
278.743	3.7
279.122	3.38
279.5	3.81
279.878	3.52
280.257	3.14
280.635	3
281.013	2.67
281.391	3.61
281.769	3.42
282.147	3.27
282.525	2.88
282.903	3.33
283.281	3.08
283.659	3.05
284.037	2.8
284.415	2.98
284.792	3.27
285.17	3.05
285.548	3.41
285.925	2.73
286.303	3.32
286.68	2.77
287.058	3.02
287.435	3.48
287.813	3.43
288.19	3.24
288.567	2.99
288.945	3.17
289.322	3.02
289.699	3.19
290.076	2.76
290.453	3.59
290.83	3.56
291.207	3.52
291.584	3.54
291.961	3.43
292.338	3.34
292.715	3.63
293.092	3.4
293.469	3.23
293.845	3.69
294.222	4.01
294.599	3.32
294.975	3.39
295.352	2.97
295.728	3.45
296.105	3.24
296.481	3.31
296.858	3.33
297.234	3.98
297.61	3.7
297.986	3.65
298.363	3.59
298.739	3.81
299.115	3.6
299.491	3.52
299.867	3.65
300.243	3.58
300.619	3.84
300.995	3.67
301.371	3.69
301.746	3.67
302.122	3.64
302.498	4.12
302.874	3.73
303.249	3.9
303.625	3.42
304	3.85
304.376	3.96
304.751	3.46
305.127	3.63
305.502	4.05
305.878	3.96
306.253	3.84
306.628	4.62
307.003	4.34
307.378	4.08
307.754	4.45
308.129	4.55
308.504	4.21
308.879	4.01
309.254	3.96
309.629	4.52
310.003	4.46
310.378	4.18
310.753	4.43
311.128	4.47
311.502	4.38
311.877	4.37
312.252	4.54
312.626	4.65
313.001	4.61
313.375	4.3
313.75	4.67
314.124	4.99
314.498	4.72
314.873	4.63
315.247	4.56
315.621	5.23
315.995	5.07
316.369	5.02
316.743	4.99
317.117	5.15
317.491	5.2
317.865	4.83
318.239	5.44
318.613	5.52
318.987	5.5
319.361	5.51
319.734	5.34
320.108	4.88
320.482	5.64
320.855	4.94
321.229	5.11
321.602	5.47
321.976	6
322.349	5.1
322.723	5.31
323.096	5.83
323.469	6.39
323.843	6.15
324.216	6.06
324.589	5.83
324.962	5.53
325.335	6.17
325.708	5.86
326.081	6.53
326.454	5.99
326.827	5.74
327.2	5.72
327.573	5.89
327.945	6.34
328.318	5.87
328.691	5.79
329.063	5.65
329.436	6.12
329.809	5.51
330.181	6.37
330.553	6.19
330.926	5.97
331.298	6.71
331.671	6.4
332.043	6.22
332.415	5.85
332.787	6.55
333.159	6.14
333.532	6.24
333.904	6.16
334.276	6.84
334.648	6.84
335.02	6.08
335.391	6.73
335.763	6.66
336.135	6.42
336.507	6.55
336.879	6.97
337.25	6.21
337.622	6.23
337.993	6.82
338.365	6.54
338.736	6.68
339.108	7.21
339.479	6.51
339.851	6.92
340.222	6.33
340.593	6.6
340.964	6.75
341.336	7.23
341.707	6.57
342.078	7.39
342.449	6.7
342.82	7.15
343.191	6.79
343.562	6.88
343.933	7.11
344.303	6.75
344.674	6.85
345.045	7.19
345.416	6.93
345.786	7.17
346.157	7.16
346.527	6.97
346.898	7.41
347.268	7.46
347.639	7.65
348.009	7.39
348.38	6.9
348.75	7.23
349.12	7.6
349.49	7.46
349.861	7
350.231	7.42
350.601	7.99
350.971	7.81
351.341	6.86
351.711	7.71
352.081	7.23
352.45	7.84
352.82	7.54
353.19	7.95
353.56	7.48
353.929	7.63
354.299	7.59
354.669	8.1
355.038	8.05
355.408	7.91
355.777	7.77
356.147	8.15
356.516	7.77
356.885	7.66
357.254	8.18
357.624	8.48
357.993	7.69
358.362	8.21
358.731	7.97
359.1	8.38
359.469	8.15
359.838	8.47
360.207	8.06
360.576	8.1
360.945	8.49
361.314	8.53
361.682	8.15
362.051	8.2
362.42	8.07
362.788	8.14
363.157	8.38
363.525	7.99
363.894	8.24
364.262	8.44
364.631	8.36
364.999	8.52
365.367	8.26
365.735	8.62
366.104	8.16
366.472	8.85
366.84	8.41
367.208	8.16
367.576	8.98
367.944	8.69
368.312	8.58
368.68	8.89
369.048	8.68
369.416	8.27
369.783	8.97
370.151	8.87
370.519	9.36
370.886	9.02
371.254	9.04
371.621	9.11
371.989	9.24
372.356	9.44
372.724	9.84
373.091	9.53
373.458	9.14
373.826	9.07
374.193	9.44
374.56	9.43
374.927	9.22
375.294	9.75
375.661	9.27
376.028	9.5
376.395	9.36
376.762	9.77
377.129	9.96
377.496	9.74
377.863	9.63
378.229	9.62
378.596	9.53
378.963	9.78
379.329	9.67
379.696	9.81
380.062	9.4
380.429	9.73
380.795	9.7
381.161	10.02
381.528	9.92
381.894	9.89
382.26	10
382.626	9.78
382.993	10.2
383.359	10.03
383.725	9.98
384.091	10.02
384.457	10.23
384.823	10.28
385.188	10.25
385.554	9.8
385.92	10.03
386.286	10.35
386.651	10.48
387.017	10.36
387.383	10.35
387.748	10.31
388.114	10.54
388.479	10.47
388.845	10.25
389.21	10.7
389.575	10.58
389.94	10.61
390.306	10.71
390.671	10.68
391.036	10.53
391.401	10.49
391.766	10.61
392.131	10.6
392.496	10.66
392.861	10.87
393.226	10.87
393.591	10.71
393.956	10.74
394.32	10.75
394.685	10.95
395.05	11.07
395.414	11.14
395.779	11.12
396.143	10.63
396.508	10.75
396.872	10.81
397.236	11.05
397.601	10.89
397.965	11.25
398.329	11.33
398.694	11.1
399.058	11.2
399.422	11.31
399.786	11.23
400.15	11.46
400.514	11.39
400.878	11.35
401.242	11.27
401.605	11.57
401.969	11.48
402.333	11.32
402.697	11.47
403.06	11.57
403.424	11.67
403.787	11.85
404.151	11.42
404.514	11.35
404.878	11.71
405.241	11.6
405.604	11.73
405.968	11.66
406.331	11.61
406.694	11.49
407.057	11.87
407.42	11.9
407.783	11.93
408.146	12.02
408.509	11.75
408.872	11.84
409.235	11.86
409.598	12.17
409.961	12.35
410.323	12.08
410.686	12.08
411.049	11.96
411.411	12.23
411.774	12.37
412.136	12.21
412.499	12.29
412.861	12.18
413.223	12.16
413.586	12.4
413.948	12.46
414.31	12.32
414.672	12.23
415.035	12.48
415.397	12.51
415.759	12.48
416.121	12.49
416.483	12.47
416.845	12.56
417.206	12.64
417.568	12.68
417.93	12.68
418.292	12.5
418.653	12.52
419.015	12.54
419.377	12.54
419.738	12.78
420.1	12.82
420.461	12.58
420.822	12.57
421.184	12.57
421.545	12.6
421.906	12.65
422.267	12.75
422.629	12.67
422.99	12.7
423.351	12.58
423.712	12.62
424.073	12.8
424.434	12.7
424.795	12.98
425.155	12.85
425.516	12.92
425.877	12.78
426.238	12.99
426.598	13.01
426.959	13.07
427.32	13.13
427.68	13.22
428.041	13.12
428.401	13.01
428.761	13.29
429.122	13.29
429.482	13.49
429.842	13.46
430.202	13.51
430.563	13.42
430.923	13.57
431.283	13.73
431.643	13.81
432.003	13.65
432.363	13.84
432.722	13.76
433.082	13.81
433.442	13.88
433.802	13.94
434.161	14.06
434.521	13.76
434.881	13.83
435.24	13.79
435.6	13.72
435.959	13.91
436.319	13.92
436.678	14.01
437.037	14.01
437.396	14.2
437.756	14.21
438.115	14.32
438.474	14.38
438.833	14.37
439.192	14.14
439.551	14.17
439.91	14.37
440.269	14.43
440.628	14.3
440.987	14.43
441.345	14.29
441.704	14.25
442.063	14.37
442.421	14.3
442.78	14.3
443.138	14.44
443.497	14.34
443.855	14.46
444.214	14.6
444.572	14.53
444.93	14.78
445.288	14.64
445.647	14.59
446.005	14.68
446.363	14.73
446.721	14.84
447.079	14.64
447.437	14.61
447.795	14.7
448.153	14.74
448.51	14.73
448.868	14.74
449.226	14.71
449.584	14.92
449.941	14.98
450.299	14.9
450.656	15.07
451.014	15.17
451.371	14.99
451.729	15.3
452.086	15.18
452.443	15.28
452.801	15.34
453.158	15.33
453.515	15.23
453.872	15.44
454.229	15.29
454.586	15.36
454.943	15.55
455.3	15.53
455.657	15.68
456.014	15.63
456.371	15.76
456.727	15.9
457.084	15.67
457.441	15.9
457.797	15.58
458.154	15.88
458.51	15.96
458.867	15.73
459.223	15.88
459.58	15.9
459.936	16.03
460.292	15.96
460.648	16.04
461.005	15.88
461.361	15.92
461.717	15.81
462.073	15.82
462.429	15.9
462.785	15.86
463.141	16.12
463.496	16.35
463.852	16.28
464.208	16.3
464.564	16.5
464.919	16.52
465.275	16.38
465.631	16.47
465.986	16.49
466.342	16.59
466.697	16.54
467.052	16.59
467.408	16.78
467.763	16.59
468.118	16.71
468.473	16.66
468.829	16.75
469.184	17.12
469.539	16.7
469.894	16.9
470.249	16.88
470.603	16.81
470.958	17.1
471.313	17
471.668	17.14
472.023	17.3
472.377	17.06
472.732	16.96
473.086	17.18
473.441	17.15
473.795	17.27
474.15	17.32
474.504	17.18
474.859	17.37
475.213	17.41
475.567	17.31
475.921	17.37
476.275	17.57
476.63	17.47
476.984	17.62
477.338	17.42
477.692	17.7
478.045	17.67
478.399	17.63
478.753	17.39
479.107	17.75
479.461	17.74
479.814	17.61
480.168	17.73
480.521	17.85
480.875	17.89
481.228	17.7
481.582	18
481.935	17.76
482.289	17.81
482.642	18.01
482.995	17.94
483.348	17.96
483.701	17.73
484.055	18
484.408	17.7
484.761	17.64
485.114	17.46
485.466	17.3
485.819	17.14
486.172	17.18
486.525	17.32
486.878	17.4
487.23	17.56
487.583	17.79
487.936	17.87
488.288	17.96
488.641	17.88
488.993	17.72
489.345	17.78
489.698	17.77
490.05	17.75
490.402	17.8
490.754	18.09
491.107	18.08
491.459	18.3
491.811	18.35
492.163	18.45
492.515	18.55
492.866	18.49
493.218	18.22
493.57	18.18
493.922	18.24
494.274	18.25
494.625	18.35
494.977	18.7
495.328	18.8
495.68	19.05
496.031	19.12
496.383	19.15
496.734	19.28
497.086	19.36
497.437	19.39
497.788	19.34
498.139	19.38
498.49	19.39
498.842	19.33
499.193	19.42
499.544	19.41
499.894	19.47
500.245	19.51
500.596	19.82
500.947	19.58
501.298	19.77
501.648	19.66
501.999	19.73
502.35	20.04
502.7	20.06
503.051	20.08
503.401	19.9
503.752	20.09
504.102	20.01
504.452	20.02
504.803	20.18
505.153	20.24
505.503	20.31
505.853	20.34
506.203	20.22
506.553	20.32
506.903	20.24
507.253	20.4
507.603	20.35
507.953	20.53
508.303	20.41
508.652	20.66
509.002	20.58
509.352	20.69
509.701	20.71
510.051	20.63
510.4	20.68
510.75	20.58
511.099	20.6
511.449	20.82
511.798	20.64
512.147	20.79
512.496	20.84
512.846	20.79
513.195	20.95
513.544	20.97
513.893	20.87
514.242	21.06
514.591	21.04
514.939	20.93
515.288	21.18
515.637	21.21
515.986	21.31
516.334	21.19
516.683	21.36
517.032	21.37
517.38	21.63
517.729	21.4
518.077	21.4
518.426	21.68
518.774	21.62
519.122	21.51
519.47	21.54
519.819	21.36
520.167	21.48
520.515	21.35
520.863	21.32
521.211	21.41
521.559	21.59
521.907	21.59
522.255	21.64
522.602	21.7
522.95	21.95
523.298	22.08
523.645	22.25
523.993	22.09
524.341	21.93
524.688	22.12
525.036	22.28
525.383	22.24
525.73	22.25
526.078	22.2
526.425	22.19
526.772	22.27
527.119	22.24
527.466	22.05
527.814	22.07
528.161	22.03
528.508	22.07
528.854	22.23
529.201	22.23
529.548	22.1
529.895	22.02
530.242	21.71
530.588	21.8
530.935	21.81
531.282	21.91
531.628	21.98
531.975	22.1
532.321	22.29
532.667	22.52
533.014	22.54
533.36	22.6
533.706	22.86
534.052	22.72
534.399	22.8
534.745	22.68
535.091	22.41
535.437	22.56
535.783	22.61
536.129	22.79
536.474	22.85
536.82	22.95
537.166	23.19
537.512	23.3
537.857	23.37
538.203	23.16
538.549	23.21
538.894	23.17
539.239	23.4
539.585	23.46
539.93	23.47
540.276	23.45
540.621	23.76
540.966	23.86
541.311	23.9
541.656	23.96
542.001	24.1
542.346	23.92
542.691	23.73
543.036	23.4
543.381	23.43
543.726	23.34
544.071	23.49
544.415	23.6
544.76	23.73
545.105	23.89
545.449	23.9
545.794	24.02
546.138	24.22
546.483	24.18
546.827	24.26
547.171	24.44
547.516	24.49
547.86	24.6
548.204	24.57
548.548	24.56
548.892	24.53
549.236	24.54
549.58	24.82
549.924	24.84
550.268	24.84
550.612	25.04
550.956	25.02
551.3	25.28
551.643	25.29
551.987	25.38
552.33	25.53
552.674	25.42
553.017	25.66
553.361	25.45
553.704	25.55
554.048	25.55
554.391	25.54
554.734	25.58
555.077	25.74
555.42	25.61
555.764	25.74
556.107	25.69
556.45	25.89
556.793	25.95
557.135	26.03
557.478	26.06
557.821	26.34
558.164	26.06
558.507	26.13
558.849	26.19
559.192	26.12
559.534	26.45
559.877	26.22
560.219	26.41
560.562	26.48
560.904	26.55
561.246	26.61
561.589	26.64
561.931	26.8
562.273	26.44
562.615	26.65
562.957	26.79
563.299	26.81
563.641	26.54
563.983	26.97
564.325	27.01
564.667	26.95
565.008	26.96
565.35	27.32
565.692	26.95
566.033	27.16
566.375	27.17
566.716	27.21
567.058	27.37
567.399	27.42
567.741	27.24
568.082	27.23
568.423	27.29
568.764	27.35
569.105	27.35
569.447	27.23
569.788	27.24
570.129	27.37
570.47	27.5
570.811	27.24
571.151	27.65
571.492	27.64
571.833	27.65
572.174	27.7
572.514	27.7
572.855	27.77
573.195	27.75
573.536	27.73
573.876	27.89
574.217	27.92
574.557	28.08
574.898	27.95
575.238	28.04
575.578	28.03
575.918	28.1
576.258	28.22
576.598	28.19
576.938	28.45
577.278	28.29
577.618	28.53
577.958	28.41
578.298	28.5
578.638	28.63
578.977	28.67
579.317	28.79
579.657	28.51
579.996	28.62
580.336	28.92
580.675	28.96
581.014	29.06
581.354	28.93
581.693	29.17
582.032	28.87
582.372	29.07
582.711	29
583.05	29.18
583.389	29.29
583.728	29.33
584.067	29.04
584.406	29.34
584.745	29.56
585.083	29.66
585.422	29.39
585.761	29.62
586.1	29.61
586.438	29.69
586.777	30
587.115	29.56
587.454	29.5
587.792	29.97
588.13	30.01
588.469	29.98
588.807	30.26
589.145	30.39
589.483	29.96
589.821	30.1
590.159	30.26
590.497	30.18
590.835	30.26
591.173	30.33
591.511	30.49
591.849	30.41
592.187	30.22
592.524	30.59
592.862	30.48
593.2	30.29
593.537	30.49
593.875	30.36
594.212	30.4
594.55	30.46
594.887	30.77
595.224	30.79
595.561	30.71
595.899	30.66
596.236	30.75
596.573	30.58
596.91	30.94
597.247	30.84
597.584	30.86
597.921	30.94
598.258	30.85
598.594	30.85
598.931	30.94
599.268	31.11
599.604	30.99
599.941	31.21
600.277	31.07
600.614	31.44
600.95	31.22
601.287	31.83
601.623	31.54
601.959	31.77
602.296	31.56
602.632	31.74
602.968	31.61
603.304	31.58
603.64	31.85
603.976	31.6
604.312	31.55
604.648	31.92
604.984	32.18
605.319	31.63
605.655	31.58
605.991	31.85
606.326	31.75
606.662	31.93
606.998	31.66
607.333	31.72
607.668	31.92
608.004	31.9
608.339	32.29
608.674	32.27
609.01	32.26
609.345	32.36
609.68	32.27
610.015	32.43
610.35	32.51
610.685	32.52
611.02	32.44
611.355	32.66
611.689	32.55
612.024	32.48
612.359	32.57
612.694	32.48
613.028	32.45
613.363	32.57
613.697	32.81
614.032	33.21
614.366	33.08
614.7	33.08
615.035	33.1
615.369	33.2
615.703	33.13
616.037	33.38
616.371	33.42
616.705	33.35
617.039	33.43
617.373	33.53
617.707	33.41
618.041	33.79
618.375	33.62
618.709	33.45
619.042	33.63
619.376	34.05
619.71	33.47
620.043	33.86
620.377	33.62
620.71	33.92
621.043	33.9
621.377	33.41
621.71	33.51
622.043	33.26
622.376	34.16
622.709	34.44
623.043	34.15
623.376	34.02
623.709	34.49
624.041	34.4
624.374	34.15
624.707	34.4
625.04	34.76
625.373	34.4
625.705	34.44
626.038	34.44
626.37	34.6
626.703	34.61
627.035	34.58
627.368	34.7
627.7	34.41
628.032	34.81
628.365	34.23
628.697	34.75
629.029	34.8
629.361	34.73
629.693	35.02
630.025	34.76
630.357	34.74
630.689	34.54
631.021	35.18
631.353	34.94
631.684	35.26
632.016	35.21
632.348	35.28
632.679	35.25
633.011	35.1
633.342	35.6
633.674	35.64
634.005	35.64
634.336	35.58
634.668	35.54
634.999	35.76
635.33	35.11
635.661	36.08
635.992	35.62
636.323	35.9
636.654	35.9
636.985	35.73
637.316	35.74
637.647	35.99
637.977	35.78
638.308	35.97
638.639	36.44
638.969	36.16
639.3	35.89
639.63	35.85
639.961	36.01
640.291	36.61
640.622	36.21
640.952	36.73
641.282	36.15
641.612	36.31
641.943	36.43
642.273	36.53
642.603	36.53
642.933	36.44
643.263	36.82
643.592	36.65
643.922	37.25
644.252	36.58
644.582	36.57
644.911	37.05
645.241	36.86
645.571	37.12
645.9	37.3
646.23	37.18
646.559	37.19
646.888	36.8
647.218	37.15
647.547	36.91
647.876	37.05
648.205	37.24
648.534	37.65
648.863	37.13
649.192	37.14
649.521	38.09
649.85	37.52
650.179	37.64
650.508	37.57
650.837	37.38
651.165	37.85
651.494	37.63
651.822	37.35
652.151	37.13
652.479	37.64
652.808	37.7
653.136	37.72
653.465	37.45
653.793	37.83
654.121	37.86
654.449	38.03
654.777	38.27
655.105	37.67
655.433	38.55
655.761	38.07
656.089	37.79
656.417	38.27
656.745	38.67
657.073	38.58
657.4	38.51
657.728	38.77
658.056	38.86
658.383	37.65
658.711	38.55
659.038	38.62
659.365	38.2
659.693	38.83
660.02	38.31
660.347	38.56
660.674	38.73
661.001	38.53
661.329	38.57
661.656	38.38
661.982	38.35
662.309	38.81
662.636	39.32
662.963	38.81
663.29	39.44
663.616	39.03
663.943	38.9
664.27	39.14
664.596	39.48
664.923	39.32
665.249	40.02
665.576	39.95
665.902	39.5
666.228	39.51
666.554	39.35
666.881	39.24
667.207	40.14
667.533	39.24
667.859	39.17
668.185	40
668.511	39.59
668.837	40.26
669.162	39.95
669.488	40.08
669.814	39.94
670.139	40.09
670.465	39.99
670.791	40.02
671.116	40.68
671.442	39.98
671.767	40.08
672.092	40.02
672.418	40.59
672.743	40.08
673.068	39.75
673.393	40.24
