Data from 0381_crown_Reflection__4__114.txt Node

Date: Mon Dec 11 18:58:35 CST 2023
User: ToomeyLab
Spectrometer: FLMS14357
Trigger mode: 0
Integration Time (sec): 1.000000E-2
Scans to average: 100
Electric dark correction enabled: true
Nonlinearity correction enabled: false
Boxcar width: 0
XAxis mode: Wavelengths
Number of Pixels in Spectrum: 2048
>>>>>Begin Spectral Data<<<<<
189.047	33.69
189.435	33.69
189.823	33.69
190.211	21.04
190.599	-195.93
190.987	-10.76
191.375	110.86
191.763	74.33
192.151	-60.75
192.538	175.19
192.926	10.44
193.314	95.29
193.702	551.05
194.089	88.34
194.477	395.36
194.864	989.5
195.252	-16.54
195.639	2604.7
196.027	774.15
196.414	41.76
196.801	19.81
197.189	281.92
197.576	58.21
197.963	-3.59
198.351	-51.81
198.738	-29.19
199.125	-115.72
199.512	-56.2
199.899	-23.24
200.286	-24.37
200.673	-76.13
201.06	-24.42
201.447	-7.14
201.833	-1.46
202.22	58
202.607	-10.74
202.994	20.91
203.38	-100.36
203.767	40.31
204.154	23.26
204.54	24.31
204.927	-120.45
205.313	-11.46
205.699	-69.81
206.086	-117.02
206.472	18.99
206.858	-33.75
207.245	-8.23
207.631	20.27
208.017	2.23
208.403	-10.3
208.789	-27.76
209.175	14.02
209.561	-23.77
209.947	-12.8
210.333	17.72
210.719	16.23
211.105	-6.54
211.491	0.14
211.876	21.5
212.262	-26.94
212.648	-3.04
213.034	-25.2
213.419	-18.66
213.805	3.17
214.19	-39.1
214.576	-37
214.961	-10.37
215.346	-34.65
215.732	1.18
216.117	16.28
216.502	3.39
216.888	0.43
217.273	9.73
217.658	3.64
218.043	4.58
218.428	14.12
218.813	-9.96
219.198	-17.66
219.583	21.64
219.968	0.56
220.353	-36.47
220.738	12.66
221.122	0.65
221.507	11.29
221.892	11.3
222.276	1.67
222.661	10.81
223.046	-1.42
223.43	-1.29
223.815	-0.11
224.199	-1.93
224.583	6.18
224.968	7.44
225.352	1.84
225.736	4.31
226.121	-1.22
226.505	-6.93
226.889	-2.11
227.273	3.69
227.657	10.44
228.041	4
228.425	-4.32
228.809	-1.47
229.193	3.32
229.577	2.7
229.961	2.53
230.344	2.9
230.728	2.99
231.112	2.97
231.495	3.62
231.879	3.84
232.263	2.94
232.646	2.25
233.03	3
233.413	2.87
233.797	3.46
234.18	2.37
234.563	1.59
234.946	2.82
235.33	5.8
235.713	2.94
236.096	3.2
236.479	3.84
236.862	1.03
237.245	0.78
237.628	2.45
238.011	1.67
238.394	4.16
238.777	1.68
239.16	1.9
239.543	2.29
239.925	1.92
240.308	2.22
240.691	1.64
241.073	2.88
241.456	4.01
241.838	4.75
242.221	4.56
242.603	2.05
242.986	2.62
243.368	3.06
243.75	3.07
244.133	3.12
244.515	2.86
244.897	2.88
245.279	3.01
245.661	3.76
246.043	3.65
246.425	2.76
246.807	2.23
247.189	2.94
247.571	1.91
247.953	3.22
248.335	2.86
248.717	3.19
249.098	3.19
249.48	3.19
249.862	3.14
250.243	3.36
250.625	2.97
251.006	2.56
251.388	2.65
251.769	4.05
252.151	3.27
252.532	2.01
252.913	2.9
253.295	3.27
253.676	3.24
254.057	2.87
254.438	3.39
254.819	2.93
255.2	1.97
255.581	2.32
255.962	2.94
256.343	3.6
256.724	3.29
257.105	2.52
257.486	2.45
257.867	2.95
258.247	2.76
258.628	2.19
259.009	3.68
259.389	3.65
259.77	2.9
260.15	2.36
260.531	2.77
260.911	2.65
261.292	2.89
261.672	2.99
262.052	3.09
262.432	2.81
262.813	2.98
263.193	2.61
263.573	2.72
263.953	2.94
264.333	2.66
264.713	3.15
265.093	2.29
265.473	3.92
265.853	3.56
266.233	1.96
266.612	2.82
266.992	3.07
267.372	3.41
267.752	3.44
268.131	3.1
268.511	2.46
268.89	2.8
269.27	3.27
269.649	3.1
270.029	3.27
270.408	3.21
270.787	2.83
271.167	1.67
271.546	2.77
271.925	2.62
272.304	3.21
272.683	2.77
273.062	2.47
273.441	2.56
273.82	2.38
274.199	2.62
274.578	2.63
274.957	3.03
275.336	3.18
275.715	3.16
276.093	3.59
276.472	3.02
276.851	3.17
277.229	2.77
277.608	3.17
277.986	3.43
278.365	2.41
278.743	3.21
279.122	3.2
279.5	3.49
279.878	2.66
280.257	2.33
280.635	2.96
281.013	2.33
281.391	2.4
281.769	2.7
282.147	2.84
282.525	2.91
282.903	3.06
283.281	2.65
283.659	2.88
284.037	2.71
284.415	3.02
284.792	3.14
285.17	2.92
285.548	2.8
285.925	2.74
286.303	2.85
286.68	2.87
287.058	2.58
287.435	3.04
287.813	3.25
288.19	2.83
288.567	2.67
288.945	3.09
289.322	2.66
289.699	2.64
290.076	2.47
290.453	3.06
290.83	3.39
291.207	2.74
291.584	2.93
291.961	3.07
292.338	2.75
292.715	3
293.092	2.64
293.469	2.75
293.845	3.13
294.222	3.7
294.599	2.7
294.975	2.19
295.352	2.72
295.728	2.81
296.105	3.24
296.481	2.37
296.858	2.37
297.234	3.01
297.61	2.91
297.986	3.57
298.363	3.1
298.739	3.07
299.115	3.09
299.491	3.16
299.867	3.07
300.243	3.15
300.619	3.13
300.995	3.1
301.371	2.67
301.746	2.74
302.122	3.06
302.498	3.37
302.874	3.31
303.249	3.26
303.625	3.28
304	2.82
304.376	3.28
304.751	3.01
305.127	3.6
305.502	3.53
305.878	3
306.253	3.25
306.628	3.31
307.003	3.32
307.378	2.74
307.754	3.22
308.129	2.85
308.504	2.9
308.879	3.01
309.254	3.24
309.629	3.69
310.003	3.22
310.378	3.22
310.753	3.47
311.128	3.25
311.502	2.92
311.877	3.07
312.252	3.38
312.626	3.35
313.001	3.28
313.375	3.01
313.75	3.25
314.124	3.42
314.498	2.87
314.873	2.98
315.247	3.33
315.621	3.45
315.995	3.19
316.369	3.46
316.743	3.38
317.117	3.46
317.491	3.75
317.865	3.13
318.239	3.66
318.613	3.56
318.987	2.65
319.361	3.97
319.734	2.87
320.108	3.58
320.482	3.16
320.855	2.99
321.229	3.11
321.602	3.37
321.976	3.42
322.349	3.14
322.723	3.46
323.096	3.87
323.469	3.86
323.843	3.58
324.216	4.08
324.589	3.97
324.962	3.65
325.335	3.68
325.708	3.38
326.081	3.39
326.454	3.74
326.827	3.52
327.2	3.17
327.573	2.75
327.945	3.96
328.318	3.53
328.691	3.29
329.063	3.16
329.436	3.24
329.809	3.01
330.181	3.63
330.553	3.87
330.926	3.26
331.298	3.42
331.671	3.41
332.043	3.79
332.415	3.71
332.787	3.54
333.159	3.27
333.532	3.25
333.904	3.25
334.276	4.12
334.648	3.86
335.02	3.24
335.391	3.17
335.763	3.36
336.135	3.66
336.507	3.43
336.879	3.31
337.25	3.4
337.622	3.05
337.993	3.68
338.365	3.35
338.736	3.86
339.108	3.84
339.479	3.71
339.851	3.32
340.222	3.8
340.593	3.51
340.964	3.6
341.336	3.96
341.707	3.27
342.078	3.59
342.449	3.55
342.82	3.17
343.191	3.79
343.562	3.54
343.933	3.42
344.303	3.3
344.674	3.64
345.045	3.71
345.416	3.19
345.786	3.52
346.157	3.44
346.527	3.08
346.898	3.35
347.268	3.45
347.639	3.27
348.009	3.56
348.38	3.28
348.75	3.2
349.12	3.76
349.49	3.42
349.861	3.14
350.231	3.37
350.601	3.62
350.971	3.5
351.341	3.13
351.711	3
352.081	3.26
352.45	3.26
352.82	3.19
353.19	3.61
353.56	3.61
353.929	3.49
354.299	4.03
354.669	3.72
355.038	3.38
355.408	3.32
355.777	3.56
356.147	3.8
356.516	3.29
356.885	3.32
357.254	3.77
357.624	3.22
357.993	3.22
358.362	3.59
358.731	3.29
359.1	3.38
359.469	3.28
359.838	3.34
360.207	3.26
360.576	3.29
360.945	3.72
361.314	3.49
361.682	3.33
362.051	3.32
362.42	3.18
362.788	3.29
363.157	3.26
363.525	3.24
363.894	3.29
364.262	3.34
364.631	3.57
364.999	3.18
365.367	3.45
365.735	3.46
366.104	3.18
366.472	3.57
366.84	3.28
367.208	3.16
367.576	3.51
367.944	3.54
368.312	3.51
368.68	3.52
369.048	3.08
369.416	3
369.783	3.52
370.151	3.59
370.519	4.28
370.886	3.46
371.254	3.81
371.621	3.18
371.989	3.38
372.356	3.69
372.724	3.6
373.091	3.63
373.458	3.19
373.826	3.74
374.193	3.48
374.56	3.81
374.927	3.53
375.294	3.27
375.661	3.47
376.028	3.89
376.395	3.84
376.762	3.41
377.129	3.69
377.496	3.54
377.863	3.66
378.229	3.64
378.596	3.57
378.963	3.89
379.329	3.7
379.696	3.69
380.062	3.46
380.429	3.38
380.795	3.69
381.161	3.38
381.528	3.71
381.894	3.62
382.26	3.34
382.626	3.58
382.993	3.58
383.359	3.63
383.725	3.57
384.091	3.73
384.457	3.47
384.823	3.69
385.188	3.57
385.554	3.44
385.92	3.66
386.286	3.65
386.651	3.79
387.017	3.48
387.383	3.51
387.748	3.64
388.114	3.47
388.479	3.48
388.845	3.41
389.21	3.54
389.575	3.72
389.94	3.76
390.306	3.88
390.671	3.71
391.036	3.54
391.401	3.58
391.766	3.45
392.131	3.73
392.496	3.84
392.861	3.77
393.226	3.82
393.591	3.68
393.956	3.69
394.32	3.71
394.685	3.46
395.05	3.62
395.414	3.69
395.779	3.72
396.143	3.52
396.508	3.67
396.872	3.56
397.236	3.63
397.601	3.6
397.965	3.59
398.329	3.64
398.694	3.37
399.058	3.55
399.422	3.68
399.786	3.68
400.15	3.71
400.514	3.84
400.878	3.55
401.242	3.66
401.605	3.74
401.969	3.58
402.333	3.75
402.697	3.58
403.06	3.75
403.424	3.92
403.787	4.04
404.151	3.51
404.514	3.54
404.878	3.69
405.241	3.7
405.604	3.68
405.968	3.71
406.331	3.45
406.694	3.53
407.057	3.79
407.42	3.94
407.783	3.66
408.146	3.82
408.509	3.52
408.872	3.59
409.235	3.66
409.598	3.8
409.961	4
410.323	3.94
410.686	3.81
411.049	3.82
411.411	3.69
411.774	3.68
412.136	3.77
412.499	3.83
412.861	3.68
413.223	3.83
413.586	3.76
413.948	3.93
414.31	3.87
414.672	3.24
415.035	3.73
415.397	3.74
415.759	4.04
416.121	3.85
416.483	3.66
416.845	3.7
417.206	3.9
417.568	3.89
417.93	3.94
418.292	3.65
418.653	3.76
419.015	3.58
419.377	3.86
419.738	3.8
420.1	3.7
420.461	3.76
420.822	3.75
421.184	3.76
421.545	3.74
421.906	3.67
422.267	3.7
422.629	3.71
422.99	3.75
423.351	3.69
423.712	3.64
424.073	3.7
424.434	3.68
424.795	3.8
425.155	3.7
425.516	3.75
425.877	3.75
426.238	3.7
426.598	3.78
426.959	3.68
427.32	3.78
427.68	3.91
428.041	3.73
428.401	3.81
428.761	3.94
429.122	3.87
429.482	3.89
429.842	3.83
430.202	3.8
430.563	3.86
430.923	3.79
431.283	3.88
431.643	4.05
432.003	3.86
432.363	4.07
432.722	4
433.082	3.98
433.442	3.89
433.802	3.84
434.161	4.14
434.521	3.79
434.881	3.85
435.24	3.8
435.6	3.9
435.959	3.9
436.319	3.89
436.678	3.91
437.037	3.88
437.396	3.97
437.756	3.94
438.115	4.04
438.474	4.01
438.833	3.98
439.192	3.84
439.551	3.99
439.91	4
440.269	4.1
440.628	3.7
440.987	4.05
441.345	3.92
441.704	3.92
442.063	3.9
442.421	3.8
442.78	3.9
443.138	3.94
443.497	3.95
443.855	3.81
444.214	3.98
444.572	4.02
444.93	3.99
445.288	4
445.647	4.07
446.005	3.81
446.363	4
446.721	3.89
447.079	3.87
447.437	3.95
447.795	3.89
448.153	4.07
448.51	4.02
448.868	3.86
449.226	3.84
449.584	3.98
449.941	4.05
450.299	3.99
450.656	4.04
451.014	4.05
451.371	3.83
451.729	4.04
452.086	4.03
452.443	3.97
452.801	4.01
453.158	4
453.515	3.87
453.872	4.01
454.229	4.04
454.586	3.99
454.943	3.98
455.3	4.04
455.657	4.19
456.014	4.07
456.371	4.24
456.727	4.15
457.084	4
457.441	4.15
457.797	4.24
458.154	4.05
458.51	4.31
458.867	3.88
459.223	3.99
459.58	3.89
459.936	4.15
460.292	4.1
460.648	4.17
461.005	4.01
461.361	4.01
461.717	4.01
462.073	3.96
462.429	4
462.785	4.1
463.141	4.05
463.496	4.18
463.852	4.07
464.208	4.08
464.564	4
464.919	4.29
465.275	4.19
465.631	4.03
465.986	4.25
466.342	4.29
466.697	4.15
467.052	4.18
467.408	4.18
467.763	4.28
468.118	4.13
468.473	4.16
468.829	4.38
469.184	4.17
469.539	4.25
469.894	4.16
470.249	4.23
470.603	4.19
470.958	4.36
471.313	4.17
471.668	4.39
472.023	4.27
472.377	4.1
472.732	4.17
473.086	4.37
473.441	4.32
473.795	4.26
474.15	4.18
474.504	4.19
474.859	4.33
475.213	4.2
475.567	4.18
475.921	4.2
476.275	4.16
476.63	4.18
476.984	4.15
477.338	4.04
477.692	4.43
478.045	4.26
478.399	4.29
478.753	4.15
479.107	4.16
479.461	4.21
479.814	4.23
480.168	4.27
480.521	4.51
480.875	4.2
481.228	4.32
481.582	4.5
481.935	4.33
482.289	4.34
482.642	4.28
482.995	4.32
483.348	4.21
483.701	4.12
484.055	4.25
484.408	4.17
484.761	4.24
485.114	4.15
485.466	4.05
485.819	3.94
486.172	4.01
486.525	4.02
486.878	4.14
487.23	4.14
487.583	4.16
487.936	4.2
488.288	4.25
488.641	4.15
488.993	4.04
489.345	4.14
489.698	4.13
490.05	4.09
490.402	4.15
490.754	4.16
491.107	4.22
491.459	4.2
491.811	4.27
492.163	4.36
492.515	4.32
492.866	4.31
493.218	4.13
493.57	4.17
493.922	4.13
494.274	4.19
494.625	4.26
494.977	4.39
495.328	4.37
495.68	4.39
496.031	4.34
496.383	4.24
496.734	4.32
497.086	4.38
497.437	4.43
497.788	4.38
498.139	4.26
498.49	4.42
498.842	4.41
499.193	4.4
499.544	4.38
499.894	4.39
500.245	4.38
500.596	4.49
500.947	4.54
501.298	4.49
501.648	4.38
501.999	4.43
502.35	4.43
502.7	4.6
503.051	4.42
503.401	4.51
503.752	4.44
504.102	4.43
504.452	4.45
504.803	4.54
505.153	4.54
505.503	4.57
505.853	4.6
506.203	4.45
506.553	4.54
506.903	4.34
507.253	4.69
507.603	4.51
507.953	4.52
508.303	4.39
508.652	4.49
509.002	4.49
509.352	4.58
509.701	4.52
510.051	4.51
510.4	4.47
510.75	4.47
511.099	4.49
511.449	4.48
511.798	4.44
512.147	4.62
512.496	4.54
512.846	4.54
513.195	4.65
513.544	4.63
513.893	4.47
514.242	4.6
514.591	4.53
514.939	4.57
515.288	4.62
515.637	4.59
515.986	4.61
516.334	4.52
516.683	4.66
517.032	4.64
517.38	4.68
517.729	4.5
518.077	4.61
518.426	4.8
518.774	4.62
519.122	4.62
519.47	4.64
519.819	4.52
520.167	4.52
520.515	4.48
520.863	4.46
521.211	4.65
521.559	4.59
521.907	4.64
522.255	4.51
522.602	4.61
522.95	4.75
523.298	4.64
523.645	4.74
523.993	4.67
524.341	4.66
524.688	4.68
525.036	4.65
525.383	4.6
525.73	4.75
526.078	4.59
526.425	4.6
526.772	4.71
527.119	4.64
527.466	4.66
527.814	4.66
528.161	4.6
528.508	4.66
528.854	4.59
529.201	4.53
529.548	4.54
529.895	4.55
530.242	4.48
530.588	4.42
530.935	4.45
531.282	4.48
531.628	4.53
531.975	4.58
532.321	4.62
532.667	4.62
533.014	4.61
533.36	4.59
533.706	4.83
534.052	4.71
534.399	4.69
534.745	4.68
535.091	4.55
535.437	4.56
535.783	4.69
536.129	4.68
536.474	4.73
536.82	4.74
537.166	4.69
537.512	4.72
537.857	4.84
538.203	4.71
538.549	4.8
538.894	4.8
539.239	4.82
539.585	4.76
539.93	4.65
540.276	4.88
540.621	4.86
540.966	4.85
541.311	4.78
541.656	4.85
542.001	4.86
542.346	4.78
542.691	4.73
543.036	4.66
543.381	4.61
543.726	4.62
544.071	4.75
544.415	4.79
544.76	4.73
545.105	4.72
545.449	4.73
545.794	4.67
546.138	4.73
546.483	4.79
546.827	4.88
547.171	4.89
547.516	4.77
547.86	4.79
548.204	4.88
548.548	4.89
548.892	4.93
549.236	4.85
549.58	5.04
549.924	5.02
550.268	4.92
550.612	4.86
550.956	4.8
551.3	5.01
551.643	4.94
551.987	4.94
552.33	5.24
552.674	5.15
553.017	4.99
553.361	4.92
553.704	4.92
554.048	5.03
554.391	5.06
554.734	5.02
555.077	5.09
555.42	5.17
555.764	5.03
556.107	5.12
556.45	5.11
556.793	4.91
557.135	5.02
557.478	4.97
557.821	4.99
558.164	4.94
558.507	4.88
558.849	5.07
559.192	4.9
559.534	5.04
559.877	5.11
560.219	5.11
560.562	5.12
560.904	5
561.246	5.01
561.589	5.14
561.931	5.21
562.273	5.07
562.615	5.1
562.957	5.08
563.299	5.19
563.641	4.89
563.983	5.34
564.325	5.3
564.667	5.13
565.008	5.36
565.35	5.13
565.692	5.17
566.033	5.2
566.375	5.28
566.716	5.12
567.058	5.04
567.399	5.15
567.741	5.08
568.082	5.22
568.423	5.16
568.764	5.07
569.105	5.11
569.447	5.19
569.788	5.07
570.129	5.19
570.47	5.11
570.811	5.03
571.151	5.21
571.492	5.33
571.833	5.21
572.174	5.26
572.514	5.21
572.855	5.03
573.195	5.21
573.536	5.09
573.876	5.04
574.217	5.17
574.557	5.07
574.898	5.29
575.238	5.31
575.578	5.14
575.918	5.19
576.258	5.01
576.598	5.2
576.938	5.37
577.278	5.34
577.618	5.13
577.958	5.2
578.298	5.35
578.638	5.23
578.977	5.35
579.317	5.18
579.657	5.31
579.996	5.21
580.336	5.34
580.675	5.24
581.014	5.27
581.354	5.18
581.693	5.51
582.032	4.84
582.372	5.23
582.711	4.97
583.05	5.32
583.389	5.38
583.728	5.37
584.067	5.2
584.406	5.33
584.745	5.55
585.083	5.38
585.422	5.38
585.761	5.36
586.1	5.39
586.438	5.3
586.777	5.42
587.115	5.03
587.454	5.38
587.792	5.23
588.13	5.68
588.469	5.43
588.807	5.25
589.145	5.71
589.483	5.41
589.821	5.19
590.159	5.49
590.497	5.48
590.835	5.42
591.173	5.43
591.511	5.53
591.849	5.43
592.187	5.37
592.524	5.65
592.862	5.52
593.2	5.49
593.537	5.33
593.875	5.48
594.212	5.44
594.55	5.37
594.887	5.55
595.224	5.54
595.561	5.45
595.899	5.23
596.236	5.37
596.573	5.3
596.91	5.26
597.247	5.48
597.584	5.21
597.921	5.32
598.258	5.47
598.594	5.45
598.931	5.25
599.268	5.45
599.604	5.71
599.941	5.57
600.277	5.42
600.614	5.53
600.95	5.43
601.287	5.49
601.623	5.52
601.959	5.81
602.296	5.76
602.632	5.69
602.968	5.58
603.304	5.54
603.64	5.55
603.976	5.62
604.312	5.32
604.648	5.59
604.984	5.72
605.319	5.32
605.655	5.52
605.991	5.41
606.326	5.45
606.662	5.36
606.998	5.42
607.333	5.58
607.668	5.64
608.004	5.51
608.339	5.67
608.674	5.73
609.01	5.57
609.345	5.58
609.68	5.63
610.015	5.68
610.35	5.62
610.685	5.37
611.02	5.33
611.355	5.6
611.689	5.73
612.024	5.41
612.359	5.55
612.694	5.53
613.028	5.63
613.363	5.42
613.697	5.53
614.032	5.64
614.366	5.87
614.7	5.65
615.035	5.79
615.369	5.86
615.703	5.79
616.037	5.55
616.371	5.83
616.705	6.16
617.039	6.18
617.373	5.63
617.707	5.74
618.041	5.62
618.375	5.85
618.709	5.81
619.042	5.57
619.376	6.01
619.71	5.71
620.043	5.75
620.377	5.83
620.71	5.99
621.043	5.47
621.377	5.16
621.71	5.65
622.043	5.7
622.376	6.05
622.709	5.87
623.043	6.07
623.376	5.87
623.709	5.77
624.041	6.01
624.374	5.48
624.707	6.04
625.04	6.19
625.373	5.68
625.705	5.91
626.038	5.77
626.37	5.99
626.703	6
627.035	5.99
627.368	5.88
627.7	5.78
628.032	5.95
628.365	5.92
628.697	5.89
629.029	6.07
629.361	5.81
629.693	5.9
630.025	5.76
630.357	5.77
630.689	5.33
631.021	5.65
631.353	5.83
631.684	5.88
632.016	6.05
632.348	5.96
632.679	6.51
633.011	5.84
633.342	5.89
633.674	6
634.005	6.04
634.336	6.32
634.668	6.28
634.999	6.21
635.33	6.09
635.661	6.49
635.992	6.24
636.323	5.85
636.654	6.22
636.985	5.82
637.316	6.02
637.647	6.07
637.977	6.03
638.308	5.99
638.639	5.67
638.969	5.88
639.3	6.21
639.63	5.68
639.961	6.17
640.291	6.11
640.622	5.97
640.952	6.42
641.282	6.12
641.612	6.66
641.943	6.17
642.273	5.9
642.603	6.13
642.933	5.76
643.263	5.82
643.592	5.89
643.922	6.33
644.252	5.99
644.582	6.19
644.911	6.29
645.241	6.22
645.571	6.53
645.9	6.03
646.23	6.36
646.559	6.09
646.888	5.56
647.218	6.22
647.547	5.77
647.876	6.17
648.205	6.32
648.534	5.74
648.863	6.59
649.192	6.3
649.521	6.1
649.85	6.08
650.179	5.98
650.508	6
650.837	5.62
651.165	5.96
651.494	6.17
651.822	6.19
652.151	6.78
652.479	6.41
652.808	6.32
653.136	5.69
653.465	6.1
653.793	6.24
654.121	6.36
654.449	6.09
654.777	6.55
655.105	6.26
655.433	6.3
655.761	6.33
656.089	6.13
656.417	6.23
656.745	6.93
657.073	7.13
657.4	6.91
657.728	6.48
658.056	6.9
658.383	6.18
658.711	6.05
659.038	6.52
659.365	6.48
659.693	6.75
660.02	6.55
660.347	6.42
660.674	6.4
661.001	6.12
661.329	6.32
661.656	6.36
661.982	6.16
662.309	6.93
662.636	6.34
662.963	6.46
663.29	6.37
663.616	6.28
663.943	6.15
664.27	6.33
664.596	6.82
664.923	6.45
665.249	6.16
665.576	6.38
665.902	6.21
666.228	6.12
666.554	6.53
666.881	6.14
667.207	6.52
667.533	6.29
667.859	6.39
668.185	6.52
668.511	6.57
668.837	7.14
669.162	6.16
669.488	6.63
669.814	5.88
670.139	6.54
670.465	6.69
670.791	6.3
671.116	6.85
671.442	6.77
671.767	6.8
672.092	6.18
672.418	6.32
672.743	5.97
673.068	6.19
673.393	6.13
673.718	6.42
674.043	6.7
674.368	6.76
674.693	6.96
675.018	7.21
675.343	5.71
675.667	7.12
675.992	6.59
676.317	6.6
676.641	6.71
676.966	7.29
677.29	6.74
677.615	7.76
677.939	6.47
678.264	6.54
678.588	7.08
678.912	7.28
679.236	6.3
679.56	7.02
679.885	6.74
680.209	6.75
680.532	7.03
680.856	7.19
681.18	6.66
681.504	7.2
681.828	6.71
682.152	6.34
682.475	6.58
682.799	6.57
683.122	6.57
683.446	6.14
683.769	7.14
684.093	6.53
684.416	6.97
684.739	7.34
685.062	6.84
685.386	6.88
685.709	6.98
686.032	6.87
686.355	6.54
686.678	7.24
687.001	6.94
687.324	6.51
687.646	6.7
687.969	6.56
688.292	7.62
688.614	7.52
688.937	7.11
689.26	6.58
689.582	7.05
689.904	6.98
690.227	7.02
690.549	7.55
690.871	7.23
691.194	6.49
691.516	6.67
691.838	6.66
692.16	7.74
692.482	6.82
