Data from 0381_chest_Reflection__2__106.txt Node

Date: Mon Dec 11 18:56:19 CST 2023
User: ToomeyLab
Spectrometer: FLMS14357
Trigger mode: 0
Integration Time (sec): 1.000000E-2
Scans to average: 100
Electric dark correction enabled: true
Nonlinearity correction enabled: false
Boxcar width: 0
XAxis mode: Wavelengths
Number of Pixels in Spectrum: 2048
>>>>>Begin Spectral Data<<<<<
189.047	-30.05
189.435	-30.05
189.823	-30.05
190.211	23.24
190.599	-207.5
190.987	166.22
191.375	3.9
191.763	170.02
192.151	246.2
192.538	-25.85
192.926	57.92
193.314	-55.45
193.702	-90.13
194.089	-939.92
194.477	213.4
194.864	-1201.83
195.252	0.16
195.639	-2024.16
196.027	-121.71
196.414	131.82
196.801	26.15
197.189	409.18
197.576	65.45
197.963	-94.31
198.351	-35.8
198.738	46.26
199.125	-26.83
199.512	34.58
199.899	-6.5
200.286	16.58
200.673	-93.25
201.06	44.02
201.447	-16.94
201.833	30.76
202.22	91.01
202.607	-8.75
202.994	-84.99
203.38	-73.96
203.767	52.23
204.154	30.84
204.54	19.8
204.927	-181.97
205.313	26.07
205.699	-83.47
206.086	-117.99
206.472	28.2
206.858	-1.42
207.245	14.25
207.631	14.48
208.017	-7.07
208.403	3.39
208.789	-26.86
209.175	31.02
209.561	4.26
209.947	18.69
210.333	-7.03
210.719	11.16
211.105	6.43
211.491	-2.52
211.876	12.84
212.262	-9.33
212.648	10.71
213.034	0.36
213.419	-14.58
213.805	19.98
214.19	-14.84
214.576	-2.35
214.961	-5.62
215.346	-12.27
215.732	11.43
216.117	15.79
216.502	-6.48
216.888	5.57
217.273	12.7
217.658	0.19
218.043	-26.94
218.428	5.74
218.813	5.35
219.198	-3.86
219.583	0.46
219.968	6.98
220.353	-16.11
220.738	30.01
221.122	12.6
221.507	14.28
221.892	2.4
222.276	-2.64
222.661	-0.42
223.046	13.53
223.43	7.44
223.815	-8.32
224.199	6.08
224.583	5.1
224.968	11.86
225.352	9.62
225.736	0.95
226.121	2.78
226.505	0.23
226.889	4.23
227.273	8.93
227.657	9.61
228.041	4.44
228.425	5.18
228.809	-0.06
229.193	4.25
229.577	2.79
229.961	3.92
230.344	4.19
230.728	4.8
231.112	4.51
231.495	5.22
231.879	5.27
232.263	2.73
232.646	3.33
233.03	4.17
233.413	3.19
233.797	4.77
234.18	4.11
234.563	5.36
234.946	3.31
235.33	5.36
235.713	1.57
236.096	4.4
236.479	5.16
236.862	3.85
237.245	2.87
237.628	4.13
238.011	4.79
238.394	5.28
238.777	3.57
239.16	3.76
239.543	5.14
239.925	4.31
240.308	3.54
240.691	4.01
241.073	4.53
241.456	4.84
241.838	5.97
242.221	3.54
242.603	2.76
242.986	3.81
243.368	3.3
243.75	3.77
244.133	4.4
244.515	3.42
244.897	4
245.279	3.5
245.661	3.53
246.043	4.21
246.425	4.77
246.807	4.75
247.189	4.14
247.571	3.05
247.953	3.37
248.335	4.19
248.717	4.03
249.098	3.96
249.48	4.06
249.862	4.16
250.243	4.16
250.625	4.22
251.006	3.75
251.388	4.21
251.769	4.54
252.151	5.32
252.532	4.21
252.913	3.89
253.295	5.06
253.676	3.48
254.057	4.08
254.438	4.19
254.819	3.55
255.2	2.92
255.581	3.65
255.962	3.57
256.343	3.05
256.724	4.28
257.105	3.32
257.486	2.95
257.867	2.89
258.247	4.02
258.628	4.43
259.009	5.24
259.389	3.97
259.77	3.49
260.15	3.41
260.531	3.91
260.911	3.5
261.292	3.42
261.672	3.85
262.052	3.76
262.432	3.69
262.813	3.95
263.193	3.89
263.573	3.9
263.953	3.71
264.333	3.44
264.713	3.96
265.093	3.48
265.473	3.75
265.853	3.79
266.233	3.61
266.612	4.37
266.992	3.77
267.372	4.39
267.752	3.91
268.131	3.9
268.511	3.29
268.89	4.4
269.27	4
269.649	3.99
270.029	3.64
270.408	3.21
270.787	3.64
271.167	3.3
271.546	3.33
271.925	3.44
272.304	3.58
272.683	3.43
273.062	3.3
273.441	3.48
273.82	3.51
274.199	3.62
274.578	3.59
274.957	3.6
275.336	3.58
275.715	3.31
276.093	4.44
276.472	3.97
276.851	4.25
277.229	3.84
277.608	3.82
277.986	4.06
278.365	3.39
278.743	3.46
279.122	4.07
279.5	3.92
279.878	3.99
280.257	3.49
280.635	3.91
281.013	3.47
281.391	4.1
281.769	3.05
282.147	3.31
282.525	3.37
282.903	3.92
283.281	3.92
283.659	3.14
284.037	3.46
284.415	3.39
284.792	3.73
285.17	3.79
285.548	3.69
285.925	3.01
286.303	3.63
286.68	3.28
287.058	3.62
287.435	3.8
287.813	3.68
288.19	3.42
288.567	3.07
288.945	3.82
289.322	3.21
289.699	3.52
290.076	3.53
290.453	3.81
290.83	3.77
291.207	3.46
291.584	3.53
291.961	4.06
292.338	3.8
292.715	3.57
293.092	3.39
293.469	3.75
293.845	3.5
294.222	3.93
294.599	3.83
294.975	2.76
295.352	3.49
295.728	3.38
296.105	3.26
296.481	3.2
296.858	3.47
297.234	3.79
297.61	3.94
297.986	3.59
298.363	3.53
298.739	3.78
299.115	3.62
299.491	3.74
299.867	3.56
300.243	3.86
300.619	3.57
300.995	3.15
301.371	3.55
301.746	3.13
302.122	3.58
302.498	3.69
302.874	3.6
303.249	3.6
303.625	3.51
304	3.84
304.376	3.57
304.751	3.12
305.127	3.83
305.502	3.54
305.878	3.68
306.253	4
306.628	4.06
307.003	3.74
307.378	3.47
307.754	3.55
308.129	3.61
308.504	3.55
308.879	3.36
309.254	3.63
309.629	4.08
310.003	3.7
310.378	3.6
310.753	3.92
311.128	3.74
311.502	3.43
311.877	3.38
312.252	3.8
312.626	3.73
313.001	3.9
313.375	3.33
313.75	3.76
314.124	3.78
314.498	3.74
314.873	3.42
315.247	3.37
315.621	4.01
315.995	4.05
316.369	3.98
316.743	4.16
317.117	3.66
317.491	3.66
317.865	3.47
318.239	3.89
318.613	3.53
318.987	3.83
319.361	4.35
319.734	3.6
320.108	3.67
320.482	3.57
320.855	3.79
321.229	3.55
321.602	3.98
321.976	4.71
322.349	3.63
322.723	3.43
323.096	4
323.469	4.28
323.843	4.31
324.216	3.85
324.589	3.75
324.962	3.4
325.335	3.46
325.708	3.46
326.081	4.07
326.454	3.82
326.827	3.6
327.2	3.41
327.573	3.89
327.945	3.83
328.318	3.44
328.691	3.9
329.063	3.75
329.436	3.91
329.809	3.26
330.181	4.23
330.553	4.1
330.926	3.68
331.298	4.15
331.671	3.85
332.043	3.75
332.415	4.15
332.787	3.98
333.159	3.91
333.532	4.14
333.904	3.91
334.276	4.32
334.648	4.02
335.02	3.88
335.391	3.76
335.763	3.88
336.135	4.25
336.507	3.75
336.879	3.9
337.25	3.77
337.622	3.08
337.993	3.69
338.365	4.16
338.736	4.29
339.108	4.31
339.479	3.72
339.851	3.73
340.222	3.75
340.593	3.38
340.964	4.11
341.336	3.96
341.707	3.79
342.078	4.33
342.449	3.89
342.82	3.69
343.191	3.45
343.562	3.88
343.933	3.67
344.303	3.73
344.674	3.91
345.045	3.99
345.416	3.36
345.786	4.16
346.157	3.73
346.527	4.21
346.898	3.83
347.268	3.62
347.639	3.88
348.009	3.86
348.38	3.68
348.75	3.61
349.12	3.91
349.49	3.64
349.861	3.67
350.231	3.58
350.601	3.98
350.971	4.1
351.341	3.68
351.711	3.71
352.081	4
352.45	3.88
352.82	3.04
353.19	3.86
353.56	3.92
353.929	3.77
354.299	4.07
354.669	4.15
355.038	3.92
355.408	3.49
355.777	3.95
356.147	4.06
356.516	3.93
356.885	3.9
357.254	3.99
357.624	3.81
357.993	3.61
358.362	3.72
358.731	3.56
359.1	4.04
359.469	3.85
359.838	3.93
360.207	3.47
360.576	3.61
360.945	4.17
361.314	3.94
361.682	3.73
362.051	3.9
362.42	3.85
362.788	3.76
363.157	4.07
363.525	3.51
363.894	3.94
364.262	3.69
364.631	3.81
364.999	3.72
365.367	4.09
365.735	3.98
366.104	3.79
366.472	4.09
366.84	4.13
367.208	3.74
367.576	4.16
367.944	3.97
368.312	3.7
368.68	3.95
369.048	4.02
369.416	3.56
369.783	3.49
370.151	4.12
370.519	4.15
370.886	3.81
371.254	4.13
371.621	4.11
371.989	4.12
372.356	3.96
372.724	4.28
373.091	4.18
373.458	3.7
373.826	3.95
374.193	3.73
374.56	4.1
374.927	4.12
375.294	4.16
375.661	4
376.028	4.15
376.395	4.15
376.762	3.9
377.129	4.01
377.496	3.9
377.863	4.29
378.229	4.02
378.596	4.04
378.963	3.87
379.329	3.97
379.696	3.95
380.062	3.69
380.429	3.69
380.795	4.29
381.161	4.12
381.528	4.44
381.894	3.98
382.26	3.96
382.626	3.83
382.993	4.26
383.359	4.21
383.725	3.92
384.091	3.89
384.457	3.72
384.823	4.39
385.188	4.07
385.554	3.67
385.92	3.92
386.286	4.17
386.651	3.65
387.017	4.03
387.383	4.04
387.748	4.02
388.114	3.89
388.479	4.12
388.845	3.85
389.21	4
389.575	3.95
389.94	4.22
390.306	4.21
390.671	3.82
391.036	4.25
391.401	4.08
391.766	4.11
392.131	4.04
392.496	4.27
392.861	4.18
393.226	4.08
393.591	4.26
393.956	4.1
394.32	4.29
394.685	4.04
395.05	4.08
395.414	4.23
395.779	4.05
396.143	3.8
396.508	4.16
396.872	4.23
397.236	4.08
397.601	4
397.965	4.36
398.329	4
398.694	4.14
399.058	4.01
399.422	4.36
399.786	4.29
400.15	3.99
400.514	4.08
400.878	3.94
401.242	3.91
401.605	4.1
401.969	4.14
402.333	3.99
402.697	3.98
403.06	4.09
403.424	4.04
403.787	4.44
404.151	3.95
404.514	3.9
404.878	4.36
405.241	4.05
405.604	4.32
405.968	4.16
406.331	3.98
406.694	4.14
407.057	4.11
407.42	4.18
407.783	4.05
408.146	4.2
408.509	3.93
408.872	4.09
409.235	4.04
409.598	4.06
409.961	4.28
410.323	4.2
410.686	4.26
411.049	4.41
411.411	4.14
411.774	4.32
412.136	3.93
412.499	4.36
412.861	4.12
413.223	4.09
413.586	4.39
413.948	4.23
414.31	4.06
414.672	3.86
415.035	4.22
415.397	4.25
415.759	4.12
416.121	4.15
416.483	4.18
416.845	4.17
417.206	3.98
417.568	4.33
417.93	4.16
418.292	4.28
418.653	4.09
419.015	4.01
419.377	4.27
419.738	4.22
420.1	4.23
420.461	4.14
420.822	4.12
421.184	4.1
421.545	4.04
421.906	4.07
422.267	4.13
422.629	3.97
422.99	4.05
423.351	4.05
423.712	4.14
424.073	4.14
424.434	4.11
424.795	4.11
425.155	4.16
425.516	4.05
425.877	3.98
426.238	4.16
426.598	4.12
426.959	4.04
427.32	4.15
427.68	4.18
428.041	4.03
428.401	4.06
428.761	4.13
429.122	4.05
429.482	4.27
429.842	4.41
430.202	4.16
430.563	4.31
430.923	4.16
431.283	4.36
431.643	4.38
432.003	4.33
432.363	4.44
432.722	4.24
433.082	4.32
433.442	4.45
433.802	4.3
434.161	4.32
434.521	4.11
434.881	4.39
435.24	4.32
435.6	4.17
435.959	4.23
436.319	4.33
436.678	4.23
437.037	4.25
437.396	4.29
437.756	4.28
438.115	4.25
438.474	4.32
438.833	4.34
439.192	4.45
439.551	4.41
439.91	4.24
440.269	4.48
440.628	4.12
440.987	4.39
441.345	4.32
441.704	4.33
442.063	4.21
442.421	4.19
442.78	4.22
443.138	4.26
443.497	4.24
443.855	4.28
444.214	4.41
444.572	4.4
444.93	4.39
445.288	4.31
445.647	4.38
446.005	4.08
446.363	4.32
446.721	4.31
447.079	4.23
447.437	4.35
447.795	4.22
448.153	4.33
448.51	4.26
448.868	4.2
449.226	4.18
449.584	4.3
449.941	4.3
450.299	4.31
450.656	4.26
451.014	4.33
451.371	4.22
451.729	4.43
452.086	4.44
452.443	4.51
452.801	4.36
453.158	4.37
453.515	4.27
453.872	4.44
454.229	4.42
454.586	4.33
454.943	4.52
455.3	4.42
455.657	4.45
456.014	4.48
456.371	4.44
456.727	4.6
457.084	4.48
457.441	4.52
457.797	4.4
458.154	4.41
458.51	4.61
458.867	4.15
459.223	4.47
459.58	4.39
459.936	4.64
460.292	4.53
460.648	4.37
461.005	4.43
461.361	4.33
461.717	4.26
462.073	4.34
462.429	4.43
462.785	4.37
463.141	4.31
463.496	4.47
463.852	4.36
464.208	4.28
464.564	4.54
464.919	4.52
465.275	4.35
465.631	4.5
465.986	4.67
466.342	4.53
466.697	4.63
467.052	4.49
467.408	4.64
467.763	4.46
468.118	4.48
468.473	4.35
468.829	4.55
469.184	4.73
469.539	4.53
469.894	4.42
470.249	4.48
470.603	4.45
470.958	4.72
471.313	4.57
471.668	4.72
472.023	4.56
472.377	4.67
472.732	4.52
473.086	4.53
473.441	4.69
473.795	4.68
474.15	4.63
474.504	4.66
474.859	4.73
475.213	4.62
475.567	4.55
475.921	4.57
476.275	4.48
476.63	4.67
476.984	4.6
477.338	4.41
477.692	4.66
478.045	4.64
478.399	4.5
478.753	4.35
479.107	4.56
479.461	4.47
479.814	4.53
480.168	4.6
480.521	4.77
480.875	4.6
481.228	4.5
481.582	4.77
481.935	4.62
482.289	4.58
482.642	4.61
482.995	4.59
483.348	4.54
483.701	4.46
484.055	4.46
484.408	4.43
484.761	4.59
485.114	4.42
485.466	4.34
485.819	4.28
486.172	4.27
486.525	4.32
486.878	4.41
487.23	4.44
487.583	4.5
487.936	4.47
488.288	4.56
488.641	4.44
488.993	4.43
489.345	4.45
489.698	4.41
490.05	4.39
490.402	4.38
490.754	4.47
491.107	4.44
491.459	4.53
491.811	4.6
492.163	4.67
492.515	4.62
492.866	4.68
493.218	4.44
493.57	4.47
493.922	4.47
494.274	4.55
494.625	4.57
494.977	4.66
495.328	4.65
495.68	4.73
496.031	4.69
496.383	4.58
496.734	4.7
497.086	4.75
497.437	4.73
497.788	4.78
498.139	4.6
498.49	4.72
498.842	4.69
499.193	4.67
499.544	4.75
499.894	4.76
500.245	4.73
500.596	4.87
500.947	4.7
501.298	4.9
501.648	4.75
501.999	4.73
502.35	4.86
502.7	4.83
503.051	4.77
503.401	4.8
503.752	4.87
504.102	4.79
504.452	4.8
504.803	4.99
505.153	4.84
505.503	4.93
505.853	4.85
506.203	4.83
506.553	4.97
506.903	4.79
507.253	4.88
507.603	4.86
507.953	4.91
508.303	4.93
508.652	4.93
509.002	4.88
509.352	4.97
509.701	4.85
510.051	4.97
510.4	4.84
510.75	4.91
511.099	4.9
511.449	4.84
511.798	4.87
512.147	5.02
512.496	4.91
512.846	4.99
513.195	5.07
513.544	4.87
513.893	4.94
514.242	5
514.591	4.93
514.939	4.9
515.288	5.07
515.637	4.99
515.986	4.94
516.334	5.1
516.683	4.97
517.032	5.11
517.38	5.12
517.729	4.98
518.077	5.08
518.426	5.09
518.774	5.07
519.122	5
519.47	5
519.819	4.86
520.167	5.05
520.515	4.92
520.863	4.91
521.211	4.98
521.559	5.13
521.907	4.99
522.255	5.05
522.602	5.15
522.95	5.09
523.298	5.2
523.645	5.35
523.993	5.06
524.341	5.21
524.688	5.09
525.036	5.13
525.383	5.15
525.73	5.26
526.078	5.11
526.425	5.15
526.772	5.08
527.119	5.14
527.466	5.03
527.814	5.13
528.161	5.08
528.508	5.16
528.854	5.13
529.201	5.09
529.548	5.19
529.895	5.06
530.242	5.03
530.588	5.01
530.935	5.04
531.282	5.02
531.628	5.07
531.975	5.16
532.321	5.19
532.667	5.22
533.014	5.14
533.36	5.25
533.706	5.29
534.052	5.28
534.399	5.26
534.745	5.29
535.091	5.17
535.437	5.16
535.783	5.2
536.129	5.27
536.474	5.31
536.82	5.38
537.166	5.41
537.512	5.35
537.857	5.43
538.203	5.44
538.549	5.44
538.894	5.39
539.239	5.46
539.585	5.55
539.93	5.54
540.276	5.52
540.621	5.51
540.966	5.64
541.311	5.54
541.656	5.59
542.001	5.69
542.346	5.53
542.691	5.45
543.036	5.4
543.381	5.39
543.726	5.44
544.071	5.52
544.415	5.51
544.76	5.5
545.105	5.58
545.449	5.52
545.794	5.57
546.138	5.66
546.483	5.69
546.827	5.81
547.171	5.75
547.516	5.77
547.86	5.84
548.204	5.84
548.548	5.71
548.892	5.85
549.236	5.75
549.58	5.88
549.924	5.85
550.268	5.82
550.612	5.92
550.956	5.84
551.3	5.94
551.643	5.97
551.987	6.17
552.33	6.14
552.674	6.19
553.017	6.15
553.361	5.82
553.704	6.01
554.048	6.12
554.391	5.88
554.734	6.11
555.077	6.23
555.42	6.2
555.764	6.16
556.107	6.19
556.45	6.24
556.793	6.2
557.135	6.31
557.478	6.14
557.821	6.15
558.164	6.17
558.507	6.12
558.849	6.49
559.192	6.34
559.534	6.34
559.877	6.34
560.219	6.52
560.562	6.55
560.904	6.42
561.246	6.49
561.589	6.57
561.931	6.56
562.273	6.25
562.615	6.48
562.957	6.46
563.299	6.64
563.641	6.33
563.983	6.72
564.325	6.83
564.667	6.79
565.008	6.8
565.35	6.85
565.692	6.72
566.033	6.64
566.375	6.92
566.716	6.71
567.058	6.79
567.399	6.78
567.741	6.77
568.082	6.63
568.423	6.86
568.764	6.75
569.105	6.84
569.447	7.01
569.788	6.83
570.129	6.68
570.47	6.88
570.811	6.77
571.151	6.99
571.492	7.03
571.833	6.94
572.174	7.03
572.514	7.07
572.855	6.9
573.195	7.09
573.536	7.03
573.876	7.16
574.217	7.11
574.557	6.99
574.898	7.34
575.238	7.38
575.578	7.31
575.918	7.32
576.258	7.42
576.598	7.37
576.938	7.35
577.278	7.23
577.618	7.45
577.958	7.37
578.298	7.55
578.638	7.79
578.977	7.47
579.317	7.48
579.657	7.58
579.996	7.44
580.336	7.57
580.675	7.59
581.014	7.6
581.354	7.46
581.693	7.92
582.032	7.4
582.372	7.8
582.711	7.57
583.05	7.74
583.389	7.73
583.728	7.85
584.067	7.67
584.406	7.93
584.745	7.87
585.083	7.96
585.422	8.11
585.761	8.21
586.1	8.03
586.438	8.02
586.777	8.07
587.115	7.99
587.454	8.04
587.792	7.91
588.13	8.39
588.469	8.26
588.807	8.63
589.145	8.43
589.483	8.31
589.821	7.98
590.159	8.12
590.497	8.31
590.835	8.42
591.173	8.37
591.511	8.56
591.849	8.59
592.187	8.47
592.524	8.62
592.862	8.64
593.2	8.56
593.537	8.58
593.875	8.53
594.212	8.42
594.55	8.74
594.887	8.8
595.224	8.67
595.561	8.57
595.899	8.45
596.236	8.79
596.573	8.74
596.91	8.6
597.247	8.89
597.584	8.72
597.921	8.6
598.258	8.92
598.594	8.87
598.931	8.95
599.268	9.04
599.604	9.07
599.941	9.2
600.277	8.84
600.614	9.28
600.95	8.92
601.287	9.24
601.623	9.15
601.959	9.44
602.296	9.22
602.632	9.13
602.968	9.13
603.304	9.6
603.64	9.53
603.976	9.71
604.312	9.31
604.648	9.47
604.984	9.85
605.319	9.36
605.655	9.49
605.991	9.31
606.326	9.63
606.662	9.64
606.998	9.53
607.333	9.64
607.668	9.72
608.004	9.52
608.339	9.87
608.674	10.04
609.01	10.01
609.345	10.03
609.68	9.9
610.015	10.1
610.35	9.92
610.685	9.8
611.02	10.1
611.355	10.15
611.689	10.01
612.024	9.98
612.359	10.27
612.694	10.34
613.028	9.94
613.363	10.33
613.697	10.24
614.032	10.36
614.366	10.46
614.7	10.09
615.035	10.51
615.369	10.68
615.703	10.53
616.037	10.72
616.371	10.72
616.705	10.71
617.039	10.89
617.373	10.68
617.707	10.82
618.041	10.67
618.375	10.93
618.709	10.82
619.042	10.6
619.376	11.21
619.71	10.6
620.043	10.72
620.377	10.8
620.71	11.14
621.043	10.91
621.377	10.59
621.71	10.9
622.043	11.14
622.376	11.1
622.709	11.28
623.043	11.08
623.376	11.07
623.709	11.37
624.041	11.46
624.374	11.47
624.707	11.09
625.04	12.04
625.373	11.56
625.705	11.6
626.038	11.72
626.37	11.73
626.703	11.75
627.035	11.57
627.368	11.47
627.7	11.66
628.032	11.85
628.365	11.7
628.697	11.61
629.029	12.09
629.361	11.66
629.693	11.79
630.025	11.56
630.357	11.69
630.689	11.69
631.021	11.93
631.353	11.81
631.684	12.19
632.016	12.19
632.348	12.02
632.679	12.41
633.011	12.05
633.342	12.43
633.674	12.46
634.005	12.34
634.336	12.15
634.668	12.32
634.999	12.67
635.33	12.36
635.661	12.25
635.992	12.28
636.323	12.28
636.654	12.3
636.985	12.69
637.316	12.49
637.647	12.5
637.977	12.66
638.308	12.5
638.639	12.59
638.969	12.87
639.3	12.68
639.63	12.47
639.961	12.79
640.291	13
640.622	12.71
640.952	13.47
641.282	12.77
641.612	12.97
641.943	13.01
642.273	13.29
642.603	12.77
642.933	13.27
643.263	13.11
643.592	13.61
643.922	13.33
644.252	12.97
644.582	13.21
644.911	13.46
645.241	13.32
645.571	13.3
645.9	13.32
646.23	13.62
646.559	13.54
646.888	13.29
647.218	13.91
647.547	13.36
647.876	13.84
648.205	13.51
648.534	13.73
648.863	14.09
649.192	13.99
649.521	13.9
649.85	13.61
650.179	14.05
650.508	13.88
650.837	13.66
651.165	14.38
651.494	14.24
651.822	13.94
652.151	14.46
652.479	14.42
652.808	13.97
653.136	13.61
653.465	14.34
653.793	14.32
654.121	14.41
654.449	14.7
654.777	14.51
655.105	14.36
655.433	14.73
655.761	14.81
656.089	14.21
656.417	14.57
656.745	14.86
657.073	14.17
657.4	14.68
657.728	14.5
658.056	15.2
658.383	14.72
658.711	14.9
659.038	14.78
659.365	14.74
659.693	15.1
660.02	14.44
660.347	14.77
660.674	14.89
661.001	14.93
661.329	15
661.656	15.22
661.982	15.06
662.309	14.89
662.636	15
662.963	15.7
663.29	15.03
663.616	14.9
663.943	15.24
664.27	15.12
664.596	15.65
664.923	15.58
665.249	15.4
665.576	15
665.902	15.25
666.228	16.05
666.554	15.77
666.881	15.26
667.207	16.1
667.533	15.26
667.859	15.79
668.185	15.86
668.511	16.11
668.837	15.88
669.162	15.55
669.488	15.83
669.814	16.08
670.139	15.68
670.465	16.43
670.791	15.73
671.116	16.01
671.442	16.48
671.767	16.29
672.092	16.72
672.418	16.44
672.743	16.11
673.068	16.2
673.393	16.22
673.718	15.92
674.043	16.68
674.368	17.1
674.693	16.38
675.018	17.43
675.343	16.22
675.667	16.75
675.992	16.9
676.317	16.77
676.641	17.17
676.966	17.06
677.29	16.71
677.615	17.32
677.939	16.54
678.264	16.97
678.588	17.62
678.912	16.94
679.236	16.84
679.56	17.24
679.885	17.1
680.209	17.45
680.532	17.38
680.856	17.14
681.18	17
681.504	16.65
681.828	17.09
682.152	17.2
682.475	17.36
682.799	17.41
683.122	16.71
683.446	16.82
683.769	17.36
684.093	17.38
684.416	17.24
684.739	17.79
685.062	17.82
685.386	17.7
685.709	17.79
686.032	18.11
686.355	17.93
686.678	18.18
687.001	17.2
687.324	17
687.646	17.36
