Data from 0381_crown_Reflection__3__113.txt Node

Date: Mon Dec 11 18:58:26 CST 2023
User: ToomeyLab
Spectrometer: FLMS14357
Trigger mode: 0
Integration Time (sec): 1.000000E-2
Scans to average: 100
Electric dark correction enabled: true
Nonlinearity correction enabled: false
Boxcar width: 0
XAxis mode: Wavelengths
Number of Pixels in Spectrum: 2048
>>>>>Begin Spectral Data<<<<<
189.047	61.59
189.435	61.59
189.823	61.59
190.211	18.44
190.599	-150.28
190.987	78.57
191.375	65.84
191.763	118.79
192.151	-29.76
192.538	96.36
192.926	135.77
193.314	16.9
193.702	342.47
194.089	10.77
194.477	278.2
194.864	764.84
195.252	50.27
195.639	-1360.4
196.027	920.09
196.414	34.81
196.801	63.45
197.189	650.61
197.576	53.72
197.963	-78.86
198.351	-86.2
198.738	13.69
199.125	-45.02
199.512	-36.63
199.899	-13.57
200.286	-8.91
200.673	-209.37
201.06	-15.84
201.447	13.07
201.833	29.39
202.22	12.3
202.607	-93.99
202.994	-39.35
203.38	-121.27
203.767	10.93
204.154	63.97
204.54	-31.58
204.927	-185.48
205.313	-2.75
205.699	-118.22
206.086	-14.66
206.472	-15.21
206.858	-13.05
207.245	-27.35
207.631	-45.12
208.017	-20.27
208.403	-5.21
208.789	-29.9
209.175	2.54
209.561	-30.91
209.947	-19.12
210.333	-7.01
210.719	41.11
211.105	-8.54
211.491	21.02
211.876	26.04
212.262	-68.12
212.648	-7.44
213.034	-40.86
213.419	2.94
213.805	-39.88
214.19	-38.96
214.576	-12.93
214.961	-8.1
215.346	-40.72
215.732	3.39
216.117	-3.64
216.502	-15.73
216.888	-4.3
217.273	14.72
217.658	0.58
218.043	-24.65
218.428	-2.79
218.813	11.03
219.198	-16.39
219.583	-26.89
219.968	-4.17
220.353	-22.99
220.738	20.98
221.122	-15.44
221.507	26.81
221.892	-6.33
222.276	5.55
222.661	-25.11
223.046	-4.89
223.43	6.62
223.815	-11.98
224.199	4.82
224.583	-6.32
224.968	0.25
225.352	2.13
225.736	7.41
226.121	2.39
226.505	-10.92
226.889	6.47
227.273	-1.72
227.657	4.29
228.041	-7.05
228.425	-2.25
228.809	-3.06
229.193	0.92
229.577	2.05
229.961	-0.19
230.344	1.23
230.728	0.8
231.112	1.01
231.495	1.95
231.879	1.18
232.263	0.05
232.646	-0.88
233.03	-0.22
233.413	1.27
233.797	1.94
234.18	0.37
234.563	1.13
234.946	-0.36
235.33	2.19
235.713	0.56
236.096	2.12
236.479	2.46
236.862	0.43
237.245	2.45
237.628	0.74
238.011	1.34
238.394	1.41
238.777	-0.11
239.16	0.59
239.543	0.79
239.925	-0.38
240.308	-0.8
240.691	1.27
241.073	1.41
241.456	1.39
241.838	3.32
242.221	3.1
242.603	0.41
242.986	1.62
243.368	0.94
243.75	1.1
244.133	1.51
244.515	1.02
244.897	1.26
245.279	1.51
245.661	0.91
246.043	0.99
246.425	1.21
246.807	1.67
247.189	1.32
247.571	1.23
247.953	0.79
248.335	1.49
248.717	1.62
249.098	1.51
249.48	1.48
249.862	1.74
250.243	2.04
250.625	1.17
251.006	1.17
251.388	1.66
251.769	1.49
252.151	2.63
252.532	0.39
252.913	0.6
253.295	2.05
253.676	1.22
254.057	1.53
254.438	1.59
254.819	1.01
255.2	1.14
255.581	0.33
255.962	0.13
256.343	1.05
256.724	1.95
257.105	0.18
257.486	-0.53
257.867	1.33
258.247	-0.48
258.628	1.08
259.009	2.01
259.389	2.17
259.77	1.05
260.15	0.92
260.531	1.59
260.911	1.09
261.292	1.08
261.672	1.61
262.052	1.42
262.432	1.67
262.813	1.47
263.193	0.96
263.573	1.67
263.953	1.76
264.333	0.92
264.713	1.29
265.093	1.46
265.473	1.5
265.853	0.69
266.233	0.76
266.612	1.45
266.992	1.57
267.372	2.51
267.752	1.07
268.131	1.65
268.511	0.98
268.89	1.99
269.27	1.74
269.649	1.38
270.029	1.49
270.408	1.16
270.787	1.32
271.167	0.3
271.546	0.88
271.925	0.86
272.304	1.2
272.683	1.09
273.062	0.92
273.441	1.4
273.82	0.78
274.199	1.08
274.578	1.44
274.957	1.59
275.336	1.27
275.715	0.82
276.093	1.91
276.472	1.51
276.851	1.75
277.229	1.69
277.608	0.88
277.986	1.94
278.365	1.27
278.743	0.88
279.122	1.48
279.5	1.66
279.878	0.91
280.257	0.78
280.635	1.32
281.013	0.89
281.391	1.92
281.769	1.15
282.147	0.96
282.525	1.02
282.903	1.88
283.281	1.62
283.659	0.96
284.037	0.79
284.415	1.26
284.792	1.5
285.17	1.28
285.548	1.47
285.925	1.23
286.303	1.54
286.68	1.05
287.058	1.48
287.435	1.57
287.813	1.78
288.19	1.17
288.567	1.31
288.945	1.65
289.322	1.15
289.699	1.06
290.076	1.2
290.453	1.4
290.83	1.75
291.207	1.56
291.584	1.55
291.961	1.39
292.338	1.55
292.715	1.91
293.092	1.39
293.469	1.33
293.845	0.8
294.222	1.77
294.599	0.67
294.975	0.95
295.352	0.95
295.728	1.4
296.105	1.55
296.481	1.38
296.858	0.95
297.234	1.44
297.61	1.61
297.986	1.61
298.363	1.39
298.739	1.99
299.115	1.62
299.491	1.8
299.867	1.67
300.243	1.7
300.619	1.44
300.995	1.29
301.371	1.46
301.746	1
302.122	1.23
302.498	2.19
302.874	2.14
303.249	1.85
303.625	1.52
304	1.56
304.376	1.6
304.751	1.17
305.127	1.65
305.502	1.8
305.878	1.49
306.253	2.06
306.628	1.97
307.003	1.53
307.378	1.5
307.754	2.24
308.129	1.92
308.504	1.65
308.879	1.22
309.254	1.82
309.629	2.26
310.003	1.96
310.378	1.36
310.753	1.76
311.128	1.88
311.502	1.59
311.877	1.76
312.252	1.73
312.626	2.04
313.001	1.59
313.375	1.48
313.75	1.4
314.124	1.6
314.498	1.89
314.873	1.7
315.247	1.89
315.621	2.43
315.995	1.89
316.369	1.52
316.743	2.48
317.117	1.8
317.491	2
317.865	1.77
318.239	1.49
318.613	1.86
318.987	1.64
319.361	2.21
319.734	1.68
320.108	1.46
320.482	1.86
320.855	1.7
321.229	1.64
321.602	2.3
321.976	2.5
322.349	1.55
322.723	1.62
323.096	2.3
323.469	2.09
323.843	2.18
324.216	1.91
324.589	2.59
324.962	1.82
325.335	2.36
325.708	2.24
326.081	2.31
326.454	2.13
326.827	2.14
327.2	1.89
327.573	2.11
327.945	2.11
328.318	2.05
328.691	2.05
329.063	2.26
329.436	1.97
329.809	2.1
330.181	2.4
330.553	1.84
330.926	2.08
331.298	2.4
331.671	1.81
332.043	2.38
332.415	2.42
332.787	2.21
333.159	2.34
333.532	1.96
333.904	2.26
334.276	2.45
334.648	2.31
335.02	1.96
335.391	2.31
335.763	2.2
336.135	2.16
336.507	2.2
336.879	2.44
337.25	2.04
337.622	1.96
337.993	1.83
338.365	1.73
338.736	2.28
339.108	2.34
339.479	1.81
339.851	2.04
340.222	1.94
340.593	2.1
340.964	2.22
341.336	2.01
341.707	2.13
342.078	2.48
342.449	1.87
342.82	2.01
343.191	2.16
343.562	2.05
343.933	2.08
344.303	1.93
344.674	2.67
345.045	2.43
345.416	2.01
345.786	2.19
346.157	2.08
346.527	2.25
346.898	2.22
347.268	2.17
347.639	1.91
348.009	2.43
348.38	1.82
348.75	1.76
349.12	2.14
349.49	2.15
349.861	1.79
350.231	2
350.601	2.48
350.971	1.94
351.341	1.37
351.711	2.19
352.081	2.36
352.45	2.09
352.82	1.68
353.19	2.45
353.56	2.08
353.929	2.05
354.299	2.2
354.669	2.13
355.038	2.07
355.408	1.85
355.777	2.82
356.147	2.36
356.516	2.4
356.885	2.25
357.254	2.12
357.624	2.26
357.993	1.77
358.362	2.34
358.731	1.92
359.1	1.87
359.469	2.03
359.838	2.03
360.207	2.2
360.576	2.32
360.945	2.27
361.314	2.4
361.682	2.25
362.051	2
362.42	2.2
362.788	1.99
363.157	2.04
363.525	1.7
363.894	2.15
364.262	2.33
364.631	2.33
364.999	2.17
365.367	2.62
365.735	2.21
366.104	2.21
366.472	2.45
366.84	2.09
367.208	2.01
367.576	2.7
367.944	2.29
368.312	2.29
368.68	1.87
369.048	2.31
369.416	1.88
369.783	2.41
370.151	2.54
370.519	2.54
370.886	2.26
371.254	2.51
371.621	2.27
371.989	2.25
372.356	2.27
372.724	2.68
373.091	2.56
373.458	2.14
373.826	2.33
374.193	2.45
374.56	2.57
374.927	2.43
375.294	2.67
375.661	2.28
376.028	2.17
376.395	2.28
376.762	2.43
377.129	2.56
377.496	2.38
377.863	2.23
378.229	2.33
378.596	2.26
378.963	2.53
379.329	2.17
379.696	2.48
380.062	1.91
380.429	1.97
380.795	2.34
381.161	2.15
381.528	2.21
381.894	2.5
382.26	2.35
382.626	2.42
382.993	2.38
383.359	2.43
383.725	2.15
384.091	2.49
384.457	2.17
384.823	2.43
385.188	2.48
385.554	1.97
385.92	2.13
386.286	2.39
386.651	2.43
387.017	2.29
387.383	2.3
387.748	2.23
388.114	2.4
388.479	2.29
388.845	2.16
389.21	2.35
389.575	2.51
389.94	2.53
390.306	2.33
390.671	2.19
391.036	2.4
391.401	2.58
391.766	2.2
392.131	2.26
392.496	2.44
392.861	2.8
393.226	2.62
393.591	2.45
393.956	2.42
394.32	2.49
394.685	2.2
395.05	2.48
395.414	2.83
395.779	2.15
396.143	2.33
396.508	2.44
396.872	2.48
397.236	2.35
397.601	2.17
397.965	2.68
398.329	2.51
398.694	2.47
399.058	2.28
399.422	2.43
399.786	2.31
400.15	2.36
400.514	2.58
400.878	2.37
401.242	2.26
401.605	2.41
401.969	2.27
402.333	2.29
402.697	2.51
403.06	2.44
403.424	2.41
403.787	2.73
404.151	2.26
404.514	2.33
404.878	2.64
405.241	2.26
405.604	2.42
405.968	2.51
406.331	2.16
406.694	2.22
407.057	2.16
407.42	2.6
407.783	2.35
408.146	2.39
408.509	2.42
408.872	2.44
409.235	2.31
409.598	2.6
409.961	2.53
410.323	2.62
410.686	2.35
411.049	2.51
411.411	2.54
411.774	2.51
412.136	2.36
412.499	2.68
412.861	2.52
413.223	2.5
413.586	2.59
413.948	2.52
414.31	2.34
414.672	2.2
415.035	2.38
415.397	2.41
415.759	2.4
416.121	2.3
416.483	2.44
416.845	2.68
417.206	2.43
417.568	2.56
417.93	2.59
418.292	2.46
418.653	2.36
419.015	2.33
419.377	2.28
419.738	2.36
420.1	2.51
420.461	2.49
420.822	2.42
421.184	2.38
421.545	2.39
421.906	2.48
422.267	2.56
422.629	2.37
422.99	2.51
423.351	2.24
423.712	2.34
424.073	2.4
424.434	2.38
424.795	2.56
425.155	2.45
425.516	2.34
425.877	2.2
426.238	2.45
426.598	2.45
426.959	2.41
427.32	2.44
427.68	2.52
428.041	2.3
428.401	2.37
428.761	2.49
429.122	2.38
429.482	2.46
429.842	2.48
430.202	2.55
430.563	2.45
430.923	2.59
431.283	2.45
431.643	2.74
432.003	2.6
432.363	2.53
432.722	2.61
433.082	2.56
433.442	2.45
433.802	2.43
434.161	2.59
434.521	2.36
434.881	2.56
435.24	2.27
435.6	2.42
435.959	2.5
436.319	2.37
436.678	2.47
437.037	2.52
437.396	2.55
437.756	2.5
438.115	2.64
438.474	2.6
438.833	2.4
439.192	2.5
439.551	2.62
439.91	2.54
440.269	2.64
440.628	2.31
440.987	2.76
441.345	2.49
441.704	2.47
442.063	2.64
442.421	2.55
442.78	2.48
443.138	2.5
443.497	2.51
443.855	2.5
444.214	2.61
444.572	2.53
444.93	2.66
445.288	2.47
445.647	2.49
446.005	2.48
446.363	2.59
446.721	2.54
447.079	2.42
447.437	2.49
447.795	2.48
448.153	2.6
448.51	2.62
448.868	2.41
449.226	2.44
449.584	2.53
449.941	2.49
450.299	2.52
450.656	2.55
451.014	2.61
451.371	2.38
451.729	2.72
452.086	2.68
452.443	2.87
452.801	2.59
453.158	2.61
453.515	2.51
453.872	2.7
454.229	2.55
454.586	2.5
454.943	2.71
455.3	2.72
455.657	2.63
456.014	2.58
456.371	2.62
456.727	2.67
457.084	2.68
457.441	2.81
457.797	2.53
458.154	2.65
458.51	2.82
458.867	2.36
459.223	2.62
459.58	2.49
459.936	2.63
460.292	2.63
460.648	2.69
461.005	2.52
461.361	2.51
461.717	2.55
462.073	2.61
462.429	2.65
462.785	2.6
463.141	2.61
463.496	2.79
463.852	2.54
464.208	2.59
464.564	2.73
464.919	2.68
465.275	2.61
465.631	2.44
465.986	2.7
466.342	2.72
466.697	2.64
467.052	2.63
467.408	2.71
467.763	2.74
468.118	2.52
468.473	2.54
468.829	2.84
469.184	2.9
469.539	2.71
469.894	2.49
470.249	2.65
470.603	2.6
470.958	2.77
471.313	2.6
471.668	2.7
472.023	2.9
472.377	2.65
472.732	2.72
473.086	2.83
473.441	2.73
473.795	2.6
474.15	2.57
474.504	2.75
474.859	2.77
475.213	2.79
475.567	2.86
475.921	2.64
476.275	2.64
476.63	2.68
476.984	2.62
477.338	2.62
477.692	2.7
478.045	2.73
478.399	2.61
478.753	2.42
479.107	2.7
479.461	2.74
479.814	2.6
480.168	2.67
480.521	2.92
480.875	2.68
481.228	2.65
481.582	2.72
481.935	2.72
482.289	2.73
482.642	2.67
482.995	2.82
483.348	2.6
483.701	2.51
484.055	2.69
484.408	2.67
484.761	2.6
485.114	2.54
485.466	2.51
485.819	2.45
486.172	2.48
486.525	2.5
486.878	2.6
487.23	2.58
487.583	2.66
487.936	2.67
488.288	2.65
488.641	2.56
488.993	2.55
489.345	2.56
489.698	2.56
490.05	2.55
490.402	2.58
490.754	2.62
491.107	2.64
491.459	2.64
491.811	2.7
492.163	2.75
492.515	2.73
492.866	2.62
493.218	2.55
493.57	2.54
493.922	2.53
494.274	2.6
494.625	2.66
494.977	2.72
495.328	2.69
495.68	2.88
496.031	2.75
496.383	2.7
496.734	2.69
497.086	2.74
497.437	2.88
497.788	2.84
498.139	2.61
498.49	2.78
498.842	2.75
499.193	2.76
499.544	2.57
499.894	2.67
500.245	2.78
500.596	2.78
500.947	2.62
501.298	2.83
501.648	2.78
501.999	2.78
502.35	2.86
502.7	2.73
503.051	2.66
503.401	2.76
503.752	2.76
504.102	2.71
504.452	2.71
504.803	2.84
505.153	2.78
505.503	2.84
505.853	2.86
506.203	2.68
506.553	2.73
506.903	2.62
507.253	2.82
507.603	2.75
507.953	2.84
508.303	2.65
508.652	2.75
509.002	2.75
509.352	2.9
509.701	2.79
510.051	2.77
510.4	2.79
510.75	2.68
511.099	2.75
511.449	2.86
511.798	2.81
512.147	2.86
512.496	2.81
512.846	2.8
513.195	2.95
513.544	2.8
513.893	2.75
514.242	2.79
514.591	2.68
514.939	2.75
515.288	2.88
515.637	2.79
515.986	2.85
516.334	2.84
516.683	2.95
517.032	2.79
517.38	2.87
517.729	2.83
518.077	2.96
518.426	2.94
518.774	2.84
519.122	2.81
519.47	2.83
519.819	2.73
520.167	2.77
520.515	2.69
520.863	2.75
521.211	2.83
521.559	2.8
521.907	2.79
522.255	2.64
522.602	2.79
522.95	2.87
523.298	2.8
523.645	2.84
523.993	2.83
524.341	2.86
524.688	2.8
525.036	2.82
525.383	2.91
525.73	2.81
526.078	2.96
526.425	2.84
526.772	2.69
527.119	2.8
527.466	2.78
527.814	2.74
528.161	2.72
528.508	2.77
528.854	2.75
529.201	2.74
529.548	2.73
529.895	2.68
530.242	2.72
530.588	2.63
530.935	2.66
531.282	2.73
531.628	2.75
531.975	2.78
532.321	2.79
532.667	2.8
533.014	2.79
533.36	2.81
533.706	2.87
534.052	2.85
534.399	2.83
534.745	2.76
535.091	2.7
535.437	2.68
535.783	2.77
536.129	2.85
536.474	2.87
536.82	2.8
537.166	2.81
537.512	2.79
537.857	2.84
538.203	2.77
538.549	2.81
538.894	2.84
539.239	2.92
539.585	2.92
539.93	2.85
540.276	2.9
540.621	2.9
540.966	2.91
541.311	2.87
541.656	2.97
542.001	3.01
542.346	2.96
542.691	2.74
543.036	2.8
543.381	2.72
543.726	2.73
544.071	2.81
544.415	2.83
544.76	2.82
545.105	2.87
545.449	2.85
545.794	2.88
546.138	2.8
546.483	2.93
546.827	2.98
547.171	2.9
547.516	2.85
547.86	3.01
548.204	2.96
548.548	2.82
548.892	2.84
549.236	2.88
549.58	2.94
549.924	2.97
550.268	2.92
550.612	2.92
550.956	2.93
551.3	2.88
551.643	3.02
551.987	3.09
552.33	3.13
552.674	3.17
553.017	2.95
553.361	2.9
553.704	2.89
554.048	3.01
554.391	2.94
554.734	2.87
555.077	3.09
555.42	3.07
555.764	2.93
556.107	3.07
556.45	2.99
556.793	2.88
557.135	3.04
557.478	2.94
557.821	2.9
558.164	3.15
558.507	3.03
558.849	3.1
559.192	3.05
559.534	2.97
559.877	3.18
560.219	2.97
560.562	3.21
560.904	3.03
561.246	3.17
561.589	2.99
561.931	3.14
562.273	2.93
562.615	2.94
562.957	3.03
563.299	3.1
563.641	2.96
563.983	3.02
564.325	3.15
564.667	3.29
565.008	3.03
565.35	3.26
565.692	3.05
566.033	3.09
566.375	3.34
566.716	3.11
567.058	2.99
567.399	3.02
567.741	3
568.082	3.04
568.423	3.01
568.764	2.98
569.105	3.01
569.447	3.06
569.788	3.03
570.129	3.2
570.47	2.93
570.811	2.96
571.151	3.12
571.492	3.17
571.833	3.14
572.174	3.19
572.514	2.94
572.855	2.89
573.195	3.09
573.536	3.09
573.876	2.94
574.217	2.97
574.557	2.92
574.898	3.13
575.238	3.22
575.578	3.17
575.918	3.17
576.258	3.19
576.598	3.1
576.938	3.21
577.278	2.98
577.618	3.01
577.958	3
578.298	3.26
578.638	3.18
578.977	3.24
579.317	3.11
579.657	3.04
579.996	2.8
580.336	3.21
580.675	3.32
581.014	3.21
581.354	3.14
581.693	3.23
582.032	2.78
582.372	3.34
582.711	3.04
583.05	3.19
583.389	3.04
583.728	3.24
584.067	2.99
584.406	3.13
584.745	3.16
585.083	3.09
585.422	3.21
585.761	3.19
586.1	3.2
586.438	3.2
586.777	3.22
587.115	2.79
587.454	3.08
587.792	3.07
588.13	3.09
588.469	3.15
588.807	3.35
589.145	3.18
589.483	3.31
589.821	2.87
590.159	3.21
590.497	3.15
590.835	3.13
591.173	3.05
591.511	3.34
591.849	3.27
592.187	3.11
592.524	3.11
592.862	3.16
593.2	3.14
593.537	3
593.875	3.36
594.212	3.23
594.55	2.98
594.887	3.24
595.224	3.06
595.561	3.12
595.899	2.97
596.236	3.16
596.573	3.19
596.91	3
597.247	3.27
597.584	2.92
597.921	2.93
598.258	3.2
598.594	3.22
598.931	2.96
599.268	3.06
599.604	3.27
599.941	3.33
600.277	3.14
600.614	3.55
600.95	3.11
601.287	3.18
601.623	3.22
601.959	3.34
602.296	3.39
602.632	3.03
602.968	3.23
603.304	3.28
603.64	3.26
603.976	3.33
604.312	3.47
604.648	3.22
604.984	3.26
605.319	3.03
605.655	3.15
605.991	3.05
606.326	3.25
606.662	3.16
606.998	3.12
607.333	3.28
607.668	3.23
608.004	3.04
608.339	3.36
608.674	3.29
609.01	3.16
609.345	3.23
609.68	3.43
610.015	3.28
610.35	3.58
610.685	3.28
611.02	3.15
611.355	3.36
611.689	3.28
612.024	3.05
612.359	3.25
612.694	3.25
613.028	3.25
613.363	3
613.697	3.29
614.032	3.17
614.366	3.35
614.7	3.28
615.035	3.61
615.369	3.47
615.703	3.12
616.037	3.04
616.371	3.27
616.705	3.38
617.039	3.57
617.373	3.28
617.707	3.39
618.041	3.32
618.375	3.49
618.709	3.32
619.042	3.31
619.376	3.74
619.71	3.17
620.043	3.18
620.377	3.5
620.71	3.39
621.043	3.32
621.377	2.88
621.71	3.25
622.043	2.88
622.376	3.34
622.709	3.27
623.043	3.33
623.376	3.25
623.709	3.46
624.041	3.22
624.374	3.47
624.707	3.23
625.04	3.64
625.373	3.16
625.705	3.11
626.038	3.36
626.37	3.84
626.703	3.72
627.035	3.29
627.368	3.36
627.7	3.35
628.032	3.24
628.365	3.55
628.697	3.44
629.029	3.51
629.361	3.18
629.693	3.25
630.025	3.17
630.357	3.22
630.689	2.93
631.021	3.09
631.353	3.3
631.684	3.56
632.016	3.52
632.348	3.65
632.679	3.55
633.011	3.51
633.342	3.31
633.674	3.46
634.005	3.62
634.336	3.71
634.668	3.34
634.999	3.73
635.33	3.37
635.661	3.52
635.992	3.49
636.323	3.52
636.654	3.59
636.985	3.43
637.316	3.14
637.647	3.8
637.977	3.34
638.308	3.45
638.639	3.18
638.969	3.41
639.3	3.27
639.63	3.54
639.961	3.71
640.291	3.91
640.622	3.7
640.952	3.7
641.282	3.42
641.612	3.8
641.943	3.22
642.273	3.56
642.603	3.39
642.933	3.59
643.263	3.9
643.592	3.28
643.922	3.76
644.252	2.97
644.582	3.42
644.911	3.39
645.241	3.41
645.571	3.8
645.9	3.56
646.23	3.43
646.559	3.51
646.888	3.59
647.218	3.74
647.547	3.5
647.876	3.3
648.205	3.26
648.534	3.61
648.863	3.5
649.192	3.11
649.521	3.97
649.85	3.61
650.179	3.37
650.508	3.49
650.837	3.35
651.165	3.97
651.494	3.6
651.822	3.25
652.151	3.81
652.479	3.64
652.808	3.85
653.136	3.47
653.465	3.68
653.793	3.52
654.121	3.67
654.449	3.71
654.777	3.63
655.105	3.53
655.433	3.71
655.761	3.72
656.089	3.44
656.417	3.63
656.745	3.41
657.073	3.7
657.4	3.53
657.728	3.86
658.056	4.12
658.383	3.81
658.711	4.05
659.038	3.9
659.365	3.61
659.693	3.78
660.02	3.74
660.347	3.91
660.674	3.14
661.001	3.55
661.329	3.91
661.656	3.76
661.982	3.59
662.309	3.84
662.636	3.71
662.963	4.01
663.29	3.71
663.616	3.25
663.943	3.54
664.27	3.61
664.596	3.81
664.923	3.74
665.249	3.37
665.576	3.05
665.902	3.51
666.228	3.48
666.554	3.39
666.881	3.49
667.207	3.95
667.533	3.64
667.859	3.15
668.185	3.76
668.511	3.4
668.837	3.97
669.162	3.87
669.488	4.13
669.814	4.01
670.139	3.9
670.465	3.82
670.791	3.68
671.116	3.8
671.442	4.22
671.767	3.96
672.092	3.21
672.418	3.64
672.743	3.2
673.068	3.15
673.393	3.58
673.718	3.63
674.043	4.19
674.368	3.51
674.693	3.3
675.018	3.72
675.343	3.55
675.667	3.46
675.992	4.35
676.317	4.17
676.641	3.88
676.966	4.13
677.29	2.71
677.615	4.64
677.939	3.1
678.264	3.3
678.588	4.29
678.912	3.74
679.236	3.72
679.56	3.33
679.885	3.6
680.209	3.65
680.532	4.53
680.856	4.09
681.18	4.16
681.504	3.35
681.828	3.42
682.152	3.34
682.475	4.23
682.799	3.62
683.122	4.09
683.446	2.98
683.769	3.56
684.093	3.96
684.416	3.68
684.739	3.91
685.062	4.6
685.386	3.73
685.709	3.18
686.032	3.99
686.355	3.42
686.678	4.4
687.001	4.44
687.324	3.15
687.646	3.57
687.969	4.64
688.292	4.08
688.614	4.21
688.937	3.54
689.26	3.35
689.582	3.62
689.904	3.68
690.227	3.86
690.549	3.57
690.871	3.39
691.194	3.36
691.516	3.3
691.838	3.11
692.16	4.53
