Data from 0381_crown_Reflection__2__112.txt Node

Date: Mon Dec 11 18:58:16 CST 2023
User: ToomeyLab
Spectrometer: FLMS14357
Trigger mode: 0
Integration Time (sec): 1.000000E-2
Scans to average: 100
Electric dark correction enabled: true
Nonlinearity correction enabled: false
Boxcar width: 0
XAxis mode: Wavelengths
Number of Pixels in Spectrum: 2048
>>>>>Begin Spectral Data<<<<<
189.047	-101.55
189.435	-101.55
189.823	-101.55
190.211	14.31
190.599	-347.01
190.987	35.77
191.375	129.68
191.763	169.59
192.151	-119.04
192.538	91.94
192.926	77.54
193.314	55.53
193.702	4.39
194.089	-204.31
194.477	316.92
194.864	392.69
195.252	21.09
195.639	872.48
196.027	92.76
196.414	90.35
196.801	167.47
197.189	324.43
197.576	30.57
197.963	-140.71
198.351	-6.99
198.738	13.48
199.125	-12.69
199.512	-19
199.899	-26.95
200.286	7.34
200.673	-324.46
201.06	4.49
201.447	-12.29
201.833	-0.03
202.22	34.53
202.607	5.11
202.994	-59.68
203.38	-0.93
203.767	31.6
204.154	25.62
204.54	-52.05
204.927	-199.92
205.313	-20.06
205.699	-118.83
206.086	-64.31
206.472	12.74
206.858	-1.71
207.245	14.28
207.631	-55.29
208.017	0.89
208.403	-13.25
208.789	-20.96
209.175	10.14
209.561	-29.55
209.947	-41.21
210.333	-11.65
210.719	25.81
211.105	-7.67
211.491	-6.5
211.876	8.73
212.262	-38.08
212.648	-1.22
213.034	6.39
213.419	-20.94
213.805	-33.72
214.19	10.74
214.576	-11.85
214.961	11.88
215.346	-5.5
215.732	-13.04
216.117	1.58
216.502	-8.23
216.888	3.56
217.273	5.74
217.658	5.66
218.043	-37.32
218.428	0.87
218.813	-11.71
219.198	-9.26
219.583	-7.03
219.968	-16.58
220.353	-8.52
220.738	3.2
221.122	-1.94
221.507	11.14
221.892	7.26
222.276	-23.77
222.661	-19.42
223.046	-14.65
223.43	0.74
223.815	-12.1
224.199	3.92
224.583	3.26
224.968	5.11
225.352	-2.02
225.736	-6.5
226.121	-4.79
226.505	-4
226.889	-2.32
227.273	3.15
227.657	7.3
228.041	1.98
228.425	-0.57
228.809	-5.69
229.193	1.74
229.577	2.05
229.961	1.3
230.344	1.32
230.728	0.32
231.112	0.46
231.495	1.14
231.879	0.88
232.263	-0.4
232.646	0.12
233.03	-0.86
233.413	-0.56
233.797	3.75
234.18	0.88
234.563	1.01
234.946	2.63
235.33	4.02
235.713	0.28
236.096	2.1
236.479	2.14
236.862	0.84
237.245	-0.2
237.628	0.57
238.011	1.85
238.394	2.25
238.777	-0.11
239.16	0.8
239.543	0.71
239.925	1.47
240.308	-0.9
240.691	1.55
241.073	0.77
241.456	1.53
241.838	3.26
242.221	1.58
242.603	0.48
242.986	0.96
243.368	0.82
243.75	1.44
244.133	1.87
244.515	1.1
244.897	1.42
245.279	1.53
245.661	1.5
246.043	0.87
246.425	1.26
246.807	2.13
247.189	0.9
247.571	1.03
247.953	0.97
248.335	1.56
248.717	1.2
249.098	1.31
249.48	1.24
249.862	1.37
250.243	1.59
250.625	0.96
251.006	0.53
251.388	1.34
251.769	1.29
252.151	1.94
252.532	1.48
252.913	1.5
253.295	1.54
253.676	1.14
254.057	1.2
254.438	1.34
254.819	0.74
255.2	0.47
255.581	0.32
255.962	0.61
256.343	1.22
256.724	2.33
257.105	0.71
257.486	0.1
257.867	1.2
258.247	-0.98
258.628	1.42
259.009	2.25
259.389	2.04
259.77	0.87
260.15	1.05
260.531	1.22
260.911	0.7
261.292	0.98
261.672	1.13
262.052	1.21
262.432	1.26
262.813	1.04
263.193	1.09
263.573	1.12
263.953	1.05
264.333	0.49
264.713	1.3
265.093	1.24
265.473	1.21
265.853	1.17
266.233	-0.41
266.612	0.8
266.992	1.56
267.372	1.87
267.752	1.58
268.131	1.08
268.511	0.73
268.89	1.9
269.27	1.46
269.649	1.12
270.029	1.3
270.408	1.24
270.787	0.79
271.167	0.49
271.546	0.66
271.925	0.82
272.304	1.26
272.683	0.95
273.062	1.07
273.441	0.77
273.82	1.33
274.199	1.22
274.578	1.5
274.957	1.47
275.336	0.83
275.715	1.1
276.093	1.97
276.472	1.6
276.851	1.91
277.229	1.24
277.608	1.34
277.986	1.18
278.365	0.78
278.743	0.97
279.122	0.9
279.5	0.78
279.878	1.39
280.257	1
280.635	1.42
281.013	0.78
281.391	1.39
281.769	0.95
282.147	0.88
282.525	0.47
282.903	1.17
283.281	1.16
283.659	0.63
284.037	0.65
284.415	0.72
284.792	1.44
285.17	0.89
285.548	0.94
285.925	0.42
286.303	0.95
286.68	0.94
287.058	1.28
287.435	1.27
287.813	1.52
288.19	1.35
288.567	1.21
288.945	1.3
289.322	0.74
289.699	1.01
290.076	1.02
290.453	1.6
290.83	1.68
291.207	0.97
291.584	1.3
291.961	1.16
292.338	1.26
292.715	1.53
293.092	1.4
293.469	1.44
293.845	1.09
294.222	1.55
294.599	0.84
294.975	1
295.352	0.67
295.728	1.26
296.105	1.11
296.481	0.86
296.858	1.06
297.234	1.39
297.61	1.6
297.986	1.43
298.363	1.18
298.739	1.21
299.115	1.41
299.491	1.35
299.867	1.39
300.243	1.38
300.619	1.12
300.995	1.1
301.371	1.15
301.746	0.93
302.122	1.54
302.498	1.66
302.874	1.41
303.249	1.7
303.625	1.26
304	1.12
304.376	1.3
304.751	1.03
305.127	1.25
305.502	1.29
305.878	1.27
306.253	1.33
306.628	1.48
307.003	1.36
307.378	1.44
307.754	1.82
308.129	1.59
308.504	0.66
308.879	1.06
309.254	1.64
309.629	1.47
310.003	1.38
310.378	1.52
310.753	1.68
311.128	1.22
311.502	0.92
311.877	1.31
312.252	1.27
312.626	1.2
313.001	1.56
313.375	1.16
313.75	1.31
314.124	1.39
314.498	1.53
314.873	1.34
315.247	1.23
315.621	2.02
315.995	1.88
316.369	1.36
316.743	1.86
317.117	1.42
317.491	1.3
317.865	1.49
318.239	1.57
318.613	1.35
318.987	1.16
319.361	2.3
319.734	1.06
320.108	1.24
320.482	1.14
320.855	1.23
321.229	1.79
321.602	1.38
321.976	2.08
322.349	1.48
322.723	1.4
323.096	2.05
323.469	2.25
323.843	1.19
324.216	2.01
324.589	1.68
324.962	1.47
325.335	1.76
325.708	1.27
326.081	2.22
326.454	1.61
326.827	1.42
327.2	1.38
327.573	1.1
327.945	1.86
328.318	1.65
328.691	1.51
329.063	1.48
329.436	1.73
329.809	1.68
330.181	2.04
330.553	1.55
330.926	1.81
331.298	1.72
331.671	1.66
332.043	2.34
332.415	1.62
332.787	2.09
333.159	1.72
333.532	1.28
333.904	1.44
334.276	1.59
334.648	2.03
335.02	1.11
335.391	1.48
335.763	1.91
336.135	1.99
336.507	1.93
336.879	2.33
337.25	1.66
337.622	1.47
337.993	1.81
338.365	1.45
338.736	2.04
339.108	1.8
339.479	1.38
339.851	1.83
340.222	1.72
340.593	0.93
340.964	1.66
341.336	1.71
341.707	1.54
342.078	1.69
342.449	1.66
342.82	1.06
343.191	1.56
343.562	1.64
343.933	1.82
344.303	1.37
344.674	1.8
345.045	1.43
345.416	1.63
345.786	2.06
346.157	1.91
346.527	1.71
346.898	2.06
347.268	1.67
347.639	1.72
348.009	2.26
348.38	1.73
348.75	1.65
349.12	2.28
349.49	1.8
349.861	1.13
350.231	1.53
350.601	2.09
350.971	1.86
351.341	1.16
351.711	1.93
352.081	1.42
352.45	1.72
352.82	0.89
353.19	1.38
353.56	1.59
353.929	1.27
354.299	1.91
354.669	1.81
355.038	1.68
355.408	1.18
355.777	1.83
356.147	2.12
356.516	1.65
356.885	1.91
357.254	1.38
357.624	1.65
357.993	1.38
358.362	1.87
358.731	1.74
359.1	1.28
359.469	1.78
359.838	1.7
360.207	1.6
360.576	1.72
360.945	2.16
361.314	2.21
361.682	1.63
362.051	1.74
362.42	1.83
362.788	1.41
363.157	1.77
363.525	1.45
363.894	1.77
364.262	1.78
364.631	1.86
364.999	1.76
365.367	1.87
365.735	1.77
366.104	1.46
366.472	1.72
366.84	1.34
367.208	1.67
367.576	1.98
367.944	1.76
368.312	1.62
368.68	1.56
369.048	1.56
369.416	1.29
369.783	1.91
370.151	1.86
370.519	2.17
370.886	1.53
371.254	1.89
371.621	1.87
371.989	2.07
372.356	2.2
372.724	2.1
373.091	2.05
373.458	1.79
373.826	2.16
374.193	1.88
374.56	1.86
374.927	1.89
375.294	2.01
375.661	1.71
376.028	1.85
376.395	2.02
376.762	1.98
377.129	2.26
377.496	1.74
377.863	1.75
378.229	2.06
378.596	1.75
378.963	2.03
379.329	1.71
379.696	2.02
380.062	1.89
380.429	1.54
380.795	2.04
381.161	1.94
381.528	1.79
381.894	1.69
382.26	1.89
382.626	1.67
382.993	2.08
383.359	1.82
383.725	1.67
384.091	1.9
384.457	1.87
384.823	2.07
385.188	1.82
385.554	1.57
385.92	1.76
386.286	1.9
386.651	1.99
387.017	1.77
387.383	1.85
387.748	1.88
388.114	1.96
388.479	1.71
388.845	1.99
389.21	1.86
389.575	1.81
389.94	1.85
390.306	2.03
390.671	1.92
391.036	1.79
391.401	1.87
391.766	1.71
392.131	2.03
392.496	2.25
392.861	1.94
393.226	2.03
393.591	2.15
393.956	1.89
394.32	1.87
394.685	1.65
395.05	2.01
395.414	2.07
395.779	1.76
396.143	1.65
396.508	1.69
396.872	1.83
397.236	1.63
397.601	1.95
397.965	1.79
398.329	1.91
398.694	1.81
399.058	1.9
399.422	2.04
399.786	1.88
400.15	2.09
400.514	2.13
400.878	1.92
401.242	1.84
401.605	1.99
401.969	1.78
402.333	1.77
402.697	1.94
403.06	1.88
403.424	2.08
403.787	2.25
404.151	1.86
404.514	1.89
404.878	2.02
405.241	2.05
405.604	1.94
405.968	1.69
406.331	1.73
406.694	1.87
407.057	1.9
407.42	2.24
407.783	2.09
408.146	1.91
408.509	1.98
408.872	1.79
409.235	1.82
409.598	2
409.961	2.04
410.323	2.13
410.686	2.02
411.049	2.01
411.411	1.9
411.774	1.91
412.136	1.95
412.499	2.13
412.861	1.86
413.223	1.87
413.586	2.08
413.948	2.13
414.31	2.04
414.672	1.71
415.035	2.02
415.397	1.76
415.759	2.13
416.121	2.03
416.483	2.06
416.845	1.96
417.206	2.03
417.568	2.13
417.93	1.99
418.292	1.89
418.653	1.8
419.015	1.83
419.377	2.04
419.738	1.97
420.1	1.96
420.461	1.99
420.822	1.98
421.184	1.86
421.545	1.86
421.906	1.86
422.267	1.94
422.629	1.82
422.99	1.93
423.351	1.82
423.712	1.88
424.073	1.92
424.434	1.87
424.795	1.93
425.155	1.93
425.516	1.92
425.877	1.85
426.238	1.93
426.598	1.95
426.959	1.87
427.32	1.97
427.68	2.01
428.041	1.83
428.401	1.83
428.761	1.96
429.122	1.9
429.482	2.06
429.842	2.05
430.202	1.99
430.563	1.98
430.923	2.1
431.283	1.91
431.643	2.08
432.003	2
432.363	2.01
432.722	1.91
433.082	1.94
433.442	1.91
433.802	1.83
434.161	2.12
434.521	1.79
434.881	2.03
435.24	1.97
435.6	1.97
435.959	1.9
436.319	1.89
436.678	1.98
437.037	1.95
437.396	2.11
437.756	2.09
438.115	2.2
438.474	2.04
438.833	2.01
439.192	2.04
439.551	2.13
439.91	2.05
440.269	2.17
440.628	1.93
440.987	2.34
441.345	2.05
441.704	2.07
442.063	1.91
442.421	1.91
442.78	2.02
443.138	1.94
443.497	1.89
443.855	1.91
444.214	2.01
444.572	1.86
444.93	2.03
445.288	2.14
445.647	2.15
446.005	1.94
446.363	2.06
446.721	2.07
447.079	2.03
447.437	2.04
447.795	1.99
448.153	2.11
448.51	2.1
448.868	1.96
449.226	1.8
449.584	2.05
449.941	2.06
450.299	1.99
450.656	1.96
451.014	2.01
451.371	1.94
451.729	2.2
452.086	2.07
452.443	2.1
452.801	1.97
453.158	2.05
453.515	1.96
453.872	2.11
454.229	2.08
454.586	1.96
454.943	2.07
455.3	2
455.657	2.17
456.014	2.11
456.371	2.19
456.727	2.04
457.084	2.19
457.441	2.2
457.797	2.05
458.154	1.95
458.51	2.25
458.867	1.83
459.223	1.85
459.58	2.01
459.936	2.13
460.292	2.12
460.648	2.09
461.005	2.1
461.361	2
461.717	2.04
462.073	1.98
462.429	2.03
462.785	2.02
463.141	1.99
463.496	2.22
463.852	2.16
464.208	2.16
464.564	2.13
464.919	2.09
465.275	1.89
465.631	2.14
465.986	2.26
466.342	2.22
466.697	1.92
467.052	2.05
467.408	2.18
467.763	2.12
468.118	2.08
468.473	1.93
468.829	2.08
469.184	2.3
469.539	2.17
469.894	2.1
470.249	2.19
470.603	2.11
470.958	2.25
471.313	2.12
471.668	2.24
472.023	2.2
472.377	2.13
472.732	2.14
473.086	2.12
473.441	2.16
473.795	2.17
474.15	2.06
474.504	2.1
474.859	2.2
475.213	2.26
475.567	2.1
475.921	2
476.275	2.2
476.63	2.11
476.984	1.97
477.338	2.05
477.692	2.2
478.045	2.18
478.399	2.16
478.753	2.01
479.107	2.13
479.461	2.18
479.814	2.02
480.168	2.19
480.521	2.25
480.875	2.11
481.228	2.16
481.582	2.32
481.935	2.18
482.289	2.14
482.642	2.1
482.995	2.1
483.348	2.08
483.701	1.91
484.055	2.1
484.408	2.06
484.761	2.06
485.114	2.04
485.466	2.02
485.819	1.91
486.172	1.96
486.525	1.98
486.878	2.03
487.23	2.02
487.583	2.05
487.936	2.07
488.288	2.1
488.641	1.97
488.993	2
489.345	2.07
489.698	2
490.05	2.03
490.402	2.01
490.754	2.08
491.107	2.1
491.459	2.07
491.811	2.12
492.163	2.14
492.515	2.08
492.866	2.13
493.218	1.98
493.57	2.01
493.922	2.06
494.274	2.08
494.625	2.08
494.977	2.21
495.328	2.15
495.68	2.25
496.031	2.12
496.383	2.1
496.734	2.23
497.086	2.28
497.437	2.2
497.788	2.11
498.139	2.15
498.49	2.21
498.842	2.28
499.193	2.26
499.544	2.14
499.894	2.15
500.245	2.13
500.596	2.19
500.947	2.23
501.298	2.29
501.648	2.16
501.999	2.13
502.35	2.2
502.7	2.31
503.051	2.28
503.401	2.14
503.752	2.13
504.102	2.26
504.452	2.13
504.803	2.33
505.153	2.21
505.503	2.29
505.853	2.25
506.203	2.19
506.553	2.29
506.903	2.13
507.253	2.28
507.603	2.22
507.953	2.11
508.303	2.21
508.652	2.29
509.002	2.19
509.352	2.29
509.701	2.18
510.051	2.2
510.4	2.11
510.75	2.24
511.099	2.25
511.449	2.24
511.798	2.19
512.147	2.27
512.496	2.13
512.846	2.25
513.195	2.33
513.544	2.22
513.893	2.08
514.242	2.22
514.591	2.18
514.939	2.16
515.288	2.23
515.637	2.18
515.986	2.17
516.334	2.2
516.683	2.3
517.032	2.25
517.38	2.16
517.729	2.11
518.077	2.23
518.426	2.33
518.774	2.29
519.122	2.32
519.47	2.09
519.819	2.2
520.167	2.23
520.515	2.27
520.863	2.12
521.211	2.28
521.559	2.24
521.907	2.22
522.255	2.13
522.602	2.14
522.95	2.24
523.298	2.27
523.645	2.41
523.993	2.23
524.341	2.29
524.688	2.17
525.036	2.21
525.383	2.26
525.73	2.34
526.078	2.3
526.425	2.24
526.772	2.18
527.119	2.21
527.466	2.22
527.814	2.22
528.161	2.16
528.508	2.23
528.854	2.14
529.201	2.17
529.548	2.16
529.895	2.11
530.242	2.19
530.588	2.1
530.935	2.11
531.282	2.16
531.628	2.21
531.975	2.24
532.321	2.21
532.667	2.22
533.014	2.16
533.36	2.27
533.706	2.29
534.052	2.25
534.399	2.2
534.745	2.23
535.091	2.17
535.437	2.13
535.783	2.16
536.129	2.27
536.474	2.25
536.82	2.23
537.166	2.26
537.512	2.28
537.857	2.32
538.203	2.22
538.549	2.24
538.894	2.22
539.239	2.32
539.585	2.29
539.93	2.2
540.276	2.39
540.621	2.29
540.966	2.39
541.311	2.24
541.656	2.25
542.001	2.34
542.346	2.26
542.691	2.23
543.036	2.21
543.381	2.08
543.726	2.2
544.071	2.24
544.415	2.21
544.76	2.23
545.105	2.24
545.449	2.25
545.794	2.26
546.138	2.26
546.483	2.21
546.827	2.37
547.171	2.27
547.516	2.27
547.86	2.41
548.204	2.41
548.548	2.22
548.892	2.21
549.236	2.25
549.58	2.39
549.924	2.41
550.268	2.24
550.612	2.4
550.956	2.35
551.3	2.28
551.643	2.4
551.987	2.43
552.33	2.37
552.674	2.45
553.017	2.3
553.361	2.08
553.704	2.25
554.048	2.44
554.391	2.18
554.734	2.38
555.077	2.44
555.42	2.43
555.764	2.4
556.107	2.49
556.45	2.37
556.793	2.24
557.135	2.54
557.478	2.39
557.821	2.34
558.164	2.47
558.507	2.22
558.849	2.42
559.192	2.3
559.534	2.4
559.877	2.42
560.219	2.23
560.562	2.54
560.904	2.34
561.246	2.43
561.589	2.27
561.931	2.37
562.273	2.32
562.615	2.36
562.957	2.46
563.299	2.6
563.641	2.41
563.983	2.5
564.325	2.63
564.667	2.55
565.008	2.51
565.35	2.67
565.692	2.52
566.033	2.37
566.375	2.55
566.716	2.44
567.058	2.41
567.399	2.47
567.741	2.38
568.082	2.44
568.423	2.31
568.764	2.33
569.105	2.38
569.447	2.49
569.788	2.5
570.129	2.45
570.47	2.27
570.811	2.29
571.151	2.35
571.492	2.46
571.833	2.37
572.174	2.47
572.514	2.39
572.855	2.32
573.195	2.46
573.536	2.32
573.876	2.51
574.217	2.39
574.557	2.38
574.898	2.42
575.238	2.54
575.578	2.45
575.918	2.49
576.258	2.47
576.598	2.54
576.938	2.59
577.278	2.53
577.618	2.51
577.958	2.55
578.298	2.56
578.638	2.66
578.977	2.62
579.317	2.44
579.657	2.31
579.996	2.33
580.336	2.6
580.675	2.57
581.014	2.46
581.354	2.32
581.693	2.67
582.032	2.29
582.372	2.68
582.711	2.42
583.05	2.54
583.389	2.58
583.728	2.7
584.067	2.48
584.406	2.56
584.745	2.59
585.083	2.59
585.422	2.56
585.761	2.7
586.1	2.59
586.438	2.43
586.777	2.54
587.115	2.46
587.454	2.57
587.792	2.46
588.13	2.78
588.469	2.36
588.807	2.62
589.145	2.61
589.483	2.63
589.821	2.31
590.159	2.48
590.497	2.47
590.835	2.43
591.173	2.42
591.511	2.72
591.849	2.5
592.187	2.32
592.524	2.62
592.862	2.45
593.2	2.49
593.537	2.46
593.875	2.66
594.212	2.48
594.55	2.65
594.887	2.51
595.224	2.8
595.561	2.53
595.899	2.55
596.236	2.63
596.573	2.36
596.91	2.31
597.247	2.62
597.584	2.45
597.921	2.45
598.258	2.41
598.594	2.45
598.931	2.37
599.268	2.63
599.604	2.57
599.941	2.71
600.277	2.37
600.614	2.68
600.95	2.49
601.287	2.69
601.623	2.67
601.959	2.64
602.296	2.64
602.632	2.61
602.968	2.47
603.304	2.52
603.64	2.48
603.976	2.75
604.312	2.49
604.648	2.38
604.984	2.83
605.319	2.54
605.655	2.59
605.991	2.41
606.326	2.61
606.662	2.52
606.998	2.46
607.333	2.52
607.668	2.58
608.004	2.31
608.339	2.64
608.674	2.81
609.01	2.58
609.345	2.65
609.68	2.44
610.015	2.66
610.35	2.67
610.685	2.59
611.02	2.76
611.355	2.69
611.689	2.52
612.024	2.42
612.359	2.48
612.694	2.77
613.028	2.5
613.363	2.47
613.697	2.67
614.032	2.59
614.366	2.48
614.7	2.55
615.035	2.57
615.369	2.75
615.703	2.68
616.037	2.44
616.371	2.61
616.705	2.72
617.039	2.62
617.373	2.63
617.707	2.82
618.041	2.71
618.375	2.71
618.709	2.34
619.042	2.48
619.376	2.85
619.71	2.67
620.043	2.57
620.377	2.5
620.71	2.54
621.043	2.59
621.377	2.22
621.71	2.76
622.043	2.36
622.376	2.86
622.709	3.07
623.043	2.69
623.376	2.63
623.709	2.7
624.041	2.74
624.374	2.52
624.707	2.75
625.04	2.87
625.373	2.9
625.705	2.65
626.038	2.42
626.37	3.03
626.703	2.52
627.035	2.79
627.368	2.54
627.7	2.51
628.032	2.79
628.365	2.82
628.697	2.65
629.029	2.79
629.361	2.58
629.693	2.55
630.025	2.48
630.357	2.45
630.689	2.54
631.021	2.93
631.353	2.39
631.684	2.65
632.016	2.81
632.348	2.68
632.679	3.1
633.011	2.54
633.342	2.92
633.674	3.21
634.005	2.47
634.336	2.69
634.668	2.73
634.999	2.74
635.33	2.74
635.661	2.59
635.992	2.83
636.323	2.94
636.654	2.78
636.985	2.42
637.316	2.3
637.647	2.91
637.977	2.95
638.308	2.82
638.639	2.66
638.969	2.84
639.3	3.09
639.63	2.73
639.961	2.84
640.291	3.22
640.622	2.75
640.952	3.13
641.282	2.38
641.612	3.04
641.943	2.69
642.273	2.87
642.603	2.84
642.933	2.85
643.263	2.81
643.592	2.67
643.922	2.98
644.252	2.42
644.582	2.85
644.911	2.82
645.241	2.57
645.571	2.88
645.9	2.41
646.23	2.68
646.559	2.61
646.888	2.19
647.218	3.47
647.547	2.7
647.876	3.12
648.205	2.44
648.534	2.73
648.863	3.04
649.192	2.9
649.521	2.92
649.85	2.48
650.179	2.86
650.508	2.92
650.837	2.37
651.165	3.13
651.494	2.98
651.822	2.93
652.151	3.26
652.479	3.05
652.808	2.82
653.136	2.87
653.465	3.2
653.793	3.16
654.121	2.7
654.449	3.3
654.777	3.2
655.105	2.77
655.433	2.84
655.761	2.77
656.089	2.79
656.417	2.65
656.745	3.35
657.073	2.86
657.4	3.38
657.728	2.64
658.056	3.29
658.383	2.76
658.711	3.17
659.038	3.07
659.365	2.71
659.693	2.9
660.02	2.44
660.347	2.94
660.674	2.88
661.001	2.52
661.329	3.25
661.656	2.92
661.982	2.74
662.309	3.32
662.636	2.95
662.963	3.2
663.29	3.2
663.616	2.51
663.943	2.4
664.27	3.38
664.596	3.91
664.923	2.94
665.249	3.03
665.576	2.9
665.902	2.6
666.228	2.68
666.554	3.6
666.881	2.64
667.207	3.6
667.533	3.2
667.859	3.14
668.185	2.87
668.511	3.02
668.837	3.32
669.162	2.62
669.488	2.87
669.814	2.62
670.139	3.12
670.465	3.55
670.791	2.93
671.116	3.36
671.442	3.44
671.767	3.25
672.092	3.01
672.418	2.72
672.743	3.03
673.068	2.79
673.393	2.64
673.718	2.78
674.043	3.19
674.368	2.88
674.693	2.51
675.018	2.57
675.343	2.68
675.667	2.61
675.992	3.52
676.317	2.68
676.641	3.13
676.966	3.55
677.29	2.11
677.615	3.05
677.939	2.59
678.264	2.61
678.588	3.28
678.912	2.47
679.236	2.85
679.56	3.02
679.885	3.13
680.209	3.59
680.532	3.35
680.856	3.74
681.18	2.9
681.504	2.84
681.828	2.55
682.152	2.58
682.475	3.19
682.799	3.44
683.122	3.01
683.446	2.65
683.769	2.5
684.093	3.48
684.416	2.87
684.739	3.43
685.062	3.27
685.386	2.69
685.709	3.46
686.032	3.66
686.355	3.48
686.678	3.12
687.001	3.41
687.324	2.32
687.646	2.94
687.969	3.43
688.292	3.29
688.614	3.32
688.937	3.21
689.26	2.91
689.582	2.28
689.904	3
690.227	3.33
690.549	2.65
690.871	2.51
691.194	3.11
691.516	3.41
691.838	2.4
692.16	3.77
