Data from 0381_crown_Reflection__1__111.txt Node

Date: Mon Dec 11 18:58:06 CST 2023
User: ToomeyLab
Spectrometer: FLMS14357
Trigger mode: 0
Integration Time (sec): 1.000000E-2
Scans to average: 100
Electric dark correction enabled: true
Nonlinearity correction enabled: false
Boxcar width: 0
XAxis mode: Wavelengths
Number of Pixels in Spectrum: 2048
>>>>>Begin Spectral Data<<<<<
189.047	20.59
189.435	20.59
189.823	20.59
190.211	-8.99
190.599	-282.76
190.987	-29.42
191.375	91.55
191.763	112.96
192.151	-63.07
192.538	100.91
192.926	23.79
193.314	27.94
193.702	500
194.089	132.95
194.477	108.09
194.864	1990.41
195.252	-3.71
195.639	-1024.83
196.027	544.9
196.414	60.93
196.801	108.03
197.189	-18.22
197.576	52.36
197.963	-33.58
198.351	-27.08
198.738	50.02
199.125	-63.93
199.512	-2.38
199.899	48
200.286	10.02
200.673	-50.67
201.06	26.31
201.447	11.45
201.833	17.87
202.22	23.57
202.607	35.6
202.994	-13.23
203.38	13.37
203.767	38.94
204.154	54.04
204.54	4.42
204.927	29.84
205.313	28.37
205.699	-26.6
206.086	-9.53
206.472	36.46
206.858	21.77
207.245	-16.5
207.631	1.47
208.017	-0.14
208.403	13.16
208.789	2.23
209.175	17.49
209.561	-17.27
209.947	16.56
210.333	35.21
210.719	26.66
211.105	4.11
211.491	9.85
211.876	33.54
212.262	18.56
212.648	23.71
213.034	-4.08
213.419	-3.8
213.805	6.51
214.19	12.55
214.576	-9.48
214.961	13.18
215.346	-13.67
215.732	10.94
216.117	2.75
216.502	13.09
216.888	7.51
217.273	9.64
217.658	-11.96
218.043	-7.06
218.428	4.02
218.813	9.88
219.198	7.16
219.583	24.06
219.968	-2.64
220.353	-1.48
220.738	24.79
221.122	13.53
221.507	16.89
221.892	1.6
222.276	-1.85
222.661	-17.02
223.046	4.49
223.43	7.76
223.815	-7.25
224.199	3.98
224.583	8.26
224.968	-4.84
225.352	0.64
225.736	9.34
226.121	3.54
226.505	0.66
226.889	6.71
227.273	6.18
227.657	9.04
228.041	5.4
228.425	0.99
228.809	-2.85
229.193	4.81
229.577	5.93
229.961	3.68
230.344	3.03
230.728	1.81
231.112	2.47
231.495	3.03
231.879	1.27
232.263	1.57
232.646	1.95
233.03	2.37
233.413	2.19
233.797	4.18
234.18	2.73
234.563	4.68
234.946	3.7
235.33	4.75
235.713	2.5
236.096	1.61
236.479	3.43
236.862	2.66
237.245	1.47
237.628	3.08
238.011	2.82
238.394	3.01
238.777	2.49
239.16	2.05
239.543	2.66
239.925	1.73
240.308	2.88
240.691	3.16
241.073	2.92
241.456	2.97
241.838	5.56
242.221	3.2
242.603	1.44
242.986	1.36
243.368	2.19
243.75	2.26
244.133	2.56
244.515	2.57
244.897	2.26
245.279	2.59
245.661	2.06
246.043	2.24
246.425	3.37
246.807	2.98
247.189	2.86
247.571	2.45
247.953	2.14
248.335	2.97
248.717	2.66
249.098	2.56
249.48	2.48
249.862	2.82
250.243	2.85
250.625	2.32
251.006	2.8
251.388	2.62
251.769	2.24
252.151	3.07
252.532	2.58
252.913	2.62
253.295	3.1
253.676	2.02
254.057	2.69
254.438	2.75
254.819	2.36
255.2	1.56
255.581	1.23
255.962	2.46
256.343	1.5
256.724	2.37
257.105	2.86
257.486	1.64
257.867	3.14
258.247	1.23
258.628	1.63
259.009	3.19
259.389	3.16
259.77	1.93
260.15	1.79
260.531	2.63
260.911	2.17
261.292	2.04
261.672	2.44
262.052	2.38
262.432	2.32
262.813	2.23
263.193	2.41
263.573	2.44
263.953	2.35
264.333	1.9
264.713	3.12
265.093	2.77
265.473	2.64
265.853	2.25
266.233	1.83
266.612	2.67
266.992	2.39
267.372	3.1
267.752	2.92
268.131	2.44
268.511	2.41
268.89	3.05
269.27	2.73
269.649	2.25
270.029	2.63
270.408	2.44
270.787	2.1
271.167	1.74
271.546	1.95
271.925	1.91
272.304	2.59
272.683	2.67
273.062	2.26
273.441	2.02
273.82	2.45
274.199	2.28
274.578	2.24
274.957	2.23
275.336	2.46
275.715	2.43
276.093	3.56
276.472	2.41
276.851	2.78
277.229	2.86
277.608	2.02
277.986	2.5
278.365	1.79
278.743	2.38
279.122	2
279.5	1.98
279.878	2.18
280.257	2.87
280.635	2.22
281.013	2.1
281.391	2.7
281.769	1.75
282.147	2.28
282.525	1.65
282.903	2.7
283.281	2.1
283.659	1.73
284.037	2.24
284.415	2.19
284.792	2.6
285.17	2.56
285.548	2.5
285.925	1.59
286.303	2.65
286.68	2.16
287.058	2.45
287.435	2.58
287.813	2.6
288.19	2.53
288.567	2.32
288.945	2.46
289.322	2.05
289.699	2.26
290.076	1.95
290.453	2.74
290.83	2.91
291.207	2.56
291.584	2.21
291.961	2.36
292.338	2.52
292.715	2.77
293.092	2.04
293.469	2.63
293.845	2.88
294.222	2.59
294.599	2.37
294.975	2.29
295.352	2.9
295.728	2.77
296.105	2.72
296.481	2.64
296.858	2.77
297.234	2.85
297.61	2.71
297.986	2.66
298.363	2.58
298.739	2.93
299.115	2.26
299.491	2.81
299.867	2.83
300.243	2.64
300.619	2.65
300.995	2.39
301.371	2.68
301.746	2.1
302.122	2.33
302.498	3.1
302.874	2.64
303.249	2.61
303.625	2.7
304	2.89
304.376	2.96
304.751	2.36
305.127	2.45
305.502	2.72
305.878	2.58
306.253	2.94
306.628	2.9
307.003	3.1
307.378	2.59
307.754	2.84
308.129	2.51
308.504	2.66
308.879	2.34
309.254	2.77
309.629	3.31
310.003	3.27
310.378	2.55
310.753	3.13
311.128	2.74
311.502	2.45
311.877	2.75
312.252	2.8
312.626	3.13
313.001	2.51
313.375	2.47
313.75	2.56
314.124	2.92
314.498	3
314.873	2.6
315.247	2.86
315.621	3.29
315.995	3.18
316.369	3.01
316.743	3.28
317.117	3.63
317.491	2.85
317.865	2.57
318.239	2.95
318.613	3.24
318.987	2.97
319.361	3.49
319.734	2.42
320.108	2.84
320.482	2.44
320.855	2.85
321.229	2.03
321.602	3.17
321.976	3.19
322.349	2.6
322.723	3.15
323.096	3.64
323.469	3.33
323.843	3.22
324.216	3.47
324.589	3.04
324.962	2.92
325.335	3.3
325.708	2.83
326.081	3.29
326.454	3
326.827	2.87
327.2	2.84
327.573	2.8
327.945	3.47
328.318	3.16
328.691	2.67
329.063	2.72
329.436	3.02
329.809	2.84
330.181	3.02
330.553	3.01
330.926	2.93
331.298	3.03
331.671	3.23
332.043	4.01
332.415	2.86
332.787	3.04
333.159	3.03
333.532	3.28
333.904	3.22
334.276	3.56
334.648	3.76
335.02	2.84
335.391	2.84
335.763	3.22
336.135	3.35
336.507	2.97
336.879	3.7
337.25	2.92
337.622	3.08
337.993	3.02
338.365	2.58
338.736	3.46
339.108	3.36
339.479	3.28
339.851	2.9
340.222	3.2
340.593	2.34
340.964	3.2
341.336	3.14
341.707	2.49
342.078	3.13
342.449	3.05
342.82	2.77
343.191	2.46
343.562	2.99
343.933	2.89
344.303	2.88
344.674	3.31
345.045	3.32
345.416	2.79
345.786	3.2
346.157	3.28
346.527	3.08
346.898	3.13
347.268	2.84
347.639	3.34
348.009	3.04
348.38	2.59
348.75	3.09
349.12	3.17
349.49	3.09
349.861	2.59
350.231	2.49
350.601	3
350.971	3.48
351.341	2.95
351.711	3.11
352.081	2.71
352.45	2.96
352.82	2.43
353.19	3.41
353.56	3.23
353.929	2.8
354.299	3.43
354.669	3.23
355.038	3.13
355.408	3.13
355.777	2.96
356.147	3.1
356.516	3.04
356.885	2.78
357.254	3.18
357.624	3.37
357.993	2.7
358.362	3.04
358.731	3.08
359.1	3.27
359.469	3.08
359.838	3.13
360.207	2.87
360.576	3.16
360.945	3.4
361.314	3.18
361.682	3.02
362.051	2.98
362.42	3.06
362.788	2.91
363.157	3.09
363.525	2.75
363.894	3.13
364.262	3
364.631	3.1
364.999	3.11
365.367	3.28
365.735	3.36
366.104	2.93
366.472	3.2
366.84	2.84
367.208	3.08
367.576	3.21
367.944	2.81
368.312	2.88
368.68	2.93
369.048	3.14
369.416	2.71
369.783	2.84
370.151	3.26
370.519	3.5
370.886	2.83
371.254	3.29
371.621	3.3
371.989	3.18
372.356	3.52
372.724	3.63
373.091	3.47
373.458	3.13
373.826	3.2
374.193	3.2
374.56	3.38
374.927	3.24
375.294	3.11
375.661	3.14
376.028	3.62
376.395	3.2
376.762	3.36
377.129	3.51
377.496	3.04
377.863	3.17
378.229	3.31
378.596	3.07
378.963	3.39
379.329	3.28
379.696	3.15
380.062	3.12
380.429	3.04
380.795	3.36
381.161	2.88
381.528	3.63
381.894	3.36
382.26	3.28
382.626	3.47
382.993	3.21
383.359	3.39
383.725	3.42
384.091	3.3
384.457	3.05
384.823	3.38
385.188	2.99
385.554	2.8
385.92	2.87
386.286	3.07
386.651	3.15
387.017	3.36
387.383	3.24
387.748	3.27
388.114	3.11
388.479	3.3
388.845	3.32
389.21	3.46
389.575	3.42
389.94	3.29
390.306	3.25
390.671	3.42
391.036	3.44
391.401	3.4
391.766	3.14
392.131	3.34
392.496	3.58
392.861	3.64
393.226	3.37
393.591	3.41
393.956	3.36
394.32	3.41
394.685	3.45
395.05	3.39
395.414	3.47
395.779	3.17
396.143	3.11
396.508	3.32
396.872	3.36
397.236	3.36
397.601	3.3
397.965	3.45
398.329	3.47
398.694	3.44
399.058	3.12
399.422	3.47
399.786	3.34
400.15	3.47
400.514	3.41
400.878	3.2
401.242	3.37
401.605	3.31
401.969	3.4
402.333	3.37
402.697	3.14
403.06	3.11
403.424	3.36
403.787	3.42
404.151	3.23
404.514	3.09
404.878	3.34
405.241	3.29
405.604	3.33
405.968	3.31
406.331	3.27
406.694	3.21
407.057	3.38
407.42	3.52
407.783	3.3
408.146	3.47
408.509	3.37
408.872	3.25
409.235	3.24
409.598	3.3
409.961	3.48
410.323	3.54
410.686	3.33
411.049	3.44
411.411	3.56
411.774	3.61
412.136	3.4
412.499	3.46
412.861	3.29
413.223	3.41
413.586	3.53
413.948	3.44
414.31	3.36
414.672	3.23
415.035	3.5
415.397	3.3
415.759	3.45
416.121	3.57
416.483	3.58
416.845	3.6
417.206	3.65
417.568	3.54
417.93	3.76
418.292	3.52
418.653	3.37
419.015	3.37
419.377	3.5
419.738	3.3
420.1	3.56
420.461	3.34
420.822	3.26
421.184	3.32
421.545	3.21
421.906	3.26
422.267	3.32
422.629	3.36
422.99	3.35
423.351	3.19
423.712	3.3
424.073	3.35
424.434	3.28
424.795	3.52
425.155	3.31
425.516	3.28
425.877	3.27
426.238	3.38
426.598	3.42
426.959	3.44
427.32	3.45
427.68	3.43
428.041	3.3
428.401	3.45
428.761	3.42
429.122	3.48
429.482	3.59
429.842	3.44
430.202	3.44
430.563	3.49
430.923	3.45
431.283	3.61
431.643	3.67
432.003	3.54
432.363	3.6
432.722	3.46
433.082	3.7
433.442	3.45
433.802	3.51
434.161	3.72
434.521	3.4
434.881	3.46
435.24	3.52
435.6	3.43
435.959	3.48
436.319	3.4
436.678	3.59
437.037	3.62
437.396	3.59
437.756	3.57
438.115	3.65
438.474	3.57
438.833	3.51
439.192	3.53
439.551	3.59
439.91	3.48
440.269	3.62
440.628	3.25
440.987	3.7
441.345	3.51
441.704	3.52
442.063	3.53
442.421	3.58
442.78	3.5
443.138	3.5
443.497	3.5
443.855	3.48
444.214	3.75
444.572	3.56
444.93	3.46
445.288	3.65
445.647	3.69
446.005	3.4
446.363	3.57
446.721	3.54
447.079	3.61
447.437	3.54
447.795	3.57
448.153	3.66
448.51	3.55
448.868	3.44
449.226	3.41
449.584	3.63
449.941	3.6
450.299	3.57
450.656	3.61
451.014	3.74
451.371	3.55
451.729	3.78
452.086	3.79
452.443	3.78
452.801	3.79
453.158	3.7
453.515	3.66
453.872	3.73
454.229	3.66
454.586	3.63
454.943	3.66
455.3	3.67
455.657	3.73
456.014	3.65
456.371	3.83
456.727	3.85
457.084	3.68
457.441	3.91
457.797	3.78
458.154	3.75
458.51	3.89
458.867	3.61
459.223	3.74
459.58	3.65
459.936	3.81
460.292	3.62
460.648	3.67
461.005	3.68
461.361	3.69
461.717	3.61
462.073	3.67
462.429	3.64
462.785	3.66
463.141	3.7
463.496	3.85
463.852	3.7
464.208	3.65
464.564	3.68
464.919	3.88
465.275	3.7
465.631	3.54
465.986	3.75
466.342	3.8
466.697	3.73
467.052	3.86
467.408	3.89
467.763	3.85
468.118	3.65
468.473	3.75
468.829	3.78
469.184	4.12
469.539	3.8
469.894	3.68
470.249	3.77
470.603	3.82
470.958	4
471.313	3.76
471.668	4.01
472.023	3.97
472.377	3.68
472.732	3.77
473.086	3.89
473.441	3.81
473.795	3.83
474.15	3.8
474.504	3.73
474.859	4.04
475.213	3.88
475.567	3.99
475.921	3.84
476.275	3.93
476.63	3.88
476.984	3.81
477.338	3.7
477.692	3.94
478.045	3.82
478.399	3.65
478.753	3.77
479.107	3.76
479.461	4.04
479.814	3.8
480.168	3.88
480.521	3.93
480.875	3.86
481.228	3.87
481.582	4.03
481.935	3.74
482.289	3.85
482.642	3.83
482.995	3.87
483.348	3.93
483.701	3.72
484.055	3.86
484.408	3.83
484.761	3.76
485.114	3.75
485.466	3.61
485.819	3.55
486.172	3.6
486.525	3.63
486.878	3.73
487.23	3.77
487.583	3.76
487.936	3.82
488.288	3.8
488.641	3.71
488.993	3.62
489.345	3.72
489.698	3.64
490.05	3.71
490.402	3.69
490.754	3.81
491.107	3.85
491.459	3.8
491.811	3.85
492.163	3.93
492.515	3.86
492.866	3.84
493.218	3.7
493.57	3.73
493.922	3.72
494.274	3.84
494.625	3.89
494.977	4.04
495.328	4.01
495.68	4.01
496.031	3.98
496.383	3.84
496.734	4.06
497.086	4.11
497.437	4.07
497.788	4.12
498.139	3.9
498.49	3.88
498.842	4.04
499.193	4.07
499.544	3.99
499.894	4.03
500.245	4.03
500.596	4.11
500.947	4.06
501.298	4.06
501.648	4.15
501.999	3.93
502.35	4.11
502.7	4.22
503.051	3.99
503.401	4.1
503.752	4.07
504.102	4.01
504.452	3.95
504.803	4.22
505.153	4.17
505.503	4.17
505.853	4.19
506.203	3.97
506.553	4.1
506.903	4.06
507.253	4.15
507.603	4.07
507.953	4.09
508.303	4.08
508.652	3.97
509.002	4.04
509.352	4.24
509.701	4.06
510.051	4.02
510.4	4.03
510.75	3.96
511.099	4.02
511.449	4.15
511.798	4.11
512.147	4.12
512.496	4.09
512.846	4.11
513.195	4.19
513.544	4.14
513.893	4.06
514.242	4.15
514.591	4.02
514.939	4.06
515.288	4.15
515.637	4.07
515.986	4.07
516.334	4.07
516.683	4.24
517.032	4.18
517.38	4.15
517.729	4.13
518.077	4.25
518.426	4.13
518.774	4.18
519.122	4.06
519.47	4.08
519.819	4.1
520.167	4.12
520.515	3.99
520.863	4.02
521.211	4.18
521.559	4.16
521.907	4.18
522.255	4.14
522.602	4.14
522.95	4.23
523.298	4.17
523.645	4.29
523.993	4.23
524.341	4.23
524.688	4.18
525.036	4.16
525.383	4.16
525.73	4.38
526.078	4.25
526.425	4.2
526.772	4.19
527.119	4.18
527.466	4.09
527.814	4.11
528.161	4.01
528.508	4.18
528.854	4.17
529.201	4.14
529.548	4.13
529.895	4.08
530.242	4
530.588	3.96
530.935	3.99
531.282	4.04
531.628	4.11
531.975	4.16
532.321	4.15
532.667	4.18
533.014	4.15
533.36	4.26
533.706	4.31
534.052	4.18
534.399	4.18
534.745	4.12
535.091	4.05
535.437	4.05
535.783	4.15
536.129	4.23
536.474	4.24
536.82	4.25
537.166	4.28
537.512	4.18
537.857	4.24
538.203	4.18
538.549	4.21
538.894	4.25
539.239	4.32
539.585	4.36
539.93	4.25
540.276	4.32
540.621	4.37
540.966	4.37
541.311	4.32
541.656	4.38
542.001	4.39
542.346	4.29
542.691	4.23
543.036	4.07
543.381	4.04
543.726	4.08
544.071	4.21
544.415	4.21
544.76	4.34
545.105	4.26
545.449	4.29
545.794	4.27
546.138	4.36
546.483	4.32
546.827	4.45
547.171	4.31
547.516	4.29
547.86	4.36
548.204	4.28
548.548	4.31
548.892	4.24
549.236	4.29
549.58	4.49
549.924	4.61
550.268	4.31
550.612	4.35
550.956	4.45
551.3	4.49
551.643	4.54
551.987	4.55
552.33	4.62
552.674	4.58
553.017	4.49
553.361	4.43
553.704	4.38
554.048	4.61
554.391	4.44
554.734	4.41
555.077	4.56
555.42	4.67
555.764	4.48
556.107	4.59
556.45	4.49
556.793	4.45
557.135	4.58
557.478	4.58
557.821	4.62
558.164	4.69
558.507	4.38
558.849	4.41
559.192	4.59
559.534	4.67
559.877	4.78
560.219	4.71
560.562	4.71
560.904	4.67
561.246	4.71
561.589	4.62
561.931	4.67
562.273	4.42
562.615	4.55
562.957	4.48
563.299	4.7
563.641	4.53
563.983	4.77
564.325	4.61
564.667	4.64
565.008	4.57
565.35	4.74
565.692	4.8
566.033	4.5
566.375	4.87
566.716	4.67
567.058	4.58
567.399	4.6
567.741	4.45
568.082	4.6
568.423	4.59
568.764	4.46
569.105	4.68
569.447	4.62
569.788	4.64
570.129	4.79
570.47	4.57
570.811	4.43
571.151	4.59
571.492	4.68
571.833	4.6
572.174	4.75
572.514	4.8
572.855	4.5
573.195	4.63
573.536	4.69
573.876	4.64
574.217	4.6
574.557	4.64
574.898	4.68
575.238	4.81
575.578	4.76
575.918	4.74
576.258	4.62
576.598	4.67
576.938	4.79
577.278	4.7
577.618	4.54
577.958	4.77
578.298	4.9
578.638	4.9
578.977	4.81
579.317	4.85
579.657	4.56
579.996	4.7
580.336	4.74
580.675	4.77
581.014	4.85
581.354	4.85
581.693	5.09
582.032	4.49
582.372	4.95
582.711	4.63
583.05	4.75
583.389	4.71
583.728	5.05
584.067	4.83
584.406	4.93
584.745	4.92
585.083	4.69
585.422	5.03
585.761	4.93
586.1	4.82
586.438	4.75
586.777	4.9
587.115	4.71
587.454	4.67
587.792	4.99
588.13	5.06
588.469	4.8
588.807	4.76
589.145	5.05
589.483	4.97
589.821	4.79
590.159	4.79
590.497	5.1
590.835	4.89
591.173	5.09
591.511	5.1
591.849	4.98
592.187	4.83
592.524	4.89
592.862	4.97
593.2	4.75
593.537	5.02
593.875	4.9
594.212	5.01
594.55	4.67
594.887	5.04
595.224	5
595.561	4.91
595.899	4.56
596.236	4.98
596.573	4.62
596.91	4.84
597.247	4.91
597.584	4.95
597.921	4.81
598.258	5.01
598.594	4.9
598.931	4.77
599.268	4.87
599.604	5
599.941	5.07
600.277	4.93
600.614	4.97
600.95	4.91
601.287	5.04
601.623	4.99
601.959	5.16
602.296	5
602.632	4.9
602.968	4.97
603.304	5.2
603.64	5.02
603.976	5.06
604.312	4.96
604.648	4.98
604.984	5.16
605.319	5.04
605.655	4.91
605.991	4.88
606.326	4.91
606.662	4.86
606.998	4.86
607.333	5.03
607.668	4.98
608.004	4.93
608.339	5.28
608.674	5.08
609.01	5.05
609.345	5.02
609.68	5.11
610.015	5.05
610.35	5.08
610.685	4.84
611.02	5.01
611.355	5.1
611.689	4.93
612.024	4.83
612.359	4.96
612.694	4.89
613.028	4.87
613.363	4.97
613.697	4.95
614.032	5.05
614.366	5.09
614.7	5.05
615.035	5.23
615.369	4.98
615.703	5.33
616.037	5.1
616.371	5.29
616.705	5.44
617.039	5.47
617.373	4.9
617.707	5.27
618.041	5.4
618.375	5.17
618.709	5.05
619.042	5.17
619.376	5.3
619.71	5.2
620.043	5.07
620.377	5.22
620.71	5.3
621.043	4.92
621.377	4.82
621.71	5.36
622.043	5.12
622.376	5.13
622.709	5.78
623.043	5.59
623.376	5.3
623.709	5.42
624.041	5.13
624.374	5.56
624.707	5.25
625.04	5.85
625.373	5.36
625.705	5.25
626.038	5.01
626.37	5.4
626.703	5.45
627.035	5.19
627.368	5.2
627.7	5.43
628.032	5.06
628.365	5.4
628.697	5.38
629.029	5.24
629.361	5.23
629.693	5.29
630.025	5.32
630.357	5.15
630.689	5.17
631.021	5.29
631.353	5.11
631.684	5.42
632.016	5.25
632.348	5.29
632.679	5.49
633.011	5.25
633.342	5.49
633.674	5.66
634.005	5.52
634.336	5.34
634.668	5.34
634.999	5.67
635.33	5.28
635.661	5.48
635.992	5.46
636.323	5.47
636.654	5.55
636.985	5.1
637.316	5.52
637.647	5.6
637.977	5.71
638.308	5.44
638.639	5.31
638.969	5.32
639.3	5.5
639.63	5.42
639.961	5.51
640.291	5.67
640.622	5.13
640.952	5.42
641.282	5.31
641.612	5.99
641.943	5.34
642.273	5.28
642.603	5.63
642.933	5.4
643.263	5.16
643.592	5.56
643.922	5.78
644.252	4.94
644.582	5.72
644.911	5.81
645.241	5.72
645.571	5.95
645.9	5.83
646.23	5.51
646.559	5.39
646.888	5.49
647.218	5.71
647.547	5.32
647.876	5.66
648.205	5.24
648.534	5.54
648.863	5.64
649.192	5.63
649.521	5.85
649.85	5.53
650.179	5.5
650.508	5.78
650.837	5.08
651.165	5.97
651.494	5.95
651.822	5.2
652.151	5.87
652.479	5.56
652.808	6.02
653.136	5.74
653.465	6.11
653.793	5.5
654.121	5.73
654.449	5.67
654.777	6.21
655.105	5.26
655.433	5.85
655.761	5.77
656.089	5.5
656.417	5.52
656.745	6.04
657.073	6.15
657.4	6.11
657.728	5.99
658.056	6.09
658.383	5.85
658.711	6.06
659.038	5.73
659.365	5.7
659.693	5.87
660.02	5.81
660.347	5.37
660.674	5.68
661.001	5.71
661.329	5.79
661.656	5.59
661.982	5.57
662.309	5.74
662.636	5.61
662.963	6.44
663.29	5.51
663.616	5.8
663.943	5.35
664.27	6.03
664.596	6.31
664.923	5.98
665.249	6.12
665.576	5.79
665.902	5.61
666.228	5.73
666.554	6.19
666.881	6.01
667.207	6.47
667.533	5.64
667.859	6.27
668.185	6.12
668.511	6.18
668.837	5.68
669.162	5.97
669.488	6.43
669.814	5.99
670.139	6.21
670.465	5.86
670.791	5.75
671.116	6.2
671.442	6.38
671.767	6.28
672.092	6.09
672.418	6.1
672.743	5.88
673.068	5.95
673.393	6.01
673.718	6.07
674.043	6.13
674.368	6.13
674.693	6.05
675.018	6.32
675.343	6.33
675.667	5.81
675.992	6.7
676.317	5.76
676.641	6.47
676.966	6.25
677.29	5.87
677.615	7.07
677.939	5.6
678.264	5.74
678.588	6.06
678.912	6.32
679.236	6.01
679.56	6.52
679.885	6.29
680.209	6.11
680.532	6.69
680.856	6.58
681.18	6.04
681.504	5.77
681.828	5.52
682.152	5.78
682.475	6.39
682.799	6.41
683.122	6.1
683.446	5.81
683.769	6.44
684.093	6.14
684.416	6.37
684.739	6.52
685.062	6.56
685.386	6.55
685.709	6.16
686.032	6.38
686.355	6.1
686.678	5.98
687.001	6.14
687.324	5.68
687.646	5.82
687.969	6.41
688.292	6.96
688.614	6.77
688.937	6.82
689.26	5.97
689.582	5.66
689.904	6.44
690.227	6.76
690.549	6.52
690.871	6.82
691.194	6.4
691.516	5.68
691.838	5.92
692.16	7.57
692.482	6.68
692.804	6.83
693.126	6.14
693.448	5.87
