Data from 0381_forehead_Reflection__1__116.txt Node

Date: Mon Dec 11 18:59:17 CST 2023
User: ToomeyLab
Spectrometer: FLMS14357
Trigger mode: 0
Integration Time (sec): 1.000000E-2
Scans to average: 100
Electric dark correction enabled: true
Nonlinearity correction enabled: false
Boxcar width: 0
XAxis mode: Wavelengths
Number of Pixels in Spectrum: 2048
>>>>>Begin Spectral Data<<<<<
189.047	-17.09
189.435	-17.09
189.823	-17.09
190.211	34.2
190.599	-294.73
190.987	44.1
191.375	1.18
191.763	72.11
192.151	7.17
192.538	87.53
192.926	-65.03
193.314	15.08
193.702	-3.49
194.089	205.2
194.477	12.56
194.864	1489.04
195.252	14.38
195.639	1193.96
196.027	267.5
196.414	82.62
196.801	156.16
197.189	365.32
197.576	46.31
197.963	-24.82
198.351	-28.15
198.738	24.81
199.125	-35.26
199.512	63.64
199.899	39.48
200.286	15.81
200.673	-126.29
201.06	54.04
201.447	7.04
201.833	28.14
202.22	57.14
202.607	-36.28
202.994	-3.08
203.38	-113.8
203.767	76.93
204.154	42.36
204.54	7.64
204.927	22.22
205.313	-22.16
205.699	37.24
206.086	-9.93
206.472	38.07
206.858	31.79
207.245	50.82
207.631	22.86
208.017	14.57
208.403	45.86
208.789	9.16
209.175	39.1
209.561	29.49
209.947	24.04
210.333	50.14
210.719	47.46
211.105	25.13
211.491	30.47
211.876	34.99
212.262	6.54
212.648	33.07
213.034	21.24
213.419	8.01
213.805	-2.73
214.19	22.49
214.576	10.85
214.961	15.38
215.346	-4.22
215.732	36.93
216.117	13.61
216.502	26.89
216.888	18.69
217.273	21.8
217.658	26.22
218.043	3.79
218.428	8.86
218.813	38.31
219.198	8.9
219.583	26.76
219.968	-11.71
220.353	6.97
220.738	23.76
221.122	22.78
221.507	43.58
221.892	0.1
222.276	5.79
222.661	-6.41
223.046	4.3
223.43	22.66
223.815	16.5
224.199	15.04
224.583	7.46
224.968	14.71
225.352	1.66
225.736	14.04
226.121	1.55
226.505	1.1
226.889	1.05
227.273	7.03
227.657	7.11
228.041	2.4
228.425	0.14
228.809	0.68
229.193	5.95
229.577	5.68
229.961	4.51
230.344	4.8
230.728	3.14
231.112	4.43
231.495	4.63
231.879	4.57
232.263	3.06
232.646	4.28
233.03	2.61
233.413	4.18
233.797	6.3
234.18	7.53
234.563	6.3
234.946	4.32
235.33	4.96
235.713	4.35
236.096	4.45
236.479	4.9
236.862	4.5
237.245	3.27
237.628	3.32
238.011	3.31
238.394	4.95
238.777	2.67
239.16	3.23
239.543	6.51
239.925	4.56
240.308	4.45
240.691	4.48
241.073	5.47
241.456	4.45
241.838	6.45
242.221	5.2
242.603	2.82
242.986	3.78
243.368	4.4
243.75	4.07
244.133	3.79
244.515	3.85
244.897	3.61
245.279	3.54
245.661	4.23
246.043	3.55
246.425	4.14
246.807	3.28
247.189	3.2
247.571	4.16
247.953	4.2
248.335	3.67
248.717	3.64
249.098	3.7
249.48	3.67
249.862	4.22
250.243	3.84
250.625	3.95
251.006	3.44
251.388	3.8
251.769	4.77
252.151	5.67
252.532	4.52
252.913	4.21
253.295	4.69
253.676	3.67
254.057	3.47
254.438	4.4
254.819	3.34
255.2	3.33
255.581	3.53
255.962	4.57
256.343	3.35
256.724	3.82
257.105	3.38
257.486	2.87
257.867	4.6
258.247	4.08
258.628	4.34
259.009	4.36
259.389	4.57
259.77	3.74
260.15	3.18
260.531	4.08
260.911	3.09
261.292	3.43
261.672	3.59
262.052	3.51
262.432	3.56
262.813	3.83
263.193	3.33
263.573	3.24
263.953	4.39
264.333	2.94
264.713	4.04
265.093	3.22
265.473	4.27
265.853	3.94
266.233	3.84
266.612	4.25
266.992	5.39
267.372	4.73
267.752	4.38
268.131	4.28
268.511	3.16
268.89	3.75
269.27	4.3
269.649	3.81
270.029	4.24
270.408	4.06
270.787	3.55
271.167	2.68
271.546	3.77
271.925	3.25
272.304	3.32
272.683	3.53
273.062	3.21
273.441	3.45
273.82	3.24
274.199	3.5
274.578	3.69
274.957	3.71
275.336	3.6
275.715	3.39
276.093	3.89
276.472	3.25
276.851	3.51
277.229	4.03
277.608	3.31
277.986	4.26
278.365	2.8
278.743	2.93
279.122	3.36
279.5	3.94
279.878	3.7
280.257	3.25
280.635	3.94
281.013	3.28
281.391	3.31
281.769	3.82
282.147	3.39
282.525	3.35
282.903	3.76
283.281	3.76
283.659	3.22
284.037	3.05
284.415	3.24
284.792	3.89
285.17	3.21
285.548	3.18
285.925	2.8
286.303	3.66
286.68	3.31
287.058	3.38
287.435	3.73
287.813	3.57
288.19	3.34
288.567	3.18
288.945	3.6
289.322	3.47
289.699	3.15
290.076	3.19
290.453	3.52
290.83	3.97
291.207	4
291.584	3.39
291.961	3.68
292.338	3.65
292.715	4.08
293.092	3.86
293.469	3.93
293.845	3.72
294.222	4.33
294.599	4.02
294.975	3.76
295.352	3.14
295.728	4.19
296.105	3.82
296.481	3.77
296.858	3.53
297.234	3.93
297.61	4.42
297.986	3.79
298.363	4.07
298.739	3.79
299.115	3.76
299.491	3.91
299.867	4.02
300.243	4.14
300.619	4.05
300.995	3.76
301.371	3.86
301.746	4.15
302.122	4.17
302.498	4.34
302.874	4.03
303.249	4.25
303.625	4.61
304	4.18
304.376	4.28
304.751	4.05
305.127	4.26
305.502	4.78
305.878	4.67
306.253	4.5
306.628	4.94
307.003	5.2
307.378	4.11
307.754	5.16
308.129	4.75
308.504	4.51
308.879	4.58
309.254	5.22
309.629	5.01
310.003	4.77
310.378	5.16
310.753	4.79
311.128	5.06
311.502	4.87
311.877	5.21
312.252	5.35
312.626	5.39
313.001	5.19
313.375	4.88
313.75	5.17
314.124	5.62
314.498	5.41
314.873	5.29
315.247	5.48
315.621	5.98
315.995	5.97
316.369	5.9
316.743	5.89
317.117	6.26
317.491	6.02
317.865	5.73
318.239	6.04
318.613	5.89
318.987	5.99
319.361	6.74
319.734	5.75
320.108	5.7
320.482	5.95
320.855	6.53
321.229	6.19
321.602	5.74
321.976	7.23
322.349	6.14
322.723	6.15
323.096	6.93
323.469	7.43
323.843	6.59
324.216	6.68
324.589	7.04
324.962	7.01
325.335	6.76
325.708	6.91
326.081	7.12
326.454	6.86
326.827	6.94
327.2	6.72
327.573	6.83
327.945	7.34
328.318	6.7
328.691	6.91
329.063	7.26
329.436	6.85
329.809	7.06
330.181	7.4
330.553	7.62
330.926	6.47
331.298	7.76
331.671	7.01
332.043	7.53
332.415	7.22
332.787	7.58
333.159	7.21
333.532	7.32
333.904	7.16
334.276	7.95
334.648	7.59
335.02	7.06
335.391	7.45
335.763	7.58
336.135	7.97
336.507	7.9
336.879	7.91
337.25	7.8
337.622	7.36
337.993	7.87
338.365	7.85
338.736	7.97
339.108	8.2
339.479	7.76
339.851	7.69
340.222	7.6
340.593	7.67
340.964	8.29
341.336	7.82
341.707	8.16
342.078	8.39
342.449	8.43
342.82	8.1
343.191	8
343.562	8.18
343.933	8.59
344.303	8.2
344.674	8.67
345.045	8.42
345.416	7.96
345.786	8.73
346.157	8.27
346.527	9
346.898	8.6
347.268	8.8
347.639	8.77
348.009	8.76
348.38	8.24
348.75	8.46
349.12	8.85
349.49	8.66
349.861	8.41
350.231	8.71
350.601	9.03
350.971	8.9
351.341	8.4
351.711	8.78
352.081	8.6
352.45	9.02
352.82	8.57
353.19	8.9
353.56	8.93
353.929	9.04
354.299	9.22
354.669	9.37
355.038	9.33
355.408	9.06
355.777	9.3
356.147	9.26
356.516	9
356.885	9.32
357.254	9.18
357.624	9.07
357.993	9.22
358.362	9.72
358.731	9.29
359.1	9.41
359.469	8.98
359.838	9.65
360.207	9.53
360.576	9.62
360.945	9.94
361.314	9.64
361.682	9.3
362.051	9.74
362.42	9.79
362.788	9.45
363.157	9.77
363.525	9.44
363.894	9.89
364.262	9.85
364.631	9.72
364.999	9.96
365.367	10.34
365.735	9.97
366.104	9.93
366.472	10.03
366.84	9.76
367.208	10.29
367.576	10.26
367.944	10.31
368.312	10.23
368.68	10.22
369.048	10.4
369.416	10.19
369.783	10.44
370.151	10.27
370.519	11.03
370.886	10.54
371.254	11.03
371.621	10.78
371.989	10.57
372.356	10.79
372.724	11.02
373.091	10.9
373.458	10.52
373.826	10.95
374.193	11.03
374.56	10.97
374.927	10.97
375.294	11.32
375.661	11.12
376.028	11.24
376.395	11.33
376.762	11.44
377.129	11.5
377.496	11.19
377.863	11.13
378.229	11.17
378.596	11.09
378.963	11.33
379.329	11.52
379.696	11.58
380.062	11
380.429	11.32
380.795	11.65
381.161	11
381.528	11.91
381.894	11.33
382.26	11.93
382.626	11.62
382.993	11.85
383.359	11.62
383.725	11.64
384.091	11.75
384.457	11.65
384.823	12.34
385.188	12.04
385.554	11.88
385.92	12.22
386.286	12.23
386.651	11.98
387.017	12.19
387.383	12.06
387.748	12.25
388.114	12.19
388.479	12.2
388.845	12.28
389.21	12.39
389.575	12.61
389.94	12.47
390.306	12.73
390.671	12.3
391.036	12.54
391.401	12.72
391.766	12.36
392.131	12.86
392.496	12.5
392.861	12.85
393.226	12.85
393.591	12.85
393.956	12.72
394.32	12.7
394.685	12.9
395.05	13.02
395.414	13.31
395.779	12.94
396.143	12.87
396.508	12.95
396.872	12.81
397.236	13.2
397.601	13.03
397.965	13.31
398.329	13.45
398.694	13.31
399.058	13.27
399.422	13.36
399.786	13.47
400.15	13.51
400.514	13.55
400.878	13.51
401.242	13.48
401.605	13.54
401.969	13.15
402.333	13.37
402.697	13.46
403.06	13.83
403.424	13.84
403.787	14.11
404.151	13.79
404.514	13.89
404.878	13.72
405.241	13.76
405.604	13.8
405.968	13.74
406.331	13.54
406.694	13.92
407.057	13.99
407.42	14.09
407.783	13.9
408.146	14.02
408.509	14
408.872	14.04
409.235	13.94
409.598	14.48
409.961	14.21
410.323	14.54
410.686	14.31
411.049	14.34
411.411	14.51
411.774	14.59
412.136	14.37
412.499	14.6
412.861	14.43
413.223	14.41
413.586	14.82
413.948	14.91
414.31	14.6
414.672	14.39
415.035	14.67
415.397	14.76
415.759	14.72
416.121	15.05
416.483	14.97
416.845	14.86
417.206	14.84
417.568	15.01
417.93	15.01
418.292	14.96
418.653	14.82
419.015	14.84
419.377	14.99
419.738	14.9
420.1	15.04
420.461	14.97
420.822	14.85
421.184	15.09
421.545	14.99
421.906	15.11
422.267	15.03
422.629	15.13
422.99	15.07
423.351	14.99
423.712	15.13
424.073	15.16
424.434	15.25
424.795	15.54
425.155	15.39
425.516	15.23
425.877	15.3
426.238	15.42
426.598	15.45
426.959	15.41
427.32	15.58
427.68	15.61
428.041	15.64
428.401	15.57
428.761	15.94
429.122	15.67
429.482	15.72
429.842	16.09
430.202	16.1
430.563	16.19
430.923	16.18
431.283	16.39
431.643	16.27
432.003	16.31
432.363	16.5
432.722	16.36
433.082	16.62
433.442	16.47
433.802	16.28
434.161	16.67
434.521	16.32
434.881	16.72
435.24	16.45
435.6	16.48
435.959	16.51
436.319	16.42
436.678	16.77
437.037	16.82
437.396	16.79
437.756	17
438.115	17.11
438.474	17.18
438.833	17
439.192	16.87
439.551	17.25
439.91	17.03
440.269	17.07
440.628	16.86
440.987	17.29
441.345	17.01
441.704	17.08
442.063	17.28
442.421	17.18
442.78	17.1
443.138	17.08
443.497	17.18
443.855	17.22
444.214	17.66
444.572	17.38
444.93	17.57
445.288	17.6
445.647	17.71
446.005	17.44
446.363	17.74
446.721	17.7
447.079	17.57
447.437	17.73
447.795	17.61
448.153	17.7
448.51	17.65
448.868	17.63
449.226	17.48
449.584	17.82
449.941	17.89
450.299	17.94
450.656	18.03
451.014	18.02
451.371	18.02
451.729	18.17
452.086	18.16
452.443	18.33
452.801	18.51
453.158	18.63
453.515	18.4
453.872	18.39
454.229	18.58
454.586	18.54
454.943	18.63
455.3	18.57
455.657	18.72
456.014	18.79
456.371	18.91
456.727	18.88
457.084	18.88
457.441	18.94
457.797	19.17
458.154	19.21
458.51	19.13
458.867	18.94
459.223	19.17
459.58	19.11
459.936	19.24
460.292	19.13
460.648	19.19
461.005	19.23
461.361	19.02
461.717	18.98
462.073	19.02
462.429	18.99
462.785	19.14
463.141	19.29
463.496	19.28
463.852	19.5
464.208	19.69
464.564	19.75
464.919	19.91
465.275	19.78
465.631	19.7
465.986	19.88
466.342	19.82
466.697	20
467.052	20.04
467.408	20.13
467.763	20.19
468.118	20.1
468.473	20.24
468.829	20.13
469.184	20.44
469.539	20.3
469.894	20.29
470.249	20.21
470.603	20.23
470.958	20.53
471.313	20.38
471.668	20.72
472.023	20.76
472.377	20.53
472.732	20.68
473.086	20.69
473.441	20.76
473.795	20.68
474.15	20.69
474.504	20.77
474.859	21.04
475.213	20.85
475.567	20.85
475.921	21.21
476.275	21.13
476.63	21.06
476.984	21.08
477.338	21.13
477.692	21.35
478.045	21.16
478.399	21.07
478.753	21.11
479.107	21.3
479.461	21.41
479.814	21.28
480.168	21.5
480.521	21.57
480.875	21.38
481.228	21.54
481.582	21.88
481.935	21.64
482.289	21.59
482.642	21.66
482.995	21.6
483.348	21.68
483.701	21.53
484.055	21.47
484.408	21.47
484.761	21.44
485.114	21.15
485.466	20.93
485.819	20.72
486.172	20.83
486.525	20.92
486.878	21.14
487.23	21.22
487.583	21.45
487.936	21.61
488.288	21.7
488.641	21.74
488.993	21.51
489.345	21.52
489.698	21.35
490.05	21.41
490.402	21.5
490.754	21.78
491.107	21.9
491.459	22.02
491.811	22.19
492.163	22.27
492.515	22.43
492.866	22.26
493.218	22.12
493.57	21.96
493.922	21.91
494.274	22.12
494.625	22.2
494.977	22.57
495.328	22.73
495.68	22.93
496.031	23.15
496.383	23.23
496.734	23.36
497.086	23.32
497.437	23.51
497.788	23.47
498.139	23.21
498.49	23.37
498.842	23.4
499.193	23.41
499.544	23.38
499.894	23.39
500.245	23.57
500.596	23.76
500.947	23.71
501.298	23.83
501.648	23.79
501.999	23.66
502.35	24.04
502.7	24.06
503.051	23.95
503.401	24.18
503.752	24.02
504.102	24.31
504.452	24.23
504.803	24.4
505.153	24.35
505.503	24.4
505.853	24.53
506.203	24.46
506.553	24.55
506.903	24.5
507.253	24.42
507.603	24.59
507.953	24.61
508.303	24.71
508.652	24.62
509.002	24.76
509.352	24.8
509.701	24.71
510.051	24.84
510.4	24.87
510.75	24.93
511.099	24.96
511.449	24.99
511.798	25.09
512.147	25.14
512.496	25
512.846	25.04
513.195	25.22
513.544	25.35
513.893	25.28
514.242	25.3
514.591	25.26
514.939	25.4
515.288	25.46
515.637	25.45
515.986	25.41
516.334	25.73
516.683	25.87
517.032	25.83
517.38	25.95
517.729	25.72
518.077	26.07
518.426	26.15
518.774	26.13
519.122	25.79
519.47	25.88
519.819	25.85
520.167	25.9
520.515	25.75
520.863	25.62
521.211	25.81
521.559	25.86
521.907	25.94
522.255	26.02
522.602	26.18
522.95	26.46
523.298	26.47
523.645	26.85
523.993	26.53
524.341	26.61
524.688	26.72
525.036	26.8
525.383	26.92
525.73	26.85
526.078	26.85
526.425	26.77
526.772	26.83
527.119	26.66
527.466	26.6
527.814	26.69
528.161	26.55
528.508	26.71
528.854	26.53
529.201	26.64
529.548	26.69
529.895	26.51
530.242	26.34
530.588	26.29
530.935	26.29
531.282	26.35
531.628	26.48
531.975	26.59
532.321	26.89
532.667	27.02
533.014	27.16
533.36	27.21
533.706	27.57
534.052	27.34
534.399	27.4
534.745	27.31
535.091	27.07
535.437	27.1
535.783	27.24
536.129	27.3
536.474	27.49
536.82	27.61
537.166	27.85
537.512	27.91
537.857	27.98
538.203	27.88
538.549	27.93
538.894	27.78
539.239	27.99
539.585	28.17
539.93	28.19
540.276	28.39
540.621	28.64
540.966	28.86
541.311	28.83
541.656	28.75
542.001	28.71
542.346	28.67
542.691	28.35
543.036	28.14
543.381	28.13
543.726	27.98
544.071	28.25
544.415	28.19
544.76	28.44
545.105	28.46
545.449	28.65
545.794	28.75
546.138	29.03
546.483	29.07
546.827	29.29
547.171	29.23
547.516	29.41
547.86	29.54
548.204	29.41
548.548	29.45
548.892	29.48
549.236	29.47
549.58	29.79
549.924	29.77
550.268	29.8
550.612	29.95
550.956	30.17
551.3	30.24
551.643	30.42
551.987	30.26
552.33	30.5
552.674	30.58
553.017	30.67
553.361	30.5
553.704	30.8
554.048	30.76
554.391	30.54
554.734	30.71
555.077	30.65
555.42	30.86
555.764	30.72
556.107	30.9
556.45	30.95
556.793	31.02
557.135	31.02
557.478	31.43
557.821	31.18
558.164	31.15
558.507	31.22
558.849	31.51
559.192	31.35
559.534	31.78
559.877	31.67
560.219	31.39
560.562	31.71
560.904	31.5
561.246	31.65
561.589	31.69
561.931	31.9
562.273	31.72
562.615	31.82
562.957	31.81
563.299	32.02
563.641	31.78
563.983	32.11
564.325	32.14
564.667	32.14
565.008	32.24
565.35	32.36
565.692	32.12
566.033	32.31
566.375	32.53
566.716	32.62
567.058	32.5
567.399	32.52
567.741	32.44
568.082	32.38
568.423	32.47
568.764	32.51
569.105	32.61
569.447	32.46
569.788	32.72
570.129	32.56
570.47	32.63
570.811	32.76
571.151	33.01
571.492	32.81
571.833	32.9
572.174	33.33
572.514	33.15
572.855	33.1
573.195	33.21
573.536	33.17
573.876	33.09
574.217	33.05
574.557	33.3
574.898	33.18
575.238	33.36
575.578	33.45
575.918	33.56
576.258	33.57
576.598	33.64
576.938	33.68
577.278	33.76
577.618	33.62
577.958	33.76
578.298	33.98
578.638	34
578.977	33.92
579.317	34.17
579.657	34.14
579.996	34.26
580.336	34.27
580.675	34.39
581.014	34.47
581.354	34.62
581.693	34.77
582.032	34.31
582.372	34.76
582.711	34.63
583.05	34.67
583.389	34.69
583.728	35.25
584.067	35.16
584.406	34.79
584.745	34.97
585.083	35.25
585.422	35.17
585.761	35.38
586.1	35.25
586.438	35.3
586.777	35.26
587.115	35.11
587.454	35.26
587.792	35.35
588.13	35.44
588.469	35.85
588.807	35.64
589.145	36
589.483	35.53
589.821	35.75
590.159	35.87
590.497	35.67
590.835	35.86
591.173	35.7
591.511	35.88
591.849	35.87
592.187	35.68
592.524	36.03
592.862	36.14
593.2	35.6
593.537	36.05
593.875	36.21
594.212	36.13
594.55	36.26
594.887	36.45
595.224	36.37
595.561	36.41
595.899	36.45
596.236	36.51
596.573	36.28
596.91	36.64
597.247	36.32
597.584	36.37
597.921	36.43
598.258	36.47
598.594	36.43
598.931	36.59
599.268	36.53
599.604	36.78
599.941	36.82
600.277	36.55
600.614	37.02
600.95	36.76
601.287	37.11
601.623	37.38
601.959	37.31
602.296	37.09
602.632	37.34
602.968	37.39
603.304	37.27
603.64	37.42
603.976	37.75
604.312	37.39
604.648	37.74
604.984	37.84
605.319	37.49
605.655	37.61
605.991	37.39
606.326	37.59
606.662	37.53
606.998	37.52
607.333	37.58
607.668	37.46
608.004	37.49
608.339	38.15
608.674	37.77
609.01	38.34
609.345	37.88
609.68	38.29
610.015	38.11
610.35	37.87
610.685	38.06
611.02	38.05
611.355	38.24
611.689	38.42
612.024	38.12
612.359	38.15
612.694	38.44
613.028	38.57
613.363	38.52
613.697	38.44
614.032	39.01
614.366	39.17
614.7	38.62
615.035	39.05
615.369	39.46
615.703	39.2
616.037	38.89
616.371	39.05
616.705	39.25
617.039	39.43
617.373	39.26
617.707	39.52
618.041	39.57
618.375	39.69
618.709	39.7
619.042	39.22
619.376	40.18
619.71	38.97
620.043	39.92
620.377	39.57
620.71	39.53
621.043	40.04
621.377	39.49
621.71	40.16
622.043	39.94
622.376	40.5
622.709	40.27
623.043	40.26
623.376	40.16
623.709	40.23
624.041	40.29
624.374	40
624.707	40.05
625.04	40.61
625.373	40.01
625.705	40.46
626.038	40.86
626.37	40.4
626.703	40.71
627.035	40.5
627.368	40.29
627.7	40.73
628.032	40.89
628.365	40.37
628.697	40.68
629.029	40.77
629.361	40.95
629.693	40.93
630.025	40.85
630.357	41.04
630.689	40.77
631.021	41.33
631.353	41.09
631.684	41.54
632.016	41.31
632.348	41.5
632.679	41.13
633.011	41.74
633.342	41.53
633.674	41.5
634.005	41.69
634.336	41.25
634.668	41.42
634.999	41.52
635.33	41.3
635.661	42.05
635.992	41.88
636.323	42.08
636.654	41.65
636.985	41.72
637.316	41.85
637.647	41.99
637.977	41.9
638.308	42.64
638.639	42.17
638.969	42.02
639.3	42.31
639.63	41.99
639.961	42.26
640.291	42.51
640.622	42.1
640.952	42.66
641.282	42.5
641.612	42.46
641.943	42.76
642.273	42.67
642.603	43.06
642.933	43.09
643.263	42.67
643.592	42.76
643.922	43.63
644.252	42.29
644.582	43.03
644.911	43.12
645.241	42.69
645.571	43.28
645.9	43.01
646.23	43.41
646.559	43.27
646.888	43.16
647.218	43.32
647.547	42.99
647.876	43.89
648.205	43.73
648.534	43.31
648.863	43.61
649.192	43
649.521	43.7
649.85	43.35
650.179	43.89
650.508	43.44
650.837	43.42
651.165	44.24
651.494	44.23
651.822	44.23
652.151	43.73
652.479	44.18
652.808	44.08
653.136	44.05
653.465	44.58
653.793	44.17
654.121	44.41
654.449	44.29
654.777	44.18
655.105	44.15
655.433	44.46
655.761	44.56
656.089	44.43
656.417	44.4
656.745	44.8
657.073	44.81
657.4	44.99
657.728	44.58
658.056	45.02
658.383	44.97
658.711	45.04
659.038	44.56
659.365	44.87
659.693	44.97
660.02	44.96
660.347	44.6
660.674	45.36
661.001	44.86
661.329	44.74
661.656	44.99
661.982	45.19
662.309	45.12
662.636	45.33
662.963	45.42
663.29	44.89
663.616	45.2
663.943	45.32
664.27	45.29
664.596	45.35
664.923	45.54
665.249	45.66
665.576	46.02
665.902	45.53
666.228	45.65
666.554	45.69
666.881	45.72
667.207	46.31
667.533	45.57
667.859	45.79
668.185	46.21
668.511	45.93
668.837	46.79
669.162	46.71
669.488	46.49
669.814	46.05
670.139	46.37
670.465	46.24
670.791	45.63
671.116	46.73
671.442	46.37
671.767	46.7
672.092	45.81
672.418	45.98
672.743	45.9
