Data from 0381_chest_Reflection__3__107.txt Node

Date: Mon Dec 11 18:56:33 CST 2023
User: ToomeyLab
Spectrometer: FLMS14357
Trigger mode: 0
Integration Time (sec): 1.000000E-2
Scans to average: 100
Electric dark correction enabled: true
Nonlinearity correction enabled: false
Boxcar width: 0
XAxis mode: Wavelengths
Number of Pixels in Spectrum: 2048
>>>>>Begin Spectral Data<<<<<
189.047	61.85
189.435	61.85
189.823	61.85
190.211	42.96
190.599	-171.27
190.987	-36.54
191.375	155.16
191.763	187.21
192.151	-103.26
192.538	-67.09
192.926	26.09
193.314	68.31
193.702	681.36
194.089	172.12
194.477	8.32
194.864	2652.97
195.252	2.93
195.639	1072.48
196.027	332.94
196.414	-123.79
196.801	24.66
197.189	-222.67
197.576	30.09
197.963	-56.95
198.351	-18.24
198.738	43.29
199.125	5.21
199.512	-5.09
199.899	15.82
200.286	-5.72
200.673	-240.12
201.06	40.65
201.447	-12.24
201.833	31.59
202.22	51.08
202.607	-7.36
202.994	-11.19
203.38	-182.08
203.767	10.34
204.154	61.21
204.54	-7.46
204.927	55.6
205.313	13.69
205.699	17.45
206.086	-14.55
206.472	9.95
206.858	-1.04
207.245	19.05
207.631	31.81
208.017	-10.2
208.403	28.42
208.789	-22.06
209.175	25.61
209.561	-7.83
209.947	15
210.333	50.07
210.719	15.12
211.105	8.62
211.491	26.88
211.876	15.91
212.262	-3.53
212.648	-9.29
213.034	-11.11
213.419	-26.62
213.805	-12.09
214.19	11.1
214.576	29.16
214.961	-10.31
215.346	23.41
215.732	4.08
216.117	24.67
216.502	2.48
216.888	0.01
217.273	9.61
217.658	-25.86
218.043	-19.05
218.428	-20.66
218.813	18.78
219.198	7.47
219.583	15.53
219.968	-21.09
220.353	-0.16
220.738	24.89
221.122	0.81
221.507	25.64
221.892	4.86
222.276	5.06
222.661	0.4
223.046	-9.7
223.43	-0.39
223.815	-12.63
224.199	-3.64
224.583	7.5
224.968	6.6
225.352	6.18
225.736	3.93
226.121	0.4
226.505	-0.83
226.889	0.74
227.273	-4.54
227.657	8.21
228.041	3.87
228.425	-2.54
228.809	0.56
229.193	2.52
229.577	1.12
229.961	0.86
230.344	2.29
230.728	1.5
231.112	1.03
231.495	1.17
231.879	1.54
232.263	-0.83
232.646	0.22
233.03	0.95
233.413	2.22
233.797	1.09
234.18	0.29
234.563	3.11
234.946	2.49
235.33	5.04
235.713	0.99
236.096	2.87
236.479	0.79
236.862	-0.16
237.245	0.45
237.628	2.68
238.011	1.98
238.394	0.15
238.777	-0.09
239.16	0.77
239.543	2.89
239.925	0.79
240.308	0.2
240.691	-0.58
241.073	1.65
241.456	2.54
241.838	2.84
242.221	2.69
242.603	1.59
242.986	0.72
243.368	0.8
243.75	1.15
244.133	1.77
244.515	1.27
244.897	1.04
245.279	1.5
245.661	1.63
246.043	1.02
246.425	1.45
246.807	1.74
247.189	1.63
247.571	1.85
247.953	1.62
248.335	1.78
248.717	1.48
249.098	1.37
249.48	1.43
249.862	1.46
250.243	1.5
250.625	1.21
251.006	1.22
251.388	1.52
251.769	2.73
252.151	3.43
252.532	1.68
252.913	1.71
253.295	1.68
253.676	1.89
254.057	1.37
254.438	1.63
254.819	1.5
255.2	1.49
255.581	0.62
255.962	0.49
256.343	2.08
256.724	1.38
257.105	1.01
257.486	0.23
257.867	2.55
258.247	0.96
258.628	1.72
259.009	2.26
259.389	2.31
259.77	1.25
260.15	0.79
260.531	1.54
260.911	0.52
261.292	1.28
261.672	1.35
262.052	1.39
262.432	1.53
262.813	1.54
263.193	1.22
263.573	1.71
263.953	1.29
264.333	0.95
264.713	1.63
265.093	1.21
265.473	2.13
265.853	2
266.233	0.52
266.612	1.16
266.992	1.5
267.372	2.54
267.752	2.21
268.131	1.44
268.511	1.25
268.89	1.53
269.27	1.94
269.649	1.92
270.029	1.94
270.408	0.89
270.787	1
271.167	1.32
271.546	1.3
271.925	1.11
272.304	0.95
272.683	1.56
273.062	0.85
273.441	1.37
273.82	1.06
274.199	1.52
274.578	1.46
274.957	1.68
275.336	1.06
275.715	1.35
276.093	2.01
276.472	1.78
276.851	1.93
277.229	1.57
277.608	1.48
277.986	1.62
278.365	1.14
278.743	1.16
279.122	1.66
279.5	1.24
279.878	1.3
280.257	1.25
280.635	1.84
281.013	0.75
281.391	1.53
281.769	1.09
282.147	1.19
282.525	0.99
282.903	1.28
283.281	1.3
283.659	1.08
284.037	0.99
284.415	1.01
284.792	1.74
285.17	1.8
285.548	1.41
285.925	1.01
286.303	1.67
286.68	1.1
287.058	1.47
287.435	1.52
287.813	1.74
288.19	1.11
288.567	1.02
288.945	1.42
289.322	1.1
289.699	1.49
290.076	0.97
290.453	1.81
290.83	1.94
291.207	1.44
291.584	1.74
291.961	1.72
292.338	1.62
292.715	1.85
293.092	1.34
293.469	1.38
293.845	2.02
294.222	2.27
294.599	1.43
294.975	1.27
295.352	1.48
295.728	1.33
296.105	1.38
296.481	1.49
296.858	1.28
297.234	2.13
297.61	2.17
297.986	1.86
298.363	1.53
298.739	1.63
299.115	1.4
299.491	1.85
299.867	1.42
300.243	1.77
300.619	1.34
300.995	1.52
301.371	1.82
301.746	1.28
302.122	1.71
302.498	1.85
302.874	1.9
303.249	1.98
303.625	1.43
304	1.62
304.376	1.7
304.751	2.16
305.127	1.86
305.502	2.1
305.878	1.81
306.253	2.51
306.628	2.02
307.003	1.7
307.378	1.97
307.754	1.73
308.129	2.25
308.504	1.38
308.879	1.03
309.254	3.05
309.629	2.82
310.003	1.89
310.378	1.72
310.753	1.76
311.128	1.88
311.502	2
311.877	1.8
312.252	2.19
312.626	2.01
313.001	1.87
313.375	1.57
313.75	1.63
314.124	1.93
314.498	1.96
314.873	1.83
315.247	2.04
315.621	2.69
315.995	1.85
316.369	1.9
316.743	2.66
317.117	2.36
317.491	2.12
317.865	2.17
318.239	2.18
318.613	1.97
318.987	2.17
319.361	2.35
319.734	1.8
320.108	1.65
320.482	1.97
320.855	1.87
321.229	2.26
321.602	2.28
321.976	2.28
322.349	2.39
322.723	1.54
323.096	2.37
323.469	2.99
323.843	2.21
324.216	2.28
324.589	2.88
324.962	1.87
325.335	1.89
325.708	2.18
326.081	2.51
326.454	2.1
326.827	2.42
327.2	1.67
327.573	2.09
327.945	2.31
328.318	2.01
328.691	2.29
329.063	2.35
329.436	2.19
329.809	2.23
330.181	2.25
330.553	2.66
330.926	2.06
331.298	2.94
331.671	2.19
332.043	2.52
332.415	2.72
332.787	2.59
333.159	2.39
333.532	2.06
333.904	2.24
334.276	2.77
334.648	2.27
335.02	2.33
335.391	2.39
335.763	2.07
336.135	2.73
336.507	2.25
336.879	2.49
337.25	2.16
337.622	1.98
337.993	2.46
338.365	2.15
338.736	2.79
339.108	2.33
339.479	2.26
339.851	2.24
340.222	2.57
340.593	2.33
340.964	2.54
341.336	2.15
341.707	1.64
342.078	2.01
342.449	2.27
342.82	2.21
343.191	2.17
343.562	2.48
343.933	2.08
344.303	2.04
344.674	2.47
345.045	2.33
345.416	1.75
345.786	2.66
346.157	2.46
346.527	2.21
346.898	2.56
347.268	2.05
347.639	2.18
348.009	2.4
348.38	1.87
348.75	2.61
349.12	2.95
349.49	1.66
349.861	1.77
350.231	2.19
350.601	2.52
350.971	2.29
351.341	2.06
351.711	2.29
352.081	2.09
352.45	2.35
352.82	1.87
353.19	1.93
353.56	2.32
353.929	1.79
354.299	2.07
354.669	2.46
355.038	2.5
355.408	1.97
355.777	2.23
356.147	2.47
356.516	2.06
356.885	2.32
357.254	2.47
357.624	2.64
357.993	2.13
358.362	2.49
358.731	2.23
359.1	2.15
359.469	2.22
359.838	2.27
360.207	1.95
360.576	2.31
360.945	2.61
361.314	2.65
361.682	2.39
362.051	2.49
362.42	2.38
362.788	2.09
363.157	2.34
363.525	2.08
363.894	2.49
364.262	2.17
364.631	2.43
364.999	2.45
365.367	2.45
365.735	2.29
366.104	2.15
366.472	2.33
366.84	2.58
367.208	2.59
367.576	2.33
367.944	2.62
368.312	2.34
368.68	2.53
369.048	2.23
369.416	2.21
369.783	2.27
370.151	2.48
370.519	2.65
370.886	2.25
371.254	2.64
371.621	2.55
371.989	2.44
372.356	2.48
372.724	2.8
373.091	2.87
373.458	2.24
373.826	2.23
374.193	2.55
374.56	2.43
374.927	2.61
375.294	2.29
375.661	2.55
376.028	2.4
376.395	2.47
376.762	2.46
377.129	2.48
377.496	2.49
377.863	2.57
378.229	2.32
378.596	2.31
378.963	2.63
379.329	2.41
379.696	2.42
380.062	2.38
380.429	2.55
380.795	2.56
381.161	2.16
381.528	2.43
381.894	2.4
382.26	2.7
382.626	2.33
382.993	2.75
383.359	2.55
383.725	2.45
384.091	2.55
384.457	2.25
384.823	3.05
385.188	2.23
385.554	2.39
385.92	2.49
386.286	2.44
386.651	2.25
387.017	2.43
387.383	2.5
387.748	2.61
388.114	2.27
388.479	2.58
388.845	2.42
389.21	2.71
389.575	2.46
389.94	2.62
390.306	2.53
390.671	2.49
391.036	2.65
391.401	2.72
391.766	2.32
392.131	2.82
392.496	2.6
392.861	2.63
393.226	2.6
393.591	2.71
393.956	2.52
394.32	2.78
394.685	2.37
395.05	2.57
395.414	2.59
395.779	2.42
396.143	2.2
396.508	2.57
396.872	2.42
397.236	2.32
397.601	2.36
397.965	2.79
398.329	2.73
398.694	2.56
399.058	2.61
399.422	2.62
399.786	2.58
400.15	2.52
400.514	2.65
400.878	2.78
401.242	2.4
401.605	2.55
401.969	2.62
402.333	2.44
402.697	2.47
403.06	2.7
403.424	2.52
403.787	2.82
404.151	2.53
404.514	2.39
404.878	2.51
405.241	2.56
405.604	2.62
405.968	2.53
406.331	2.45
406.694	2.41
407.057	2.39
407.42	2.91
407.783	2.53
408.146	2.88
408.509	2.62
408.872	2.52
409.235	2.62
409.598	2.58
409.961	2.33
410.323	2.66
410.686	2.76
411.049	2.79
411.411	2.55
411.774	2.62
412.136	2.63
412.499	2.79
412.861	2.46
413.223	2.7
413.586	2.89
413.948	2.67
414.31	2.62
414.672	2.55
415.035	2.59
415.397	2.58
415.759	2.53
416.121	2.67
416.483	2.79
416.845	2.61
417.206	2.41
417.568	2.63
417.93	2.94
418.292	2.66
418.653	2.52
419.015	2.67
419.377	2.62
419.738	2.62
420.1	2.57
420.461	2.6
420.822	2.61
421.184	2.66
421.545	2.45
421.906	2.5
422.267	2.74
422.629	2.58
422.99	2.54
423.351	2.38
423.712	2.56
424.073	2.49
424.434	2.53
424.795	2.66
425.155	2.61
425.516	2.69
425.877	2.44
426.238	2.55
426.598	2.56
426.959	2.57
427.32	2.58
427.68	2.63
428.041	2.56
428.401	2.56
428.761	2.67
429.122	2.7
429.482	2.69
429.842	2.69
430.202	2.43
430.563	2.7
430.923	2.67
431.283	2.79
431.643	2.64
432.003	2.74
432.363	2.92
432.722	2.76
433.082	2.76
433.442	2.79
433.802	2.6
434.161	2.81
434.521	2.51
434.881	2.84
435.24	2.52
435.6	2.54
435.959	2.6
436.319	2.69
436.678	2.65
437.037	2.67
437.396	2.51
437.756	2.6
438.115	2.83
438.474	2.77
438.833	2.67
439.192	2.74
439.551	2.75
439.91	2.81
440.269	2.7
440.628	2.54
440.987	2.92
441.345	2.71
441.704	2.64
442.063	2.68
442.421	2.76
442.78	2.6
443.138	2.68
443.497	2.73
443.855	2.67
444.214	2.85
444.572	2.64
444.93	2.9
445.288	2.78
445.647	2.86
446.005	2.66
446.363	2.73
446.721	2.72
447.079	2.61
447.437	2.75
447.795	2.72
448.153	2.74
448.51	2.71
448.868	2.57
449.226	2.61
449.584	2.77
449.941	2.79
450.299	2.67
450.656	2.62
451.014	2.73
451.371	2.69
451.729	2.87
452.086	2.75
452.443	2.91
452.801	2.81
453.158	2.79
453.515	2.69
453.872	2.86
454.229	2.77
454.586	2.77
454.943	2.84
455.3	2.88
455.657	2.75
456.014	2.78
456.371	2.83
456.727	2.8
457.084	2.92
457.441	2.92
457.797	2.82
458.154	2.92
458.51	3.09
458.867	2.76
459.223	2.9
459.58	2.8
459.936	3.01
460.292	2.71
460.648	2.89
461.005	2.77
461.361	2.78
461.717	2.77
462.073	2.74
462.429	2.75
462.785	2.75
463.141	2.8
463.496	2.92
463.852	2.81
464.208	2.86
464.564	2.87
464.919	2.83
465.275	2.92
465.631	2.79
465.986	2.98
466.342	2.93
466.697	2.88
467.052	2.89
467.408	3.08
467.763	2.88
468.118	2.76
468.473	2.82
468.829	2.86
469.184	3.1
469.539	2.8
469.894	2.88
470.249	2.88
470.603	2.93
470.958	2.91
471.313	2.86
471.668	3.02
472.023	3.11
472.377	2.84
472.732	2.92
473.086	3.04
473.441	2.87
473.795	2.94
474.15	2.99
474.504	2.79
474.859	2.99
475.213	2.82
475.567	2.97
475.921	3.04
476.275	2.97
476.63	2.88
476.984	2.92
477.338	2.73
477.692	2.94
478.045	2.82
478.399	2.98
478.753	2.78
479.107	2.87
479.461	3.06
479.814	2.82
480.168	2.87
480.521	3.17
480.875	2.97
481.228	2.89
481.582	3.01
481.935	2.93
482.289	2.98
482.642	2.91
482.995	2.92
483.348	2.86
483.701	2.84
484.055	2.99
484.408	2.95
484.761	2.82
485.114	2.83
485.466	2.75
485.819	2.72
486.172	2.74
486.525	2.78
486.878	2.81
487.23	2.83
487.583	2.85
487.936	2.94
488.288	2.9
488.641	2.79
488.993	2.81
489.345	2.82
489.698	2.83
490.05	2.79
490.402	2.82
490.754	2.89
491.107	2.85
491.459	2.93
491.811	2.93
492.163	2.97
492.515	3.03
492.866	2.96
493.218	2.82
493.57	2.85
493.922	2.81
494.274	2.86
494.625	2.95
494.977	2.99
495.328	3.02
495.68	3.14
496.031	3.04
496.383	2.99
496.734	3.06
497.086	2.95
497.437	3.14
497.788	3.06
498.139	3.08
498.49	3.05
498.842	3.08
499.193	3.12
499.544	3.02
499.894	3.06
500.245	3.05
500.596	3.18
500.947	3.12
501.298	3.16
501.648	3.01
501.999	3.05
502.35	3.17
502.7	3.14
503.051	3.11
503.401	3.1
503.752	3.09
504.102	3.1
504.452	3.12
504.803	3.13
505.153	3.23
505.503	3.19
505.853	3.19
506.203	3.13
506.553	3.3
506.903	3.06
507.253	3.22
507.603	3.09
507.953	3.3
508.303	3.07
508.652	3.12
509.002	3.16
509.352	3.23
509.701	3.15
510.051	3.13
510.4	3.11
510.75	3.19
511.099	3.2
511.449	3.26
511.798	3.17
512.147	3.23
512.496	3.11
512.846	3.18
513.195	3.25
513.544	3.22
513.893	3.19
514.242	3.28
514.591	3.15
514.939	3.2
515.288	3.35
515.637	3.19
515.986	3.06
516.334	3.26
516.683	3.3
517.032	3.37
517.38	3.36
517.729	3.32
518.077	3.38
518.426	3.35
518.774	3.29
519.122	3.2
519.47	3.27
519.819	3.18
520.167	3.17
520.515	3.14
520.863	3.17
521.211	3.27
521.559	3.24
521.907	3.23
522.255	3.11
522.602	3.23
522.95	3.3
523.298	3.35
523.645	3.44
523.993	3.34
524.341	3.36
524.688	3.24
525.036	3.36
525.383	3.24
525.73	3.38
526.078	3.4
526.425	3.27
526.772	3.28
527.119	3.33
527.466	3.27
527.814	3.34
528.161	3.31
528.508	3.3
528.854	3.31
529.201	3.25
529.548	3.32
529.895	3.26
530.242	3.2
530.588	3.17
530.935	3.21
531.282	3.25
531.628	3.25
531.975	3.35
532.321	3.36
532.667	3.31
533.014	3.3
533.36	3.33
533.706	3.51
534.052	3.43
534.399	3.43
534.745	3.35
535.091	3.33
535.437	3.24
535.783	3.34
536.129	3.42
536.474	3.48
536.82	3.43
537.166	3.49
537.512	3.51
537.857	3.53
538.203	3.47
538.549	3.56
538.894	3.46
539.239	3.5
539.585	3.48
539.93	3.48
540.276	3.47
540.621	3.61
540.966	3.64
541.311	3.56
541.656	3.57
542.001	3.73
542.346	3.6
542.691	3.55
543.036	3.49
543.381	3.43
543.726	3.46
544.071	3.46
544.415	3.5
544.76	3.52
545.105	3.51
545.449	3.6
545.794	3.58
546.138	3.64
546.483	3.54
546.827	3.74
547.171	3.61
547.516	3.65
547.86	3.77
548.204	3.7
548.548	3.58
548.892	3.64
549.236	3.65
549.58	3.78
549.924	3.86
550.268	3.74
550.612	3.86
550.956	3.79
551.3	3.79
551.643	3.85
551.987	3.87
552.33	3.84
552.674	3.98
553.017	3.8
553.361	3.81
553.704	3.73
554.048	3.92
554.391	3.85
554.734	3.93
555.077	3.89
555.42	3.89
555.764	3.87
556.107	4.19
556.45	4.04
556.793	3.95
557.135	4.15
557.478	4
557.821	3.94
558.164	4.09
558.507	4.02
558.849	4.06
559.192	4.04
559.534	4
559.877	4.04
560.219	4.14
560.562	4.12
560.904	4.04
561.246	4.04
561.589	4.14
561.931	4.11
562.273	3.97
562.615	4.12
562.957	4.03
563.299	4.31
563.641	4.09
563.983	4.29
564.325	4.37
564.667	4.41
565.008	4.29
565.35	4.4
565.692	4.25
566.033	4.14
566.375	4.25
566.716	4.06
567.058	4.32
567.399	4.35
567.741	4.13
568.082	4.13
568.423	4.22
568.764	4.31
569.105	4.32
569.447	4.36
569.788	4.27
570.129	4.29
570.47	4.19
570.811	4.13
571.151	4.35
571.492	4.29
571.833	4.33
572.174	4.48
572.514	4.37
572.855	4.17
573.195	4.51
573.536	4.38
573.876	4.53
574.217	4.42
574.557	4.33
574.898	4.44
575.238	4.57
575.578	4.63
575.918	4.56
576.258	4.51
576.598	4.55
576.938	4.49
577.278	4.62
577.618	4.57
577.958	4.64
578.298	4.67
578.638	4.77
578.977	4.67
579.317	4.66
579.657	4.34
579.996	4.53
580.336	4.69
580.675	4.74
581.014	4.82
581.354	4.63
581.693	5
582.032	4.55
582.372	4.84
582.711	4.49
583.05	5.01
583.389	4.85
583.728	5.19
584.067	4.96
584.406	4.75
584.745	5.07
585.083	4.87
585.422	4.92
585.761	4.91
586.1	4.98
586.438	5.15
586.777	5.01
587.115	4.79
587.454	4.99
587.792	4.82
588.13	5.13
588.469	5.01
588.807	5.05
589.145	5.11
589.483	5.25
589.821	5.08
590.159	4.99
590.497	5.02
590.835	5.24
591.173	4.99
591.511	5.17
591.849	5.02
592.187	4.73
592.524	5.24
592.862	5.11
593.2	5.06
593.537	5.32
593.875	5.23
594.212	5.36
594.55	5.23
594.887	5.14
595.224	5.42
595.561	4.98
595.899	5.27
596.236	5.22
596.573	5.34
596.91	5.19
597.247	5.38
597.584	5.29
597.921	5.31
598.258	5.37
598.594	5.22
598.931	5.27
599.268	5.35
599.604	5.35
599.941	5.68
600.277	5.41
600.614	5.63
600.95	5.5
601.287	5.53
601.623	5.36
601.959	5.62
602.296	5.65
602.632	5.53
602.968	5.5
603.304	5.77
603.64	5.58
603.976	5.63
604.312	5.74
604.648	5.49
604.984	5.81
605.319	5.58
605.655	5.62
605.991	5.63
606.326	5.7
606.662	5.57
606.998	5.59
607.333	5.69
607.668	5.76
608.004	5.52
608.339	5.94
608.674	5.9
609.01	5.9
609.345	5.65
609.68	5.68
610.015	5.9
610.35	5.93
610.685	5.73
611.02	5.66
611.355	6.07
611.689	5.89
612.024	5.78
612.359	5.81
612.694	5.93
613.028	5.93
613.363	5.7
613.697	5.95
614.032	6.13
614.366	6.03
614.7	5.87
615.035	6.05
615.369	6.02
615.703	6.32
616.037	6.06
616.371	6.01
616.705	6.21
617.039	6.3
617.373	6.31
617.707	6.43
618.041	6.21
618.375	6.54
618.709	6.29
619.042	6.2
619.376	6.55
619.71	6.42
620.043	5.91
620.377	6.07
620.71	6.17
621.043	6.33
621.377	5.82
621.71	6.22
622.043	6.32
622.376	6.46
622.709	6.72
623.043	6.79
623.376	6.4
623.709	6.56
624.041	6.36
624.374	6.42
624.707	6.36
625.04	6.96
625.373	6.55
625.705	6.91
626.038	6.17
626.37	6.8
626.703	6.99
627.035	6.89
627.368	6.8
627.7	6.8
628.032	6.83
628.365	6.71
628.697	6.61
629.029	6.53
629.361	6.64
629.693	6.95
630.025	6.66
630.357	6.27
630.689	6.62
631.021	7.11
631.353	7.05
631.684	7.26
632.016	7.14
632.348	6.85
632.679	7.1
633.011	6.86
633.342	7.03
633.674	7.14
634.005	7.21
634.336	7.23
634.668	7.02
634.999	7.13
635.33	6.81
635.661	7.16
635.992	7.48
636.323	7.05
636.654	7.01
636.985	6.72
637.316	7.12
637.647	7.18
637.977	7.44
638.308	7.33
638.639	7.3
638.969	7.11
639.3	7.29
639.63	7.06
639.961	7.07
640.291	7.63
640.622	7.2
640.952	7.63
641.282	7.12
641.612	7.34
641.943	7.29
642.273	7.26
642.603	7.62
642.933	7.6
643.263	7.9
643.592	7.64
643.922	7.6
644.252	7.35
644.582	7.43
644.911	7.49
645.241	7.46
645.571	7.81
645.9	7.17
646.23	7.45
646.559	7.44
646.888	7.17
647.218	7.9
647.547	7.32
647.876	7.78
648.205	7.38
648.534	7.54
648.863	8.23
649.192	7.46
649.521	7.93
649.85	7.48
650.179	7.8
650.508	8
650.837	7.21
651.165	8.19
651.494	7.92
651.822	7.9
652.151	8.23
652.479	7.93
652.808	8
653.136	7.84
653.465	8.17
653.793	8.17
654.121	7.56
654.449	8.27
654.777	8.23
655.105	7.99
655.433	8.11
655.761	8.06
656.089	8.2
656.417	7.55
656.745	8.22
657.073	8.64
657.4	8.67
657.728	8.34
658.056	8.32
658.383	7.91
658.711	8.16
659.038	8.43
659.365	7.99
659.693	8.25
660.02	8.39
660.347	8.13
660.674	8.22
661.001	8.13
661.329	8.17
661.656	8.83
661.982	8.06
662.309	8.56
662.636	8.21
662.963	8.7
663.29	8.4
663.616	8.02
663.943	8.29
664.27	8.91
664.596	8.88
664.923	8.47
665.249	8.71
665.576	8.51
665.902	8.24
666.228	8.47
666.554	8.87
666.881	8.27
667.207	9.37
667.533	8.69
667.859	8.91
668.185	8.89
668.511	8.78
668.837	9.31
669.162	8.78
669.488	9.11
669.814	8.29
670.139	9.42
670.465	8.75
670.791	8.93
671.116	9.36
671.442	9.24
671.767	8.87
672.092	8.93
672.418	8.83
672.743	8.4
673.068	8.75
673.393	8.46
673.718	8.97
674.043	9.11
674.368	9.11
674.693	9.29
675.018	9.25
675.343	8.48
675.667	8.82
675.992	9.64
676.317	8.8
676.641	9.56
676.966	9.76
677.29	8.63
677.615	9.31
677.939	9.11
678.264	8.78
678.588	9.55
678.912	9.33
679.236	9.51
679.56	9.69
679.885	9.3
680.209	9.8
680.532	9.52
680.856	9.39
681.18	9.51
681.504	9.28
681.828	8.84
682.152	9.32
682.475	9.53
682.799	9.52
683.122	9.19
683.446	8.94
683.769	9.48
684.093	9.75
684.416	8.93
684.739	9.69
685.062	10.02
685.386	9.46
685.709	9.29
686.032	9.81
686.355	9.11
686.678	9.67
687.001	10.16
687.324	9.15
687.646	9.2
687.969	9.88
688.292	10.55
688.614	10.46
688.937	10.07
689.26	9.47
689.582	9.44
689.904	10.12
690.227	10.42
690.549	9.94
690.871	10.02
691.194	9.74
691.516	8.93
691.838	9.23
