Data from 0381_forehead_Reflection__0__115.txt Node

Date: Mon Dec 11 18:59:08 CST 2023
User: ToomeyLab
Spectrometer: FLMS14357
Trigger mode: 0
Integration Time (sec): 1.000000E-2
Scans to average: 100
Electric dark correction enabled: true
Nonlinearity correction enabled: false
Boxcar width: 0
XAxis mode: Wavelengths
Number of Pixels in Spectrum: 2048
>>>>>Begin Spectral Data<<<<<
189.047	62.44
189.435	62.44
189.823	62.44
190.211	116.72
190.599	-315.16
190.987	112.53
191.375	-14.78
191.763	80.81
192.151	105.65
192.538	-78.52
192.926	149.05
193.314	41.96
193.702	254.94
194.089	-441.7
194.477	181.25
194.864	897.26
195.252	64.43
195.639	2729.53
196.027	1019.05
196.414	13.6
196.801	-82.67
197.189	648.18
197.576	45.75
197.963	70.42
198.351	23.08
198.738	-40.65
199.125	-72.96
199.512	11.9
199.899	30.64
200.286	19.76
200.673	-10.07
201.06	60.1
201.447	6.17
201.833	4.9
202.22	85.21
202.607	3.65
202.994	13.99
203.38	-44.17
203.767	30.02
204.154	47.13
204.54	-29.19
204.927	19.8
205.313	-24.86
205.699	-11.56
206.086	-42.05
206.472	50.31
206.858	16.25
207.245	-18.35
207.631	-16.14
208.017	5.27
208.403	3.66
208.789	-12.91
209.175	18.42
209.561	-5.85
209.947	21.16
210.333	51.44
210.719	8.95
211.105	12.56
211.491	27.7
211.876	-1.24
212.262	-28.11
212.648	39.28
213.034	-3.88
213.419	-5.08
213.805	0.92
214.19	-12.74
214.576	-10.63
214.961	1.32
215.346	55.91
215.732	0.07
216.117	11.91
216.502	25.48
216.888	14.04
217.273	12.12
217.658	22.39
218.043	15.74
218.428	-0.26
218.813	23.93
219.198	5.47
219.583	-8.19
219.968	3.08
220.353	3.27
220.738	21.05
221.122	-10.48
221.507	35.47
221.892	14.54
222.276	14.37
222.661	-12.95
223.046	9.59
223.43	7.18
223.815	1.52
224.199	7.35
224.583	7.8
224.968	1.87
225.352	0.81
225.736	6.45
226.121	7.47
226.505	3.74
226.889	4.78
227.273	6.55
227.657	10.29
228.041	4.79
228.425	-4.5
228.809	-3.81
229.193	3.87
229.577	3.71
229.961	2.61
230.344	2.4
230.728	2.08
231.112	2.09
231.495	2.9
231.879	1.35
232.263	-0.03
232.646	0.34
233.03	1.84
233.413	2.75
233.797	3.7
234.18	3.86
234.563	3.22
234.946	3.6
235.33	2.2
235.713	1.76
236.096	1.87
236.479	3
236.862	1.15
237.245	3.06
237.628	4.27
238.011	3.22
238.394	3.76
238.777	1.79
239.16	2.98
239.543	2.53
239.925	2.46
240.308	2.32
240.691	3.55
241.073	2.55
241.456	3.61
241.838	2.79
242.221	3.28
242.603	1.88
242.986	1.43
243.368	2.08
243.75	2.43
244.133	2.58
244.515	2.22
244.897	2.82
245.279	2.17
245.661	2.79
246.043	2.39
246.425	3.39
246.807	2.45
247.189	2.82
247.571	2.51
247.953	2.15
248.335	2.77
248.717	2.57
249.098	2.3
249.48	2.27
249.862	2.43
250.243	2.35
250.625	2.43
251.006	2.25
251.388	2.54
251.769	3.11
252.151	3.45
252.532	2.64
252.913	3
253.295	3.57
253.676	2.06
254.057	2.33
254.438	2.61
254.819	2.02
255.2	1.79
255.581	1.58
255.962	2.48
256.343	2.41
256.724	2.61
257.105	2.61
257.486	3.33
257.867	3.12
258.247	2.26
258.628	2.76
259.009	3.51
259.389	2.85
259.77	1.9
260.15	2.52
260.531	2.83
260.911	1.86
261.292	2.19
261.672	2.28
262.052	2.47
262.432	2.42
262.813	2.43
263.193	2.23
263.573	2.56
263.953	2.43
264.333	1.73
264.713	3.1
265.093	2.46
265.473	3.73
265.853	2.81
266.233	2.46
266.612	2.05
266.992	3.61
267.372	3.06
267.752	2.7
268.131	2.38
268.511	2.33
268.89	2.78
269.27	2.58
269.649	2.44
270.029	2.76
270.408	2.24
270.787	2.11
271.167	2.16
271.546	2.41
271.925	2.14
272.304	2.67
272.683	2.41
273.062	2.22
273.441	2.29
273.82	2.02
274.199	2.56
274.578	2.46
274.957	2.67
275.336	2.38
275.715	2.28
276.093	3.04
276.472	2.36
276.851	3.28
277.229	2.6
277.608	2.27
277.986	2.88
278.365	2.4
278.743	2.37
279.122	1.88
279.5	2.6
279.878	2.18
280.257	2.13
280.635	2.3
281.013	2.08
281.391	2.67
281.769	2.46
282.147	2.5
282.525	2.22
282.903	2.29
283.281	1.88
283.659	1.93
284.037	2.01
284.415	2.35
284.792	2.62
285.17	2.81
285.548	2.14
285.925	2.01
286.303	2.55
286.68	2.21
287.058	2.61
287.435	2.3
287.813	2.44
288.19	2.19
288.567	2.4
288.945	2.26
289.322	2.03
289.699	2.29
290.076	1.6
290.453	2.47
290.83	3.43
291.207	2.26
291.584	2.33
291.961	2.22
292.338	2.71
292.715	2.98
293.092	2.51
293.469	2.96
293.845	2.32
294.222	3.02
294.599	2.28
294.975	3.1
295.352	2.28
295.728	2.15
296.105	2.23
296.481	2.49
296.858	2.36
297.234	2.89
297.61	2.81
297.986	2.76
298.363	2.52
298.739	2.87
299.115	2.58
299.491	2.79
299.867	3.1
300.243	2.85
300.619	2.75
300.995	2.87
301.371	2.71
301.746	2.37
302.122	2.39
302.498	3.24
302.874	2.94
303.249	2.95
303.625	2.7
304	3.21
304.376	3.44
304.751	2.74
305.127	3.39
305.502	2.94
305.878	2.98
306.253	3.37
306.628	3.75
307.003	3.83
307.378	2.97
307.754	3.43
308.129	3.24
308.504	2.65
308.879	2.86
309.254	3.5
309.629	4.05
310.003	3.8
310.378	3.39
310.753	3.81
311.128	3.49
311.502	2.91
311.877	3.21
312.252	3.46
312.626	3.79
313.001	3.83
313.375	3.61
313.75	3.38
314.124	3.47
314.498	3.51
314.873	3.63
315.247	3.81
315.621	4.76
315.995	4.58
316.369	4.19
316.743	4.45
317.117	4.25
317.491	4.33
317.865	3.75
318.239	4.58
318.613	4.64
318.987	4.36
319.361	4.52
319.734	3.9
320.108	4.35
320.482	4.15
320.855	4.38
321.229	4.46
321.602	4.39
321.976	5.5
322.349	4.41
322.723	4.52
323.096	5.29
323.469	5.41
323.843	4.87
324.216	5.41
324.589	5.04
324.962	4.33
325.335	4.8
325.708	4.77
326.081	4.91
326.454	4.39
326.827	4.82
327.2	5
327.573	4.77
327.945	4.78
328.318	4.9
328.691	4.87
329.063	4.88
329.436	5.01
329.809	5.35
330.181	5.14
330.553	5.18
330.926	5.09
331.298	5.48
331.671	4.39
332.043	5.62
332.415	5.19
332.787	5.46
333.159	5
333.532	5.21
333.904	5.61
334.276	5.32
334.648	5.67
335.02	5.2
335.391	5.52
335.763	5.38
336.135	5.06
336.507	5.79
336.879	5.87
337.25	5.46
337.622	4.96
337.993	5.75
338.365	5.48
338.736	6.22
339.108	5.41
339.479	5.63
339.851	6
340.222	5.69
340.593	5.43
340.964	5.71
341.336	5.96
341.707	5.97
342.078	5.6
342.449	5.79
342.82	5.61
343.191	5.61
343.562	6.1
343.933	6.3
344.303	5.62
344.674	6.19
345.045	6.49
345.416	5.91
345.786	6.09
346.157	6.23
346.527	6.09
346.898	6.32
347.268	6.38
347.639	5.66
348.009	6.07
348.38	6.16
348.75	6.35
349.12	6.54
349.49	6.63
349.861	5.97
350.231	6.58
350.601	6.6
350.971	6.3
351.341	6.11
351.711	6.37
352.081	6.31
352.45	6.61
352.82	6.19
353.19	6.46
353.56	6.77
353.929	7
354.299	6.42
354.669	7.08
355.038	6.57
355.408	5.95
355.777	6.8
356.147	6.87
356.516	6.97
356.885	6.65
357.254	6.97
357.624	6.89
357.993	6.6
358.362	7.18
358.731	6.65
359.1	7.15
359.469	6.78
359.838	6.93
360.207	7.06
360.576	7.06
360.945	7.51
361.314	7.76
361.682	7.22
362.051	6.98
362.42	7.09
362.788	6.92
363.157	7.18
363.525	6.95
363.894	7.23
364.262	7.06
364.631	7.19
364.999	7.24
365.367	7.37
365.735	7.75
366.104	7.46
366.472	7.55
366.84	7.05
367.208	7.55
367.576	7.59
367.944	7.66
368.312	7.42
368.68	8.03
369.048	7.99
369.416	7.5
369.783	7.87
370.151	7.81
370.519	8.28
370.886	7.78
371.254	7.96
371.621	8.17
371.989	8.09
372.356	8.33
372.724	8.1
373.091	8.37
373.458	7.68
373.826	8.14
374.193	7.99
374.56	8.25
374.927	8.57
375.294	8.19
375.661	8.19
376.028	8.68
376.395	8.48
376.762	8.41
377.129	8.37
377.496	8.49
377.863	8.49
378.229	8.28
378.596	8.25
378.963	8.53
379.329	8.31
379.696	8.55
380.062	8.33
380.429	8.49
380.795	8.81
381.161	8.48
381.528	8.99
381.894	8.82
382.26	8.48
382.626	8.93
382.993	8.89
383.359	8.79
383.725	8.81
384.091	8.96
384.457	8.64
384.823	9.02
385.188	9.26
385.554	8.67
385.92	8.75
386.286	8.95
386.651	8.93
387.017	9.16
387.383	9.06
387.748	8.96
388.114	9.12
388.479	9.07
388.845	9.2
389.21	9.26
389.575	9.37
389.94	9.58
390.306	9.33
390.671	9.54
391.036	9.32
391.401	9.7
391.766	9.71
392.131	9.46
392.496	9.75
392.861	9.81
393.226	9.91
393.591	9.74
393.956	9.73
394.32	9.87
394.685	9.62
395.05	9.87
395.414	10.1
395.779	9.76
396.143	9.86
396.508	9.72
396.872	9.86
397.236	9.98
397.601	9.89
397.965	10.22
398.329	10.09
398.694	9.86
399.058	10.09
399.422	10.16
399.786	10.13
400.15	10.06
400.514	10.29
400.878	10.32
401.242	10.3
401.605	10.41
401.969	10.29
402.333	10.34
402.697	10.34
403.06	10.43
403.424	10.65
403.787	10.67
404.151	10.47
404.514	10.37
404.878	10.66
405.241	10.74
405.604	10.53
405.968	10.72
406.331	10.54
406.694	10.65
407.057	10.68
407.42	11.04
407.783	10.89
408.146	10.91
408.509	10.92
408.872	10.87
409.235	10.83
409.598	10.88
409.961	11.08
410.323	11.16
410.686	11.04
411.049	11.13
411.411	11.23
411.774	11.22
412.136	11.15
412.499	11.15
412.861	11.24
413.223	11.02
413.586	11.26
413.948	11.51
414.31	11.39
414.672	11.24
415.035	11.31
415.397	11.2
415.759	11.46
416.121	11.56
416.483	11.32
416.845	11.83
417.206	11.49
417.568	11.55
417.93	11.9
418.292	11.39
418.653	11.44
419.015	11.58
419.377	11.76
419.738	11.68
420.1	11.69
420.461	11.65
420.822	11.55
421.184	11.62
421.545	11.58
421.906	11.65
422.267	11.56
422.629	11.7
422.99	11.7
423.351	11.54
423.712	11.69
424.073	11.83
424.434	11.65
424.795	11.88
425.155	11.9
425.516	11.81
425.877	11.71
426.238	11.92
426.598	11.96
426.959	12
427.32	11.97
427.68	12.19
428.041	12.03
428.401	12.11
428.761	12.43
429.122	12.28
429.482	12.47
429.842	12.27
430.202	12.52
430.563	12.45
430.923	12.6
431.283	12.73
431.643	12.58
432.003	12.61
432.363	12.96
432.722	12.72
433.082	12.61
433.442	12.78
433.802	12.71
434.161	13.01
434.521	12.68
434.881	12.97
435.24	12.69
435.6	12.8
435.959	12.97
436.319	12.94
436.678	13.06
437.037	12.95
437.396	13.1
437.756	13.31
438.115	13.28
438.474	13.33
438.833	13.09
439.192	13.27
439.551	13.39
439.91	13.45
440.269	13.31
440.628	13.18
440.987	13.51
441.345	13.37
441.704	13.28
442.063	13.41
442.421	13.47
442.78	13.3
443.138	13.27
443.497	13.35
443.855	13.37
444.214	13.72
444.572	13.56
444.93	13.8
445.288	13.91
445.647	13.82
446.005	13.6
446.363	13.89
446.721	13.72
447.079	13.66
447.437	13.63
447.795	13.64
448.153	13.71
448.51	13.83
448.868	13.7
449.226	13.76
449.584	13.95
449.941	13.92
450.299	14.01
450.656	14.04
451.014	14.31
451.371	14.09
451.729	14.38
452.086	14.4
452.443	14.28
452.801	14.38
453.158	14.46
453.515	14.36
453.872	14.34
454.229	14.54
454.586	14.46
454.943	14.57
455.3	14.64
455.657	14.72
456.014	14.72
456.371	14.64
456.727	14.82
457.084	14.78
457.441	14.92
457.797	14.89
458.154	14.91
458.51	15.06
458.867	14.82
459.223	14.85
459.58	14.96
459.936	15.04
460.292	15.05
460.648	15.09
461.005	14.96
461.361	15.03
461.717	14.85
462.073	14.83
462.429	14.94
462.785	14.96
463.141	15.18
463.496	15.22
463.852	15.27
464.208	15.53
464.564	15.36
464.919	15.37
465.275	15.3
465.631	15.42
465.986	15.74
466.342	15.68
466.697	15.64
467.052	15.72
467.408	15.9
467.763	15.8
468.118	15.75
468.473	15.73
468.829	15.85
469.184	15.9
469.539	15.98
469.894	15.9
470.249	16.04
470.603	16.02
470.958	16.29
471.313	16.13
471.668	16.3
472.023	16.33
472.377	16.35
472.732	16.19
473.086	16.25
473.441	16.37
473.795	16.23
474.15	16.39
474.504	16.43
474.859	16.67
475.213	16.43
475.567	16.58
475.921	16.6
476.275	16.65
476.63	16.67
476.984	16.78
477.338	16.66
477.692	16.86
478.045	16.72
478.399	16.69
478.753	16.53
479.107	16.78
479.461	16.76
479.814	16.9
480.168	16.94
480.521	17.01
480.875	17.02
481.228	16.88
481.582	17.2
481.935	17.14
482.289	17.09
482.642	17.21
482.995	17.12
483.348	17.05
483.701	17.06
484.055	16.99
484.408	16.98
484.761	16.85
485.114	16.61
485.466	16.42
485.819	16.31
486.172	16.36
486.525	16.44
486.878	16.62
487.23	16.74
487.583	16.86
487.936	17.12
488.288	17.09
488.641	17.06
488.993	16.92
489.345	16.94
489.698	16.8
490.05	16.95
490.402	16.98
490.754	17.14
491.107	17.3
491.459	17.35
491.811	17.56
492.163	17.69
492.515	17.79
492.866	17.58
493.218	17.41
493.57	17.3
493.922	17.31
494.274	17.45
494.625	17.61
494.977	17.91
495.328	17.99
495.68	18.18
496.031	18.3
496.383	18.38
496.734	18.45
497.086	18.6
497.437	18.64
497.788	18.91
498.139	18.49
498.49	18.49
498.842	18.59
499.193	18.62
499.544	18.52
499.894	18.6
500.245	18.68
500.596	18.83
500.947	18.86
501.298	19.02
501.648	18.93
501.999	19.01
502.35	19.29
502.7	19.21
503.051	19.16
503.401	19.2
503.752	19.26
504.102	19.42
504.452	19.34
504.803	19.48
505.153	19.51
505.503	19.68
505.853	19.51
506.203	19.55
506.553	19.68
506.903	19.44
507.253	19.71
507.603	19.58
507.953	19.68
508.303	19.9
508.652	19.7
509.002	19.89
509.352	19.86
509.701	19.98
510.051	19.99
510.4	19.84
510.75	19.8
511.099	19.95
511.449	19.96
511.798	20
512.147	19.92
512.496	20.17
512.846	20.1
513.195	20.14
513.544	20.2
513.893	20.3
514.242	20.28
514.591	20.24
514.939	20.33
515.288	20.38
515.637	20.39
515.986	20.42
516.334	20.51
516.683	20.63
517.032	20.65
517.38	20.86
517.729	20.61
518.077	20.73
518.426	20.87
518.774	20.9
519.122	20.64
519.47	20.79
519.819	20.62
520.167	20.64
520.515	20.6
520.863	20.65
521.211	20.69
521.559	20.71
521.907	20.9
522.255	20.96
522.602	20.96
522.95	21.22
523.298	21.26
523.645	21.43
523.993	21.34
524.341	21.36
524.688	21.31
525.036	21.63
525.383	21.41
525.73	21.58
526.078	21.62
526.425	21.56
526.772	21.67
527.119	21.42
527.466	21.28
527.814	21.28
528.161	21.19
528.508	21.37
528.854	21.33
529.201	21.32
529.548	21.34
529.895	21.27
530.242	20.94
530.588	20.97
530.935	20.96
531.282	21.02
531.628	21.17
531.975	21.27
532.321	21.47
532.667	21.6
533.014	21.63
533.36	21.85
533.706	21.94
534.052	22.09
534.399	21.95
534.745	21.85
535.091	21.77
535.437	21.64
535.783	21.78
536.129	22
536.474	22.1
536.82	22.2
537.166	22.33
537.512	22.33
537.857	22.59
538.203	22.43
538.549	22.43
538.894	22.48
539.239	22.6
539.585	22.67
539.93	22.67
540.276	22.94
540.621	23.01
540.966	23.2
541.311	23.19
541.656	23.11
542.001	23.22
542.346	23.26
542.691	22.76
543.036	22.67
543.381	22.55
543.726	22.62
544.071	22.62
544.415	22.66
544.76	22.84
545.105	22.95
545.449	23.09
545.794	23.26
546.138	23.32
546.483	23.47
546.827	23.58
547.171	23.55
547.516	23.76
547.86	23.93
548.204	23.82
548.548	23.73
548.892	23.66
549.236	23.76
549.58	23.97
549.924	23.98
550.268	24.04
550.612	24.21
550.956	24.36
551.3	24.52
551.643	24.67
551.987	24.73
552.33	24.69
552.674	24.72
553.017	24.77
553.361	24.75
553.704	24.82
554.048	25.02
554.391	24.78
554.734	24.92
555.077	25.02
555.42	24.86
555.764	24.88
556.107	24.93
556.45	25.29
556.793	25.36
557.135	25.32
557.478	25.26
557.821	25.38
558.164	25.29
558.507	25.31
558.849	25.5
559.192	25.37
559.534	25.49
559.877	25.51
560.219	25.47
560.562	25.69
560.904	25.64
561.246	25.9
561.589	25.86
561.931	25.86
562.273	25.83
562.615	25.91
562.957	25.86
563.299	25.89
563.641	25.81
563.983	26.26
564.325	26.23
564.667	26.07
565.008	26.37
565.35	26.38
565.692	26.11
566.033	26.39
566.375	26.43
566.716	26.24
567.058	26.39
567.399	26.42
567.741	26.1
568.082	26.43
568.423	26.44
568.764	26.37
569.105	26.41
569.447	26.47
569.788	26.64
570.129	26.72
570.47	26.78
570.811	26.69
571.151	26.78
571.492	26.8
571.833	26.81
572.174	26.78
572.514	26.94
572.855	26.95
573.195	26.88
573.536	26.8
573.876	26.88
574.217	27.04
574.557	26.98
574.898	27.13
575.238	27.14
575.578	27.23
575.918	27.19
576.258	27.17
576.598	27.43
576.938	27.43
577.278	27.12
577.618	27.43
577.958	27.51
578.298	27.69
578.638	27.68
578.977	27.86
579.317	27.9
579.657	27.7
579.996	27.97
580.336	28.18
580.675	28.02
581.014	28.25
581.354	28.22
581.693	28.52
582.032	27.9
582.372	28.65
582.711	28.25
583.05	28.28
583.389	28.49
583.728	28.16
584.067	28.23
584.406	28.43
584.745	28.58
585.083	28.77
585.422	28.89
585.761	28.78
586.1	28.84
586.438	28.73
586.777	28.88
587.115	28.61
587.454	28.72
587.792	28.79
588.13	29.1
588.469	28.99
588.807	29.2
589.145	29.36
589.483	29.27
589.821	29.07
590.159	29.05
590.497	29.35
590.835	29.35
591.173	29.07
591.511	29.71
591.849	29.22
592.187	29.19
592.524	29.66
592.862	29.57
593.2	29.26
593.537	29.54
593.875	29.74
594.212	29.7
594.55	29.4
594.887	30.08
595.224	30.05
595.561	29.67
595.899	29.65
596.236	29.87
596.573	29.76
596.91	29.93
597.247	29.88
597.584	29.84
597.921	29.98
598.258	29.72
598.594	29.84
598.931	29.76
599.268	29.91
599.604	30.14
599.941	30.39
600.277	29.89
600.614	30.42
600.95	30.47
601.287	30.23
601.623	30.29
601.959	30.6
602.296	30.48
602.632	30.72
602.968	30.79
603.304	30.6
603.64	30.84
603.976	30.89
604.312	30.88
604.648	30.79
604.984	30.76
605.319	30.66
605.655	30.68
605.991	31.02
606.326	30.59
606.662	30.67
606.998	30.7
607.333	30.75
607.668	30.66
608.004	30.69
608.339	31.19
608.674	31.44
609.01	31.4
609.345	31.41
609.68	31.45
610.015	31.29
610.35	31.46
610.685	31.46
611.02	31.35
611.355	31.48
611.689	31.32
612.024	31.16
612.359	31.36
612.694	31.9
613.028	31.59
613.363	31.47
613.697	31.52
614.032	32.06
614.366	32.24
614.7	31.84
615.035	32.28
615.369	32.36
615.703	32.09
616.037	32.18
616.371	32.17
616.705	32.71
617.039	32.54
617.373	32.42
617.707	32.38
618.041	32.85
618.375	32.63
618.709	32.61
619.042	32.68
619.376	32.82
619.71	32.62
620.043	32.96
620.377	33.14
620.71	32.33
621.043	32.6
621.377	32.65
621.71	32.84
622.043	33.05
622.376	33.03
622.709	33.32
623.043	32.85
623.376	32.91
623.709	33.52
624.041	33.03
624.374	33.38
624.707	33.03
625.04	33.53
625.373	33.19
625.705	33.53
626.038	33.48
626.37	33.49
626.703	33.85
627.035	33.31
627.368	33.28
627.7	33.34
628.032	33.68
628.365	33.55
628.697	33.61
629.029	33.92
629.361	33.98
629.693	33.81
630.025	33.35
630.357	33.72
630.689	33.44
631.021	34.21
631.353	33.75
631.684	33.91
632.016	34.03
632.348	34.27
632.679	33.89
633.011	34.28
633.342	34.52
633.674	34.61
634.005	34.4
634.336	34.25
634.668	34.26
634.999	34.58
635.33	34.61
635.661	34.47
635.992	34.39
636.323	34.66
636.654	34.51
636.985	34.77
637.316	34.36
637.647	34.61
637.977	34.7
638.308	34.97
638.639	34.6
638.969	34.67
639.3	34.77
639.63	34.58
639.961	34.53
640.291	35.4
640.622	35.25
640.952	35.53
641.282	34.71
641.612	35.83
641.943	35.2
642.273	34.89
642.603	35.55
642.933	35.93
643.263	34.94
643.592	35.61
643.922	36.05
644.252	34.9
644.582	34.94
644.911	35.76
645.241	35.46
645.571	35.64
645.9	35.76
646.23	35.86
646.559	36.03
646.888	35.65
647.218	35.62
647.547	36.16
647.876	35.74
648.205	36.36
648.534	35.68
648.863	35.97
649.192	35.81
649.521	36.4
649.85	35.85
650.179	36.08
650.508	36.08
650.837	35.62
651.165	36.65
651.494	36.76
651.822	36.68
652.151	36.58
652.479	36.62
652.808	36.37
653.136	36.39
653.465	36.52
653.793	36.82
654.121	36.76
654.449	36.51
654.777	37.15
655.105	36.59
655.433	36.6
655.761	36.98
656.089	36.95
656.417	36.99
656.745	36.79
657.073	36.72
657.4	37.42
657.728	37.3
658.056	37.47
658.383	37.45
658.711	37.24
659.038	37.24
659.365	37.75
659.693	37.54
660.02	37.31
660.347	36.78
660.674	37.5
661.001	37.2
661.329	37.31
661.656	37.4
661.982	37.56
662.309	37.65
662.636	37.51
662.963	37.46
663.29	37.19
663.616	37.32
663.943	37.74
664.27	38.01
664.596	37.58
664.923	37.74
665.249	37.9
665.576	37.6
665.902	38.71
666.228	38.09
666.554	37.62
666.881	37.58
667.207	38.57
667.533	38.34
667.859	37.43
668.185	38.93
668.511	38
668.837	38.77
669.162	38.94
669.488	39.32
669.814	38
670.139	38.38
670.465	38.33
670.791	38.11
671.116	38.45
671.442	39.12
671.767	38.48
672.092	38.51
672.418	38.97
672.743	38.42
673.068	38.43
673.393	38.62
673.718	38.08
674.043	38.87
