Data from 0381_chest_Reflection__1__105.txt Node

Date: Mon Dec 11 18:56:10 CST 2023
User: ToomeyLab
Spectrometer: FLMS14357
Trigger mode: 0
Integration Time (sec): 1.000000E-2
Scans to average: 100
Electric dark correction enabled: true
Nonlinearity correction enabled: false
Boxcar width: 0
XAxis mode: Wavelengths
Number of Pixels in Spectrum: 2048
>>>>>Begin Spectral Data<<<<<
189.047	-28.69
189.435	-28.69
189.823	-28.69
190.211	21.66
190.599	-187.07
190.987	-108.86
191.375	70.36
191.763	124.78
192.151	31.86
192.538	289.49
192.926	29.1
193.314	-8.8
193.702	48.65
194.089	-181.5
194.477	247.01
194.864	2334.25
195.252	107
195.639	606.71
196.027	216.25
196.414	-267.94
196.801	-50.73
197.189	525.78
197.576	54.86
197.963	-47.81
198.351	-14.63
198.738	7.65
199.125	-35.32
199.512	-10.9
199.899	6.36
200.286	39.51
200.673	-311.86
201.06	66.59
201.447	27.75
201.833	38.84
202.22	63.47
202.607	2.59
202.994	-20.93
203.38	-137.01
203.767	45.38
204.154	25.22
204.54	2.27
204.927	41.34
205.313	4.71
205.699	-139.11
206.086	4.82
206.472	16.48
206.858	10.44
207.245	12.59
207.631	36.95
208.017	25.85
208.403	19.26
208.789	-14.23
209.175	4.53
209.561	-19.29
209.947	-18.54
210.333	15.03
210.719	21.3
211.105	20.36
211.491	15.77
211.876	25.55
212.262	-9.15
212.648	-1.11
213.034	-14.77
213.419	-14.47
213.805	2.76
214.19	25.61
214.576	12.82
214.961	-6.2
215.346	-34.38
215.732	-6.23
216.117	-20.2
216.502	18.21
216.888	1.89
217.273	15.14
217.658	10.34
218.043	-20.96
218.428	0.77
218.813	36.52
219.198	5.91
219.583	-24.9
219.968	-17.53
220.353	-14.18
220.738	17.21
221.122	-9.69
221.507	24.13
221.892	10.18
222.276	4.01
222.661	-4.48
223.046	12.91
223.43	9.99
223.815	-7
224.199	6.8
224.583	-3.43
224.968	-3.05
225.352	8.27
225.736	8.17
226.121	5.25
226.505	-10.53
226.889	6.02
227.273	6.16
227.657	10.49
228.041	6.11
228.425	0.98
228.809	-1.87
229.193	5.03
229.577	6.46
229.961	4.5
230.344	5.57
230.728	5.31
231.112	5.23
231.495	5.58
231.879	5.3
232.263	3.67
232.646	4.98
233.03	5.02
233.413	4.43
233.797	5.61
234.18	4.13
234.563	4.81
234.946	4.65
235.33	5.66
235.713	5.4
236.096	6.21
236.479	6.26
236.862	4.83
237.245	5.73
237.628	5.11
238.011	5.85
238.394	5.28
238.777	5.04
239.16	5.84
239.543	5.3
239.925	4.51
240.308	4.37
240.691	3.94
241.073	4.97
241.456	5.99
241.838	6.1
242.221	6.05
242.603	3.82
242.986	4.74
243.368	4.82
243.75	4.79
244.133	5.25
244.515	4.81
244.897	4.81
245.279	5.31
245.661	4.96
246.043	4.94
246.425	5.05
246.807	4.92
247.189	4.58
247.571	4.47
247.953	5.13
248.335	5.41
248.717	5.12
249.098	4.98
249.48	4.94
249.862	5.22
250.243	4.97
250.625	5.13
251.006	5.01
251.388	4.79
251.769	5.28
252.151	5.43
252.532	5.26
252.913	5.21
253.295	5.45
253.676	4.82
254.057	4.52
254.438	5.34
254.819	4.28
255.2	4.12
255.581	3.91
255.962	4.86
256.343	4.44
256.724	5.27
257.105	4.85
257.486	4.42
257.867	6.38
258.247	4.33
258.628	5.94
259.009	5.64
259.389	5.63
259.77	4.43
260.15	4.47
260.531	5
260.911	4.51
261.292	4.13
261.672	4.44
262.052	4.5
262.432	4.52
262.813	4.63
263.193	4.36
263.573	4.57
263.953	4.24
264.333	4.42
264.713	5.14
265.093	4.37
265.473	4.95
265.853	5.12
266.233	4.28
266.612	4.3
266.992	5.24
267.372	4.99
267.752	4.69
268.131	4.5
268.511	4.3
268.89	4.46
269.27	4.63
269.649	4.2
270.029	5.21
270.408	4.58
270.787	3.68
271.167	4.02
271.546	4.76
271.925	4.62
272.304	4.3
272.683	4.3
273.062	3.99
273.441	4.32
273.82	3.93
274.199	4.13
274.578	4.61
274.957	4.71
275.336	4.31
275.715	4.16
276.093	4.6
276.472	4.32
276.851	4.97
277.229	4.67
277.608	4.49
277.986	4.73
278.365	4.11
278.743	4.32
279.122	4.33
279.5	4.57
279.878	4.23
280.257	4.15
280.635	4.41
281.013	4.03
281.391	4.32
281.769	3.7
282.147	3.77
282.525	4.08
282.903	4.17
283.281	4.22
283.659	3.7
284.037	4.03
284.415	4.04
284.792	4.71
285.17	4.41
285.548	4.07
285.925	4.32
286.303	4.53
286.68	4.2
287.058	4.27
287.435	4.59
287.813	4.47
288.19	4.46
288.567	4.09
288.945	4.05
289.322	3.89
289.699	4
290.076	4.25
290.453	4.51
290.83	4.68
291.207	4.19
291.584	4.62
291.961	4.3
292.338	4.13
292.715	4.67
293.092	4.47
293.469	4.23
293.845	4.5
294.222	4.42
294.599	3.61
294.975	4.45
295.352	4.11
295.728	4.28
296.105	4.34
296.481	3.91
296.858	4.28
297.234	4.7
297.61	4.9
297.986	4.62
298.363	4.33
298.739	4.62
299.115	4.42
299.491	4.45
299.867	4.62
300.243	4.85
300.619	4.44
300.995	4.08
301.371	4.33
301.746	4.24
302.122	4.37
302.498	4.47
302.874	5.05
303.249	4.51
303.625	4.28
304	4.3
304.376	4.28
304.751	4.15
305.127	4.47
305.502	4.43
305.878	4.86
306.253	4.89
306.628	5.11
307.003	4.66
307.378	4.56
307.754	4.77
308.129	4.7
308.504	4.31
308.879	4.18
309.254	5
309.629	5.1
310.003	4.76
310.378	4.33
310.753	4.72
311.128	4.78
311.502	4.51
311.877	4.19
312.252	4.63
312.626	4.25
313.001	4.69
313.375	4.27
313.75	4.43
314.124	4.45
314.498	4.32
314.873	4.73
315.247	4.28
315.621	5.32
315.995	4.55
316.369	4.58
316.743	5.26
317.117	4.45
317.491	4.54
317.865	4.64
318.239	4.9
318.613	4.73
318.987	4.54
319.361	4.62
319.734	4.38
320.108	4.71
320.482	4.45
320.855	4.35
321.229	4.7
321.602	4.35
321.976	4.69
322.349	4.76
322.723	4.62
323.096	5.13
323.469	4.73
323.843	4.95
324.216	5.32
324.589	5.6
324.962	4.57
325.335	4.88
325.708	4.63
326.081	4.99
326.454	4.73
326.827	4.51
327.2	4.59
327.573	4.2
327.945	5.27
328.318	4.55
328.691	4.23
329.063	4.76
329.436	4.38
329.809	4.68
330.181	5.02
330.553	4.82
330.926	4.67
331.298	4.95
331.671	4.44
332.043	5.11
332.415	4.29
332.787	5.82
333.159	4.82
333.532	5.01
333.904	4.94
334.276	5.34
334.648	5.02
335.02	4.46
335.391	4.63
335.763	4.28
336.135	5.13
336.507	4.4
336.879	4.96
337.25	4.72
337.622	4.54
337.993	4.52
338.365	4.29
338.736	4.76
339.108	4.79
339.479	5.32
339.851	4.96
340.222	4.6
340.593	4.58
340.964	4.83
341.336	4.88
341.707	4.34
342.078	4.87
342.449	4.77
342.82	4.29
343.191	4.6
343.562	5.06
343.933	4.64
344.303	4.25
344.674	4.95
345.045	4.62
345.416	4.79
345.786	4.98
346.157	5.05
346.527	5.16
346.898	4.79
347.268	4.72
347.639	4.74
348.009	4.74
348.38	4.25
348.75	4.67
349.12	4.9
349.49	4.69
349.861	5.04
350.231	4.44
350.601	5.17
350.971	5.15
351.341	4.3
351.711	4.74
352.081	4.35
352.45	4.82
352.82	4.1
353.19	4.84
353.56	4.68
353.929	4.88
354.299	5.26
354.669	5.09
355.038	4.79
355.408	4.65
355.777	4.82
356.147	5.17
356.516	4.85
356.885	4.98
357.254	4.79
357.624	4.78
357.993	4.86
358.362	4.98
358.731	4.79
359.1	4.66
359.469	4.91
359.838	4.87
360.207	4.7
360.576	4.9
360.945	5.22
361.314	5.27
361.682	4.54
362.051	4.94
362.42	4.91
362.788	4.83
363.157	4.89
363.525	4.83
363.894	4.74
364.262	4.92
364.631	4.87
364.999	4.56
365.367	5.13
365.735	4.94
366.104	4.88
366.472	4.81
366.84	4.84
367.208	4.6
367.576	4.83
367.944	5.22
368.312	5.16
368.68	4.86
369.048	4.92
369.416	4.72
369.783	4.76
370.151	4.99
370.519	5.16
370.886	5.09
371.254	5.11
371.621	5.36
371.989	4.84
372.356	4.97
372.724	5.16
373.091	5.18
373.458	4.99
373.826	5.23
374.193	4.89
374.56	5.16
374.927	4.83
375.294	4.87
375.661	4.88
376.028	4.9
376.395	5.08
376.762	5.04
377.129	5.19
377.496	5.03
377.863	5.01
378.229	5.14
378.596	4.95
378.963	5.23
379.329	5.13
379.696	4.97
380.062	4.71
380.429	4.76
380.795	5.26
381.161	4.83
381.528	5.17
381.894	5.17
382.26	4.89
382.626	5
382.993	4.95
383.359	4.97
383.725	4.8
384.091	5.34
384.457	4.67
384.823	5.28
385.188	5.03
385.554	4.91
385.92	4.84
386.286	5.04
386.651	4.82
387.017	5.27
387.383	5.02
387.748	5.02
388.114	4.89
388.479	4.94
388.845	5.06
389.21	5.08
389.575	5.25
389.94	5.15
390.306	5
390.671	4.92
391.036	5.16
391.401	5.22
391.766	5.15
392.131	5.1
392.496	5.37
392.861	5.13
393.226	5.3
393.591	5.24
393.956	5.01
394.32	5.19
394.685	4.86
395.05	5.28
395.414	5.44
395.779	5.19
396.143	4.86
396.508	5.12
396.872	5.14
397.236	5.32
397.601	4.91
397.965	5.06
398.329	5.28
398.694	4.88
399.058	5.03
399.422	5.18
399.786	5.09
400.15	5.08
400.514	5.36
400.878	5.1
401.242	5.26
401.605	5.26
401.969	5.19
402.333	4.93
402.697	5.1
403.06	4.86
403.424	4.96
403.787	5.37
404.151	4.87
404.514	4.95
404.878	5.36
405.241	5.05
405.604	5.12
405.968	5.16
406.331	5.08
406.694	5.22
407.057	5.06
407.42	5.33
407.783	5.39
408.146	5.09
408.509	4.95
408.872	5.16
409.235	4.94
409.598	5.25
409.961	5.16
410.323	5.39
410.686	5.16
411.049	5.27
411.411	5.36
411.774	5.22
412.136	5.4
412.499	5.32
412.861	4.97
413.223	5.07
413.586	5.29
413.948	5.18
414.31	5.3
414.672	4.71
415.035	5.38
415.397	5.25
415.759	5.35
416.121	5.44
416.483	5.26
416.845	5.29
417.206	5.34
417.568	5.41
417.93	5.35
418.292	5.02
418.653	5.06
419.015	5.12
419.377	5.4
419.738	5.21
420.1	5.24
420.461	5.15
420.822	5.1
421.184	5.15
421.545	5.07
421.906	5.1
422.267	5.27
422.629	5.15
422.99	5.03
423.351	4.96
423.712	5.09
424.073	5.17
424.434	5.11
424.795	5.31
425.155	5.1
425.516	5.12
425.877	4.96
426.238	5.11
426.598	5.09
426.959	5.14
427.32	5.22
427.68	5.28
428.041	5.15
428.401	5.08
428.761	5.14
429.122	5.14
429.482	5.27
429.842	5.21
430.202	5.2
430.563	5.25
430.923	5.38
431.283	5.32
431.643	5.52
432.003	5.43
432.363	5.31
432.722	5.32
433.082	5.23
433.442	5.07
433.802	5.29
434.161	5.44
434.521	5.16
434.881	5.35
435.24	5.3
435.6	5.26
435.959	5.18
436.319	5.14
436.678	5.25
437.037	5.26
437.396	5.48
437.756	5.49
438.115	5.49
438.474	5.48
438.833	5.23
439.192	5.38
439.551	5.47
439.91	5.43
440.269	5.33
440.628	5.09
440.987	5.38
441.345	5.27
441.704	5.28
442.063	5.37
442.421	5.33
442.78	5.29
443.138	5.28
443.497	5.26
443.855	5.24
444.214	5.48
444.572	5.29
444.93	5.45
445.288	5.24
445.647	5.46
446.005	5.07
446.363	5.29
446.721	5.21
447.079	5.39
447.437	5.33
447.795	5.16
448.153	5.33
448.51	5.37
448.868	5.19
449.226	5.24
449.584	5.33
449.941	5.33
450.299	5.31
450.656	5.28
451.014	5.35
451.371	5.14
451.729	5.43
452.086	5.4
452.443	5.5
452.801	5.31
453.158	5.44
453.515	5.33
453.872	5.38
454.229	5.44
454.586	5.46
454.943	5.49
455.3	5.49
455.657	5.41
456.014	5.43
456.371	5.55
456.727	5.44
457.084	5.41
457.441	5.51
457.797	5.33
458.154	5.41
458.51	5.5
458.867	5.4
459.223	5.48
459.58	5.29
459.936	5.49
460.292	5.39
460.648	5.5
461.005	5.45
461.361	5.43
461.717	5.36
462.073	5.41
462.429	5.36
462.785	5.41
463.141	5.41
463.496	5.64
463.852	5.51
464.208	5.47
464.564	5.6
464.919	5.34
465.275	5.4
465.631	5.54
465.986	5.68
466.342	5.42
466.697	5.38
467.052	5.49
467.408	5.65
467.763	5.47
468.118	5.37
468.473	5.45
468.829	5.5
469.184	5.76
469.539	5.39
469.894	5.29
470.249	5.42
470.603	5.32
470.958	5.6
471.313	5.43
471.668	5.72
472.023	5.69
472.377	5.45
472.732	5.41
473.086	5.79
473.441	5.59
473.795	5.53
474.15	5.41
474.504	5.53
474.859	5.62
475.213	5.66
475.567	5.66
475.921	5.62
476.275	5.63
476.63	5.54
476.984	5.56
477.338	5.35
477.692	5.54
478.045	5.4
478.399	5.46
478.753	5.34
479.107	5.48
479.461	5.52
479.814	5.4
480.168	5.73
480.521	5.79
480.875	5.57
481.228	5.52
481.582	5.74
481.935	5.61
482.289	5.57
482.642	5.55
482.995	5.61
483.348	5.44
483.701	5.43
484.055	5.58
484.408	5.51
484.761	5.54
485.114	5.38
485.466	5.31
485.819	5.26
486.172	5.29
486.525	5.3
486.878	5.35
487.23	5.44
487.583	5.46
487.936	5.48
488.288	5.57
488.641	5.44
488.993	5.39
489.345	5.45
489.698	5.37
490.05	5.42
490.402	5.42
490.754	5.44
491.107	5.52
491.459	5.55
491.811	5.6
492.163	5.69
492.515	5.6
492.866	5.58
493.218	5.46
493.57	5.45
493.922	5.42
494.274	5.47
494.625	5.53
494.977	5.59
495.328	5.63
495.68	5.76
496.031	5.63
496.383	5.69
496.734	5.83
497.086	5.66
497.437	5.81
497.788	5.71
498.139	5.75
498.49	5.66
498.842	5.73
499.193	5.77
499.544	5.7
499.894	5.75
500.245	5.56
500.596	5.81
500.947	5.73
501.298	5.77
501.648	5.78
501.999	5.76
502.35	5.81
502.7	5.7
503.051	5.72
503.401	5.75
503.752	5.85
504.102	5.74
504.452	5.84
504.803	5.92
505.153	5.87
505.503	5.78
505.853	5.83
506.203	5.83
506.553	5.86
506.903	5.79
507.253	5.88
507.603	5.85
507.953	5.93
508.303	5.85
508.652	5.92
509.002	5.84
509.352	6.03
509.701	5.87
510.051	5.74
510.4	5.7
510.75	5.77
511.099	5.95
511.449	5.89
511.798	5.86
512.147	6.02
512.496	5.77
512.846	5.95
513.195	6.03
513.544	5.95
513.893	5.86
514.242	6.02
514.591	5.84
514.939	5.89
515.288	6.02
515.637	5.97
515.986	6.01
516.334	6.08
516.683	6.09
517.032	6.05
517.38	6.04
517.729	5.93
518.077	5.96
518.426	6.09
518.774	6.08
519.122	6
519.47	6
519.819	5.92
520.167	5.97
520.515	5.86
520.863	5.94
521.211	5.97
521.559	6.05
521.907	5.9
522.255	6.06
522.602	6
522.95	6.15
523.298	6.12
523.645	6.22
523.993	6.12
524.341	6.03
524.688	6.12
525.036	6.11
525.383	6.24
525.73	6.18
526.078	6.3
526.425	6.18
526.772	6.15
527.119	6.13
527.466	6.13
527.814	5.99
528.161	6.08
528.508	6.05
528.854	5.98
529.201	6.03
529.548	6.1
529.895	6
530.242	6.03
530.588	5.97
530.935	5.97
531.282	5.98
531.628	6.03
531.975	6.04
532.321	6.18
532.667	6.16
533.014	6.2
533.36	6.24
533.706	6.29
534.052	6.28
534.399	6.31
534.745	6.22
535.091	6.11
535.437	6.19
535.783	6.22
536.129	6.29
536.474	6.26
536.82	6.33
537.166	6.38
537.512	6.3
537.857	6.4
538.203	6.34
538.549	6.36
538.894	6.4
539.239	6.48
539.585	6.32
539.93	6.34
540.276	6.46
540.621	6.45
540.966	6.59
541.311	6.52
541.656	6.54
542.001	6.62
542.346	6.52
542.691	6.42
543.036	6.38
543.381	6.42
543.726	6.37
544.071	6.37
544.415	6.48
544.76	6.46
545.105	6.52
545.449	6.5
545.794	6.52
546.138	6.71
546.483	6.6
546.827	6.71
547.171	6.65
547.516	6.7
547.86	6.67
548.204	6.69
548.548	6.7
548.892	6.74
549.236	6.74
549.58	6.87
549.924	6.76
550.268	6.8
550.612	6.78
550.956	6.91
551.3	7.06
551.643	6.95
551.987	7.02
552.33	7.11
552.674	7.16
553.017	7.04
553.361	6.89
553.704	6.91
554.048	7.13
554.391	7.04
554.734	7.09
555.077	7.03
555.42	7.17
555.764	7.03
556.107	7.23
556.45	7.14
556.793	7.03
557.135	7.18
557.478	7.26
557.821	7.18
558.164	7.3
558.507	7.1
558.849	7.24
559.192	7.21
559.534	7.08
559.877	7.34
560.219	7.2
560.562	7.41
560.904	7.32
561.246	7.35
561.589	7.42
561.931	7.38
562.273	7.14
562.615	7.4
562.957	7.5
563.299	7.51
563.641	7.46
563.983	7.66
564.325	7.63
564.667	7.69
565.008	7.66
565.35	7.82
565.692	7.62
566.033	7.65
566.375	7.82
566.716	7.78
567.058	7.57
567.399	7.8
567.741	7.62
568.082	7.68
568.423	7.69
568.764	7.72
569.105	7.77
569.447	7.82
569.788	7.77
570.129	7.73
570.47	7.71
570.811	7.74
571.151	7.85
571.492	7.97
571.833	7.94
572.174	8.1
572.514	7.9
572.855	8
573.195	7.85
573.536	8.01
573.876	8.07
574.217	7.96
574.557	8.06
574.898	8.15
575.238	8.18
575.578	8.21
575.918	8.24
576.258	8.14
576.598	8.27
576.938	8.2
577.278	8.35
577.618	8.22
577.958	8.36
578.298	8.33
578.638	8.48
578.977	8.45
579.317	8.55
579.657	8.3
579.996	8.42
580.336	8.41
580.675	8.56
581.014	8.49
581.354	8.42
581.693	8.67
582.032	8.38
582.372	8.57
582.711	8.56
583.05	8.62
583.389	8.73
583.728	8.86
584.067	8.61
584.406	8.61
584.745	8.82
585.083	8.86
585.422	8.92
585.761	8.83
586.1	8.88
586.438	9.03
586.777	9.01
587.115	8.83
587.454	9.07
587.792	8.79
588.13	9.3
588.469	9.29
588.807	9.2
589.145	9.45
589.483	9.36
589.821	8.98
590.159	9.08
590.497	8.98
590.835	9.22
591.173	9.15
591.511	9.27
591.849	9.33
592.187	9.24
592.524	9.52
592.862	9.24
593.2	9.28
593.537	9.35
593.875	9.73
594.212	9.5
594.55	9.22
594.887	9.52
595.224	9.66
595.561	9.56
595.899	9.45
596.236	9.66
596.573	9.57
596.91	9.67
597.247	9.76
597.584	9.98
597.921	9.62
598.258	9.73
598.594	9.66
598.931	9.65
599.268	9.91
599.604	9.88
599.941	10.03
600.277	9.92
600.614	10.01
600.95	10.1
601.287	9.94
601.623	10.1
601.959	10.18
602.296	9.71
602.632	9.86
602.968	9.99
603.304	10.09
603.64	10.29
603.976	10.17
604.312	10.31
604.648	10.14
604.984	10.42
605.319	10.3
605.655	10.37
605.991	10.27
606.326	10.35
606.662	10.26
606.998	10.28
607.333	10.45
607.668	10.51
608.004	10.27
608.339	10.82
608.674	10.65
609.01	10.44
609.345	10.68
609.68	10.69
610.015	10.71
610.35	10.92
610.685	10.67
611.02	10.79
611.355	10.91
611.689	11.12
612.024	10.78
612.359	11.07
612.694	10.91
613.028	11.04
613.363	10.61
613.697	11.09
614.032	11.37
614.366	11.15
614.7	11.04
615.035	11.37
615.369	11.01
615.703	11.15
616.037	11.25
616.371	11.34
616.705	11.38
617.039	11.57
617.373	11.41
617.707	11.67
618.041	11.4
618.375	11.54
618.709	11.53
619.042	11.71
619.376	11.85
619.71	11.63
620.043	11.94
620.377	11.7
620.71	11.97
621.043	11.66
621.377	11.22
621.71	11.74
622.043	11.58
622.376	12.02
622.709	12.05
623.043	11.81
623.376	12.14
623.709	12.26
624.041	12.02
624.374	12.35
624.707	11.85
625.04	12.58
625.373	12.1
625.705	12.06
626.038	11.99
626.37	12.08
626.703	12.44
627.035	12.04
627.368	12.3
627.7	12.22
628.032	12.26
628.365	12.36
628.697	12.31
629.029	12.74
629.361	12.8
629.693	12.48
630.025	12.38
630.357	12.3
630.689	12.35
631.021	12.39
631.353	12.52
631.684	12.98
632.016	12.9
632.348	12.88
632.679	13.09
633.011	12.49
633.342	12.93
633.674	13.35
634.005	13.15
634.336	12.9
634.668	12.72
634.999	13.3
635.33	13.11
635.661	13.21
635.992	13.43
636.323	12.91
636.654	13.24
636.985	13.06
637.316	13.33
637.647	13.43
637.977	13.66
638.308	13.36
638.639	13.32
638.969	13.35
639.3	13.67
639.63	13.28
639.961	13.69
640.291	14.07
640.622	13.45
640.952	13.81
641.282	13.9
641.612	14.32
641.943	13.84
642.273	13.46
642.603	13.93
642.933	14.16
643.263	14.18
643.592	13.76
643.922	14.78
644.252	13.7
644.582	13.89
644.911	14.13
645.241	13.9
645.571	14.36
645.9	14.26
646.23	14.24
646.559	14.44
646.888	14.16
647.218	14.01
647.547	14.08
647.876	14.54
648.205	14.3
648.534	14.62
648.863	14.56
649.192	14.38
649.521	14.27
649.85	14.33
650.179	14.28
650.508	14.94
650.837	14.51
651.165	15.07
651.494	14.49
651.822	14.58
652.151	15.21
652.479	15.03
652.808	14.78
653.136	14.55
653.465	14.78
653.793	14.97
654.121	15.26
654.449	15.18
654.777	15.15
655.105	14.88
655.433	14.92
655.761	15.19
656.089	15.25
656.417	15.12
656.745	15.11
657.073	14.99
657.4	14.96
657.728	15.56
658.056	15.9
658.383	15.13
658.711	15.59
659.038	15.46
659.365	15.48
659.693	15.29
660.02	15.11
660.347	15.2
660.674	15.62
661.001	15.04
661.329	15.51
661.656	15.88
661.982	15.26
662.309	15.93
662.636	15.85
662.963	15.86
663.29	15.53
663.616	16.11
663.943	15.52
664.27	16.09
664.596	16.15
664.923	16.01
665.249	15.8
665.576	15.7
665.902	15.82
666.228	16.08
666.554	16.49
666.881	15.58
667.207	16.93
667.533	16.33
667.859	15.98
668.185	16.64
668.511	16.04
668.837	16.75
669.162	16.57
669.488	16.69
669.814	16.04
670.139	15.74
670.465	16.87
670.791	16.48
671.116	17.36
671.442	17.41
671.767	17.07
672.092	16.88
672.418	16
672.743	16.78
673.068	16.86
673.393	16.25
673.718	15.93
674.043	16.74
674.368	16.76
674.693	16.71
675.018	17.55
675.343	16.93
675.667	16.82
675.992	17.22
676.317	17.37
676.641	17.43
676.966	17.74
677.29	16.94
677.615	17.14
677.939	17.04
678.264	17.25
678.588	17.75
678.912	17.58
679.236	17.37
679.56	17.79
679.885	17.63
680.209	17.43
680.532	18.07
680.856	18.13
681.18	17.49
681.504	17.67
681.828	17.36
682.152	17.81
682.475	18.06
682.799	18.24
683.122	18.59
683.446	17.77
683.769	17.62
684.093	17.95
684.416	17.78
684.739	18.36
685.062	17.93
685.386	17.92
685.709	17.97
686.032	18.47
686.355	17.88
