Data from 0160_forehead_Reflection__3__109.txt Node

Date: Fri Sep 22 21:10:11 CDT 2023
User: ToomeyLab
Spectrometer: FLMS14357
Trigger mode: 0
Integration Time (sec): 1.000000E-2
Scans to average: 100
Electric dark correction enabled: true
Nonlinearity correction enabled: false
Boxcar width: 0
XAxis mode: Wavelengths
Number of Pixels in Spectrum: 2048
>>>>>Begin Spectral Data<<<<<
189.047	33.74
189.435	33.74
189.823	33.74
190.211	174.6
190.599	-26.86
190.987	100.33
191.375	205.73
191.763	50.82
192.151	89.25
192.538	-434.4
192.926	43.86
193.314	40.23
193.702	40.24
194.089	110.5
194.477	44.33
194.864	129.58
195.252	97.09
195.639	-14.83
196.027	2162.2
196.414	112.15
196.801	7.75
197.189	-44.82
197.576	160.19
197.963	1092.11
198.351	-2.23
198.738	15.16
199.125	17.59
199.512	15.4
199.899	28.55
200.286	32.49
200.673	22.21
201.06	44.67
201.447	41.64
201.833	-138.87
202.22	17.48
202.607	51.64
202.994	35.49
203.38	35.45
203.767	51.03
204.154	33.46
204.54	27.59
204.927	52.14
205.313	25.86
205.699	38.16
206.086	41.11
206.472	56.78
206.858	21.17
207.245	51.75
207.631	45.23
208.017	41.26
208.403	40.17
208.789	42.12
209.175	45.76
209.561	45.99
209.947	61.07
210.333	60.62
210.719	29.81
211.105	45.09
211.491	46.92
211.876	24.85
212.262	28.73
212.648	43.05
213.034	87.87
213.419	22.98
213.805	13.49
214.19	-2.36
214.576	49.29
214.961	14.08
215.346	35.14
215.732	36.81
216.117	38.3
216.502	49.12
216.888	47.71
217.273	27.62
217.658	52.94
218.043	22.01
218.428	46.42
218.813	12.29
219.198	0.19
219.583	37.25
219.968	12.97
220.353	38.63
220.738	21.68
221.122	26.39
221.507	15.24
221.892	-2.3
222.276	7.36
222.661	-8.26
223.046	26.07
223.43	27.93
223.815	3.27
224.199	8.21
224.583	11.74
224.968	15.76
225.352	6.93
225.736	10.01
226.121	22.81
226.505	6.45
226.889	12.87
227.273	6.24
227.657	12.53
228.041	8.23
228.425	7.38
228.809	5.51
229.193	8.97
229.577	6.41
229.961	9.05
230.344	5.32
230.728	3.43
231.112	4.13
231.495	3.7
231.879	3.91
232.263	4.06
232.646	4.29
233.03	4.43
233.413	5.24
233.797	5
234.18	4.6
234.563	7.75
234.946	6.36
235.33	1.27
235.713	5.97
236.096	3.87
236.479	5.25
236.862	5.86
237.245	3.17
237.628	5.25
238.011	5.36
238.394	3.2
238.777	6.89
239.16	5.6
239.543	5.73
239.925	5.46
240.308	3.2
240.691	4.52
241.073	6.28
241.456	4.63
241.838	3.75
242.221	3.18
242.603	5.2
242.986	4.43
243.368	3.1
243.75	3.83
244.133	4.11
244.515	3.5
244.897	3.17
245.279	3.49
245.661	3.68
246.043	4.44
246.425	3.61
246.807	4.47
247.189	3.05
247.571	4.34
247.953	4.38
248.335	3.76
248.717	3.42
249.098	3.48
249.48	3.2
249.862	3.18
250.243	3.13
250.625	3.68
251.006	3.18
251.388	3.61
251.769	3.82
252.151	3.98
252.532	3.78
252.913	4.63
253.295	4.47
253.676	4.13
254.057	3.41
254.438	3.74
254.819	3.16
255.2	3.54
255.581	3.35
255.962	4.51
256.343	3.46
256.724	3.86
257.105	4.38
257.486	4.38
257.867	3.6
258.247	4.82
258.628	3.99
259.009	4.24
259.389	3.21
259.77	4.4
260.15	4.54
260.531	3.14
260.911	3.34
261.292	3.42
261.672	3.08
262.052	3.17
262.432	3.18
262.813	3.53
263.193	2.98
263.573	3.81
263.953	3.97
264.333	3.22
264.713	3.19
265.093	3.71
265.473	3.8
265.853	3.49
266.233	3.79
266.612	3.4
266.992	3.61
267.372	4.05
267.752	3.91
268.131	4.34
268.511	3.68
268.89	3.46
269.27	3.82
269.649	3.56
270.029	3.23
270.408	3.44
270.787	3.26
271.167	3.2
271.546	2.75
271.925	3.91
272.304	3.03
272.683	3.79
273.062	4.27
273.441	3.53
273.82	3.63
274.199	3.49
274.578	3.4
274.957	3.05
275.336	3.19
275.715	3.76
276.093	3.43
276.472	3.61
276.851	3.26
277.229	2.87
277.608	3.8
277.986	3.61
278.365	3.98
278.743	3.38
279.122	3.53
279.5	3.68
279.878	2.98
280.257	3.89
280.635	3.17
281.013	3.58
281.391	3.31
281.769	3.78
282.147	3.76
282.525	3.51
282.903	3.67
283.281	3.35
283.659	3.48
284.037	3.57
284.415	3.51
284.792	3.32
285.17	3.27
285.548	3.63
285.925	3.33
286.303	3.1
286.68	3
287.058	2.98
287.435	3.65
287.813	3.29
288.19	3
288.567	3.32
288.945	3.03
289.322	3.53
289.699	3.5
290.076	3.87
290.453	3.35
290.83	2.75
291.207	3.55
291.584	3.14
291.961	3.12
292.338	3.65
292.715	3.52
293.092	3.28
293.469	3.73
293.845	3.31
294.222	3.4
294.599	4.01
294.975	4.12
295.352	4.1
295.728	3.91
296.105	3.89
296.481	3.4
296.858	3.78
297.234	3.91
297.61	3.69
297.986	3.96
298.363	3.57
298.739	3.63
299.115	4.11
299.491	3.85
299.867	3.7
300.243	3.54
300.619	3.88
300.995	3.61
301.371	4.09
301.746	4.13
302.122	4.28
302.498	3.81
302.874	3.6
303.249	3.71
303.625	3.8
304	4.23
304.376	4.15
304.751	4.38
305.127	4.07
305.502	4.57
305.878	4.37
306.253	4.27
306.628	4.68
307.003	4.66
307.378	4.59
307.754	4.87
308.129	4.53
308.504	4.36
308.879	4.37
309.254	4.82
309.629	4.63
310.003	4.76
310.378	4.92
310.753	4.71
311.128	4.73
311.502	4.78
311.877	4.42
312.252	4.96
312.626	4.76
313.001	4.83
313.375	4.68
313.75	4.93
314.124	4.96
314.498	4.51
314.873	4.83
315.247	5.11
315.621	4.88
315.995	5.31
316.369	5.55
316.743	5.4
317.117	5.43
317.491	5.33
317.865	5.04
318.239	5.26
318.613	5.25
318.987	5.53
319.361	4.81
319.734	5.68
320.108	5.96
320.482	5.72
320.855	5.04
321.229	6.25
321.602	6.06
321.976	5.86
322.349	5.39
322.723	6.2
323.096	5.52
323.469	6.02
323.843	5.9
324.216	6.39
324.589	6.19
324.962	5.03
325.335	5.94
325.708	5.94
326.081	6.4
326.454	5.64
326.827	5.98
327.2	6.48
327.573	6.38
327.945	6
328.318	6.55
328.691	6.23
329.063	6.26
329.436	6.44
329.809	6.23
330.181	6.8
330.553	6.12
330.926	6.55
331.298	6.63
331.671	6.71
332.043	6.29
332.415	6.52
332.787	7.09
333.159	6.28
333.532	6.07
333.904	7.2
334.276	6.24
334.648	6.92
335.02	7.04
335.391	7.17
335.763	6.79
336.135	6.77
336.507	6.6
336.879	6.65
337.25	7.4
337.622	7.29
337.993	7.15
338.365	7.31
338.736	7.61
339.108	7.39
339.479	6.82
339.851	7.08
340.222	7.18
340.593	7.2
340.964	6.93
341.336	7.34
341.707	7.07
342.078	7.52
342.449	7.77
342.82	7.38
343.191	7.2
343.562	7.39
343.933	7.67
344.303	7.67
344.674	8.29
345.045	7.87
345.416	7.99
345.786	7.6
346.157	7.8
346.527	7.92
346.898	7.95
347.268	7.69
347.639	7.89
348.009	7.7
348.38	8.18
348.75	8.47
349.12	7.8
349.49	8.26
349.861	7.92
350.231	8.65
350.601	7.88
350.971	8.56
351.341	8.49
351.711	8.31
352.081	8.4
352.45	8.47
352.82	8.54
353.19	8.73
353.56	8.33
353.929	8.66
354.299	8.95
354.669	8.25
355.038	8.53
355.408	8.43
355.777	8.91
356.147	8.8
356.516	9.05
356.885	8.92
357.254	9.22
357.624	8.38
357.993	9.1
358.362	9.17
358.731	9.07
359.1	9.17
359.469	9.13
359.838	8.9
360.207	8.99
360.576	9.04
360.945	8.86
361.314	9.69
361.682	9.71
362.051	9.4
362.42	9.2
362.788	9.18
363.157	9.68
363.525	9.33
363.894	9.34
364.262	9.46
364.631	9.39
364.999	9.5
365.367	9.58
365.735	9.71
366.104	9.89
366.472	10.03
366.84	9.9
367.208	10.15
367.576	9.97
367.944	10.07
368.312	10.15
368.68	10.16
369.048	10.43
369.416	9.96
369.783	10.22
370.151	10.12
370.519	10.32
370.886	10.66
371.254	10.69
371.621	10.49
371.989	10.52
372.356	10.79
372.724	11.13
373.091	10.81
373.458	11.05
373.826	11.07
374.193	10.99
374.56	10.8
374.927	11.25
375.294	10.81
375.661	11.13
376.028	11.28
376.395	11.63
376.762	11.05
377.129	11.56
377.496	11.57
377.863	11.73
378.229	11.32
378.596	11.37
378.963	11.57
379.329	11.53
379.696	11.94
380.062	10.99
380.429	11.82
380.795	11.77
381.161	11.66
381.528	11.95
381.894	11.55
382.26	11.59
382.626	12.08
382.993	12.22
383.359	11.74
383.725	12.19
384.091	12.1
384.457	12.12
384.823	12.12
385.188	12.11
385.554	12.37
385.92	12.39
386.286	12.16
386.651	12.38
387.017	12.38
387.383	12.33
387.748	12.45
388.114	12.52
388.479	12.64
388.845	12.41
389.21	12.4
389.575	12.94
389.94	12.59
390.306	12.98
390.671	13.27
391.036	12.86
391.401	13.13
391.766	12.97
392.131	13.07
392.496	13.47
392.861	13.19
393.226	13.22
393.591	13.15
393.956	13.15
394.32	13.16
394.685	13.26
395.05	13.47
395.414	13.53
395.779	13.61
396.143	13.78
396.508	13.46
396.872	13.36
397.236	13.54
397.601	13.67
397.965	14.03
398.329	13.99
398.694	13.9
399.058	14.12
399.422	14.13
399.786	13.96
400.15	14.2
400.514	14.05
400.878	14.41
401.242	14.21
401.605	14.23
401.969	13.95
402.333	14.45
402.697	14.48
403.06	14.48
403.424	14.55
403.787	14.75
404.151	14.68
404.514	14.62
404.878	15.01
405.241	14.93
405.604	14.79
405.968	14.86
406.331	14.63
406.694	15.06
407.057	14.88
407.42	15.01
407.783	15.12
408.146	15.23
408.509	15.12
408.872	15.16
409.235	15.37
409.598	15.39
409.961	15.49
410.323	15.67
410.686	15.59
411.049	15.79
411.411	15.76
411.774	15.62
412.136	15.97
412.499	15.59
412.861	15.51
413.223	15.85
413.586	15.91
413.948	16.04
414.31	15.87
414.672	16.1
415.035	16.31
415.397	16.39
415.759	16.67
416.121	16.13
416.483	16.16
416.845	16.19
417.206	16.39
417.568	16.31
417.93	16.22
418.292	16.37
418.653	16.56
419.015	16.4
419.377	16.4
419.738	16.55
420.1	16.43
420.461	16.51
420.822	16.4
421.184	16.69
421.545	16.61
421.906	16.57
422.267	16.38
422.629	16.63
422.99	16.59
423.351	16.56
423.712	16.57
424.073	16.7
424.434	16.88
424.795	16.98
425.155	17.03
425.516	17.02
425.877	16.88
426.238	17
426.598	16.88
426.959	17.01
427.32	17.08
427.68	17.17
428.041	17.15
428.401	17.35
428.761	17.69
429.122	17.58
429.482	17.75
429.842	17.7
430.202	17.98
430.563	18.03
430.923	18.18
431.283	18.12
431.643	18.19
432.003	18.28
432.363	18.18
432.722	18.24
433.082	18.42
433.442	18.11
433.802	18.35
434.161	18.42
434.521	18.56
434.881	18.6
435.24	18.68
435.6	18.5
435.959	18.36
436.319	18.51
436.678	18.65
437.037	18.89
437.396	18.9
437.756	18.92
438.115	18.95
438.474	18.98
438.833	19.18
439.192	19.42
439.551	19.06
439.91	19.47
440.269	19.3
440.628	19.11
440.987	19.22
441.345	19.15
441.704	19.36
442.063	19.26
442.421	19.25
442.78	19.18
443.138	19.31
443.497	19.45
443.855	19.57
444.214	19.47
444.572	19.68
444.93	19.78
445.288	19.83
445.647	20.08
446.005	20.05
446.363	19.78
446.721	19.96
447.079	19.66
447.437	19.99
447.795	19.94
448.153	19.86
448.51	19.77
448.868	19.75
449.226	19.91
449.584	20.01
449.941	19.95
450.299	20.21
450.656	20.19
451.014	20.48
451.371	20.41
451.729	20.63
452.086	20.7
452.443	20.88
452.801	20.82
453.158	20.91
453.515	21.22
453.872	21.03
454.229	21.12
454.586	21.02
454.943	21.13
455.3	21.12
455.657	21.04
456.014	21.09
456.371	21.4
456.727	21.54
457.084	21.45
457.441	21.42
457.797	21.56
458.154	21.65
458.51	21.75
458.867	21.68
459.223	21.84
459.58	22.03
459.936	21.85
460.292	21.85
460.648	21.85
461.005	21.79
461.361	21.82
461.717	21.47
462.073	21.68
462.429	21.48
462.785	21.52
463.141	21.79
463.496	22
463.852	22.01
464.208	22.19
464.564	22.32
464.919	22.43
465.275	22.72
465.631	22.64
465.986	22.64
466.342	22.93
466.697	22.99
467.052	22.67
467.408	22.9
467.763	22.92
468.118	23.15
468.473	22.95
468.829	22.83
469.184	22.9
469.539	22.89
469.894	22.97
470.249	23.25
470.603	23.19
470.958	23.24
471.313	23.55
471.668	23.41
472.023	23.49
472.377	23.36
472.732	23.42
473.086	23.67
473.441	23.67
473.795	23.83
474.15	23.63
474.504	23.7
474.859	23.92
475.213	23.66
475.567	23.64
475.921	24.04
476.275	23.88
476.63	23.91
476.984	24.02
477.338	24.16
477.692	24.11
478.045	24.51
478.399	24.25
478.753	24.18
479.107	24.29
479.461	24.17
479.814	24.32
480.168	24.25
480.521	24.25
480.875	24.34
481.228	24.4
481.582	24.34
481.935	24.54
482.289	24.54
482.642	24.49
482.995	24.59
483.348	24.55
483.701	24.46
484.055	24.47
484.408	24.5
484.761	24.42
485.114	24.1
485.466	23.75
485.819	23.59
486.172	23.45
486.525	23.54
486.878	23.68
487.23	23.88
487.583	23.99
487.936	24.23
488.288	24.36
488.641	24.45
488.993	24.36
489.345	24.21
489.698	24.17
490.05	24.21
490.402	24.19
490.754	24.24
491.107	24.46
491.459	24.72
491.811	25.08
492.163	25.07
492.515	25.31
492.866	25.33
493.218	25.12
493.57	24.94
493.922	24.61
494.274	24.84
494.625	24.88
494.977	25.15
495.328	25.5
495.68	25.71
496.031	25.85
496.383	26.09
496.734	26.19
497.086	26.17
497.437	26.44
497.788	26.48
498.139	26.44
498.49	26.54
498.842	26.21
499.193	26.1
499.544	26.37
499.894	26.37
500.245	26.49
500.596	26.52
500.947	26.64
501.298	26.75
501.648	26.81
501.999	26.71
502.35	26.93
502.7	27.07
503.051	27.14
503.401	27.18
503.752	27.3
504.102	27.52
504.452	27.4
504.803	27.19
505.153	27.39
505.503	27.45
505.853	27.56
506.203	27.44
506.553	27.54
506.903	27.57
507.253	27.47
507.603	27.52
507.953	27.7
508.303	27.67
508.652	27.85
509.002	28.13
509.352	27.94
509.701	27.86
510.051	27.88
510.4	27.92
510.75	27.86
511.099	27.77
511.449	27.84
511.798	28.12
512.147	27.79
512.496	28.04
512.846	27.94
513.195	28.06
513.544	28.01
513.893	28.18
514.242	28.09
514.591	28.2
514.939	28.3
515.288	28.34
515.637	28.38
515.986	28.32
516.334	28.53
516.683	28.61
517.032	28.78
517.38	28.57
517.729	28.75
518.077	28.91
518.426	28.82
518.774	28.99
519.122	28.78
519.47	28.78
519.819	28.79
520.167	28.55
520.515	28.56
520.863	28.27
521.211	28.46
521.559	28.54
521.907	28.58
522.255	28.67
522.602	28.83
522.95	28.97
523.298	29.19
523.645	29.28
523.993	29.22
524.341	29.39
524.688	29.39
525.036	29.62
525.383	29.67
525.73	29.6
526.078	29.47
526.425	29.33
526.772	29.6
527.119	29.54
527.466	29.22
527.814	29.01
528.161	29.04
528.508	29.23
528.854	29.14
529.201	29.25
529.548	29.15
529.895	29.06
530.242	28.93
530.588	28.62
530.935	28.45
531.282	28.66
531.628	28.78
531.975	28.89
532.321	29.01
532.667	29.11
533.014	29.48
533.36	29.59
533.706	29.75
534.052	29.94
534.399	30
534.745	29.8
535.091	29.59
535.437	29.24
535.783	29.36
536.129	29.47
536.474	29.6
536.82	29.67
537.166	30
537.512	30.18
537.857	30.21
538.203	30.48
538.549	30.27
538.894	30.12
539.239	30.23
539.585	30.36
539.93	30.51
540.276	30.61
540.621	30.98
540.966	30.91
541.311	31.09
541.656	31.07
542.001	31.08
542.346	31.09
542.691	31.02
543.036	30.56
543.381	30.19
543.726	30.1
544.071	30.27
544.415	30.37
544.76	30.41
545.105	30.45
545.449	30.66
545.794	30.82
546.138	30.82
546.483	31.19
546.827	31.33
547.171	31.54
547.516	31.73
547.86	31.73
548.204	31.61
548.548	31.64
548.892	31.56
549.236	31.47
549.58	31.59
549.924	31.71
550.268	32.03
550.612	32.17
550.956	32.33
551.3	32.21
551.643	32.31
551.987	32.59
552.33	32.74
552.674	32.64
553.017	32.79
553.361	32.8
553.704	32.92
554.048	32.88
554.391	32.64
554.734	32.79
555.077	32.43
555.42	32.75
555.764	32.69
556.107	33.06
556.45	33.02
556.793	33.17
557.135	33.02
557.478	33.14
557.821	33.33
558.164	33.2
558.507	33.35
558.849	33.08
559.192	33.25
559.534	33.59
559.877	33.9
560.219	33.75
560.562	33.4
560.904	33.44
561.246	33.85
561.589	33.7
561.931	33.67
562.273	33.67
562.615	33.62
562.957	33.71
563.299	33.91
563.641	33.72
563.983	33.96
564.325	33.98
564.667	33.94
565.008	34
565.35	33.93
565.692	33.95
566.033	34.21
566.375	33.99
566.716	34.07
567.058	34.33
567.399	34.13
567.741	34.28
568.082	34.2
568.423	34.01
568.764	34.08
569.105	33.87
569.447	33.98
569.788	34.16
570.129	34.18
570.47	34.48
570.811	34.19
571.151	34.47
571.492	34.39
571.833	34.2
572.174	34.4
572.514	34.43
572.855	34.61
573.195	34.32
573.536	34.6
573.876	34.42
574.217	34.47
574.557	34.49
574.898	34.58
575.238	34.51
575.578	34.63
575.918	34.65
576.258	34.82
576.598	34.9
576.938	34.74
577.278	34.9
577.618	34.73
577.958	34.89
578.298	35.18
578.638	34.99
578.977	35.08
579.317	35.01
579.657	35.45
579.996	35.16
580.336	35.43
580.675	35.86
581.014	35.55
581.354	35.53
581.693	35.81
582.032	35.86
582.372	35.74
582.711	35.82
583.05	35.95
583.389	35.85
583.728	35.82
584.067	36.28
584.406	36.2
584.745	36.09
585.083	36.34
585.422	36.42
585.761	36.23
586.1	36.16
586.438	36.28
586.777	36.23
587.115	36.22
587.454	36.21
587.792	36.44
588.13	36.42
588.469	36.25
588.807	36.34
589.145	36.74
589.483	36.56
589.821	36.46
590.159	36.75
590.497	36.42
590.835	36.54
591.173	36.7
591.511	36.62
591.849	36.73
592.187	36.44
592.524	36.41
592.862	36.24
593.2	36.3
593.537	36.73
593.875	36.48
594.212	36.85
594.55	37.09
594.887	37.1
595.224	37.26
595.561	37.18
595.899	37.38
596.236	37.23
596.573	36.93
596.91	37.27
597.247	36.93
597.584	37.29
597.921	36.88
598.258	37.01
598.594	37
598.931	36.79
599.268	36.83
599.604	37.02
599.941	36.85
600.277	36.93
600.614	37.24
600.95	37.31
601.287	37.6
601.623	37.11
601.959	37.35
602.296	37.69
602.632	37.79
602.968	37.88
603.304	37.75
603.64	37.75
603.976	37.77
604.312	37.84
604.648	37.57
604.984	37.66
605.319	37.5
605.655	37.49
605.991	37.54
606.326	37.43
606.662	37.47
606.998	37.3
607.333	37.35
607.668	37.46
608.004	37.57
608.339	37.77
608.674	37.54
609.01	37.84
609.345	38.1
609.68	38.46
610.015	38.26
610.35	38.06
610.685	38.2
611.02	38.21
611.355	38.19
611.689	37.76
612.024	37.93
612.359	37.9
612.694	37.99
613.028	38.08
613.363	38.15
613.697	38.27
614.032	38.25
614.366	38.54
614.7	38.5
615.035	38.51
615.369	38.8
615.703	38.8
616.037	38.72
616.371	38.93
616.705	38.59
617.039	38.75
617.373	38.93
617.707	38.85
618.041	39.31
618.375	38.59
618.709	39.21
619.042	39.14
619.376	39.45
619.71	39.51
620.043	38.85
620.377	38.62
620.71	39.51
621.043	39.37
621.377	38.82
621.71	39.06
622.043	39.17
622.376	39.65
622.709	39.4
623.043	39.33
623.376	39.71
623.709	39.36
624.041	39.26
624.374	39.83
624.707	39.5
625.04	39.67
625.373	38.98
625.705	39.53
626.038	39.46
626.37	39.79
626.703	39.4
627.035	39.83
627.368	39.67
627.7	39.63
628.032	39.54
628.365	39.92
628.697	39.65
629.029	39.36
629.361	39.77
629.693	40.18
630.025	39.58
630.357	39.3
630.689	39.76
631.021	39.78
631.353	39.82
631.684	40.03
632.016	40.15
632.348	40.42
632.679	39.47
633.011	39.99
633.342	40
633.674	40.59
634.005	40.21
634.336	40.27
634.668	40.16
634.999	40.53
635.33	39.7
635.661	40.48
635.992	40.18
636.323	40.32
636.654	39.98
636.985	40.17
637.316	40.32
637.647	40.02
637.977	39.88
638.308	40.29
638.639	40.66
638.969	40.81
639.3	40.36
639.63	40.64
639.961	40.48
640.291	40.6
640.622	41.13
640.952	40.4
641.282	40.64
641.612	40.89
641.943	40.75
642.273	41.08
642.603	40.47
642.933	40.57
643.263	40.31
643.592	40.59
643.922	41.55
644.252	40.67
644.582	41.15
644.911	40.61
645.241	40.81
645.571	40.75
645.9	41.02
646.23	41.61
646.559	40.94
646.888	41.22
647.218	41.13
647.547	41.47
647.876	41.28
648.205	41.38
648.534	41.25
648.863	41.6
649.192	41.25
649.521	41.14
649.85	41.18
650.179	41.25
650.508	41.27
650.837	41.15
651.165	41.56
651.494	41.48
651.822	40.74
652.151	41.17
652.479	41.37
652.808	41.22
653.136	41.35
653.465	42.06
653.793	41.12
654.121	41.51
654.449	41.5
654.777	41.57
655.105	41.92
655.433	41.12
655.761	42.25
656.089	41.89
656.417	41.31
656.745	42.04
657.073	41.36
657.4	42.34
657.728	41.94
658.056	41.65
658.383	42.98
658.711	41.55
659.038	41.78
659.365	42.34
659.693	41.7
660.02	42.14
660.347	42.03
660.674	41.99
661.001	41.34
661.329	41.84
661.656	41.56
661.982	41.75
662.309	41.58
662.636	42.46
662.963	41.91
663.29	41.95
663.616	42.73
663.943	42.16
664.27	42.37
664.596	42.58
664.923	42.58
665.249	42.16
665.576	41.36
665.902	42.27
666.228	41.98
666.554	42.46
666.881	42.66
667.207	42.14
667.533	43.25
667.859	43.03
668.185	42.44
668.511	43.11
668.837	42.68
669.162	42.29
669.488	42.38
669.814	42.35
670.139	42.8
670.465	42.81
670.791	42.35
671.116	42.56
671.442	42.64
671.767	41.93
672.092	42.51
