Data from 0160_crown_Reflection__3__104.txt Node

Date: Fri Sep 22 21:08:58 CDT 2023
User: ToomeyLab
Spectrometer: FLMS14357
Trigger mode: 0
Integration Time (sec): 1.000000E-2
Scans to average: 100
Electric dark correction enabled: true
Nonlinearity correction enabled: false
Boxcar width: 0
XAxis mode: Wavelengths
Number of Pixels in Spectrum: 2048
>>>>>Begin Spectral Data<<<<<
189.047	-12.71
189.435	-12.71
189.823	-12.71
190.211	-79.79
190.599	98.64
190.987	11.24
191.375	-10.84
191.763	48.8
192.151	66.51
192.538	-463.99
192.926	152.04
193.314	-157.37
193.702	41.47
194.089	105.9
194.477	91.74
194.864	13.41
195.252	-230.96
195.639	34.71
196.027	3293.29
196.414	222.21
196.801	60.13
197.189	-33.07
197.576	142.61
197.963	-220.61
198.351	14.96
198.738	44.41
199.125	39.51
199.512	10.05
199.899	52.49
200.286	-7.68
200.673	7.4
201.06	-4.26
201.447	45.61
201.833	110.4
202.22	22.15
202.607	47.45
202.994	44.69
203.38	20.91
203.767	40.78
204.154	34.97
204.54	32.34
204.927	61.35
205.313	10.47
205.699	35.93
206.086	38.5
206.472	54.71
206.858	51.98
207.245	-14.34
207.631	51.53
208.017	13.15
208.403	12.56
208.789	16.02
209.175	54.8
209.561	37.67
209.947	71.22
210.333	33.4
210.719	5.62
211.105	21.37
211.491	23.49
211.876	35.38
212.262	33.65
212.648	19.01
213.034	48.14
213.419	26.34
213.805	2.08
214.19	11.73
214.576	17.4
214.961	26.96
215.346	14.08
215.732	25.4
216.117	-1.39
216.502	33.67
216.888	35.17
217.273	24.2
217.658	42.6
218.043	39.79
218.428	37.83
218.813	10.09
219.198	38.49
219.583	34.28
219.968	9.03
220.353	28.41
220.738	6.18
221.122	-0.77
221.507	12.58
221.892	-2.79
222.276	10.44
222.661	-13.21
223.046	23.85
223.43	33.94
223.815	5.21
224.199	2.68
224.583	13.96
224.968	14.3
225.352	4.56
225.736	4.42
226.121	11.61
226.505	12.51
226.889	9.16
227.273	10.77
227.657	10.98
228.041	14.27
228.425	14.09
228.809	7.97
229.193	9.48
229.577	11.08
229.961	12.84
230.344	11.54
230.728	8.57
231.112	9.86
231.495	9.16
231.879	9.24
232.263	9.1
232.646	9.03
233.03	8.89
233.413	9.82
233.797	9.12
234.18	8.49
234.563	13.67
234.946	10.31
235.33	7.5
235.713	7.79
236.096	8.27
236.479	10.05
236.862	10.57
237.245	8.89
237.628	10.4
238.011	10.78
238.394	9.41
238.777	11.09
239.16	10.43
239.543	10.82
239.925	9.05
240.308	10.35
240.691	10.11
241.073	10.67
241.456	8.96
241.838	9.02
242.221	9.22
242.603	7.37
242.986	8.88
243.368	7.99
243.75	8.74
244.133	8.54
244.515	8.07
244.897	7.78
245.279	7.75
245.661	7.89
246.043	8.17
246.425	7.69
246.807	9.01
247.189	7.39
247.571	8.14
247.953	7.62
248.335	8.1
248.717	7.48
249.098	7.5
249.48	7.37
249.862	7.13
250.243	7.37
250.625	7.21
251.006	7.21
251.388	7.61
251.769	7.41
252.151	6.92
252.532	6.88
252.913	7.38
253.295	8.02
253.676	7.71
254.057	7.67
254.438	7.9
254.819	6.75
255.2	7.54
255.581	7.02
255.962	7.58
256.343	7.55
256.724	6.19
257.105	7.62
257.486	6.92
257.867	6.63
258.247	7.61
258.628	8.21
259.009	5.59
259.389	7.3
259.77	8.11
260.15	7.09
260.531	6.36
260.911	6.7
261.292	6.64
261.672	6.14
262.052	6.46
262.432	6.61
262.813	6.76
263.193	6.28
263.573	7.19
263.953	6.15
264.333	6.15
264.713	6.75
265.093	6.27
265.473	5.82
265.853	6.08
266.233	6.43
266.612	6.07
266.992	6.93
267.372	7.09
267.752	7.44
268.131	6.08
268.511	6.3
268.89	6.61
269.27	6.25
269.649	6.22
270.029	6.35
270.408	6.36
270.787	6.2
271.167	5.77
271.546	5.38
271.925	5.9
272.304	5.68
272.683	6.13
273.062	6.6
273.441	6.11
273.82	6.29
274.199	6.21
274.578	6.55
274.957	5.56
275.336	5.54
275.715	5.67
276.093	5.6
276.472	6.07
276.851	6.24
277.229	5.72
277.608	6.43
277.986	5.68
278.365	6.36
278.743	5.84
279.122	6.31
279.5	6.23
279.878	5.32
280.257	6.41
280.635	6.15
281.013	6.59
281.391	5.53
281.769	5.94
282.147	5.61
282.525	5.58
282.903	6.01
283.281	6.24
283.659	4.87
284.037	5.68
284.415	5.72
284.792	5.69
285.17	6.31
285.548	6.28
285.925	5.48
286.303	6.01
286.68	5.91
287.058	5.83
287.435	5.66
287.813	5.47
288.19	5.31
288.567	5.85
288.945	5.87
289.322	5.52
289.699	5.48
290.076	5.9
290.453	5.53
290.83	5.69
291.207	5.74
291.584	5.44
291.961	5.27
292.338	5.92
292.715	5.75
293.092	5.77
293.469	5.61
293.845	5.74
294.222	5.63
294.599	5.87
294.975	5.96
295.352	5.23
295.728	5.26
296.105	6.12
296.481	5.42
296.858	5.68
297.234	5.25
297.61	5.49
297.986	5.45
298.363	5.63
298.739	5.63
299.115	5.38
299.491	5.57
299.867	5.24
300.243	5.31
300.619	5.69
300.995	5.4
301.371	5.96
301.746	5.89
302.122	5.6
302.498	5.29
302.874	5.21
303.249	5.57
303.625	5.08
304	5.63
304.376	5.78
304.751	5.88
305.127	5.24
305.502	5.75
305.878	5.58
306.253	5.23
306.628	5.14
307.003	5.3
307.378	5.45
307.754	5.67
308.129	5.61
308.504	4.86
308.879	5.73
309.254	5.47
309.629	4.84
310.003	5.38
310.378	6.04
310.753	5.39
311.128	5.83
311.502	6.03
311.877	5.26
312.252	5.32
312.626	5.21
313.001	5.3
313.375	5.45
313.75	5.63
314.124	5.77
314.498	5.18
314.873	5.23
315.247	6.15
315.621	5.36
315.995	5.35
316.369	5.33
316.743	5.59
317.117	5.55
317.491	5.88
317.865	5.35
318.239	5.64
318.613	6.26
318.987	5.83
319.361	5.07
319.734	5.25
320.108	5.12
320.482	5.42
320.855	6.03
321.229	5.43
321.602	5.43
321.976	5.49
322.349	5.87
322.723	5.73
323.096	5.74
323.469	5.47
323.843	5.08
324.216	6.5
324.589	5.48
324.962	4.92
325.335	4.83
325.708	5.56
326.081	5.68
326.454	5.31
326.827	5.13
327.2	5.75
327.573	6.3
327.945	5.56
328.318	5.66
328.691	5.99
329.063	5.56
329.436	5.52
329.809	5.61
330.181	5.38
330.553	5.49
330.926	5.31
331.298	5.51
331.671	5.8
332.043	5.19
332.415	4.94
332.787	6.06
333.159	5.39
333.532	5.06
333.904	5.75
334.276	5.19
334.648	4.93
335.02	5.02
335.391	5.63
335.763	5.93
336.135	5.56
336.507	5.4
336.879	5.41
337.25	5.74
337.622	5.59
337.993	5.64
338.365	5.39
338.736	5.5
339.108	5.6
339.479	5.16
339.851	5.2
340.222	5.47
340.593	5.32
340.964	5.2
341.336	5.55
341.707	5.66
342.078	5.46
342.449	5.76
342.82	5
343.191	4.98
343.562	5.77
343.933	5.59
344.303	6.01
344.674	5.65
345.045	5.49
345.416	6
345.786	5.38
346.157	5.56
346.527	5.43
346.898	5.56
347.268	5.28
347.639	5.78
348.009	5.71
348.38	5.96
348.75	5.99
349.12	5.57
349.49	5.91
349.861	5.39
350.231	5.85
350.601	5.34
350.971	6.26
351.341	5.38
351.711	5.13
352.081	5.69
352.45	5.36
352.82	6.09
353.19	5.82
353.56	5.32
353.929	5.71
354.299	5.21
354.669	5.38
355.038	5.57
355.408	5.56
355.777	5.83
356.147	5.82
356.516	5.75
356.885	5.87
357.254	5.88
357.624	5.3
357.993	5.57
358.362	5.74
358.731	5.58
359.1	5.48
359.469	5.9
359.838	5.6
360.207	5.67
360.576	5.79
360.945	5.76
361.314	5.5
361.682	6.03
362.051	5.9
362.42	5.61
362.788	5.71
363.157	5.95
363.525	5.7
363.894	5.74
364.262	5.83
364.631	5.75
364.999	5.71
365.367	5.86
365.735	5.92
366.104	5.67
366.472	6.03
366.84	5.74
367.208	6.32
367.576	5.97
367.944	5.97
368.312	5.76
368.68	5.9
369.048	5.91
369.416	6.19
369.783	5.52
370.151	5.5
370.519	5.73
370.886	6.32
371.254	5.87
371.621	5.75
371.989	6.01
372.356	5.97
372.724	6.04
373.091	5.69
373.458	6.08
373.826	6.26
374.193	6.19
374.56	6.04
374.927	5.94
375.294	5.96
375.661	5.91
376.028	6.21
376.395	5.86
376.762	5.62
377.129	6.25
377.496	5.98
377.863	6.17
378.229	6.59
378.596	5.95
378.963	6.48
379.329	5.97
379.696	6.25
380.062	5.92
380.429	6.44
380.795	6.4
381.161	6.13
381.528	6.09
381.894	5.8
382.26	6.1
382.626	6.15
382.993	6.49
383.359	5.91
383.725	6.15
384.091	6.07
384.457	6.11
384.823	6.05
385.188	6.08
385.554	6.02
385.92	6.34
386.286	6.27
386.651	6.18
387.017	6.07
387.383	5.92
387.748	6.07
388.114	6.15
388.479	6.26
388.845	5.8
389.21	6.15
389.575	6.41
389.94	6.11
390.306	6
390.671	6.57
391.036	5.98
391.401	6.22
391.766	6.15
392.131	6.03
392.496	6.21
392.861	6.09
393.226	6.13
393.591	6.18
393.956	6.16
394.32	6.28
394.685	5.78
395.05	6.23
395.414	6.37
395.779	6.26
396.143	6.13
396.508	6.03
396.872	6.09
397.236	6.15
397.601	6.08
397.965	6.35
398.329	6.17
398.694	6.26
399.058	6.15
399.422	6.15
399.786	6.18
400.15	6.06
400.514	6.44
400.878	6.12
401.242	6.34
401.605	6.04
401.969	6.22
402.333	6.32
402.697	6.39
403.06	6.23
403.424	6.18
403.787	6.22
404.151	6.2
404.514	6.32
404.878	6.39
405.241	6.29
405.604	6.49
405.968	6.33
406.331	6.33
406.694	6.35
407.057	6.4
407.42	6.48
407.783	6.11
408.146	6.34
408.509	6.16
408.872	6.11
409.235	6.31
409.598	6.16
409.961	6.53
410.323	6.52
410.686	6.2
411.049	6.52
411.411	6.38
411.774	6.19
412.136	6.31
412.499	6.19
412.861	6.3
413.223	6.47
413.586	6.26
413.948	6.52
414.31	6.19
414.672	6.44
415.035	6.38
415.397	6.41
415.759	6.49
416.121	6.06
416.483	6.24
416.845	6.25
417.206	5.98
417.568	6.31
417.93	6.25
418.292	6.42
418.653	6.24
419.015	6.15
419.377	6.13
419.738	6.42
420.1	6.08
420.461	6.27
420.822	6.19
421.184	6.18
421.545	6.05
421.906	6.22
422.267	6.2
422.629	6.12
422.99	6.14
423.351	6.06
423.712	6.08
424.073	6.1
424.434	6.22
424.795	6.22
425.155	6.13
425.516	6.25
425.877	6.15
426.238	6.02
426.598	6.1
426.959	6.05
427.32	6.12
427.68	6.07
428.041	6.11
428.401	6.14
428.761	6.26
429.122	6.16
429.482	6.13
429.842	6.14
430.202	6.35
430.563	6.41
430.923	6.5
431.283	6.23
431.643	6.33
432.003	6.5
432.363	6.39
432.722	6.47
433.082	6.52
433.442	6.34
433.802	6.55
434.161	6.26
434.521	6.29
434.881	6.37
435.24	6.18
435.6	6.23
435.959	6.01
436.319	6.17
436.678	6.33
437.037	6.31
437.396	6.19
437.756	6.39
438.115	6.23
438.474	6.22
438.833	6.4
439.192	6.23
439.551	6.16
439.91	6.44
440.269	6.3
440.628	6.1
440.987	6.27
441.345	6.26
441.704	6.33
442.063	6.2
442.421	6.21
442.78	6.22
443.138	6.19
443.497	6.19
443.855	6.26
444.214	6.12
444.572	6.28
444.93	6.25
445.288	6.3
445.647	6.46
446.005	6.31
446.363	6.2
446.721	6.18
447.079	6.13
447.437	6.14
447.795	6.25
448.153	5.99
448.51	6.21
448.868	6.05
449.226	6.19
449.584	6.17
449.941	6.1
450.299	6.26
450.656	6.23
451.014	6.32
451.371	6.38
451.729	6.26
452.086	6.2
452.443	6.19
452.801	6.42
453.158	6.33
453.515	6.29
453.872	6.35
454.229	6.47
454.586	6.37
454.943	6.3
455.3	6.2
455.657	6.19
456.014	6.19
456.371	6.4
456.727	6.46
457.084	6.39
457.441	6.16
457.797	6.4
458.154	6.37
458.51	6.26
458.867	6.39
459.223	6.44
459.58	6.5
459.936	6.41
460.292	6.44
460.648	6.37
461.005	6.21
461.361	6.18
461.717	6.05
462.073	6.19
462.429	6.02
462.785	6.14
463.141	6.12
463.496	6.29
463.852	6.29
464.208	6.24
464.564	6.37
464.919	6.21
465.275	6.5
465.631	6.42
465.986	6.31
466.342	6.63
466.697	6.46
467.052	6.34
467.408	6.55
467.763	6.32
468.118	6.53
468.473	6.31
468.829	6.13
469.184	6.35
469.539	6.32
469.894	6.22
470.249	6.28
470.603	6.18
470.958	6.33
471.313	6.31
471.668	6.26
472.023	6.22
472.377	6.24
472.732	6.37
473.086	6.42
473.441	6.15
473.795	6.49
474.15	6.22
474.504	6.19
474.859	6.47
475.213	6.07
475.567	6.36
475.921	6.27
476.275	6.48
476.63	6.27
476.984	6.04
477.338	6.4
477.692	6.27
478.045	6.45
478.399	6.44
478.753	6.11
479.107	6.22
479.461	6.33
479.814	6.4
480.168	6.39
480.521	6.24
480.875	6.44
481.228	6.23
481.582	6.18
481.935	6.21
482.289	6.26
482.642	6.23
482.995	6.27
483.348	6.19
483.701	6.16
484.055	6.17
484.408	6.17
484.761	6.14
485.114	5.96
485.466	5.92
485.819	5.81
486.172	5.78
486.525	5.77
486.878	5.8
487.23	5.92
487.583	5.93
487.936	5.98
488.288	6.12
488.641	5.97
488.993	6.02
489.345	5.89
489.698	5.86
490.05	5.87
490.402	5.91
490.754	5.87
491.107	5.91
491.459	5.97
491.811	5.99
492.163	6.09
492.515	6.04
492.866	6.03
493.218	6.06
493.57	6
493.922	5.84
494.274	5.88
494.625	5.92
494.977	6.05
495.328	6.16
495.68	6.21
496.031	6.16
496.383	6.22
496.734	6.17
497.086	6.08
497.437	6.34
497.788	6.21
498.139	6.21
498.49	6.22
498.842	6.09
499.193	6.09
499.544	6.07
499.894	6.12
500.245	6.18
500.596	6.12
500.947	6.15
501.298	6.05
501.648	6.18
501.999	6.22
502.35	6.25
502.7	6.16
503.051	6.17
503.401	6.2
503.752	6.24
504.102	6.13
504.452	6.11
504.803	6.15
505.153	6.15
505.503	6.24
505.853	6.14
506.203	6.12
506.553	6.08
506.903	6.16
507.253	6.06
507.603	6.21
507.953	6.17
508.303	6.38
508.652	6.13
509.002	6.28
509.352	5.95
509.701	6.14
510.051	6.16
510.4	6.08
510.75	6.02
511.099	5.9
511.449	6.08
511.798	6.14
512.147	6.01
512.496	6.07
512.846	6.04
513.195	6.08
513.544	6.06
513.893	6.12
514.242	6.11
514.591	6
514.939	6.16
515.288	5.99
515.637	6.1
515.986	6.01
516.334	6
516.683	6.12
517.032	6.26
517.38	6.05
517.729	6.01
518.077	6.01
518.426	5.95
518.774	6.08
519.122	5.98
519.47	5.95
519.819	6.02
520.167	6.08
520.515	6.06
520.863	5.88
521.211	5.83
521.559	5.97
521.907	5.97
522.255	6.04
522.602	6.03
522.95	5.97
523.298	5.94
523.645	6.15
523.993	6.02
524.341	5.87
524.688	5.99
525.036	5.83
525.383	5.95
525.73	6.01
526.078	6.01
526.425	5.88
526.772	5.98
527.119	5.89
527.466	5.79
527.814	5.78
528.161	5.74
528.508	5.8
528.854	5.85
529.201	5.83
529.548	5.81
529.895	5.68
530.242	5.64
530.588	5.57
530.935	5.48
531.282	5.55
531.628	5.58
531.975	5.58
532.321	5.62
532.667	5.71
533.014	5.73
533.36	5.77
533.706	5.74
534.052	5.91
534.399	5.84
534.745	5.81
535.091	5.69
535.437	5.63
535.783	5.51
536.129	5.62
536.474	5.69
536.82	5.61
537.166	5.85
537.512	5.78
537.857	5.74
538.203	5.82
538.549	5.73
538.894	5.64
539.239	5.7
539.585	5.67
539.93	5.74
540.276	5.72
540.621	5.72
540.966	5.8
541.311	5.9
541.656	5.72
542.001	5.78
542.346	5.67
542.691	5.79
543.036	5.59
543.381	5.53
543.726	5.47
544.071	5.52
544.415	5.55
544.76	5.52
545.105	5.54
545.449	5.54
545.794	5.67
546.138	5.69
546.483	5.67
546.827	5.54
547.171	5.73
547.516	5.79
547.86	5.75
548.204	5.75
548.548	5.69
548.892	5.68
549.236	5.63
549.58	5.65
549.924	5.74
550.268	5.77
550.612	5.7
550.956	5.7
551.3	5.83
551.643	5.75
551.987	5.64
552.33	5.97
552.674	5.64
553.017	5.73
553.361	5.65
553.704	5.76
554.048	5.87
554.391	5.73
554.734	5.79
555.077	5.65
555.42	5.63
555.764	5.69
556.107	5.78
556.45	5.69
556.793	5.67
557.135	5.72
557.478	5.61
557.821	5.89
558.164	5.83
558.507	5.85
558.849	5.67
559.192	5.81
559.534	5.76
559.877	5.74
560.219	5.74
560.562	5.59
560.904	5.72
561.246	5.98
561.589	5.7
561.931	5.41
562.273	5.58
562.615	5.79
562.957	5.56
563.299	5.92
563.641	5.69
563.983	5.67
564.325	5.68
564.667	5.8
565.008	5.56
565.35	5.8
565.692	5.52
566.033	5.56
566.375	5.68
566.716	5.64
567.058	5.67
567.399	5.63
567.741	5.73
568.082	5.58
568.423	5.66
568.764	5.68
569.105	5.38
569.447	5.49
569.788	5.41
570.129	5.55
570.47	5.62
570.811	5.56
571.151	5.61
571.492	5.41
571.833	5.59
572.174	5.55
572.514	5.53
572.855	5.61
573.195	5.39
573.536	5.49
573.876	5.47
574.217	5.41
574.557	5.55
574.898	5.56
575.238	5.54
575.578	5.66
575.918	5.44
576.258	5.47
576.598	5.62
576.938	5.54
577.278	5.52
577.618	5.39
577.958	5.47
578.298	5.62
578.638	5.38
578.977	5.51
579.317	5.55
579.657	5.5
579.996	5.54
580.336	5.59
580.675	5.67
581.014	5.23
581.354	5.63
581.693	5.52
582.032	5.69
582.372	5.56
582.711	5.45
583.05	5.46
583.389	5.54
583.728	5.67
584.067	5.68
584.406	5.51
584.745	5.46
585.083	5.81
585.422	5.75
585.761	5.65
586.1	5.5
586.438	5.39
586.777	5.51
587.115	5.58
587.454	5.36
587.792	5.66
588.13	5.59
588.469	5.36
588.807	5.4
589.145	5.84
589.483	5.31
589.821	5.36
590.159	5.46
590.497	5.51
590.835	5.55
591.173	5.49
591.511	5.59
591.849	5.65
592.187	5.5
592.524	5.58
592.862	5.5
593.2	5.34
593.537	5.26
593.875	5.29
594.212	5.43
594.55	5.69
594.887	5.14
595.224	5.25
595.561	5.43
595.899	5.51
596.236	5.71
596.573	5.42
596.91	5.56
597.247	5.28
597.584	5.58
597.921	5.38
598.258	5.44
598.594	5.42
598.931	5.37
599.268	5.38
599.604	5.32
599.941	5.52
600.277	5.4
600.614	5.29
600.95	5.46
601.287	5.35
601.623	5.22
601.959	5.41
602.296	5.32
602.632	5.47
602.968	5.5
603.304	5.25
603.64	5.36
603.976	5.33
604.312	5.14
604.648	5.36
604.984	5.36
605.319	5.42
605.655	5.29
605.991	5.28
606.326	5.33
606.662	5.35
606.998	5.31
607.333	5.26
607.668	5.34
608.004	5.32
608.339	5.21
608.674	5.26
609.01	5.4
609.345	5.42
609.68	5.54
610.015	5.44
610.35	5.4
610.685	5.53
611.02	5.45
611.355	5.49
611.689	5.28
612.024	5.35
612.359	5.29
612.694	5.26
613.028	5.28
613.363	5.33
613.697	5.52
614.032	5.37
614.366	5.28
614.7	5.37
615.035	5.43
615.369	5.57
615.703	5.41
616.037	5.17
616.371	5.52
616.705	5.49
617.039	5.55
617.373	5.36
617.707	5.45
618.041	5.37
618.375	5.23
618.709	5.68
619.042	5.7
619.376	5.49
619.71	5.7
620.043	5.17
620.377	5.13
620.71	5.06
621.043	5.86
621.377	5.29
621.71	5.38
622.043	5.23
622.376	5.62
622.709	5.47
623.043	5.22
623.376	5.37
623.709	5.34
624.041	5.33
624.374	5.42
624.707	5.39
625.04	5.3
625.373	5.11
625.705	5.25
626.038	5.42
626.37	5.58
626.703	5.36
627.035	5.45
627.368	5.32
627.7	5.57
628.032	5.79
628.365	5.36
628.697	5.2
629.029	5.34
629.361	5.02
629.693	5.39
630.025	5.42
630.357	5.04
630.689	5.32
631.021	5.44
631.353	5.53
631.684	5.07
632.016	5.61
632.348	5.51
632.679	4.84
633.011	5.52
633.342	5.23
633.674	5.58
634.005	5.25
634.336	5.94
634.668	5.42
634.999	5.5
635.33	5.54
635.661	5.63
635.992	5.13
636.323	5.28
636.654	5.38
636.985	5.31
637.316	5.3
637.647	5.57
637.977	5.1
638.308	5.63
638.639	5.11
638.969	5.33
639.3	5.1
639.63	5.7
639.961	5.19
640.291	5.56
640.622	5.27
640.952	5.18
641.282	5.32
641.612	5.59
641.943	5.33
642.273	5.4
642.603	5.5
642.933	5.11
643.263	4.73
643.592	5.51
643.922	5.7
644.252	5.06
644.582	5.49
644.911	5.17
645.241	5.29
645.571	5.12
645.9	5.55
646.23	5.59
646.559	5.49
646.888	5.8
647.218	5.26
647.547	5.37
647.876	5.51
648.205	5.14
648.534	5.71
648.863	5.45
649.192	4.95
649.521	5.62
649.85	5.55
650.179	5.2
650.508	5.38
650.837	5.71
651.165	5.7
651.494	5.26
651.822	5.32
652.151	5.05
652.479	5.42
652.808	5.35
653.136	5.79
653.465	5.48
653.793	4.97
654.121	5.47
654.449	5.11
654.777	4.98
655.105	5.79
655.433	5.52
655.761	5.9
656.089	5.63
656.417	5.3
656.745	5.48
657.073	5.64
657.4	6.2
657.728	5.29
658.056	5.57
658.383	6.07
658.711	5.35
659.038	5.16
659.365	5.67
659.693	5.12
660.02	5.6
660.347	5.52
660.674	5.16
661.001	5.21
661.329	5.78
661.656	5.53
661.982	5.17
662.309	5.54
662.636	5.62
662.963	5.43
663.29	5.92
663.616	5.36
663.943	5.94
664.27	5.79
664.596	5.72
664.923	5.22
665.249	5.48
665.576	5.07
665.902	5.48
666.228	5.27
666.554	4.76
666.881	6.28
667.207	5.24
667.533	5.1
667.859	5.33
668.185	5.62
668.511	5.89
668.837	4.69
669.162	5.9
669.488	5.61
669.814	5.42
670.139	5.73
670.465	6.23
670.791	5.88
671.116	4.75
671.442	5.84
671.767	4.8
672.092	5.9
672.418	6.24
672.743	5.54
673.068	5.91
673.393	5.19
673.718	5.28
674.043	6.12
674.368	5.57
674.693	5.37
675.018	4.96
675.343	5.38
675.667	5.62
675.992	5.95
676.317	6.28
676.641	5.46
676.966	5.44
677.29	5.32
677.615	5.85
677.939	6.03
678.264	6.24
678.588	5.79
678.912	5.56
679.236	6
679.56	5.82
679.885	5.81
680.209	6.04
680.532	6.06
680.856	5.94
681.18	5.93
681.504	5.84
681.828	5.64
682.152	5.05
682.475	6.18
682.799	6.06
683.122	5.45
683.446	5.85
683.769	5.89
684.093	6.02
684.416	5.72
684.739	6.16
685.062	6.46
685.386	5.67
685.709	5.62
686.032	5.3
686.355	5.97
686.678	5.68
687.001	6.19
687.324	6.03
687.646	6.15
687.969	6.47
688.292	5.6
688.614	6.56
688.937	6.42
689.26	5.42
689.582	6.27
689.904	6.35
690.227	6.37
690.549	6.57
690.871	5.7
691.194	5.84
691.516	6.26
691.838	6.52
