Data from 0160_crown_Reflection__4__105.txt Node

Date: Fri Sep 22 21:09:07 CDT 2023
User: ToomeyLab
Spectrometer: FLMS14357
Trigger mode: 0
Integration Time (sec): 1.000000E-2
Scans to average: 100
Electric dark correction enabled: true
Nonlinearity correction enabled: false
Boxcar width: 0
XAxis mode: Wavelengths
Number of Pixels in Spectrum: 2048
>>>>>Begin Spectral Data<<<<<
189.047	-11.86
189.435	-11.86
189.823	-11.86
190.211	128.04
190.599	-65.85
190.987	68.05
191.375	120.59
191.763	106.56
192.151	108.51
192.538	1303.44
192.926	286.21
193.314	-92.71
193.702	46.02
194.089	161.1
194.477	-3.7
194.864	62.14
195.252	226.25
195.639	136.71
196.027	2831.1
196.414	31.57
196.801	68.21
197.189	-125.81
197.576	174.5
197.963	-54.82
198.351	29.65
198.738	29.36
199.125	20.05
199.512	-6.55
199.899	18.71
200.286	16.67
200.673	21.14
201.06	18.91
201.447	46.94
201.833	39.39
202.22	31.33
202.607	34.24
202.994	38.14
203.38	68.34
203.767	11.25
204.154	56.49
204.54	48.98
204.927	22.34
205.313	4.3
205.699	37.7
206.086	75.34
206.472	77.55
206.858	29.44
207.245	7.24
207.631	42.43
208.017	25.56
208.403	65.62
208.789	54.75
209.175	46.59
209.561	50.35
209.947	44.92
210.333	49.58
210.719	44.67
211.105	34.34
211.491	-4.29
211.876	25.05
212.262	56.3
212.648	32.6
213.034	48.86
213.419	37.03
213.805	22.26
214.19	26.84
214.576	16.72
214.961	-7.58
215.346	3.72
215.732	38.16
216.117	24.18
216.502	36.38
216.888	46.45
217.273	24.15
217.658	9.97
218.043	25.79
218.428	37.2
218.813	-10.39
219.198	9.72
219.583	36.36
219.968	7.88
220.353	34.42
220.738	14.97
221.122	7.91
221.507	17.73
221.892	20.24
222.276	21.04
222.661	-1.16
223.046	27.05
223.43	39.08
223.815	18.33
224.199	19.63
224.583	18.99
224.968	22.33
225.352	18.34
225.736	16.67
226.121	13.9
226.505	11.79
226.889	14.85
227.273	16.55
227.657	16.74
228.041	14.28
228.425	19.48
228.809	11.35
229.193	10.5
229.577	16.52
229.961	12.99
230.344	11.65
230.728	9.3
231.112	11.53
231.495	10.22
231.879	10.35
232.263	10.25
232.646	11.34
233.03	10.54
233.413	11.43
233.797	10.8
234.18	11.66
234.563	14.3
234.946	11.79
235.33	8.11
235.713	7.82
236.096	10.6
236.479	11.13
236.862	10.34
237.245	9.54
237.628	11.93
238.011	10.1
238.394	9.03
238.777	11.46
239.16	10.41
239.543	11.91
239.925	11.35
240.308	10.5
240.691	10.45
241.073	10.09
241.456	9.34
241.838	8.9
242.221	8.49
242.603	9.92
242.986	9.44
243.368	8.07
243.75	9.56
244.133	9.92
244.515	9.37
244.897	8.8
245.279	8.7
245.661	8.93
246.043	8.35
246.425	8.42
246.807	9.41
247.189	8.19
247.571	8.4
247.953	9.66
248.335	8.48
248.717	8.46
249.098	8.45
249.48	8.17
249.862	7.97
250.243	8.48
250.625	8.26
251.006	8.12
251.388	8.43
251.769	9.89
252.151	8.51
252.532	7.97
252.913	8.69
253.295	9.45
253.676	8.45
254.057	8.48
254.438	8.43
254.819	7.48
255.2	8.16
255.581	6.95
255.962	8.6
256.343	9.27
256.724	8.61
257.105	9.37
257.486	8.11
257.867	7.41
258.247	7.84
258.628	8.89
259.009	8.08
259.389	7.39
259.77	7.56
260.15	8.55
260.531	7.58
260.911	7.68
261.292	7.4
261.672	7.02
262.052	7.32
262.432	7.3
262.813	7.26
263.193	7.08
263.573	7.81
263.953	7.3
264.333	7.83
264.713	7.08
265.093	7.47
265.473	7.44
265.853	6.63
266.233	7.77
266.612	6.65
266.992	7.84
267.372	7.08
267.752	7.9
268.131	6.61
268.511	6.63
268.89	7.21
269.27	6.69
269.649	7.44
270.029	7.03
270.408	7.29
270.787	7.08
271.167	7.24
271.546	7.07
271.925	7.09
272.304	6.5
272.683	6.82
273.062	7.62
273.441	6.93
273.82	7.15
274.199	6.79
274.578	7.1
274.957	6.87
275.336	6.71
275.715	6.72
276.093	6.37
276.472	6.72
276.851	6.17
277.229	6.18
277.608	7.18
277.986	6.44
278.365	7.23
278.743	6.76
279.122	7.06
279.5	7.06
279.878	5.95
280.257	7.35
280.635	6.88
281.013	7.2
281.391	5.85
281.769	6.94
282.147	6.89
282.525	6.25
282.903	6.85
283.281	6.55
283.659	6.55
284.037	6.18
284.415	6.67
284.792	6.44
285.17	6.21
285.548	6.82
285.925	6.82
286.303	6.52
286.68	5.94
287.058	6.23
287.435	6.08
287.813	6.43
288.19	5.5
288.567	6.27
288.945	6.2
289.322	6.55
289.699	6.38
290.076	6.18
290.453	6.44
290.83	5.93
291.207	5.98
291.584	5.8
291.961	5.73
292.338	5.98
292.715	6.35
293.092	5.97
293.469	6.25
293.845	6.22
294.222	6.46
294.599	6.3
294.975	6.35
295.352	5.87
295.728	5.9
296.105	6.38
296.481	6.46
296.858	5.98
297.234	5.58
297.61	6.1
297.986	6.79
298.363	6.12
298.739	6.14
299.115	6.41
299.491	6.22
299.867	5.63
300.243	5.49
300.619	6.12
300.995	5.92
301.371	6.13
301.746	6.33
302.122	6.09
302.498	5.41
302.874	5.6
303.249	5.67
303.625	5.63
304	5.95
304.376	6.03
304.751	5.79
305.127	5.85
305.502	6.08
305.878	5.92
306.253	6.17
306.628	5.49
307.003	5.89
307.378	5.52
307.754	5.52
308.129	5.59
308.504	6.02
308.879	5.9
309.254	5.72
309.629	5.79
310.003	6.46
310.378	6.3
310.753	5.92
311.128	5.74
311.502	5.89
311.877	5.27
312.252	5.36
312.626	5.78
313.001	6.11
313.375	5.86
313.75	6.27
314.124	5.97
314.498	5.6
314.873	5.84
315.247	5.85
315.621	5.92
315.995	5.61
316.369	5.98
316.743	5.66
317.117	6.43
317.491	5.7
317.865	5.41
318.239	5.73
318.613	5.46
318.987	5.41
319.361	5.97
319.734	5.69
320.108	5.71
320.482	5.83
320.855	5.41
321.229	6.32
321.602	5.69
321.976	5.82
322.349	5.2
322.723	6.19
323.096	5.67
323.469	5.76
323.843	5.64
324.216	6.09
324.589	5.68
324.962	5.6
325.335	5.72
325.708	5.7
326.081	5.87
326.454	4.99
326.827	5.96
327.2	5.84
327.573	6.38
327.945	5.86
328.318	5.75
328.691	5.67
329.063	5.72
329.436	5.65
329.809	5.52
330.181	5.96
330.553	5.72
330.926	5.99
331.298	6.18
331.671	5.78
332.043	5.66
332.415	5.83
332.787	5.9
333.159	5.8
333.532	5.38
333.904	5.6
334.276	5.35
334.648	5.19
335.02	5.64
335.391	5.96
335.763	5.79
336.135	5.98
336.507	5.97
336.879	5.54
337.25	6.04
337.622	5.85
337.993	6.08
338.365	6.25
338.736	6.1
339.108	6.2
339.479	5.55
339.851	5.36
340.222	5.57
340.593	5.8
340.964	5.6
341.336	5.74
341.707	5.62
342.078	5.59
342.449	5.81
342.82	5.67
343.191	5.4
343.562	5.71
343.933	5.79
344.303	5.93
344.674	5.77
345.045	6.05
345.416	6.3
345.786	5.53
346.157	6.2
346.527	5.59
346.898	5.88
347.268	5.62
347.639	5.74
348.009	5.85
348.38	6.02
348.75	5.98
349.12	5.92
349.49	6.38
349.861	5.94
350.231	6.04
350.601	6.3
350.971	6.16
351.341	5.69
351.711	5.83
352.081	6.14
352.45	5.97
352.82	6.24
353.19	6.34
353.56	6.05
353.929	6.1
354.299	6.27
354.669	5.56
355.038	6.4
355.408	5.86
355.777	6.26
356.147	5.91
356.516	6.33
356.885	5.74
357.254	6.32
357.624	5.76
357.993	5.98
358.362	6.11
358.731	6.35
359.1	6.01
359.469	6.09
359.838	5.8
360.207	5.75
360.576	5.95
360.945	5.95
361.314	6.31
361.682	6.2
362.051	6.55
362.42	6.2
362.788	6.14
363.157	6.17
363.525	6.06
363.894	5.94
364.262	5.98
364.631	6.26
364.999	6.17
365.367	6.39
365.735	6.14
366.104	6.27
366.472	5.93
366.84	6.17
367.208	6.17
367.576	6.4
367.944	6.32
368.312	6.49
368.68	6.19
369.048	6.23
369.416	6.08
369.783	6.06
370.151	5.82
370.519	6.21
370.886	6.23
371.254	6.33
371.621	5.67
371.989	6.43
372.356	6.15
372.724	6.63
373.091	6.5
373.458	6.37
373.826	6.4
374.193	6.46
374.56	6.54
374.927	6.46
375.294	6.54
375.661	6.36
376.028	6.74
376.395	6.55
376.762	6.36
377.129	6.26
377.496	6.75
377.863	6.46
378.229	6.58
378.596	6.62
378.963	6.78
379.329	6.33
379.696	6.6
380.062	6.08
380.429	6.16
380.795	6.36
381.161	6.25
381.528	6.29
381.894	6.1
382.26	6.14
382.626	6.18
382.993	6.64
383.359	6.56
383.725	6.2
384.091	6.72
384.457	6.61
384.823	6.4
385.188	6.4
385.554	6.42
385.92	6.66
386.286	6.49
386.651	6.59
387.017	6.77
387.383	6.42
387.748	6.39
388.114	6.88
388.479	6.63
388.845	6.5
389.21	6.16
389.575	6.6
389.94	6.43
390.306	6.67
390.671	6.85
391.036	6.53
391.401	6.66
391.766	6.61
392.131	6.48
392.496	6.43
392.861	6.61
393.226	6.84
393.591	6.95
393.956	6.59
394.32	6.31
394.685	6.52
395.05	6.82
395.414	6.52
395.779	6.43
396.143	6.5
396.508	6.5
396.872	6.45
397.236	6.56
397.601	6.74
397.965	6.76
398.329	6.66
398.694	6.45
399.058	6.4
399.422	6.67
399.786	6.91
400.15	6.97
400.514	6.55
400.878	6.69
401.242	6.72
401.605	6.73
401.969	6.62
402.333	6.82
402.697	6.49
403.06	6.67
403.424	6.81
403.787	6.93
404.151	6.54
404.514	6.96
404.878	6.97
405.241	6.88
405.604	6.81
405.968	6.89
406.331	6.68
406.694	6.76
407.057	6.48
407.42	6.78
407.783	6.52
408.146	6.82
408.509	6.74
408.872	6.69
409.235	6.73
409.598	6.75
409.961	6.81
410.323	6.97
410.686	6.82
411.049	6.91
411.411	6.97
411.774	6.52
412.136	6.67
412.499	6.81
412.861	7.12
413.223	6.95
413.586	6.75
413.948	6.98
414.31	6.81
414.672	6.58
415.035	6.82
415.397	7.07
415.759	7.12
416.121	6.69
416.483	6.6
416.845	6.54
417.206	6.81
417.568	6.92
417.93	6.62
418.292	6.88
418.653	6.76
419.015	6.92
419.377	6.63
419.738	6.87
420.1	6.62
420.461	6.73
420.822	6.62
421.184	6.64
421.545	6.75
421.906	6.64
422.267	6.6
422.629	6.78
422.99	6.7
423.351	6.54
423.712	6.54
424.073	6.63
424.434	6.71
424.795	6.63
425.155	6.7
425.516	6.67
425.877	6.61
426.238	6.66
426.598	6.61
426.959	6.61
427.32	6.62
427.68	6.66
428.041	6.73
428.401	6.75
428.761	6.96
429.122	6.72
429.482	6.76
429.842	6.75
430.202	6.69
430.563	7
430.923	6.84
431.283	6.85
431.643	6.92
432.003	6.7
432.363	7.05
432.722	7.07
433.082	6.9
433.442	6.9
433.802	6.92
434.161	6.84
434.521	6.9
434.881	6.88
435.24	6.77
435.6	6.72
435.959	6.67
436.319	6.75
436.678	6.95
437.037	6.85
437.396	6.82
437.756	7.03
438.115	6.88
438.474	6.82
438.833	6.76
439.192	6.8
439.551	6.74
439.91	6.92
440.269	6.98
440.628	6.79
440.987	6.82
441.345	6.85
441.704	6.91
442.063	6.9
442.421	6.71
442.78	6.91
443.138	6.82
443.497	6.82
443.855	6.89
444.214	6.79
444.572	6.97
444.93	6.96
445.288	6.77
445.647	6.96
446.005	6.87
446.363	6.75
446.721	6.75
447.079	6.71
447.437	6.84
447.795	6.93
448.153	6.81
448.51	6.8
448.868	6.8
449.226	6.75
449.584	6.69
449.941	6.73
450.299	6.9
450.656	6.91
451.014	6.94
451.371	6.85
451.729	6.89
452.086	6.94
452.443	6.78
452.801	7.06
453.158	6.95
453.515	7.02
453.872	6.93
454.229	6.9
454.586	7.03
454.943	6.86
455.3	7.01
455.657	6.85
456.014	6.82
456.371	7.03
456.727	7.08
457.084	7.05
457.441	6.78
457.797	7.01
458.154	7.04
458.51	6.81
458.867	7.13
459.223	7.08
459.58	7.02
459.936	7.01
460.292	6.99
460.648	7.18
461.005	6.8
461.361	6.85
461.717	6.71
462.073	6.79
462.429	6.64
462.785	6.69
463.141	6.76
463.496	6.81
463.852	6.79
464.208	6.84
464.564	7
464.919	6.87
465.275	7.12
465.631	7.05
465.986	7.03
466.342	7.06
466.697	7.11
467.052	6.85
467.408	7.1
467.763	6.98
468.118	7.08
468.473	6.84
468.829	6.82
469.184	6.97
469.539	6.93
469.894	6.74
470.249	7.03
470.603	6.85
470.958	6.92
471.313	6.86
471.668	6.86
472.023	7.07
472.377	6.99
472.732	6.83
473.086	7.11
473.441	6.68
473.795	7.12
474.15	6.7
474.504	7.02
474.859	6.95
475.213	6.85
475.567	6.89
475.921	6.97
476.275	7
476.63	7
476.984	6.88
477.338	6.97
477.692	6.84
478.045	7.06
478.399	7.06
478.753	6.88
479.107	6.91
479.461	6.83
479.814	6.92
480.168	6.88
480.521	6.95
480.875	6.98
481.228	6.93
481.582	6.84
481.935	6.86
482.289	6.94
482.642	6.71
482.995	6.92
483.348	6.88
483.701	6.84
484.055	6.78
484.408	6.74
484.761	6.77
485.114	6.58
485.466	6.55
485.819	6.43
486.172	6.35
486.525	6.35
486.878	6.35
487.23	6.42
487.583	6.49
487.936	6.6
488.288	6.66
488.641	6.63
488.993	6.5
489.345	6.53
489.698	6.44
490.05	6.46
490.402	6.47
490.754	6.48
491.107	6.52
491.459	6.62
491.811	6.66
492.163	6.63
492.515	6.68
492.866	6.63
493.218	6.62
493.57	6.59
493.922	6.43
494.274	6.5
494.625	6.47
494.977	6.63
495.328	6.65
495.68	6.73
496.031	6.85
496.383	6.81
496.734	6.87
497.086	6.84
497.437	6.92
497.788	6.79
498.139	6.79
498.49	6.92
498.842	6.63
499.193	6.72
499.544	6.71
499.894	6.63
500.245	6.74
500.596	6.75
500.947	6.71
501.298	6.72
501.648	6.82
501.999	6.74
502.35	6.72
502.7	6.78
503.051	6.8
503.401	6.8
503.752	6.81
504.102	6.76
504.452	6.78
504.803	6.74
505.153	6.62
505.503	6.76
505.853	6.82
506.203	6.72
506.553	6.68
506.903	6.8
507.253	6.66
507.603	6.79
507.953	6.93
508.303	6.78
508.652	6.7
509.002	6.68
509.352	6.66
509.701	6.7
510.051	6.71
510.4	6.66
510.75	6.67
511.099	6.62
511.449	6.52
511.798	6.76
512.147	6.65
512.496	6.5
512.846	6.65
513.195	6.69
513.544	6.56
513.893	6.62
514.242	6.58
514.591	6.63
514.939	6.64
515.288	6.58
515.637	6.59
515.986	6.54
516.334	6.68
516.683	6.67
517.032	6.76
517.38	6.67
517.729	6.6
518.077	6.74
518.426	6.63
518.774	6.7
519.122	6.58
519.47	6.61
519.819	6.51
520.167	6.52
520.515	6.53
520.863	6.33
521.211	6.41
521.559	6.52
521.907	6.51
522.255	6.48
522.602	6.5
522.95	6.52
523.298	6.61
523.645	6.57
523.993	6.51
524.341	6.6
524.688	6.43
525.036	6.48
525.383	6.55
525.73	6.5
526.078	6.38
526.425	6.37
526.772	6.47
527.119	6.4
527.466	6.32
527.814	6.3
528.161	6.29
528.508	6.35
528.854	6.3
529.201	6.31
529.548	6.32
529.895	6.22
530.242	6.18
530.588	6.06
530.935	5.99
531.282	6.05
531.628	6.13
531.975	6.09
532.321	6.12
532.667	6.23
533.014	6.3
533.36	6.3
533.706	6.29
534.052	6.29
534.399	6.4
534.745	6.23
535.091	6.15
535.437	6.06
535.783	6.03
536.129	6.08
536.474	6.23
536.82	6.11
537.166	6.32
537.512	6.28
537.857	6.26
538.203	6.38
538.549	6.26
538.894	6.19
539.239	6.2
539.585	6.12
539.93	6.4
540.276	6.25
540.621	6.3
540.966	6.33
541.311	6.35
541.656	6.34
542.001	6.39
542.346	6.31
542.691	6.34
543.036	6.1
543.381	5.96
543.726	5.96
544.071	5.95
544.415	6.02
544.76	6
545.105	5.96
545.449	6.03
545.794	6.1
546.138	6.11
546.483	6.21
546.827	6.18
547.171	6.24
547.516	6.2
547.86	6.2
548.204	6.12
548.548	6.17
548.892	6.21
549.236	6.07
549.58	6.13
549.924	6.21
550.268	6.25
550.612	6.15
550.956	6.03
551.3	6.3
551.643	6.23
551.987	6.21
552.33	6.45
552.674	6.25
553.017	6.2
553.361	6.31
553.704	6.25
554.048	6.46
554.391	6.26
554.734	6.36
555.077	6.15
555.42	6.22
555.764	6.22
556.107	6.18
556.45	6.21
556.793	6.29
557.135	6.36
557.478	6.12
557.821	6.34
558.164	6.19
558.507	6.33
558.849	6.14
559.192	6.31
559.534	6.23
559.877	6.17
560.219	6.19
560.562	6.2
560.904	6.31
561.246	6.46
561.589	6.22
561.931	6.04
562.273	6.08
562.615	6.22
562.957	6.12
563.299	6.2
563.641	6.29
563.983	6.21
564.325	6.27
564.667	6.19
565.008	6.09
565.35	6.22
565.692	5.99
566.033	5.95
566.375	6.01
566.716	6.26
567.058	6.17
567.399	6.05
567.741	6.33
568.082	5.98
568.423	6.03
568.764	6.08
569.105	5.91
569.447	6.12
569.788	5.83
570.129	6.17
570.47	6.2
570.811	6.04
571.151	6.22
571.492	6
571.833	5.79
572.174	5.9
572.514	6.15
572.855	6.08
573.195	5.85
573.536	6.03
573.876	6.03
574.217	5.77
574.557	5.95
574.898	6.12
575.238	5.77
575.578	6.01
575.918	5.95
576.258	5.72
576.598	6
576.938	5.91
577.278	5.97
577.618	5.77
577.958	5.94
578.298	6.03
578.638	5.74
578.977	6.11
579.317	5.96
579.657	5.99
579.996	6.09
580.336	6.24
580.675	5.92
581.014	5.93
581.354	5.8
581.693	6.06
582.032	6.16
582.372	6.09
582.711	6
583.05	5.9
583.389	6.19
583.728	6
584.067	6.27
584.406	6.06
584.745	5.67
585.083	6.22
585.422	5.88
585.761	5.91
586.1	6.2
586.438	5.83
586.777	6.03
587.115	6.16
587.454	5.65
587.792	6.25
588.13	6.13
588.469	5.75
588.807	6.09
589.145	6.06
589.483	5.94
589.821	5.79
590.159	5.97
590.497	6.16
590.835	5.97
591.173	5.9
591.511	6
591.849	6.12
592.187	5.66
592.524	5.84
592.862	6.05
593.2	5.89
593.537	5.66
593.875	5.89
594.212	5.99
594.55	6.05
594.887	5.77
595.224	6.04
595.561	5.98
595.899	5.96
596.236	6.25
596.573	5.82
596.91	5.82
597.247	5.71
597.584	6.08
597.921	6.12
598.258	5.72
598.594	5.91
598.931	5.77
599.268	5.61
599.604	5.88
599.941	5.76
600.277	5.71
600.614	5.72
600.95	5.89
601.287	5.71
601.623	5.82
601.959	5.86
602.296	5.84
602.632	5.75
602.968	5.87
603.304	5.71
603.64	5.65
603.976	5.94
604.312	5.76
604.648	5.91
604.984	5.81
605.319	5.87
605.655	5.78
605.991	5.77
606.326	5.73
606.662	5.69
606.998	5.54
607.333	5.79
607.668	5.62
608.004	5.91
608.339	5.59
608.674	5.6
609.01	5.72
609.345	5.79
609.68	5.92
610.015	5.72
610.35	5.64
610.685	6.1
611.02	5.62
611.355	6.04
611.689	5.76
612.024	5.76
612.359	5.56
612.694	5.61
613.028	5.59
613.363	5.59
613.697	5.65
614.032	5.81
614.366	5.65
614.7	5.51
615.035	5.84
615.369	5.44
615.703	5.61
616.037	5.94
616.371	5.94
616.705	6.15
617.039	5.94
617.373	5.57
617.707	5.73
618.041	5.88
618.375	5.56
618.709	5.3
619.042	5.87
619.376	5.88
619.71	5.63
620.043	5.65
620.377	5.52
620.71	5.66
621.043	5.97
621.377	5.49
621.71	5.71
622.043	5.86
622.376	6.19
622.709	5.97
623.043	6.06
623.376	6.23
623.709	6.04
624.041	5.76
624.374	5.82
624.707	5.98
625.04	5.94
625.373	5.26
625.705	5.56
626.038	5.74
626.37	5.9
626.703	5.73
627.035	5.8
627.368	5.54
627.7	6.02
628.032	6.09
628.365	5.71
628.697	5.77
629.029	5.69
629.361	5.84
629.693	5.96
630.025	6.05
630.357	5.3
630.689	5.71
631.021	5.64
631.353	5.61
631.684	5.62
632.016	5.86
632.348	5.51
632.679	5.43
633.011	5.61
633.342	5.86
633.674	5.97
634.005	5.51
634.336	5.67
634.668	5.82
634.999	5.67
635.33	5.79
635.661	5.83
635.992	5.56
636.323	5.62
636.654	5.71
636.985	5.68
637.316	5.58
637.647	5.95
637.977	5.4
638.308	6.05
638.639	5.59
638.969	6.05
639.3	5.57
639.63	5.86
639.961	5.51
640.291	5.44
640.622	6.02
640.952	5.66
641.282	5.76
641.612	5.84
641.943	6.12
642.273	5.71
642.603	5.44
642.933	5.86
643.263	4.94
643.592	5.79
643.922	5.72
644.252	5.37
644.582	6.09
644.911	5.85
645.241	6.21
645.571	5.59
645.9	5.94
646.23	6.22
646.559	5.96
646.888	5.45
647.218	5.65
647.547	5.76
647.876	5.77
648.205	5.47
648.534	6.11
648.863	5.72
649.192	5.46
649.521	6.22
649.85	5.9
650.179	5.53
650.508	5.54
650.837	6.21
651.165	5.72
651.494	5.54
651.822	5.96
652.151	5.52
652.479	5.78
652.808	5.78
653.136	6.05
653.465	5.57
653.793	5.31
654.121	5.94
654.449	5.23
654.777	5.52
655.105	5.74
655.433	6.06
655.761	5.97
656.089	5.93
656.417	5.69
656.745	6.15
657.073	5.7
657.4	6.57
657.728	5.8
658.056	6.1
658.383	6.11
658.711	5.63
659.038	5.79
659.365	6.04
659.693	5.55
660.02	5.85
660.347	5.92
660.674	5.52
661.001	5.57
661.329	5.86
661.656	5.93
661.982	5.62
662.309	5.97
662.636	5.86
662.963	5.96
663.29	6.07
663.616	5.66
663.943	6.1
664.27	6.05
664.596	5.66
664.923	6.19
665.249	5.68
665.576	5.45
665.902	6.03
666.228	5.84
666.554	5.36
666.881	6.07
667.207	5.63
667.533	6.17
667.859	5.8
668.185	5.98
668.511	6.09
668.837	5.97
669.162	5.98
669.488	6.07
669.814	5.83
670.139	6.48
670.465	6.5
670.791	5.88
671.116	6.24
671.442	6.52
671.767	5.57
672.092	6.68
672.418	6.34
672.743	5.69
673.068	5.79
673.393	5.45
673.718	6.12
674.043	5.99
674.368	6.13
674.693	5.63
675.018	5.81
675.343	5.79
675.667	6.13
675.992	5.79
676.317	5.79
676.641	6.25
676.966	6.04
677.29	6.24
677.615	6.49
677.939	6.78
678.264	5.73
678.588	6.33
678.912	6.36
679.236	6.33
679.56	6.13
679.885	6.13
680.209	6.47
680.532	5.82
680.856	5.92
681.18	6.28
681.504	6.26
681.828	6.35
682.152	5.68
682.475	6.8
682.799	6.42
683.122	6.09
683.446	5.76
683.769	6.13
684.093	6.13
684.416	5.99
684.739	6.32
685.062	6.5
685.386	5.83
685.709	5.9
686.032	5.73
686.355	5.95
686.678	6.28
687.001	6.34
687.324	6.31
687.646	6.57
687.969	6.66
688.292	6.21
688.614	7.08
688.937	6.27
689.26	6.15
689.582	6.09
689.904	6.47
690.227	6.72
690.549	6.53
690.871	6.02
691.194	6.02
691.516	5.96
691.838	6.99
692.16	6.31
692.482	6
