Data from 0160_chest_Reflection__0__96.txt Node

Date: Fri Sep 22 21:06:14 CDT 2023
User: ToomeyLab
Spectrometer: FLMS14357
Trigger mode: 0
Integration Time (sec): 1.000000E-2
Scans to average: 100
Electric dark correction enabled: true
Nonlinearity correction enabled: false
Boxcar width: 0
XAxis mode: Wavelengths
Number of Pixels in Spectrum: 2048
>>>>>Begin Spectral Data<<<<<
189.047	67.83
189.435	67.83
189.823	67.83
190.211	-36.74
190.599	52.52
190.987	87.94
191.375	74.7
191.763	-19.71
192.151	1.1
192.538	393.58
192.926	130.72
193.314	-8.9
193.702	64.31
194.089	38.88
194.477	96.22
194.864	18.59
195.252	235.18
195.639	65.81
196.027	-943.9
196.414	77.69
196.801	52.94
197.189	-67.72
197.576	180.5
197.963	892.98
198.351	11.65
198.738	56.15
199.125	-8.08
199.512	34.26
199.899	43.27
200.286	27.11
200.673	16.12
201.06	-19.78
201.447	31.13
201.833	-20.17
202.22	42.15
202.607	14.01
202.994	36.11
203.38	39.75
203.767	24.28
204.154	50.12
204.54	30.23
204.927	30.29
205.313	32.85
205.699	66.27
206.086	71.75
206.472	74.95
206.858	45.25
207.245	19
207.631	59.72
208.017	36.66
208.403	34.48
208.789	42.46
209.175	54.9
209.561	55.69
209.947	41.65
210.333	49.5
210.719	24.78
211.105	55.1
211.491	11.5
211.876	65.56
212.262	32.51
212.648	38.36
213.034	52.89
213.419	34.94
213.805	10.26
214.19	46.27
214.576	37
214.961	27.26
215.346	19.03
215.732	45.02
216.117	31.08
216.502	58.17
216.888	54.73
217.273	59.67
217.658	9.26
218.043	32.71
218.428	43.89
218.813	-15.55
219.198	-0.26
219.583	28.7
219.968	10.16
220.353	18.88
220.738	39.91
221.122	20.36
221.507	11.79
221.892	-4.54
222.276	20.63
222.661	-9.62
223.046	38.05
223.43	22.94
223.815	17.34
224.199	6.04
224.583	15.7
224.968	20.68
225.352	12.41
225.736	9.87
226.121	10.8
226.505	11.23
226.889	18.18
227.273	7.87
227.657	10.57
228.041	11.47
228.425	15.86
228.809	11.49
229.193	9.31
229.577	11.11
229.961	9.9
230.344	8.06
230.728	6.08
231.112	6.76
231.495	5.87
231.879	6.58
232.263	5.37
232.646	7.84
233.03	6.7
233.413	6.23
233.797	6.75
234.18	5.48
234.563	9.76
234.946	9.24
235.33	3.63
235.713	5.73
236.096	7.66
236.479	5.74
236.862	9.29
237.245	6.01
237.628	7.33
238.011	7.26
238.394	6.44
238.777	7.87
239.16	6.79
239.543	8.88
239.925	8.03
240.308	6.62
240.691	6.18
241.073	7.53
241.456	8.51
241.838	5.75
242.221	6.39
242.603	6.21
242.986	5.08
243.368	4.91
243.75	6.84
244.133	6.39
244.515	6.11
244.897	5.91
245.279	5.76
245.661	5.76
246.043	6.21
246.425	6.08
246.807	5.52
247.189	4.56
247.571	5.98
247.953	6.48
248.335	5.59
248.717	5.74
249.098	5.68
249.48	5.28
249.862	5.21
250.243	5.56
250.625	5.77
251.006	5.3
251.388	5.4
251.769	6.63
252.151	5.67
252.532	6.11
252.913	5.91
253.295	6.42
253.676	6.68
254.057	5.97
254.438	5.78
254.819	5.19
255.2	5.16
255.581	5.89
255.962	6.41
256.343	6.63
256.724	4.72
257.105	6.19
257.486	4.93
257.867	5.82
258.247	6.26
258.628	5.54
259.009	6.11
259.389	5.6
259.77	5.91
260.15	6.31
260.531	5.93
260.911	5.64
261.292	5.2
261.672	5.08
262.052	5.01
262.432	4.94
262.813	5.11
263.193	5.02
263.573	5.87
263.953	5.32
264.333	4.97
264.713	5.46
265.093	5.3
265.473	5.03
265.853	4.78
266.233	4.89
266.612	5.5
266.992	6.08
267.372	5.96
267.752	5.83
268.131	5.16
268.511	4.85
268.89	5.67
269.27	5.24
269.649	5.29
270.029	4.96
270.408	4.94
270.787	4.51
271.167	4.95
271.546	4.96
271.925	5.5
272.304	4.62
272.683	5.53
273.062	5.32
273.441	5.45
273.82	5.35
274.199	5.42
274.578	5.44
274.957	5.16
275.336	4.76
275.715	5.02
276.093	4.96
276.472	4.75
276.851	5.14
277.229	4.03
277.608	5.18
277.986	4.66
278.365	5.31
278.743	5.53
279.122	4.94
279.5	5.21
279.878	5.04
280.257	6.02
280.635	4.91
281.013	4.82
281.391	4.51
281.769	4.78
282.147	5.49
282.525	5.06
282.903	5.55
283.281	4.73
283.659	4.88
284.037	5.01
284.415	5.27
284.792	4.41
285.17	5.16
285.548	5.58
285.925	4.93
286.303	4.93
286.68	4.91
287.058	4.91
287.435	4.63
287.813	4.64
288.19	4.33
288.567	5.07
288.945	4.87
289.322	4.7
289.699	4.66
290.076	5.09
290.453	4.49
290.83	4.18
291.207	4.95
291.584	4.34
291.961	4.6
292.338	4.51
292.715	5.2
293.092	4.68
293.469	4.72
293.845	4.61
294.222	5.06
294.599	5.2
294.975	5.3
295.352	5.52
295.728	5.44
296.105	4.74
296.481	4.94
296.858	4.5
297.234	4.38
297.61	4.95
297.986	4.94
298.363	4.22
298.739	4.86
299.115	4.85
299.491	4.88
299.867	4.84
300.243	4.74
300.619	4.64
300.995	4.32
301.371	4.78
301.746	5.13
302.122	4.62
302.498	4.37
302.874	4.73
303.249	5.07
303.625	4.3
304	5.43
304.376	4.66
304.751	4.71
305.127	4.78
305.502	5.52
305.878	4.49
306.253	4.98
306.628	5.06
307.003	4.93
307.378	4.54
307.754	4.95
308.129	4.77
308.504	5.18
308.879	5.29
309.254	5.16
309.629	4.78
310.003	5.23
310.378	5.22
310.753	5.03
311.128	5.07
311.502	4.74
311.877	4.63
312.252	5.16
312.626	4.98
313.001	4.76
313.375	5.14
313.75	4.92
314.124	5.15
314.498	4.89
314.873	4.72
315.247	5.27
315.621	5.13
315.995	5.19
316.369	5.27
316.743	4.96
317.117	4.72
317.491	5.24
317.865	4.32
318.239	4.67
318.613	5.46
318.987	4.45
319.361	4.89
319.734	4.91
320.108	5.02
320.482	4.64
320.855	5.1
321.229	5.64
321.602	5.04
321.976	4.82
322.349	4.89
322.723	5.25
323.096	5.49
323.469	5.08
323.843	4.98
324.216	5.34
324.589	5.1
324.962	5.16
325.335	5.29
325.708	4.64
326.081	5.14
326.454	4.39
326.827	4.65
327.2	4.9
327.573	5.47
327.945	5.33
328.318	5.05
328.691	4.81
329.063	4.94
329.436	5.22
329.809	5.17
330.181	5.15
330.553	5.51
330.926	5.2
331.298	4.92
331.671	4.81
332.043	4.25
332.415	5
332.787	5.84
333.159	4.78
333.532	4.3
333.904	4.6
334.276	4.5
334.648	5.13
335.02	4.87
335.391	5.03
335.763	5.13
336.135	5.3
336.507	4.88
336.879	5.4
337.25	5.14
337.622	4.78
337.993	5.05
338.365	5.04
338.736	5
339.108	4.69
339.479	4.72
339.851	4.39
340.222	4.77
340.593	4.82
340.964	4.81
341.336	4.99
341.707	4.5
342.078	4.69
342.449	5.03
342.82	4.54
343.191	4.15
343.562	4.86
343.933	5.49
344.303	4.75
344.674	5.15
345.045	4.9
345.416	5.39
345.786	4.54
346.157	4.91
346.527	4.58
346.898	4.8
347.268	4.8
347.639	4.84
348.009	5.14
348.38	4.79
348.75	5.07
349.12	4.74
349.49	4.97
349.861	4.36
350.231	4.77
350.601	4.89
350.971	5.3
351.341	4.42
351.711	4.79
352.081	4.93
352.45	5.04
352.82	5.3
353.19	5.21
353.56	4.9
353.929	5.11
354.299	5.02
354.669	4.64
355.038	4.71
355.408	5.3
355.777	5.33
356.147	4.95
356.516	4.88
356.885	4.94
357.254	5.27
357.624	4.54
357.993	4.99
358.362	4.76
358.731	4.94
359.1	4.68
359.469	4.82
359.838	4.57
360.207	4.65
360.576	4.99
360.945	4.73
361.314	4.95
361.682	4.87
362.051	4.88
362.42	4.79
362.788	4.48
363.157	4.99
363.525	4.63
363.894	4.67
364.262	4.63
364.631	4.65
364.999	4.43
365.367	4.98
365.735	4.69
366.104	4.72
366.472	5.05
366.84	4.82
367.208	5.18
367.576	4.63
367.944	4.45
368.312	5.19
368.68	4.67
369.048	5.21
369.416	4.95
369.783	4.57
370.151	4.63
370.519	4.85
370.886	5
371.254	5.05
371.621	5.03
371.989	4.9
372.356	4.83
372.724	4.78
373.091	5.08
373.458	4.71
373.826	4.87
374.193	4.95
374.56	4.89
374.927	4.9
375.294	4.83
375.661	4.92
376.028	4.76
376.395	4.64
376.762	4.86
377.129	4.99
377.496	4.99
377.863	4.94
378.229	4.72
378.596	5
378.963	5.03
379.329	4.87
379.696	5.13
380.062	4.85
380.429	4.81
380.795	4.86
381.161	4.57
381.528	4.61
381.894	4.69
382.26	4.88
382.626	4.89
382.993	5.36
383.359	4.79
383.725	5
384.091	4.97
384.457	4.87
384.823	4.48
385.188	4.96
385.554	5.23
385.92	5.09
386.286	4.91
386.651	4.99
387.017	5.2
387.383	5.05
387.748	4.93
388.114	4.82
388.479	4.92
388.845	4.93
389.21	4.69
389.575	5.13
389.94	4.85
390.306	5.14
390.671	5.2
391.036	4.68
391.401	5.23
391.766	4.92
392.131	4.77
392.496	4.95
392.861	5.21
393.226	5.05
393.591	4.99
393.956	4.95
394.32	4.86
394.685	4.75
395.05	5.19
395.414	5.03
395.779	4.96
396.143	5.07
396.508	4.86
396.872	5.1
397.236	4.9
397.601	4.68
397.965	5.11
398.329	5
398.694	5.03
399.058	5.03
399.422	5.01
399.786	5.21
400.15	4.92
400.514	5.03
400.878	5.08
401.242	4.93
401.605	4.9
401.969	4.65
402.333	4.94
402.697	4.92
403.06	4.89
403.424	5.05
403.787	5.07
404.151	4.86
404.514	5.26
404.878	5.16
405.241	5.11
405.604	5.12
405.968	5.35
406.331	4.83
406.694	4.89
407.057	4.8
407.42	5.04
407.783	4.89
408.146	5.08
408.509	4.94
408.872	5.03
409.235	4.95
409.598	5.34
409.961	5.2
410.323	5.13
410.686	5.08
411.049	5.02
411.411	5.12
411.774	4.96
412.136	5.01
412.499	5.07
412.861	5.09
413.223	5.01
413.586	4.86
413.948	4.99
414.31	5.25
414.672	4.94
415.035	5.16
415.397	5.12
415.759	5.34
416.121	4.88
416.483	4.82
416.845	4.99
417.206	5.07
417.568	5.03
417.93	5.17
418.292	5.11
418.653	4.73
419.015	4.99
419.377	4.77
419.738	4.9
420.1	4.79
420.461	5.06
420.822	4.85
421.184	4.79
421.545	4.82
421.906	4.82
422.267	4.89
422.629	4.87
422.99	4.79
423.351	4.72
423.712	4.82
424.073	4.79
424.434	4.86
424.795	4.75
425.155	4.97
425.516	4.86
425.877	4.88
426.238	4.68
426.598	4.76
426.959	4.77
427.32	4.89
427.68	4.79
428.041	4.79
428.401	4.91
428.761	5.04
429.122	4.88
429.482	4.93
429.842	4.78
430.202	4.91
430.563	5.07
430.923	5.06
431.283	5.13
431.643	5.06
432.003	5.17
432.363	5.11
432.722	5.06
433.082	5.1
433.442	4.85
433.802	5.24
434.161	4.9
434.521	5.1
434.881	4.93
435.24	4.93
435.6	4.91
435.959	4.89
436.319	4.89
436.678	5.03
437.037	5.08
437.396	4.91
437.756	5.03
438.115	5.18
438.474	4.94
438.833	5.02
439.192	5.07
439.551	5.03
439.91	5.1
440.269	5.06
440.628	4.91
440.987	5.01
441.345	5.05
441.704	4.92
442.063	4.86
442.421	5.02
442.78	4.99
443.138	4.99
443.497	5.05
443.855	4.89
444.214	4.82
444.572	5.05
444.93	5
445.288	4.98
445.647	5.06
446.005	4.98
446.363	4.91
446.721	4.98
447.079	4.87
447.437	4.96
447.795	5.09
448.153	4.9
448.51	4.91
448.868	4.8
449.226	4.85
449.584	4.93
449.941	4.82
450.299	4.8
450.656	5.01
451.014	5.01
451.371	4.89
451.729	4.94
452.086	4.97
452.443	5.13
452.801	5.19
453.158	5.03
453.515	5.21
453.872	5.01
454.229	5.23
454.586	4.94
454.943	5.2
455.3	5.19
455.657	4.99
456.014	5
456.371	4.98
456.727	5.25
457.084	5.15
457.441	5
457.797	5.02
458.154	5.16
458.51	5.04
458.867	5.14
459.223	5.07
459.58	5.19
459.936	5
460.292	5.2
460.648	5.17
461.005	5.07
461.361	5.04
461.717	4.93
462.073	5
462.429	4.87
462.785	5.02
463.141	5.02
463.496	5.18
463.852	5.12
464.208	5.09
464.564	5.18
464.919	5.12
465.275	5.27
465.631	5.32
465.986	5.32
466.342	5.11
466.697	5.34
467.052	5.1
467.408	5.08
467.763	5.16
468.118	5.37
468.473	5.2
468.829	5.2
469.184	5.06
469.539	5.02
469.894	5.21
470.249	5.19
470.603	5.24
470.958	5.21
471.313	5.27
471.668	5.18
472.023	5.18
472.377	5.18
472.732	5.17
473.086	5.26
473.441	4.99
473.795	5.46
474.15	5.2
474.504	5.15
474.859	5.44
475.213	5.11
475.567	5.11
475.921	5.22
476.275	5.29
476.63	5.12
476.984	5.11
477.338	5.27
477.692	5.31
478.045	5.24
478.399	5.37
478.753	5.25
479.107	5.13
479.461	5.15
479.814	5.4
480.168	5.33
480.521	5.38
480.875	5.27
481.228	5.14
481.582	5.09
481.935	5.17
482.289	5.19
482.642	5.03
482.995	5.22
483.348	5.18
483.701	5.11
484.055	5.05
484.408	5.07
484.761	5.22
485.114	5.03
485.466	5
485.819	4.9
486.172	4.84
486.525	4.87
486.878	4.88
487.23	4.93
487.583	5.05
487.936	5.09
488.288	5.11
488.641	5.09
488.993	5.02
489.345	4.98
489.698	4.97
490.05	4.98
490.402	4.97
490.754	4.93
491.107	4.98
491.459	5.21
491.811	5.12
492.163	5.1
492.515	5.1
492.866	5.2
493.218	5.13
493.57	5.13
493.922	4.98
494.274	5.02
494.625	5.06
494.977	5.18
495.328	5.23
495.68	5.32
496.031	5.36
496.383	5.3
496.734	5.27
497.086	5.35
497.437	5.48
497.788	5.29
498.139	5.44
498.49	5.46
498.842	5.24
499.193	5.24
499.544	5.31
499.894	5.25
500.245	5.25
500.596	5.32
500.947	5.43
501.298	5.38
501.648	5.3
501.999	5.34
502.35	5.42
502.7	5.47
503.051	5.43
503.401	5.44
503.752	5.56
504.102	5.38
504.452	5.43
504.803	5.34
505.153	5.46
505.503	5.33
505.853	5.61
506.203	5.32
506.553	5.53
506.903	5.46
507.253	5.44
507.603	5.54
507.953	5.56
508.303	5.54
508.652	5.4
509.002	5.65
509.352	5.51
509.701	5.6
510.051	5.48
510.4	5.46
510.75	5.41
511.099	5.29
511.449	5.44
511.798	5.5
512.147	5.46
512.496	5.47
512.846	5.38
513.195	5.47
513.544	5.53
513.893	5.49
514.242	5.45
514.591	5.47
514.939	5.45
515.288	5.46
515.637	5.48
515.986	5.5
516.334	5.69
516.683	5.63
517.032	5.73
517.38	5.59
517.729	5.63
518.077	5.61
518.426	5.53
518.774	5.64
519.122	5.54
519.47	5.46
519.819	5.55
520.167	5.56
520.515	5.55
520.863	5.43
521.211	5.53
521.559	5.5
521.907	5.63
522.255	5.64
522.602	5.57
522.95	5.6
523.298	5.72
523.645	5.71
523.993	5.59
524.341	5.65
524.688	5.63
525.036	5.82
525.383	5.7
525.73	5.84
526.078	5.76
526.425	5.6
526.772	5.72
527.119	5.7
527.466	5.57
527.814	5.54
528.161	5.56
528.508	5.61
528.854	5.65
529.201	5.68
529.548	5.64
529.895	5.47
530.242	5.51
530.588	5.47
530.935	5.36
531.282	5.44
531.628	5.49
531.975	5.48
532.321	5.57
532.667	5.6
533.014	5.71
533.36	5.67
533.706	5.74
534.052	5.81
534.399	5.77
534.745	5.81
535.091	5.66
535.437	5.65
535.783	5.63
536.129	5.69
536.474	5.75
536.82	5.73
537.166	5.89
537.512	5.86
537.857	5.87
538.203	5.85
538.549	5.77
538.894	5.81
539.239	5.8
539.585	5.83
539.93	5.93
540.276	5.94
540.621	6.02
540.966	6.01
541.311	6.01
541.656	5.91
542.001	6.11
542.346	6.05
542.691	6.04
543.036	5.88
543.381	5.76
543.726	5.78
544.071	5.8
544.415	5.86
544.76	5.87
545.105	5.78
545.449	5.92
545.794	5.98
546.138	6.04
546.483	6
546.827	5.92
547.171	6.12
547.516	6.17
547.86	6.24
548.204	6.18
548.548	6.17
548.892	6.16
549.236	6.01
549.58	6.15
549.924	6.27
550.268	6.3
550.612	6.19
550.956	6.26
551.3	6.35
551.643	6.39
551.987	6.34
552.33	6.55
552.674	6.4
553.017	6.44
553.361	6.32
553.704	6.37
554.048	6.55
554.391	6.54
554.734	6.53
555.077	6.38
555.42	6.31
555.764	6.52
556.107	6.59
556.45	6.43
556.793	6.49
557.135	6.65
557.478	6.4
557.821	6.7
558.164	6.96
558.507	6.78
558.849	6.63
559.192	6.65
559.534	6.77
559.877	6.63
560.219	6.69
560.562	6.82
560.904	6.77
561.246	6.88
561.589	7.09
561.931	6.64
562.273	6.55
562.615	6.65
562.957	6.87
563.299	7
563.641	6.91
563.983	7.1
564.325	6.76
564.667	6.93
565.008	6.76
565.35	6.81
565.692	6.91
566.033	6.93
566.375	7
566.716	7
567.058	6.93
567.399	7.07
567.741	7.13
568.082	6.91
568.423	7.01
568.764	7.16
569.105	6.88
569.447	6.83
569.788	6.88
570.129	7.08
570.47	7.12
570.811	7.16
571.151	7.18
571.492	7.09
571.833	7.04
572.174	7.24
572.514	7.23
572.855	7.19
573.195	7.02
573.536	7.2
573.876	7.16
574.217	7.18
574.557	7.3
574.898	7.32
575.238	7.16
575.578	7.24
575.918	7.23
576.258	7.35
576.598	7.49
576.938	7.51
577.278	7.47
577.618	7.23
577.958	7.49
578.298	7.64
578.638	7.43
578.977	7.59
579.317	7.5
579.657	7.52
579.996	7.72
580.336	7.65
580.675	7.86
581.014	7.5
581.354	7.76
581.693	7.79
582.032	7.86
582.372	7.86
582.711	8.02
583.05	7.91
583.389	7.89
583.728	7.86
584.067	8.04
584.406	8.06
584.745	7.67
585.083	8.17
585.422	8.01
585.761	8.02
586.1	7.93
586.438	7.84
586.777	7.88
587.115	8.17
587.454	7.94
587.792	8.2
588.13	8.12
588.469	8.17
588.807	8.31
589.145	8.14
589.483	8.41
589.821	8.21
590.159	8.25
590.497	8.27
590.835	8.24
591.173	8.38
591.511	8.15
591.849	8.27
592.187	8.44
592.524	8.59
592.862	8.64
593.2	8.35
593.537	8.21
593.875	8.29
594.212	8.29
594.55	8.74
594.887	8.35
595.224	8.77
595.561	8.7
595.899	8.86
596.236	8.81
596.573	8.68
596.91	8.65
597.247	8.67
597.584	8.94
597.921	8.71
598.258	8.75
598.594	8.61
598.931	8.81
599.268	8.67
599.604	8.74
599.941	8.74
600.277	8.67
600.614	8.73
600.95	8.74
601.287	9.03
601.623	9.03
601.959	9.04
602.296	9.14
602.632	8.96
602.968	8.98
603.304	9.29
603.64	9.2
603.976	9.09
604.312	9.03
604.648	9.17
604.984	9.31
605.319	9.04
605.655	9
605.991	9.25
606.326	9.41
606.662	9.02
606.998	9.04
607.333	9.41
607.668	9.23
608.004	9.35
608.339	9.31
608.674	9.4
609.01	9.39
609.345	9.56
609.68	9.4
610.015	9.53
610.35	9.48
610.685	9.77
611.02	9.57
611.355	9.8
611.689	9.4
612.024	9.79
612.359	9.55
612.694	9.71
613.028	9.68
613.363	9.56
613.697	9.78
614.032	9.82
614.366	9.59
614.7	9.97
615.035	10.1
615.369	10.03
615.703	10.03
616.037	10
616.371	10.42
616.705	10.16
617.039	10.13
617.373	10.11
617.707	10.21
618.041	10.34
618.375	10.2
618.709	10.29
619.042	10.65
619.376	10.14
619.71	10.46
620.043	10.2
620.377	10.07
620.71	10.51
621.043	10.74
621.377	10.19
621.71	10.55
622.043	10.32
622.376	10.92
622.709	10.58
623.043	10.51
623.376	11.13
623.709	10.66
624.041	10.57
624.374	10.99
624.707	11.08
625.04	10.8
625.373	10.66
625.705	11.02
626.038	10.72
626.37	10.91
626.703	10.82
627.035	11.02
627.368	11.11
627.7	10.98
628.032	11.04
628.365	11.11
628.697	10.83
629.029	11.17
629.361	11.09
629.693	11.12
630.025	11.28
630.357	11.36
630.689	11.25
631.021	11.17
631.353	11.14
631.684	11.25
632.016	11.52
632.348	11.66
632.679	11.3
633.011	11.55
633.342	11.28
633.674	11.42
634.005	11.17
634.336	11.96
634.668	11.8
634.999	11.69
635.33	12.04
635.661	11.75
635.992	11.51
636.323	11.42
636.654	11.45
636.985	11.52
637.316	11.65
637.647	12.14
637.977	11.57
638.308	12.06
638.639	11.97
638.969	11.95
639.3	12.08
639.63	12.04
639.961	11.94
640.291	11.86
640.622	12.31
640.952	12.31
641.282	12.32
641.612	12.47
641.943	12.57
642.273	12.54
642.603	12.13
642.933	12.15
643.263	11.63
643.592	12.61
643.922	12.97
644.252	12.34
644.582	12.91
644.911	12.35
645.241	12.65
645.571	12.8
645.9	12.79
646.23	12.83
646.559	12.87
646.888	12.79
647.218	13.19
647.547	12.97
647.876	12.7
648.205	12.82
648.534	13.16
648.863	13.07
649.192	12.69
649.521	13.16
649.85	13.58
650.179	13.03
650.508	13.16
650.837	13.2
651.165	13.25
651.494	12.73
651.822	12.97
652.151	13.24
652.479	13.3
652.808	12.93
653.136	13.52
653.465	13.17
653.793	13.01
654.121	13.64
654.449	12.78
654.777	13.62
655.105	13.83
655.433	14.18
655.761	14.16
656.089	13.53
656.417	13.74
656.745	13.45
657.073	13.45
657.4	14.49
657.728	13.87
658.056	13.82
658.383	14.06
658.711	13.98
659.038	13.8
659.365	13.91
659.693	13.92
660.02	14.29
660.347	13.87
660.674	13.55
661.001	13.71
661.329	13.8
661.656	14.2
661.982	13.76
662.309	14.3
662.636	14.29
662.963	14.08
663.29	14.42
663.616	14.06
663.943	14.36
664.27	14.51
664.596	14.74
664.923	14.34
665.249	14.33
665.576	13.65
665.902	14.77
666.228	14.12
666.554	14.33
666.881	15.38
667.207	14.85
667.533	14.7
667.859	15.16
668.185	15.07
668.511	15.18
668.837	14.11
669.162	14.68
669.488	14.95
669.814	15.19
670.139	14.91
670.465	15.68
670.791	15.28
671.116	14.68
671.442	15.6
671.767	14.11
672.092	15.63
672.418	15.47
672.743	15.37
673.068	15.17
673.393	15.03
673.718	15.96
674.043	15.22
674.368	15.12
674.693	15.59
675.018	14.8
675.343	15.08
675.667	15.39
675.992	15.36
676.317	16.02
676.641	15.74
676.966	16.14
677.29	15.5
677.615	15.57
677.939	15.73
678.264	15.72
678.588	16.21
678.912	15.99
679.236	16.21
679.56	16.29
679.885	16.29
680.209	16.72
680.532	16.29
680.856	15.63
681.18	16.53
681.504	16.25
681.828	16.13
682.152	16.22
682.475	16.55
682.799	16.48
683.122	16.38
683.446	15.94
683.769	16.84
684.093	16.45
684.416	16.32
684.739	16.89
685.062	17.32
685.386	16.32
685.709	16.4
686.032	16.6
686.355	15.93
686.678	17.18
687.001	16.71
687.324	17.29
687.646	17.07
687.969	17.12
