Data from 0160_crown_Reflection__0__101.txt Node

Date: Fri Sep 22 21:08:28 CDT 2023
User: ToomeyLab
Spectrometer: FLMS14357
Trigger mode: 0
Integration Time (sec): 1.000000E-2
Scans to average: 100
Electric dark correction enabled: true
Nonlinearity correction enabled: false
Boxcar width: 0
XAxis mode: Wavelengths
Number of Pixels in Spectrum: 2048
>>>>>Begin Spectral Data<<<<<
189.047	-11.6
189.435	-11.6
189.823	-11.6
190.211	-433.95
190.599	170.17
190.987	164.38
191.375	105.7
191.763	-16.11
192.151	53.31
192.538	1087.84
192.926	178.53
193.314	68.02
193.702	48.72
194.089	37.72
194.477	-17.86
194.864	18.82
195.252	-28.32
195.639	79.27
196.027	131.1
196.414	-346.51
196.801	35.31
197.189	-25.81
197.576	118.02
197.963	-242.54
198.351	15.52
198.738	23.48
199.125	-9.03
199.512	-7.94
199.899	5.02
200.286	28.04
200.673	39.72
201.06	-13.51
201.447	37.91
201.833	30.91
202.22	22.26
202.607	48.65
202.994	35.8
203.38	69.72
203.767	35.67
204.154	53.11
204.54	36.19
204.927	6.98
205.313	16.77
205.699	51.38
206.086	45.27
206.472	76.4
206.858	46.9
207.245	-1.68
207.631	45.84
208.017	47.65
208.403	44.75
208.789	28.31
209.175	37.77
209.561	54.57
209.947	55.21
210.333	38.17
210.719	-31.51
211.105	29.76
211.491	-11.17
211.876	57.17
212.262	34.64
212.648	15.61
213.034	35.76
213.419	5.56
213.805	15.06
214.19	8.69
214.576	24.17
214.961	3.47
215.346	15.28
215.732	38.6
216.117	14.21
216.502	41.86
216.888	24.39
217.273	15.59
217.658	13.58
218.043	34.79
218.428	51.88
218.813	-0.69
219.198	13.1
219.583	1.24
219.968	2.95
220.353	37.33
220.738	18.1
221.122	24.87
221.507	9.18
221.892	1.38
222.276	5.78
222.661	-18.82
223.046	16.94
223.43	26.9
223.815	17.47
224.199	16.96
224.583	17.22
224.968	24.28
225.352	9.01
225.736	16.04
226.121	9.14
226.505	11.49
226.889	7.66
227.273	5.13
227.657	14.06
228.041	11
228.425	14.33
228.809	7.38
229.193	9.64
229.577	10.83
229.961	12.27
230.344	9.92
230.728	9.5
231.112	10.53
231.495	9.46
231.879	10.1
232.263	9.33
232.646	10.74
233.03	9.23
233.413	10.92
233.797	10.63
234.18	10.63
234.563	11.19
234.946	12.13
235.33	7.67
235.713	8.19
236.096	8.87
236.479	10.17
236.862	11.07
237.245	10.14
237.628	8.67
238.011	9.02
238.394	9.74
238.777	11.01
239.16	7.7
239.543	11.5
239.925	10.61
240.308	8.99
240.691	10.03
241.073	10.04
241.456	9.88
241.838	7.16
242.221	8.63
242.603	8.58
242.986	8.23
243.368	8.87
243.75	8.87
244.133	8.94
244.515	8.68
244.897	8.15
245.279	8.12
245.661	8.6
246.043	8.02
246.425	8.32
246.807	7.99
247.189	8.02
247.571	8.25
247.953	8.51
248.335	8.31
248.717	8.15
249.098	7.82
249.48	7.57
249.862	7.8
250.243	7.92
250.625	7.57
251.006	7.53
251.388	7.44
251.769	7.78
252.151	7.93
252.532	8.3
252.913	8.22
253.295	8.63
253.676	7.96
254.057	7.72
254.438	8.2
254.819	6.83
255.2	7.36
255.581	7.7
255.962	7.17
256.343	7.16
256.724	5.97
257.105	7.66
257.486	6.83
257.867	6.42
258.247	7.54
258.628	7.82
259.009	6.77
259.389	6.1
259.77	7.59
260.15	7.22
260.531	6.88
260.911	6.67
261.292	7.09
261.672	6.51
262.052	6.91
262.432	6.76
262.813	6.84
263.193	6.57
263.573	6.93
263.953	6.92
264.333	6.84
264.713	7.75
265.093	6.99
265.473	6.48
265.853	6.09
266.233	7.33
266.612	7
266.992	7.66
267.372	7.05
267.752	6.88
268.131	5.91
268.511	6.41
268.89	7.15
269.27	6.24
269.649	6.4
270.029	6.29
270.408	6.49
270.787	6.53
271.167	6.53
271.546	5.81
271.925	6.78
272.304	5.83
272.683	6.99
273.062	6.74
273.441	6.34
273.82	6.6
274.199	6.52
274.578	6.49
274.957	6.17
275.336	6.38
275.715	6.11
276.093	5.78
276.472	6.01
276.851	6.18
277.229	5.77
277.608	6.14
277.986	6.25
278.365	6.12
278.743	6.4
279.122	5.98
279.5	6.03
279.878	5.88
280.257	6.72
280.635	6.15
281.013	6.16
281.391	5.92
281.769	6.47
282.147	6.19
282.525	5.78
282.903	6.02
283.281	6.27
283.659	6.48
284.037	5.76
284.415	6.13
284.792	6.28
285.17	6.64
285.548	6.55
285.925	5.84
286.303	5.68
286.68	5.87
287.058	5.8
287.435	5.87
287.813	5.91
288.19	5.93
288.567	6.39
288.945	5.64
289.322	5.89
289.699	6.15
290.076	6.19
290.453	5.73
290.83	5.63
291.207	5.82
291.584	6.03
291.961	5.5
292.338	5.87
292.715	5.78
293.092	5.77
293.469	5.81
293.845	5.87
294.222	5.87
294.599	5.95
294.975	6.5
295.352	5.73
295.728	5.91
296.105	6.16
296.481	6.14
296.858	5.82
297.234	5.78
297.61	5.46
297.986	5.66
298.363	5.74
298.739	5.44
299.115	5.82
299.491	5.66
299.867	5.52
300.243	5.38
300.619	5.56
300.995	5.24
301.371	5.96
301.746	5.94
302.122	5.16
302.498	5.32
302.874	5.39
303.249	5.5
303.625	5.54
304	5.94
304.376	5.77
304.751	6.1
305.127	6.11
305.502	6.2
305.878	5.42
306.253	5.7
306.628	5.37
307.003	5.55
307.378	6
307.754	5.78
308.129	5.86
308.504	5.84
308.879	6.14
309.254	5.63
309.629	5.1
310.003	6.51
310.378	6.05
310.753	5.62
311.128	5.86
311.502	5.53
311.877	5.32
312.252	5.77
312.626	5.47
313.001	5.9
313.375	5.88
313.75	6.07
314.124	5.81
314.498	5.4
314.873	5.63
315.247	5.92
315.621	6.17
315.995	5.74
316.369	5.22
316.743	5.77
317.117	5.73
317.491	5.98
317.865	5.68
318.239	5.09
318.613	6.09
318.987	5.28
319.361	5.27
319.734	5.46
320.108	6.09
320.482	5.36
320.855	5.65
321.229	6.3
321.602	5.7
321.976	6.07
322.349	5.3
322.723	5.47
323.096	5.93
323.469	5.49
323.843	5.48
324.216	6.19
324.589	5.7
324.962	5.67
325.335	5.37
325.708	5.18
326.081	5.89
326.454	5.79
326.827	5.72
327.2	6.16
327.573	6.46
327.945	5.77
328.318	5.83
328.691	6.2
329.063	6
329.436	5.82
329.809	5.98
330.181	6.24
330.553	5.52
330.926	5.9
331.298	5.78
331.671	6.17
332.043	5.12
332.415	5.46
332.787	6.09
333.159	5.44
333.532	5.01
333.904	6.07
334.276	5.34
334.648	5.33
335.02	5.44
335.391	5.47
335.763	5.75
336.135	5.65
336.507	5.99
336.879	6.17
337.25	6.13
337.622	6.1
337.993	5.76
338.365	6.25
338.736	6.06
339.108	5.88
339.479	5.94
339.851	5.05
340.222	5.74
340.593	5.79
340.964	5.66
341.336	6.11
341.707	5.76
342.078	5.83
342.449	5.66
342.82	5.59
343.191	5.82
343.562	6.01
343.933	6.15
344.303	5.3
344.674	5.9
345.045	5.99
345.416	6.08
345.786	5.78
346.157	5.63
346.527	5.76
346.898	5.28
347.268	5.89
347.639	6.06
348.009	5.68
348.38	5.9
348.75	5.85
349.12	5.98
349.49	6.6
349.861	5.54
350.231	6.13
350.601	5.74
350.971	6.13
351.341	5.84
351.711	5.64
352.081	6.25
352.45	5.88
352.82	6.09
353.19	6.42
353.56	5.8
353.929	6.15
354.299	6.24
354.669	5.98
355.038	5.76
355.408	6.35
355.777	6.36
356.147	6.21
356.516	6.38
356.885	6.15
357.254	6.31
357.624	5.4
357.993	5.91
358.362	6.19
358.731	5.73
359.1	6.13
359.469	5.94
359.838	5.92
360.207	5.98
360.576	6.21
360.945	5.82
361.314	6.13
361.682	5.97
362.051	6.35
362.42	5.98
362.788	5.61
363.157	6.09
363.525	5.96
363.894	6.12
364.262	5.87
364.631	5.95
364.999	5.84
365.367	6.18
365.735	5.94
366.104	6
366.472	6.42
366.84	5.98
367.208	6.46
367.576	6.2
367.944	6.14
368.312	6.22
368.68	5.77
369.048	6.2
369.416	6.21
369.783	6.18
370.151	6.15
370.519	6.18
370.886	6.19
371.254	6.22
371.621	6.3
371.989	6.21
372.356	6.03
372.724	6.38
373.091	6.09
373.458	6.24
373.826	6.46
374.193	6.16
374.56	6.23
374.927	6.37
375.294	6.11
375.661	6.17
376.028	6.39
376.395	6.31
376.762	5.76
377.129	6.59
377.496	6.8
377.863	6.51
378.229	6.33
378.596	6.42
378.963	6.53
379.329	6.36
379.696	6.35
380.062	6.15
380.429	6.26
380.795	6.2
381.161	6.26
381.528	6.35
381.894	6
382.26	6.45
382.626	6.3
382.993	6.59
383.359	6.04
383.725	6.18
384.091	6.46
384.457	6.41
384.823	6.36
385.188	6.62
385.554	6.52
385.92	6.37
386.286	6.34
386.651	6.19
387.017	6.41
387.383	6.34
387.748	6.08
388.114	6.45
388.479	6.55
388.845	6.15
389.21	6.23
389.575	6.71
389.94	6.22
390.306	6.34
390.671	6.7
391.036	6.24
391.401	6.55
391.766	6.35
392.131	6.38
392.496	6.4
392.861	6.28
393.226	6.74
393.591	6.45
393.956	6.5
394.32	6.3
394.685	6.38
395.05	6.49
395.414	6.47
395.779	6.55
396.143	6.34
396.508	6.33
396.872	6.44
397.236	6.55
397.601	6.48
397.965	6.63
398.329	6.67
398.694	6.34
399.058	6.22
399.422	6.42
399.786	6.54
400.15	6.43
400.514	6.73
400.878	6.59
401.242	6.74
401.605	6.38
401.969	6.17
402.333	6.48
402.697	6.77
403.06	6.37
403.424	6.56
403.787	6.74
404.151	6.64
404.514	6.4
404.878	6.63
405.241	6.82
405.604	6.47
405.968	6.68
406.331	6.38
406.694	6.46
407.057	6.42
407.42	6.69
407.783	6.55
408.146	6.61
408.509	6.45
408.872	6.52
409.235	6.64
409.598	6.6
409.961	6.95
410.323	6.46
410.686	6.69
411.049	6.69
411.411	6.58
411.774	6.34
412.136	6.38
412.499	6.55
412.861	6.56
413.223	6.7
413.586	6.57
413.948	6.46
414.31	6.36
414.672	6.58
415.035	6.34
415.397	6.69
415.759	6.71
416.121	6.41
416.483	6.48
416.845	6.55
417.206	6.36
417.568	6.34
417.93	6.33
418.292	6.61
418.653	6.25
419.015	6.49
419.377	6.43
419.738	6.58
420.1	6.38
420.461	6.45
420.822	6.32
421.184	6.51
421.545	6.49
421.906	6.46
422.267	6.14
422.629	6.48
422.99	6.42
423.351	6.29
423.712	6.25
424.073	6.36
424.434	6.34
424.795	6.44
425.155	6.45
425.516	6.41
425.877	6.39
426.238	6.28
426.598	6.39
426.959	6.38
427.32	6.42
427.68	6.25
428.041	6.29
428.401	6.47
428.761	6.53
429.122	6.41
429.482	6.43
429.842	6.25
430.202	6.39
430.563	6.52
430.923	6.54
431.283	6.64
431.643	6.57
432.003	6.6
432.363	6.88
432.722	6.51
433.082	6.83
433.442	6.48
433.802	6.57
434.161	6.42
434.521	6.41
434.881	6.52
435.24	6.51
435.6	6.37
435.959	6.4
436.319	6.62
436.678	6.53
437.037	6.43
437.396	6.42
437.756	6.52
438.115	6.56
438.474	6.53
438.833	6.53
439.192	6.5
439.551	6.44
439.91	6.56
440.269	6.53
440.628	6.31
440.987	6.53
441.345	6.52
441.704	6.57
442.063	6.5
442.421	6.51
442.78	6.42
443.138	6.47
443.497	6.44
443.855	6.44
444.214	6.41
444.572	6.5
444.93	6.59
445.288	6.49
445.647	6.67
446.005	6.38
446.363	6.38
446.721	6.63
447.079	6.29
447.437	6.48
447.795	6.57
448.153	6.41
448.51	6.43
448.868	6.33
449.226	6.33
449.584	6.43
449.941	6.29
450.299	6.56
450.656	6.51
451.014	6.51
451.371	6.37
451.729	6.58
452.086	6.45
452.443	6.58
452.801	6.37
453.158	6.37
453.515	6.58
453.872	6.4
454.229	6.52
454.586	6.47
454.943	6.43
455.3	6.41
455.657	6.42
456.014	6.49
456.371	6.61
456.727	6.77
457.084	6.37
457.441	6.5
457.797	6.49
458.154	6.41
458.51	6.29
458.867	6.56
459.223	6.53
459.58	6.61
459.936	6.49
460.292	6.55
460.648	6.59
461.005	6.31
461.361	6.4
461.717	6.22
462.073	6.41
462.429	6.21
462.785	6.25
463.141	6.36
463.496	6.47
463.852	6.51
464.208	6.43
464.564	6.38
464.919	6.54
465.275	6.52
465.631	6.62
465.986	6.56
466.342	6.66
466.697	6.49
467.052	6.44
467.408	6.65
467.763	6.61
468.118	6.8
468.473	6.64
468.829	6.4
469.184	6.38
469.539	6.46
469.894	6.43
470.249	6.4
470.603	6.39
470.958	6.59
471.313	6.59
471.668	6.58
472.023	6.72
472.377	6.43
472.732	6.45
473.086	6.74
473.441	6.38
473.795	6.68
474.15	6.45
474.504	6.36
474.859	6.52
475.213	6.44
475.567	6.46
475.921	6.51
476.275	6.49
476.63	6.34
476.984	6.19
477.338	6.58
477.692	6.48
478.045	6.58
478.399	6.52
478.753	6.4
479.107	6.47
479.461	6.34
479.814	6.48
480.168	6.39
480.521	6.5
480.875	6.55
481.228	6.53
481.582	6.24
481.935	6.48
482.289	6.42
482.642	6.28
482.995	6.37
483.348	6.32
483.701	6.33
484.055	6.32
484.408	6.34
484.761	6.35
485.114	6.15
485.466	6.08
485.819	6
486.172	5.98
486.525	5.98
486.878	5.99
487.23	6
487.583	6.08
487.936	6.16
488.288	6.22
488.641	6.22
488.993	6.08
489.345	6.07
489.698	6.09
490.05	6.03
490.402	6.05
490.754	6.07
491.107	6.02
491.459	6.16
491.811	6.1
492.163	6.22
492.515	6.25
492.866	6.29
493.218	6.19
493.57	6.17
493.922	6.04
494.274	6.05
494.625	6.08
494.977	6.15
495.328	6.28
495.68	6.23
496.031	6.25
496.383	6.32
496.734	6.16
497.086	6.21
497.437	6.36
497.788	6.22
498.139	6.47
498.49	6.51
498.842	6.24
499.193	6.18
499.544	6.33
499.894	6.35
500.245	6.3
500.596	6.37
500.947	6.36
501.298	6.36
501.648	6.29
501.999	6.36
502.35	6.37
502.7	6.3
503.051	6.28
503.401	6.35
503.752	6.34
504.102	6.31
504.452	6.24
504.803	6.4
505.153	6.31
505.503	6.27
505.853	6.27
506.203	6.26
506.553	6.36
506.903	6.22
507.253	6.18
507.603	6.18
507.953	6.38
508.303	6.22
508.652	6.24
509.002	6.38
509.352	6.2
509.701	6.3
510.051	6.17
510.4	6.22
510.75	6.28
511.099	6.07
511.449	6.24
511.798	6.28
512.147	6.17
512.496	6.12
512.846	6.09
513.195	6.3
513.544	6.21
513.893	6.25
514.242	6.13
514.591	6.17
514.939	6.22
515.288	6.01
515.637	6.22
515.986	6.12
516.334	6.24
516.683	6.11
517.032	6.3
517.38	6.24
517.729	6.22
518.077	6.25
518.426	6.2
518.774	6.37
519.122	6.16
519.47	6.12
519.819	6.12
520.167	6.19
520.515	6.07
520.863	5.98
521.211	5.94
521.559	5.99
521.907	6.16
522.255	6.03
522.602	6.13
522.95	6.11
523.298	6.22
523.645	6.21
523.993	6.08
524.341	6.13
524.688	6.13
525.036	6.05
525.383	6.02
525.73	6.16
526.078	6.08
526.425	5.97
526.772	6.12
527.119	6.08
527.466	5.93
527.814	5.94
528.161	5.88
528.508	5.91
528.854	5.9
529.201	5.96
529.548	5.95
529.895	5.89
530.242	5.84
530.588	5.76
530.935	5.68
531.282	5.67
531.628	5.75
531.975	5.68
532.321	5.71
532.667	5.82
533.014	5.85
533.36	5.87
533.706	5.93
534.052	5.96
534.399	5.98
534.745	5.95
535.091	5.85
535.437	5.77
535.783	5.73
536.129	5.79
536.474	5.81
536.82	5.74
537.166	5.92
537.512	5.91
537.857	5.88
538.203	5.91
538.549	5.85
538.894	5.79
539.239	5.79
539.585	5.8
539.93	5.91
540.276	5.87
540.621	5.83
540.966	5.9
541.311	6
541.656	5.87
542.001	5.97
542.346	5.86
542.691	5.87
543.036	5.74
543.381	5.68
543.726	5.61
544.071	5.64
544.415	5.68
544.76	5.66
545.105	5.66
545.449	5.67
545.794	5.73
546.138	5.8
546.483	5.77
546.827	5.77
547.171	5.8
547.516	5.93
547.86	5.76
548.204	5.83
548.548	5.85
548.892	5.84
549.236	5.76
549.58	5.76
549.924	5.86
550.268	5.82
550.612	5.81
550.956	5.84
551.3	6.01
551.643	5.93
551.987	5.85
552.33	5.99
552.674	5.68
553.017	5.78
553.361	5.75
553.704	5.89
554.048	5.87
554.391	5.73
554.734	5.88
555.077	5.82
555.42	5.78
555.764	5.78
556.107	5.59
556.45	5.94
556.793	5.77
557.135	5.79
557.478	5.78
557.821	6.02
558.164	5.82
558.507	6.04
558.849	5.76
559.192	5.89
559.534	5.93
559.877	5.8
560.219	5.81
560.562	5.75
560.904	5.82
561.246	5.95
561.589	5.73
561.931	5.71
562.273	5.74
562.615	5.71
562.957	5.82
563.299	5.83
563.641	5.77
563.983	5.85
564.325	5.77
564.667	5.87
565.008	5.48
565.35	5.85
565.692	5.67
566.033	5.78
566.375	5.84
566.716	5.77
567.058	5.68
567.399	5.73
567.741	5.95
568.082	5.56
568.423	5.78
568.764	5.93
569.105	5.65
569.447	5.73
569.788	5.61
570.129	5.7
570.47	5.84
570.811	5.71
571.151	5.62
571.492	5.63
571.833	5.6
572.174	5.6
572.514	5.61
572.855	5.63
573.195	5.58
573.536	5.62
573.876	5.58
574.217	5.53
574.557	5.67
574.898	5.63
575.238	5.6
575.578	5.7
575.918	5.53
576.258	5.57
576.598	5.6
576.938	5.6
577.278	5.71
577.618	5.38
577.958	5.51
578.298	5.75
578.638	5.62
578.977	5.64
579.317	5.63
579.657	5.68
579.996	5.69
580.336	5.67
580.675	5.6
581.014	5.51
581.354	5.54
581.693	5.82
582.032	5.66
582.372	5.65
582.711	5.68
583.05	5.7
583.389	5.65
583.728	5.58
584.067	5.8
584.406	5.82
584.745	5.28
585.083	5.77
585.422	5.8
585.761	5.85
586.1	5.44
586.438	5.43
586.777	5.62
587.115	5.65
587.454	5.36
587.792	5.87
588.13	5.42
588.469	5.42
588.807	5.94
589.145	5.6
589.483	5.42
589.821	5.49
590.159	5.57
590.497	5.77
590.835	5.64
591.173	5.47
591.511	5.62
591.849	5.66
592.187	5.58
592.524	5.67
592.862	5.57
593.2	5.48
593.537	5.4
593.875	5.34
594.212	5.47
594.55	5.97
594.887	5.47
595.224	5.48
595.561	5.65
595.899	5.72
596.236	5.69
596.573	5.65
596.91	5.73
597.247	5.53
597.584	5.5
597.921	5.87
598.258	5.62
598.594	5.65
598.931	5.39
599.268	5.52
599.604	5.49
599.941	5.55
600.277	5.44
600.614	5.34
600.95	5.5
601.287	5.21
601.623	5.46
601.959	5.48
602.296	5.42
602.632	5.23
602.968	5.4
603.304	5.65
603.64	5.24
603.976	5.66
604.312	5.69
604.648	5.54
604.984	5.62
605.319	5.47
605.655	5.44
605.991	5.38
606.326	5.53
606.662	5.44
606.998	5.37
607.333	5.57
607.668	5.37
608.004	5.54
608.339	5.36
608.674	5.29
609.01	5.55
609.345	5.53
609.68	5.73
610.015	5.5
610.35	5.53
610.685	5.5
611.02	5.46
611.355	5.59
611.689	5.46
612.024	5.64
612.359	5.22
612.694	5.35
613.028	5.36
613.363	5.17
613.697	5.4
614.032	5.37
614.366	5.42
614.7	5.49
615.035	5.56
615.369	5.34
615.703	5.52
616.037	5.82
616.371	5.56
616.705	5.87
617.039	5.76
617.373	5.57
617.707	5.38
618.041	5.38
618.375	5.48
618.709	5.15
619.042	5.5
619.376	5.9
619.71	5.52
620.043	5.17
620.377	5.06
620.71	5.56
621.043	5.53
621.377	5.22
621.71	5.34
622.043	5.6
622.376	5.78
622.709	5.95
623.043	5.37
623.376	5.93
623.709	5.37
624.041	5.52
624.374	5.7
624.707	5.45
625.04	5.43
625.373	4.96
625.705	5.36
626.038	5.25
626.37	5.94
626.703	5.68
627.035	5.52
627.368	5.33
627.7	5.7
628.032	5.75
628.365	5.44
628.697	5.24
629.029	5.36
629.361	5.48
629.693	5.6
630.025	5.55
630.357	5.19
630.689	5.4
631.021	5.33
631.353	5.24
631.684	5.47
632.016	5.6
632.348	5.33
632.679	5.12
633.011	5.37
633.342	5.68
633.674	5.86
634.005	5.48
634.336	5.54
634.668	5.56
634.999	5.52
635.33	5.29
635.661	5.48
635.992	5.33
636.323	5.36
636.654	5.34
636.985	5.15
637.316	5.3
637.647	5.76
637.977	4.97
638.308	6.17
638.639	5.45
638.969	5.71
639.3	5.65
639.63	5.79
639.961	5.1
640.291	5.34
640.622	5.57
640.952	5.7
641.282	5.57
641.612	5.56
641.943	5.44
642.273	5.44
642.603	5.4
642.933	5.48
643.263	5.09
643.592	5.58
643.922	5.72
644.252	5.29
644.582	5.81
644.911	5.4
645.241	5.69
645.571	5.12
645.9	5.46
646.23	5.82
646.559	5.53
646.888	5.67
647.218	5.39
647.547	5.44
647.876	5.47
648.205	5.32
648.534	5.75
648.863	5.65
649.192	5.18
649.521	5.32
649.85	5.49
650.179	5.59
650.508	4.98
650.837	5.83
651.165	5.53
651.494	5.9
651.822	5.46
652.151	5.53
652.479	5.51
652.808	5.5
653.136	5.97
653.465	5.61
653.793	5.2
654.121	6.01
654.449	5.05
654.777	5.54
655.105	5.37
655.433	5.32
655.761	5.71
656.089	5.42
656.417	4.77
656.745	5.42
657.073	5.62
657.4	5.51
657.728	5.72
658.056	5.02
658.383	5.75
658.711	5.11
659.038	4.95
659.365	5.39
659.693	5.5
660.02	5.53
660.347	5.64
660.674	5.23
661.001	5.15
661.329	5.39
661.656	5.78
661.982	5.42
662.309	5.82
662.636	5.27
662.963	5.77
663.29	5.29
663.616	5.99
663.943	5.86
664.27	5.34
664.596	5.85
664.923	5.61
665.249	5.57
665.576	4.8
665.902	5.54
666.228	5.15
666.554	5.46
666.881	5.86
667.207	5.34
667.533	5.58
667.859	6.06
668.185	5.59
668.511	6.15
668.837	4.89
669.162	5.92
669.488	5.45
669.814	5.57
670.139	5.53
670.465	6
670.791	5.81
671.116	5.75
671.442	6.29
671.767	5.1
672.092	5.76
672.418	6.31
672.743	5.87
673.068	5.35
673.393	5.47
673.718	6.5
674.043	5.75
674.368	5.56
674.693	5.74
675.018	5.77
675.343	5.72
675.667	5.7
675.992	5.03
676.317	5.91
676.641	5.24
676.966	5.94
677.29	5.5
677.615	5.59
677.939	5.72
678.264	5.52
678.588	6.52
678.912	5.63
679.236	5.78
679.56	5.55
679.885	5.77
680.209	5.54
680.532	5.9
680.856	5.56
681.18	5.65
681.504	5.41
681.828	5.69
682.152	5.21
682.475	6.16
682.799	5.65
683.122	5.77
683.446	5.9
683.769	5.92
684.093	5.71
684.416	5.71
684.739	6.25
685.062	6.5
685.386	4.97
685.709	5.74
686.032	5.32
686.355	5.81
686.678	6.04
687.001	5.65
687.324	6.22
687.646	5.97
687.969	5.92
688.292	5.7
688.614	5.98
688.937	5.73
689.26	5.9
689.582	6.39
689.904	5.77
690.227	6.69
690.549	6
690.871	5.56
691.194	6.14
691.516	5.83
691.838	5.57
692.16	5.74
692.482	6.16
