Data from 0160_crown_Reflection__2__103.txt Node

Date: Fri Sep 22 21:08:49 CDT 2023
User: ToomeyLab
Spectrometer: FLMS14357
Trigger mode: 0
Integration Time (sec): 1.000000E-2
Scans to average: 100
Electric dark correction enabled: true
Nonlinearity correction enabled: false
Boxcar width: 0
XAxis mode: Wavelengths
Number of Pixels in Spectrum: 2048
>>>>>Begin Spectral Data<<<<<
189.047	62.44
189.435	62.44
189.823	62.44
190.211	-22.6
190.599	175.7
190.987	93.68
191.375	110.51
191.763	82.81
192.151	80.65
192.538	59.86
192.926	97.5
193.314	-115.66
193.702	61.31
194.089	115.3
194.477	-76.26
194.864	46.55
195.252	236.36
195.639	63.29
196.027	1417.68
196.414	241.73
196.801	-60.09
197.189	51.7
197.576	142.74
197.963	-783.77
198.351	8.55
198.738	40.87
199.125	-7.18
199.512	57.63
199.899	46.35
200.286	21.95
200.673	26.92
201.06	85.38
201.447	17.92
201.833	-85.29
202.22	29.08
202.607	55.75
202.994	43.44
203.38	48.75
203.767	-2.54
204.154	50.12
204.54	52.24
204.927	-11.69
205.313	40.54
205.699	50.48
206.086	40.6
206.472	74.08
206.858	16
207.245	-34.22
207.631	35.34
208.017	35.1
208.403	1
208.789	31.5
209.175	51.17
209.561	49.08
209.947	44.58
210.333	20.47
210.719	22.15
211.105	37.12
211.491	20.93
211.876	22.16
212.262	-0.47
212.648	18.95
213.034	18.36
213.419	12.5
213.805	6.5
214.19	-5.38
214.576	21.05
214.961	-4.62
215.346	6.17
215.732	17.17
216.117	26.41
216.502	36.83
216.888	44.03
217.273	15.13
217.658	26.65
218.043	-6.05
218.428	21.44
218.813	-12.69
219.198	8.68
219.583	19.18
219.968	-12.9
220.353	42.3
220.738	13.69
221.122	17.2
221.507	2.57
221.892	7.88
222.276	8.81
222.661	-31.5
223.046	21.34
223.43	17.93
223.815	6.4
224.199	-0.87
224.583	14.04
224.968	16.84
225.352	5.46
225.736	11.51
226.121	10.6
226.505	9.15
226.889	5.35
227.273	1.24
227.657	16.61
228.041	4.99
228.425	15.09
228.809	6.86
229.193	9.31
229.577	8.61
229.961	8.99
230.344	8.81
230.728	5.3
231.112	6.92
231.495	6.41
231.879	7.01
232.263	6.5
232.646	6.85
233.03	5.74
233.413	5.08
233.797	5.39
234.18	5.21
234.563	10.79
234.946	6.97
235.33	3.9
235.713	4.85
236.096	7.04
236.479	4.46
236.862	7.46
237.245	6.18
237.628	5.83
238.011	7.24
238.394	7.48
238.777	9.01
239.16	6.41
239.543	9.06
239.925	8
240.308	6.92
240.691	6.41
241.073	5.86
241.456	7.51
241.838	5.82
242.221	6.35
242.603	6.28
242.986	5.45
243.368	5.51
243.75	5.94
244.133	6.44
244.515	5.64
244.897	6.15
245.279	5.48
245.661	5.15
246.043	6.49
246.425	5.07
246.807	5.3
247.189	4.89
247.571	5.69
247.953	6.17
248.335	6.16
248.717	5.63
249.098	5.6
249.48	5.26
249.862	5.29
250.243	5.65
250.625	5.37
251.006	5.25
251.388	5.67
251.769	5.37
252.151	5.91
252.532	6.04
252.913	6.06
253.295	5.51
253.676	5.47
254.057	5.08
254.438	5.69
254.819	4.93
255.2	5.29
255.581	4.96
255.962	5.18
256.343	4.73
256.724	4.9
257.105	6.33
257.486	5.54
257.867	6.11
258.247	5.56
258.628	5.31
259.009	3.74
259.389	5
259.77	5.46
260.15	6.24
260.531	4.13
260.911	4.18
261.292	4.96
261.672	4.57
262.052	4.83
262.432	4.61
262.813	4.96
263.193	4.42
263.573	5.36
263.953	4.44
264.333	5.06
264.713	4.9
265.093	4.89
265.473	4.89
265.853	4.65
266.233	4.94
266.612	5.58
266.992	5.91
267.372	4.62
267.752	5.21
268.131	5.37
268.511	4.45
268.89	5.08
269.27	5.17
269.649	4.83
270.029	4.47
270.408	4.84
270.787	4.52
271.167	4.58
271.546	4.81
271.925	4.75
272.304	4.06
272.683	4.48
273.062	5.07
273.441	4.75
273.82	4.84
274.199	4.59
274.578	4.72
274.957	4.58
275.336	4.79
275.715	4.5
276.093	4.49
276.472	4.01
276.851	4.86
277.229	3.49
277.608	5.12
277.986	4.33
278.365	4.32
278.743	4.56
279.122	4.5
279.5	5.28
279.878	4.62
280.257	5.1
280.635	4.18
281.013	4.73
281.391	4.58
281.769	4.32
282.147	4.9
282.525	4.63
282.903	4.3
283.281	4.3
283.659	4.37
284.037	4.12
284.415	4.6
284.792	3.99
285.17	4.57
285.548	5.22
285.925	4.83
286.303	4.31
286.68	4.09
287.058	4.26
287.435	3.98
287.813	4.25
288.19	4.19
288.567	4.15
288.945	3.86
289.322	4.62
289.699	4.42
290.076	4.33
290.453	4.35
290.83	3.88
291.207	4.45
291.584	3.98
291.961	3.93
292.338	4.1
292.715	4.65
293.092	4.15
293.469	4.09
293.845	4.21
294.222	4.25
294.599	4.5
294.975	4.8
295.352	3.67
295.728	3.93
296.105	4.28
296.481	3.68
296.858	4.18
297.234	4.25
297.61	4
297.986	3.94
298.363	3.94
298.739	3.84
299.115	4.57
299.491	4.32
299.867	4.29
300.243	3.85
300.619	4.22
300.995	4.11
301.371	4.54
301.746	4.15
302.122	3.99
302.498	3.82
302.874	3.78
303.249	4.14
303.625	3.84
304	4.42
304.376	4.51
304.751	4.5
305.127	4.04
305.502	4.69
305.878	4.06
306.253	4.37
306.628	4.07
307.003	4.07
307.378	3.81
307.754	3.98
308.129	3.98
308.504	3.62
308.879	4.27
309.254	4.4
309.629	4.71
310.003	4.27
310.378	4.21
310.753	3.61
311.128	4.23
311.502	4.26
311.877	3.7
312.252	4.17
312.626	4.06
313.001	4.33
313.375	4.26
313.75	4.19
314.124	4.37
314.498	4.01
314.873	4.03
315.247	4.45
315.621	3.72
315.995	3.59
316.369	4.49
316.743	4.08
317.117	4.32
317.491	4.49
317.865	3.91
318.239	3.73
318.613	4.14
318.987	3.87
319.361	4.11
319.734	4.55
320.108	4.39
320.482	3.73
320.855	4.05
321.229	4.53
321.602	3.77
321.976	4.07
322.349	3.79
322.723	3.9
323.096	3.84
323.469	4.27
323.843	4.04
324.216	4.58
324.589	3.92
324.962	3.73
325.335	4.04
325.708	3.72
326.081	4.49
326.454	3.7
326.827	3.99
327.2	3.63
327.573	4.52
327.945	4.41
328.318	4.31
328.691	4.2
329.063	3.73
329.436	4.17
329.809	4.46
330.181	4.67
330.553	4.34
330.926	4.29
331.298	4.62
331.671	4.33
332.043	3.07
332.415	3.98
332.787	4.76
333.159	3.8
333.532	3.71
333.904	4.14
334.276	4.1
334.648	3.4
335.02	3.82
335.391	4.2
335.763	4.32
336.135	3.73
336.507	4.09
336.879	3.81
337.25	4.49
337.622	4.18
337.993	4.31
338.365	3.83
338.736	4.33
339.108	3.93
339.479	3.78
339.851	3.77
340.222	4.07
340.593	3.87
340.964	3.24
341.336	4.07
341.707	3.74
342.078	4.06
342.449	4.2
342.82	4.11
343.191	3.78
343.562	4.05
343.933	4.11
344.303	4.04
344.674	3.87
345.045	4.11
345.416	4.34
345.786	3.73
346.157	4.13
346.527	4.16
346.898	4.18
347.268	4.13
347.639	3.96
348.009	4.1
348.38	4.3
348.75	4.19
349.12	3.86
349.49	4.41
349.861	4.03
350.231	4.04
350.601	3.62
350.971	4.34
351.341	3.95
351.711	3.85
352.081	3.8
352.45	4.05
352.82	4.18
353.19	4.66
353.56	3.96
353.929	4.59
354.299	4.42
354.669	4.12
355.038	4.36
355.408	4.05
355.777	4.34
356.147	4.12
356.516	4.46
356.885	4.18
357.254	4.25
357.624	3.41
357.993	3.9
358.362	4.21
358.731	4.27
359.1	4.26
359.469	4.42
359.838	3.92
360.207	3.79
360.576	4.15
360.945	4.29
361.314	4.01
361.682	4.51
362.051	4.19
362.42	4.23
362.788	3.89
363.157	4.19
363.525	4.12
363.894	4.02
364.262	3.97
364.631	4.09
364.999	3.94
365.367	4.28
365.735	4.41
366.104	3.9
366.472	4.49
366.84	3.72
367.208	4.49
367.576	4.24
367.944	3.9
368.312	4.35
368.68	3.9
369.048	4.23
369.416	4.1
369.783	4.02
370.151	4.45
370.519	4.33
370.886	4.13
371.254	4.67
371.621	3.84
371.989	4.18
372.356	4.21
372.724	4.07
373.091	4.02
373.458	4.16
373.826	4.25
374.193	4.59
374.56	4.42
374.927	4.34
375.294	4.23
375.661	4.42
376.028	4.47
376.395	4.48
376.762	4.26
377.129	4.55
377.496	4.71
377.863	4.49
378.229	4.35
378.596	4.17
378.963	4.39
379.329	4.24
379.696	4.36
380.062	3.91
380.429	4.32
380.795	4.3
381.161	4.16
381.528	4.21
381.894	3.77
382.26	4.16
382.626	4.39
382.993	4.5
383.359	4.05
383.725	4.18
384.091	4.48
384.457	4.02
384.823	4.5
385.188	4.41
385.554	4.33
385.92	4.48
386.286	4.26
386.651	4.29
387.017	4.62
387.383	4.27
387.748	4.34
388.114	4.17
388.479	4.45
388.845	4.1
389.21	4.29
389.575	4.47
389.94	4.36
390.306	4.42
390.671	4.84
391.036	4.11
391.401	4.29
391.766	4.24
392.131	4.19
392.496	4.26
392.861	4.29
393.226	4.63
393.591	4.47
393.956	4.22
394.32	4.3
394.685	4.3
395.05	4.5
395.414	4.27
395.779	4.31
396.143	4.41
396.508	4.27
396.872	4.14
397.236	4.48
397.601	4.45
397.965	4.53
398.329	4.24
398.694	4.54
399.058	4.37
399.422	4.47
399.786	4.36
400.15	4.32
400.514	4.55
400.878	4.18
401.242	4.59
401.605	4.37
401.969	4.29
402.333	4.66
402.697	4.02
403.06	4.39
403.424	4.39
403.787	4.46
404.151	4.63
404.514	4.48
404.878	4.59
405.241	4.55
405.604	4.6
405.968	4.46
406.331	4.23
406.694	4.42
407.057	4.35
407.42	4.4
407.783	4.42
408.146	4.51
408.509	4.29
408.872	4.33
409.235	4.38
409.598	4.48
409.961	4.52
410.323	4.38
410.686	4.31
411.049	4.68
411.411	4.68
411.774	4.36
412.136	4.59
412.499	4.51
412.861	4.61
413.223	4.78
413.586	4.27
413.948	4.48
414.31	4.58
414.672	4.43
415.035	4.47
415.397	4.75
415.759	4.54
416.121	4.48
416.483	4.54
416.845	4.39
417.206	4.45
417.568	4.37
417.93	4.44
418.292	4.41
418.653	4.37
419.015	4.53
419.377	4.5
419.738	4.47
420.1	4.36
420.461	4.33
420.822	4.57
421.184	4.35
421.545	4.35
421.906	4.41
422.267	4.39
422.629	4.52
422.99	4.42
423.351	4.28
423.712	4.31
424.073	4.33
424.434	4.41
424.795	4.44
425.155	4.5
425.516	4.36
425.877	4.38
426.238	4.23
426.598	4.31
426.959	4.41
427.32	4.39
427.68	4.32
428.041	4.35
428.401	4.47
428.761	4.61
429.122	4.53
429.482	4.4
429.842	4.35
430.202	4.5
430.563	4.68
430.923	4.68
431.283	4.61
431.643	4.61
432.003	4.56
432.363	4.59
432.722	4.52
433.082	4.64
433.442	4.42
433.802	4.6
434.161	4.5
434.521	4.38
434.881	4.58
435.24	4.44
435.6	4.54
435.959	4.44
436.319	4.46
436.678	4.63
437.037	4.46
437.396	4.54
437.756	4.39
438.115	4.71
438.474	4.48
438.833	4.59
439.192	4.4
439.551	4.48
439.91	4.62
440.269	4.6
440.628	4.27
440.987	4.57
441.345	4.49
441.704	4.53
442.063	4.49
442.421	4.49
442.78	4.51
443.138	4.42
443.497	4.48
443.855	4.53
444.214	4.28
444.572	4.49
444.93	4.53
445.288	4.42
445.647	4.52
446.005	4.42
446.363	4.41
446.721	4.38
447.079	4.38
447.437	4.51
447.795	4.61
448.153	4.51
448.51	4.51
448.868	4.47
449.226	4.47
449.584	4.48
449.941	4.28
450.299	4.56
450.656	4.57
451.014	4.62
451.371	4.53
451.729	4.61
452.086	4.59
452.443	4.53
452.801	4.6
453.158	4.52
453.515	4.68
453.872	4.6
454.229	4.64
454.586	4.61
454.943	4.53
455.3	4.58
455.657	4.55
456.014	4.62
456.371	4.72
456.727	4.8
457.084	4.67
457.441	4.51
457.797	4.65
458.154	4.53
458.51	4.55
458.867	4.52
459.223	4.51
459.58	4.64
459.936	4.6
460.292	4.63
460.648	4.77
461.005	4.58
461.361	4.57
461.717	4.29
462.073	4.46
462.429	4.37
462.785	4.5
463.141	4.54
463.496	4.67
463.852	4.58
464.208	4.58
464.564	4.71
464.919	4.62
465.275	4.96
465.631	4.76
465.986	4.71
466.342	4.64
466.697	4.86
467.052	4.74
467.408	4.69
467.763	4.78
468.118	4.74
468.473	4.65
468.829	4.65
469.184	4.65
469.539	4.62
469.894	4.5
470.249	4.64
470.603	4.64
470.958	4.83
471.313	4.8
471.668	4.88
472.023	4.66
472.377	4.65
472.732	4.53
473.086	4.73
473.441	4.45
473.795	4.97
474.15	4.62
474.504	4.59
474.859	4.93
475.213	4.39
475.567	4.54
475.921	4.71
476.275	4.8
476.63	4.57
476.984	4.57
477.338	4.59
477.692	4.57
478.045	4.68
478.399	4.81
478.753	4.65
479.107	4.68
479.461	4.62
479.814	4.74
480.168	4.73
480.521	4.75
480.875	4.82
481.228	4.7
481.582	4.55
481.935	4.66
482.289	4.52
482.642	4.57
482.995	4.66
483.348	4.65
483.701	4.55
484.055	4.54
484.408	4.56
484.761	4.6
485.114	4.4
485.466	4.32
485.819	4.29
486.172	4.25
486.525	4.27
486.878	4.33
487.23	4.42
487.583	4.42
487.936	4.49
488.288	4.5
488.641	4.5
488.993	4.39
489.345	4.4
489.698	4.35
490.05	4.43
490.402	4.42
490.754	4.39
491.107	4.43
491.459	4.56
491.811	4.49
492.163	4.53
492.515	4.47
492.866	4.53
493.218	4.52
493.57	4.49
493.922	4.38
494.274	4.38
494.625	4.42
494.977	4.56
495.328	4.63
495.68	4.7
496.031	4.61
496.383	4.7
496.734	4.65
497.086	4.69
497.437	4.76
497.788	4.64
498.139	4.74
498.49	4.73
498.842	4.46
499.193	4.43
499.544	4.68
499.894	4.63
500.245	4.68
500.596	4.68
500.947	4.6
501.298	4.57
501.648	4.68
501.999	4.74
502.35	4.64
502.7	4.78
503.051	4.6
503.401	4.73
503.752	4.72
504.102	4.72
504.452	4.61
504.803	4.68
505.153	4.67
505.503	4.75
505.853	4.82
506.203	4.68
506.553	4.79
506.903	4.72
507.253	4.72
507.603	4.67
507.953	4.75
508.303	4.71
508.652	4.74
509.002	4.76
509.352	4.62
509.701	4.76
510.051	4.71
510.4	4.64
510.75	4.71
511.099	4.61
511.449	4.64
511.798	4.71
512.147	4.62
512.496	4.66
512.846	4.6
513.195	4.59
513.544	4.69
513.893	4.68
514.242	4.65
514.591	4.7
514.939	4.74
515.288	4.61
515.637	4.65
515.986	4.56
516.334	4.7
516.683	4.71
517.032	4.85
517.38	4.68
517.729	4.66
518.077	4.74
518.426	4.64
518.774	4.68
519.122	4.64
519.47	4.71
519.819	4.73
520.167	4.62
520.515	4.56
520.863	4.55
521.211	4.55
521.559	4.64
521.907	4.65
522.255	4.65
522.602	4.69
522.95	4.67
523.298	4.76
523.645	4.77
523.993	4.59
524.341	4.58
524.688	4.8
525.036	4.69
525.383	4.69
525.73	4.71
526.078	4.75
526.425	4.51
526.772	4.7
527.119	4.5
527.466	4.51
527.814	4.5
528.161	4.49
528.508	4.58
528.854	4.61
529.201	4.59
529.548	4.56
529.895	4.53
530.242	4.51
530.588	4.39
530.935	4.3
531.282	4.35
531.628	4.43
531.975	4.4
532.321	4.45
532.667	4.48
533.014	4.61
533.36	4.57
533.706	4.57
534.052	4.65
534.399	4.73
534.745	4.55
535.091	4.42
535.437	4.48
535.783	4.38
536.129	4.48
536.474	4.57
536.82	4.55
537.166	4.75
537.512	4.67
537.857	4.61
538.203	4.63
538.549	4.65
538.894	4.47
539.239	4.48
539.585	4.55
539.93	4.64
540.276	4.66
540.621	4.63
540.966	4.64
541.311	4.57
541.656	4.71
542.001	4.67
542.346	4.65
542.691	4.69
543.036	4.53
543.381	4.38
543.726	4.4
544.071	4.46
544.415	4.41
544.76	4.45
545.105	4.41
545.449	4.51
545.794	4.57
546.138	4.5
546.483	4.55
546.827	4.64
547.171	4.6
547.516	4.59
547.86	4.61
548.204	4.67
548.548	4.58
548.892	4.66
549.236	4.55
549.58	4.64
549.924	4.64
550.268	4.79
550.612	4.68
550.956	4.6
551.3	4.77
551.643	4.68
551.987	4.82
552.33	4.87
552.674	4.69
553.017	4.7
553.361	4.73
553.704	4.73
554.048	4.81
554.391	4.66
554.734	4.76
555.077	4.59
555.42	4.64
555.764	4.63
556.107	4.6
556.45	4.65
556.793	4.63
557.135	4.69
557.478	4.58
557.821	4.87
558.164	4.83
558.507	4.67
558.849	4.62
559.192	4.81
559.534	4.89
559.877	4.71
560.219	4.73
560.562	4.77
560.904	4.8
561.246	4.86
561.589	4.83
561.931	4.62
562.273	4.58
562.615	4.7
562.957	4.65
563.299	4.73
563.641	4.77
563.983	4.7
564.325	4.65
564.667	4.71
565.008	4.7
565.35	4.78
565.692	4.71
566.033	4.61
566.375	4.75
566.716	4.9
567.058	4.6
567.399	4.79
567.741	4.8
568.082	4.7
568.423	4.73
568.764	4.88
569.105	4.46
569.447	4.62
569.788	4.64
570.129	4.71
570.47	4.69
570.811	4.72
571.151	4.7
571.492	4.48
571.833	4.58
572.174	4.63
572.514	4.61
572.855	4.66
573.195	4.53
573.536	4.67
573.876	4.66
574.217	4.66
574.557	4.48
574.898	4.64
575.238	4.6
575.578	4.68
575.918	4.77
576.258	4.58
576.598	4.66
576.938	4.71
577.278	4.78
577.618	4.42
577.958	4.67
578.298	4.89
578.638	4.53
578.977	4.69
579.317	4.56
579.657	4.66
579.996	4.59
580.336	4.76
580.675	4.79
581.014	4.55
581.354	4.56
581.693	4.92
582.032	4.93
582.372	4.77
582.711	4.86
583.05	4.75
583.389	4.62
583.728	4.59
584.067	4.87
584.406	4.76
584.745	4.42
585.083	4.97
585.422	4.96
585.761	4.72
586.1	5
586.438	4.71
586.777	4.62
587.115	4.81
587.454	4.76
587.792	4.8
588.13	4.86
588.469	4.65
588.807	4.66
589.145	5.03
589.483	4.68
589.821	4.85
590.159	4.84
590.497	4.89
590.835	4.83
591.173	4.81
591.511	4.75
591.849	4.9
592.187	4.67
592.524	4.88
592.862	4.74
593.2	4.59
593.537	4.71
593.875	4.65
594.212	4.63
594.55	4.88
594.887	4.53
595.224	4.9
595.561	4.93
595.899	4.81
596.236	5.11
596.573	4.75
596.91	4.93
597.247	4.86
597.584	4.96
597.921	4.71
598.258	5.06
598.594	4.76
598.931	4.55
599.268	4.47
599.604	4.63
599.941	4.7
600.277	4.66
600.614	4.64
600.95	4.81
601.287	4.54
601.623	4.65
601.959	4.84
602.296	4.79
602.632	4.72
602.968	4.64
603.304	4.66
603.64	4.73
603.976	4.76
604.312	4.77
604.648	4.49
604.984	4.92
605.319	4.6
605.655	4.61
605.991	4.71
606.326	4.67
606.662	4.67
606.998	4.81
607.333	4.65
607.668	4.69
608.004	4.94
608.339	4.62
608.674	4.79
609.01	4.81
609.345	4.7
609.68	5.05
610.015	4.72
610.35	4.78
610.685	4.99
611.02	4.88
611.355	4.87
611.689	4.78
612.024	4.77
612.359	4.79
612.694	4.63
613.028	4.91
613.363	4.75
613.697	4.61
614.032	4.76
614.366	4.68
614.7	4.97
615.035	4.7
615.369	4.76
615.703	4.83
616.037	4.74
616.371	4.97
616.705	4.87
617.039	4.88
617.373	4.69
617.707	4.72
618.041	4.92
618.375	5.12
618.709	5
619.042	5.04
619.376	5.03
619.71	4.79
620.043	4.35
620.377	4.56
620.71	4.92
621.043	5.07
621.377	4.6
621.71	4.46
622.043	4.72
622.376	5.17
622.709	4.92
623.043	4.72
623.376	4.77
623.709	5.2
624.041	4.71
624.374	5.36
624.707	5.04
625.04	5.24
625.373	4.8
625.705	4.79
626.038	4.7
626.37	5.02
626.703	4.83
627.035	4.96
627.368	5.01
627.7	5
628.032	5
628.365	4.87
628.697	4.78
629.029	4.86
629.361	4.97
629.693	4.71
630.025	4.88
630.357	4.6
630.689	4.96
631.021	5.28
631.353	4.73
631.684	4.75
632.016	5.1
632.348	4.95
632.679	5.05
633.011	4.82
633.342	5
633.674	5.45
634.005	4.96
634.336	5.22
634.668	5.09
634.999	4.86
635.33	4.93
635.661	5.04
635.992	4.86
636.323	4.45
636.654	4.73
636.985	4.86
637.316	4.55
637.647	4.69
637.977	4.48
638.308	5.07
638.639	5.01
638.969	5.01
639.3	4.9
639.63	5.58
639.961	4.9
640.291	4.99
640.622	5.22
640.952	4.91
641.282	5.04
641.612	5.12
641.943	5.16
642.273	5.07
642.603	5.19
642.933	4.83
643.263	4.59
643.592	4.87
643.922	5.35
644.252	4.62
644.582	5.34
644.911	5.03
645.241	4.71
645.571	4.92
645.9	4.93
646.23	5.12
646.559	5.2
646.888	5.09
647.218	5.17
647.547	4.89
647.876	5.07
648.205	4.71
648.534	5.46
648.863	5.16
649.192	4.68
649.521	5.3
649.85	5.43
650.179	5.01
650.508	5.1
650.837	5.19
651.165	4.98
651.494	4.82
651.822	5.05
652.151	4.86
652.479	5.08
652.808	4.54
653.136	5.23
653.465	5.05
653.793	4.91
654.121	5.17
654.449	4.86
654.777	5.05
655.105	5.17
655.433	5.24
655.761	5.15
656.089	5.12
656.417	4.87
656.745	5.27
657.073	5.06
657.4	5.56
657.728	5.49
658.056	5.19
658.383	5.36
658.711	4.86
659.038	4.7
659.365	5.28
659.693	4.63
660.02	5.25
660.347	5.26
660.674	4.88
661.001	4.64
661.329	4.85
661.656	5.17
661.982	4.92
662.309	5.15
662.636	4.78
662.963	5.24
663.29	5.47
663.616	5.27
663.943	5.12
664.27	5.03
664.596	5.45
664.923	5.41
665.249	5.06
665.576	4.6
665.902	5.3
666.228	4.87
666.554	4.39
666.881	5.53
667.207	5.79
667.533	4.88
667.859	5.43
668.185	5.48
668.511	5.73
668.837	5.07
669.162	5.72
669.488	5.14
669.814	5.15
670.139	5.24
670.465	5.71
670.791	5.16
671.116	5.51
671.442	5.9
671.767	4.93
672.092	5.61
672.418	5.87
672.743	5.23
673.068	5.23
673.393	4.87
673.718	5.79
674.043	5.56
674.368	5.81
674.693	5.6
675.018	5.14
675.343	5.44
675.667	4.84
675.992	5.3
676.317	5.46
676.641	5.48
676.966	5.76
677.29	5.16
677.615	5.74
677.939	5.32
678.264	5.27
678.588	6.24
678.912	5.21
679.236	5.63
679.56	5.61
679.885	5.52
680.209	6.31
680.532	5.07
680.856	5.31
681.18	5.24
681.504	5.32
681.828	5.24
682.152	5.52
682.475	5.78
682.799	5.52
683.122	5.6
683.446	5.14
683.769	5.21
684.093	5.76
684.416	5.48
684.739	5.51
685.062	5.61
685.386	5.65
685.709	5.73
686.032	4.87
686.355	5.59
686.678	5.36
687.001	5.5
687.324	6.11
687.646	6.16
687.969	5.71
688.292	5.75
688.614	6.08
688.937	5.34
689.26	5.43
689.582	5.68
689.904	5.49
690.227	6.31
690.549	5.82
690.871	5.39
691.194	5.57
691.516	5.73
691.838	5.52
692.16	4.91
692.482	5.72
692.804	5.06
