Data from 0160_forehead_Reflection__2__108.txt Node

Date: Fri Sep 22 21:10:01 CDT 2023
User: ToomeyLab
Spectrometer: FLMS14357
Trigger mode: 0
Integration Time (sec): 1.000000E-2
Scans to average: 100
Electric dark correction enabled: true
Nonlinearity correction enabled: false
Boxcar width: 0
XAxis mode: Wavelengths
Number of Pixels in Spectrum: 2048
>>>>>Begin Spectral Data<<<<<
189.047	55.45
189.435	55.45
189.823	55.45
190.211	301.44
190.599	131.89
190.987	113.83
191.375	51.19
191.763	28.24
192.151	82.34
192.538	76.61
192.926	193.63
193.314	-39.88
193.702	38.68
194.089	90.41
194.477	117.89
194.864	88.23
195.252	90.72
195.639	-18.12
196.027	1120.73
196.414	242.43
196.801	53.73
197.189	-115.38
197.576	132.89
197.963	-1474.56
198.351	51.17
198.738	50.85
199.125	17.18
199.512	65.38
199.899	38.8
200.286	25.4
200.673	44.12
201.06	22.92
201.447	78.19
201.833	-25.52
202.22	42.65
202.607	87.05
202.994	29.78
203.38	40.44
203.767	29.02
204.154	36.45
204.54	33.55
204.927	27.9
205.313	44.25
205.699	50.37
206.086	63.68
206.472	78.27
206.858	67.98
207.245	45.46
207.631	52.28
208.017	21.31
208.403	47.17
208.789	29.6
209.175	74.27
209.561	67.34
209.947	74.88
210.333	48.54
210.719	35.01
211.105	44.03
211.491	29.02
211.876	43.49
212.262	41.22
212.648	23.27
213.034	43.58
213.419	34.89
213.805	27.5
214.19	32.56
214.576	39.59
214.961	21.89
215.346	39.4
215.732	40.8
216.117	20.45
216.502	29.79
216.888	45.5
217.273	34.13
217.658	36.57
218.043	32.74
218.428	25.6
218.813	7.12
219.198	12.35
219.583	30.6
219.968	24.51
220.353	24.25
220.738	35.37
221.122	16.67
221.507	25.8
221.892	30.57
222.276	8.89
222.661	10.58
223.046	27.67
223.43	37.44
223.815	11.98
224.199	7.34
224.583	16.38
224.968	20.5
225.352	4.68
225.736	14.44
226.121	18.84
226.505	12.53
226.889	12.19
227.273	11.24
227.657	4.18
228.041	5.62
228.425	15.12
228.809	3.13
229.193	4.48
229.577	6.37
229.961	7.35
230.344	6.83
230.728	3.22
231.112	4.72
231.495	3.43
231.879	4.24
232.263	3.57
232.646	3.98
233.03	4.12
233.413	5.37
233.797	4.96
234.18	4.86
234.563	5.71
234.946	5.33
235.33	1.46
235.713	2.62
236.096	5.46
236.479	2.39
236.862	6.73
237.245	5.7
237.628	4.96
238.011	4.04
238.394	5.7
238.777	7.64
239.16	4.33
239.543	4.91
239.925	6.6
240.308	6.58
240.691	4.96
241.073	6.35
241.456	4.28
241.838	4.77
242.221	5.19
242.603	4.75
242.986	4.63
243.368	3.27
243.75	4
244.133	4.04
244.515	3.35
244.897	3.33
245.279	3.39
245.661	3.05
246.043	4.26
246.425	3.6
246.807	4.77
247.189	3.54
247.571	4.13
247.953	4.28
248.335	4.17
248.717	4.01
249.098	3.77
249.48	3.56
249.862	3.43
250.243	3.38
250.625	3.72
251.006	3.39
251.388	3.55
251.769	3.63
252.151	4.28
252.532	4.86
252.913	4.63
253.295	6.1
253.676	4.02
254.057	3.63
254.438	4.27
254.819	3.55
255.2	4.12
255.581	4.41
255.962	5.28
256.343	3.44
256.724	3.82
257.105	4.82
257.486	3.85
257.867	4.75
258.247	4.1
258.628	4.09
259.009	4.06
259.389	3.47
259.77	4.05
260.15	4.45
260.531	3.28
260.911	3.28
261.292	3.61
261.672	3.27
262.052	3.5
262.432	3.25
262.813	3.61
263.193	3.3
263.573	4.05
263.953	3.56
264.333	2.96
264.713	3.65
265.093	3.44
265.473	3.47
265.853	4.05
266.233	4.37
266.612	3.83
266.992	3.88
267.372	3.77
267.752	4.2
268.131	3.71
268.511	3.26
268.89	3.68
269.27	3.12
269.649	3.41
270.029	3.78
270.408	3.61
270.787	3.95
271.167	3.43
271.546	3.31
271.925	3.9
272.304	3.56
272.683	3.64
273.062	4.05
273.441	3.4
273.82	3.6
274.199	3.59
274.578	3.78
274.957	3.8
275.336	3.65
275.715	3.83
276.093	3.39
276.472	3.53
276.851	3.31
277.229	3.55
277.608	3.98
277.986	3.48
278.365	3.88
278.743	3
279.122	4.09
279.5	3.64
279.878	3.44
280.257	4.01
280.635	3.28
281.013	3.4
281.391	3.09
281.769	3.75
282.147	3.18
282.525	3.14
282.903	4.21
283.281	3.18
283.659	3.83
284.037	3.55
284.415	3.76
284.792	3.64
285.17	3.75
285.548	3.57
285.925	3.63
286.303	3.53
286.68	3.41
287.058	3.15
287.435	3.46
287.813	3.41
288.19	3.35
288.567	3.61
288.945	3.26
289.322	3.13
289.699	3.69
290.076	3.83
290.453	3.43
290.83	3.6
291.207	3.62
291.584	3.08
291.961	3.32
292.338	3.53
292.715	3.98
293.092	3.17
293.469	3.33
293.845	3.47
294.222	3.68
294.599	4.64
294.975	4.46
295.352	4.53
295.728	3.8
296.105	4.1
296.481	3.79
296.858	4.18
297.234	4.29
297.61	4.16
297.986	4.38
298.363	4.14
298.739	3.78
299.115	4.01
299.491	4.17
299.867	3.86
300.243	3.82
300.619	4.25
300.995	4.23
301.371	4.33
301.746	4.7
302.122	4.3
302.498	4.01
302.874	4.08
303.249	4.3
303.625	4.13
304	4.67
304.376	4.67
304.751	4.65
305.127	4.51
305.502	5.62
305.878	4.63
306.253	4.33
306.628	4.44
307.003	4.95
307.378	4.41
307.754	4.52
308.129	4.78
308.504	4.9
308.879	5.19
309.254	4.61
309.629	4.87
310.003	5
310.378	5.34
310.753	4.78
311.128	4.74
311.502	4.86
311.877	4.56
312.252	4.66
312.626	5.03
313.001	5.19
313.375	5.08
313.75	5.18
314.124	5.4
314.498	4.65
314.873	5.2
315.247	5.56
315.621	5.64
315.995	5.36
316.369	4.94
316.743	5.29
317.117	5.79
317.491	5.92
317.865	5.44
318.239	5.73
318.613	5.89
318.987	5.26
319.361	5.56
319.734	5.83
320.108	5.58
320.482	5.26
320.855	5.74
321.229	5.62
321.602	5.99
321.976	5.35
322.349	5.62
322.723	5.79
323.096	5.73
323.469	6.05
323.843	6.26
324.216	6.15
324.589	6.46
324.962	5.78
325.335	5.7
325.708	6.28
326.081	6.49
326.454	5.67
326.827	6.13
327.2	6.41
327.573	7.01
327.945	6.27
328.318	6.83
328.691	6.66
329.063	6.05
329.436	6.43
329.809	6.79
330.181	6.73
330.553	6.06
330.926	6.93
331.298	6.86
331.671	6.78
332.043	6.22
332.415	6.39
332.787	7.12
333.159	6.3
333.532	6.2
333.904	6.38
334.276	6.97
334.648	5.82
335.02	6.72
335.391	7.11
335.763	7.15
336.135	7.28
336.507	6.87
336.879	7.26
337.25	7.02
337.622	7.28
337.993	7.09
338.365	7.57
338.736	7.49
339.108	7.49
339.479	6.43
339.851	6.93
340.222	7.16
340.593	7.16
340.964	6.56
341.336	7.2
341.707	6.9
342.078	6.92
342.449	7.71
342.82	7.21
343.191	7.01
343.562	7.41
343.933	7.54
344.303	6.87
344.674	7.82
345.045	7.23
345.416	7.56
345.786	7.41
346.157	7.54
346.527	7.55
346.898	7.53
347.268	7.25
347.639	7.73
348.009	7.16
348.38	7.99
348.75	8.08
349.12	7.83
349.49	8.18
349.861	7.7
350.231	7.92
350.601	7.79
350.971	8.28
351.341	8.14
351.711	7.68
352.081	7.84
352.45	7.36
352.82	8
353.19	8.06
353.56	7.65
353.929	8.05
354.299	8.11
354.669	8.01
355.038	8.12
355.408	8.28
355.777	8.49
356.147	8.28
356.516	8.55
356.885	7.81
357.254	8.15
357.624	8.19
357.993	8.18
358.362	8.64
358.731	8.25
359.1	8.42
359.469	8.38
359.838	8.28
360.207	8.38
360.576	8.38
360.945	8.54
361.314	8.8
361.682	8.53
362.051	8.96
362.42	8.44
362.788	8.47
363.157	8.69
363.525	8.61
363.894	8.53
364.262	8.41
364.631	8.73
364.999	8.66
365.367	8.92
365.735	8.82
366.104	8.82
366.472	9.11
366.84	8.8
367.208	9.13
367.576	9.41
367.944	9.19
368.312	9.1
368.68	9.16
369.048	9.2
369.416	9.13
369.783	9.04
370.151	9.27
370.519	9.33
370.886	9.31
371.254	9.61
371.621	8.93
371.989	9.63
372.356	9.24
372.724	9.79
373.091	9.72
373.458	9.37
373.826	9.57
374.193	9.82
374.56	9.86
374.927	9.73
375.294	9.55
375.661	9.78
376.028	10.23
376.395	10.2
376.762	9.75
377.129	10.09
377.496	10.44
377.863	10.34
378.229	10.06
378.596	10.27
378.963	10.15
379.329	10.21
379.696	10.15
380.062	9.82
380.429	10.31
380.795	10.13
381.161	9.75
381.528	10.39
381.894	9.95
382.26	10.42
382.626	10.5
382.993	10.45
383.359	10.18
383.725	10.43
384.091	10.68
384.457	10.77
384.823	10.47
385.188	10.56
385.554	10.68
385.92	10.84
386.286	10.67
386.651	10.83
387.017	10.76
387.383	10.71
387.748	10.89
388.114	10.92
388.479	11.12
388.845	10.87
389.21	10.81
389.575	11.39
389.94	10.87
390.306	10.94
390.671	11.66
391.036	10.95
391.401	11.11
391.766	11.33
392.131	11.13
392.496	11.26
392.861	11.24
393.226	11.41
393.591	11.34
393.956	11.37
394.32	11.14
394.685	11.15
395.05	11.54
395.414	11.43
395.779	11.58
396.143	11.52
396.508	11.52
396.872	11.62
397.236	11.66
397.601	11.63
397.965	11.92
398.329	11.68
398.694	11.58
399.058	11.81
399.422	11.96
399.786	11.94
400.15	12.05
400.514	12.03
400.878	11.83
401.242	12.2
401.605	12.18
401.969	12.06
402.333	12.28
402.697	12.02
403.06	12.2
403.424	12.01
403.787	12.36
404.151	12.37
404.514	12.57
404.878	12.36
405.241	12.64
405.604	12.54
405.968	12.58
406.331	12.4
406.694	12.64
407.057	12.46
407.42	12.77
407.783	12.51
408.146	12.71
408.509	12.64
408.872	12.51
409.235	12.65
409.598	12.75
409.961	12.99
410.323	12.99
410.686	13.17
411.049	13.15
411.411	13.07
411.774	13.06
412.136	13.15
412.499	12.9
412.861	13.07
413.223	13.01
413.586	13.16
413.948	13.31
414.31	13.23
414.672	13.23
415.035	13.21
415.397	13.62
415.759	13.61
416.121	13.48
416.483	13.5
416.845	13.4
417.206	13.47
417.568	13.33
417.93	13.26
418.292	13.42
418.653	13.35
419.015	13.46
419.377	13.34
419.738	13.39
420.1	13.4
420.461	13.47
420.822	13.38
421.184	13.3
421.545	13.36
421.906	13.4
422.267	13.44
422.629	13.44
422.99	13.42
423.351	13.35
423.712	13.37
424.073	13.46
424.434	13.73
424.795	13.65
425.155	13.78
425.516	13.73
425.877	13.7
426.238	13.49
426.598	13.6
426.959	13.7
427.32	13.78
427.68	13.78
428.041	13.86
428.401	14.07
428.761	14.19
429.122	14.26
429.482	14.21
429.842	14.26
430.202	14.33
430.563	14.58
430.923	14.63
431.283	14.56
431.643	14.44
432.003	14.67
432.363	14.75
432.722	14.61
433.082	14.73
433.442	14.65
433.802	14.96
434.161	14.69
434.521	14.93
434.881	14.7
435.24	14.77
435.6	14.71
435.959	14.76
436.319	14.79
436.678	14.99
437.037	14.97
437.396	14.89
437.756	14.96
438.115	14.91
438.474	15.01
438.833	15.33
439.192	14.99
439.551	15.21
439.91	15.25
440.269	15.28
440.628	14.97
440.987	15.29
441.345	15.33
441.704	15.15
442.063	15.18
442.421	15.26
442.78	15.22
443.138	15.22
443.497	15.26
443.855	15.26
444.214	15.34
444.572	15.59
444.93	15.54
445.288	15.53
445.647	15.63
446.005	15.66
446.363	15.69
446.721	15.69
447.079	15.42
447.437	15.64
447.795	15.69
448.153	15.47
448.51	15.44
448.868	15.52
449.226	15.57
449.584	15.67
449.941	15.56
450.299	15.73
450.656	15.88
451.014	16.03
451.371	15.91
451.729	16.2
452.086	16.15
452.443	16.19
452.801	16.32
453.158	16.15
453.515	16.48
453.872	16.2
454.229	16.4
454.586	16.45
454.943	16.25
455.3	16.34
455.657	16.33
456.014	16.38
456.371	16.58
456.727	16.76
457.084	16.79
457.441	16.74
457.797	16.62
458.154	16.82
458.51	16.64
458.867	16.78
459.223	16.88
459.58	16.98
459.936	16.97
460.292	16.89
460.648	16.95
461.005	16.92
461.361	16.84
461.717	16.59
462.073	16.58
462.429	16.46
462.785	16.58
463.141	16.79
463.496	16.97
463.852	17.1
464.208	17.12
464.564	17.4
464.919	17.22
465.275	17.5
465.631	17.43
465.986	17.56
466.342	17.51
466.697	17.49
467.052	17.44
467.408	17.38
467.763	17.57
468.118	17.76
468.473	17.61
468.829	17.56
469.184	17.68
469.539	17.7
469.894	17.7
470.249	17.87
470.603	17.72
470.958	18.09
471.313	18.11
471.668	18.01
472.023	17.94
472.377	17.75
472.732	17.97
473.086	18.1
473.441	17.95
473.795	18.34
474.15	18.17
474.504	17.96
474.859	18.44
475.213	18.13
475.567	18.09
475.921	18.18
476.275	18.31
476.63	18.17
476.984	18.34
477.338	18.6
477.692	18.43
478.045	18.44
478.399	18.54
478.753	18.29
479.107	18.65
479.461	18.42
479.814	18.58
480.168	18.48
480.521	18.59
480.875	18.54
481.228	18.59
481.582	18.51
481.935	18.76
482.289	18.62
482.642	18.59
482.995	18.68
483.348	18.61
483.701	18.61
484.055	18.63
484.408	18.52
484.761	18.37
485.114	18.25
485.466	17.93
485.819	17.7
486.172	17.64
486.525	17.65
486.878	17.76
487.23	17.93
487.583	18
487.936	18.24
488.288	18.39
488.641	18.45
488.993	18.44
489.345	18.11
489.698	18.11
490.05	18.04
490.402	18.02
490.754	18.13
491.107	18.41
491.459	18.51
491.811	18.73
492.163	18.84
492.515	19.03
492.866	18.95
493.218	18.92
493.57	18.69
493.922	18.33
494.274	18.42
494.625	18.58
494.977	18.95
495.328	19.13
495.68	19.25
496.031	19.5
496.383	19.67
496.734	19.72
497.086	19.64
497.437	20.02
497.788	19.66
498.139	19.95
498.49	19.9
498.842	19.67
499.193	19.63
499.544	19.76
499.894	19.67
500.245	19.88
500.596	19.8
500.947	19.99
501.298	20.1
501.648	20.14
501.999	20.08
502.35	20.13
502.7	20.22
503.051	20.31
503.401	20.39
503.752	20.46
504.102	20.47
504.452	20.49
504.803	20.49
505.153	20.56
505.503	20.6
505.853	20.49
506.203	20.48
506.553	20.62
506.903	20.62
507.253	20.51
507.603	20.61
507.953	20.63
508.303	20.86
508.652	20.68
509.002	20.86
509.352	20.73
509.701	20.79
510.051	20.77
510.4	20.74
510.75	20.67
511.099	20.47
511.449	20.71
511.798	20.66
512.147	20.74
512.496	20.69
512.846	20.76
513.195	20.78
513.544	20.87
513.893	20.91
514.242	20.77
514.591	21.02
514.939	21.15
515.288	21.06
515.637	21.11
515.986	21
516.334	21.2
516.683	21.19
517.032	21.34
517.38	21.34
517.729	21.42
518.077	21.35
518.426	21.25
518.774	21.45
519.122	21.39
519.47	21.18
519.819	21.3
520.167	21.26
520.515	21.08
520.863	20.97
521.211	20.93
521.559	21.03
521.907	21.13
522.255	21.18
522.602	21.38
522.95	21.54
523.298	21.7
523.645	21.79
523.993	21.69
524.341	21.69
524.688	21.72
525.036	21.76
525.383	21.82
525.73	21.84
526.078	21.82
526.425	21.81
526.772	22.06
527.119	21.87
527.466	21.65
527.814	21.51
528.161	21.36
528.508	21.43
528.854	21.49
529.201	21.58
529.548	21.5
529.895	21.37
530.242	21.25
530.588	20.95
530.935	20.84
531.282	20.98
531.628	21
531.975	21.07
532.321	21.24
532.667	21.46
533.014	21.64
533.36	21.9
533.706	21.77
534.052	22.11
534.399	22.03
534.745	21.79
535.091	21.74
535.437	21.42
535.783	21.4
536.129	21.48
536.474	21.64
536.82	21.76
537.166	22.12
537.512	22.17
537.857	22.34
538.203	22.33
538.549	22.23
538.894	22.15
539.239	22.08
539.585	22.24
539.93	22.37
540.276	22.42
540.621	22.66
540.966	22.61
541.311	22.89
541.656	22.97
542.001	22.77
542.346	22.68
542.691	22.74
543.036	22.35
543.381	22.05
543.726	21.95
544.071	21.87
544.415	21.98
544.76	22.2
545.105	22.25
545.449	22.32
545.794	22.48
546.138	22.62
546.483	22.8
546.827	22.79
547.171	23.06
547.516	23.16
547.86	23.21
548.204	23.1
548.548	23.13
548.892	23.04
549.236	22.88
549.58	23.07
549.924	23.15
550.268	23.45
550.612	23.41
550.956	23.46
551.3	23.58
551.643	23.6
551.987	23.75
552.33	23.97
552.674	23.98
553.017	24
553.361	23.93
553.704	24.05
554.048	23.98
554.391	24.04
554.734	23.94
555.077	23.7
555.42	23.9
555.764	23.95
556.107	23.93
556.45	23.95
556.793	24.21
557.135	24.16
557.478	24.19
557.821	24.37
558.164	24.3
558.507	24.47
558.849	24.27
559.192	24.42
559.534	24.39
559.877	24.44
560.219	24.49
560.562	24.37
560.904	24.66
561.246	24.57
561.589	24.64
561.931	24.59
562.273	24.5
562.615	24.66
562.957	24.6
563.299	24.85
563.641	24.63
563.983	24.74
564.325	24.99
564.667	24.74
565.008	24.74
565.35	24.84
565.692	24.71
566.033	24.92
566.375	24.84
566.716	25.03
567.058	25
567.399	25.01
567.741	25.01
568.082	24.98
568.423	24.67
568.764	24.83
569.105	24.52
569.447	24.79
569.788	24.67
570.129	24.7
570.47	25.01
570.811	24.87
571.151	25.04
571.492	24.98
571.833	25.09
572.174	25.04
572.514	25.25
572.855	25.26
573.195	25.04
573.536	24.91
573.876	25.13
574.217	25.07
574.557	25.12
574.898	24.88
575.238	24.99
575.578	25.09
575.918	25.22
576.258	25.29
576.598	25.47
576.938	25.38
577.278	25.52
577.618	25.12
577.958	25.34
578.298	25.53
578.638	25.6
578.977	25.6
579.317	25.36
579.657	25.53
579.996	25.48
580.336	25.74
580.675	25.95
581.014	25.82
581.354	25.94
581.693	26.03
582.032	25.99
582.372	26.06
582.711	25.78
583.05	25.93
583.389	26.29
583.728	26.08
584.067	26.2
584.406	26.07
584.745	26.17
585.083	26.62
585.422	26.43
585.761	26.11
586.1	26.4
586.438	26.3
586.777	26.43
587.115	26.2
587.454	26.26
587.792	26.44
588.13	26.43
588.469	26.42
588.807	26.52
589.145	26.66
589.483	26.29
589.821	26.46
590.159	26.54
590.497	26.54
590.835	26.4
591.173	26.49
591.511	26.7
591.849	26.57
592.187	26.61
592.524	26.52
592.862	26.5
593.2	26.61
593.537	26.44
593.875	26.56
594.212	26.8
594.55	26.95
594.887	26.66
595.224	26.54
595.561	26.86
595.899	26.85
596.236	27.15
596.573	26.68
596.91	26.85
597.247	26.69
597.584	27.04
597.921	26.88
598.258	26.97
598.594	26.98
598.931	26.38
599.268	26.63
599.604	26.54
599.941	26.29
600.277	26.54
600.614	26.51
600.95	26.96
601.287	27.01
601.623	27.22
601.959	27.18
602.296	27.1
602.632	27.28
602.968	27.16
603.304	26.9
603.64	27.09
603.976	27.23
604.312	27.29
604.648	27.2
604.984	26.93
605.319	27.08
605.655	26.94
605.991	27.06
606.326	27.15
606.662	26.71
606.998	26.58
607.333	26.91
607.668	26.79
608.004	27.19
608.339	27.06
608.674	27.46
609.01	27.52
609.345	27.41
609.68	27.69
610.015	27.68
610.35	27.31
610.685	27.73
611.02	27.63
611.355	27.26
611.689	27.13
612.024	27.2
612.359	27.24
612.694	27.39
613.028	27.22
613.363	27.37
613.697	27.48
614.032	27.72
614.366	27.71
614.7	27.5
615.035	27.78
615.369	27.61
615.703	28
616.037	27.94
616.371	27.66
616.705	28.26
617.039	27.91
617.373	28.05
617.707	28.29
618.041	28.07
618.375	27.69
618.709	28.16
619.042	28.43
619.376	28.54
619.71	28.31
620.043	28.16
620.377	27.96
620.71	28.31
621.043	28.27
621.377	27.98
621.71	28.45
622.043	28.32
622.376	28.54
622.709	27.83
623.043	28.21
623.376	28.39
623.709	28.14
624.041	28.57
624.374	28.67
624.707	28.32
625.04	28.28
625.373	28.1
625.705	28.48
626.038	28.27
626.37	28.35
626.703	28.39
627.035	28.5
627.368	28.62
627.7	28.7
628.032	28.74
628.365	28.51
628.697	28.62
629.029	28.36
629.361	28.47
629.693	28.33
630.025	28.09
630.357	28.09
630.689	28.32
631.021	28.23
631.353	28.76
631.684	28.68
632.016	29.28
632.348	28.97
632.679	28.69
633.011	28.68
633.342	28.87
633.674	29.28
634.005	28.72
634.336	29.11
634.668	28.98
634.999	29.23
635.33	29.26
635.661	28.82
635.992	28.94
636.323	28.5
636.654	29.03
636.985	28.94
637.316	28.87
637.647	29.15
637.977	28.71
638.308	28.9
638.639	29.04
638.969	29.25
639.3	29.15
639.63	29.55
639.961	29.27
640.291	29.57
640.622	29.46
640.952	29.31
641.282	29.55
641.612	29.58
641.943	29.05
642.273	29.27
642.603	29.34
642.933	29.13
643.263	28.91
643.592	29.27
643.922	29.73
644.252	29.34
644.582	29.57
644.911	29.35
645.241	29.45
645.571	29.13
645.9	29.53
646.23	29.59
646.559	29.6
646.888	29.72
647.218	29.57
647.547	29.61
647.876	29.44
648.205	29.96
648.534	29.98
648.863	29.55
649.192	29.6
649.521	29.26
649.85	29.66
650.179	29.83
650.508	29.97
650.837	29.84
651.165	29.92
651.494	29.49
651.822	29.71
652.151	29.63
652.479	29.79
652.808	29.68
653.136	29.99
653.465	29.83
653.793	29.36
654.121	29.84
654.449	29.68
654.777	29.63
655.105	30.28
655.433	29.68
655.761	30.42
656.089	29.57
656.417	29.78
656.745	30.07
657.073	30.2
657.4	30.53
657.728	30.77
658.056	29.84
658.383	30.96
658.711	30.12
659.038	29.71
659.365	30.47
659.693	30.05
660.02	30.59
660.347	30.39
660.674	30.27
661.001	29.67
661.329	29.96
661.656	29.79
661.982	29.36
662.309	29.96
662.636	30.36
662.963	30
663.29	30.1
663.616	30.03
663.943	30.31
664.27	30.52
664.596	30.3
664.923	30.45
665.249	30.34
665.576	29.51
665.902	30.48
666.228	29.83
666.554	30.3
666.881	30.69
667.207	30.47
667.533	30.89
667.859	31.03
668.185	30.76
668.511	31.24
668.837	30.18
669.162	30.74
669.488	30.53
669.814	30.39
670.139	30.38
670.465	30.53
670.791	30.62
671.116	30.02
671.442	30.43
671.767	29.96
672.092	31.26
672.418	31.79
672.743	30.56
