Data from 0160_chest_Reflection__2__98.txt Node

Date: Fri Sep 22 21:06:40 CDT 2023
User: ToomeyLab
Spectrometer: FLMS14357
Trigger mode: 0
Integration Time (sec): 1.000000E-2
Scans to average: 100
Electric dark correction enabled: true
Nonlinearity correction enabled: false
Boxcar width: 0
XAxis mode: Wavelengths
Number of Pixels in Spectrum: 2048
>>>>>Begin Spectral Data<<<<<
189.047	-17.92
189.435	-17.92
189.823	-17.92
190.211	-96.96
190.599	-36.12
190.987	37.16
191.375	52.64
191.763	116.8
192.151	27.66
192.538	499.54
192.926	227.88
193.314	-255.41
193.702	69.97
194.089	80.1
194.477	-7.08
194.864	-23.22
195.252	345.84
195.639	91.14
196.027	1747.56
196.414	-325.3
196.801	69.88
197.189	-20.25
197.576	193.14
197.963	-69.3
198.351	35.97
198.738	56.33
199.125	2.53
199.512	55.56
199.899	29.77
200.286	28.76
200.673	31.73
201.06	11.62
201.447	38.01
201.833	-122.46
202.22	31.62
202.607	37.79
202.994	49.96
203.38	40.02
203.767	60.18
204.154	46.15
204.54	43.34
204.927	3.81
205.313	17.27
205.699	51.96
206.086	70.94
206.472	45.94
206.858	35.69
207.245	-23.3
207.631	41.35
208.017	38.67
208.403	73.05
208.789	50.67
209.175	65.77
209.561	47.37
209.947	52.05
210.333	58.69
210.719	9.69
211.105	51.04
211.491	24.92
211.876	36.07
212.262	36.82
212.648	26.31
213.034	52.9
213.419	-6.79
213.805	27.97
214.19	26.74
214.576	24.55
214.961	29.43
215.346	10.75
215.732	32.84
216.117	24.37
216.502	49.28
216.888	49.29
217.273	-3.66
217.658	2.34
218.043	38.74
218.428	18.56
218.813	9.71
219.198	8.3
219.583	23.19
219.968	1.65
220.353	33.35
220.738	13.48
221.122	15.92
221.507	21.55
221.892	9.59
222.276	6.51
222.661	-10.76
223.046	15.8
223.43	30.3
223.815	5.09
224.199	7.29
224.583	17.27
224.968	12.48
225.352	10.5
225.736	5.27
226.121	11.69
226.505	11.94
226.889	10.19
227.273	2.5
227.657	4.67
228.041	5.39
228.425	11.18
228.809	7.63
229.193	7.65
229.577	5.05
229.961	6.85
230.344	7.81
230.728	4.25
231.112	5.3
231.495	4.02
231.879	5
232.263	4.47
232.646	6.27
233.03	3.99
233.413	5.44
233.797	5.53
234.18	5.97
234.563	5.74
234.946	7.36
235.33	2.18
235.713	4.17
236.096	4.74
236.479	4.5
236.862	6.77
237.245	5.92
237.628	6.13
238.011	6.17
238.394	6.77
238.777	6.18
239.16	5.08
239.543	7.32
239.925	4.9
240.308	7.08
240.691	6.18
241.073	6.36
241.456	4.87
241.838	4.21
242.221	4.56
242.603	5.7
242.986	5.15
243.368	4
243.75	4.98
244.133	5.07
244.515	4.93
244.897	4.86
245.279	4.33
245.661	4.51
246.043	4.89
246.425	4.52
246.807	4.43
247.189	3.31
247.571	5.58
247.953	5.54
248.335	4.68
248.717	4.64
249.098	4.74
249.48	4.24
249.862	4.18
250.243	4.45
250.625	4.55
251.006	4.31
251.388	4.85
251.769	5.24
252.151	4.04
252.532	4.32
252.913	5.28
253.295	5.88
253.676	4.07
254.057	4.95
254.438	5.29
254.819	4.35
255.2	4.72
255.581	4.12
255.962	4.79
256.343	3.71
256.724	3.88
257.105	4.59
257.486	5.51
257.867	4.64
258.247	5.79
258.628	5.1
259.009	4.61
259.389	3.62
259.77	4.77
260.15	5.4
260.531	4.99
260.911	4.13
261.292	3.92
261.672	4.2
262.052	4.13
262.432	4.21
262.813	4.24
263.193	4.02
263.573	5.11
263.953	3.96
264.333	4.5
264.713	4.59
265.093	4.71
265.473	4.17
265.853	3.71
266.233	5.15
266.612	4.59
266.992	4.89
267.372	4.21
267.752	4.56
268.131	4.23
268.511	4.27
268.89	4.64
269.27	4.34
269.649	4.56
270.029	4.42
270.408	4.14
270.787	4.61
271.167	4.45
271.546	3.62
271.925	4.87
272.304	3.74
272.683	4.75
273.062	4.66
273.441	4.05
273.82	4.7
274.199	4.49
274.578	4.25
274.957	3.88
275.336	4.13
275.715	4.3
276.093	3.97
276.472	4.2
276.851	4.92
277.229	3.79
277.608	4.56
277.986	4.14
278.365	4.54
278.743	4.28
279.122	4.21
279.5	4.37
279.878	3.99
280.257	4.17
280.635	3.56
281.013	4.2
281.391	4.27
281.769	4.21
282.147	4.5
282.525	4.53
282.903	4.34
283.281	4.38
283.659	4.27
284.037	3.65
284.415	4.79
284.792	4.27
285.17	4.15
285.548	4.65
285.925	4.31
286.303	4.3
286.68	3.71
287.058	3.7
287.435	3.86
287.813	4.15
288.19	3.41
288.567	4.01
288.945	4.04
289.322	4.14
289.699	3.88
290.076	4.15
290.453	3.47
290.83	3.67
291.207	3.85
291.584	3.97
291.961	3.9
292.338	4.24
292.715	4.23
293.092	4.07
293.469	3.95
293.845	3.79
294.222	3.84
294.599	4.58
294.975	4.54
295.352	3.84
295.728	4.42
296.105	4.53
296.481	4.39
296.858	4.67
297.234	3.94
297.61	4.38
297.986	4.37
298.363	4.15
298.739	3.99
299.115	4.18
299.491	4.29
299.867	4.44
300.243	4.26
300.619	4.49
300.995	4.1
301.371	4.64
301.746	4.53
302.122	4.13
302.498	4.33
302.874	3.97
303.249	3.91
303.625	4
304	4.55
304.376	4.31
304.751	4.44
305.127	4.54
305.502	4.91
305.878	4.66
306.253	4.65
306.628	4.45
307.003	4.54
307.378	4.03
307.754	4.17
308.129	4.64
308.504	4.77
308.879	4.41
309.254	5.03
309.629	4.84
310.003	4.39
310.378	4.7
310.753	4.83
311.128	4.27
311.502	4.88
311.877	3.86
312.252	4.4
312.626	4.44
313.001	4.6
313.375	4.42
313.75	4.36
314.124	4.66
314.498	4.46
314.873	4.43
315.247	4.48
315.621	4.27
315.995	4.94
316.369	5.2
316.743	4.5
317.117	4.64
317.491	5.03
317.865	4.1
318.239	4.98
318.613	4.35
318.987	4.68
319.361	4.99
319.734	4.62
320.108	4.87
320.482	4.57
320.855	4.4
321.229	4.54
321.602	4.69
321.976	4.37
322.349	4.58
322.723	4.59
323.096	4.68
323.469	5
323.843	4.66
324.216	5.32
324.589	4.85
324.962	4.38
325.335	4.4
325.708	4.56
326.081	5.07
326.454	4.63
326.827	4.62
327.2	4.58
327.573	5.31
327.945	4.84
328.318	4.79
328.691	4.83
329.063	4.7
329.436	4.74
329.809	4.78
330.181	4.47
330.553	4.82
330.926	4.83
331.298	4.58
331.671	5.12
332.043	4.28
332.415	4.51
332.787	5.19
333.159	4.72
333.532	4.38
333.904	4.49
334.276	4.4
334.648	4.15
335.02	4.65
335.391	4.4
335.763	4.84
336.135	5.02
336.507	4.65
336.879	3.96
337.25	4.73
337.622	5.13
337.993	4.47
338.365	4.66
338.736	5.03
339.108	4.85
339.479	4.77
339.851	4.06
340.222	4.83
340.593	4.67
340.964	4.21
341.336	4.5
341.707	4.96
342.078	4.93
342.449	4.6
342.82	4.51
343.191	4.1
343.562	4.62
343.933	4.85
344.303	5.02
344.674	5.04
345.045	5.05
345.416	4.88
345.786	4.28
346.157	4.69
346.527	4.66
346.898	4.22
347.268	4.65
347.639	4.67
348.009	4.5
348.38	4.73
348.75	5.07
349.12	4.62
349.49	4.94
349.861	4.29
350.231	5.02
350.601	4.59
350.971	4.83
351.341	4.31
351.711	4.44
352.081	4.39
352.45	4.54
352.82	4.78
353.19	4.66
353.56	4.34
353.929	4.87
354.299	4.91
354.669	4.49
355.038	4.67
355.408	4.67
355.777	4.89
356.147	4.94
356.516	5.13
356.885	4.56
357.254	4.71
357.624	4.09
357.993	4.82
358.362	4.98
358.731	4.28
359.1	4.44
359.469	4.49
359.838	4.29
360.207	4.31
360.576	4.53
360.945	4.4
361.314	4.5
361.682	4.53
362.051	4.6
362.42	4.45
362.788	4.3
363.157	4.65
363.525	4.39
363.894	4.59
364.262	4.36
364.631	4.66
364.999	4.39
365.367	4.63
365.735	4.25
366.104	4.69
366.472	5.11
366.84	4.46
367.208	4.81
367.576	4.99
367.944	4.48
368.312	4.88
368.68	4.47
369.048	4.8
369.416	4.83
369.783	4.54
370.151	4.59
370.519	4.48
370.886	4.65
371.254	4.8
371.621	4.36
371.989	5
372.356	4.45
372.724	4.88
373.091	4.74
373.458	4.69
373.826	4.73
374.193	4.83
374.56	5.02
374.927	4.32
375.294	4.54
375.661	4.61
376.028	4.69
376.395	4.61
376.762	4.42
377.129	4.74
377.496	5.02
377.863	4.72
378.229	4.84
378.596	4.61
378.963	4.97
379.329	4.6
379.696	5.05
380.062	4.48
380.429	4.81
380.795	4.74
381.161	4.83
381.528	4.8
381.894	4.11
382.26	4.64
382.626	4.45
382.993	4.92
383.359	4.25
383.725	4.69
384.091	4.84
384.457	4.67
384.823	4.83
385.188	4.73
385.554	4.55
385.92	5.11
386.286	4.68
386.651	4.78
387.017	4.63
387.383	4.51
387.748	4.72
388.114	4.53
388.479	4.65
388.845	4.43
389.21	4.47
389.575	4.8
389.94	4.33
390.306	4.97
390.671	5.11
391.036	4.5
391.401	4.89
391.766	4.82
392.131	5
392.496	4.62
392.861	4.42
393.226	4.94
393.591	4.65
393.956	4.86
394.32	4.64
394.685	4.72
395.05	5.07
395.414	4.62
395.779	5.01
396.143	4.79
396.508	4.65
396.872	4.73
397.236	4.77
397.601	4.53
397.965	5
398.329	4.81
398.694	4.81
399.058	4.9
399.422	4.81
399.786	4.76
400.15	4.94
400.514	4.93
400.878	4.9
401.242	4.84
401.605	4.69
401.969	4.67
402.333	4.9
402.697	4.64
403.06	4.75
403.424	4.97
403.787	4.96
404.151	4.86
404.514	4.94
404.878	5.03
405.241	5
405.604	5.05
405.968	4.94
406.331	4.78
406.694	4.68
407.057	4.74
407.42	4.88
407.783	4.62
408.146	4.87
408.509	4.73
408.872	4.6
409.235	4.78
409.598	4.83
409.961	4.81
410.323	4.97
410.686	5.01
411.049	4.97
411.411	5.21
411.774	4.88
412.136	4.65
412.499	4.73
412.861	4.79
413.223	4.79
413.586	4.79
413.948	4.87
414.31	4.85
414.672	4.86
415.035	4.84
415.397	5.1
415.759	5.35
416.121	4.6
416.483	4.86
416.845	4.79
417.206	4.77
417.568	4.83
417.93	4.79
418.292	4.94
418.653	4.63
419.015	4.91
419.377	4.88
419.738	4.87
420.1	4.7
420.461	4.76
420.822	4.82
421.184	4.79
421.545	4.72
421.906	4.77
422.267	4.71
422.629	4.79
422.99	4.73
423.351	4.63
423.712	4.63
424.073	4.7
424.434	4.8
424.795	4.73
425.155	4.85
425.516	4.84
425.877	4.74
426.238	4.69
426.598	4.64
426.959	4.77
427.32	4.68
427.68	4.7
428.041	4.65
428.401	4.83
428.761	4.94
429.122	4.99
429.482	4.95
429.842	4.79
430.202	4.85
430.563	5.03
430.923	4.97
431.283	4.99
431.643	5.05
432.003	4.77
432.363	5.17
432.722	5.06
433.082	5.07
433.442	5.05
433.802	5.19
434.161	4.98
434.521	4.94
434.881	4.96
435.24	4.9
435.6	4.84
435.959	4.85
436.319	4.96
436.678	5.09
437.037	4.94
437.396	4.91
437.756	4.9
438.115	5.04
438.474	5
438.833	5.13
439.192	5.04
439.551	4.94
439.91	5.12
440.269	5.08
440.628	4.96
440.987	4.91
441.345	5.03
441.704	5.04
442.063	4.89
442.421	4.78
442.78	4.97
443.138	5.02
443.497	4.83
443.855	4.99
444.214	4.92
444.572	5.05
444.93	5.03
445.288	5.19
445.647	5.18
446.005	5.09
446.363	5.03
446.721	5.03
447.079	4.89
447.437	5.09
447.795	5.04
448.153	4.95
448.51	4.92
448.868	4.99
449.226	5.01
449.584	4.93
449.941	4.88
450.299	5.01
450.656	5.1
451.014	4.98
451.371	5.07
451.729	5.02
452.086	5.07
452.443	4.92
452.801	5.04
453.158	5.1
453.515	5.27
453.872	5.13
454.229	5.07
454.586	5.14
454.943	5.11
455.3	5.21
455.657	5
456.014	5.22
456.371	5.18
456.727	5.28
457.084	5.06
457.441	5.15
457.797	5.28
458.154	5.11
458.51	5.13
458.867	5.18
459.223	5.35
459.58	5.38
459.936	5.11
460.292	5.21
460.648	5.29
461.005	5.12
461.361	5.12
461.717	4.92
462.073	5.11
462.429	4.97
462.785	4.99
463.141	5.09
463.496	5.29
463.852	5.18
464.208	5.19
464.564	5.3
464.919	5.17
465.275	5.32
465.631	5.3
465.986	5.4
466.342	5.25
466.697	5.28
467.052	5.26
467.408	5.29
467.763	5.21
468.118	5.29
468.473	5.12
468.829	5.34
469.184	5.09
469.539	5.2
469.894	5.35
470.249	5.24
470.603	5.23
470.958	5.42
471.313	5.25
471.668	5.35
472.023	5.27
472.377	5.32
472.732	5.36
473.086	5.5
473.441	5.15
473.795	5.41
474.15	5.12
474.504	5.11
474.859	5.46
475.213	5.13
475.567	5.23
475.921	5.48
476.275	5.34
476.63	5.34
476.984	5.18
477.338	5.43
477.692	5.25
478.045	5.43
478.399	5.37
478.753	5.26
479.107	5.26
479.461	5.42
479.814	5.35
480.168	5.4
480.521	5.38
480.875	5.38
481.228	5.33
481.582	5.28
481.935	5.21
482.289	5.29
482.642	5.26
482.995	5.47
483.348	5.41
483.701	5.38
484.055	5.2
484.408	5.28
484.761	5.4
485.114	5.15
485.466	5.13
485.819	5.03
486.172	4.98
486.525	5
486.878	5.05
487.23	5.16
487.583	5.18
487.936	5.28
488.288	5.25
488.641	5.24
488.993	5.21
489.345	5.14
489.698	5.14
490.05	5.15
490.402	5.18
490.754	5.12
491.107	5.22
491.459	5.31
491.811	5.38
492.163	5.34
492.515	5.35
492.866	5.39
493.218	5.4
493.57	5.25
493.922	5.2
494.274	5.22
494.625	5.26
494.977	5.43
495.328	5.46
495.68	5.51
496.031	5.48
496.383	5.45
496.734	5.67
497.086	5.56
497.437	5.72
497.788	5.55
498.139	5.68
498.49	5.64
498.842	5.53
499.193	5.51
499.544	5.58
499.894	5.59
500.245	5.57
500.596	5.67
500.947	5.62
501.298	5.64
501.648	5.6
501.999	5.74
502.35	5.72
502.7	5.75
503.051	5.71
503.401	5.74
503.752	5.68
504.102	5.64
504.452	5.7
504.803	5.7
505.153	5.72
505.503	5.75
505.853	5.82
506.203	5.69
506.553	5.79
506.903	5.81
507.253	5.65
507.603	5.76
507.953	5.79
508.303	5.85
508.652	5.86
509.002	5.88
509.352	5.7
509.701	5.73
510.051	5.9
510.4	5.74
510.75	5.72
511.099	5.73
511.449	5.93
511.798	5.89
512.147	5.84
512.496	5.73
512.846	5.88
513.195	5.86
513.544	5.97
513.893	5.92
514.242	5.72
514.591	5.86
514.939	5.85
515.288	5.81
515.637	5.88
515.986	5.83
516.334	5.99
516.683	5.94
517.032	5.97
517.38	6
517.729	6.01
518.077	6
518.426	6
518.774	6.03
519.122	5.91
519.47	6
519.819	6.05
520.167	6
520.515	5.97
520.863	5.88
521.211	5.96
521.559	5.95
521.907	5.95
522.255	6.02
522.602	6.11
522.95	6.14
523.298	6.17
523.645	6.13
523.993	6.09
524.341	6.11
524.688	6.19
525.036	6.15
525.383	6.19
525.73	6.3
526.078	6.05
526.425	6.13
526.772	6.25
527.119	6.19
527.466	6.01
527.814	5.98
528.161	6.02
528.508	6.14
528.854	6.17
529.201	6.22
529.548	6.21
529.895	6.06
530.242	6.04
530.588	6
530.935	5.85
531.282	5.92
531.628	6.08
531.975	6.01
532.321	6.14
532.667	6.23
533.014	6.32
533.36	6.28
533.706	6.36
534.052	6.4
534.399	6.28
534.745	6.31
535.091	6.23
535.437	6.17
535.783	6.17
536.129	6.25
536.474	6.35
536.82	6.33
537.166	6.45
537.512	6.55
537.857	6.47
538.203	6.62
538.549	6.37
538.894	6.46
539.239	6.38
539.585	6.51
539.93	6.65
540.276	6.53
540.621	6.67
540.966	6.64
541.311	6.84
541.656	6.68
542.001	6.75
542.346	6.73
542.691	6.83
543.036	6.6
543.381	6.49
543.726	6.53
544.071	6.55
544.415	6.58
544.76	6.6
545.105	6.66
545.449	6.63
545.794	6.73
546.138	6.78
546.483	6.84
546.827	6.84
547.171	6.91
547.516	7.01
547.86	6.96
548.204	7.01
548.548	6.9
548.892	7.08
549.236	6.97
549.58	7.07
549.924	7.22
550.268	7.23
550.612	7.05
550.956	7.29
551.3	7.27
551.643	7.26
551.987	7.27
552.33	7.35
552.674	7.24
553.017	7.26
553.361	7.12
553.704	7.42
554.048	7.51
554.391	7.4
554.734	7.41
555.077	7.38
555.42	7.39
555.764	7.32
556.107	7.43
556.45	7.41
556.793	7.58
557.135	7.55
557.478	7.46
557.821	7.75
558.164	7.69
558.507	7.62
558.849	7.53
559.192	7.87
559.534	7.91
559.877	7.75
560.219	7.7
560.562	7.68
560.904	7.77
561.246	7.91
561.589	7.81
561.931	7.84
562.273	7.76
562.615	7.71
562.957	7.92
563.299	8.04
563.641	7.87
563.983	8.04
564.325	7.98
564.667	8.08
565.008	8.02
565.35	8.1
565.692	8.03
566.033	8.04
566.375	8.16
566.716	8.1
567.058	8.23
567.399	8.32
567.741	8.23
568.082	8.1
568.423	8.19
568.764	8.31
569.105	8.07
569.447	8.25
569.788	8.01
570.129	8.32
570.47	8.49
570.811	8.33
571.151	8.24
571.492	8.31
571.833	8.18
572.174	8.46
572.514	8.5
572.855	8.28
573.195	8.27
573.536	8.45
573.876	8.6
574.217	8.46
574.557	8.52
574.898	8.64
575.238	8.44
575.578	8.68
575.918	8.77
576.258	8.54
576.598	8.65
576.938	8.81
577.278	8.75
577.618	8.78
577.958	8.85
578.298	8.98
578.638	8.64
578.977	8.89
579.317	8.88
579.657	8.98
579.996	8.96
580.336	8.99
580.675	9.02
581.014	8.94
581.354	8.93
581.693	9.24
582.032	9.15
582.372	9.45
582.711	9.42
583.05	9.45
583.389	9.25
583.728	9.47
584.067	9.48
584.406	9.5
584.745	9.21
585.083	9.58
585.422	9.69
585.761	9.58
586.1	9.42
586.438	9.3
586.777	9.77
587.115	9.74
587.454	9.57
587.792	9.95
588.13	9.95
588.469	9.75
588.807	10.01
589.145	10.01
589.483	9.99
589.821	9.73
590.159	9.95
590.497	10.08
590.835	10.02
591.173	9.82
591.511	9.88
591.849	10.09
592.187	10
592.524	10.08
592.862	9.91
593.2	9.99
593.537	9.86
593.875	10.07
594.212	10.31
594.55	10.48
594.887	9.96
595.224	10.34
595.561	10.43
595.899	10.73
596.236	10.55
596.573	10.5
596.91	10.37
597.247	10.28
597.584	10.51
597.921	10.45
598.258	10.7
598.594	10.54
598.931	10.41
599.268	10.46
599.604	10.68
599.941	10.59
600.277	10.42
600.614	10.55
600.95	10.67
601.287	10.68
601.623	10.71
601.959	10.88
602.296	11.02
602.632	10.81
602.968	11.07
603.304	10.96
603.64	11
603.976	10.78
604.312	11.13
604.648	11.1
604.984	11.2
605.319	10.97
605.655	11.12
605.991	11.11
606.326	11.05
606.662	10.91
606.998	11.2
607.333	11.31
607.668	11.27
608.004	11.4
608.339	11.26
608.674	11.32
609.01	11.56
609.345	11.62
609.68	11.62
610.015	11.49
610.35	11.52
610.685	11.84
611.02	11.53
611.355	11.79
611.689	11.35
612.024	11.62
612.359	11.55
612.694	11.58
613.028	11.66
613.363	11.71
613.697	11.83
614.032	11.71
614.366	11.82
614.7	12
615.035	12.03
615.369	12.06
615.703	11.94
616.037	12.15
616.371	12.41
616.705	12.44
617.039	12.4
617.373	12.43
617.707	12.35
618.041	12.56
618.375	12.39
618.709	12.35
619.042	12.69
619.376	12.69
619.71	12.97
620.043	12.11
620.377	12.27
620.71	12.72
621.043	12.73
621.377	12.42
621.71	12.72
622.043	12.86
622.376	12.91
622.709	12.56
623.043	12.76
623.376	13.2
623.709	13.49
624.041	12.73
624.374	13.12
624.707	12.85
625.04	13.15
625.373	12.7
625.705	13.14
626.038	13.03
626.37	13.41
626.703	12.96
627.035	13.05
627.368	13.23
627.7	13.46
628.032	13.34
628.365	13.2
628.697	13.3
629.029	13.3
629.361	13.18
629.693	13.53
630.025	13.26
630.357	13.15
630.689	13.45
631.021	13.52
631.353	13.6
631.684	13.37
632.016	14
632.348	13.33
632.679	13.66
633.011	13.73
633.342	13.74
633.674	14.11
634.005	13.49
634.336	14.04
634.668	14.12
634.999	14.2
635.33	14.11
635.661	13.89
635.992	14.07
636.323	13.89
636.654	13.9
636.985	14.17
637.316	14.01
637.647	14.11
637.977	13.7
638.308	14.6
638.639	14.29
638.969	14.77
639.3	14.32
639.63	14.43
639.961	14.33
640.291	14.27
640.622	14.67
640.952	14.55
641.282	14.69
641.612	14.73
641.943	14.59
642.273	14.8
642.603	14.9
642.933	14.62
643.263	13.98
643.592	14.63
643.922	15.18
644.252	14.69
644.582	15.31
644.911	15.04
645.241	15.21
645.571	14.76
645.9	15.3
646.23	15.4
646.559	15.63
646.888	15.69
647.218	15
647.547	15.08
647.876	15.35
648.205	14.98
648.534	15.41
648.863	15.02
649.192	15.25
649.521	15.77
649.85	15.58
650.179	15.12
650.508	15.28
650.837	16.12
651.165	15.75
651.494	15.5
651.822	15.44
652.151	15.53
652.479	15.43
652.808	16.13
653.136	16.23
653.465	15.59
653.793	15.4
654.121	15.61
654.449	15.66
654.777	15.87
655.105	16.38
655.433	16.29
655.761	15.96
656.089	15.68
656.417	15.92
656.745	16.44
657.073	16.12
657.4	16.95
657.728	16.45
658.056	15.91
658.383	16.63
658.711	16
659.038	16.1
659.365	16.48
659.693	16.33
660.02	16.49
660.347	16.68
660.674	16.55
661.001	16.12
661.329	15.96
661.656	16.39
661.982	16.34
662.309	16.69
662.636	16.84
662.963	16.33
663.29	16.44
663.616	16.63
663.943	16.78
664.27	16.63
664.596	16.88
664.923	16.89
665.249	16.89
665.576	16.33
665.902	17.31
666.228	16.91
666.554	16.39
666.881	16.76
667.207	17.03
667.533	16.73
667.859	17.33
668.185	17.16
668.511	17.51
668.837	16.38
669.162	17.59
669.488	17.1
669.814	16.67
670.139	17.26
670.465	17.78
670.791	17.37
671.116	17.21
671.442	18.03
671.767	17.22
672.092	17.89
672.418	18.39
672.743	17.85
673.068	18.1
673.393	17.12
673.718	18.06
674.043	18.14
674.368	17.99
674.693	17.37
675.018	17.67
675.343	17.88
675.667	18.01
675.992	17.99
676.317	18.05
676.641	17.55
676.966	18.02
677.29	17.85
677.615	18.52
677.939	19
678.264	17.9
678.588	18.73
678.912	18.32
679.236	18.66
679.56	18.82
679.885	17.92
680.209	19.03
680.532	18.35
680.856	18.53
681.18	18.89
681.504	18.07
681.828	18.45
682.152	19.06
682.475	19.31
682.799	18.52
683.122	18.8
683.446	19.2
683.769	18.46
684.093	18.83
684.416	18.73
684.739	19.56
685.062	19.47
685.386	19.19
685.709	19.15
686.032	18.64
686.355	19.23
686.678	18.81
687.001	18.84
