Data from 0160_chest_Reflection__3__99.txt Node

Date: Fri Sep 22 21:06:50 CDT 2023
User: ToomeyLab
Spectrometer: FLMS14357
Trigger mode: 0
Integration Time (sec): 1.000000E-2
Scans to average: 100
Electric dark correction enabled: true
Nonlinearity correction enabled: false
Boxcar width: 0
XAxis mode: Wavelengths
Number of Pixels in Spectrum: 2048
>>>>>Begin Spectral Data<<<<<
189.047	65.39
189.435	65.39
189.823	65.39
190.211	-120.05
190.599	129.63
190.987	66.02
191.375	23.16
191.763	53.5
192.151	73.61
192.538	-487.84
192.926	58.33
193.314	-157.72
193.702	66.23
194.089	139.67
194.477	21.01
194.864	125.78
195.252	190.65
195.639	-11.78
196.027	2137.2
196.414	509.86
196.801	23.18
197.189	-23.53
197.576	153.43
197.963	1537.28
198.351	48.33
198.738	64.79
199.125	37.23
199.512	54.04
199.899	26.07
200.286	83.6
200.673	28.84
201.06	6.5
201.447	48.25
201.833	107.34
202.22	41.42
202.607	46.99
202.994	35.6
203.38	37.07
203.767	20.06
204.154	24.85
204.54	50.12
204.927	10.41
205.313	25.82
205.699	26.19
206.086	58.55
206.472	31.52
206.858	19.35
207.245	-20.54
207.631	64.55
208.017	37.86
208.403	24.09
208.789	33.98
209.175	38.91
209.561	42.03
209.947	21.29
210.333	34.1
210.719	21.72
211.105	44.89
211.491	16.78
211.876	47.17
212.262	23.5
212.648	19.49
213.034	46.02
213.419	20.04
213.805	22.02
214.19	19.76
214.576	29.68
214.961	15.3
215.346	1.18
215.732	19.51
216.117	23.48
216.502	34.03
216.888	47.23
217.273	12.04
217.658	-3.65
218.043	18.96
218.428	49.22
218.813	5.47
219.198	19.14
219.583	34.67
219.968	23.6
220.353	32.47
220.738	16.85
221.122	32.18
221.507	-0.96
221.892	9.74
222.276	3.13
222.661	-21.46
223.046	27.16
223.43	12.01
223.815	10.65
224.199	-0.43
224.583	9.76
224.968	22.08
225.352	1.05
225.736	12.51
226.121	7.23
226.505	11.09
226.889	8.47
227.273	2.34
227.657	7.85
228.041	8.81
228.425	9.27
228.809	5.27
229.193	5.57
229.577	6.74
229.961	8.09
230.344	7.48
230.728	4.27
231.112	5.5
231.495	5.69
231.879	4.85
232.263	4.07
232.646	5.12
233.03	5.95
233.413	5.86
233.797	4.57
234.18	7.15
234.563	7.42
234.946	6.89
235.33	5.83
235.713	3.85
236.096	6.18
236.479	4.67
236.862	6.79
237.245	7.22
237.628	6.46
238.011	6.33
238.394	6.02
238.777	7.11
239.16	6.3
239.543	7.91
239.925	5.6
240.308	6.7
240.691	7.53
241.073	7.3
241.456	6.16
241.838	4.93
242.221	4.92
242.603	5.41
242.986	4.53
243.368	5.04
243.75	6.02
244.133	5.85
244.515	5.5
244.897	4.86
245.279	4.79
245.661	5.18
246.043	6.26
246.425	5.38
246.807	5.86
247.189	4.18
247.571	5.68
247.953	6.5
248.335	5.62
248.717	5.44
249.098	5.2
249.48	5.01
249.862	4.91
250.243	4.89
250.625	5.59
251.006	4.75
251.388	4.86
251.769	5.06
252.151	3.94
252.532	4.74
252.913	5.71
253.295	6.45
253.676	5.08
254.057	4.83
254.438	5.45
254.819	4.96
255.2	5.54
255.581	4.83
255.962	5.84
256.343	5.29
256.724	4.89
257.105	6.03
257.486	6.86
257.867	5.69
258.247	4.6
258.628	5.91
259.009	5.37
259.389	4.72
259.77	5.66
260.15	5.46
260.531	4.61
260.911	5.12
261.292	4.63
261.672	4.49
262.052	4.86
262.432	4.86
262.813	4.81
263.193	4.51
263.573	5.59
263.953	5.15
264.333	4.99
264.713	4.71
265.093	5.39
265.473	5.22
265.853	4.1
266.233	4.95
266.612	5.19
266.992	5.52
267.372	4.8
267.752	5.61
268.131	4.47
268.511	4.36
268.89	5.67
269.27	4.69
269.649	4.9
270.029	4.88
270.408	5.3
270.787	4.94
271.167	4.74
271.546	4.39
271.925	4.45
272.304	4.63
272.683	4.62
273.062	5.26
273.441	5.12
273.82	5.12
274.199	5.12
274.578	4.8
274.957	4.88
275.336	4.6
275.715	4.87
276.093	4.12
276.472	4.61
276.851	5
277.229	3.99
277.608	4.65
277.986	4.55
278.365	5.19
278.743	4.59
279.122	4.9
279.5	4.92
279.878	4.38
280.257	5.24
280.635	4.97
281.013	4.68
281.391	4.23
281.769	4.53
282.147	5.3
282.525	4.62
282.903	4.38
283.281	4.76
283.659	4.62
284.037	4.76
284.415	4.73
284.792	4.29
285.17	4.69
285.548	4.87
285.925	4.34
286.303	4.71
286.68	4.28
287.058	4.2
287.435	4.72
287.813	4.49
288.19	4.38
288.567	4.62
288.945	4.4
289.322	4.37
289.699	4.02
290.076	4.65
290.453	4.36
290.83	4.18
291.207	4.48
291.584	4.3
291.961	4.51
292.338	4.83
292.715	4.62
293.092	4.36
293.469	4.27
293.845	4.79
294.222	5.05
294.599	4.46
294.975	5.36
295.352	5.36
295.728	4.97
296.105	5.12
296.481	4.73
296.858	4.76
297.234	5.14
297.61	4.71
297.986	5.21
298.363	4.93
298.739	5.03
299.115	4.59
299.491	4.86
299.867	4.63
300.243	4.79
300.619	4.93
300.995	4.73
301.371	5.3
301.746	4.91
302.122	4.94
302.498	4.51
302.874	4.86
303.249	4.78
303.625	4.67
304	5.14
304.376	5.21
304.751	4.87
305.127	4.59
305.502	5.34
305.878	5.13
306.253	5.14
306.628	5.14
307.003	4.99
307.378	5.42
307.754	4.93
308.129	5.06
308.504	4.81
308.879	4.65
309.254	4.76
309.629	5.09
310.003	5.55
310.378	5.6
310.753	5.13
311.128	5.13
311.502	5.24
311.877	4.57
312.252	5.26
312.626	5.04
313.001	5.23
313.375	5.43
313.75	5.47
314.124	5.51
314.498	4.62
314.873	4.91
315.247	5.46
315.621	5.83
315.995	5.4
316.369	4.79
316.743	5.1
317.117	5.47
317.491	5.3
317.865	5.04
318.239	5.56
318.613	5.34
318.987	5.58
319.361	5.22
319.734	4.71
320.108	5.56
320.482	4.54
320.855	5.21
321.229	5.48
321.602	5.18
321.976	4.66
322.349	4.74
322.723	5.46
323.096	4.84
323.469	4.76
323.843	4.81
324.216	5.34
324.589	5.23
324.962	4.69
325.335	5.24
325.708	5.42
326.081	5.56
326.454	4.81
326.827	5.23
327.2	4.71
327.573	5.5
327.945	5.68
328.318	5.51
328.691	5.41
329.063	5.13
329.436	5.54
329.809	5.54
330.181	5.43
330.553	4.89
330.926	5.49
331.298	5.16
331.671	5.93
332.043	4.44
332.415	5.57
332.787	5.13
333.159	5.05
333.532	5.14
333.904	5.08
334.276	5.32
334.648	4.51
335.02	5.01
335.391	5.06
335.763	5.51
336.135	5.46
336.507	5.36
336.879	4.72
337.25	4.91
337.622	4.92
337.993	5.2
338.365	5.38
338.736	5
339.108	5.1
339.479	5.21
339.851	4.78
340.222	5.32
340.593	5.03
340.964	4.59
341.336	5.28
341.707	4.83
342.078	5.12
342.449	5.07
342.82	4.9
343.191	4.76
343.562	5.27
343.933	5.2
344.303	5.26
344.674	5.13
345.045	5.04
345.416	5.1
345.786	4.91
346.157	5.28
346.527	5.07
346.898	5.1
347.268	5.31
347.639	4.81
348.009	5.06
348.38	4.82
348.75	5.31
349.12	5.03
349.49	5.31
349.861	4.95
350.231	5.36
350.601	5.51
350.971	5.28
351.341	5.23
351.711	5.05
352.081	4.82
352.45	4.96
352.82	5.16
353.19	5.14
353.56	5
353.929	5.2
354.299	5.06
354.669	4.91
355.038	5.21
355.408	5.31
355.777	5.59
356.147	5.31
356.516	5.27
356.885	5
357.254	5.57
357.624	5.02
357.993	5.62
358.362	5.27
358.731	5.11
359.1	4.81
359.469	5.21
359.838	5.02
360.207	5.03
360.576	4.99
360.945	4.92
361.314	5.39
361.682	5.34
362.051	5.28
362.42	5.06
362.788	4.88
363.157	5.18
363.525	5.14
363.894	4.93
364.262	4.92
364.631	5.22
364.999	4.93
365.367	5.3
365.735	5.23
366.104	5.21
366.472	5.76
366.84	5.28
367.208	5.42
367.576	5.32
367.944	5.22
368.312	4.96
368.68	5.1
369.048	5.05
369.416	5.18
369.783	4.92
370.151	4.78
370.519	5.13
370.886	5.54
371.254	5.54
371.621	4.72
371.989	5.11
372.356	4.99
372.724	5.6
373.091	5.03
373.458	5.39
373.826	5.16
374.193	5.43
374.56	5.17
374.927	5.53
375.294	5.32
375.661	5.02
376.028	5.41
376.395	5.43
376.762	5.32
377.129	5.47
377.496	5.68
377.863	5.35
378.229	5.31
378.596	5.24
378.963	5.66
379.329	5.13
379.696	5.6
380.062	5
380.429	5.44
380.795	5.36
381.161	5.27
381.528	5.26
381.894	4.84
382.26	5.39
382.626	5.41
382.993	5.28
383.359	4.97
383.725	5.16
384.091	5.11
384.457	5.37
384.823	5.27
385.188	5.29
385.554	5.67
385.92	5.76
386.286	5.34
386.651	5.29
387.017	5.68
387.383	5.02
387.748	5.44
388.114	5.24
388.479	5.41
388.845	5.21
389.21	5.31
389.575	5.52
389.94	5
390.306	5.42
390.671	5.7
391.036	5.03
391.401	5.49
391.766	5.46
392.131	5.03
392.496	5.39
392.861	5.36
393.226	5.42
393.591	5.24
393.956	5.35
394.32	5.38
394.685	5.36
395.05	5.56
395.414	5.48
395.779	5.19
396.143	5.47
396.508	5.19
396.872	5.19
397.236	5.4
397.601	5.28
397.965	5.54
398.329	5.35
398.694	5.22
399.058	5.36
399.422	5.27
399.786	5.4
400.15	5.71
400.514	5.4
400.878	5.42
401.242	5.53
401.605	5.42
401.969	5.17
402.333	5.48
402.697	5.23
403.06	5.45
403.424	5.45
403.787	5.62
404.151	5.22
404.514	5.65
404.878	5.4
405.241	5.69
405.604	5.29
405.968	5.54
406.331	5.26
406.694	5.4
407.057	5.31
407.42	5.44
407.783	5.35
408.146	5.34
408.509	5.18
408.872	5.34
409.235	5.41
409.598	5.46
409.961	5.65
410.323	5.43
410.686	5.52
411.049	5.5
411.411	5.5
411.774	5.47
412.136	5.42
412.499	5.45
412.861	5.39
413.223	5.55
413.586	5.42
413.948	5.54
414.31	5.36
414.672	5.57
415.035	5.58
415.397	5.8
415.759	5.64
416.121	5.36
416.483	5.41
416.845	5.48
417.206	5.34
417.568	5.43
417.93	5.59
418.292	5.55
418.653	5.29
419.015	5.39
419.377	5.44
419.738	5.57
420.1	5.3
420.461	5.52
420.822	5.36
421.184	5.45
421.545	5.49
421.906	5.36
422.267	5.32
422.629	5.44
422.99	5.35
423.351	5.37
423.712	5.34
424.073	5.34
424.434	5.43
424.795	5.47
425.155	5.45
425.516	5.35
425.877	5.42
426.238	5.28
426.598	5.36
426.959	5.47
427.32	5.5
427.68	5.44
428.041	5.25
428.401	5.6
428.761	5.5
429.122	5.48
429.482	5.46
429.842	5.32
430.202	5.52
430.563	5.56
430.923	5.48
431.283	5.63
431.643	5.5
432.003	5.48
432.363	5.56
432.722	5.79
433.082	5.72
433.442	5.48
433.802	5.57
434.161	5.3
434.521	5.64
434.881	5.7
435.24	5.53
435.6	5.52
435.959	5.32
436.319	5.52
436.678	5.57
437.037	5.58
437.396	5.46
437.756	5.67
438.115	5.54
438.474	5.58
438.833	5.77
439.192	5.52
439.551	5.49
439.91	5.72
440.269	5.76
440.628	5.45
440.987	5.52
441.345	5.52
441.704	5.72
442.063	5.51
442.421	5.55
442.78	5.65
443.138	5.55
443.497	5.59
443.855	5.63
444.214	5.41
444.572	5.62
444.93	5.57
445.288	5.67
445.647	5.69
446.005	5.72
446.363	5.41
446.721	5.59
447.079	5.51
447.437	5.62
447.795	5.63
448.153	5.52
448.51	5.57
448.868	5.47
449.226	5.57
449.584	5.49
449.941	5.42
450.299	5.65
450.656	5.6
451.014	5.63
451.371	5.68
451.729	5.71
452.086	5.7
452.443	5.79
452.801	5.67
453.158	5.6
453.515	5.7
453.872	5.71
454.229	5.68
454.586	5.77
454.943	5.71
455.3	5.74
455.657	5.64
456.014	5.63
456.371	5.7
456.727	5.88
457.084	5.92
457.441	5.61
457.797	5.85
458.154	5.85
458.51	5.62
458.867	5.77
459.223	5.98
459.58	5.72
459.936	5.85
460.292	5.91
460.648	5.83
461.005	5.65
461.361	5.85
461.717	5.54
462.073	5.61
462.429	5.58
462.785	5.65
463.141	5.69
463.496	5.84
463.852	5.83
464.208	5.81
464.564	5.85
464.919	5.58
465.275	5.87
465.631	5.93
465.986	5.87
466.342	5.8
466.697	5.98
467.052	5.74
467.408	5.91
467.763	6.02
468.118	5.98
468.473	5.87
468.829	5.72
469.184	5.9
469.539	5.74
469.894	5.77
470.249	5.81
470.603	5.84
470.958	5.91
471.313	5.9
471.668	5.99
472.023	6
472.377	5.83
472.732	5.86
473.086	6.03
473.441	5.92
473.795	6.29
474.15	5.68
474.504	5.96
474.859	6.21
475.213	5.8
475.567	5.63
475.921	5.9
476.275	5.91
476.63	5.71
476.984	5.73
477.338	6.01
477.692	5.96
478.045	5.98
478.399	6.09
478.753	5.96
479.107	5.88
479.461	5.83
479.814	6.04
480.168	6.02
480.521	6.03
480.875	6.03
481.228	5.96
481.582	5.83
481.935	6.04
482.289	5.98
482.642	5.9
482.995	6
483.348	5.94
483.701	5.93
484.055	5.81
484.408	5.88
484.761	5.98
485.114	5.8
485.466	5.72
485.819	5.68
486.172	5.63
486.525	5.65
486.878	5.64
487.23	5.65
487.583	5.71
487.936	5.85
488.288	5.9
488.641	5.79
488.993	5.78
489.345	5.8
489.698	5.76
490.05	5.73
490.402	5.81
490.754	5.73
491.107	5.79
491.459	5.91
491.811	5.92
492.163	5.9
492.515	5.95
492.866	6.04
493.218	5.92
493.57	5.89
493.922	5.86
494.274	5.91
494.625	5.83
494.977	5.87
495.328	5.97
495.68	6.05
496.031	6.07
496.383	6.06
496.734	6.18
497.086	6.23
497.437	6.11
497.788	6.15
498.139	6.19
498.49	6.2
498.842	6.04
499.193	6.06
499.544	6.09
499.894	6.08
500.245	6.05
500.596	6.19
500.947	6.22
501.298	6.28
501.648	6.16
501.999	6.15
502.35	6.23
502.7	6.29
503.051	6.26
503.401	6.37
503.752	6.33
504.102	6.33
504.452	6.26
504.803	6.28
505.153	6.27
505.503	6.28
505.853	6.37
506.203	6.25
506.553	6.38
506.903	6.33
507.253	6.31
507.603	6.23
507.953	6.4
508.303	6.39
508.652	6.33
509.002	6.58
509.352	6.34
509.701	6.45
510.051	6.52
510.4	6.38
510.75	6.36
511.099	6.18
511.449	6.43
511.798	6.57
512.147	6.41
512.496	6.36
512.846	6.36
513.195	6.4
513.544	6.39
513.893	6.5
514.242	6.36
514.591	6.42
514.939	6.56
515.288	6.36
515.637	6.48
515.986	6.32
516.334	6.48
516.683	6.48
517.032	6.59
517.38	6.46
517.729	6.49
518.077	6.54
518.426	6.45
518.774	6.69
519.122	6.56
519.47	6.51
519.819	6.58
520.167	6.56
520.515	6.55
520.863	6.44
521.211	6.53
521.559	6.49
521.907	6.57
522.255	6.56
522.602	6.67
522.95	6.6
523.298	6.81
523.645	6.6
523.993	6.8
524.341	6.75
524.688	6.72
525.036	6.7
525.383	6.71
525.73	6.82
526.078	6.73
526.425	6.68
526.772	6.82
527.119	6.73
527.466	6.68
527.814	6.61
528.161	6.69
528.508	6.68
528.854	6.75
529.201	6.71
529.548	6.69
529.895	6.74
530.242	6.63
530.588	6.59
530.935	6.53
531.282	6.6
531.628	6.6
531.975	6.6
532.321	6.64
532.667	6.69
533.014	6.79
533.36	6.9
533.706	6.93
534.052	6.96
534.399	6.87
534.745	6.91
535.091	6.9
535.437	6.79
535.783	6.71
536.129	6.91
536.474	6.86
536.82	6.89
537.166	7.04
537.512	7.04
537.857	7.04
538.203	7.17
538.549	7
538.894	7.01
539.239	7.12
539.585	7.01
539.93	7.21
540.276	7.15
540.621	7.19
540.966	7.22
541.311	7.24
541.656	7.15
542.001	7.22
542.346	7.27
542.691	7.36
543.036	7.16
543.381	7.1
543.726	7.15
544.071	7.13
544.415	7.1
544.76	7.17
545.105	7.15
545.449	7.16
545.794	7.2
546.138	7.3
546.483	7.34
546.827	7.28
547.171	7.4
547.516	7.53
547.86	7.46
548.204	7.52
548.548	7.6
548.892	7.53
549.236	7.5
549.58	7.53
549.924	7.5
550.268	7.65
550.612	7.57
550.956	7.7
551.3	7.67
551.643	7.77
551.987	7.84
552.33	7.84
552.674	7.81
553.017	7.83
553.361	7.83
553.704	7.98
554.048	8
554.391	7.86
554.734	7.86
555.077	7.88
555.42	7.89
555.764	7.98
556.107	8.1
556.45	7.88
556.793	8.03
557.135	8.18
557.478	7.94
557.821	8.31
558.164	8.33
558.507	8.24
558.849	8.08
559.192	8.23
559.534	8.38
559.877	8.37
560.219	8.33
560.562	8.18
560.904	8.27
561.246	8.63
561.589	8.33
561.931	8.3
562.273	8.19
562.615	8.21
562.957	8.38
563.299	8.49
563.641	8.43
563.983	8.63
564.325	8.58
564.667	8.63
565.008	8.47
565.35	8.47
565.692	8.5
566.033	8.49
566.375	8.66
566.716	8.76
567.058	8.72
567.399	8.53
567.741	8.9
568.082	8.73
568.423	8.75
568.764	8.97
569.105	8.58
569.447	8.73
569.788	8.68
570.129	8.8
570.47	8.9
570.811	8.92
571.151	9.01
571.492	8.92
571.833	8.9
572.174	8.98
572.514	8.97
572.855	9
573.195	8.99
573.536	9.04
573.876	9.08
574.217	8.99
574.557	8.97
574.898	9.1
575.238	9.15
575.578	9.22
575.918	9.17
576.258	9.05
576.598	9.24
576.938	9.51
577.278	9.37
577.618	9.11
577.958	9.42
578.298	9.54
578.638	9.15
578.977	9.4
579.317	9.43
579.657	9.36
579.996	9.47
580.336	9.6
580.675	9.7
581.014	9.51
581.354	9.6
581.693	9.61
582.032	9.75
582.372	9.92
582.711	9.84
583.05	9.98
583.389	9.82
583.728	9.86
584.067	10.02
584.406	9.9
584.745	9.67
585.083	10.06
585.422	10.08
585.761	10
586.1	9.87
586.438	9.78
586.777	10.2
587.115	10.07
587.454	10.19
587.792	10.47
588.13	10.27
588.469	10.25
588.807	10.19
589.145	10.48
589.483	10.18
589.821	10.27
590.159	10.22
590.497	10.59
590.835	10.41
591.173	10.43
591.511	10.43
591.849	10.42
592.187	10.66
592.524	10.67
592.862	10.41
593.2	10.46
593.537	10.49
593.875	10.41
594.212	10.32
594.55	10.91
594.887	10.46
595.224	10.84
595.561	10.77
595.899	11.12
596.236	11.1
596.573	10.86
596.91	10.93
597.247	11.01
597.584	11
597.921	11.01
598.258	11.03
598.594	11.1
598.931	10.84
599.268	11.1
599.604	10.94
599.941	11.12
600.277	10.97
600.614	11.02
600.95	11.12
601.287	11.11
601.623	10.98
601.959	11.2
602.296	11.33
602.632	11.32
602.968	11.13
603.304	11.55
603.64	11.41
603.976	11.63
604.312	11.36
604.648	11.54
604.984	11.6
605.319	11.68
605.655	11.52
605.991	11.46
606.326	11.63
606.662	11.54
606.998	11.47
607.333	11.71
607.668	11.62
608.004	11.85
608.339	11.61
608.674	11.87
609.01	11.96
609.345	11.77
609.68	12.17
610.015	12.1
610.35	12.07
610.685	12.2
611.02	11.98
611.355	12.31
611.689	11.97
612.024	12.24
612.359	12.12
612.694	12.17
613.028	12.31
613.363	11.82
613.697	12.22
614.032	12.46
614.366	12.2
614.7	12.45
615.035	12.2
615.369	12.22
615.703	12.68
616.037	12.59
616.371	12.51
616.705	12.8
617.039	12.81
617.373	12.6
617.707	12.74
618.041	12.73
618.375	12.88
618.709	12.76
619.042	12.68
619.376	12.94
619.71	12.77
620.043	12.48
620.377	12.23
620.71	12.79
621.043	12.88
621.377	12.85
621.71	13.04
622.043	12.94
622.376	13.43
622.709	13.05
623.043	12.84
623.376	13.39
623.709	13.41
624.041	13.02
624.374	13.41
624.707	13.66
625.04	13.65
625.373	13.26
625.705	13.61
626.038	13.59
626.37	13.68
626.703	13.27
627.035	13.54
627.368	13.56
627.7	13.9
628.032	14.08
628.365	14.04
628.697	13.7
629.029	13.71
629.361	13.83
629.693	13.73
630.025	13.82
630.357	13.56
630.689	13.62
631.021	13.79
631.353	13.83
631.684	13.67
632.016	14.43
632.348	13.97
632.679	13.77
633.011	14.1
633.342	14.43
633.674	14.45
634.005	13.98
634.336	14.16
634.668	14.46
634.999	14.58
635.33	14.12
635.661	14.43
635.992	14.26
636.323	14.37
636.654	14.35
636.985	14.07
637.316	14.3
637.647	14.55
637.977	14.03
638.308	14.65
638.639	14.32
638.969	14.91
639.3	15.07
639.63	14.93
639.961	14.19
640.291	14.55
640.622	14.98
640.952	14.99
641.282	15.1
641.612	15.06
641.943	14.57
642.273	15.07
642.603	14.7
642.933	15.07
643.263	14.62
643.592	15
643.922	15.68
644.252	15.39
644.582	15.33
644.911	14.8
645.241	15.33
645.571	15.33
645.9	15.24
646.23	15.59
646.559	15.1
646.888	15.61
647.218	15.66
647.547	15.65
647.876	15.52
648.205	15.24
648.534	15.67
648.863	15.58
649.192	15.09
649.521	15.87
649.85	16.13
650.179	15.61
650.508	15.96
650.837	16.49
651.165	15.85
651.494	15.71
651.822	15.65
652.151	15.95
652.479	15.49
652.808	15.74
653.136	15.96
653.465	16.24
653.793	15.67
654.121	16.14
654.449	15.95
654.777	16.14
655.105	16.49
655.433	16.71
655.761	16.54
656.089	16.68
656.417	16.39
656.745	16.12
657.073	16.36
657.4	16.71
657.728	16.25
658.056	16.38
658.383	16.56
658.711	16.91
659.038	16.27
659.365	16.52
659.693	16.31
660.02	16.7
660.347	16.98
660.674	16.63
661.001	16.62
661.329	16.84
661.656	16.97
661.982	16.58
662.309	16.79
662.636	16.98
662.963	16.58
663.29	16.96
663.616	16.97
663.943	16.81
664.27	17.08
664.596	16.78
664.923	16.57
665.249	17.13
665.576	16.88
665.902	17.03
666.228	17.02
666.554	16.75
666.881	17.42
667.207	17.32
667.533	17.67
667.859	17.37
668.185	17.74
668.511	17.78
668.837	17.34
669.162	17.42
669.488	17.2
669.814	16.95
670.139	17.49
670.465	17.92
670.791	17.85
671.116	17.89
671.442	18.12
671.767	17.32
672.092	18.27
672.418	18.4
672.743	17.98
673.068	18.33
673.393	17.89
673.718	18.41
674.043	18.35
674.368	18.22
674.693	17.71
675.018	18.01
675.343	17.95
675.667	18.94
675.992	17.94
676.317	18.59
676.641	18.3
676.966	18.37
677.29	17.41
677.615	18.8
677.939	18.3
678.264	18.27
678.588	18.79
678.912	18.8
679.236	19.21
679.56	18.68
679.885	18.66
680.209	19.88
680.532	18.47
680.856	17.96
681.18	19.36
681.504	18.64
681.828	19.14
682.152	19.03
682.475	19.22
682.799	18.74
683.122	18.64
683.446	18.72
683.769	19.25
684.093	19.18
684.416	19.2
684.739	19.17
685.062	19.58
685.386	18.82
685.709	18.27
686.032	19
686.355	18.98
