Data from 0160_forehead_Reflection__4__110.txt Node

Date: Fri Sep 22 21:10:21 CDT 2023
User: ToomeyLab
Spectrometer: FLMS14357
Trigger mode: 0
Integration Time (sec): 1.000000E-2
Scans to average: 100
Electric dark correction enabled: true
Nonlinearity correction enabled: false
Boxcar width: 0
XAxis mode: Wavelengths
Number of Pixels in Spectrum: 2048
>>>>>Begin Spectral Data<<<<<
189.047	69.79
189.435	69.79
189.823	69.79
190.211	209.27
190.599	-83.9
190.987	99.74
191.375	-30.43
191.763	74.46
192.151	38.93
192.538	-584.4
192.926	81.26
193.314	0.52
193.702	50.91
194.089	106.26
194.477	-41.66
194.864	34.28
195.252	177.01
195.639	11.13
196.027	1158.54
196.414	129.48
196.801	41.51
197.189	-79.29
197.576	193.33
197.963	1457.89
198.351	62.74
198.738	56.07
199.125	36.38
199.512	109.68
199.899	51.06
200.286	32.88
200.673	27.54
201.06	23.14
201.447	56.98
201.833	-3.2
202.22	65.15
202.607	102.69
202.994	48.2
203.38	79.08
203.767	12.63
204.154	61.4
204.54	57.15
204.927	54.42
205.313	56
205.699	41.23
206.086	86.7
206.472	61.26
206.858	59.77
207.245	38.22
207.631	80.1
208.017	20.14
208.403	89.51
208.789	53.57
209.175	76.5
209.561	32.31
209.947	62.9
210.333	27.81
210.719	56.3
211.105	27.18
211.491	38.96
211.876	63.8
212.262	80.11
212.648	25.03
213.034	52.94
213.419	34.97
213.805	24.82
214.19	45.24
214.576	57.96
214.961	61.69
215.346	12.79
215.732	48.76
216.117	39.1
216.502	52.32
216.888	67.88
217.273	34.21
217.658	12.25
218.043	62.94
218.428	61.64
218.813	6.07
219.198	26.77
219.583	44.72
219.968	18.64
220.353	37.85
220.738	39.58
221.122	26.38
221.507	20.48
221.892	12.93
222.276	27.94
222.661	4.25
223.046	32.98
223.43	27.16
223.815	7.74
224.199	18.54
224.583	12.93
224.968	25.13
225.352	11.01
225.736	18.64
226.121	19.27
226.505	20.21
226.889	10.2
227.273	5.81
227.657	21.4
228.041	9.91
228.425	14.67
228.809	8.52
229.193	9.09
229.577	10.09
229.961	8.95
230.344	7.6
230.728	5.17
231.112	5.8
231.495	5.3
231.879	5.18
232.263	5.63
232.646	7.33
233.03	5.63
233.413	6.68
233.797	7.12
234.18	6.21
234.563	8.39
234.946	8.94
235.33	5.31
235.713	1.86
236.096	6.63
236.479	6.17
236.862	7.66
237.245	6.56
237.628	6.69
238.011	7.58
238.394	7.3
238.777	8.35
239.16	6.65
239.543	8.76
239.925	7.99
240.308	7.22
240.691	6.1
241.073	8.19
241.456	6.89
241.838	5.46
242.221	5.6
242.603	6.3
242.986	5.39
243.368	4.84
243.75	4.98
244.133	5.33
244.515	5.01
244.897	4.25
245.279	4.49
245.661	3.93
246.043	5.66
246.425	3.89
246.807	4.87
247.189	4.61
247.571	5.5
247.953	5.52
248.335	4.95
248.717	4.86
249.098	4.46
249.48	4.29
249.862	4.36
250.243	4.4
250.625	4.68
251.006	4.13
251.388	4.67
251.769	5.15
252.151	3.79
252.532	5.75
252.913	5.52
253.295	5.99
253.676	5.49
254.057	5.25
254.438	5.31
254.819	4.4
255.2	4.89
255.581	4.49
255.962	5.33
256.343	4.96
256.724	4.49
257.105	4.61
257.486	5.97
257.867	5.26
258.247	6.37
258.628	4.86
259.009	4.76
259.389	5.61
259.77	5.32
260.15	5.93
260.531	4.82
260.911	4.12
261.292	4.58
261.672	4.51
262.052	4.32
262.432	4.24
262.813	4.39
263.193	4.22
263.573	4.85
263.953	4.45
264.333	4.59
264.713	4.93
265.093	4.73
265.473	4.72
265.853	4.69
266.233	4.93
266.612	5.7
266.992	5.1
267.372	5.22
267.752	4.42
268.131	4.92
268.511	4.19
268.89	4.74
269.27	4.16
269.649	4.37
270.029	4.23
270.408	4.84
270.787	4.99
271.167	4.46
271.546	4.16
271.925	4.97
272.304	4.53
272.683	4.71
273.062	5.61
273.441	5.26
273.82	4.81
274.199	4.61
274.578	4.49
274.957	4.21
275.336	4.25
275.715	4.38
276.093	4.27
276.472	4.09
276.851	4.37
277.229	4.01
277.608	4.69
277.986	4.2
278.365	4.39
278.743	5.39
279.122	5.03
279.5	4.88
279.878	3.98
280.257	4.73
280.635	4.84
281.013	4.79
281.391	4.25
281.769	4.5
282.147	4.53
282.525	4.4
282.903	4.37
283.281	4.71
283.659	4.95
284.037	4.36
284.415	4.51
284.792	4.03
285.17	4.85
285.548	4.9
285.925	4.52
286.303	4.61
286.68	4.1
287.058	4.5
287.435	4.1
287.813	4.52
288.19	3.89
288.567	4.53
288.945	4.11
289.322	4.4
289.699	4.58
290.076	4.35
290.453	3.97
290.83	3.9
291.207	4.62
291.584	4.11
291.961	3.91
292.338	4.56
292.715	4.66
293.092	4.16
293.469	4.22
293.845	4.5
294.222	4.91
294.599	5.2
294.975	5.06
295.352	5.19
295.728	4.65
296.105	5.19
296.481	4.69
296.858	4.9
297.234	4.93
297.61	5.32
297.986	4.78
298.363	4.7
298.739	4.47
299.115	5.02
299.491	4.55
299.867	4.59
300.243	4.73
300.619	5.16
300.995	4.85
301.371	4.89
301.746	5.08
302.122	5.15
302.498	4.79
302.874	5.42
303.249	4.93
303.625	5.07
304	5.85
304.376	5.54
304.751	5.48
305.127	5.26
305.502	5.69
305.878	5.62
306.253	5.63
306.628	5.36
307.003	5.72
307.378	5.56
307.754	5.41
308.129	5.51
308.504	5.61
308.879	5.58
309.254	5.87
309.629	5.78
310.003	6.43
310.378	6.08
310.753	6.16
311.128	5.96
311.502	5.96
311.877	5.62
312.252	6.01
312.626	5.87
313.001	6.22
313.375	5.79
313.75	6.38
314.124	6.13
314.498	5.8
314.873	5.96
315.247	6.69
315.621	6.34
315.995	6.34
316.369	6.5
316.743	6.22
317.117	6.69
317.491	6.92
317.865	6.07
318.239	6.34
318.613	6.82
318.987	6.79
319.361	6.72
319.734	6.6
320.108	7.43
320.482	7.08
320.855	7.09
321.229	7.36
321.602	6.64
321.976	6.91
322.349	7.1
322.723	8.12
323.096	6.9
323.469	7.2
323.843	7.5
324.216	7.47
324.589	7.3
324.962	7.63
325.335	7.31
325.708	7.72
326.081	7.86
326.454	7.1
326.827	7.77
327.2	7.45
327.573	7.98
327.945	7.59
328.318	8.49
328.691	8.04
329.063	7.44
329.436	7.8
329.809	8.37
330.181	8.33
330.553	8.09
330.926	8.13
331.298	8.64
331.671	8.51
332.043	7.86
332.415	8.29
332.787	9.26
333.159	8.24
333.532	8.35
333.904	8.19
334.276	8.52
334.648	8.3
335.02	8.05
335.391	9.1
335.763	8.92
336.135	9.12
336.507	8.7
336.879	9.11
337.25	9.73
337.622	9.19
337.993	9.26
338.365	9.35
338.736	8.87
339.108	9.16
339.479	8.87
339.851	9.5
340.222	9
340.593	9.33
340.964	8.62
341.336	9.4
341.707	9.42
342.078	9.87
342.449	9.5
342.82	9.28
343.191	9.05
343.562	9.56
343.933	9.61
344.303	10.06
344.674	10.01
345.045	9.8
345.416	10.29
345.786	9.93
346.157	10.09
346.527	9.71
346.898	9.97
347.268	10.01
347.639	10.08
348.009	10.23
348.38	10.16
348.75	10.49
349.12	10.48
349.49	11.07
349.861	10.2
350.231	10.73
350.601	10.38
350.971	10.92
351.341	10.8
351.711	10.39
352.081	10.18
352.45	10.73
352.82	10.96
353.19	11.02
353.56	10.98
353.929	11.09
354.299	11.13
354.669	10.7
355.038	11.25
355.408	11.05
355.777	11.31
356.147	11.22
356.516	11.36
356.885	11.43
357.254	11.68
357.624	11.1
357.993	11.71
358.362	11.55
358.731	11.28
359.1	11.39
359.469	11.86
359.838	11.47
360.207	11.55
360.576	11.7
360.945	11.63
361.314	11.79
361.682	12.09
362.051	12.36
362.42	12
362.788	11.8
363.157	12.1
363.525	12.03
363.894	11.82
364.262	11.93
364.631	12.21
364.999	12.18
365.367	12.51
365.735	12.22
366.104	12.7
366.472	12.84
366.84	12.6
367.208	12.86
367.576	12.87
367.944	12.72
368.312	13.06
368.68	12.96
369.048	13.09
369.416	12.98
369.783	12.98
370.151	13.25
370.519	13.46
370.886	13.35
371.254	13.61
371.621	13.46
371.989	13.44
372.356	13.04
372.724	14.08
373.091	13.83
373.458	13.75
373.826	14.03
374.193	14.22
374.56	13.86
374.927	13.99
375.294	13.56
375.661	14.09
376.028	14.31
376.395	14.47
376.762	14.26
377.129	14.38
377.496	14.74
377.863	14.66
378.229	14.45
378.596	14.56
378.963	14.87
379.329	14.74
379.696	14.98
380.062	14.39
380.429	14.75
380.795	14.84
381.161	14.29
381.528	15.01
381.894	14.6
382.26	15.33
382.626	15.21
382.993	15.31
383.359	15.19
383.725	15.34
384.091	15.63
384.457	15.42
384.823	15.43
385.188	15.69
385.554	15.61
385.92	16.16
386.286	15.94
386.651	15.91
387.017	16.03
387.383	15.85
387.748	15.94
388.114	16.32
388.479	16.06
388.845	16.07
389.21	16.13
389.575	16.46
389.94	15.94
390.306	16.4
390.671	16.68
391.036	16.53
391.401	16.76
391.766	16.59
392.131	16.69
392.496	17.02
392.861	17.13
393.226	16.98
393.591	16.81
393.956	16.94
394.32	16.91
394.685	17.04
395.05	17.2
395.414	17.35
395.779	17.44
396.143	17.12
396.508	17.47
396.872	17.4
397.236	17.42
397.601	17.39
397.965	17.91
398.329	17.77
398.694	17.73
399.058	17.88
399.422	17.92
399.786	17.86
400.15	18.03
400.514	18.17
400.878	18.07
401.242	18.37
401.605	18.48
401.969	18.13
402.333	18.54
402.697	18.72
403.06	18.6
403.424	18.58
403.787	18.75
404.151	18.58
404.514	19.03
404.878	18.95
405.241	19.18
405.604	18.82
405.968	19.12
406.331	18.9
406.694	19.2
407.057	19.03
407.42	19.42
407.783	19.3
408.146	19.4
408.509	19.28
408.872	19.45
409.235	19.54
409.598	19.74
409.961	19.98
410.323	19.88
410.686	19.59
411.049	19.97
411.411	20.26
411.774	19.95
412.136	20.2
412.499	20.01
412.861	20.21
413.223	20.42
413.586	20.24
413.948	20.33
414.31	20.39
414.672	20.78
415.035	20.62
415.397	20.75
415.759	20.99
416.121	20.8
416.483	21.38
416.845	20.9
417.206	20.92
417.568	20.85
417.93	20.98
418.292	21.2
418.653	20.89
419.015	21.26
419.377	21.25
419.738	21.25
420.1	21.13
420.461	21.17
420.822	21.2
421.184	21.51
421.545	21.3
421.906	21.29
422.267	21.28
422.629	21.27
422.99	21.36
423.351	21.26
423.712	21.38
424.073	21.37
424.434	21.72
424.795	21.67
425.155	21.71
425.516	21.75
425.877	21.69
426.238	21.78
426.598	21.84
426.959	21.99
427.32	22.1
427.68	22.12
428.041	22.15
428.401	22.24
428.761	22.68
429.122	22.64
429.482	22.75
429.842	23.07
430.202	23.1
430.563	23.11
430.923	23.55
431.283	23.07
431.643	23.39
432.003	23.59
432.363	23.43
432.722	23.52
433.082	23.62
433.442	23.64
433.802	23.94
434.161	23.91
434.521	23.88
434.881	23.98
435.24	23.73
435.6	23.73
435.959	23.73
436.319	24.14
436.678	24.1
437.037	24.18
437.396	24.06
437.756	24.29
438.115	24.36
438.474	24.45
438.833	24.82
439.192	24.7
439.551	24.48
439.91	24.8
440.269	24.86
440.628	24.66
440.987	24.9
441.345	24.76
441.704	24.87
442.063	24.86
442.421	24.66
442.78	24.77
443.138	24.94
443.497	24.94
443.855	25.03
444.214	25.13
444.572	25.36
444.93	25.49
445.288	25.61
445.647	25.6
446.005	25.82
446.363	25.67
446.721	25.64
447.079	25.59
447.437	25.76
447.795	25.68
448.153	25.66
448.51	25.63
448.868	25.67
449.226	25.75
449.584	25.71
449.941	25.8
450.299	26.08
450.656	26.1
451.014	26.48
451.371	26.48
451.729	26.41
452.086	26.73
452.443	26.76
452.801	26.99
453.158	27.01
453.515	26.98
453.872	27.04
454.229	27.14
454.586	27.21
454.943	27.12
455.3	27.3
455.657	27.34
456.014	27.35
456.371	27.46
456.727	27.84
457.084	27.82
457.441	27.58
457.797	27.94
458.154	27.83
458.51	28.12
458.867	28.13
459.223	28.11
459.58	28.28
459.936	28.1
460.292	28.22
460.648	28.38
461.005	28.17
461.361	28.06
461.717	27.94
462.073	27.82
462.429	27.71
462.785	27.92
463.141	28.09
463.496	28.42
463.852	28.58
464.208	28.74
464.564	29.01
464.919	28.94
465.275	29.42
465.631	29.24
465.986	29.28
466.342	29.4
466.697	29.36
467.052	29.6
467.408	29.65
467.763	29.4
468.118	29.74
468.473	29.66
468.829	29.68
469.184	29.95
469.539	29.65
469.894	29.77
470.249	29.76
470.603	29.98
470.958	30.13
471.313	30.19
471.668	30.35
472.023	30.4
472.377	30.33
472.732	30.17
473.086	30.6
473.441	30.46
473.795	30.88
474.15	30.68
474.504	30.7
474.859	31.03
475.213	30.74
475.567	30.65
475.921	31.07
476.275	30.87
476.63	31.04
476.984	31
477.338	31.32
477.692	31.12
478.045	31.39
478.399	31.58
478.753	31.31
479.107	31.28
479.461	31.34
479.814	31.31
480.168	31.45
480.521	31.54
480.875	31.74
481.228	31.81
481.582	31.86
481.935	32.05
482.289	31.77
482.642	31.78
482.995	32.02
483.348	31.78
483.701	32.01
484.055	31.8
484.408	31.74
484.761	31.6
485.114	31.23
485.466	31.06
485.819	30.81
486.172	30.7
486.525	30.81
486.878	30.92
487.23	31.1
487.583	31.23
487.936	31.61
488.288	31.77
488.641	31.8
488.993	31.89
489.345	31.53
489.698	31.46
490.05	31.48
490.402	31.6
490.754	31.69
491.107	31.85
491.459	32.16
491.811	32.56
492.163	32.66
492.515	32.85
492.866	32.91
493.218	32.78
493.57	32.54
493.922	32.27
494.274	32.38
494.625	32.48
494.977	32.71
495.328	33.1
495.68	33.27
496.031	33.77
496.383	33.86
496.734	34.16
497.086	34.28
497.437	34.2
497.788	34.44
498.139	34.56
498.49	34.37
498.842	34.27
499.193	33.92
499.544	34.2
499.894	34.29
500.245	34.29
500.596	34.55
500.947	34.73
501.298	34.69
501.648	34.81
501.999	34.93
502.35	35.05
502.7	35.22
503.051	35.29
503.401	35.41
503.752	35.38
504.102	35.62
504.452	35.43
504.803	35.68
505.153	35.68
505.503	35.83
505.853	35.72
506.203	35.58
506.553	35.85
506.903	35.86
507.253	35.65
507.603	35.84
507.953	35.91
508.303	36.13
508.652	35.91
509.002	36.32
509.352	36.19
509.701	36.4
510.051	36.26
510.4	36.36
510.75	36.07
511.099	36.15
511.449	36.19
511.798	36.42
512.147	36.39
512.496	36.33
512.846	36.31
513.195	36.65
513.544	36.63
513.893	36.56
514.242	36.7
514.591	36.91
514.939	36.88
515.288	36.7
515.637	36.81
515.986	36.85
516.334	37.11
516.683	37.07
517.032	37.48
517.38	37.38
517.729	37.54
518.077	37.5
518.426	37.34
518.774	37.57
519.122	37.66
519.47	37.52
519.819	37.48
520.167	37.3
520.515	37.11
520.863	37.03
521.211	37.01
521.559	37
521.907	37.3
522.255	37.56
522.602	37.72
522.95	37.83
523.298	37.93
523.645	38.17
523.993	38.24
524.341	38.33
524.688	38.34
525.036	38.43
525.383	38.77
525.73	38.59
526.078	38.55
526.425	38.27
526.772	38.65
527.119	38.36
527.466	38.21
527.814	37.77
528.161	38.01
528.508	38.19
528.854	38.22
529.201	38.12
529.548	38.04
529.895	38.04
530.242	37.96
530.588	37.44
530.935	37.42
531.282	37.6
531.628	37.78
531.975	37.72
532.321	37.91
532.667	38.2
533.014	38.52
533.36	38.77
533.706	38.78
534.052	38.92
534.399	39.06
534.745	38.9
535.091	38.88
535.437	38.38
535.783	38.57
536.129	38.63
536.474	38.78
536.82	38.86
537.166	39.35
537.512	39.46
537.857	39.66
538.203	39.63
538.549	39.55
538.894	39.35
539.239	39.5
539.585	39.45
539.93	39.76
540.276	39.81
540.621	40.03
540.966	40.29
541.311	40.66
541.656	40.66
542.001	40.61
542.346	40.39
542.691	40.46
543.036	39.98
543.381	39.54
543.726	39.5
544.071	39.54
544.415	39.62
544.76	39.75
545.105	40.21
545.449	40.22
545.794	40.45
546.138	40.51
546.483	40.64
546.827	40.81
547.171	40.93
547.516	41.3
547.86	41.24
548.204	41.22
548.548	41.15
548.892	41.19
549.236	41.16
549.58	41.17
549.924	41.47
550.268	41.6
550.612	41.68
550.956	42.09
551.3	42.16
551.643	42.31
551.987	42.4
552.33	42.66
552.674	42.61
553.017	42.76
553.361	42.48
553.704	42.66
554.048	42.59
554.391	42.68
554.734	42.66
555.077	42.6
555.42	42.73
555.764	42.64
556.107	42.89
556.45	42.96
556.793	43.12
557.135	43.07
557.478	43.15
557.821	43.3
558.164	43.53
558.507	43.22
558.849	43.35
559.192	43.59
559.534	43.72
559.877	43.74
560.219	43.56
560.562	43.67
560.904	43.83
561.246	44.05
561.589	43.8
561.931	44
562.273	43.71
562.615	43.67
562.957	43.98
563.299	44.3
563.641	43.98
563.983	44.29
564.325	44.18
564.667	44.4
565.008	44.39
565.35	44.31
565.692	44.38
566.033	44.31
566.375	44.39
566.716	44.46
567.058	44.6
567.399	44.45
567.741	44.58
568.082	44.63
568.423	44.43
568.764	44.29
569.105	44.19
569.447	44.43
569.788	44.5
570.129	44.56
570.47	44.9
570.811	44.7
571.151	44.95
571.492	44.84
571.833	44.89
572.174	45.05
572.514	44.95
572.855	44.96
573.195	45.29
573.536	45.28
573.876	45.18
574.217	44.97
574.557	45.15
574.898	44.95
575.238	45.05
575.578	45.52
575.918	45.21
576.258	45.53
576.598	45.76
576.938	45.48
577.278	45.62
577.618	45.41
577.958	45.51
578.298	45.61
578.638	45.66
578.977	45.82
579.317	45.92
579.657	46.21
579.996	46.09
580.336	46.12
580.675	46.39
581.014	46.36
581.354	46.25
581.693	46.48
582.032	46.72
582.372	46.67
582.711	46.75
583.05	46.97
583.389	46.87
583.728	47.02
584.067	47.22
584.406	47.26
584.745	46.88
585.083	47.13
585.422	47.23
585.761	47.22
586.1	47.12
586.438	47.13
586.777	47.28
587.115	47.06
587.454	47.54
587.792	47.38
588.13	47.64
588.469	47.24
588.807	47.89
589.145	47.45
589.483	47.52
589.821	47.68
590.159	47.63
590.497	47.57
590.835	47.79
591.173	47.86
591.511	47.62
591.849	47.89
592.187	48.22
592.524	48.04
592.862	47.75
593.2	47.54
593.537	47.89
593.875	47.75
594.212	47.98
594.55	48.43
594.887	48.21
595.224	48.28
595.561	48.58
595.899	48.42
596.236	48.55
596.573	48.05
596.91	48.54
597.247	48.11
597.584	48.63
597.921	48.14
598.258	48.73
598.594	48.31
598.931	48.29
599.268	48.09
599.604	48.4
599.941	48.17
600.277	47.97
600.614	48.29
600.95	48.82
601.287	48.73
601.623	48.87
601.959	48.83
602.296	48.99
602.632	48.82
602.968	48.85
603.304	49.19
603.64	49.03
603.976	49.19
604.312	49.2
604.648	49.13
604.984	48.87
605.319	49
605.655	48.98
605.991	49.34
606.326	49.31
606.662	48.7
606.998	48.76
607.333	49.11
607.668	49.14
608.004	49.26
608.339	49.21
608.674	49.14
609.01	49.44
609.345	49.84
609.68	50.22
610.015	49.69
610.35	49.76
610.685	49.72
611.02	49.89
611.355	49.76
611.689	49.53
612.024	49.5
612.359	49.76
612.694	49.79
613.028	50.09
613.363	50.14
613.697	49.89
614.032	49.98
614.366	50.23
614.7	50.4
615.035	50.17
615.369	50.78
615.703	50.78
616.037	50.74
616.371	50.87
616.705	50.8
617.039	50.96
617.373	50.85
617.707	50.66
618.041	50.8
618.375	50.64
618.709	51.1
619.042	51.08
619.376	50.97
619.71	51.37
620.043	51.55
620.377	50.67
620.71	51.02
621.043	51.2
621.377	51.04
621.71	51.62
622.043	51.48
622.376	51.91
622.709	51.54
623.043	51.46
623.376	51.49
623.709	51.79
624.041	51.55
624.374	52.11
624.707	51.8
625.04	51.76
625.373	51.41
625.705	51.88
626.038	52.03
626.37	52.04
626.703	51.49
627.035	52.28
627.368	51.52
627.7	51.91
628.032	51.92
628.365	51.99
628.697	51.7
629.029	51.55
629.361	52.15
629.693	51.64
630.025	51.64
630.357	51.65
630.689	52.14
631.021	52.15
631.353	51.53
631.684	52.18
632.016	52.84
632.348	52.45
632.679	52.37
633.011	52.69
633.342	52.43
633.674	52.83
634.005	52.24
634.336	52.83
634.668	52.53
634.999	53.2
635.33	52.79
635.661	52.71
635.992	52.5
636.323	52.66
636.654	52.42
636.985	52.69
637.316	52.79
637.647	52.77
637.977	52.44
638.308	52.91
638.639	52.94
638.969	53.3
639.3	53.08
639.63	53.44
639.961	53.25
640.291	53.31
640.622	52.95
640.952	53.56
641.282	53.25
641.612	53.67
641.943	53.21
642.273	53.73
642.603	53.51
642.933	53.26
643.263	53.07
643.592	52.78
643.922	54.22
644.252	53.96
644.582	54.39
644.911	53.85
645.241	53.83
645.571	53.71
645.9	54.04
646.23	54.52
646.559	53.96
646.888	54.62
647.218	54.01
647.547	53.77
647.876	54.09
648.205	53.99
648.534	54.54
648.863	53.87
649.192	53.93
649.521	54.79
649.85	54.68
650.179	54.52
650.508	54.33
650.837	54.01
651.165	54.77
651.494	54.14
651.822	54.85
652.151	54.64
652.479	54.4
652.808	54.41
653.136	55.03
653.465	54.82
653.793	54.16
654.121	54.94
654.449	54.44
654.777	54.94
655.105	55.21
655.433	54.46
655.761	55.14
656.089	54.79
656.417	54.46
656.745	55.18
657.073	54.65
657.4	55.66
657.728	54.6
658.056	54.67
658.383	55.82
658.711	55.53
659.038	55.47
659.365	55.09
659.693	54.84
660.02	55.45
660.347	55.33
660.674	55.28
661.001	54.92
661.329	55.35
661.656	55.38
661.982	54.89
662.309	55.09
662.636	55.47
662.963	54.88
663.29	55.29
663.616	55.73
663.943	55.53
664.27	55.76
664.596	55.34
664.923	55.68
665.249	55.08
665.576	55.11
665.902	55.71
666.228	55.71
666.554	56.17
666.881	56.73
667.207	55.99
667.533	56.3
667.859	55.94
668.185	55.96
668.511	55.94
668.837	55.37
669.162	55.99
669.488	56.24
669.814	56.3
670.139	56.17
670.465	56.07
670.791	55.53
671.116	55.72
