Data from 22-2_chest_Reflection__3__229.txt Node

Date: Thu Dec 15 18:16:20 CST 2022
User: ToomeyLab
Spectrometer: FLMS14357
Trigger mode: 0
Integration Time (sec): 1.000000E-2
Scans to average: 100
Electric dark correction enabled: true
Nonlinearity correction enabled: false
Boxcar width: 0
XAxis mode: Wavelengths
Number of Pixels in Spectrum: 2048
>>>>>Begin Spectral Data<<<<<
189.047	42.26
189.435	42.26
189.823	42.26
190.211	190.43
190.599	14.94
190.987	6.37
191.375	-128.25
191.763	-207.29
192.151	121.41
192.538	41.12
192.926	18.26
193.314	17.44
193.702	-2.15
194.089	106.05
194.477	2593.1
194.864	110.32
195.252	18.18
195.639	172.88
196.027	-25.32
196.414	-129.34
196.801	12189.09
197.189	362.7
197.576	-1010.53
197.963	155.42
198.351	14.97
198.738	-8.07
199.125	-109.79
199.512	-0.59
199.899	-16.18
200.286	-16.79
200.673	32.43
201.06	-13.56
201.447	13.53
201.833	-31.75
202.22	-22.77
202.607	44.51
202.994	-28.16
203.38	-6.27
203.767	-2.88
204.154	0.36
204.54	-2.58
204.927	-10.57
205.313	-9.68
205.699	39.05
206.086	19.09
206.472	16.78
206.858	6.98
207.245	1.09
207.631	1
208.017	34.9
208.403	-122
208.789	18.97
209.175	3.33
209.561	-228.48
209.947	-2.78
210.333	-8.57
210.719	22.95
211.105	24.1
211.491	-5.55
211.876	-43.16
212.262	4.89
212.648	5.61
213.034	-14.7
213.419	-6.11
213.805	-60.96
214.19	-22.28
214.576	1.37
214.961	4.68
215.346	-39.73
215.732	-20.81
216.117	6.48
216.502	-19.02
216.888	-15.84
217.273	5.46
217.658	-5.06
218.043	-18.22
218.428	-5.44
218.813	7.67
219.198	-33.81
219.583	-15.08
219.968	13.33
220.353	-24.32
220.738	-21.2
221.122	-12.91
221.507	-16.05
221.892	-16.92
222.276	-23.31
222.661	-5.64
223.046	-0.96
223.43	-0.25
223.815	0.17
224.199	7.29
224.583	-6.61
224.968	-9.32
225.352	-10.06
225.736	9.85
226.121	4.98
226.505	-1.38
226.889	-0.13
227.273	0.3
227.657	2.1
228.041	3.55
228.425	-1.82
228.809	1.76
229.193	1.29
229.577	2.34
229.961	2.84
230.344	3.17
230.728	3.44
231.112	4.49
231.495	1.87
231.879	1.66
232.263	3.25
232.646	2.48
233.03	3.93
233.413	3.92
233.797	2.5
234.18	3.83
234.563	3.74
234.946	2.6
235.33	2.25
235.713	2.46
236.096	4.32
236.479	4.01
236.862	1.04
237.245	2.89
237.628	3.12
238.011	3.11
238.394	2.99
238.777	1.41
239.16	3.05
239.543	2.96
239.925	2.4
240.308	2.11
240.691	3.05
241.073	3.22
241.456	3.75
241.838	3.88
242.221	3.95
242.603	3.87
242.986	3.86
243.368	3.72
243.75	3.72
244.133	4.38
244.515	4.09
244.897	4.14
245.279	3.86
245.661	4.11
246.043	3.67
246.425	4.66
246.807	3.61
247.189	3.98
247.571	4.01
247.953	4.13
248.335	3.94
248.717	4.12
249.098	4.09
249.48	3.6
249.862	4.05
250.243	4.53
250.625	3.8
251.006	4.63
251.388	3.11
251.769	2.85
252.151	3.54
252.532	3.27
252.913	4.21
253.295	3.84
253.676	4.26
254.057	3.96
254.438	4.12
254.819	3.78
255.2	3.8
255.581	4.67
255.962	5.06
256.343	3.6
256.724	4.21
257.105	4.76
257.486	3.96
257.867	3.82
258.247	4.11
258.628	3.63
259.009	3.18
259.389	3.15
259.77	3.71
260.15	4.22
260.531	4.2
260.911	3.72
261.292	3.99
261.672	3.95
262.052	3.89
262.432	3.53
262.813	4.31
263.193	4.09
263.573	3.36
263.953	3.41
264.333	3.89
264.713	3.92
265.093	3.84
265.473	3.51
265.853	3.95
266.233	4.16
266.612	4.09
266.992	3.99
267.372	3.71
267.752	4.1
268.131	3.56
268.511	3.79
268.89	4.27
269.27	3.29
269.649	3.83
270.029	3.49
270.408	3.17
270.787	3.6
271.167	3.68
271.546	4.15
271.925	4.04
272.304	3.72
272.683	3.9
273.062	3.97
273.441	2.98
273.82	3.54
274.199	3.78
274.578	3.82
274.957	3.59
275.336	3.71
275.715	4.02
276.093	3.23
276.472	3.4
276.851	3.91
277.229	3.75
277.608	3.17
277.986	2.98
278.365	4.39
278.743	3.6
279.122	3.39
279.5	3.31
279.878	3.56
280.257	3.81
280.635	3.67
281.013	3.21
281.391	3.36
281.769	4.31
282.147	3.59
282.525	3.06
282.903	3.34
283.281	3.67
283.659	4.12
284.037	3.38
284.415	3.73
284.792	3.74
285.17	3.97
285.548	3.64
285.925	3.72
286.303	3.97
286.68	3.79
287.058	4.01
287.435	3.56
287.813	3.69
288.19	3.59
288.567	3.91
288.945	3.77
289.322	3.99
289.699	4.04
290.076	3.71
290.453	3.64
290.83	3.92
291.207	3.84
291.584	3.96
291.961	3.92
292.338	3.5
292.715	3.55
293.092	4.39
293.469	3.66
293.845	4.54
294.222	4.68
294.599	3.44
294.975	3.59
295.352	3.92
295.728	3.86
296.105	3.93
296.481	4.2
296.858	4.18
297.234	3.72
297.61	3.85
297.986	4.2
298.363	4.69
298.739	4.19
299.115	4.43
299.491	4.16
299.867	3.99
300.243	4.19
300.619	4.08
300.995	4.16
301.371	4.11
301.746	4.36
302.122	4.01
302.498	4.14
302.874	4.27
303.249	4.22
303.625	4.17
304	4.27
304.376	4.79
304.751	4.27
305.127	3.88
305.502	4.31
305.878	4.08
306.253	4.17
306.628	4.28
307.003	4.38
307.378	4.35
307.754	4.58
308.129	4.36
308.504	4.62
308.879	4.53
309.254	4.49
309.629	4.43
310.003	4.27
310.378	4.29
310.753	4.88
311.128	4.09
311.502	4.83
311.877	4.17
312.252	4.38
312.626	4.89
313.001	4.81
313.375	4.48
313.75	4.56
314.124	5.06
314.498	4.87
314.873	4.64
315.247	4.7
315.621	4.54
315.995	4.27
316.369	4.11
316.743	4.22
317.117	4.64
317.491	4.56
317.865	4.49
318.239	4.72
318.613	4.28
318.987	4.57
319.361	4.26
319.734	4.74
320.108	4.63
320.482	5.05
320.855	4.56
321.229	4.33
321.602	4.49
321.976	4.22
322.349	4.9
322.723	4.99
323.096	4.8
323.469	5.08
323.843	4.22
324.216	4.45
324.589	4.68
324.962	4.64
325.335	4.39
325.708	4.62
326.081	4.93
326.454	4.72
326.827	4.97
327.2	4.44
327.573	5.57
327.945	4.34
328.318	4.59
328.691	5.01
329.063	4.23
329.436	4.45
329.809	4.72
330.181	4.71
330.553	4.87
330.926	4.81
331.298	4.7
331.671	4.36
332.043	5
332.415	5.08
332.787	4.71
333.159	4.39
333.532	4.88
333.904	4.42
334.276	5.15
334.648	4.63
335.02	5.14
335.391	4.6
335.763	4.88
336.135	5.03
336.507	4.51
336.879	4.71
337.25	4.3
337.622	5.22
337.993	4.56
338.365	4.84
338.736	4.73
339.108	5.16
339.479	4.71
339.851	5.09
340.222	4.76
340.593	4.79
340.964	4.47
341.336	4.77
341.707	4.56
342.078	4.38
342.449	5.07
342.82	5.04
343.191	4.62
343.562	4.72
343.933	4.96
344.303	4.94
344.674	4.83
345.045	4.86
345.416	5.42
345.786	5
346.157	5
346.527	4.86
346.898	4.51
347.268	5.05
347.639	4.56
348.009	5.02
348.38	4.53
348.75	4.91
349.12	4.93
349.49	4.84
349.861	5.27
350.231	4.91
350.601	5.15
350.971	4.58
351.341	5.05
351.711	4.76
352.081	4.76
352.45	4.49
352.82	4.65
353.19	4.78
353.56	5.04
353.929	4.8
354.299	4.87
354.669	5.13
355.038	5
355.408	5.09
355.777	5.07
356.147	4.95
356.516	4.76
356.885	4.76
357.254	4.52
357.624	4.71
357.993	5
358.362	4.96
358.731	5.45
359.1	4.92
359.469	5.25
359.838	5.04
360.207	4.75
360.576	5.07
360.945	5.14
361.314	4.91
361.682	4.72
362.051	4.78
362.42	4.95
362.788	5.08
363.157	4.86
363.525	5.1
363.894	4.8
364.262	4.97
364.631	4.98
364.999	4.8
365.367	4.8
365.735	4.79
366.104	4.93
366.472	4.78
366.84	4.77
367.208	5.15
367.576	5.18
367.944	5.08
368.312	4.98
368.68	5.29
369.048	5.03
369.416	4.78
369.783	5.13
370.151	5.43
370.519	5.09
370.886	5.22
371.254	5.33
371.621	4.98
371.989	5.13
372.356	5.06
372.724	5.05
373.091	4.97
373.458	4.89
373.826	5.27
374.193	5.23
374.56	5.37
374.927	4.77
375.294	5.05
375.661	5.35
376.028	5.2
376.395	5.28
376.762	5.03
377.129	5.03
377.496	5.41
377.863	4.99
378.229	5.14
378.596	4.92
378.963	5.11
379.329	5.23
379.696	5.05
380.062	5.22
380.429	4.83
380.795	5.22
381.161	5.04
381.528	5.17
381.894	5.25
382.26	5.04
382.626	5.29
382.993	5.35
383.359	5.12
383.725	4.92
384.091	5.27
384.457	5.03
384.823	5.26
385.188	4.95
385.554	4.97
385.92	5.05
386.286	5.12
386.651	5.19
387.017	5.17
387.383	4.97
387.748	5.27
388.114	4.98
388.479	5.29
388.845	4.9
389.21	5.35
389.575	5.16
389.94	5.32
390.306	5.06
390.671	5.28
391.036	5.21
391.401	5.4
391.766	5.22
392.131	5.19
392.496	5.21
392.861	5.17
393.226	5.12
393.591	5.13
393.956	5.21
394.32	5.27
394.685	5.41
395.05	5.41
395.414	5.27
395.779	5.47
396.143	5.17
396.508	5.06
396.872	5.36
397.236	5.48
397.601	5.36
397.965	5.28
398.329	5.08
398.694	5.11
399.058	5.31
399.422	5.18
399.786	5.15
400.15	5.06
400.514	5.4
400.878	5.13
401.242	5.37
401.605	5.19
401.969	5.11
402.333	5.24
402.697	5.61
403.06	5.24
403.424	5.33
403.787	5.43
404.151	5.04
404.514	5.36
404.878	5
405.241	5.2
405.604	5.22
405.968	5.31
406.331	5.3
406.694	5.13
407.057	5.12
407.42	5.14
407.783	5.29
408.146	5.23
408.509	5.32
408.872	5.2
409.235	5.31
409.598	5.38
409.961	5.25
410.323	5.31
410.686	5.44
411.049	5.35
411.411	5.29
411.774	5.4
412.136	5.09
412.499	5.5
412.861	5.2
413.223	5.27
413.586	5.3
413.948	5.33
414.31	5.4
414.672	5.17
415.035	5.44
415.397	5.36
415.759	5.17
416.121	5.38
416.483	5.38
416.845	5.4
417.206	5.39
417.568	5.25
417.93	5.47
418.292	5.33
418.653	5.29
419.015	5.31
419.377	5.25
419.738	5.31
420.1	5.32
420.461	5.2
420.822	5.31
421.184	5.32
421.545	5.28
421.906	5.24
422.267	5.26
422.629	5.26
422.99	5.23
423.351	5.24
423.712	5.37
424.073	5.43
424.434	5.4
424.795	5.21
425.155	5.26
425.516	5.31
425.877	5.45
426.238	5.33
426.598	5.37
426.959	5.39
427.32	5.34
427.68	5.44
428.041	5.47
428.401	5.31
428.761	5.42
429.122	5.41
429.482	5.6
429.842	5.59
430.202	5.61
430.563	5.49
430.923	5.51
431.283	5.6
431.643	5.68
432.003	5.64
432.363	5.58
432.722	5.61
433.082	5.59
433.442	5.65
433.802	5.46
434.161	5.62
434.521	5.42
434.881	5.54
435.24	5.48
435.6	5.5
435.959	5.52
436.319	5.57
436.678	5.54
437.037	5.51
437.396	5.65
437.756	5.52
438.115	5.48
438.474	5.61
438.833	5.61
439.192	5.43
439.551	5.56
439.91	5.65
440.269	5.5
440.628	5.51
440.987	5.64
441.345	5.49
441.704	5.54
442.063	5.47
442.421	5.56
442.78	5.63
443.138	5.57
443.497	5.54
443.855	5.62
444.214	5.47
444.572	5.77
444.93	5.68
445.288	5.54
445.647	5.58
446.005	5.57
446.363	5.64
446.721	5.68
447.079	5.6
447.437	5.61
447.795	5.58
448.153	5.57
448.51	5.61
448.868	5.6
449.226	5.65
449.584	5.65
449.941	5.71
450.299	5.61
450.656	5.77
451.014	5.74
451.371	5.77
451.729	5.76
452.086	5.67
452.443	5.75
452.801	5.86
453.158	5.83
453.515	5.54
453.872	5.69
454.229	5.62
454.586	5.75
454.943	5.88
455.3	5.95
455.657	5.7
456.014	5.82
456.371	5.91
456.727	5.78
457.084	5.88
457.441	5.78
457.797	5.77
458.154	5.91
458.51	5.76
458.867	5.86
459.223	5.64
459.58	5.73
459.936	5.8
460.292	5.76
460.648	5.75
461.005	5.7
461.361	5.67
461.717	5.75
462.073	5.85
462.429	5.86
462.785	5.88
463.141	5.8
463.496	5.82
463.852	6
464.208	5.91
464.564	5.75
464.919	5.91
465.275	5.81
465.631	6.01
465.986	5.93
466.342	5.82
466.697	5.94
467.052	5.9
467.408	6.07
467.763	5.87
468.118	5.73
468.473	5.94
468.829	5.91
469.184	6.04
469.539	5.85
469.894	5.86
470.249	5.98
470.603	6.12
470.958	6.11
471.313	6.02
471.668	5.94
472.023	6.15
472.377	5.91
472.732	6.26
473.086	5.99
473.441	6.09
473.795	6.26
474.15	6.09
474.504	5.99
474.859	5.83
475.213	6.11
475.567	5.91
475.921	6.12
476.275	6.04
476.63	5.98
476.984	5.93
477.338	6.09
477.692	6.13
478.045	6.13
478.399	6
478.753	5.97
479.107	6.08
479.461	6.07
479.814	6.14
480.168	6.09
480.521	6.11
480.875	6.08
481.228	5.96
481.582	6.13
481.935	6.28
482.289	6.08
482.642	6.19
482.995	6.07
483.348	6.03
483.701	6.06
484.055	5.99
484.408	6.04
484.761	5.93
485.114	5.83
485.466	5.77
485.819	5.84
486.172	5.86
486.525	5.88
486.878	5.94
487.23	5.99
487.583	6.06
487.936	6
488.288	5.99
488.641	5.95
488.993	5.93
489.345	5.93
489.698	5.95
490.05	5.96
490.402	6.01
490.754	6.06
491.107	6.08
491.459	6.18
491.811	6.07
492.163	6.1
492.515	6.12
492.866	6.02
493.218	5.98
493.57	6.11
493.922	6.08
494.274	6.18
494.625	6.25
494.977	6.23
495.328	6.26
495.68	6.33
496.031	6.29
496.383	6.38
496.734	6.3
497.086	6.42
497.437	6.32
497.788	6.42
498.139	6.27
498.49	6.37
498.842	6.23
499.193	6.2
499.544	6.41
499.894	6.28
500.245	6.43
500.596	6.45
500.947	6.36
501.298	6.41
501.648	6.4
501.999	6.45
502.35	6.33
502.7	6.63
503.051	6.41
503.401	6.44
503.752	6.28
504.102	6.46
504.452	6.31
504.803	6.39
505.153	6.6
505.503	6.5
505.853	6.59
506.203	6.6
506.553	6.52
506.903	6.54
507.253	6.68
507.603	6.61
507.953	6.6
508.303	6.56
508.652	6.39
509.002	6.64
509.352	6.65
509.701	6.41
510.051	6.71
510.4	6.68
510.75	6.52
511.099	6.44
511.449	6.61
511.798	6.73
512.147	6.62
512.496	6.71
512.846	6.67
513.195	6.72
513.544	6.77
513.893	6.65
514.242	6.7
514.591	6.74
514.939	6.8
515.288	6.85
515.637	6.65
515.986	6.87
516.334	6.89
516.683	6.61
517.032	6.74
517.38	6.75
517.729	6.75
518.077	6.72
518.426	6.96
518.774	6.79
519.122	6.78
519.47	6.73
519.819	6.81
520.167	6.76
520.515	6.88
520.863	6.75
521.211	6.77
521.559	6.82
521.907	7.01
522.255	6.89
522.602	6.93
522.95	6.94
523.298	6.96
523.645	6.98
523.993	7.03
524.341	7.05
524.688	6.99
525.036	7.05
525.383	7.06
525.73	6.93
526.078	7.14
526.425	7.03
526.772	7.14
527.119	7.1
527.466	7.02
527.814	7
528.161	7.12
528.508	7.16
528.854	7.05
529.201	6.98
529.548	6.99
529.895	6.88
530.242	6.87
530.588	6.91
530.935	6.94
531.282	6.91
531.628	7.05
531.975	7.02
532.321	7.1
532.667	7.21
533.014	7.23
533.36	7.21
533.706	7.2
534.052	7.21
534.399	7.19
534.745	7.13
535.091	7.21
535.437	7.22
535.783	7.23
536.129	7.28
536.474	7.29
536.82	7.36
537.166	7.37
537.512	7.41
537.857	7.32
538.203	7.38
538.549	7.31
538.894	7.5
539.239	7.51
539.585	7.49
539.93	7.52
540.276	7.56
540.621	7.6
540.966	7.6
541.311	7.65
541.656	7.53
542.001	7.49
542.346	7.52
542.691	7.44
543.036	7.43
543.381	7.47
543.726	7.49
544.071	7.51
544.415	7.62
544.76	7.6
545.105	7.56
545.449	7.69
545.794	7.58
546.138	7.72
546.483	7.77
546.827	7.71
547.171	7.82
547.516	7.8
547.86	7.9
548.204	7.9
548.548	7.85
548.892	7.96
549.236	7.95
549.58	7.97
549.924	8.04
550.268	8.11
550.612	8.25
550.956	8.18
551.3	8.26
551.643	8.21
551.987	8.21
552.33	8.36
552.674	8.32
553.017	8.33
553.361	8.4
553.704	8.12
554.048	8.24
554.391	8.24
554.734	8.15
555.077	8.34
555.42	8.34
555.764	8.33
556.107	8.44
556.45	8.52
556.793	8.57
557.135	8.41
557.478	8.52
557.821	8.57
558.164	8.69
558.507	8.54
558.849	8.86
559.192	8.69
559.534	8.55
559.877	8.7
560.219	8.66
560.562	8.58
560.904	8.88
561.246	8.71
561.589	8.9
561.931	8.85
562.273	8.81
562.615	8.83
562.957	8.86
563.299	8.9
563.641	8.97
563.983	8.78
564.325	8.91
564.667	8.93
565.008	8.83
565.35	8.95
565.692	8.89
566.033	9.12
566.375	8.91
566.716	9.05
567.058	9.09
567.399	9.29
567.741	9.11
568.082	9.05
568.423	9.15
568.764	9.17
569.105	9.17
569.447	9.23
569.788	9.22
570.129	9.45
570.47	9.29
570.811	9.32
571.151	9.27
571.492	9.34
571.833	9.26
572.174	9.38
572.514	9.6
572.855	9.58
573.195	9.42
573.536	9.56
573.876	9.63
574.217	9.54
574.557	9.5
574.898	9.54
575.238	9.74
575.578	9.74
575.918	9.63
576.258	9.85
576.598	9.69
576.938	9.64
577.278	9.86
577.618	9.71
577.958	9.76
578.298	9.89
578.638	9.94
578.977	9.87
579.317	10.23
579.657	9.94
579.996	10.01
580.336	10.2
580.675	10.08
581.014	9.97
581.354	10.03
581.693	10.33
582.032	10.4
582.372	10.48
582.711	10.46
583.05	10.25
583.389	10.23
583.728	10.51
584.067	10.44
584.406	10.53
584.745	10.27
585.083	10.56
585.422	10.54
585.761	10.59
586.1	10.52
586.438	10.62
586.777	10.69
587.115	10.83
587.454	10.65
587.792	10.59
588.13	10.52
588.469	10.71
588.807	10.88
589.145	10.71
589.483	10.57
589.821	10.9
590.159	10.81
590.497	11.14
590.835	11.03
591.173	11.28
591.511	11.35
591.849	10.94
592.187	11
592.524	11.19
592.862	10.99
593.2	11.25
593.537	11.17
593.875	11.13
594.212	11.26
594.55	11.35
594.887	11.56
595.224	11.7
595.561	11.14
595.899	11.6
596.236	11.53
596.573	11.34
596.91	11.31
597.247	11.5
597.584	11.4
597.921	11.39
598.258	11.53
598.594	11.63
598.931	11.53
599.268	11.55
599.604	11.59
599.941	11.64
600.277	11.66
600.614	11.57
600.95	12
601.287	11.76
601.623	11.79
601.959	12.22
602.296	11.97
602.632	12.09
602.968	11.97
603.304	12.36
603.64	12.15
603.976	11.92
604.312	12.05
604.648	12.28
604.984	12.16
605.319	12.29
605.655	12.2
605.991	12.23
606.326	12.36
606.662	12.16
606.998	12.36
607.333	12.27
607.668	12.49
608.004	12.47
608.339	12.42
608.674	12.32
609.01	12.93
609.345	12.76
609.68	12.34
610.015	12.71
610.35	12.67
610.685	12.89
611.02	12.71
611.355	12.83
611.689	12.74
612.024	12.84
612.359	12.98
612.694	12.95
613.028	12.84
613.363	12.97
613.697	12.95
614.032	12.84
614.366	13.19
614.7	13.24
615.035	13
615.369	13.32
615.703	13.48
616.037	13.04
616.371	13.38
616.705	13.61
617.039	13.49
617.373	13.84
617.707	13.72
618.041	13.46
618.375	12.92
618.709	13.54
619.042	13.73
619.376	13.61
619.71	13.59
620.043	13.83
620.377	13.62
620.71	13.65
621.043	13.43
621.377	13.82
621.71	13.98
622.043	14.23
622.376	14.26
622.709	14.05
623.043	13.88
623.376	13.73
623.709	14.13
624.041	13.86
624.374	14.37
624.707	14.07
625.04	14.01
625.373	14.3
625.705	14.42
626.038	14.55
626.37	14.35
626.703	14.63
627.035	14.29
627.368	14.68
627.7	14.7
628.032	14.52
628.365	14.76
628.697	14.87
629.029	14.47
629.361	14.83
629.693	14.57
630.025	14.79
630.357	14.92
630.689	14.85
631.021	15.11
631.353	14.78
631.684	14.88
632.016	14.89
632.348	15.11
632.679	15.27
633.011	15.47
633.342	14.99
633.674	14.83
634.005	15.41
634.336	15.55
634.668	15.17
634.999	15.17
635.33	15.62
635.661	15.5
635.992	15.56
636.323	15.33
636.654	15.39
636.985	15.47
637.316	15.56
637.647	15.98
637.977	15.6
638.308	15.85
638.639	15.59
638.969	15.82
639.3	15.82
639.63	15.89
639.961	16.21
640.291	15.65
640.622	15.96
640.952	16.3
641.282	15.37
641.612	16.36
641.943	15.76
642.273	16.17
642.603	16.05
642.933	16.16
643.263	16.41
643.592	16.68
643.922	16.44
644.252	16.15
644.582	16.62
644.911	16.43
645.241	16.43
645.571	16.25
645.9	16.49
646.23	16.98
646.559	16.44
646.888	17.31
647.218	16.45
647.547	16.82
647.876	16.72
648.205	16.34
648.534	16.73
648.863	16.62
649.192	16.48
649.521	16.49
649.85	17.22
650.179	17.05
650.508	16.78
650.837	17.52
651.165	17.39
651.494	17.71
651.822	17.01
652.151	17.16
652.479	17.51
652.808	17.54
653.136	17.35
653.465	17.3
653.793	17.29
654.121	17.56
654.449	17.22
654.777	17.42
655.105	17.55
655.433	17.34
655.761	18.02
656.089	18.34
656.417	17.98
656.745	18.07
657.073	17.31
657.4	17.8
657.728	17.49
658.056	17.96
658.383	18.19
658.711	18.03
659.038	18.37
659.365	17.96
659.693	18
660.02	18.22
660.347	18.5
660.674	18.28
661.001	17.95
661.329	18.44
661.656	18.13
661.982	18.11
662.309	18.4
662.636	18.18
662.963	18.42
663.29	18.8
663.616	18.34
663.943	18.69
664.27	18.28
664.596	19.35
664.923	18.81
665.249	18.72
665.576	18.54
665.902	18.61
666.228	18.73
666.554	19.31
666.881	18.45
667.207	18.61
667.533	19.03
667.859	18.99
668.185	18.66
668.511	18.8
668.837	18.92
669.162	19.59
669.488	18.74
669.814	19.35
670.139	18.66
670.465	19.58
670.791	19.22
671.116	19.41
671.442	18.98
671.767	19.41
672.092	18.98
672.418	19.38
672.743	19.22
673.068	19.37
673.393	19.86
673.718	19.51
674.043	19.67
674.368	20.1
674.693	20.08
675.018	20.05
675.343	20
675.667	19.76
675.992	19.76
676.317	19.76
676.641	20.19
676.966	20.31
677.29	19.72
677.615	20.27
677.939	19.94
678.264	20.3
678.588	20.58
678.912	20.28
679.236	20.38
679.56	20.76
679.885	20.41
680.209	20.58
680.532	20.61
680.856	20.77
681.18	20.76
681.504	20.2
681.828	20.64
682.152	20.6
682.475	20.98
682.799	20.73
683.122	20.68
683.446	20.12
683.769	21.16
684.093	20.74
684.416	20.24
684.739	20.51
