Data from 22-2_chest_Reflection__4__230.txt Node

Date: Thu Dec 15 18:16:37 CST 2022
User: ToomeyLab
Spectrometer: FLMS14357
Trigger mode: 0
Integration Time (sec): 1.000000E-2
Scans to average: 100
Electric dark correction enabled: true
Nonlinearity correction enabled: false
Boxcar width: 0
XAxis mode: Wavelengths
Number of Pixels in Spectrum: 2048
>>>>>Begin Spectral Data<<<<<
189.047	1349.81
189.435	1349.81
189.823	1349.81
190.211	-101.63
190.599	26.72
190.987	135.02
191.375	-257.42
191.763	-236.84
192.151	130.52
192.538	57.33
192.926	-6.44
193.314	-37.32
193.702	48.4
194.089	89.4
194.477	927.59
194.864	67.15
195.252	38.89
195.639	108.9
196.027	-18.15
196.414	-89.44
196.801	1700
197.189	358.38
197.576	937.67
197.963	5.47
198.351	20.1
198.738	-47.24
199.125	-40.82
199.512	14.17
199.899	-26.12
200.286	0.64
200.673	56.69
201.06	-13.47
201.447	23.3
201.833	4.76
202.22	-4.85
202.607	-40.84
202.994	60.84
203.38	42.8
203.767	-61.56
204.154	5.85
204.54	32.79
204.927	11.16
205.313	14.87
205.699	28.61
206.086	1.3
206.472	21.17
206.858	-18.08
207.245	20.25
207.631	-41.98
208.017	35.65
208.403	-59.75
208.789	-2.82
209.175	-30.83
209.561	-117.07
209.947	-51.6
210.333	11.76
210.719	9.3
211.105	41.25
211.491	25.82
211.876	-25.13
212.262	20.72
212.648	16.03
213.034	23.24
213.419	-30.49
213.805	18.5
214.19	-19.65
214.576	-16.58
214.961	32.94
215.346	-45.58
215.732	26.97
216.117	-8.1
216.502	-27.81
216.888	2.76
217.273	33.43
217.658	-14.1
218.043	-7.77
218.428	-18.05
218.813	-3.91
219.198	-10.17
219.583	2.05
219.968	-15.81
220.353	-31.55
220.738	9.49
221.122	-3.44
221.507	-8.17
221.892	3.21
222.276	-14.12
222.661	-16.26
223.046	-4.52
223.43	14.95
223.815	6.43
224.199	-5.99
224.583	-6.1
224.968	-1.06
225.352	-9.35
225.736	3.74
226.121	-0.81
226.505	-0.29
226.889	-2.77
227.273	1.55
227.657	6.84
228.041	3.75
228.425	1.6
228.809	-0.63
229.193	3.01
229.577	0.77
229.961	1.94
230.344	3.82
230.728	4.09
231.112	3.26
231.495	0.66
231.879	3.48
232.263	3.38
232.646	0.73
233.03	4.31
233.413	2.97
233.797	1.5
234.18	2.77
234.563	5.11
234.946	3.4
235.33	2.77
235.713	4.22
236.096	3.66
236.479	3.29
236.862	2.47
237.245	0.63
237.628	3.33
238.011	2.53
238.394	1.65
238.777	2.09
239.16	4.5
239.543	4.72
239.925	3.05
240.308	2.43
240.691	2.16
241.073	3.22
241.456	3.16
241.838	3.47
242.221	3.12
242.603	4.14
242.986	3.5
243.368	4.16
243.75	3.6
244.133	3.92
244.515	3.61
244.897	3.38
245.279	2.54
245.661	3.65
246.043	3.51
246.425	4.24
246.807	3.55
247.189	3.48
247.571	2.79
247.953	3.69
248.335	3.68
248.717	3.65
249.098	3.81
249.48	3.54
249.862	4.12
250.243	4.13
250.625	4.04
251.006	4.14
251.388	3.58
251.769	3.39
252.151	4.12
252.532	3.01
252.913	3.27
253.295	2.93
253.676	3.96
254.057	3.29
254.438	3.43
254.819	3.59
255.2	4.18
255.581	3.8
255.962	4.39
256.343	4.12
256.724	3.02
257.105	4.06
257.486	2.82
257.867	3.41
258.247	3.74
258.628	3.32
259.009	3.14
259.389	3.25
259.77	2.97
260.15	4.4
260.531	3.59
260.911	3.68
261.292	3.56
261.672	3.56
262.052	3.61
262.432	3.37
262.813	3.5
263.193	3.89
263.573	3.57
263.953	3.24
264.333	4.24
264.713	3.62
265.093	3.21
265.473	2.99
265.853	3.85
266.233	2.5
266.612	3.24
266.992	2.98
267.372	3.92
267.752	3.57
268.131	3.58
268.511	3.11
268.89	4.3
269.27	2.87
269.649	3.2
270.029	3.91
270.408	2.57
270.787	3.23
271.167	3.58
271.546	3.62
271.925	3.49
272.304	3.29
272.683	3.07
273.062	3.1
273.441	3.17
273.82	3.42
274.199	3.32
274.578	3.3
274.957	3.15
275.336	3.43
275.715	3.63
276.093	3.15
276.472	3.39
276.851	3.28
277.229	2.71
277.608	3.07
277.986	3.65
278.365	3.57
278.743	3.22
279.122	3.15
279.5	3.53
279.878	3
280.257	2.54
280.635	3.05
281.013	2.8
281.391	2.94
281.769	3.54
282.147	3.23
282.525	2.81
282.903	2.91
283.281	3.32
283.659	3.46
284.037	3.22
284.415	3.08
284.792	3.1
285.17	3.26
285.548	2.96
285.925	3.4
286.303	3.8
286.68	3.22
287.058	3.53
287.435	3.21
287.813	3.45
288.19	3.43
288.567	3.47
288.945	2.93
289.322	3.32
289.699	3.46
290.076	3.36
290.453	3.11
290.83	3.71
291.207	3.26
291.584	3.5
291.961	3.28
292.338	3.53
292.715	3.33
293.092	3.73
293.469	3.23
293.845	3
294.222	4.19
294.599	3.15
294.975	3.11
295.352	4.05
295.728	3.67
296.105	3.57
296.481	3.69
296.858	3.68
297.234	3.27
297.61	3.92
297.986	4.18
298.363	3.77
298.739	4.06
299.115	3.7
299.491	4.19
299.867	3.54
300.243	3.48
300.619	3.6
300.995	3.58
301.371	4.15
301.746	3.98
302.122	3.64
302.498	3.49
302.874	3.84
303.249	4.1
303.625	3.31
304	3.63
304.376	4.47
304.751	3.68
305.127	3.6
305.502	3.92
305.878	4.01
306.253	3.96
306.628	4.49
307.003	3.83
307.378	3.7
307.754	4.08
308.129	3.48
308.504	4.2
308.879	4.04
309.254	4.43
309.629	3.92
310.003	3.91
310.378	4.22
310.753	4.2
311.128	3.91
311.502	4.06
311.877	4.01
312.252	4.09
312.626	4.51
313.001	4.12
313.375	4.24
313.75	4.38
314.124	4.39
314.498	4.6
314.873	3.92
315.247	4.32
315.621	3.94
315.995	4.13
316.369	4.4
316.743	4.06
317.117	4.28
317.491	4.25
317.865	3.89
318.239	4.44
318.613	4
318.987	3.61
319.361	4.07
319.734	4.27
320.108	4.29
320.482	4.57
320.855	4.17
321.229	4.63
321.602	4.35
321.976	3.61
322.349	4.54
322.723	4.44
323.096	4.39
323.469	4.35
323.843	3.86
324.216	4.4
324.589	4.63
324.962	4.26
325.335	3.96
325.708	4.44
326.081	4.46
326.454	4.61
326.827	4.35
327.2	4.17
327.573	4.16
327.945	3.98
328.318	4.56
328.691	4.5
329.063	4.32
329.436	3.78
329.809	4.79
330.181	4.84
330.553	4.66
330.926	4.75
331.298	4.15
331.671	5.19
332.043	3.9
332.415	4.35
332.787	4.59
333.159	3.9
333.532	4.58
333.904	4.68
334.276	4.64
334.648	4.09
335.02	4.32
335.391	4.6
335.763	4.52
336.135	4.88
336.507	4.59
336.879	4.87
337.25	4.68
337.622	4.5
337.993	4.37
338.365	4.48
338.736	4.09
339.108	4.41
339.479	4.56
339.851	4.77
340.222	4.84
340.593	4.12
340.964	4.44
341.336	4.24
341.707	4.28
342.078	4.35
342.449	4.43
342.82	4.68
343.191	4.64
343.562	4.49
343.933	4.44
344.303	4.66
344.674	4.35
345.045	4.54
345.416	4.97
345.786	4.74
346.157	4.59
346.527	4.36
346.898	4.15
347.268	4.76
347.639	4.51
348.009	4.5
348.38	4.48
348.75	4.4
349.12	4.63
349.49	4.66
349.861	4.79
350.231	4.43
350.601	4.46
350.971	4.27
351.341	4.67
351.711	4.76
352.081	3.99
352.45	3.94
352.82	4.16
353.19	4.67
353.56	4.53
353.929	4.6
354.299	4.8
354.669	4.75
355.038	4.56
355.408	4.45
355.777	4.81
356.147	4.48
356.516	4.39
356.885	4.35
357.254	4.35
357.624	4.13
357.993	4.32
358.362	4.71
358.731	4.71
359.1	4.48
359.469	4.7
359.838	4.52
360.207	4.68
360.576	4.83
360.945	4.6
361.314	4.35
361.682	4.34
362.051	4.68
362.42	4.34
362.788	4.65
363.157	4.6
363.525	4.65
363.894	4.11
364.262	4.72
364.631	4.71
364.999	4.64
365.367	4.54
365.735	4.36
366.104	4.42
366.472	4.51
366.84	4.86
367.208	4.85
367.576	4.54
367.944	4.49
368.312	4.59
368.68	4.93
369.048	4.7
369.416	4.44
369.783	4.49
370.151	4.7
370.519	4.87
370.886	4.52
371.254	4.84
371.621	4.85
371.989	4.84
372.356	4.55
372.724	4.22
373.091	4.7
373.458	4.56
373.826	4.67
374.193	4.66
374.56	4.47
374.927	4.42
375.294	4.59
375.661	4.67
376.028	4.86
376.395	4.93
376.762	4.5
377.129	4.55
377.496	4.52
377.863	4.76
378.229	4.62
378.596	4.88
378.963	4.72
379.329	4.78
379.696	4.61
380.062	4.54
380.429	4.48
380.795	5.1
381.161	4.49
381.528	4.54
381.894	4.85
382.26	4.59
382.626	4.65
382.993	4.83
383.359	4.48
383.725	4.46
384.091	4.85
384.457	4.77
384.823	4.98
385.188	4.81
385.554	4.89
385.92	4.43
386.286	4.55
386.651	4.75
387.017	4.96
387.383	4.76
387.748	4.77
388.114	4.83
388.479	4.71
388.845	4.43
389.21	5.08
389.575	5.07
389.94	5.05
390.306	4.86
390.671	4.56
391.036	4.65
391.401	4.72
391.766	4.69
392.131	5.1
392.496	4.96
392.861	4.71
393.226	4.85
393.591	4.76
393.956	4.78
394.32	5.03
394.685	4.61
395.05	4.82
395.414	4.74
395.779	5.09
396.143	4.68
396.508	4.65
396.872	4.8
397.236	5.14
397.601	4.8
397.965	4.78
398.329	4.72
398.694	4.66
399.058	4.95
399.422	4.71
399.786	4.99
400.15	4.61
400.514	4.83
400.878	4.58
401.242	4.85
401.605	4.93
401.969	4.63
402.333	4.87
402.697	5.25
403.06	4.88
403.424	4.95
403.787	4.88
404.151	4.84
404.514	4.92
404.878	4.72
405.241	4.67
405.604	5.06
405.968	4.77
406.331	5.11
406.694	4.89
407.057	4.47
407.42	4.91
407.783	4.95
408.146	4.93
408.509	4.92
408.872	4.86
409.235	4.84
409.598	4.98
409.961	5.15
410.323	4.87
410.686	4.59
411.049	4.81
411.411	4.76
411.774	4.9
412.136	4.85
412.499	4.98
412.861	4.59
413.223	4.76
413.586	5.04
413.948	5.06
414.31	4.77
414.672	4.99
415.035	4.91
415.397	4.8
415.759	4.83
416.121	5.06
416.483	4.75
416.845	4.86
417.206	4.82
417.568	4.85
417.93	4.91
418.292	4.85
418.653	4.6
419.015	4.87
419.377	4.7
419.738	4.86
420.1	4.91
420.461	4.77
420.822	4.92
421.184	4.81
421.545	4.84
421.906	4.77
422.267	4.83
422.629	4.75
422.99	4.86
423.351	4.77
423.712	4.94
424.073	4.97
424.434	5.01
424.795	4.91
425.155	4.84
425.516	4.84
425.877	4.88
426.238	4.87
426.598	4.86
426.959	4.96
427.32	4.91
427.68	5.01
428.041	5.1
428.401	4.95
428.761	4.94
429.122	5.09
429.482	5.17
429.842	4.85
430.202	5.17
430.563	5.11
430.923	4.92
431.283	5.02
431.643	5.14
432.003	5.12
432.363	5.22
432.722	5.15
433.082	5.07
433.442	5.16
433.802	5.16
434.161	5.13
434.521	5.01
434.881	5.2
435.24	5.03
435.6	5.15
435.959	5.08
436.319	5.12
436.678	5.27
437.037	5.17
437.396	5.07
437.756	4.96
438.115	5.04
438.474	5.12
438.833	5.15
439.192	5.16
439.551	5.12
439.91	5.07
440.269	5.05
440.628	5.06
440.987	5.12
441.345	5
441.704	4.99
442.063	5.03
442.421	5.14
442.78	5.07
443.138	5.19
443.497	5.19
443.855	5.31
444.214	5.02
444.572	5.28
444.93	5.21
445.288	5.15
445.647	4.94
446.005	5.18
446.363	5.13
446.721	5.15
447.079	5.05
447.437	5.12
447.795	5.13
448.153	5.05
448.51	5.05
448.868	5.09
449.226	5.16
449.584	5.11
449.941	5.21
450.299	5.1
450.656	5.22
451.014	5.31
451.371	5.2
451.729	5.34
452.086	5.24
452.443	5.3
452.801	5.26
453.158	5.31
453.515	5.15
453.872	5.2
454.229	5.13
454.586	5.19
454.943	5.39
455.3	5.4
455.657	5.13
456.014	5.24
456.371	5.47
456.727	5.43
457.084	5.51
457.441	5.42
457.797	5.28
458.154	5.32
458.51	5.3
458.867	5.32
459.223	5.14
459.58	5.29
459.936	5.37
460.292	5.19
460.648	5.18
461.005	5.22
461.361	5.21
461.717	5.19
462.073	5.32
462.429	5.3
462.785	5.43
463.141	5.41
463.496	5.34
463.852	5.51
464.208	5.41
464.564	5.34
464.919	5.42
465.275	5.39
465.631	5.61
465.986	5.51
466.342	5.41
466.697	5.48
467.052	5.55
467.408	5.54
467.763	5.44
468.118	5.28
468.473	5.33
468.829	5.44
469.184	5.51
469.539	5.3
469.894	5.52
470.249	5.49
470.603	5.51
470.958	5.52
471.313	5.59
471.668	5.48
472.023	5.68
472.377	5.5
472.732	5.5
473.086	5.57
473.441	5.55
473.795	5.76
474.15	5.43
474.504	5.52
474.859	5.37
475.213	5.54
475.567	5.63
475.921	5.66
476.275	5.69
476.63	5.62
476.984	5.46
477.338	5.77
477.692	5.58
478.045	5.6
478.399	5.51
478.753	5.46
479.107	5.52
479.461	5.51
479.814	5.56
480.168	5.53
480.521	5.68
480.875	5.59
481.228	5.63
481.582	5.68
481.935	5.71
482.289	5.7
482.642	5.75
482.995	5.6
483.348	5.55
483.701	5.53
484.055	5.51
484.408	5.47
484.761	5.39
485.114	5.29
485.466	5.27
485.819	5.28
486.172	5.37
486.525	5.41
486.878	5.49
487.23	5.52
487.583	5.53
487.936	5.53
488.288	5.44
488.641	5.4
488.993	5.41
489.345	5.41
489.698	5.45
490.05	5.47
490.402	5.46
490.754	5.55
491.107	5.59
491.459	5.56
491.811	5.67
492.163	5.63
492.515	5.57
492.866	5.47
493.218	5.5
493.57	5.52
493.922	5.54
494.274	5.72
494.625	5.75
494.977	5.72
495.328	5.84
495.68	5.77
496.031	5.81
496.383	5.75
496.734	5.88
497.086	5.97
497.437	5.94
497.788	5.99
498.139	5.75
498.49	5.83
498.842	5.93
499.193	5.75
499.544	5.86
499.894	5.81
500.245	5.91
500.596	5.94
500.947	5.9
501.298	5.9
501.648	5.9
501.999	6.02
502.35	5.99
502.7	6.18
503.051	5.98
503.401	5.99
503.752	5.99
504.102	5.93
504.452	5.85
504.803	6.06
505.153	6.11
505.503	6.03
505.853	6.05
506.203	5.97
506.553	6.01
506.903	6.15
507.253	6.09
507.603	6.12
507.953	5.99
508.303	6.12
508.652	5.93
509.002	6.25
509.352	6.06
509.701	5.97
510.051	6.2
510.4	6.17
510.75	6.05
511.099	5.97
511.449	6.22
511.798	6.06
512.147	6.02
512.496	6.26
512.846	6.2
513.195	6.22
513.544	6.21
513.893	6.15
514.242	6.06
514.591	6.24
514.939	6.36
515.288	6.42
515.637	6.26
515.986	6.27
516.334	6.37
516.683	6.29
517.032	6.3
517.38	6.3
517.729	6.31
518.077	6.41
518.426	6.47
518.774	6.29
519.122	6.34
519.47	6.31
519.819	6.39
520.167	6.26
520.515	6.29
520.863	6.24
521.211	6.33
521.559	6.33
521.907	6.42
522.255	6.33
522.602	6.54
522.95	6.42
523.298	6.59
523.645	6.57
523.993	6.52
524.341	6.59
524.688	6.59
525.036	6.59
525.383	6.53
525.73	6.59
526.078	6.61
526.425	6.49
526.772	6.53
527.119	6.53
527.466	6.56
527.814	6.52
528.161	6.59
528.508	6.64
528.854	6.56
529.201	6.51
529.548	6.47
529.895	6.39
530.242	6.35
530.588	6.37
530.935	6.46
531.282	6.51
531.628	6.58
531.975	6.58
532.321	6.72
532.667	6.71
533.014	6.76
533.36	6.85
533.706	6.71
534.052	6.83
534.399	6.67
534.745	6.66
535.091	6.65
535.437	6.7
535.783	6.79
536.129	6.84
536.474	6.91
536.82	6.99
537.166	6.95
537.512	7.08
537.857	6.98
538.203	6.87
538.549	6.91
538.894	6.98
539.239	7.01
539.585	7.08
539.93	7.14
540.276	7.11
540.621	7.21
540.966	7.19
541.311	7.23
541.656	7.1
542.001	7.02
542.346	6.99
542.691	7
543.036	6.99
543.381	7.03
543.726	7.15
544.071	7.18
544.415	7.21
544.76	7.25
545.105	7.28
545.449	7.24
545.794	7.32
546.138	7.32
546.483	7.37
546.827	7.31
547.171	7.49
547.516	7.44
547.86	7.51
548.204	7.51
548.548	7.42
548.892	7.53
549.236	7.45
549.58	7.63
549.924	7.82
550.268	7.84
550.612	7.66
550.956	7.86
551.3	7.99
551.643	7.8
551.987	8.01
552.33	8.02
552.674	7.93
553.017	7.86
553.361	8.06
553.704	8.05
554.048	8.02
554.391	8.02
554.734	7.95
555.077	7.98
555.42	8.01
555.764	8.07
556.107	8.04
556.45	8.01
556.793	8.26
557.135	8.26
557.478	8.11
557.821	8.31
558.164	8.4
558.507	8.21
558.849	8.41
559.192	8.14
559.534	8.28
559.877	8.25
560.219	8.61
560.562	8.31
560.904	8.63
561.246	8.59
561.589	8.67
561.931	8.42
562.273	8.46
562.615	8.6
562.957	8.54
563.299	8.72
563.641	8.69
563.983	8.66
564.325	8.62
564.667	8.68
565.008	8.64
565.35	8.51
565.692	8.74
566.033	8.7
566.375	8.82
566.716	8.72
567.058	8.77
567.399	8.92
567.741	8.76
568.082	8.85
568.423	8.84
568.764	8.95
569.105	9.01
569.447	9.04
569.788	8.99
570.129	9.2
570.47	9.21
570.811	8.83
571.151	9.2
571.492	9.37
571.833	9.19
572.174	9.18
572.514	9.23
572.855	9.32
573.195	9.19
573.536	9.33
573.876	9.2
574.217	9.23
574.557	9.29
574.898	9.37
575.238	9.59
575.578	9.68
575.918	9.37
576.258	9.71
576.598	9.46
576.938	9.75
577.278	9.64
577.618	9.6
577.958	9.71
578.298	9.8
578.638	9.67
578.977	9.79
579.317	9.86
579.657	9.73
579.996	10.06
580.336	10.05
580.675	9.98
581.014	10.12
581.354	10
581.693	10.31
582.032	10.47
582.372	10.28
582.711	10.23
583.05	10.22
583.389	10.16
583.728	10.29
584.067	10.25
584.406	10.5
584.745	10.22
585.083	10.4
585.422	10.53
585.761	10.42
586.1	10.29
586.438	10.38
586.777	10.41
587.115	10.31
587.454	10.43
587.792	10.76
588.13	10.51
588.469	10.7
588.807	11.04
589.145	10.92
589.483	10.65
589.821	10.95
590.159	10.96
590.497	10.91
590.835	10.94
591.173	11.15
591.511	11.05
591.849	11.1
592.187	11.05
592.524	11.14
592.862	11.03
593.2	11.18
593.537	11.23
593.875	11.15
594.212	11.26
594.55	11.15
594.887	11.17
595.224	11.47
595.561	11.26
595.899	11.46
596.236	11.47
596.573	11.37
596.91	11.52
597.247	11.56
597.584	11.61
597.921	11.61
598.258	11.65
598.594	11.54
598.931	11.57
599.268	11.42
599.604	11.66
599.941	11.73
600.277	11.66
600.614	11.75
600.95	11.91
601.287	11.83
601.623	11.67
601.959	12.25
602.296	12.01
602.632	11.97
602.968	12.06
603.304	11.99
603.64	12.01
603.976	12.03
604.312	12.17
604.648	12.26
604.984	12.24
605.319	12.16
605.655	12.06
605.991	12.24
606.326	12.25
606.662	12.11
606.998	12.52
607.333	12.3
607.668	12.52
608.004	12.43
608.339	12.45
608.674	12.63
609.01	13.03
609.345	12.65
609.68	12.73
610.015	12.91
610.35	12.98
610.685	12.6
611.02	12.67
611.355	12.7
611.689	12.68
612.024	13.19
612.359	13.02
612.694	13.06
613.028	13.13
613.363	13.15
613.697	12.93
614.032	13.11
614.366	13.28
614.7	13.46
615.035	13.21
615.369	13.33
615.703	13.71
616.037	13.55
616.371	13.39
616.705	13.6
617.039	13.72
617.373	13.46
617.707	13.8
618.041	13.23
618.375	13.49
618.709	13.73
619.042	13.91
619.376	13.82
619.71	13.73
620.043	14.05
620.377	13.75
620.71	14.01
621.043	14.06
621.377	14.24
621.71	14.17
622.043	14.14
622.376	14.43
622.709	14.54
623.043	14.36
623.376	14.07
623.709	14.74
624.041	14.29
624.374	14.5
624.707	14.3
625.04	14.43
625.373	14.7
625.705	14.44
626.038	15
626.37	14.56
626.703	14.54
627.035	14.76
627.368	14.73
627.7	14.96
628.032	14.73
628.365	14.52
628.697	15.1
629.029	14.55
629.361	15.07
629.693	14.93
630.025	14.89
630.357	15.29
630.689	15
631.021	15.37
631.353	15.19
631.684	15.18
632.016	15.23
632.348	15.16
632.679	15.57
633.011	15.31
633.342	15.63
633.674	15.41
634.005	15.36
634.336	15.33
634.668	15.45
634.999	15.42
635.33	15.63
635.661	15.29
635.992	15.6
636.323	15.68
636.654	15.83
636.985	15.65
637.316	15.69
637.647	16.3
637.977	15.81
638.308	16.3
638.639	15.61
638.969	15.89
639.3	15.78
639.63	16.17
639.961	15.87
640.291	16.28
640.622	15.89
640.952	16.4
641.282	16.64
641.612	16.08
641.943	16.05
642.273	16.04
642.603	16.35
642.933	16.73
643.263	16.89
643.592	16.79
643.922	17.03
644.252	17.03
644.582	16.94
644.911	16.66
645.241	16.54
645.571	16.97
645.9	16.84
646.23	16.93
646.559	16.4
646.888	17.13
647.218	17.26
647.547	16.65
647.876	16.99
648.205	17.16
648.534	16.97
648.863	17.11
649.192	17.03
649.521	17.3
649.85	17.56
650.179	17.04
650.508	17.04
650.837	17.68
651.165	17.73
651.494	17.21
651.822	17.63
652.151	17.22
652.479	17.76
652.808	17.45
653.136	17.24
653.465	17.05
653.793	17.61
654.121	17.53
654.449	17.33
654.777	17.27
655.105	17.55
655.433	17.79
655.761	17.92
656.089	18.1
656.417	18.31
656.745	18.32
657.073	17.75
657.4	17.79
657.728	18.07
658.056	18.17
658.383	17.83
658.711	18.04
659.038	18.31
659.365	18.64
659.693	18.46
660.02	18.54
660.347	18.13
660.674	18.34
661.001	18.42
661.329	18.72
661.656	18.13
661.982	18.26
662.309	18.67
662.636	19
662.963	18.32
663.29	18.93
663.616	18.75
663.943	19.15
664.27	18.9
664.596	19.05
664.923	19.4
665.249	18.93
665.576	18.73
665.902	19.08
666.228	19.08
666.554	19.65
666.881	19.2
667.207	19.13
667.533	18.89
667.859	19.48
668.185	19.08
668.511	19.98
668.837	19.24
669.162	19.38
669.488	18.68
669.814	19.48
670.139	19.18
670.465	19.83
670.791	18.97
671.116	18.99
671.442	19.38
671.767	19.49
672.092	19.46
672.418	19.48
672.743	19.5
673.068	19.84
673.393	20.11
673.718	20.2
674.043	19.57
674.368	20.25
674.693	20.22
675.018	20.19
675.343	20.93
675.667	20.05
675.992	20.21
676.317	20.43
676.641	20.77
676.966	20.1
677.29	20.29
677.615	19.97
677.939	20.79
678.264	20.3
678.588	20.12
678.912	20.55
679.236	20.18
679.56	20.38
679.885	20.73
680.209	20.86
680.532	21.06
680.856	20.99
681.18	21.78
681.504	20.79
681.828	20.3
682.152	21.01
682.475	20.87
682.799	21.19
683.122	20.95
683.446	19.96
683.769	21.04
684.093	21.28
684.416	20.5
684.739	20.78
