Data from 22-2_chest_Reflection__2__228.txt Node

Date: Thu Dec 15 18:16:08 CST 2022
User: ToomeyLab
Spectrometer: FLMS14357
Trigger mode: 0
Integration Time (sec): 1.000000E-2
Scans to average: 100
Electric dark correction enabled: true
Nonlinearity correction enabled: false
Boxcar width: 0
XAxis mode: Wavelengths
Number of Pixels in Spectrum: 2048
>>>>>Begin Spectral Data<<<<<
189.047	1616.6
189.435	1616.6
189.823	1616.6
190.211	137.69
190.599	324.23
190.987	59.04
191.375	-168.73
191.763	1718.22
192.151	116.15
192.538	45.53
192.926	103.21
193.314	27.56
193.702	-4.41
194.089	290.64
194.477	2597.7
194.864	199.04
195.252	-25.24
195.639	55.21
196.027	-26.68
196.414	-258.49
196.801	2014.55
197.189	280.52
197.576	-320.22
197.963	111.49
198.351	-3.03
198.738	-84.01
199.125	15.74
199.512	35.66
199.899	-9.48
200.286	-32.35
200.673	51.6
201.06	33.37
201.447	40.93
201.833	54.27
202.22	-8.68
202.607	14.17
202.994	-28.87
203.38	24.11
203.767	1.87
204.154	25.68
204.54	7.92
204.927	23.57
205.313	15.66
205.699	22.39
206.086	11.2
206.472	22.24
206.858	-20.35
207.245	6.01
207.631	20.64
208.017	40.88
208.403	-82.68
208.789	-23.45
209.175	-11.78
209.561	-66.31
209.947	0.32
210.333	-11.82
210.719	22.93
211.105	57.4
211.491	2.75
211.876	-27.2
212.262	17.23
212.648	27.94
213.034	1.55
213.419	29.32
213.805	35.4
214.19	-16.67
214.576	-7.79
214.961	15.93
215.346	15.14
215.732	-11.72
216.117	8.78
216.502	-3.48
216.888	1.9
217.273	0.62
217.658	-8.79
218.043	-17.48
218.428	-11.6
218.813	0.13
219.198	-39.08
219.583	-0.72
219.968	13.14
220.353	-24.64
220.738	7.66
221.122	-4.59
221.507	-12.04
221.892	-9.05
222.276	-9.6
222.661	-14.22
223.046	-7.36
223.43	15.91
223.815	4.99
224.199	-4.63
224.583	-3.85
224.968	4.2
225.352	-8.22
225.736	3.66
226.121	2.46
226.505	-2.8
226.889	-3.6
227.273	-1.84
227.657	6.71
228.041	2.13
228.425	0.78
228.809	0.94
229.193	1.93
229.577	3.72
229.961	1.67
230.344	2.17
230.728	3.24
231.112	3
231.495	1.77
231.879	2.43
232.263	2.3
232.646	1.28
233.03	3.83
233.413	2.52
233.797	3.32
234.18	1.92
234.563	2.22
234.946	2.76
235.33	2.31
235.713	2.77
236.096	3.52
236.479	2.57
236.862	0.44
237.245	1.84
237.628	1.7
238.011	3.58
238.394	2.94
238.777	2.84
239.16	3.1
239.543	4.01
239.925	2
240.308	1.56
240.691	2.89
241.073	1.67
241.456	2.44
241.838	2.85
242.221	2.41
242.603	3.65
242.986	3.05
243.368	3.2
243.75	3.05
244.133	3.01
244.515	2.49
244.897	2.93
245.279	2.75
245.661	2.61
246.043	2.75
246.425	3.21
246.807	2.73
247.189	2.54
247.571	2.85
247.953	2.87
248.335	2.96
248.717	2.95
249.098	3.22
249.48	3.09
249.862	2.94
250.243	3.18
250.625	3.45
251.006	3.56
251.388	3.26
251.769	2.63
252.151	2.92
252.532	1.64
252.913	2.94
253.295	2.85
253.676	3.23
254.057	3.03
254.438	3.48
254.819	3.29
255.2	3.23
255.581	3.6
255.962	3.48
256.343	3.71
256.724	2.33
257.105	2.93
257.486	2.79
257.867	2.35
258.247	3.48
258.628	3.1
259.009	2.83
259.389	1.55
259.77	2.81
260.15	3.54
260.531	2.65
260.911	2.9
261.292	2.97
261.672	2.89
262.052	3.03
262.432	2.62
262.813	2.99
263.193	3.2
263.573	3.35
263.953	2.43
264.333	3.29
264.713	3.56
265.093	3.4
265.473	2.31
265.853	2.63
266.233	2.44
266.612	3.3
266.992	2.86
267.372	2.72
267.752	3.38
268.131	2.67
268.511	2.96
268.89	3.05
269.27	2.43
269.649	2.78
270.029	3.04
270.408	3.1
270.787	2.69
271.167	2.82
271.546	2.64
271.925	3.17
272.304	2.92
272.683	2.45
273.062	2.7
273.441	2.62
273.82	2.78
274.199	2.77
274.578	3.28
274.957	2.74
275.336	3.16
275.715	3.16
276.093	2.73
276.472	2.29
276.851	2.64
277.229	2.84
277.608	2.65
277.986	2.96
278.365	3.13
278.743	2.39
279.122	2.68
279.5	1.93
279.878	2.99
280.257	3.13
280.635	3.28
281.013	2.86
281.391	2.58
281.769	3.34
282.147	2.83
282.525	2.46
282.903	2.51
283.281	3.15
283.659	2.84
284.037	2.37
284.415	2.98
284.792	3.03
285.17	2.76
285.548	2.96
285.925	2.64
286.303	3.26
286.68	2.66
287.058	2.9
287.435	2.86
287.813	2.74
288.19	2.83
288.567	2.98
288.945	2.38
289.322	3.14
289.699	3.52
290.076	3.34
290.453	2.68
290.83	3.29
291.207	2.78
291.584	3.02
291.961	2.89
292.338	2.86
292.715	2.96
293.092	3.41
293.469	2.87
293.845	2.93
294.222	3.55
294.599	2.36
294.975	2.56
295.352	3.25
295.728	3.23
296.105	2.91
296.481	3.1
296.858	3.45
297.234	2.71
297.61	3.3
297.986	3.38
298.363	3.44
298.739	3.5
299.115	3.22
299.491	3.5
299.867	2.81
300.243	3.02
300.619	3.17
300.995	3.25
301.371	3.92
301.746	3.72
302.122	2.76
302.498	3.08
302.874	3.78
303.249	3.72
303.625	3.17
304	3.32
304.376	3.57
304.751	3.67
305.127	3.04
305.502	3.43
305.878	3.48
306.253	3.07
306.628	3.58
307.003	3.41
307.378	2.81
307.754	3.7
308.129	3.47
308.504	3.6
308.879	3.77
309.254	3.63
309.629	3.37
310.003	3.62
310.378	3.69
310.753	3.79
311.128	3.62
311.502	3.82
311.877	3.49
312.252	3.6
312.626	4
313.001	3.73
313.375	3.42
313.75	3.58
314.124	3.87
314.498	3.79
314.873	3.19
315.247	3.71
315.621	3.12
315.995	3.67
316.369	3.4
316.743	3.31
317.117	3.72
317.491	4.06
317.865	3.13
318.239	4.11
318.613	3.33
318.987	3.36
319.361	3.63
319.734	3.62
320.108	3.62
320.482	3.89
320.855	3.87
321.229	4.04
321.602	4.14
321.976	3.68
322.349	4.23
322.723	3.52
323.096	3.78
323.469	3.83
323.843	3.71
324.216	3.99
324.589	4.16
324.962	3.7
325.335	3.32
325.708	3.65
326.081	3.62
326.454	3.72
326.827	4.25
327.2	3.51
327.573	4.32
327.945	3.55
328.318	3.92
328.691	3.62
329.063	3.73
329.436	3.38
329.809	3.99
330.181	4.32
330.553	4.22
330.926	4.71
331.298	3.61
331.671	3.96
332.043	4.23
332.415	4.23
332.787	4.14
333.159	3.69
333.532	3.86
333.904	4.02
334.276	3.96
334.648	3.72
335.02	3.98
335.391	3.83
335.763	4.3
336.135	4.14
336.507	4.15
336.879	4.04
337.25	3.95
337.622	4.27
337.993	3.94
338.365	4.03
338.736	3.85
339.108	4.25
339.479	3.78
339.851	4.25
340.222	4.48
340.593	3.64
340.964	4.18
341.336	3.58
341.707	3.83
342.078	3.77
342.449	3.52
342.82	3.76
343.191	4.23
343.562	3.86
343.933	3.73
344.303	4.21
344.674	3.99
345.045	4.1
345.416	4.38
345.786	3.74
346.157	4.15
346.527	3.57
346.898	3.67
347.268	4.02
347.639	3.78
348.009	3.87
348.38	3.82
348.75	4.04
349.12	3.83
349.49	4.06
349.861	4.06
350.231	3.99
350.601	3.73
350.971	3.96
351.341	4.15
351.711	4.07
352.081	4.03
352.45	3.54
352.82	3.65
353.19	3.62
353.56	3.55
353.929	3.85
354.299	4.12
354.669	4.12
355.038	4.19
355.408	4.55
355.777	3.86
356.147	4.04
356.516	4.09
356.885	4.12
357.254	3.8
357.624	3.46
357.993	3.81
358.362	4.24
358.731	4.25
359.1	4.21
359.469	3.92
359.838	3.89
360.207	3.92
360.576	4.07
360.945	4.17
361.314	4.04
361.682	3.78
362.051	4.05
362.42	3.94
362.788	3.92
363.157	3.83
363.525	4.08
363.894	3.88
364.262	4.03
364.631	4.26
364.999	4.22
365.367	3.96
365.735	3.82
366.104	3.76
366.472	3.98
366.84	3.96
367.208	4.25
367.576	3.81
367.944	3.89
368.312	3.97
368.68	4.33
369.048	3.99
369.416	3.82
369.783	3.71
370.151	4.33
370.519	4.2
370.886	4.12
371.254	4.46
371.621	3.96
371.989	4.45
372.356	4.25
372.724	4.12
373.091	3.96
373.458	3.96
373.826	4.28
374.193	4.29
374.56	4.48
374.927	3.92
375.294	4.27
375.661	4.39
376.028	4.13
376.395	4.62
376.762	4.02
377.129	4.12
377.496	4.21
377.863	4.25
378.229	4.37
378.596	4.24
378.963	4.26
379.329	4.19
379.696	4.04
380.062	4.06
380.429	4.13
380.795	4.36
381.161	3.96
381.528	3.8
381.894	3.88
382.26	4.29
382.626	4.24
382.993	4.43
383.359	4.25
383.725	3.87
384.091	4.35
384.457	3.99
384.823	4.02
385.188	3.99
385.554	4.39
385.92	4.03
386.286	4.16
386.651	4.13
387.017	4.44
387.383	3.98
387.748	4.35
388.114	4.18
388.479	4.24
388.845	4.02
389.21	4.51
389.575	4.57
389.94	4.49
390.306	4.48
390.671	3.88
391.036	4.33
391.401	4.17
391.766	4.21
392.131	4.54
392.496	4.36
392.861	4.26
393.226	4.12
393.591	4.36
393.956	4.46
394.32	4.31
394.685	4.53
395.05	4.2
395.414	4.2
395.779	4.37
396.143	4.04
396.508	4.28
396.872	3.95
397.236	4.3
397.601	4.4
397.965	4.28
398.329	4.38
398.694	4.08
399.058	4.15
399.422	4.25
399.786	4.45
400.15	4.26
400.514	4.32
400.878	4.18
401.242	4.46
401.605	4.2
401.969	4.21
402.333	4.24
402.697	4.56
403.06	4.45
403.424	4.23
403.787	4.38
404.151	4.37
404.514	4.27
404.878	4.1
405.241	4.42
405.604	4.27
405.968	4.28
406.331	4.25
406.694	4.34
407.057	4.33
407.42	4.39
407.783	4.28
408.146	4.34
408.509	4.5
408.872	4.45
409.235	4.41
409.598	4.46
409.961	4.27
410.323	4.24
410.686	4.43
411.049	4.44
411.411	4.41
411.774	4.34
412.136	4.27
412.499	4.53
412.861	4.2
413.223	4.33
413.586	4.26
413.948	4.54
414.31	4.38
414.672	4.59
415.035	4.73
415.397	4.56
415.759	4.28
416.121	4.58
416.483	4.48
416.845	4.46
417.206	4.37
417.568	4.28
417.93	4.41
418.292	4.29
418.653	4.25
419.015	4.35
419.377	4.25
419.738	4.33
420.1	4.31
420.461	4.27
420.822	4.34
421.184	4.38
421.545	4.44
421.906	4.43
422.267	4.3
422.629	4.21
422.99	4.32
423.351	4.33
423.712	4.36
424.073	4.41
424.434	4.53
424.795	4.34
425.155	4.32
425.516	4.32
425.877	4.38
426.238	4.42
426.598	4.41
426.959	4.44
427.32	4.3
427.68	4.34
428.041	4.52
428.401	4.35
428.761	4.49
429.122	4.48
429.482	4.46
429.842	4.51
430.202	4.49
430.563	4.59
430.923	4.59
431.283	4.61
431.643	4.54
432.003	4.69
432.363	4.57
432.722	4.6
433.082	4.5
433.442	4.59
433.802	4.6
434.161	4.54
434.521	4.54
434.881	4.63
435.24	4.6
435.6	4.5
435.959	4.65
436.319	4.57
436.678	4.66
437.037	4.65
437.396	4.51
437.756	4.42
438.115	4.52
438.474	4.66
438.833	4.62
439.192	4.47
439.551	4.52
439.91	4.61
440.269	4.66
440.628	4.52
440.987	4.53
441.345	4.65
441.704	4.53
442.063	4.47
442.421	4.59
442.78	4.53
443.138	4.59
443.497	4.59
443.855	4.66
444.214	4.49
444.572	4.8
444.93	4.62
445.288	4.65
445.647	4.57
446.005	4.7
446.363	4.62
446.721	4.66
447.079	4.49
447.437	4.57
447.795	4.62
448.153	4.58
448.51	4.54
448.868	4.53
449.226	4.56
449.584	4.59
449.941	4.68
450.299	4.64
450.656	4.77
451.014	4.77
451.371	4.75
451.729	4.76
452.086	4.64
452.443	4.83
452.801	4.85
453.158	5
453.515	4.68
453.872	4.73
454.229	4.63
454.586	4.75
454.943	4.74
455.3	4.69
455.657	4.67
456.014	4.84
456.371	4.88
456.727	4.76
457.084	4.83
457.441	4.7
457.797	4.71
458.154	4.88
458.51	4.76
458.867	4.89
459.223	4.7
459.58	4.99
459.936	4.79
460.292	4.62
460.648	4.75
461.005	4.69
461.361	4.72
461.717	4.7
462.073	4.82
462.429	4.8
462.785	4.87
463.141	4.81
463.496	4.76
463.852	4.93
464.208	4.93
464.564	4.84
464.919	4.84
465.275	4.97
465.631	5.04
465.986	4.96
466.342	4.9
466.697	5.02
467.052	5.04
467.408	4.88
467.763	4.81
468.118	4.85
468.473	4.94
468.829	4.77
469.184	4.98
469.539	4.94
469.894	5.02
470.249	5.02
470.603	5
470.958	5.01
471.313	5.11
471.668	5.08
472.023	5.13
472.377	4.94
472.732	5.17
473.086	5.01
473.441	5
473.795	5.19
474.15	4.92
474.504	5.02
474.859	4.91
475.213	5.12
475.567	4.92
475.921	5.01
476.275	5.08
476.63	5.22
476.984	4.95
477.338	5.17
477.692	5.01
478.045	5.14
478.399	5.07
478.753	5.05
479.107	5.11
479.461	5.04
479.814	5.09
480.168	5.05
480.521	5.07
480.875	5.08
481.228	4.98
481.582	5.06
481.935	5.18
482.289	5.12
482.642	5.18
482.995	5.02
483.348	4.88
483.701	5.07
484.055	4.88
484.408	4.95
484.761	4.86
485.114	4.79
485.466	4.76
485.819	4.82
486.172	4.87
486.525	4.92
486.878	5.01
487.23	4.99
487.583	4.99
487.936	4.97
488.288	4.94
488.641	4.88
488.993	4.89
489.345	4.97
489.698	4.91
490.05	4.96
490.402	4.97
490.754	5.04
491.107	5.06
491.459	5.17
491.811	5.17
492.163	5.1
492.515	5.07
492.866	5.05
493.218	4.97
493.57	5.04
493.922	5.12
494.274	5.12
494.625	5.25
494.977	5.17
495.328	5.23
495.68	5.24
496.031	5.23
496.383	5.23
496.734	5.2
497.086	5.33
497.437	5.33
497.788	5.4
498.139	5.32
498.49	5.28
498.842	5.26
499.193	5.27
499.544	5.37
499.894	5.23
500.245	5.47
500.596	5.49
500.947	5.37
501.298	5.33
501.648	5.43
501.999	5.51
502.35	5.3
502.7	5.59
503.051	5.36
503.401	5.52
503.752	5.51
504.102	5.46
504.452	5.36
504.803	5.41
505.153	5.56
505.503	5.53
505.853	5.49
506.203	5.56
506.553	5.52
506.903	5.66
507.253	5.5
507.603	5.48
507.953	5.41
508.303	5.61
508.652	5.46
509.002	5.63
509.352	5.62
509.701	5.47
510.051	5.66
510.4	5.54
510.75	5.64
511.099	5.48
511.449	5.56
511.798	5.53
512.147	5.45
512.496	5.72
512.846	5.69
513.195	5.59
513.544	5.64
513.893	5.63
514.242	5.63
514.591	5.58
514.939	5.73
515.288	5.68
515.637	5.6
515.986	5.72
516.334	5.75
516.683	5.66
517.032	5.67
517.38	5.66
517.729	5.69
518.077	5.79
518.426	5.8
518.774	5.73
519.122	5.77
519.47	5.64
519.819	5.68
520.167	5.71
520.515	5.74
520.863	5.72
521.211	5.74
521.559	5.78
521.907	5.86
522.255	5.87
522.602	5.88
522.95	5.83
523.298	5.92
523.645	5.95
523.993	5.86
524.341	6
524.688	5.92
525.036	6
525.383	6
525.73	5.81
526.078	6.05
526.425	6.03
526.772	5.91
527.119	6.04
527.466	5.98
527.814	5.88
528.161	5.93
528.508	6.02
528.854	5.86
529.201	5.87
529.548	5.83
529.895	5.8
530.242	5.77
530.588	5.8
530.935	5.89
531.282	5.84
531.628	5.98
531.975	5.93
532.321	6.07
532.667	6.04
533.014	6.09
533.36	6.1
533.706	6.16
534.052	6.15
534.399	6.08
534.745	6.05
535.091	6.01
535.437	6.1
535.783	6.12
536.129	6.12
536.474	6.3
536.82	6.31
537.166	6.25
537.512	6.3
537.857	6.3
538.203	6.27
538.549	6.28
538.894	6.26
539.239	6.37
539.585	6.49
539.93	6.48
540.276	6.43
540.621	6.52
540.966	6.48
541.311	6.57
541.656	6.43
542.001	6.38
542.346	6.34
542.691	6.34
543.036	6.31
543.381	6.4
543.726	6.38
544.071	6.47
544.415	6.52
544.76	6.41
545.105	6.51
545.449	6.5
545.794	6.63
546.138	6.52
546.483	6.7
546.827	6.59
547.171	6.82
547.516	6.67
547.86	6.67
548.204	6.77
548.548	6.7
548.892	6.78
549.236	6.74
549.58	6.86
549.924	6.92
550.268	6.96
550.612	7.06
550.956	7.11
551.3	7.14
551.643	7.01
551.987	7.04
552.33	7.22
552.674	7.01
553.017	7.21
553.361	7.15
553.704	7.05
554.048	7.05
554.391	7.16
554.734	7.01
555.077	7.14
555.42	7.35
555.764	7.22
556.107	7.39
556.45	7.41
556.793	7.53
557.135	7.19
557.478	7.36
557.821	7.45
558.164	7.57
558.507	7.38
558.849	7.55
559.192	7.42
559.534	7.38
559.877	7.37
560.219	7.41
560.562	7.45
560.904	7.68
561.246	7.4
561.589	7.65
561.931	7.66
562.273	7.48
562.615	7.53
562.957	7.53
563.299	7.7
563.641	7.68
563.983	7.57
564.325	7.73
564.667	7.63
565.008	7.64
565.35	7.62
565.692	7.69
566.033	7.71
566.375	7.76
566.716	7.64
567.058	7.78
567.399	7.9
567.741	7.8
568.082	7.89
568.423	7.85
568.764	7.92
569.105	7.94
569.447	8.01
569.788	8.02
570.129	7.94
570.47	8.09
570.811	7.95
571.151	7.97
571.492	8.05
571.833	8.13
572.174	8.2
572.514	8.18
572.855	8.29
573.195	8.18
573.536	8.23
573.876	8.18
574.217	8.12
574.557	8.36
574.898	8.2
575.238	8.41
575.578	8.38
575.918	8.44
576.258	8.52
576.598	8.41
576.938	8.39
577.278	8.39
577.618	8.47
577.958	8.54
578.298	8.67
578.638	8.58
578.977	8.78
579.317	8.6
579.657	8.67
579.996	8.92
580.336	8.83
580.675	8.89
581.014	8.82
581.354	8.91
581.693	8.97
582.032	9.13
582.372	8.97
582.711	9.07
583.05	8.98
583.389	9.01
583.728	9.04
584.067	8.96
584.406	8.97
584.745	9.14
585.083	9.18
585.422	9.23
585.761	9.14
586.1	9.09
586.438	9.25
586.777	9.27
587.115	9.34
587.454	9.26
587.792	9.35
588.13	9.5
588.469	9.31
588.807	9.53
589.145	9.57
589.483	9.23
589.821	9.24
590.159	9.51
590.497	9.52
590.835	9.56
591.173	9.75
591.511	9.86
591.849	9.69
592.187	9.65
592.524	9.68
592.862	9.81
593.2	9.66
593.537	9.71
593.875	9.98
594.212	9.99
594.55	9.94
594.887	9.99
595.224	9.98
595.561	9.75
595.899	9.9
596.236	10.2
596.573	9.81
596.91	9.87
597.247	9.97
597.584	9.96
597.921	9.86
598.258	10.28
598.594	10.01
598.931	9.94
599.268	9.9
599.604	10.23
599.941	10.14
600.277	10.36
600.614	10.27
600.95	10.45
601.287	10.3
601.623	10.21
601.959	10.51
602.296	10.39
602.632	10.41
602.968	10.38
603.304	10.6
603.64	10.56
603.976	10.46
604.312	10.6
604.648	10.88
604.984	10.59
605.319	10.46
605.655	10.79
605.991	10.64
606.326	10.71
606.662	10.48
606.998	10.79
607.333	10.87
607.668	10.83
608.004	10.87
608.339	10.94
608.674	11.02
609.01	11.33
609.345	11.09
609.68	11.09
610.015	11.08
610.35	11.25
610.685	10.94
611.02	10.96
611.355	11.12
611.689	10.93
612.024	11.25
612.359	11.26
612.694	11.21
613.028	11.13
613.363	11.36
613.697	11.45
614.032	11.43
614.366	11.35
614.7	11.26
615.035	11.47
615.369	11.88
615.703	11.68
616.037	11.63
616.371	11.64
616.705	11.74
617.039	11.87
617.373	11.69
617.707	11.87
618.041	11.41
618.375	11.43
618.709	11.77
619.042	11.88
619.376	12.16
619.71	11.62
620.043	12.19
620.377	12.27
620.71	11.89
621.043	12.25
621.377	12.26
621.71	12.37
622.043	12.36
622.376	12.32
622.709	12.47
623.043	12.4
623.376	12.17
623.709	12.66
624.041	11.91
624.374	12.06
624.707	12.18
625.04	12.12
625.373	12.37
625.705	12.57
626.038	12.4
626.37	12.34
626.703	12.56
627.035	12.92
627.368	12.89
627.7	12.63
628.032	12.49
628.365	12.97
628.697	12.93
629.029	12.86
629.361	12.9
629.693	12.92
630.025	12.74
630.357	13.13
630.689	12.78
631.021	12.99
631.353	12.92
631.684	12.8
632.016	12.89
632.348	13.16
632.679	13.25
633.011	13.09
633.342	12.95
633.674	12.84
634.005	13.17
634.336	13.26
634.668	13.28
634.999	13.2
635.33	13.47
635.661	13.3
635.992	13.55
636.323	13.47
636.654	13.64
636.985	13.2
637.316	13.42
637.647	13.76
637.977	13.66
638.308	13.88
638.639	14.07
638.969	13.17
639.3	14.26
639.63	13.57
639.961	14.09
640.291	13.64
640.622	14.05
640.952	14.1
641.282	13.55
641.612	13.77
641.943	14.09
642.273	14.12
642.603	14.21
642.933	14.46
643.263	14.81
643.592	14.07
643.922	14.95
644.252	14.15
644.582	14.27
644.911	14.17
645.241	14.04
645.571	14.57
645.9	15.08
646.23	14.76
646.559	14.07
646.888	14.7
647.218	14.61
647.547	14.55
647.876	14.31
648.205	14.21
648.534	14.49
648.863	14.67
649.192	14.62
649.521	14.57
649.85	15
650.179	14.88
650.508	14.73
650.837	15.1
651.165	15.28
651.494	14.95
651.822	15.27
652.151	14.86
652.479	15.33
652.808	14.75
653.136	14.78
653.465	14.96
653.793	15.25
654.121	15.24
654.449	15.22
654.777	14.61
655.105	14.67
655.433	15.3
655.761	15.42
656.089	15.11
656.417	15.72
656.745	15.41
657.073	15.3
657.4	15.08
657.728	15.12
658.056	15.78
658.383	15.94
658.711	15.58
659.038	16.09
659.365	16.05
659.693	15.76
660.02	15.63
660.347	16.08
660.674	15.41
661.001	15.96
661.329	15.74
661.656	15.77
661.982	15.63
662.309	15.79
662.636	15.83
662.963	15.91
663.29	16.42
663.616	15.93
663.943	16.36
664.27	16.15
664.596	16.37
664.923	16.41
665.249	16.16
665.576	16.32
665.902	16.19
666.228	16.34
666.554	16.78
666.881	15.81
667.207	16.26
667.533	16.45
667.859	16.83
668.185	16.45
668.511	16.58
668.837	17.34
669.162	16.67
669.488	16.37
669.814	16.32
670.139	16
670.465	16.5
670.791	16.56
671.116	16.3
671.442	16.63
671.767	16.74
672.092	16.84
672.418	16.98
672.743	16.88
673.068	16.92
673.393	17.19
673.718	16.59
674.043	17.26
674.368	17.6
674.693	17.24
675.018	17.83
675.343	18.13
675.667	17.86
675.992	17.43
676.317	16.87
676.641	18.26
676.966	17.62
677.29	17.67
677.615	17.3
677.939	18.06
678.264	17.41
678.588	18.01
678.912	17.95
679.236	17.48
679.56	17.17
679.885	17.8
680.209	18.42
680.532	18.4
680.856	17.89
681.18	18.13
681.504	17.74
681.828	17.47
682.152	17.89
682.475	17.85
682.799	18.2
683.122	18.25
683.446	17.88
683.769	18.63
684.093	18.78
684.416	18.27
684.739	18.16
685.062	18.15
685.386	17.85
685.709	18.22
