Data from 22-2_forehead_Reflection__0__236.txt Node

Date: Thu Dec 15 18:18:46 CST 2022
User: ToomeyLab
Spectrometer: FLMS14357
Trigger mode: 0
Integration Time (sec): 1.000000E-2
Scans to average: 100
Electric dark correction enabled: true
Nonlinearity correction enabled: false
Boxcar width: 0
XAxis mode: Wavelengths
Number of Pixels in Spectrum: 2048
>>>>>Begin Spectral Data<<<<<
189.047	275.85
189.435	275.85
189.823	275.85
190.211	-157.41
190.599	154.16
190.987	3.35
191.375	-38.5
191.763	844.13
192.151	82.96
192.538	42.76
192.926	18.8
193.314	107.75
193.702	-19.05
194.089	102.49
194.477	2985.06
194.864	111.41
195.252	31.59
195.639	182.43
196.027	64.19
196.414	-211.27
196.801	1347.27
197.189	363.08
197.576	-1765.37
197.963	221.13
198.351	54.95
198.738	-21.99
199.125	-131.25
199.512	14.18
199.899	-43.28
200.286	-18.25
200.673	38.17
201.06	-49.76
201.447	-31.95
201.833	-39.27
202.22	11.7
202.607	1.63
202.994	34.25
203.38	55.78
203.767	9.74
204.154	30.85
204.54	27.54
204.927	9.79
205.313	23.21
205.699	64.63
206.086	25.26
206.472	39.75
206.858	22.69
207.245	-37.74
207.631	22.21
208.017	37
208.403	-39.48
208.789	28.87
209.175	-9.39
209.561	-152.21
209.947	-30.27
210.333	-17.78
210.719	3.23
211.105	27.35
211.491	10.21
211.876	21.13
212.262	-16.64
212.648	8.13
213.034	-16.43
213.419	13.17
213.805	-26.01
214.19	-18.2
214.576	-21.41
214.961	-9.51
215.346	-45.19
215.732	15.54
216.117	19.79
216.502	-14.84
216.888	-9.65
217.273	8.48
217.658	-2.63
218.043	9.51
218.428	-24.97
218.813	25.65
219.198	-19.6
219.583	-22.51
219.968	3.98
220.353	-35.38
220.738	3.59
221.122	-11.34
221.507	-7.64
221.892	-22.6
222.276	-22.48
222.661	-1.1
223.046	-9.89
223.43	10.59
223.815	-5.04
224.199	-9.56
224.583	-3.33
224.968	-0.05
225.352	-6.03
225.736	7.61
226.121	5.86
226.505	-1.18
226.889	2.18
227.273	1.06
227.657	4.23
228.041	2.03
228.425	2
228.809	0.53
229.193	5.84
229.577	5.3
229.961	3.44
230.344	3.61
230.728	4.97
231.112	4.91
231.495	3.19
231.879	3.84
232.263	4.72
232.646	4.75
233.03	4.56
233.413	5.71
233.797	4.04
234.18	5.8
234.563	3.03
234.946	3.18
235.33	3.72
235.713	4.84
236.096	5.47
236.479	4.77
236.862	2.89
237.245	3.11
237.628	5.58
238.011	3.91
238.394	5.03
238.777	3.59
239.16	7.45
239.543	4.51
239.925	3.77
240.308	3.9
240.691	2.21
241.073	4.58
241.456	5.91
241.838	5.51
242.221	5.12
242.603	5.36
242.986	5.26
243.368	5.29
243.75	5.21
244.133	5.09
244.515	5.19
244.897	5.46
245.279	4.93
245.661	5.25
246.043	4.96
246.425	5.34
246.807	5.29
247.189	4.58
247.571	4.83
247.953	4.87
248.335	5.31
248.717	5.22
249.098	5.33
249.48	4.98
249.862	5.34
250.243	5.34
250.625	5.19
251.006	5.9
251.388	4.56
251.769	4.74
252.151	6.09
252.532	4.52
252.913	5.65
253.295	4.83
253.676	5.19
254.057	5
254.438	5.52
254.819	5.27
255.2	5.54
255.581	5.79
255.962	5.7
256.343	3.91
256.724	5.03
257.105	5.34
257.486	4.58
257.867	5.3
258.247	5.88
258.628	5.14
259.009	4.77
259.389	4.95
259.77	5.21
260.15	5.68
260.531	5.22
260.911	5.03
261.292	5.24
261.672	5.24
262.052	5.21
262.432	5.14
262.813	5.32
263.193	5.25
263.573	5.44
263.953	5.08
264.333	5.42
264.713	5.32
265.093	4.32
265.473	4.63
265.853	4.38
266.233	4.99
266.612	4.75
266.992	5.02
267.372	4.96
267.752	5.63
268.131	5.24
268.511	5.05
268.89	5.11
269.27	4.27
269.649	4.51
270.029	4.57
270.408	5.15
270.787	5.39
271.167	5.11
271.546	5.42
271.925	5.06
272.304	4.92
272.683	4.64
273.062	4.99
273.441	4.74
273.82	4.64
274.199	4.89
274.578	4.95
274.957	4.61
275.336	4.97
275.715	5.17
276.093	4.73
276.472	4.23
276.851	5.21
277.229	5.07
277.608	4.85
277.986	5.15
278.365	5.06
278.743	4.77
279.122	4.85
279.5	4.76
279.878	4.88
280.257	4.58
280.635	4.93
281.013	4.45
281.391	4.95
281.769	4.78
282.147	4.98
282.525	4.24
282.903	4.66
283.281	4.91
283.659	5.11
284.037	5.08
284.415	4.67
284.792	5.08
285.17	5.04
285.548	4.96
285.925	4.8
286.303	5.51
286.68	4.96
287.058	5.21
287.435	4.83
287.813	4.96
288.19	4.68
288.567	4.79
288.945	4.88
289.322	5.13
289.699	5.09
290.076	5.17
290.453	4.75
290.83	5.12
291.207	4.9
291.584	5.45
291.961	5.14
292.338	4.98
292.715	5.01
293.092	5.49
293.469	5.17
293.845	5.02
294.222	5.66
294.599	5
294.975	5.16
295.352	5.75
295.728	5.77
296.105	5.43
296.481	5.62
296.858	5.81
297.234	5.39
297.61	5.88
297.986	6.03
298.363	6.1
298.739	5.89
299.115	5.81
299.491	6.19
299.867	5.72
300.243	5.77
300.619	5.84
300.995	5.99
301.371	6.09
301.746	5.88
302.122	5.68
302.498	6.17
302.874	6.55
303.249	6.11
303.625	5.75
304	6.5
304.376	6.72
304.751	6.4
305.127	5.99
305.502	6.46
305.878	6.61
306.253	6.04
306.628	6.78
307.003	6.46
307.378	6.3
307.754	6.5
308.129	6.74
308.504	6.5
308.879	7.11
309.254	6.9
309.629	7
310.003	6.54
310.378	7.21
310.753	7.06
311.128	7.01
311.502	7.41
311.877	7.21
312.252	7.01
312.626	7.37
313.001	6.97
313.375	7.44
313.75	7.34
314.124	7.37
314.498	7.79
314.873	7.2
315.247	7.32
315.621	7.38
315.995	7.45
316.369	7.42
316.743	7.37
317.117	7.38
317.491	7.21
317.865	7.62
318.239	8.59
318.613	7.78
318.987	7.24
319.361	7.61
319.734	7.54
320.108	7.64
320.482	8.76
320.855	8.16
321.229	7.84
321.602	8.06
321.976	7.86
322.349	8.51
322.723	7.94
323.096	8.06
323.469	8.2
323.843	7.81
324.216	8.46
324.589	8.53
324.962	8.25
325.335	8.01
325.708	8.12
326.081	8.82
326.454	8.37
326.827	8.48
327.2	8.07
327.573	8.96
327.945	8.35
328.318	8.46
328.691	8.51
329.063	8.41
329.436	8.55
329.809	9.38
330.181	9.93
330.553	9.08
330.926	8.81
331.298	8.95
331.671	9.41
332.043	8.85
332.415	8.85
332.787	9.21
333.159	8.56
333.532	9.24
333.904	9.22
334.276	8.9
334.648	9.21
335.02	8.96
335.391	8.74
335.763	9.27
336.135	8.77
336.507	9.24
336.879	9.93
337.25	9.62
337.622	9.33
337.993	8.76
338.365	9.25
338.736	9.3
339.108	8.99
339.479	9.53
339.851	9.57
340.222	10.12
340.593	9.2
340.964	9.59
341.336	9.38
341.707	9.52
342.078	9.7
342.449	9.51
342.82	9.52
343.191	9.74
343.562	9.49
343.933	9.62
344.303	9.86
344.674	9.57
345.045	9.93
345.416	9.85
345.786	9.66
346.157	10.01
346.527	9.87
346.898	9.92
347.268	10.25
347.639	9.67
348.009	9.87
348.38	9.71
348.75	10.48
349.12	10.06
349.49	10.42
349.861	10.11
350.231	10.04
350.601	9.91
350.971	9.81
351.341	10.31
351.711	10.27
352.081	10.08
352.45	9.84
352.82	9.81
353.19	10.36
353.56	9.89
353.929	10.23
354.299	10.73
354.669	10.28
355.038	10.75
355.408	10.32
355.777	10.55
356.147	10.86
356.516	10.46
356.885	10.24
357.254	10.42
357.624	10.4
357.993	10.45
358.362	10.47
358.731	10.48
359.1	10.67
359.469	10.74
359.838	10.96
360.207	10.7
360.576	10.85
360.945	11.02
361.314	10.9
361.682	10.57
362.051	10.64
362.42	10.6
362.788	10.79
363.157	10.77
363.525	10.82
363.894	10.66
364.262	10.71
364.631	11.15
364.999	10.97
365.367	10.77
365.735	10.63
366.104	10.84
366.472	11.21
366.84	11.01
367.208	11.18
367.576	10.81
367.944	11.19
368.312	11.02
368.68	11.54
369.048	11.21
369.416	11.11
369.783	11.17
370.151	11.42
370.519	11.53
370.886	11.19
371.254	11.41
371.621	11.42
371.989	11.58
372.356	11.47
372.724	11.42
373.091	11.06
373.458	11.45
373.826	11.7
374.193	11.39
374.56	12.02
374.927	11.17
375.294	11.64
375.661	11.76
376.028	11.69
376.395	11.58
376.762	11.55
377.129	11.39
377.496	11.62
377.863	11.89
378.229	11.91
378.596	11.94
378.963	11.79
379.329	11.8
379.696	11.74
380.062	11.92
380.429	11.54
380.795	11.89
381.161	11.9
381.528	11.74
381.894	11.67
382.26	12.05
382.626	11.88
382.993	12.13
383.359	11.99
383.725	11.98
384.091	11.85
384.457	11.89
384.823	12.06
385.188	12.14
385.554	12.17
385.92	12.11
386.286	12.2
386.651	12.13
387.017	12.3
387.383	12.11
387.748	12.32
388.114	12.26
388.479	12.25
388.845	11.97
389.21	12.48
389.575	12.64
389.94	12.45
390.306	12.19
390.671	12.1
391.036	12.27
391.401	12.48
391.766	12.41
392.131	12.45
392.496	12.62
392.861	12.32
393.226	12.22
393.591	12.54
393.956	12.54
394.32	12.55
394.685	12.41
395.05	12.57
395.414	12.37
395.779	12.63
396.143	12.31
396.508	12.5
396.872	12.5
397.236	12.7
397.601	12.55
397.965	12.72
398.329	12.44
398.694	12.6
399.058	12.73
399.422	12.61
399.786	12.63
400.15	12.42
400.514	12.79
400.878	12.66
401.242	12.74
401.605	12.65
401.969	12.66
402.333	12.47
402.697	12.87
403.06	12.87
403.424	12.93
403.787	12.8
404.151	12.91
404.514	12.85
404.878	12.6
405.241	12.78
405.604	12.83
405.968	12.59
406.331	12.94
406.694	12.73
407.057	12.63
407.42	12.8
407.783	12.97
408.146	12.93
408.509	12.93
408.872	12.85
409.235	13.24
409.598	12.97
409.961	13.17
410.323	12.91
410.686	12.91
411.049	12.9
411.411	13.15
411.774	13.04
412.136	12.9
412.499	12.95
412.861	12.89
413.223	12.94
413.586	13.05
413.948	12.91
414.31	13.23
414.672	12.9
415.035	13.34
415.397	13.02
415.759	13.04
416.121	13.31
416.483	13.15
416.845	13.21
417.206	13.09
417.568	13.14
417.93	13.36
418.292	12.97
418.653	13.26
419.015	13.18
419.377	13.31
419.738	13.27
420.1	13.31
420.461	13.13
420.822	13.36
421.184	13.4
421.545	13.34
421.906	13.39
422.267	13.39
422.629	13.2
422.99	13.35
423.351	13.3
423.712	13.56
424.073	13.64
424.434	13.72
424.795	13.62
425.155	13.48
425.516	13.43
425.877	13.59
426.238	13.6
426.598	13.68
426.959	13.89
427.32	13.74
427.68	13.84
428.041	13.98
428.401	14.09
428.761	14.31
429.122	14.2
429.482	14.26
429.842	14.23
430.202	14.29
430.563	14.23
430.923	14.41
431.283	14.39
431.643	14.65
432.003	14.59
432.363	14.38
432.722	14.61
433.082	14.5
433.442	14.6
433.802	14.54
434.161	14.47
434.521	14.66
434.881	14.79
435.24	14.68
435.6	14.9
435.959	14.74
436.319	14.73
436.678	14.86
437.037	14.95
437.396	14.89
437.756	14.95
438.115	15.07
438.474	14.97
438.833	15.04
439.192	15.1
439.551	15.13
439.91	15.08
440.269	15.14
440.628	15.11
440.987	15.15
441.345	15.4
441.704	15.18
442.063	15.13
442.421	15.17
442.78	15.28
443.138	15.29
443.497	15.3
443.855	15.56
444.214	15.41
444.572	15.67
444.93	15.57
445.288	15.51
445.647	15.58
446.005	15.56
446.363	15.56
446.721	15.66
447.079	15.46
447.437	15.63
447.795	15.61
448.153	15.55
448.51	15.55
448.868	15.56
449.226	15.67
449.584	15.73
449.941	15.84
450.299	15.85
450.656	15.99
451.014	16.04
451.371	16.09
451.729	16.11
452.086	16.13
452.443	16.31
452.801	16.18
453.158	16.28
453.515	16.17
453.872	16.16
454.229	16.18
454.586	16.15
454.943	16.31
455.3	16.36
455.657	16.31
456.014	16.35
456.371	16.61
456.727	16.46
457.084	16.7
457.441	16.65
457.797	16.7
458.154	16.6
458.51	16.52
458.867	16.68
459.223	16.37
459.58	16.71
459.936	16.61
460.292	16.71
460.648	16.53
461.005	16.59
461.361	16.56
461.717	16.52
462.073	16.72
462.429	16.79
462.785	16.85
463.141	16.92
463.496	16.97
463.852	17.16
464.208	17.09
464.564	17.18
464.919	17.3
465.275	17.14
465.631	17.32
465.986	17.33
466.342	17.31
466.697	17.34
467.052	17.54
467.408	17.5
467.763	17.3
468.118	17.36
468.473	17.33
468.829	17.48
469.184	17.64
469.539	17.31
469.894	17.73
470.249	17.59
470.603	17.68
470.958	17.77
471.313	17.83
471.668	17.6
472.023	17.65
472.377	17.75
472.732	17.84
473.086	18.08
473.441	17.92
473.795	18.16
474.15	17.98
474.504	17.97
474.859	17.82
475.213	17.96
475.567	17.73
475.921	17.87
476.275	18.2
476.63	18.31
476.984	18.01
477.338	18.19
477.692	18.12
478.045	18.29
478.399	18.26
478.753	18.1
479.107	18.25
479.461	18.17
479.814	18.24
480.168	18.12
480.521	18.12
480.875	18.36
481.228	18.45
481.582	18.47
481.935	18.51
482.289	18.44
482.642	18.52
482.995	18.39
483.348	18.23
483.701	18.44
484.055	18.22
484.408	18.08
484.761	17.87
485.114	17.72
485.466	17.68
485.819	17.82
486.172	17.84
486.525	17.97
486.878	18.1
487.23	18.18
487.583	18.39
487.936	18.35
488.288	18.26
488.641	18.1
488.993	18.01
489.345	18.15
489.698	18.09
490.05	18.16
490.402	18.34
490.754	18.46
491.107	18.51
491.459	18.8
491.811	18.92
492.163	18.82
492.515	18.66
492.866	18.49
493.218	18.33
493.57	18.49
493.922	18.61
494.274	18.8
494.625	18.99
494.977	18.99
495.328	19.32
495.68	19.26
496.031	19.39
496.383	19.48
496.734	19.5
497.086	19.57
497.437	19.65
497.788	19.48
498.139	19.29
498.49	19.54
498.842	19.46
499.193	19.47
499.544	19.59
499.894	19.65
500.245	19.65
500.596	19.76
500.947	19.66
501.298	19.77
501.648	19.76
501.999	20.1
502.35	19.93
502.7	20.22
503.051	20.02
503.401	20.11
503.752	20.18
504.102	20.13
504.452	20.02
504.803	20.14
505.153	20.37
505.503	20.18
505.853	20.37
506.203	20.33
506.553	20.33
506.903	20.44
507.253	20.49
507.603	20.49
507.953	20.44
508.303	20.54
508.652	20.39
509.002	20.54
509.352	20.56
509.701	20.38
510.051	20.61
510.4	20.37
510.75	20.53
511.099	20.5
511.449	20.51
511.798	20.58
512.147	20.46
512.496	20.7
512.846	20.71
513.195	20.81
513.544	20.67
513.893	20.69
514.242	20.65
514.591	20.7
514.939	20.99
515.288	20.97
515.637	20.89
515.986	20.91
516.334	21.19
516.683	21.21
517.032	20.94
517.38	21.11
517.729	21.23
518.077	21.22
518.426	21.19
518.774	21.09
519.122	21.11
519.47	21.09
519.819	21.09
520.167	21.02
520.515	21.02
520.863	21.01
521.211	21.15
521.559	21.29
521.907	21.41
522.255	21.43
522.602	21.38
522.95	21.51
523.298	21.68
523.645	21.63
523.993	21.72
524.341	21.77
524.688	21.67
525.036	21.76
525.383	21.83
525.73	21.65
526.078	21.68
526.425	21.61
526.772	21.5
527.119	21.51
527.466	21.54
527.814	21.57
528.161	21.72
528.508	21.73
528.854	21.6
529.201	21.58
529.548	21.3
529.895	21.12
530.242	21.13
530.588	21.19
530.935	21.39
531.282	21.49
531.628	21.54
531.975	21.64
532.321	21.74
532.667	21.99
533.014	22.06
533.36	22.02
533.706	22.13
534.052	21.93
534.399	21.89
534.745	21.67
535.091	21.79
535.437	21.81
535.783	22.03
536.129	22.15
536.474	22.38
536.82	22.33
537.166	22.48
537.512	22.26
537.857	22.31
538.203	22.27
538.549	22.38
538.894	22.36
539.239	22.65
539.585	22.62
539.93	22.84
540.276	22.76
540.621	23.06
540.966	22.86
541.311	22.94
541.656	22.9
542.001	22.65
542.346	22.55
542.691	22.37
543.036	22.29
543.381	22.45
543.726	22.47
544.071	22.57
544.415	22.7
544.76	22.8
545.105	22.89
545.449	23.06
545.794	23.02
546.138	23.21
546.483	23.33
546.827	23.26
547.171	23.39
547.516	23.43
547.86	23.31
548.204	23.33
548.548	23.26
548.892	23.5
549.236	23.42
549.58	23.57
549.924	23.97
550.268	23.93
550.612	24.01
550.956	23.9
551.3	24.19
551.643	24.21
551.987	24.23
552.33	24.38
552.674	24.35
553.017	24.33
553.361	24.3
553.704	24.28
554.048	24.25
554.391	24.18
554.734	24.16
555.077	24.27
555.42	24.3
555.764	24.45
556.107	24.44
556.45	24.42
556.793	24.61
557.135	24.6
557.478	24.76
557.821	24.46
558.164	24.67
558.507	24.6
558.849	24.89
559.192	24.86
559.534	24.84
559.877	24.79
560.219	24.85
560.562	24.86
560.904	25
561.246	24.99
561.589	24.97
561.931	25.1
562.273	24.96
562.615	24.89
562.957	24.8
563.299	25.15
563.641	25.18
563.983	24.97
564.325	25.09
564.667	25.07
565.008	25.22
565.35	25.13
565.692	25.27
566.033	25.23
566.375	25.39
566.716	25.33
567.058	25.43
567.399	25.3
567.741	25.3
568.082	25.3
568.423	25.45
568.764	25.54
569.105	25.47
569.447	25.48
569.788	25.65
570.129	25.5
570.47	25.87
570.811	25.83
571.151	25.54
571.492	25.62
571.833	25.59
572.174	25.82
572.514	26.16
572.855	25.72
573.195	25.89
573.536	25.79
573.876	25.78
574.217	25.93
574.557	25.99
574.898	25.89
575.238	26.04
575.578	26.06
575.918	26.03
576.258	26.35
576.598	26.16
576.938	26.05
577.278	26.12
577.618	26.3
577.958	26.23
578.298	26.36
578.638	26.35
578.977	26.63
579.317	26.46
579.657	26.49
579.996	26.81
580.336	26.7
580.675	26.74
581.014	26.96
581.354	26.91
581.693	26.95
582.032	27.12
582.372	27.13
582.711	27
583.05	26.9
583.389	27.11
583.728	27.2
584.067	27.09
584.406	27.09
584.745	27.26
585.083	27.44
585.422	27.34
585.761	27.13
586.1	27.38
586.438	27.42
586.777	27.28
587.115	27.14
587.454	27.27
587.792	27.4
588.13	27.39
588.469	27.46
588.807	27.7
589.145	27.48
589.483	27.59
589.821	27.59
590.159	27.69
590.497	27.56
590.835	27.89
591.173	27.74
591.511	27.78
591.849	27.72
592.187	27.9
592.524	27.77
592.862	27.76
593.2	27.75
593.537	28.03
593.875	27.82
594.212	28.08
594.55	28.16
594.887	28.1
595.224	28.29
595.561	28.16
595.899	28.7
596.236	28.25
596.573	28.06
596.91	28.07
597.247	28.47
597.584	28.44
597.921	28.2
598.258	28.21
598.594	28.09
598.931	28.11
599.268	27.95
599.604	28.27
599.941	28.4
600.277	28.46
600.614	28.56
600.95	28.59
601.287	28.66
601.623	28.33
601.959	29.14
602.296	28.88
602.632	28.87
602.968	28.58
603.304	28.67
603.64	29.08
603.976	28.67
604.312	29.06
604.648	28.97
604.984	28.76
605.319	29.12
605.655	28.91
605.991	28.93
606.326	28.97
606.662	28.84
606.998	29.16
607.333	29.1
607.668	28.97
608.004	29.33
608.339	29.11
608.674	29.21
609.01	29.42
609.345	29.55
609.68	29.42
610.015	29.35
610.35	29.24
610.685	29.27
611.02	29.05
611.355	29.15
611.689	29.6
612.024	29.76
612.359	29.84
612.694	29.91
613.028	29.61
613.363	29.95
613.697	29.63
614.032	29.81
614.366	29.75
614.7	29.77
615.035	29.51
615.369	30.16
615.703	30.08
616.037	29.84
616.371	30.07
616.705	29.76
617.039	30.2
617.373	30.33
617.707	30.34
618.041	30.12
618.375	29.82
618.709	30.7
619.042	30.39
619.376	30.15
619.71	30.48
620.043	30.52
620.377	30.49
620.71	30.39
621.043	30.39
621.377	30.6
621.71	30.72
622.043	30.68
622.376	30.86
622.709	30.93
623.043	30.53
623.376	30.88
623.709	30.93
624.041	30.62
624.374	31.04
624.707	30.78
625.04	30.8
625.373	30.98
625.705	30.73
626.038	30.9
626.37	31.16
626.703	31.05
627.035	31.17
627.368	30.97
627.7	30.9
628.032	30.94
628.365	31.27
628.697	31.15
629.029	31.02
629.361	31.09
629.693	31.22
630.025	31.04
630.357	31.52
630.689	31.37
631.021	31.57
631.353	31.58
631.684	31.2
632.016	30.94
632.348	31.31
632.679	31.56
633.011	31.62
633.342	31.91
633.674	31.41
634.005	31.74
634.336	31.75
634.668	31.78
634.999	31.8
635.33	31.74
635.661	31.8
635.992	32.19
636.323	31.68
636.654	32.19
636.985	31.89
637.316	31.86
637.647	32.29
637.977	32.31
638.308	32.52
638.639	32.36
638.969	32.2
639.3	32.4
639.63	32.05
639.961	32.38
640.291	31.89
640.622	32.48
640.952	32.64
641.282	32.2
641.612	32.7
641.943	32.37
642.273	32.51
642.603	32.66
642.933	32.73
643.263	32.83
643.592	33.15
643.922	33.06
644.252	32.87
644.582	32.62
644.911	32.45
645.241	32.64
645.571	32.94
645.9	32.97
646.23	33.25
646.559	32.31
646.888	33.38
647.218	32.68
647.547	32.91
647.876	33.07
648.205	32.4
648.534	33.26
648.863	33.01
649.192	32.8
649.521	33.04
649.85	33.24
650.179	33.38
650.508	33.25
650.837	33.39
651.165	33.54
651.494	33.41
651.822	33.26
652.151	33.08
652.479	33.36
652.808	33.34
653.136	33.15
653.465	33.35
653.793	33.42
654.121	33.69
654.449	33.09
654.777	33.14
655.105	33.03
655.433	33.6
655.761	33.96
656.089	33.85
656.417	33.88
656.745	34.32
657.073	33.71
657.4	33.38
657.728	33.73
658.056	33.89
658.383	34.13
658.711	33.67
659.038	34.27
659.365	33.96
659.693	33.63
660.02	33.79
660.347	33.68
660.674	33.89
661.001	34.01
661.329	33.52
661.656	33.63
661.982	33.39
662.309	33.89
662.636	34.03
662.963	34.05
663.29	34.01
663.616	34.06
663.943	34.25
664.27	34.29
664.596	34.02
664.923	34.15
665.249	33.82
665.576	34.13
665.902	33.97
666.228	34.24
666.554	34.38
666.881	34.05
667.207	33.84
667.533	33.75
667.859	34.57
668.185	34.47
668.511	34.42
668.837	34.57
669.162	34.89
669.488	34.11
669.814	34.38
670.139	33.94
