Data from 22-2_crown_Reflection__4__235.txt Node

Date: Thu Dec 15 18:18:12 CST 2022
User: ToomeyLab
Spectrometer: FLMS14357
Trigger mode: 0
Integration Time (sec): 1.000000E-2
Scans to average: 100
Electric dark correction enabled: true
Nonlinearity correction enabled: false
Boxcar width: 0
XAxis mode: Wavelengths
Number of Pixels in Spectrum: 2048
>>>>>Begin Spectral Data<<<<<
189.047	-345.28
189.435	-345.28
189.823	-345.28
190.211	-620.19
190.599	41.13
190.987	104.64
191.375	94.22
191.763	1406.88
192.151	-138.91
192.538	95.59
192.926	81.81
193.314	46.46
193.702	-21.58
194.089	-250.29
194.477	5575.86
194.864	109.43
195.252	88.88
195.639	92.36
196.027	157.46
196.414	-129.96
196.801	2565.45
197.189	451.48
197.576	-22.99
197.963	237.88
198.351	-4.28
198.738	-68.49
199.125	-79.69
199.512	19.21
199.899	-11.62
200.286	9.43
200.673	39.7
201.06	-40.38
201.447	-21.85
201.833	-37.38
202.22	-41.35
202.607	-99.87
202.994	0.84
203.38	21.03
203.767	-22.9
204.154	11.05
204.54	-7.96
204.927	-5.68
205.313	45.6
205.699	25.45
206.086	16.73
206.472	25.52
206.858	-5.3
207.245	-21.05
207.631	-26.73
208.017	10.64
208.403	-27.95
208.789	18.49
209.175	-0.23
209.561	-118.89
209.947	-0.78
210.333	2.2
210.719	42.55
211.105	23.2
211.491	12.48
211.876	-93.96
212.262	4.6
212.648	10.52
213.034	-8.73
213.419	-15.95
213.805	-101.43
214.19	-6.33
214.576	0.26
214.961	-34.93
215.346	-25.68
215.732	-3.43
216.117	-7.98
216.502	-33.3
216.888	7.69
217.273	-0.48
217.658	-13.21
218.043	-23.96
218.428	-19.71
218.813	3.63
219.198	-36.01
219.583	-36.62
219.968	1.03
220.353	-3.17
220.738	-6.58
221.122	-5.96
221.507	-12.77
221.892	-28.86
222.276	-14.84
222.661	-10.38
223.046	-3.27
223.43	14.71
223.815	3.82
224.199	-0.2
224.583	2.06
224.968	-13.85
225.352	-5.17
225.736	10.91
226.121	-1.31
226.505	7.24
226.889	-0.35
227.273	-0.35
227.657	3.12
228.041	5.8
228.425	2.32
228.809	4.88
229.193	6.89
229.577	4.16
229.961	3.89
230.344	5.53
230.728	4.86
231.112	4.83
231.495	4.06
231.879	3.47
232.263	4.6
232.646	4.76
233.03	5.71
233.413	4.17
233.797	4.91
234.18	3.18
234.563	4.08
234.946	3.81
235.33	3.66
235.713	5.67
236.096	6.39
236.479	5.97
236.862	4.14
237.245	3.76
237.628	3.7
238.011	3.63
238.394	4.09
238.777	3.02
239.16	7.25
239.543	5.49
239.925	3.94
240.308	3.2
240.691	3.6
241.073	3
241.456	5.21
241.838	4.41
242.221	4.29
242.603	5.2
242.986	4.61
243.368	4.76
243.75	4.92
244.133	5.51
244.515	5.2
244.897	4.69
245.279	4.61
245.661	5
246.043	5.16
246.425	4.7
246.807	4.48
247.189	4.62
247.571	4.83
247.953	4.79
248.335	4.97
248.717	4.93
249.098	5.11
249.48	4.89
249.862	5.27
250.243	5.17
250.625	4.6
251.006	5.61
251.388	4.71
251.769	4.9
252.151	5.6
252.532	4.39
252.913	4.77
253.295	4.88
253.676	5
254.057	5.25
254.438	5.21
254.819	4.43
255.2	4.23
255.581	5.5
255.962	5.35
256.343	5.28
256.724	4.49
257.105	4.43
257.486	3.85
257.867	4.43
258.247	4.65
258.628	5.01
259.009	4.65
259.389	4.06
259.77	4.62
260.15	5.37
260.531	5
260.911	4.97
261.292	5.02
261.672	4.67
262.052	4.81
262.432	4.45
262.813	4.78
263.193	5.11
263.573	4.74
263.953	4.12
264.333	5.05
264.713	5.25
265.093	4.42
265.473	3.87
265.853	4.72
266.233	3.86
266.612	4.25
266.992	4.55
267.372	5.02
267.752	5.35
268.131	4.35
268.511	4.73
268.89	5.13
269.27	3.67
269.649	4.55
270.029	4.25
270.408	4.31
270.787	4.11
271.167	4.88
271.546	5
271.925	4.24
272.304	4.7
272.683	4.57
273.062	4.67
273.441	4.75
273.82	4.49
274.199	4.23
274.578	4.82
274.957	4.82
275.336	5.02
275.715	4.97
276.093	4.09
276.472	4.18
276.851	4.57
277.229	4.7
277.608	3.91
277.986	4.3
278.365	4.75
278.743	4.41
279.122	4.11
279.5	4.32
279.878	4.27
280.257	4.32
280.635	4.59
281.013	3.54
281.391	4.4
281.769	4.83
282.147	4.18
282.525	3.96
282.903	3.88
283.281	4.78
283.659	4.28
284.037	4.22
284.415	4.25
284.792	4.72
285.17	4.49
285.548	4.38
285.925	4.5
286.303	4.5
286.68	4.3
287.058	4.27
287.435	4.4
287.813	4.51
288.19	4.25
288.567	4.12
288.945	4.05
289.322	4.55
289.699	4.33
290.076	4.22
290.453	4.12
290.83	4.36
291.207	4.35
291.584	4.82
291.961	4.7
292.338	4.24
292.715	4.38
293.092	4.7
293.469	4.19
293.845	4.55
294.222	4.75
294.599	4.41
294.975	4.23
295.352	4.68
295.728	4.18
296.105	4.34
296.481	4.32
296.858	4.51
297.234	4.17
297.61	4.55
297.986	4.8
298.363	4.5
298.739	4.85
299.115	4.7
299.491	4.97
299.867	4.47
300.243	4.68
300.619	4.21
300.995	4.47
301.371	4.89
301.746	4.51
302.122	4.46
302.498	4.56
302.874	4.54
303.249	4.76
303.625	4.22
304	4.72
304.376	5.01
304.751	4.64
305.127	4.71
305.502	4.51
305.878	4.64
306.253	4.18
306.628	4.93
307.003	4.4
307.378	4.47
307.754	4.43
308.129	4.7
308.504	4.44
308.879	4.75
309.254	4.5
309.629	4.37
310.003	4.71
310.378	4.9
310.753	5.09
311.128	4.45
311.502	4.72
311.877	4.55
312.252	4.55
312.626	4.77
313.001	4.8
313.375	4.94
313.75	5.01
314.124	4.76
314.498	5.49
314.873	4.54
315.247	4.31
315.621	4.33
315.995	4.92
316.369	4.21
316.743	4.27
317.117	4.19
317.491	4.95
317.865	3.95
318.239	5.1
318.613	4.44
318.987	4.44
319.361	4.81
319.734	4.51
320.108	4.74
320.482	4.93
320.855	4.86
321.229	4.84
321.602	4.65
321.976	4.27
322.349	5.33
322.723	4.77
323.096	4.45
323.469	4.7
323.843	4.36
324.216	4.71
324.589	4.87
324.962	4.32
325.335	4.62
325.708	4.9
326.081	4.68
326.454	4.59
326.827	5.09
327.2	4.67
327.573	5.43
327.945	4.64
328.318	4.86
328.691	4.74
329.063	4.26
329.436	4.46
329.809	5.01
330.181	5.49
330.553	4.65
330.926	4.82
331.298	4.76
331.671	4.98
332.043	5.01
332.415	5.4
332.787	4.88
333.159	4.53
333.532	4.36
333.904	5.01
334.276	4.85
334.648	4.82
335.02	4.65
335.391	4.49
335.763	4.66
336.135	4.66
336.507	4.63
336.879	4.95
337.25	4.76
337.622	5.15
337.993	4.66
338.365	5.05
338.736	5.26
339.108	5.31
339.479	4.84
339.851	5.23
340.222	5.12
340.593	4.53
340.964	4.82
341.336	4.84
341.707	4.7
342.078	4.94
342.449	4.56
342.82	5.6
343.191	4.87
343.562	5.22
343.933	4.56
344.303	5.23
344.674	4.82
345.045	4.89
345.416	5.3
345.786	4.94
346.157	5.18
346.527	4.83
346.898	4.61
347.268	5.07
347.639	4.49
348.009	4.76
348.38	4.76
348.75	5.04
349.12	4.59
349.49	5.26
349.861	5.12
350.231	4.82
350.601	5.09
350.971	4.46
351.341	5.28
351.711	5.14
352.081	4.45
352.45	4.58
352.82	4.32
353.19	4.84
353.56	4.95
353.929	5.13
354.299	5.14
354.669	4.94
355.038	5.26
355.408	5.07
355.777	5.22
356.147	5.04
356.516	4.63
356.885	4.81
357.254	4.62
357.624	4.62
357.993	5.09
358.362	5.24
358.731	5
359.1	4.91
359.469	5.03
359.838	4.93
360.207	5.14
360.576	4.99
360.945	4.9
361.314	4.86
361.682	4.87
362.051	5.28
362.42	4.88
362.788	5.12
363.157	4.86
363.525	4.92
363.894	4.79
364.262	5.19
364.631	5.25
364.999	5.08
365.367	4.84
365.735	4.73
366.104	4.93
366.472	5.08
366.84	4.9
367.208	5.33
367.576	5.02
367.944	5.11
368.312	5.29
368.68	5.3
369.048	4.85
369.416	4.79
369.783	5.22
370.151	5.25
370.519	5.53
370.886	5.24
371.254	5.39
371.621	5.47
371.989	5.19
372.356	5.1
372.724	4.99
373.091	5.11
373.458	5.22
373.826	5.63
374.193	5.32
374.56	4.92
374.927	5.06
375.294	5.31
375.661	5.07
376.028	5.07
376.395	5.12
376.762	5
377.129	5.16
377.496	5.23
377.863	5.31
378.229	5.27
378.596	5.14
378.963	5.23
379.329	5.07
379.696	4.79
380.062	5.07
380.429	5.12
380.795	5.25
381.161	4.83
381.528	5.08
381.894	4.98
382.26	5.23
382.626	5.15
382.993	5.28
383.359	4.9
383.725	4.81
384.091	5.18
384.457	4.97
384.823	5.36
385.188	5.15
385.554	5.35
385.92	5.11
386.286	5.29
386.651	5.26
387.017	5.49
387.383	5.21
387.748	5.51
388.114	5.38
388.479	5.25
388.845	4.92
389.21	5.21
389.575	5.34
389.94	5.46
390.306	5.14
390.671	5.38
391.036	5.17
391.401	5.42
391.766	5.13
392.131	5.45
392.496	5.15
392.861	5.09
393.226	5.15
393.591	5.31
393.956	5.35
394.32	5.49
394.685	5.33
395.05	5.45
395.414	5.42
395.779	5.21
396.143	5.06
396.508	5.26
396.872	5.28
397.236	5.47
397.601	5.19
397.965	5.26
398.329	5.27
398.694	5.17
399.058	5.34
399.422	5.24
399.786	4.95
400.15	5.24
400.514	5.23
400.878	5.14
401.242	5.5
401.605	5.43
401.969	5.28
402.333	5.26
402.697	5.36
403.06	5.16
403.424	5.22
403.787	5.35
404.151	5.41
404.514	5.4
404.878	5.16
405.241	5.32
405.604	5.24
405.968	5.25
406.331	5.41
406.694	5.37
407.057	5.31
407.42	5.26
407.783	5.47
408.146	5.34
408.509	5.3
408.872	5.34
409.235	5.42
409.598	5.53
409.961	5.42
410.323	5.13
410.686	5.16
411.049	5.49
411.411	5.3
411.774	5.22
412.136	5.27
412.499	5.44
412.861	5.13
413.223	5.31
413.586	5.46
413.948	5.37
414.31	5.45
414.672	5.15
415.035	5.35
415.397	5.29
415.759	5.26
416.121	5.55
416.483	5.37
416.845	5.44
417.206	5.39
417.568	5.28
417.93	5.42
418.292	5.16
418.653	5.21
419.015	5.41
419.377	5.31
419.738	5.42
420.1	5.35
420.461	5.29
420.822	5.42
421.184	5.32
421.545	5.53
421.906	5.41
422.267	5.34
422.629	5.41
422.99	5.28
423.351	5.38
423.712	5.4
424.073	5.51
424.434	5.44
424.795	5.26
425.155	5.29
425.516	5.31
425.877	5.4
426.238	5.39
426.598	5.36
426.959	5.41
427.32	5.35
427.68	5.49
428.041	5.57
428.401	5.43
428.761	5.62
429.122	5.46
429.482	5.37
429.842	5.34
430.202	5.61
430.563	5.49
430.923	5.5
431.283	5.57
431.643	5.68
432.003	5.54
432.363	5.66
432.722	5.55
433.082	5.57
433.442	5.63
433.802	5.56
434.161	5.52
434.521	5.58
434.881	5.65
435.24	5.37
435.6	5.62
435.959	5.65
436.319	5.59
436.678	5.73
437.037	5.73
437.396	5.48
437.756	5.44
438.115	5.56
438.474	5.74
438.833	5.45
439.192	5.58
439.551	5.45
439.91	5.63
440.269	5.56
440.628	5.64
440.987	5.61
441.345	5.54
441.704	5.57
442.063	5.57
442.421	5.55
442.78	5.54
443.138	5.53
443.497	5.61
443.855	5.68
444.214	5.51
444.572	5.81
444.93	5.57
445.288	5.64
445.647	5.64
446.005	5.62
446.363	5.68
446.721	5.72
447.079	5.51
447.437	5.58
447.795	5.64
448.153	5.56
448.51	5.57
448.868	5.59
449.226	5.65
449.584	5.63
449.941	5.57
450.299	5.62
450.656	5.73
451.014	5.77
451.371	5.74
451.729	5.72
452.086	5.72
452.443	5.82
452.801	5.76
453.158	5.84
453.515	5.62
453.872	5.77
454.229	5.69
454.586	5.59
454.943	5.84
455.3	5.83
455.657	5.67
456.014	5.76
456.371	5.8
456.727	5.91
457.084	5.93
457.441	5.76
457.797	5.89
458.154	5.91
458.51	5.74
458.867	5.79
459.223	5.78
459.58	5.79
459.936	5.73
460.292	5.66
460.648	5.73
461.005	5.68
461.361	5.74
461.717	5.69
462.073	5.8
462.429	5.87
462.785	5.91
463.141	5.91
463.496	5.86
463.852	6.03
464.208	5.86
464.564	5.97
464.919	5.93
465.275	5.78
465.631	5.95
465.986	6.15
466.342	5.84
466.697	5.86
467.052	6.06
467.408	6.09
467.763	5.9
468.118	5.87
468.473	5.83
468.829	5.94
469.184	5.89
469.539	5.88
469.894	6.01
470.249	5.97
470.603	6.05
470.958	5.99
471.313	6.06
471.668	6.05
472.023	5.86
472.377	5.93
472.732	6.07
473.086	6.14
473.441	5.87
473.795	6.03
474.15	6
474.504	6.08
474.859	5.91
475.213	6.04
475.567	5.88
475.921	5.95
476.275	6.02
476.63	6.09
476.984	5.87
477.338	6.11
477.692	5.92
478.045	6.04
478.399	6.06
478.753	5.92
479.107	6.09
479.461	5.95
479.814	6.02
480.168	6.02
480.521	6.04
480.875	5.89
481.228	6.02
481.582	6.06
481.935	6.23
482.289	5.99
482.642	6.09
482.995	5.98
483.348	5.92
483.701	5.91
484.055	5.91
484.408	5.9
484.761	5.77
485.114	5.62
485.466	5.57
485.819	5.59
486.172	5.7
486.525	5.78
486.878	5.88
487.23	5.88
487.583	5.93
487.936	5.85
488.288	5.82
488.641	5.81
488.993	5.75
489.345	5.73
489.698	5.78
490.05	5.83
490.402	5.86
490.754	5.96
491.107	6
491.459	6.01
491.811	6.08
492.163	5.99
492.515	5.95
492.866	5.8
493.218	5.78
493.57	5.88
493.922	5.88
494.274	6.03
494.625	6.06
494.977	6.06
495.328	6.21
495.68	6.14
496.031	6.03
496.383	6.06
496.734	6.19
497.086	6.1
497.437	6.21
497.788	6.21
498.139	6.11
498.49	6.08
498.842	6.24
499.193	6.05
499.544	6.13
499.894	6.11
500.245	6.17
500.596	6.23
500.947	6.19
501.298	6.08
501.648	6.16
501.999	6.35
502.35	6.22
502.7	6.37
503.051	6.23
503.401	6.34
503.752	6.19
504.102	6.23
504.452	6.14
504.803	6.17
505.153	6.23
505.503	6.3
505.853	6.38
506.203	6.24
506.553	6.3
506.903	6.31
507.253	6.29
507.603	6.27
507.953	6.24
508.303	6.44
508.652	6.16
509.002	6.38
509.352	6.34
509.701	6.1
510.051	6.25
510.4	6.31
510.75	6.12
511.099	6.04
511.449	6.25
511.798	6.19
512.147	6.23
512.496	6.32
512.846	6.25
513.195	6.28
513.544	6.32
513.893	6.25
514.242	6.18
514.591	6.25
514.939	6.28
515.288	6.46
515.637	6.41
515.986	6.39
516.334	6.29
516.683	6.28
517.032	6.28
517.38	6.24
517.729	6.32
518.077	6.4
518.426	6.32
518.774	6.25
519.122	6.32
519.47	6.19
519.819	6.24
520.167	6.06
520.515	6.26
520.863	6.27
521.211	6.35
521.559	6.24
521.907	6.41
522.255	6.31
522.602	6.36
522.95	6.48
523.298	6.39
523.645	6.44
523.993	6.46
524.341	6.41
524.688	6.37
525.036	6.31
525.383	6.36
525.73	6.22
526.078	6.45
526.425	6.35
526.772	6.24
527.119	6.3
527.466	6.4
527.814	6.36
528.161	6.39
528.508	6.39
528.854	6.29
529.201	6.25
529.548	6.22
529.895	6.01
530.242	6.02
530.588	6.06
530.935	6.12
531.282	6.2
531.628	6.31
531.975	6.28
532.321	6.33
532.667	6.48
533.014	6.41
533.36	6.45
533.706	6.39
534.052	6.41
534.399	6.24
534.745	6.2
535.091	6.15
535.437	6.2
535.783	6.3
536.129	6.36
536.474	6.47
536.82	6.5
537.166	6.33
537.512	6.44
537.857	6.27
538.203	6.32
538.549	6.28
538.894	6.35
539.239	6.49
539.585	6.57
539.93	6.51
540.276	6.55
540.621	6.55
540.966	6.43
541.311	6.54
541.656	6.46
542.001	6.41
542.346	6.3
542.691	6.22
543.036	6.17
543.381	6.25
543.726	6.36
544.071	6.35
544.415	6.45
544.76	6.4
545.105	6.44
545.449	6.47
545.794	6.55
546.138	6.48
546.483	6.61
546.827	6.48
547.171	6.59
547.516	6.59
547.86	6.4
548.204	6.57
548.548	6.5
548.892	6.55
549.236	6.55
549.58	6.61
549.924	6.64
550.268	6.68
550.612	6.65
550.956	6.77
551.3	6.78
551.643	6.63
551.987	6.7
552.33	6.7
552.674	6.66
553.017	6.85
553.361	6.69
553.704	6.76
554.048	6.67
554.391	6.76
554.734	6.64
555.077	6.6
555.42	6.65
555.764	6.68
556.107	6.81
556.45	6.69
556.793	6.76
557.135	6.7
557.478	6.76
557.821	6.81
558.164	6.79
558.507	6.63
558.849	6.77
559.192	6.7
559.534	6.87
559.877	6.71
560.219	6.76
560.562	6.7
560.904	6.91
561.246	6.75
561.589	6.83
561.931	6.69
562.273	6.64
562.615	6.76
562.957	6.76
563.299	6.65
563.641	6.67
563.983	6.63
564.325	6.83
564.667	6.74
565.008	6.75
565.35	6.59
565.692	6.63
566.033	6.83
566.375	6.91
566.716	6.59
567.058	6.76
567.399	6.71
567.741	6.72
568.082	6.64
568.423	6.7
568.764	6.82
569.105	6.83
569.447	6.68
569.788	6.53
570.129	6.78
570.47	6.76
570.811	6.64
571.151	6.69
571.492	6.8
571.833	6.71
572.174	6.97
572.514	6.78
572.855	6.77
573.195	6.57
573.536	6.82
573.876	6.68
574.217	6.78
574.557	6.75
574.898	6.62
575.238	6.92
575.578	7
575.918	6.94
576.258	6.88
576.598	6.65
576.938	6.68
577.278	6.75
577.618	6.71
577.958	6.84
578.298	6.93
578.638	6.85
578.977	6.92
579.317	6.96
579.657	6.88
579.996	6.92
580.336	6.97
580.675	6.93
581.014	7.04
581.354	6.56
581.693	7.08
582.032	7.23
582.372	7.07
582.711	7.05
583.05	7.09
583.389	6.97
583.728	7.01
584.067	6.85
584.406	6.9
584.745	6.81
585.083	7
585.422	6.96
585.761	7.12
586.1	7.02
586.438	6.87
586.777	7.02
587.115	6.92
587.454	7
587.792	7.18
588.13	6.93
588.469	7.03
588.807	7.07
589.145	6.98
589.483	6.81
589.821	6.91
590.159	7.03
590.497	7.13
590.835	6.91
591.173	6.96
591.511	7.21
591.849	6.9
592.187	6.9
592.524	6.96
592.862	6.85
593.2	6.89
593.537	7.06
593.875	6.93
594.212	6.97
594.55	7.1
594.887	7.1
595.224	7.2
595.561	6.99
595.899	7.09
596.236	7.05
596.573	7
596.91	6.99
597.247	7.09
597.584	6.91
597.921	7.16
598.258	7.21
598.594	6.92
598.931	6.82
599.268	6.77
599.604	6.96
599.941	7.04
600.277	7.01
600.614	7.02
600.95	6.92
601.287	6.92
601.623	6.69
601.959	7.45
602.296	6.99
602.632	6.99
602.968	7.01
603.304	7.26
603.64	6.97
603.976	6.92
604.312	6.91
604.648	7.05
604.984	6.91
605.319	7.16
605.655	6.96
605.991	7.02
606.326	6.93
606.662	6.86
606.998	7.23
607.333	7.12
607.668	6.9
608.004	7.17
608.339	6.91
608.674	7.1
609.01	7.46
609.345	7.1
609.68	6.81
610.015	7.18
610.35	7.04
610.685	6.79
611.02	6.93
611.355	7.12
611.689	7.11
612.024	7.18
612.359	7.08
612.694	7.13
613.028	6.97
613.363	6.92
613.697	7.2
614.032	6.87
614.366	7.12
614.7	7.35
615.035	7.11
615.369	7.25
615.703	7.33
616.037	7.09
616.371	6.99
616.705	7.29
617.039	7.2
617.373	7.18
617.707	7.32
618.041	7.06
618.375	6.72
618.709	7.23
619.042	6.78
619.376	6.98
619.71	7.08
620.043	7.41
620.377	7.43
620.71	7.13
621.043	7.39
621.377	7.28
621.71	7.4
622.043	7.2
622.376	6.93
622.709	7.53
623.043	7.18
623.376	7.38
623.709	7.54
624.041	7.11
624.374	7.26
624.707	7.2
625.04	6.8
625.373	7.25
625.705	7.13
626.038	7.28
626.37	7.21
626.703	7.37
627.035	7.26
627.368	7.38
627.7	7.42
628.032	7.19
628.365	7.38
628.697	7.41
629.029	7.37
629.361	7.5
629.693	7.19
630.025	7.26
630.357	7.22
630.689	7.35
631.021	7.4
631.353	7.45
631.684	7.09
632.016	7.05
632.348	6.93
632.679	7.33
633.011	7.08
633.342	7.24
633.674	7.03
634.005	7.46
634.336	7.44
634.668	7.36
634.999	7.1
635.33	7.28
635.661	7.16
635.992	7.25
636.323	7.44
636.654	7.26
636.985	7.02
637.316	7.15
637.647	7.37
637.977	7.09
638.308	7.17
638.639	7.38
638.969	7.32
639.3	7.42
639.63	7.3
639.961	7.24
640.291	7.27
640.622	7.28
640.952	7.73
641.282	7.31
641.612	7.15
641.943	7.44
642.273	7.32
642.603	7.25
642.933	7.54
643.263	7.56
643.592	7.75
643.922	7.3
644.252	6.85
644.582	7.59
644.911	7.11
645.241	7.24
645.571	7.68
645.9	7.38
646.23	7.4
646.559	7.35
646.888	7.92
647.218	7.41
647.547	7.45
647.876	7.28
648.205	6.88
648.534	7.53
648.863	7.18
649.192	7.32
649.521	7.49
649.85	7.56
650.179	7.65
650.508	7.3
650.837	7.62
651.165	7.3
651.494	7.27
651.822	7.8
652.151	6.79
652.479	7.73
652.808	7.35
653.136	7.39
653.465	6.99
653.793	7.48
654.121	7.54
654.449	7.22
654.777	7.28
655.105	6.65
655.433	7.83
655.761	7.64
656.089	7.36
656.417	7.61
656.745	7.72
657.073	7.19
657.4	7.42
657.728	7.1
658.056	7.99
658.383	7.55
658.711	7.46
659.038	7.76
659.365	7.71
659.693	7.18
660.02	7.55
660.347	7.59
660.674	7.31
661.001	7.42
661.329	7.28
661.656	7.2
661.982	7.52
662.309	7.54
662.636	7.34
662.963	7.53
663.29	7.82
663.616	7.18
663.943	7.59
664.27	7.57
664.596	7.29
664.923	7.31
665.249	7.63
665.576	7.13
665.902	7.05
666.228	7.35
666.554	7.97
666.881	7.37
667.207	7.84
667.533	7.3
667.859	7.55
668.185	7.62
668.511	8.14
668.837	7.47
669.162	7.66
669.488	7.16
669.814	7.64
670.139	7.04
670.465	7.8
670.791	7.45
671.116	7.29
671.442	6.91
671.767	7.39
672.092	7.27
672.418	7.4
672.743	7.59
673.068	6.85
673.393	8.08
673.718	7.25
674.043	7.06
674.368	7.52
674.693	8.31
675.018	7.82
675.343	7.46
675.667	7.84
675.992	7.43
676.317	7.48
676.641	7.63
676.966	7.5
677.29	6.67
677.615	7.53
677.939	8.1
678.264	7.29
678.588	7.92
678.912	7.58
679.236	7.39
679.56	7.26
679.885	7.63
680.209	7.49
680.532	8.64
680.856	7.81
681.18	7.88
681.504	7.75
681.828	6.98
682.152	7.41
682.475	7.77
682.799	7.51
683.122	7.71
683.446	6.76
683.769	8.05
684.093	7.93
684.416	7.72
684.739	8.08
685.062	7.64
685.386	8.14
685.709	7.95
686.032	7.79
686.355	8.42
686.678	7.76
687.001	7.19
687.324	7.57
687.646	7.89
687.969	7.88
688.292	7.69
688.614	7.5
688.937	8.31
689.26	8.3
689.582	8.11
689.904	7.88
690.227	7.74
690.549	7.71
690.871	8.2
691.194	7.41
691.516	8.28
691.838	8.05
