Data from 22-2_forehead_Reflection__3__239.txt Node

Date: Thu Dec 15 18:19:23 CST 2022
User: ToomeyLab
Spectrometer: FLMS14357
Trigger mode: 0
Integration Time (sec): 1.000000E-2
Scans to average: 100
Electric dark correction enabled: true
Nonlinearity correction enabled: false
Boxcar width: 0
XAxis mode: Wavelengths
Number of Pixels in Spectrum: 2048
>>>>>Begin Spectral Data<<<<<
189.047	697.74
189.435	697.74
189.823	697.74
190.211	-598.25
190.599	-66.47
190.987	-6.67
191.375	-173.32
191.763	1609.31
192.151	-15.3
192.538	7.86
192.926	50.88
193.314	69.94
193.702	-0.19
194.089	35.05
194.477	1736.78
194.864	170.98
195.252	9.11
195.639	125.14
196.027	71.7
196.414	-58.25
196.801	6732.73
197.189	519.71
197.576	-365.37
197.963	112.76
198.351	5.6
198.738	7.15
199.125	-7.74
199.512	17.43
199.899	-9.94
200.286	-22.36
200.673	38.25
201.06	-2.65
201.447	-13.2
201.833	-3.49
202.22	6.16
202.607	-7.45
202.994	80.2
203.38	28.98
203.767	-23.71
204.154	20.04
204.54	11.54
204.927	23.87
205.313	31.72
205.699	56.83
206.086	22.23
206.472	49.13
206.858	-3.33
207.245	6.47
207.631	4.96
208.017	22.86
208.403	-109.27
208.789	29.46
209.175	14.41
209.561	-44.5
209.947	17.34
210.333	21.13
210.719	5.7
211.105	18.83
211.491	19.92
211.876	-12.03
212.262	-15.45
212.648	-17.8
213.034	-16.44
213.419	-11.39
213.805	-43.33
214.19	-16.59
214.576	-17.49
214.961	15.42
215.346	-39.16
215.732	-18.92
216.117	-7.82
216.502	-13.01
216.888	32.87
217.273	25.57
217.658	-4.93
218.043	-17.59
218.428	1.74
218.813	6.8
219.198	-39.18
219.583	12.34
219.968	15.21
220.353	-22.89
220.738	-3.24
221.122	-5.98
221.507	11.84
221.892	-23.35
222.276	-21.02
222.661	-8.4
223.046	-9.76
223.43	12.15
223.815	5.66
224.199	8.22
224.583	-1.62
224.968	5.83
225.352	-1.87
225.736	5.18
226.121	0.07
226.505	-4.95
226.889	1.61
227.273	-3.63
227.657	2.02
228.041	4.14
228.425	-2.09
228.809	0.94
229.193	1.81
229.577	2.87
229.961	2.18
230.344	4.35
230.728	4.06
231.112	3.2
231.495	1.26
231.879	3.22
232.263	1.8
232.646	2.35
233.03	4.07
233.413	3.39
233.797	1.51
234.18	1.49
234.563	1.99
234.946	1.48
235.33	5.07
235.713	3.97
236.096	3.95
236.479	5.02
236.862	2.92
237.245	2.27
237.628	3.56
238.011	2.51
238.394	3.04
238.777	2.93
239.16	4.42
239.543	4.01
239.925	2.34
240.308	1.89
240.691	2.81
241.073	2.34
241.456	3.89
241.838	3.16
242.221	2.6
242.603	3.66
242.986	3.61
243.368	3.72
243.75	4.04
244.133	4.05
244.515	3.77
244.897	3.46
245.279	3.32
245.661	3.49
246.043	3.96
246.425	4.35
246.807	4.27
247.189	4
247.571	4.09
247.953	3.91
248.335	3.89
248.717	4.13
249.098	3.96
249.48	3.83
249.862	3.92
250.243	3.97
250.625	3.92
251.006	4.78
251.388	3.37
251.769	3.26
252.151	4.55
252.532	3.1
252.913	3.64
253.295	3.99
253.676	3.95
254.057	4.08
254.438	4.36
254.819	4.28
255.2	5.05
255.581	3.91
255.962	4.95
256.343	5.12
256.724	3.59
257.105	3.9
257.486	2.58
257.867	3.37
258.247	4.16
258.628	4.15
259.009	3.81
259.389	3.45
259.77	3.78
260.15	4.3
260.531	3.73
260.911	3.92
261.292	3.98
261.672	3.81
262.052	3.78
262.432	3.64
262.813	3.93
263.193	3.75
263.573	3.81
263.953	3.68
264.333	4.05
264.713	3.75
265.093	4.21
265.473	3.07
265.853	4.05
266.233	3.94
266.612	2.8
266.992	3.68
267.372	3.8
267.752	4.61
268.131	3.48
268.511	3.77
268.89	3.91
269.27	3.54
269.649	3.69
270.029	3.55
270.408	3.43
270.787	3.39
271.167	4.05
271.546	4.22
271.925	3.64
272.304	3.71
272.683	3.34
273.062	3.74
273.441	3.8
273.82	3.95
274.199	3.77
274.578	3.59
274.957	3.61
275.336	3.89
275.715	4.26
276.093	3.3
276.472	3.08
276.851	3.92
277.229	3.27
277.608	3.34
277.986	3.8
278.365	4.34
278.743	3.69
279.122	3.8
279.5	3.34
279.878	3.18
280.257	4.09
280.635	3.44
281.013	3.13
281.391	3.43
281.769	3.77
282.147	3.61
282.525	3.7
282.903	3.51
283.281	3.47
283.659	3.44
284.037	3.99
284.415	3.29
284.792	3.74
285.17	3.61
285.548	3.26
285.925	3.58
286.303	4.16
286.68	3.86
287.058	3.64
287.435	3.7
287.813	3.78
288.19	3.58
288.567	3.65
288.945	3.35
289.322	3.83
289.699	4.43
290.076	3.79
290.453	3.56
290.83	4.16
291.207	3.77
291.584	4.31
291.961	3.77
292.338	3.84
292.715	3.75
293.092	4.34
293.469	3.74
293.845	3.93
294.222	4.42
294.599	4.21
294.975	3.96
295.352	4.27
295.728	4.32
296.105	4.12
296.481	4.46
296.858	4.23
297.234	4.29
297.61	4.41
297.986	4.82
298.363	4.34
298.739	4.72
299.115	4.58
299.491	4.74
299.867	4.83
300.243	4.4
300.619	4.63
300.995	4.76
301.371	4.69
301.746	5.06
302.122	4.31
302.498	5.15
302.874	5.38
303.249	4.9
303.625	4.41
304	5.62
304.376	5.38
304.751	4.49
305.127	4.7
305.502	5.12
305.878	5.58
306.253	5.01
306.628	4.91
307.003	5.39
307.378	4.88
307.754	5.53
308.129	5.01
308.504	5.09
308.879	5.54
309.254	5.84
309.629	5.77
310.003	5.46
310.378	5.73
310.753	6.17
311.128	5.48
311.502	5.8
311.877	5.85
312.252	5.71
312.626	6.33
313.001	6.22
313.375	6.04
313.75	5.98
314.124	5.94
314.498	6.08
314.873	5.69
315.247	6.13
315.621	6.04
315.995	6.55
316.369	6.18
316.743	5.79
317.117	6.27
317.491	6.46
317.865	6.04
318.239	6.32
318.613	6.78
318.987	6.65
319.361	6.55
319.734	6.71
320.108	6.63
320.482	6.76
320.855	6.68
321.229	6.65
321.602	6.69
321.976	6.37
322.349	6.86
322.723	7.06
323.096	6.58
323.469	6.79
323.843	6.82
324.216	6.67
324.589	6.71
324.962	7.07
325.335	6.68
325.708	7.31
326.081	6.88
326.454	7.28
326.827	7.05
327.2	7.06
327.573	7.6
327.945	7.07
328.318	7
328.691	7.47
329.063	6.91
329.436	7.03
329.809	7.74
330.181	7.95
330.553	7.77
330.926	8.04
331.298	7.27
331.671	7.46
332.043	7.47
332.415	7.44
332.787	8.15
333.159	7.54
333.532	7.9
333.904	7.99
334.276	8.29
334.648	7.81
335.02	7.73
335.391	7.52
335.763	7.6
336.135	7.48
336.507	8.03
336.879	7.77
337.25	8.08
337.622	8.36
337.993	7.9
338.365	8.21
338.736	8
339.108	8.1
339.479	7.81
339.851	8
340.222	8.24
340.593	8.11
340.964	8
341.336	7.98
341.707	8.5
342.078	7.88
342.449	8.31
342.82	8.44
343.191	8.47
343.562	8.4
343.933	8
344.303	8.46
344.674	8.31
345.045	8.32
345.416	8.87
345.786	8.09
346.157	8.72
346.527	8.23
346.898	8.32
347.268	8.45
347.639	8.67
348.009	8.96
348.38	8.48
348.75	8.79
349.12	8.64
349.49	8.58
349.861	8.76
350.231	8.63
350.601	8.91
350.971	8.6
351.341	8.76
351.711	8.8
352.081	8.41
352.45	8.79
352.82	8.73
353.19	8.74
353.56	8.85
353.929	9.26
354.299	9.58
354.669	8.92
355.038	9.03
355.408	8.97
355.777	9.28
356.147	9.16
356.516	8.98
356.885	8.93
357.254	8.93
357.624	9.1
357.993	9.48
358.362	9.25
358.731	9.37
359.1	9.28
359.469	9.57
359.838	9.32
360.207	9.28
360.576	9.36
360.945	9.53
361.314	9.31
361.682	9.3
362.051	9.4
362.42	9.32
362.788	9.6
363.157	9.46
363.525	9.38
363.894	9.14
364.262	9.57
364.631	9.53
364.999	9.58
365.367	9.42
365.735	9.54
366.104	9.32
366.472	9.61
366.84	9.59
367.208	9.9
367.576	9.57
367.944	9.73
368.312	9.69
368.68	10.07
369.048	9.55
369.416	9.7
369.783	9.62
370.151	10.17
370.519	10.15
370.886	10.23
371.254	10.14
371.621	10.27
371.989	10.29
372.356	10.06
372.724	9.84
373.091	10.06
373.458	10.26
373.826	10.11
374.193	10.17
374.56	10.31
374.927	9.85
375.294	10.24
375.661	10.02
376.028	10.23
376.395	10.35
376.762	10.01
377.129	10.09
377.496	10.35
377.863	10.59
378.229	10.47
378.596	10.55
378.963	10.4
379.329	10.45
379.696	10.19
380.062	10.35
380.429	10.41
380.795	10.73
381.161	10
381.528	10.14
381.894	10.56
382.26	10.42
382.626	10.53
382.993	10.88
383.359	10.34
383.725	10.36
384.091	10.6
384.457	10.72
384.823	10.88
385.188	10.64
385.554	10.61
385.92	10.69
386.286	10.8
386.651	10.71
387.017	10.84
387.383	10.84
387.748	10.86
388.114	11.01
388.479	10.86
388.845	10.5
389.21	10.99
389.575	11.18
389.94	11.12
390.306	10.99
390.671	10.83
391.036	10.83
391.401	10.83
391.766	10.61
392.131	11.27
392.496	10.85
392.861	10.98
393.226	10.9
393.591	11.26
393.956	11.05
394.32	10.9
394.685	11.09
395.05	10.89
395.414	11.33
395.779	11.35
396.143	10.77
396.508	11.03
396.872	11.06
397.236	11.22
397.601	11.16
397.965	11.25
398.329	11.35
398.694	10.91
399.058	11.31
399.422	11.12
399.786	11.11
400.15	10.99
400.514	11.29
400.878	11.36
401.242	11.3
401.605	11.08
401.969	11.18
402.333	11.14
402.697	11.4
403.06	11.27
403.424	11.34
403.787	11.39
404.151	11.33
404.514	11.55
404.878	11.39
405.241	11.46
405.604	11.16
405.968	11.28
406.331	11.41
406.694	11.35
407.057	11.2
407.42	11.34
407.783	11.59
408.146	11.34
408.509	11.5
408.872	11.49
409.235	11.66
409.598	11.53
409.961	11.72
410.323	11.42
410.686	11.74
411.049	11.44
411.411	11.59
411.774	11.55
412.136	11.53
412.499	11.67
412.861	11.67
413.223	11.59
413.586	11.78
413.948	11.86
414.31	11.93
414.672	11.58
415.035	12.01
415.397	11.82
415.759	11.33
416.121	11.88
416.483	11.66
416.845	11.79
417.206	11.81
417.568	11.78
417.93	11.88
418.292	11.87
418.653	11.75
419.015	11.78
419.377	11.75
419.738	12.01
420.1	11.84
420.461	11.78
420.822	11.9
421.184	12.01
421.545	11.92
421.906	11.92
422.267	11.96
422.629	11.93
422.99	11.97
423.351	11.93
423.712	12.15
424.073	12.17
424.434	12.25
424.795	12.07
425.155	12.08
425.516	12.15
425.877	12.21
426.238	12.21
426.598	12.37
426.959	12.43
427.32	12.37
427.68	12.51
428.041	12.65
428.401	12.46
428.761	12.76
429.122	12.77
429.482	12.68
429.842	12.73
430.202	13
430.563	12.84
430.923	13.07
431.283	13.11
431.643	13.01
432.003	13.16
432.363	13.15
432.722	13.09
433.082	13.15
433.442	13.14
433.802	13.12
434.161	13.22
434.521	13.33
434.881	13.37
435.24	13.09
435.6	13.48
435.959	13.32
436.319	13.44
436.678	13.56
437.037	13.45
437.396	13.39
437.756	13.5
438.115	13.65
438.474	13.66
438.833	13.66
439.192	13.46
439.551	13.66
439.91	13.61
440.269	13.65
440.628	13.67
440.987	13.8
441.345	13.84
441.704	13.66
442.063	13.64
442.421	13.81
442.78	13.88
443.138	13.82
443.497	13.86
443.855	14.12
444.214	13.74
444.572	14.16
444.93	14.04
445.288	14.13
445.647	14.02
446.005	14.23
446.363	14.21
446.721	14.22
447.079	14.09
447.437	14.13
447.795	14.15
448.153	14.1
448.51	14.1
448.868	14.13
449.226	14.23
449.584	14.28
449.941	14.34
450.299	14.35
450.656	14.34
451.014	14.49
451.371	14.47
451.729	14.64
452.086	14.6
452.443	14.63
452.801	14.62
453.158	14.74
453.515	14.67
453.872	14.69
454.229	14.77
454.586	14.59
454.943	14.89
455.3	14.87
455.657	14.87
456.014	14.88
456.371	15.03
456.727	15.15
457.084	15.08
457.441	15.1
457.797	15.1
458.154	15.19
458.51	14.99
458.867	15.15
459.223	15.05
459.58	15.25
459.936	15.13
460.292	15.2
460.648	15.18
461.005	15.02
461.361	15.08
461.717	15.08
462.073	15.18
462.429	15.28
462.785	15.38
463.141	15.43
463.496	15.46
463.852	15.66
464.208	15.66
464.564	15.49
464.919	15.6
465.275	15.69
465.631	15.87
465.986	15.73
466.342	15.78
466.697	15.67
467.052	15.89
467.408	15.97
467.763	15.84
468.118	15.9
468.473	15.82
468.829	15.92
469.184	16.1
469.539	15.97
469.894	16.05
470.249	16.04
470.603	16.04
470.958	16.16
471.313	16.25
471.668	16.13
472.023	16.27
472.377	16.04
472.732	16.48
473.086	16.32
473.441	16.37
473.795	16.46
474.15	16.46
474.504	16.49
474.859	16.23
475.213	16.59
475.567	16.32
475.921	16.74
476.275	16.62
476.63	16.55
476.984	16.39
477.338	16.71
477.692	16.5
478.045	16.61
478.399	16.67
478.753	16.62
479.107	16.72
479.461	16.61
479.814	16.7
480.168	16.74
480.521	16.88
480.875	16.83
481.228	16.82
481.582	16.66
481.935	16.93
482.289	16.9
482.642	16.95
482.995	16.77
483.348	16.71
483.701	16.72
484.055	16.73
484.408	16.62
484.761	16.34
485.114	16.24
485.466	16.2
485.819	16.32
486.172	16.36
486.525	16.35
486.878	16.53
487.23	16.57
487.583	16.73
487.936	16.73
488.288	16.73
488.641	16.66
488.993	16.58
489.345	16.6
489.698	16.63
490.05	16.75
490.402	16.82
490.754	16.89
491.107	17.09
491.459	17.17
491.811	17.22
492.163	17.23
492.515	17.15
492.866	17
493.218	16.84
493.57	17.11
493.922	17.05
494.274	17.29
494.625	17.42
494.977	17.43
495.328	17.63
495.68	17.63
496.031	17.72
496.383	17.81
496.734	17.72
497.086	17.99
497.437	17.99
497.788	18.02
498.139	17.92
498.49	17.97
498.842	17.92
499.193	17.89
499.544	17.98
499.894	17.93
500.245	18.07
500.596	18.13
500.947	18.17
501.298	18.28
501.648	18.26
501.999	18.5
502.35	18.33
502.7	18.56
503.051	18.49
503.401	18.49
503.752	18.6
504.102	18.53
504.452	18.38
504.803	18.5
505.153	18.7
505.503	18.66
505.853	18.74
506.203	18.75
506.553	18.53
506.903	18.71
507.253	18.78
507.603	19.01
507.953	18.91
508.303	18.78
508.652	18.76
509.002	18.97
509.352	18.89
509.701	18.82
510.051	19
510.4	18.88
510.75	18.85
511.099	18.79
511.449	19.01
511.798	18.93
512.147	18.99
512.496	19.15
512.846	19.19
513.195	19.14
513.544	19.15
513.893	19.11
514.242	19.28
514.591	19.06
514.939	19.28
515.288	19.35
515.637	19.35
515.986	19.47
516.334	19.48
516.683	19.35
517.032	19.54
517.38	19.41
517.729	19.48
518.077	19.59
518.426	19.78
518.774	19.59
519.122	19.62
519.47	19.44
519.819	19.42
520.167	19.39
520.515	19.41
520.863	19.49
521.211	19.49
521.559	19.49
521.907	19.68
522.255	19.6
522.602	19.71
522.95	19.82
523.298	20.03
523.645	19.91
523.993	20.02
524.341	20.09
524.688	19.98
525.036	19.97
525.383	20.18
525.73	20.03
526.078	20.04
526.425	20.02
526.772	19.9
527.119	20.01
527.466	19.89
527.814	20.03
528.161	20.01
528.508	20.02
528.854	19.99
529.201	20.02
529.548	19.75
529.895	19.58
530.242	19.65
530.588	19.68
530.935	19.76
531.282	19.77
531.628	19.82
531.975	19.99
532.321	20.22
532.667	20.26
533.014	20.36
533.36	20.45
533.706	20.43
534.052	20.36
534.399	20.19
534.745	20.21
535.091	20.23
535.437	20.24
535.783	20.38
536.129	20.33
536.474	20.6
536.82	20.73
537.166	20.59
537.512	20.75
537.857	20.71
538.203	20.7
538.549	20.75
538.894	20.76
539.239	20.82
539.585	20.92
539.93	21.01
540.276	21.13
540.621	21.22
540.966	21.23
541.311	21.26
541.656	21.3
542.001	20.97
542.346	21
542.691	20.78
543.036	20.77
543.381	20.83
543.726	20.81
544.071	20.93
544.415	21.05
544.76	21.08
545.105	21.1
545.449	21.3
545.794	21.35
546.138	21.41
546.483	21.68
546.827	21.63
547.171	21.76
547.516	21.65
547.86	21.7
548.204	21.79
548.548	21.66
548.892	21.8
549.236	21.89
549.58	21.9
549.924	22.17
550.268	22.15
550.612	22.13
550.956	22.32
551.3	22.36
551.643	22.45
551.987	22.5
552.33	22.57
552.674	22.47
553.017	22.37
553.361	22.56
553.704	22.53
554.048	22.49
554.391	22.61
554.734	22.63
555.077	22.58
555.42	22.48
555.764	22.62
556.107	22.73
556.45	22.82
556.793	22.93
557.135	22.85
557.478	22.85
557.821	22.98
558.164	23.02
558.507	22.9
558.849	22.97
559.192	23.18
559.534	23.05
559.877	23.13
560.219	23.29
560.562	23.31
560.904	23.54
561.246	23.38
561.589	23.41
561.931	23.28
562.273	23.26
562.615	23.38
562.957	23.3
563.299	23.49
563.641	23.43
563.983	23.55
564.325	23.33
564.667	23.57
565.008	23.35
565.35	23.56
565.692	23.62
566.033	23.63
566.375	23.68
566.716	23.65
567.058	23.52
567.399	23.77
567.741	23.72
568.082	23.6
568.423	23.63
568.764	23.79
569.105	23.8
569.447	23.96
569.788	23.63
570.129	23.77
570.47	23.89
570.811	23.98
571.151	23.9
571.492	24.03
571.833	24.03
572.174	24.29
572.514	24.24
572.855	24.17
573.195	23.98
573.536	24.14
573.876	24.18
574.217	24.23
574.557	24.26
574.898	24.26
575.238	24.59
575.578	24.43
575.918	24.34
576.258	24.63
576.598	24.51
576.938	24.29
577.278	24.48
577.618	24.45
577.958	24.62
578.298	24.81
578.638	24.64
578.977	24.77
579.317	24.89
579.657	24.7
579.996	24.98
580.336	25.1
580.675	25
581.014	25.01
581.354	24.9
581.693	24.98
582.032	25.28
582.372	25.16
582.711	25.24
583.05	25.18
583.389	25.3
583.728	25.76
584.067	25.31
584.406	25.49
584.745	25.49
585.083	25.45
585.422	25.69
585.761	25.74
586.1	25.54
586.438	25.39
586.777	25.55
587.115	25.62
587.454	25.45
587.792	25.56
588.13	25.7
588.469	25.65
588.807	25.87
589.145	26.03
589.483	25.67
589.821	25.68
590.159	25.96
590.497	25.9
590.835	26.14
591.173	26.22
591.511	26.42
591.849	26.12
592.187	25.94
592.524	26.34
592.862	26.08
593.2	26.12
593.537	26.24
593.875	26.16
594.212	26.31
594.55	26.76
594.887	26.54
595.224	26.63
595.561	26.5
595.899	26.76
596.236	26.55
596.573	26.34
596.91	26.45
597.247	26.54
597.584	26.41
597.921	26.39
598.258	26.81
598.594	26.37
598.931	26.43
599.268	26.36
599.604	26.72
599.941	26.88
600.277	26.55
600.614	26.88
600.95	26.93
601.287	26.71
601.623	26.98
601.959	27.16
602.296	26.95
602.632	27.24
602.968	26.87
603.304	26.91
603.64	26.97
603.976	27.03
604.312	26.98
604.648	27.38
604.984	27.3
605.319	27.22
605.655	27.25
605.991	27.06
606.326	27.26
606.662	27.18
606.998	27.34
607.333	27.09
607.668	27.37
608.004	27.44
608.339	27.66
608.674	27.61
609.01	27.74
609.345	27.63
609.68	27.81
610.015	27.73
610.35	27.75
610.685	27.64
611.02	27.67
611.355	27.65
611.689	27.74
612.024	27.84
612.359	27.82
612.694	27.91
613.028	27.66
613.363	28.11
613.697	28.03
614.032	27.83
614.366	28.06
614.7	28.02
615.035	28.03
615.369	28.24
615.703	28.44
616.037	28.38
616.371	27.95
616.705	28.38
617.039	28.68
617.373	28.49
617.707	28.42
618.041	28.39
618.375	27.95
618.709	28.69
619.042	28.38
619.376	28.43
619.71	28.67
620.043	29.1
620.377	28.56
620.71	28.74
621.043	28.53
621.377	28.78
621.71	28.73
622.043	29.01
622.376	28.82
622.709	29.09
623.043	28.81
623.376	28.98
623.709	29.34
624.041	29.01
624.374	29.23
624.707	28.91
625.04	29.16
625.373	29.24
625.705	29.45
626.038	29.32
626.37	29.06
626.703	29.62
627.035	29.32
627.368	29.12
627.7	29.1
628.032	29.19
628.365	29.43
628.697	29.6
629.029	29.24
629.361	29.33
629.693	29.38
630.025	29.25
630.357	29.54
630.689	29.57
631.021	29.54
631.353	29.88
631.684	29.31
632.016	29.65
632.348	29.7
632.679	29.81
633.011	29.71
633.342	29.85
633.674	29.6
634.005	30.12
634.336	30.19
634.668	30.22
634.999	29.62
635.33	30.03
635.661	30.34
635.992	29.83
636.323	29.86
636.654	29.89
636.985	29.72
637.316	30.39
637.647	30.66
637.977	30.21
638.308	30.84
638.639	30.13
638.969	30.59
639.3	30.37
639.63	30.7
639.961	30.31
640.291	30.33
640.622	29.99
640.952	31.01
641.282	30.45
641.612	30.49
641.943	30.44
642.273	30.77
642.603	30.47
642.933	30.97
643.263	31.02
643.592	30.86
643.922	30.87
644.252	30.7
644.582	31.05
644.911	30.82
645.241	30.86
645.571	30.81
645.9	31.4
646.23	31.04
646.559	30.8
646.888	31.24
647.218	31.16
647.547	30.81
647.876	31.24
648.205	31.31
648.534	31.41
648.863	31.25
649.192	30.95
649.521	31.27
649.85	31.37
650.179	31.47
650.508	30.85
650.837	31.47
651.165	31.26
651.494	31.47
651.822	31.81
652.151	31.24
652.479	31.68
652.808	31.58
653.136	31.26
653.465	31.62
653.793	31.29
654.121	31.97
654.449	31.72
654.777	31.55
655.105	31.71
655.433	31.65
655.761	31.98
656.089	31.53
656.417	32.13
656.745	32.3
657.073	31.75
657.4	31.9
657.728	31.66
658.056	32.39
658.383	32.05
658.711	32.2
659.038	32.46
659.365	32.04
659.693	32.01
660.02	32.34
660.347	32.1
660.674	32.03
661.001	32.17
661.329	32.53
661.656	31.83
661.982	32.07
662.309	32.24
662.636	32.26
662.963	32.01
663.29	32.01
663.616	32.15
663.943	32.47
664.27	32.6
664.596	32.5
664.923	32.91
665.249	32.38
665.576	32.65
665.902	32.15
666.228	32.57
666.554	32.78
666.881	32.59
667.207	32.27
667.533	32.9
667.859	32.78
668.185	32.56
668.511	33.05
668.837	32.82
669.162	32.57
669.488	32.06
669.814	32.89
670.139	32.94
670.465	32.79
670.791	32.96
671.116	32.49
671.442	32.49
671.767	32.5
