Data from 22-2_forehead_Reflection__4__240.txt Node

Date: Thu Dec 15 18:19:34 CST 2022
User: ToomeyLab
Spectrometer: FLMS14357
Trigger mode: 0
Integration Time (sec): 1.000000E-2
Scans to average: 100
Electric dark correction enabled: true
Nonlinearity correction enabled: false
Boxcar width: 0
XAxis mode: Wavelengths
Number of Pixels in Spectrum: 2048
>>>>>Begin Spectral Data<<<<<
189.047	-919.25
189.435	-919.25
189.823	-919.25
190.211	-52.74
190.599	102.98
190.987	140.76
191.375	-305.39
191.763	377.33
192.151	-81.22
192.538	-9.51
192.926	26.37
193.314	68.38
193.702	57.94
194.089	350.29
194.477	2193.1
194.864	138.2
195.252	87.7
195.639	86.15
196.027	-29.66
196.414	-11.22
196.801	5738.18
197.189	371.49
197.576	105.26
197.963	-53.79
198.351	9.26
198.738	18.35
199.125	-31.4
199.512	33.16
199.899	16.57
200.286	12.95
200.673	42.53
201.06	27.56
201.447	28.94
201.833	19.41
202.22	65.51
202.607	3.04
202.994	94.54
203.38	17.09
203.767	55.66
204.154	65.57
204.54	35.78
204.927	35.74
205.313	57.02
205.699	29.71
206.086	36.98
206.472	34.48
206.858	32.06
207.245	21.72
207.631	52.36
208.017	57.22
208.403	-51.5
208.789	21.38
209.175	14.33
209.561	-37.47
209.947	-10.05
210.333	-3.45
210.719	21.31
211.105	50.93
211.491	28.44
211.876	47.33
212.262	14.19
212.648	21.74
213.034	10.15
213.419	40.56
213.805	40.81
214.19	-17.05
214.576	16.42
214.961	32.72
215.346	4.9
215.732	-1.13
216.117	-0.12
216.502	-15.15
216.888	-2.91
217.273	12.92
217.658	17.84
218.043	-6.6
218.428	10.96
218.813	13.73
219.198	-29.73
219.583	13.75
219.968	30.56
220.353	-16.86
220.738	9.44
221.122	-1.4
221.507	11.71
221.892	-6.56
222.276	-5.63
222.661	-4.23
223.046	9.04
223.43	24.28
223.815	4.59
224.199	10.74
224.583	8.49
224.968	7.4
225.352	5.85
225.736	16.58
226.121	4.67
226.505	5.49
226.889	9.24
227.273	7.23
227.657	5
228.041	5.73
228.425	-0.23
228.809	2.66
229.193	3.86
229.577	4.3
229.961	3.2
230.344	4.5
230.728	4.55
231.112	3.84
231.495	2.9
231.879	4.25
232.263	5.15
232.646	3.78
233.03	6.21
233.413	3.58
233.797	0.53
234.18	5.39
234.563	2.84
234.946	3.25
235.33	5.95
235.713	3.75
236.096	4.15
236.479	5.44
236.862	3.19
237.245	3.87
237.628	3
238.011	4.16
238.394	4.52
238.777	4.07
239.16	5.39
239.543	5.28
239.925	5.47
240.308	3.63
240.691	3.5
241.073	3.88
241.456	3.81
241.838	4.64
242.221	4.38
242.603	4.28
242.986	3.79
243.368	3.93
243.75	4
244.133	4.24
244.515	4.16
244.897	4.07
245.279	3.98
245.661	4.55
246.043	4.03
246.425	4.7
246.807	4.35
247.189	4.23
247.571	4.3
247.953	4.25
248.335	4.02
248.717	4.26
249.098	4.15
249.48	3.93
249.862	4.42
250.243	4.45
250.625	4.45
251.006	4.57
251.388	4.29
251.769	4.07
252.151	4.77
252.532	4.32
252.913	5.15
253.295	4.24
253.676	3.93
254.057	4.25
254.438	4.4
254.819	4.57
255.2	4.09
255.581	5.03
255.962	5.49
256.343	5.57
256.724	4.69
257.105	4.07
257.486	4.34
257.867	4.07
258.247	4.5
258.628	5.39
259.009	3.87
259.389	3.99
259.77	4
260.15	4.87
260.531	4.76
260.911	4.27
261.292	4.27
261.672	4.09
262.052	4.17
262.432	4
262.813	4.62
263.193	4.64
263.573	3.78
263.953	3.55
264.333	4.7
264.713	4.71
265.093	4.18
265.473	4.11
265.853	4.06
266.233	4.72
266.612	3.97
266.992	5.07
267.372	3.59
267.752	4.51
268.131	3.73
268.511	3.94
268.89	4.52
269.27	3.72
269.649	3.73
270.029	3.84
270.408	3.99
270.787	4.5
271.167	4.55
271.546	4.55
271.925	4.44
272.304	3.63
272.683	3.82
273.062	3.92
273.441	3.82
273.82	4.11
274.199	3.58
274.578	3.74
274.957	3.64
275.336	3.84
275.715	4.33
276.093	3.84
276.472	4.18
276.851	4.13
277.229	4.24
277.608	3.74
277.986	4.2
278.365	4.54
278.743	3.78
279.122	4.09
279.5	3.96
279.878	3.78
280.257	4.55
280.635	4.26
281.013	3.95
281.391	4.28
281.769	4.52
282.147	4.05
282.525	3.59
282.903	3.78
283.281	4.27
283.659	4.37
284.037	4.06
284.415	3.91
284.792	4.12
285.17	3.84
285.548	4.09
285.925	3.99
286.303	4.19
286.68	3.91
287.058	4.13
287.435	3.92
287.813	4.06
288.19	3.72
288.567	4.48
288.945	3.83
289.322	4.57
289.699	4.52
290.076	4.02
290.453	3.95
290.83	4.25
291.207	4.15
291.584	4.12
291.961	4.1
292.338	4.43
292.715	4.38
293.092	4.34
293.469	4.31
293.845	4.9
294.222	4.9
294.599	3.97
294.975	3.96
295.352	4.91
295.728	4.33
296.105	4.65
296.481	4.65
296.858	4.74
297.234	4.29
297.61	4.52
297.986	5.29
298.363	4.94
298.739	4.99
299.115	4.92
299.491	5
299.867	4.98
300.243	4.96
300.619	4.62
300.995	5.21
301.371	4.99
301.746	5.32
302.122	4.69
302.498	5.12
302.874	5.25
303.249	5.11
303.625	5.39
304	5.63
304.376	5.88
304.751	5.55
305.127	5.11
305.502	5.72
305.878	5.98
306.253	5.38
306.628	5.73
307.003	5.36
307.378	5.72
307.754	5.85
308.129	5.78
308.504	6.02
308.879	6.33
309.254	6.02
309.629	5.91
310.003	6.3
310.378	6.43
310.753	6.28
311.128	6.2
311.502	6.15
311.877	6.38
312.252	6.69
312.626	7.03
313.001	6.71
313.375	6.72
313.75	6.88
314.124	6.87
314.498	7.17
314.873	6.66
315.247	7.01
315.621	7.09
315.995	7.66
316.369	7
316.743	7.19
317.117	7.33
317.491	7.74
317.865	7.05
318.239	8.33
318.613	7.24
318.987	7.21
319.361	7.41
319.734	7.32
320.108	7.84
320.482	7.89
320.855	7.33
321.229	8.07
321.602	7.67
321.976	7.55
322.349	8.41
322.723	7.85
323.096	8.32
323.469	7.97
323.843	8.26
324.216	8.16
324.589	8.36
324.962	8.3
325.335	8.27
325.708	8.35
326.081	8.54
326.454	8.39
326.827	8.54
327.2	8.32
327.573	8.83
327.945	8.41
328.318	8.34
328.691	8.74
329.063	8.56
329.436	8.43
329.809	8.91
330.181	9.55
330.553	9.34
330.926	9.42
331.298	8.8
331.671	9.22
332.043	8.85
332.415	9.51
332.787	9.49
333.159	9.17
333.532	8.88
333.904	9.58
334.276	9.59
334.648	9.07
335.02	9.29
335.391	9.31
335.763	9.11
336.135	9.44
336.507	9.44
336.879	9.48
337.25	9.42
337.622	10.15
337.993	9.97
338.365	9.7
338.736	9.95
339.108	10.07
339.479	9.77
339.851	9.92
340.222	10.02
340.593	9.62
340.964	9.78
341.336	9.59
341.707	9.98
342.078	9.9
342.449	9.93
342.82	10.24
343.191	9.77
343.562	10.2
343.933	10.33
344.303	10.09
344.674	9.95
345.045	10.21
345.416	10.58
345.786	10.18
346.157	10.41
346.527	10.38
346.898	10.08
347.268	10.49
347.639	10.1
348.009	10.29
348.38	10.2
348.75	10.89
349.12	10.64
349.49	10.31
349.861	10.96
350.231	10.99
350.601	10.61
350.971	10.59
351.341	10.66
351.711	10.44
352.081	10.24
352.45	10.29
352.82	10.05
353.19	10.63
353.56	10.77
353.929	10.77
354.299	11.05
354.669	11.07
355.038	11.15
355.408	11.07
355.777	11.03
356.147	11.01
356.516	10.76
356.885	11.08
357.254	10.75
357.624	10.73
357.993	11.18
358.362	11.04
358.731	11.49
359.1	11.03
359.469	11.25
359.838	11.28
360.207	11.16
360.576	11.45
360.945	11.53
361.314	11.31
361.682	11.32
362.051	11.36
362.42	11.37
362.788	11.62
363.157	11.34
363.525	11.52
363.894	11.36
364.262	11.58
364.631	11.78
364.999	11.88
365.367	11.52
365.735	11.55
366.104	11.5
366.472	11.59
366.84	11.9
367.208	11.94
367.576	11.69
367.944	12.08
368.312	11.76
368.68	12.05
369.048	11.96
369.416	11.84
369.783	12.1
370.151	12.29
370.519	12.32
370.886	12.54
371.254	12.45
371.621	12.66
371.989	12.46
372.356	12.44
372.724	12.3
373.091	12.25
373.458	12.45
373.826	12.3
374.193	12.44
374.56	12.29
374.927	12.2
375.294	12.61
375.661	12.73
376.028	12.55
376.395	12.8
376.762	12.42
377.129	12.7
377.496	12.61
377.863	12.75
378.229	13.03
378.596	12.79
378.963	12.56
379.329	12.75
379.696	12.63
380.062	12.92
380.429	12.94
380.795	13.01
381.161	12.88
381.528	12.97
381.894	13.02
382.26	13.22
382.626	13.05
382.993	13.49
383.359	12.88
383.725	12.8
384.091	13.15
384.457	13.09
384.823	13.43
385.188	13.17
385.554	13.27
385.92	12.8
386.286	13.07
386.651	12.95
387.017	13.03
387.383	13.31
387.748	13.48
388.114	13.52
388.479	13.25
388.845	13.04
389.21	13.58
389.575	13.46
389.94	13.63
390.306	13.57
390.671	13.49
391.036	13.31
391.401	13.44
391.766	13.41
392.131	13.63
392.496	13.34
392.861	13.3
393.226	13.18
393.591	13.43
393.956	13.3
394.32	13.5
394.685	13.28
395.05	13.45
395.414	13.28
395.779	13.64
396.143	13.37
396.508	13.45
396.872	13.39
397.236	13.8
397.601	13.38
397.965	13.59
398.329	13.41
398.694	13.62
399.058	13.47
399.422	13.57
399.786	13.33
400.15	13.61
400.514	13.49
400.878	13.62
401.242	13.7
401.605	13.45
401.969	13.41
402.333	13.63
402.697	13.78
403.06	13.57
403.424	13.52
403.787	13.68
404.151	13.71
404.514	13.58
404.878	13.53
405.241	13.54
405.604	13.44
405.968	13.72
406.331	13.73
406.694	13.5
407.057	13.56
407.42	13.77
407.783	13.53
408.146	13.68
408.509	13.86
408.872	13.75
409.235	14.04
409.598	13.89
409.961	13.96
410.323	13.73
410.686	14.13
411.049	13.91
411.411	13.73
411.774	13.7
412.136	13.91
412.499	13.96
412.861	13.7
413.223	14.1
413.586	14.12
413.948	14.15
414.31	14.13
414.672	14.04
415.035	14.16
415.397	14.35
415.759	13.95
416.121	14.51
416.483	14.13
416.845	14.36
417.206	14.19
417.568	14.18
417.93	14.31
418.292	14.24
418.653	14.23
419.015	14.47
419.377	14.37
419.738	14.48
420.1	14.43
420.461	14.5
420.822	14.47
421.184	14.54
421.545	14.57
421.906	14.67
422.267	14.5
422.629	14.52
422.99	14.62
423.351	14.77
423.712	14.89
424.073	14.99
424.434	14.95
424.795	15.07
425.155	15.02
425.516	15.03
425.877	15.14
426.238	15.24
426.598	15.27
426.959	15.4
427.32	15.49
427.68	15.65
428.041	15.89
428.401	15.76
428.761	16.03
429.122	16.1
429.482	16.17
429.842	16.07
430.202	16.34
430.563	16.32
430.923	16.5
431.283	16.55
431.643	16.74
432.003	16.74
432.363	16.76
432.722	16.69
433.082	16.73
433.442	17.07
433.802	16.78
434.161	16.9
434.521	16.93
434.881	16.97
435.24	17.04
435.6	17.22
435.959	17.37
436.319	17.24
436.678	17.42
437.037	17.54
437.396	17.52
437.756	17.54
438.115	17.7
438.474	17.53
438.833	17.84
439.192	17.75
439.551	17.91
439.91	17.78
440.269	17.84
440.628	17.99
440.987	17.98
441.345	18.19
441.704	18.04
442.063	18.16
442.421	18.19
442.78	18.24
443.138	18.26
443.497	18.44
443.855	18.54
444.214	18.52
444.572	18.83
444.93	18.63
445.288	18.88
445.647	18.87
446.005	18.82
446.363	18.81
446.721	18.83
447.079	18.65
447.437	18.86
447.795	18.77
448.153	18.72
448.51	18.88
448.868	18.82
449.226	18.99
449.584	19.14
449.941	19.19
450.299	19.29
450.656	19.43
451.014	19.47
451.371	19.62
451.729	19.65
452.086	19.59
452.443	19.94
452.801	19.92
453.158	20.13
453.515	19.98
453.872	19.97
454.229	19.76
454.586	19.89
454.943	20.06
455.3	20.32
455.657	20.29
456.014	20.29
456.371	20.31
456.727	20.47
457.084	20.65
457.441	20.65
457.797	20.74
458.154	20.58
458.51	20.87
458.867	20.65
459.223	20.72
459.58	20.84
459.936	20.8
460.292	20.79
460.648	20.69
461.005	20.54
461.361	20.58
461.717	20.64
462.073	20.86
462.429	20.9
462.785	21.13
463.141	21.32
463.496	21.23
463.852	21.69
464.208	21.6
464.564	21.65
464.919	21.68
465.275	21.59
465.631	22.13
465.986	21.93
466.342	21.9
466.697	21.76
467.052	21.96
467.408	21.95
467.763	22.02
468.118	21.98
468.473	22.14
468.829	22.08
469.184	22.48
469.539	22.18
469.894	22.44
470.249	22.64
470.603	22.4
470.958	22.63
471.313	22.88
471.668	22.6
472.023	22.76
472.377	22.69
472.732	22.98
473.086	22.91
473.441	22.97
473.795	23.1
474.15	22.88
474.504	23.03
474.859	22.77
475.213	23.08
475.567	23.06
475.921	23.45
476.275	23.28
476.63	23.42
476.984	23.32
477.338	23.48
477.692	23.39
478.045	23.4
478.399	23.42
478.753	23.44
479.107	23.43
479.461	23.41
479.814	23.47
480.168	23.49
480.521	23.71
480.875	23.72
481.228	23.93
481.582	23.78
481.935	23.87
482.289	23.81
482.642	23.83
482.995	23.76
483.348	23.63
483.701	23.73
484.055	23.53
484.408	23.47
484.761	23.16
485.114	23.05
485.466	22.99
485.819	23.04
486.172	23.17
486.525	23.39
486.878	23.62
487.23	23.76
487.583	23.79
487.936	23.93
488.288	23.71
488.641	23.7
488.993	23.58
489.345	23.65
489.698	23.66
490.05	23.75
490.402	23.96
490.754	24.07
491.107	24.29
491.459	24.51
491.811	24.57
492.163	24.5
492.515	24.46
492.866	24.06
493.218	24.02
493.57	24.26
493.922	24.42
494.274	24.58
494.625	24.97
494.977	24.94
495.328	25.16
495.68	25.37
496.031	25.31
496.383	25.53
496.734	25.53
497.086	25.62
497.437	25.69
497.788	25.62
498.139	25.51
498.49	25.44
498.842	25.63
499.193	25.55
499.544	25.63
499.894	25.68
500.245	25.82
500.596	25.86
500.947	25.95
501.298	26.05
501.648	26.09
501.999	26.26
502.35	26.26
502.7	26.54
503.051	26.4
503.401	26.41
503.752	26.45
504.102	26.52
504.452	26.57
504.803	26.53
505.153	26.69
505.503	26.55
505.853	26.7
506.203	26.71
506.553	26.7
506.903	26.86
507.253	26.77
507.603	27.09
507.953	26.83
508.303	27.05
508.652	26.88
509.002	27.09
509.352	27.08
509.701	26.81
510.051	27.08
510.4	26.93
510.75	27
511.099	26.89
511.449	27
511.798	27.06
512.147	27.16
512.496	27.42
512.846	27.35
513.195	27.32
513.544	27.33
513.893	27.35
514.242	27.43
514.591	27.18
514.939	27.55
515.288	27.7
515.637	27.82
515.986	27.88
516.334	27.86
516.683	27.87
517.032	27.77
517.38	27.87
517.729	27.9
518.077	27.89
518.426	27.91
518.774	27.82
519.122	27.84
519.47	27.73
519.819	27.75
520.167	27.59
520.515	27.65
520.863	27.66
521.211	27.84
521.559	28
521.907	28.03
522.255	28.18
522.602	28.24
522.95	28.36
523.298	28.4
523.645	28.25
523.993	28.66
524.341	28.57
524.688	28.47
525.036	28.46
525.383	28.79
525.73	28.57
526.078	28.65
526.425	28.34
526.772	28.22
527.119	28.39
527.466	28.2
527.814	28.24
528.161	28.29
528.508	28.41
528.854	28.3
529.201	28.3
529.548	28.1
529.895	27.74
530.242	27.9
530.588	27.85
530.935	28.09
531.282	28.17
531.628	28.31
531.975	28.48
532.321	28.71
532.667	28.88
533.014	28.92
533.36	28.83
533.706	28.81
534.052	28.87
534.399	28.62
534.745	28.46
535.091	28.52
535.437	28.83
535.783	28.82
536.129	28.98
536.474	29.29
536.82	29.29
537.166	29.44
537.512	29.41
537.857	29.38
538.203	29.14
538.549	29.3
538.894	29.33
539.239	29.63
539.585	29.63
539.93	29.88
540.276	29.92
540.621	30.01
540.966	29.92
541.311	30.17
541.656	29.87
542.001	29.84
542.346	29.48
542.691	29.34
543.036	29.37
543.381	29.54
543.726	29.63
544.071	29.79
544.415	29.81
544.76	29.91
545.105	30.02
545.449	30.15
545.794	30.31
546.138	30.38
546.483	30.54
546.827	30.38
547.171	30.63
547.516	30.77
547.86	30.6
548.204	30.6
548.548	30.61
548.892	30.77
549.236	30.88
549.58	31.1
549.924	31.23
550.268	31.34
550.612	31.39
550.956	31.63
551.3	31.52
551.643	31.66
551.987	31.61
552.33	31.81
552.674	31.8
553.017	31.77
553.361	31.91
553.704	31.92
554.048	31.58
554.391	31.95
554.734	31.83
555.077	32
555.42	31.98
555.764	32.15
556.107	32.33
556.45	32.21
556.793	32.42
557.135	32.42
557.478	32.53
557.821	32.45
558.164	32.63
558.507	32.64
558.849	32.48
559.192	32.57
559.534	32.64
559.877	32.5
560.219	32.73
560.562	32.64
560.904	32.82
561.246	32.81
561.589	32.9
561.931	33.03
562.273	33.07
562.615	32.89
562.957	32.95
563.299	33.06
563.641	33.02
563.983	33.22
564.325	33.16
564.667	33.17
565.008	33.17
565.35	33.34
565.692	33.16
566.033	33.42
566.375	33.41
566.716	33.34
567.058	33.32
567.399	33.42
567.741	33.26
568.082	33.28
568.423	33.26
568.764	33.53
569.105	33.42
569.447	33.49
569.788	33.56
570.129	33.43
570.47	33.59
570.811	33.85
571.151	33.93
571.492	33.98
571.833	33.99
572.174	33.8
572.514	34.12
572.855	34.26
573.195	33.87
573.536	34.24
573.876	34.1
574.217	33.99
574.557	34.18
574.898	34.24
575.238	34.51
575.578	34.55
575.918	34.2
576.258	34.39
576.598	34.43
576.938	34.4
577.278	34.49
577.618	34.57
577.958	34.86
578.298	34.97
578.638	35.02
578.977	34.93
579.317	34.99
579.657	34.94
579.996	34.94
580.336	35.57
580.675	35.45
581.014	35.31
581.354	35.55
581.693	35.73
582.032	35.75
582.372	35.77
582.711	35.76
583.05	35.53
583.389	35.83
583.728	36.11
584.067	35.92
584.406	36.1
584.745	36.09
585.083	36.22
585.422	36.24
585.761	36.08
586.1	36.19
586.438	36.35
586.777	36.19
587.115	36.25
587.454	36.3
587.792	36.58
588.13	36.36
588.469	36.55
588.807	37.02
589.145	36.72
589.483	36.61
589.821	36.77
590.159	37.03
590.497	36.54
590.835	36.69
591.173	37.25
591.511	37.2
591.849	37
592.187	37.03
592.524	37.33
592.862	37.04
593.2	37.08
593.537	37.24
593.875	37.45
594.212	37.31
594.55	37.66
594.887	37.64
595.224	37.63
595.561	37.57
595.899	38.14
596.236	38.03
596.573	37.49
596.91	37.84
597.247	37.87
597.584	37.54
597.921	37.66
598.258	38.05
598.594	37.65
598.931	37.48
599.268	37.65
599.604	37.81
599.941	37.84
600.277	38.21
600.614	38.47
600.95	38.11
601.287	38.31
601.623	38.21
601.959	38.89
602.296	38.49
602.632	38.83
602.968	38.35
603.304	38.55
603.64	38.48
603.976	38.38
604.312	38.63
604.648	38.7
604.984	38.49
605.319	38.59
605.655	38.51
605.991	38.56
606.326	38.61
606.662	38.34
606.998	38.65
607.333	38.63
607.668	38.95
608.004	39.29
608.339	39.25
608.674	39.16
609.01	39.44
609.345	39.7
609.68	39.39
610.015	39.43
610.35	39.48
610.685	39.21
611.02	39.01
611.355	39.4
611.689	39.39
612.024	39.59
612.359	39.67
612.694	39.81
613.028	39.5
613.363	39.9
613.697	39.94
614.032	40.29
614.366	40.21
614.7	39.77
615.035	39.86
615.369	40.18
615.703	40.27
616.037	40.13
616.371	40.55
616.705	40.46
617.039	40.79
617.373	40.41
617.707	40.72
618.041	40.1
618.375	39.83
618.709	40.82
619.042	40.64
619.376	40.25
619.71	40.71
620.043	40.93
620.377	40.55
620.71	40.67
621.043	40.92
621.377	40.98
621.71	41.09
622.043	41.01
622.376	41.14
622.709	40.91
623.043	41.16
623.376	41.15
623.709	41.49
624.041	41.3
624.374	41.2
624.707	41.4
625.04	41.08
625.373	41.35
625.705	41.59
626.038	41.46
626.37	41.59
626.703	41.64
627.035	41.21
627.368	41.36
627.7	41.53
628.032	41.61
628.365	41.64
628.697	41.48
629.029	41.74
629.361	42.04
629.693	41.9
630.025	41.6
630.357	42.07
630.689	41.68
631.021	42.22
631.353	42.16
631.684	42.07
632.016	42.42
632.348	41.84
632.679	42.41
633.011	42.18
633.342	42.65
633.674	42.43
634.005	42.36
634.336	42.7
634.668	42.46
634.999	42.94
635.33	42.97
635.661	43.27
635.992	42.78
636.323	42.83
636.654	43.06
636.985	42.77
637.316	43.1
637.647	42.93
637.977	43.18
638.308	43.68
638.639	43.32
638.969	43.44
639.3	44.03
639.63	43.33
639.961	43.5
640.291	43.56
640.622	44.16
640.952	44.11
641.282	43.66
641.612	43.71
641.943	44.01
642.273	44.15
642.603	44.05
642.933	44.55
643.263	44.15
643.592	44.58
643.922	44.61
644.252	44.4
644.582	44.88
644.911	44.2
645.241	44.26
645.571	44.74
645.9	44.55
646.23	45.29
646.559	44.49
646.888	44.97
647.218	44.62
647.547	45.21
647.876	44.82
648.205	44.44
648.534	45.17
648.863	45.21
649.192	44.77
649.521	44.97
649.85	45.25
650.179	45.2
650.508	45.14
650.837	45.44
651.165	45.25
651.494	45.37
651.822	45.51
652.151	45.34
652.479	45.46
652.808	45.24
653.136	45.52
653.465	45.81
653.793	45.29
654.121	45.81
654.449	45.84
654.777	45.94
655.105	45.97
655.433	45.7
655.761	45.8
656.089	45.74
656.417	46.41
656.745	46.02
657.073	46.22
657.4	46.35
657.728	46.03
658.056	46.19
658.383	46.7
658.711	45.98
659.038	46.62
659.365	47.05
659.693	46.44
660.02	46.99
660.347	46.65
660.674	46.99
661.001	46.82
661.329	46.92
661.656	46.42
661.982	46.33
662.309	47.07
662.636	47.07
662.963	46.56
663.29	47.22
663.616	46.47
663.943	47.1
664.27	47.45
664.596	46.88
664.923	47.26
665.249	47
665.576	46.85
665.902	47.15
666.228	47.36
666.554	47.76
666.881	47.13
667.207	47.27
667.533	47.5
667.859	47.95
668.185	47.92
668.511	47.74
668.837	47.91
669.162	48.23
669.488	47.2
669.814	48.02
670.139	47.57
670.465	47.85
