Data from 22-2_crown_Reflection__2__233.txt Node

Date: Thu Dec 15 18:17:52 CST 2022
User: ToomeyLab
Spectrometer: FLMS14357
Trigger mode: 0
Integration Time (sec): 1.000000E-2
Scans to average: 100
Electric dark correction enabled: true
Nonlinearity correction enabled: false
Boxcar width: 0
XAxis mode: Wavelengths
Number of Pixels in Spectrum: 2048
>>>>>Begin Spectral Data<<<<<
189.047	-27.92
189.435	-27.92
189.823	-27.92
190.211	277.01
190.599	-43.13
190.987	7.76
191.375	-423.92
191.763	813.77
192.151	-15.18
192.538	27.4
192.926	66.56
193.314	22.13
193.702	-5.86
194.089	-257.66
194.477	-1128.74
194.864	41.93
195.252	-38.92
195.639	97.61
196.027	120.94
196.414	-99.19
196.801	3712.73
197.189	-17.44
197.576	-144.6
197.963	254.37
198.351	-0.1
198.738	-20.81
199.125	-80.4
199.512	16.16
199.899	-29.44
200.286	-60.21
200.673	44.95
201.06	-31.09
201.447	-4.42
201.833	6.59
202.22	-1.22
202.607	-142.8
202.994	31.1
203.38	4.4
203.767	6.03
204.154	-0.77
204.54	-14.99
204.927	-3.7
205.313	-30.76
205.699	10.43
206.086	8.32
206.472	36.24
206.858	-28.36
207.245	-13.01
207.631	-13.44
208.017	58.46
208.403	-124.36
208.789	-14.94
209.175	-10.15
209.561	-248.01
209.947	14.9
210.333	-24.67
210.719	19.05
211.105	11.02
211.491	-5.43
211.876	-41
212.262	-25.62
212.648	4.11
213.034	-36.59
213.419	14.66
213.805	-85.31
214.19	-33.73
214.576	-12.94
214.961	-10.87
215.346	-25.49
215.732	-12.49
216.117	5.13
216.502	9.22
216.888	18.33
217.273	3.55
217.658	-6.61
218.043	-23.81
218.428	-41.13
218.813	8.61
219.198	-51.6
219.583	-8.51
219.968	-23.67
220.353	-21.43
220.738	-7.46
221.122	-5.12
221.507	-19.76
221.892	-36.24
222.276	-20.42
222.661	-20.68
223.046	-9.54
223.43	14.51
223.815	0.68
224.199	-2.81
224.583	-9.15
224.968	-6.94
225.352	-21.9
225.736	12.23
226.121	1.37
226.505	-1.24
226.889	-9.37
227.273	-5.39
227.657	-0.72
228.041	-0.43
228.425	-2.67
228.809	-0.68
229.193	2.38
229.577	1.22
229.961	-0.07
230.344	1.89
230.728	1.95
231.112	2.2
231.495	0.03
231.879	0.8
232.263	0.91
232.646	0.54
233.03	2.69
233.413	1.18
233.797	-0
234.18	-0.85
234.563	1.51
234.946	0.49
235.33	1.97
235.713	1.25
236.096	1.84
236.479	2.86
236.862	-0.26
237.245	-0.62
237.628	0.99
238.011	1.7
238.394	0.13
238.777	0.19
239.16	2.18
239.543	1.88
239.925	2.38
240.308	0.47
240.691	-0.4
241.073	1.04
241.456	0.73
241.838	1.13
242.221	1.27
242.603	0.94
242.986	1.31
243.368	1.62
243.75	1.91
244.133	1.84
244.515	1.37
244.897	1.38
245.279	1.08
245.661	1.83
246.043	2.09
246.425	2.31
246.807	1.43
247.189	1.81
247.571	1.14
247.953	1.17
248.335	1.56
248.717	1.59
249.098	1.67
249.48	1.61
249.862	1.5
250.243	1.7
250.625	1.85
251.006	2.61
251.388	1.6
251.769	0.4
252.151	1.52
252.532	1.21
252.913	1.22
253.295	1.2
253.676	1.67
254.057	1.84
254.438	1.33
254.819	1.91
255.2	1.37
255.581	2.77
255.962	1.78
256.343	1.43
256.724	1.4
257.105	0.25
257.486	0.74
257.867	1.43
258.247	1.52
258.628	1.66
259.009	1.51
259.389	0.75
259.77	0.88
260.15	2.41
260.531	1.41
260.911	1.67
261.292	1.77
261.672	1.46
262.052	1.73
262.432	1.3
262.813	1.83
263.193	1.1
263.573	1.7
263.953	1.35
264.333	1.33
264.713	1.69
265.093	1.27
265.473	0.46
265.853	1.06
266.233	1.28
266.612	1.27
266.992	1.2
267.372	1.72
267.752	1.18
268.131	1.61
268.511	1.13
268.89	1.46
269.27	1.25
269.649	1.23
270.029	1.28
270.408	1.24
270.787	1.7
271.167	1.66
271.546	2.26
271.925	1.91
272.304	1.37
272.683	1.25
273.062	1.52
273.441	0.98
273.82	1.5
274.199	1.26
274.578	1.56
274.957	1.41
275.336	1.7
275.715	1.43
276.093	1.29
276.472	0.85
276.851	1.22
277.229	0.88
277.608	1.1
277.986	1.17
278.365	1.63
278.743	1.58
279.122	1.11
279.5	1.58
279.878	1.12
280.257	1.43
280.635	1.51
281.013	0.62
281.391	1.14
281.769	1.49
282.147	0.87
282.525	1.27
282.903	1.02
283.281	1.51
283.659	1.63
284.037	1.52
284.415	1.38
284.792	1.41
285.17	1.57
285.548	1.28
285.925	1.55
286.303	1.99
286.68	1.47
287.058	1.26
287.435	1.53
287.813	1.67
288.19	1.25
288.567	1.07
288.945	1.46
289.322	1.42
289.699	1.52
290.076	1.1
290.453	0.81
290.83	1.57
291.207	1.64
291.584	1.43
291.961	1.31
292.338	1.57
292.715	1.18
293.092	1.73
293.469	1.25
293.845	1.78
294.222	1.8
294.599	1.33
294.975	1.28
295.352	1.54
295.728	1.52
296.105	1.44
296.481	1.73
296.858	1.21
297.234	1.28
297.61	1.95
297.986	1.96
298.363	1.94
298.739	1.75
299.115	1.73
299.491	1.87
299.867	1.74
300.243	1.79
300.619	1.65
300.995	2.01
301.371	2.21
301.746	1.88
302.122	1.49
302.498	1.83
302.874	1.65
303.249	1.79
303.625	0.89
304	1.45
304.376	2.02
304.751	1.48
305.127	1.46
305.502	1.68
305.878	1.92
306.253	1.6
306.628	1.67
307.003	1.9
307.378	1.45
307.754	2.03
308.129	1.84
308.504	1.82
308.879	1.79
309.254	1.95
309.629	1.98
310.003	1.54
310.378	2.28
310.753	2.05
311.128	1.91
311.502	1.88
311.877	1.88
312.252	2.04
312.626	2.31
313.001	1.98
313.375	2.22
313.75	2.02
314.124	2.01
314.498	1.86
314.873	1.64
315.247	2.39
315.621	1.62
315.995	1.79
316.369	1.66
316.743	1.96
317.117	2.1
317.491	2.33
317.865	1.77
318.239	2.78
318.613	2.13
318.987	1.73
319.361	1.97
319.734	1.93
320.108	2.14
320.482	2.47
320.855	1.68
321.229	2
321.602	1.92
321.976	1.49
322.349	2.9
322.723	1.88
323.096	2.16
323.469	1.57
323.843	1.79
324.216	2.17
324.589	2.15
324.962	1.77
325.335	1.9
325.708	2.1
326.081	2.12
326.454	2.35
326.827	2.21
327.2	1.91
327.573	2.47
327.945	1.9
328.318	1.8
328.691	1.74
329.063	2.05
329.436	1.84
329.809	2.46
330.181	2.95
330.553	2.43
330.926	2.18
331.298	1.88
331.671	2.3
332.043	1.93
332.415	2.43
332.787	2.48
333.159	2.36
333.532	2.04
333.904	2.51
334.276	2.64
334.648	2.12
335.02	2.22
335.391	2.02
335.763	2.36
336.135	2.32
336.507	2.04
336.879	2.11
337.25	2.54
337.622	2.68
337.993	2.35
338.365	2.13
338.736	2.56
339.108	2.74
339.479	2.44
339.851	2.7
340.222	2.86
340.593	2.52
340.964	2.27
341.336	2.12
341.707	1.91
342.078	2.19
342.449	2.47
342.82	2.26
343.191	2.38
343.562	2.45
343.933	2.15
344.303	2.5
344.674	2.14
345.045	2.27
345.416	2.56
345.786	2.12
346.157	2.57
346.527	2.23
346.898	2.4
347.268	2.44
347.639	2.15
348.009	2.53
348.38	2.24
348.75	2.48
349.12	2.17
349.49	2.34
349.861	2.32
350.231	2.5
350.601	2.58
350.971	2.17
351.341	2.3
351.711	2.67
352.081	2.33
352.45	2.4
352.82	2.08
353.19	2.5
353.56	2.57
353.929	2.84
354.299	2.33
354.669	2.48
355.038	2.93
355.408	2.33
355.777	2.71
356.147	2.47
356.516	2.29
356.885	2.12
357.254	2.2
357.624	2
357.993	2.28
358.362	2.52
358.731	2.87
359.1	2.61
359.469	2.69
359.838	2.62
360.207	2.33
360.576	2.67
360.945	2.95
361.314	2.39
361.682	2.58
362.051	2.5
362.42	2.42
362.788	2.78
363.157	2.55
363.525	2.46
363.894	2.47
364.262	2.49
364.631	2.82
364.999	2.75
365.367	2.58
365.735	2.47
366.104	2.46
366.472	2.59
366.84	2.32
367.208	2.58
367.576	2.46
367.944	2.51
368.312	2.48
368.68	2.73
369.048	2.43
369.416	2.41
369.783	2.67
370.151	3.02
370.519	2.81
370.886	2.87
371.254	2.81
371.621	2.62
371.989	2.99
372.356	2.77
372.724	2.41
373.091	2.15
373.458	2.18
373.826	2.56
374.193	2.42
374.56	2.71
374.927	2.19
375.294	2.6
375.661	2.44
376.028	2.71
376.395	2.48
376.762	2.34
377.129	2.42
377.496	2.48
377.863	2.62
378.229	2.73
378.596	2.84
378.963	2.7
379.329	2.83
379.696	2.24
380.062	2.65
380.429	2.23
380.795	2.6
381.161	2.25
381.528	2.06
381.894	2.44
382.26	2.51
382.626	2.76
382.993	2.69
383.359	2.57
383.725	2.21
384.091	2.66
384.457	2.3
384.823	2.68
385.188	2.79
385.554	2.76
385.92	2.53
386.286	2.59
386.651	2.52
387.017	2.82
387.383	2.59
387.748	2.91
388.114	2.73
388.479	2.61
388.845	2.53
389.21	2.63
389.575	2.88
389.94	2.76
390.306	2.73
390.671	2.7
391.036	2.65
391.401	2.78
391.766	2.68
392.131	2.8
392.496	2.67
392.861	2.64
393.226	2.58
393.591	2.63
393.956	2.83
394.32	2.86
394.685	2.86
395.05	2.83
395.414	2.69
395.779	2.69
396.143	2.5
396.508	2.8
396.872	2.63
397.236	3.11
397.601	2.67
397.965	2.74
398.329	2.58
398.694	2.56
399.058	2.56
399.422	2.48
399.786	2.67
400.15	2.58
400.514	2.71
400.878	2.74
401.242	2.8
401.605	2.64
401.969	2.48
402.333	2.58
402.697	3.06
403.06	2.67
403.424	2.72
403.787	2.6
404.151	2.7
404.514	2.81
404.878	2.6
405.241	2.74
405.604	2.67
405.968	2.73
406.331	2.68
406.694	2.68
407.057	2.58
407.42	2.83
407.783	2.72
408.146	2.66
408.509	2.89
408.872	2.66
409.235	3.03
409.598	3
409.961	2.78
410.323	2.68
410.686	2.73
411.049	2.86
411.411	2.57
411.774	2.65
412.136	2.67
412.499	2.98
412.861	2.25
413.223	2.85
413.586	2.77
413.948	2.82
414.31	2.74
414.672	2.68
415.035	2.87
415.397	2.73
415.759	2.51
416.121	2.96
416.483	2.82
416.845	2.89
417.206	2.76
417.568	2.78
417.93	2.8
418.292	2.62
418.653	2.66
419.015	2.63
419.377	2.66
419.738	2.71
420.1	2.67
420.461	2.63
420.822	2.73
421.184	2.6
421.545	2.78
421.906	2.74
422.267	2.7
422.629	2.67
422.99	2.72
423.351	2.67
423.712	2.75
424.073	2.83
424.434	2.78
424.795	2.68
425.155	2.61
425.516	2.67
425.877	2.77
426.238	2.66
426.598	2.68
426.959	2.76
427.32	2.72
427.68	2.7
428.041	2.75
428.401	2.71
428.761	2.73
429.122	2.83
429.482	2.7
429.842	2.78
430.202	3.01
430.563	2.71
430.923	2.8
431.283	2.88
431.643	2.79
432.003	2.88
432.363	2.76
432.722	2.8
433.082	2.67
433.442	2.7
433.802	2.79
434.161	2.9
434.521	2.77
434.881	2.78
435.24	2.77
435.6	2.92
435.959	2.91
436.319	2.93
436.678	2.76
437.037	2.78
437.396	2.7
437.756	2.72
438.115	2.76
438.474	2.86
438.833	2.88
439.192	2.78
439.551	2.77
439.91	2.76
440.269	2.73
440.628	2.77
440.987	2.75
441.345	2.93
441.704	2.74
442.063	2.87
442.421	2.71
442.78	2.85
443.138	2.79
443.497	2.85
443.855	2.81
444.214	2.65
444.572	2.95
444.93	2.74
445.288	2.72
445.647	2.94
446.005	2.9
446.363	2.86
446.721	2.8
447.079	2.76
447.437	2.8
447.795	2.81
448.153	2.75
448.51	2.83
448.868	2.76
449.226	2.87
449.584	2.77
449.941	2.73
450.299	2.8
450.656	2.84
451.014	2.87
451.371	2.85
451.729	2.84
452.086	2.8
452.443	2.82
452.801	2.77
453.158	2.95
453.515	2.94
453.872	2.86
454.229	2.78
454.586	2.79
454.943	2.89
455.3	2.87
455.657	2.75
456.014	2.83
456.371	2.86
456.727	2.98
457.084	2.96
457.441	2.82
457.797	2.83
458.154	2.76
458.51	2.85
458.867	2.97
459.223	2.63
459.58	2.85
459.936	2.73
460.292	2.84
460.648	2.79
461.005	2.73
461.361	2.89
461.717	2.81
462.073	2.87
462.429	2.89
462.785	2.9
463.141	2.81
463.496	2.88
463.852	2.99
464.208	2.78
464.564	2.83
464.919	2.84
465.275	2.75
465.631	3.07
465.986	3.03
466.342	2.88
466.697	2.87
467.052	3.06
467.408	2.95
467.763	2.88
468.118	2.76
468.473	2.95
468.829	2.92
469.184	3.01
469.539	2.86
469.894	2.95
470.249	2.91
470.603	3.03
470.958	2.95
471.313	2.84
471.668	3.03
472.023	2.99
472.377	2.88
472.732	3.05
473.086	3.01
473.441	3.01
473.795	3.15
474.15	2.81
474.504	2.9
474.859	2.73
475.213	3.02
475.567	2.8
475.921	2.93
476.275	2.92
476.63	3.02
476.984	2.64
477.338	2.9
477.692	2.92
478.045	2.88
478.399	2.95
478.753	2.75
479.107	2.85
479.461	2.88
479.814	2.96
480.168	2.89
480.521	3.06
480.875	2.91
481.228	2.91
481.582	2.93
481.935	2.99
482.289	2.94
482.642	3.05
482.995	2.83
483.348	2.87
483.701	2.86
484.055	2.81
484.408	2.89
484.761	2.81
485.114	2.68
485.466	2.73
485.819	2.71
486.172	2.77
486.525	2.77
486.878	2.87
487.23	2.83
487.583	2.88
487.936	2.87
488.288	2.79
488.641	2.77
488.993	2.76
489.345	2.74
489.698	2.75
490.05	2.77
490.402	2.79
490.754	2.8
491.107	2.78
491.459	2.9
491.811	2.87
492.163	2.88
492.515	2.77
492.866	2.79
493.218	2.76
493.57	2.84
493.922	2.85
494.274	2.96
494.625	2.97
494.977	2.96
495.328	2.94
495.68	2.89
496.031	2.88
496.383	2.84
496.734	2.86
497.086	2.99
497.437	2.96
497.788	3.01
498.139	2.86
498.49	2.89
498.842	3
499.193	2.9
499.544	2.92
499.894	2.88
500.245	2.99
500.596	2.97
500.947	2.98
501.298	3.02
501.648	2.96
501.999	3.01
502.35	2.86
502.7	3.1
503.051	2.93
503.401	3.1
503.752	2.9
504.102	2.89
504.452	2.95
504.803	2.86
505.153	2.99
505.503	2.93
505.853	2.95
506.203	3.08
506.553	2.89
506.903	3.13
507.253	2.91
507.603	3.04
507.953	2.95
508.303	3
508.652	2.88
509.002	3.06
509.352	2.99
509.701	2.84
510.051	3.07
510.4	3.04
510.75	2.93
511.099	2.95
511.449	3.05
511.798	2.89
512.147	2.94
512.496	3
512.846	3.02
513.195	2.96
513.544	3.09
513.893	3.07
514.242	2.93
514.591	2.93
514.939	3.06
515.288	3.01
515.637	2.99
515.986	2.93
516.334	3.05
516.683	3.01
517.032	3.01
517.38	2.92
517.729	2.92
518.077	3
518.426	3.08
518.774	2.95
519.122	3.08
519.47	2.94
519.819	2.94
520.167	2.98
520.515	2.96
520.863	2.89
521.211	2.92
521.559	2.93
521.907	3.1
522.255	2.94
522.602	2.99
522.95	3.1
523.298	3.05
523.645	3.01
523.993	3.01
524.341	3.06
524.688	2.93
525.036	3.05
525.383	3.01
525.73	2.96
526.078	3.01
526.425	2.97
526.772	2.99
527.119	3.04
527.466	3.02
527.814	2.88
528.161	3.01
528.508	3.06
528.854	2.96
529.201	2.95
529.548	2.9
529.895	2.79
530.242	2.83
530.588	2.82
530.935	2.85
531.282	2.88
531.628	2.93
531.975	2.9
532.321	2.95
532.667	2.99
533.014	3.03
533.36	2.96
533.706	2.98
534.052	2.98
534.399	2.99
534.745	2.85
535.091	2.86
535.437	2.89
535.783	2.98
536.129	3
536.474	3
536.82	3.06
537.166	2.87
537.512	2.99
537.857	2.99
538.203	2.96
538.549	2.97
538.894	2.98
539.239	3
539.585	3.09
539.93	3.02
540.276	2.95
540.621	3.03
540.966	3.06
541.311	3.02
541.656	2.96
542.001	2.98
542.346	2.91
542.691	2.87
543.036	2.9
543.381	2.91
543.726	2.98
544.071	2.95
544.415	3.03
544.76	3.02
545.105	3
545.449	2.97
545.794	3.02
546.138	3.01
546.483	3.02
546.827	2.96
547.171	3.08
547.516	3
547.86	3.11
548.204	3.14
548.548	2.96
548.892	2.98
549.236	3.03
549.58	3.11
549.924	3.24
550.268	3.2
550.612	3.21
550.956	3.11
551.3	3.21
551.643	3.09
551.987	3.15
552.33	3.33
552.674	3.03
553.017	3.23
553.361	3.19
553.704	3.09
554.048	3.17
554.391	3.28
554.734	3.08
555.077	3.1
555.42	2.92
555.764	3.02
556.107	3.17
556.45	3.29
556.793	3.25
557.135	3.16
557.478	3.02
557.821	2.96
558.164	3.19
558.507	3.06
558.849	3.15
559.192	2.98
559.534	3.07
559.877	3
560.219	3.17
560.562	3.16
560.904	3.3
561.246	3.09
561.589	3.46
561.931	3.28
562.273	3.09
562.615	3.08
562.957	2.98
563.299	3.1
563.641	3.2
563.983	3.05
564.325	3.14
564.667	3.12
565.008	3.04
565.35	2.96
565.692	3.17
566.033	3.03
566.375	3.15
566.716	2.92
567.058	3.09
567.399	3.07
567.741	3.12
568.082	3.07
568.423	3.08
568.764	3.15
569.105	3.06
569.447	3.05
569.788	3.05
570.129	3.24
570.47	3.05
570.811	2.97
571.151	3.14
571.492	3.17
571.833	3.1
572.174	3.19
572.514	3.24
572.855	3.38
573.195	3.06
573.536	3.11
573.876	3.09
574.217	3.22
574.557	3.2
574.898	3.08
575.238	3.26
575.578	3.21
575.918	3.27
576.258	3.31
576.598	3.09
576.938	3.09
577.278	3.17
577.618	3.11
577.958	3.3
578.298	3.18
578.638	3.23
578.977	3.19
579.317	3.19
579.657	3.13
579.996	3.28
580.336	3.26
580.675	3.14
581.014	3.32
581.354	3.08
581.693	3.38
582.032	3.33
582.372	3.2
582.711	3.31
583.05	3.14
583.389	3.26
583.728	3.23
584.067	3.25
584.406	3.19
584.745	3.05
585.083	3.29
585.422	3.3
585.761	3.34
586.1	3.17
586.438	3.05
586.777	3.32
587.115	3.19
587.454	3.11
587.792	2.93
588.13	3.4
588.469	3.13
588.807	3.24
589.145	3.32
589.483	3.08
589.821	3.22
590.159	3.17
590.497	3.29
590.835	3.22
591.173	3.33
591.511	3.42
591.849	3.36
592.187	2.99
592.524	3.15
592.862	3.31
593.2	3.35
593.537	3.36
593.875	3.18
594.212	3.46
594.55	3.29
594.887	3.34
595.224	3.4
595.561	3.32
595.899	3.04
596.236	3.42
596.573	3.14
596.91	3.18
597.247	3.28
597.584	3.24
597.921	3.16
598.258	3.32
598.594	3.1
598.931	3.05
599.268	3.13
599.604	3.34
599.941	3.34
600.277	3.27
600.614	3.24
600.95	3.35
601.287	3.15
601.623	3.11
601.959	3.72
602.296	3.41
602.632	3.06
602.968	2.96
603.304	3.35
603.64	3.16
603.976	3.04
604.312	3.11
604.648	3.23
604.984	3.31
605.319	3.27
605.655	3.13
605.991	3.16
606.326	3.13
606.662	3.17
606.998	3.37
607.333	3.19
607.668	3.12
608.004	3.18
608.339	3.02
608.674	3.38
609.01	3.53
609.345	3.24
609.68	3.16
610.015	3.33
610.35	3.23
610.685	3.3
611.02	3.2
611.355	3.29
611.689	3.33
612.024	3.31
612.359	3.45
612.694	3.32
613.028	3.13
613.363	3.22
613.697	3.29
614.032	3.48
614.366	3.02
614.7	3.21
615.035	3.29
615.369	3.3
615.703	3.22
616.037	3.12
616.371	3.09
616.705	3.05
617.039	3.2
617.373	3.66
617.707	3.46
618.041	3.17
618.375	2.8
618.709	3.17
619.042	3.45
619.376	3.54
619.71	3.25
620.043	3.38
620.377	3.18
620.71	2.91
621.043	3.55
621.377	3.37
621.71	3.57
622.043	3.44
622.376	3.29
622.709	3.59
623.043	3.29
623.376	3.15
623.709	3.67
624.041	3.06
624.374	3.39
624.707	3.32
625.04	3.54
625.373	3.43
625.705	3.66
626.038	3.39
626.37	3.28
626.703	3.44
627.035	3.39
627.368	3.61
627.7	3.41
628.032	3.3
628.365	3.39
628.697	3.67
629.029	3.29
629.361	3.65
629.693	3.37
630.025	3.4
630.357	3.65
630.689	3.47
631.021	3.61
631.353	3.35
631.684	3.28
632.016	3.08
632.348	3.3
632.679	3.58
633.011	3.44
633.342	3.37
633.674	3.19
634.005	3.32
634.336	3.54
634.668	3.12
634.999	3.19
635.33	3.62
635.661	3.26
635.992	3.47
636.323	3.21
636.654	3.28
636.985	3.44
637.316	3.3
637.647	3.64
637.977	3.22
638.308	3.69
638.639	3.4
638.969	3.21
639.3	3.48
639.63	3.34
639.961	3.31
640.291	3.47
640.622	3.43
640.952	3.72
641.282	3.16
641.612	3.34
641.943	3.3
642.273	3.29
642.603	3.79
642.933	3.53
643.263	3.61
643.592	3.74
643.922	3.72
644.252	3.4
644.582	3.71
644.911	3.03
645.241	3.45
645.571	3.33
645.9	3.41
646.23	3.99
646.559	3.37
646.888	3.59
647.218	3.65
647.547	3.61
647.876	3.62
648.205	3.18
648.534	3.71
648.863	3.48
649.192	3.83
649.521	3.3
649.85	3.8
650.179	3.07
650.508	3.28
650.837	3.47
651.165	3.51
651.494	3.78
651.822	3.77
652.151	3.18
652.479	4
652.808	3.59
653.136	2.93
653.465	3.18
653.793	3.13
654.121	3.33
654.449	3.38
654.777	3.29
655.105	3.52
655.433	3.81
655.761	3.67
656.089	3.56
656.417	3.59
656.745	3.49
657.073	3.63
657.4	3.08
657.728	3.22
658.056	3.29
658.383	3.53
658.711	3.36
659.038	3.91
659.365	3.79
659.693	3.43
660.02	3.31
660.347	3.58
660.674	3.23
661.001	3.58
661.329	3.27
661.656	3.15
661.982	3.22
662.309	3.49
662.636	3.41
662.963	3.48
663.29	3.63
663.616	3.13
663.943	3.34
664.27	3.5
664.596	3.5
664.923	3.43
665.249	3.48
665.576	3.04
665.902	3.72
666.228	3.66
666.554	4.07
666.881	3.41
667.207	4.09
667.533	3.58
667.859	2.78
668.185	3.12
668.511	3.47
668.837	3.89
669.162	3.91
669.488	3.25
669.814	3.36
670.139	3.02
670.465	3.62
670.791	2.9
671.116	3.26
671.442	2.78
671.767	2.98
672.092	3.2
672.418	3.29
672.743	3.22
673.068	3.07
673.393	3.47
673.718	3.3
674.043	3.4
674.368	3.43
674.693	3.74
675.018	3.6
675.343	4.01
675.667	3.22
675.992	3.08
676.317	2.68
676.641	3.25
676.966	3.45
677.29	2.91
677.615	3.19
677.939	3.57
678.264	3.19
678.588	3.75
678.912	4.1
679.236	3.3
679.56	3.01
679.885	3.25
680.209	3.64
680.532	3.85
680.856	3.2
681.18	4.14
681.504	3.74
681.828	3.27
682.152	3.19
682.475	3.72
682.799	3.18
683.122	3.63
683.446	3.18
683.769	3.65
684.093	3.64
684.416	3.32
684.739	3.29
685.062	3.98
685.386	3.91
685.709	3.46
686.032	3.66
686.355	3.52
686.678	3.82
687.001	3.28
687.324	3.61
687.646	3.5
687.969	3.83
688.292	3.11
688.614	3.72
688.937	4.15
689.26	3.38
689.582	3.21
689.904	3.56
690.227	3.4
690.549	3.63
690.871	3.24
691.194	2.76
691.516	3.07
691.838	3.39
692.16	3.01
