Data from 22-2_chest_Reflection__1__227.txt Node

Date: Thu Dec 15 18:15:50 CST 2022
User: ToomeyLab
Spectrometer: FLMS14357
Trigger mode: 0
Integration Time (sec): 1.000000E-2
Scans to average: 100
Electric dark correction enabled: true
Nonlinearity correction enabled: false
Boxcar width: 0
XAxis mode: Wavelengths
Number of Pixels in Spectrum: 2048
>>>>>Begin Spectral Data<<<<<
189.047	1105.28
189.435	1105.28
189.823	1105.28
190.211	-283.66
190.599	-24.14
190.987	29.15
191.375	162.02
191.763	1839.27
192.151	-59.73
192.538	49.14
192.926	22.38
193.314	68.64
193.702	30.56
194.089	373.74
194.477	3033.33
194.864	30.85
195.252	69.25
195.639	173.29
196.027	105.71
196.414	-324.16
196.801	2732.73
197.189	280.14
197.576	-1418.01
197.963	198.3
198.351	-19.37
198.738	1.05
199.125	-189.11
199.512	23.91
199.899	-9.3
200.286	-52.77
200.673	34.14
201.06	3.24
201.447	1.67
201.833	2.66
202.22	-14.31
202.607	-156.81
202.994	-34.74
203.38	-17.11
203.767	-17.47
204.154	-1.87
204.54	-12.15
204.927	-2.88
205.313	28.67
205.699	-1.52
206.086	-8.37
206.472	6.55
206.858	-3.78
207.245	-27.42
207.631	-14.35
208.017	19.19
208.403	-1.08
208.789	15.31
209.175	-32.96
209.561	-168.25
209.947	0.2
210.333	-12.3
210.719	19.7
211.105	14.01
211.491	11.37
211.876	-19.55
212.262	10.16
212.648	-15.21
213.034	4.76
213.419	10.48
213.805	-109.59
214.19	-31.08
214.576	-41.2
214.961	-20.63
215.346	-18.99
215.732	-14.72
216.117	-10.74
216.502	-2.69
216.888	3.42
217.273	11.1
217.658	-20.38
218.043	-31.37
218.428	-31.16
218.813	-2.05
219.198	-39.75
219.583	-20.82
219.968	15.43
220.353	-40.66
220.738	3.94
221.122	-4.64
221.507	-26.45
221.892	-39.63
222.276	-16.84
222.661	-15.29
223.046	-7.49
223.43	9.51
223.815	-4.73
224.199	-6.09
224.583	-9.3
224.968	-12.2
225.352	-5.23
225.736	3.67
226.121	-2.85
226.505	-3.68
226.889	-5.36
227.273	-6.28
227.657	-0.89
228.041	3.32
228.425	-2.72
228.809	0.48
229.193	-0.07
229.577	0.54
229.961	1.66
230.344	1.95
230.728	2.58
231.112	2.02
231.495	0.62
231.879	1.47
232.263	0.39
232.646	0.9
233.03	2.9
233.413	3.04
233.797	-1.9
234.18	1.04
234.563	1.98
234.946	0.43
235.33	-0.26
235.713	1.57
236.096	1.4
236.479	2.55
236.862	0.46
237.245	0.83
237.628	1.67
238.011	1.8
238.394	1.31
238.777	2.74
239.16	3.31
239.543	1.82
239.925	1.87
240.308	-0.31
240.691	1.28
241.073	1.91
241.456	0.78
241.838	1.5
242.221	2.08
242.603	2.6
242.986	1.69
243.368	2
243.75	2.74
244.133	2.52
244.515	2.17
244.897	2.41
245.279	1.89
245.661	1.86
246.043	2.57
246.425	3.48
246.807	2.06
247.189	2.29
247.571	2.01
247.953	2.27
248.335	2.42
248.717	2.51
249.098	2.54
249.48	1.9
249.862	2.31
250.243	2.29
250.625	2.33
251.006	2.45
251.388	1.71
251.769	1.94
252.151	2.17
252.532	1.74
252.913	2.25
253.295	1.99
253.676	1.86
254.057	1.78
254.438	2.12
254.819	2.13
255.2	2.17
255.581	2.79
255.962	2.11
256.343	2.6
256.724	2.81
257.105	1.93
257.486	0.79
257.867	1.76
258.247	1.64
258.628	3.22
259.009	2.2
259.389	1.62
259.77	1.62
260.15	2.76
260.531	2.36
260.911	2.1
261.292	2.43
261.672	2.34
262.052	2.45
262.432	2.08
262.813	2.21
263.193	1.9
263.573	2.18
263.953	2.37
264.333	1.73
264.713	2.14
265.093	1.88
265.473	1.46
265.853	1.7
266.233	2.05
266.612	0.99
266.992	2.19
267.372	2.27
267.752	2.53
268.131	2
268.511	2
268.89	2.61
269.27	1.49
269.649	1.87
270.029	1.59
270.408	1.5
270.787	2.34
271.167	2.46
271.546	2.59
271.925	2.46
272.304	1.9
272.683	1.55
273.062	1.98
273.441	1.91
273.82	2.12
274.199	2.15
274.578	2.09
274.957	2.28
275.336	2.33
275.715	2.11
276.093	1.8
276.472	1.86
276.851	2.1
277.229	1.93
277.608	1.82
277.986	1.95
278.365	2.13
278.743	1.67
279.122	1.98
279.5	1.98
279.878	1.54
280.257	2.06
280.635	2.17
281.013	1.09
281.391	1.89
281.769	2.58
282.147	1.64
282.525	1.97
282.903	1.67
283.281	2.12
283.659	2.25
284.037	1.78
284.415	1.8
284.792	2.22
285.17	1.45
285.548	2.03
285.925	1.61
286.303	2.42
286.68	1.93
287.058	2.23
287.435	1.7
287.813	2.09
288.19	1.66
288.567	1.97
288.945	2.12
289.322	2.63
289.699	2.5
290.076	2.23
290.453	1.75
290.83	2.33
291.207	2.13
291.584	2.27
291.961	2.29
292.338	2.07
292.715	1.85
293.092	2.58
293.469	2.34
293.845	1.75
294.222	2.3
294.599	1.81
294.975	1.91
295.352	2.31
295.728	2.39
296.105	2.29
296.481	2.53
296.858	2.45
297.234	2.08
297.61	2.62
297.986	2.75
298.363	2.53
298.739	2.68
299.115	2.64
299.491	3.06
299.867	2.27
300.243	2.56
300.619	1.97
300.995	2.61
301.371	2.73
301.746	2.88
302.122	2.04
302.498	2.49
302.874	2.67
303.249	2.37
303.625	2.01
304	2.94
304.376	3.01
304.751	2.69
305.127	2.28
305.502	2.64
305.878	2.76
306.253	2.66
306.628	2.98
307.003	2.69
307.378	2.42
307.754	2.89
308.129	2.68
308.504	2.41
308.879	2.79
309.254	2.47
309.629	2.93
310.003	2.26
310.378	3.09
310.753	3.31
311.128	2.45
311.502	3.04
311.877	2.89
312.252	3.13
312.626	3.2
313.001	3.07
313.375	3.32
313.75	2.72
314.124	2.75
314.498	3.21
314.873	2.24
315.247	2.58
315.621	2.89
315.995	2.83
316.369	2.74
316.743	2.82
317.117	2.69
317.491	2.98
317.865	2.53
318.239	3.12
318.613	3.05
318.987	2.47
319.361	3.12
319.734	3.05
320.108	2.92
320.482	3.39
320.855	3.21
321.229	3.08
321.602	3.29
321.976	2.65
322.349	4.13
322.723	3.14
323.096	2.92
323.469	2.94
323.843	3.22
324.216	3.2
324.589	3.37
324.962	2.87
325.335	2.66
325.708	3.47
326.081	3.07
326.454	3.27
326.827	3.33
327.2	3.14
327.573	3.33
327.945	2.9
328.318	3.2
328.691	3
329.063	2.98
329.436	3.36
329.809	3.35
330.181	3.85
330.553	3.58
330.926	3.19
331.298	2.9
331.671	3.66
332.043	3.61
332.415	3.64
332.787	3.51
333.159	3.08
333.532	3.55
333.904	3.9
334.276	3.4
334.648	3.28
335.02	3.53
335.391	2.97
335.763	3.06
336.135	3.38
336.507	3.44
336.879	3.38
337.25	3.41
337.622	3.46
337.993	3.29
338.365	3.52
338.736	3.39
339.108	3.61
339.479	3.17
339.851	3.43
340.222	3.68
340.593	3.48
340.964	3.28
341.336	3.24
341.707	3.38
342.078	3.45
342.449	3.63
342.82	3.45
343.191	3.06
343.562	3.5
343.933	3.38
344.303	3.44
344.674	3.08
345.045	3.41
345.416	3.65
345.786	3.39
346.157	3.6
346.527	3.04
346.898	3.07
347.268	3.41
347.639	3.21
348.009	3.64
348.38	3.34
348.75	3.56
349.12	3.61
349.49	3.61
349.861	3.74
350.231	3.22
350.601	3.69
350.971	3.31
351.341	3.38
351.711	3.52
352.081	3.06
352.45	2.86
352.82	3.06
353.19	3.63
353.56	3.44
353.929	3.39
354.299	3.5
354.669	3.61
355.038	3.77
355.408	3.32
355.777	3.98
356.147	3.46
356.516	3.31
356.885	3.54
357.254	3.55
357.624	3.09
357.993	3.43
358.362	3.31
358.731	3.31
359.1	3.44
359.469	3.62
359.838	3.23
360.207	3.51
360.576	3.42
360.945	3.24
361.314	3.55
361.682	3.25
362.051	3.5
362.42	3.28
362.788	3.39
363.157	3.21
363.525	3.7
363.894	3.18
364.262	3.46
364.631	3.5
364.999	3.49
365.367	3.35
365.735	3.07
366.104	3.43
366.472	3.36
366.84	3.55
367.208	3.69
367.576	3.36
367.944	3.56
368.312	3.18
368.68	3.83
369.048	3.41
369.416	3.16
369.783	3.36
370.151	3.81
370.519	3.4
370.886	3.56
371.254	3.55
371.621	3.49
371.989	3.49
372.356	3.49
372.724	3.38
373.091	3.3
373.458	3.18
373.826	3.7
374.193	3.61
374.56	3.49
374.927	3.19
375.294	3.8
375.661	3.63
376.028	3.15
376.395	3.71
376.762	3.24
377.129	3.41
377.496	3.45
377.863	3.38
378.229	3.53
378.596	3.58
378.963	3.49
379.329	3.39
379.696	3.34
380.062	3.45
380.429	3.22
380.795	3.56
381.161	3.34
381.528	3.02
381.894	3.59
382.26	3.5
382.626	3.78
382.993	3.97
383.359	3.46
383.725	3.38
384.091	3.72
384.457	3.15
384.823	3.67
385.188	3.75
385.554	3.39
385.92	3.33
386.286	3.36
386.651	3.36
387.017	3.83
387.383	3.41
387.748	3.62
388.114	3.82
388.479	3.52
388.845	3.54
389.21	3.73
389.575	3.76
389.94	3.67
390.306	3.43
390.671	3.53
391.036	3.53
391.401	3.74
391.766	3.51
392.131	3.7
392.496	3.78
392.861	3.5
393.226	3.48
393.591	3.69
393.956	3.64
394.32	3.8
394.685	3.63
395.05	3.74
395.414	3.63
395.779	4.04
396.143	3.65
396.508	3.4
396.872	3.61
397.236	3.82
397.601	3.67
397.965	3.58
398.329	3.55
398.694	3.54
399.058	3.69
399.422	3.43
399.786	3.56
400.15	3.56
400.514	3.67
400.878	3.51
401.242	3.82
401.605	3.66
401.969	3.53
402.333	3.63
402.697	3.81
403.06	3.57
403.424	3.72
403.787	3.56
404.151	3.52
404.514	3.89
404.878	3.62
405.241	3.57
405.604	3.48
405.968	3.84
406.331	3.67
406.694	3.68
407.057	3.75
407.42	3.81
407.783	3.78
408.146	3.78
408.509	3.97
408.872	3.67
409.235	3.96
409.598	3.7
409.961	3.94
410.323	3.51
410.686	3.66
411.049	3.76
411.411	3.56
411.774	3.67
412.136	3.79
412.499	3.92
412.861	3.37
413.223	3.68
413.586	3.84
413.948	3.74
414.31	3.76
414.672	3.65
415.035	3.79
415.397	3.38
415.759	3.52
416.121	3.54
416.483	3.69
416.845	3.69
417.206	3.76
417.568	3.58
417.93	3.74
418.292	3.61
418.653	3.44
419.015	3.74
419.377	3.68
419.738	3.73
420.1	3.68
420.461	3.64
420.822	3.8
421.184	3.7
421.545	3.71
421.906	3.77
422.267	3.64
422.629	3.63
422.99	3.68
423.351	3.71
423.712	3.75
424.073	3.75
424.434	3.9
424.795	3.74
425.155	3.64
425.516	3.64
425.877	3.75
426.238	3.7
426.598	3.65
426.959	3.74
427.32	3.69
427.68	3.77
428.041	3.85
428.401	3.7
428.761	3.83
429.122	3.78
429.482	3.8
429.842	3.65
430.202	3.9
430.563	3.87
430.923	4.01
431.283	3.8
431.643	4.12
432.003	3.84
432.363	3.94
432.722	3.87
433.082	3.75
433.442	3.95
433.802	3.72
434.161	3.91
434.521	3.96
434.881	3.98
435.24	3.88
435.6	3.9
435.959	3.91
436.319	3.86
436.678	3.94
437.037	3.86
437.396	3.83
437.756	3.77
438.115	3.9
438.474	3.88
438.833	3.86
439.192	3.94
439.551	3.88
439.91	3.92
440.269	3.83
440.628	3.83
440.987	3.96
441.345	3.95
441.704	3.89
442.063	3.84
442.421	3.88
442.78	3.94
443.138	3.9
443.497	3.87
443.855	4.01
444.214	3.9
444.572	4.01
444.93	3.83
445.288	4
445.647	3.75
446.005	3.96
446.363	3.9
446.721	3.93
447.079	3.78
447.437	3.9
447.795	3.94
448.153	3.85
448.51	4.02
448.868	3.85
449.226	3.99
449.584	3.87
449.941	3.91
450.299	3.9
450.656	3.97
451.014	4.01
451.371	4.01
451.729	3.93
452.086	3.87
452.443	4.06
452.801	3.86
453.158	4.11
453.515	3.93
453.872	4.05
454.229	4.08
454.586	3.95
454.943	4.03
455.3	4.12
455.657	3.98
456.014	3.95
456.371	4.07
456.727	4.28
457.084	4.15
457.441	4.11
457.797	4.02
458.154	4.19
458.51	3.93
458.867	4.15
459.223	3.91
459.58	4.13
459.936	4.03
460.292	3.91
460.648	3.98
461.005	3.96
461.361	3.98
461.717	3.96
462.073	4.08
462.429	4.13
462.785	4.33
463.141	4.08
463.496	4.01
463.852	4.33
464.208	4.13
464.564	4.13
464.919	4.22
465.275	3.99
465.631	4.2
465.986	4.13
466.342	4.06
466.697	4.07
467.052	4.31
467.408	4.37
467.763	4.28
468.118	4.1
468.473	4.18
468.829	4.09
469.184	4.34
469.539	3.98
469.894	4.29
470.249	4.29
470.603	4.39
470.958	4.48
471.313	4.28
471.668	4.39
472.023	4.41
472.377	4.3
472.732	4.4
473.086	4.31
473.441	4.32
473.795	4.43
474.15	4.25
474.504	4.3
474.859	4.09
475.213	4.24
475.567	4.19
475.921	4.34
476.275	4.39
476.63	4.45
476.984	4.29
477.338	4.42
477.692	4.21
478.045	4.38
478.399	4.35
478.753	4.23
479.107	4.36
479.461	4.24
479.814	4.42
480.168	4.37
480.521	4.4
480.875	4.36
481.228	4.21
481.582	4.33
481.935	4.46
482.289	4.31
482.642	4.54
482.995	4.44
483.348	4.3
483.701	4.35
484.055	4.19
484.408	4.33
484.761	4.2
485.114	4.06
485.466	4.07
485.819	4.08
486.172	4.16
486.525	4.2
486.878	4.27
487.23	4.26
487.583	4.33
487.936	4.19
488.288	4.27
488.641	4.17
488.993	4.21
489.345	4.22
489.698	4.2
490.05	4.19
490.402	4.26
490.754	4.28
491.107	4.32
491.459	4.46
491.811	4.39
492.163	4.35
492.515	4.27
492.866	4.28
493.218	4.21
493.57	4.29
493.922	4.34
494.274	4.47
494.625	4.51
494.977	4.45
495.328	4.49
495.68	4.49
496.031	4.52
496.383	4.38
496.734	4.52
497.086	4.59
497.437	4.57
497.788	4.64
498.139	4.51
498.49	4.57
498.842	4.44
499.193	4.52
499.544	4.54
499.894	4.59
500.245	4.69
500.596	4.6
500.947	4.56
501.298	4.62
501.648	4.6
501.999	4.74
502.35	4.65
502.7	4.71
503.051	4.73
503.401	4.7
503.752	4.65
504.102	4.54
504.452	4.57
504.803	4.6
505.153	4.68
505.503	4.63
505.853	4.82
506.203	4.79
506.553	4.68
506.903	4.73
507.253	4.71
507.603	4.79
507.953	4.61
508.303	4.83
508.652	4.6
509.002	4.88
509.352	4.73
509.701	4.59
510.051	4.86
510.4	4.88
510.75	4.68
511.099	4.66
511.449	4.73
511.798	4.76
512.147	4.68
512.496	4.84
512.846	4.8
513.195	4.84
513.544	4.96
513.893	4.83
514.242	4.86
514.591	4.77
514.939	4.93
515.288	4.93
515.637	4.91
515.986	4.83
516.334	4.87
516.683	4.85
517.032	4.96
517.38	4.88
517.729	4.93
518.077	4.85
518.426	5.03
518.774	4.76
519.122	4.94
519.47	4.87
519.819	4.92
520.167	4.89
520.515	4.94
520.863	4.93
521.211	4.92
521.559	4.89
521.907	5.02
522.255	5.08
522.602	5
522.95	5.09
523.298	5.04
523.645	5.02
523.993	5.03
524.341	5.06
524.688	5.06
525.036	5.08
525.383	5.12
525.73	5.01
526.078	5.15
526.425	5.06
526.772	5.02
527.119	5.05
527.466	5.14
527.814	5.07
528.161	5.15
528.508	5.24
528.854	5.08
529.201	5.08
529.548	5.07
529.895	4.98
530.242	4.95
530.588	4.96
530.935	5.03
531.282	5.09
531.628	5.12
531.975	5.14
532.321	5.19
532.667	5.26
533.014	5.29
533.36	5.27
533.706	5.33
534.052	5.21
534.399	5.27
534.745	5.16
535.091	5.2
535.437	5.25
535.783	5.27
536.129	5.33
536.474	5.4
536.82	5.45
537.166	5.44
537.512	5.39
537.857	5.38
538.203	5.41
538.549	5.33
538.894	5.38
539.239	5.58
539.585	5.56
539.93	5.54
540.276	5.59
540.621	5.71
540.966	5.57
541.311	5.64
541.656	5.47
542.001	5.58
542.346	5.48
542.691	5.45
543.036	5.39
543.381	5.49
543.726	5.62
544.071	5.54
544.415	5.55
544.76	5.68
545.105	5.66
545.449	5.65
545.794	5.75
546.138	5.74
546.483	5.76
546.827	5.7
547.171	5.78
547.516	5.91
547.86	5.83
548.204	5.85
548.548	5.77
548.892	5.83
549.236	5.87
549.58	5.87
549.924	5.96
550.268	6.01
550.612	6.19
550.956	6.12
551.3	6.22
551.643	6.08
551.987	6.24
552.33	6.18
552.674	6.17
553.017	6.29
553.361	6.29
553.704	6.2
554.048	6.19
554.391	6.18
554.734	6.14
555.077	6.27
555.42	6.19
555.764	6.25
556.107	6.34
556.45	6.56
556.793	6.54
557.135	6.36
557.478	6.35
557.821	6.4
558.164	6.29
558.507	6.34
558.849	6.52
559.192	6.49
559.534	6.48
559.877	6.58
560.219	6.52
560.562	6.45
560.904	6.63
561.246	6.47
561.589	6.62
561.931	6.64
562.273	6.65
562.615	6.44
562.957	6.66
563.299	6.75
563.641	6.68
563.983	6.71
564.325	6.86
564.667	6.53
565.008	6.64
565.35	6.58
565.692	6.72
566.033	6.81
566.375	6.76
566.716	6.79
567.058	6.8
567.399	6.86
567.741	7.01
568.082	6.91
568.423	6.88
568.764	6.97
569.105	6.99
569.447	6.98
569.788	6.88
570.129	6.96
570.47	7.05
570.811	7.1
571.151	7.01
571.492	7.11
571.833	7.11
572.174	7.12
572.514	7.14
572.855	7.31
573.195	7.11
573.536	7.35
573.876	7.13
574.217	7.09
574.557	7.24
574.898	7.19
575.238	7.4
575.578	7.53
575.918	7.52
576.258	7.42
576.598	7.38
576.938	7.25
577.278	7.59
577.618	7.59
577.958	7.39
578.298	7.53
578.638	7.41
578.977	7.55
579.317	7.62
579.657	7.41
579.996	7.8
580.336	7.71
580.675	7.8
581.014	7.9
581.354	7.44
581.693	7.99
582.032	8.13
582.372	7.94
582.711	7.94
583.05	8.03
583.389	7.91
583.728	8.12
584.067	8.12
584.406	8.14
584.745	7.92
585.083	7.99
585.422	8.34
585.761	8.03
586.1	8.13
586.438	7.86
586.777	8.31
587.115	8.23
587.454	8.17
587.792	8.17
588.13	8.12
588.469	8.16
588.807	8.36
589.145	8.44
589.483	8.24
589.821	8.38
590.159	8.54
590.497	8.45
590.835	8.53
591.173	8.72
591.511	8.54
591.849	8.61
592.187	8.35
592.524	8.75
592.862	8.35
593.2	8.59
593.537	8.66
593.875	8.66
594.212	8.81
594.55	8.99
594.887	8.75
595.224	8.86
595.561	8.69
595.899	9.04
596.236	9.03
596.573	8.82
596.91	8.83
597.247	9.02
597.584	8.97
597.921	8.94
598.258	9
598.594	8.81
598.931	8.9
599.268	9.01
599.604	9.16
599.941	9.11
600.277	9.14
600.614	9.06
600.95	9.22
601.287	8.92
601.623	8.96
601.959	9.3
602.296	9.22
602.632	9.39
602.968	9.34
603.304	9.56
603.64	9.47
603.976	9.24
604.312	9.45
604.648	9.55
604.984	9.68
605.319	9.44
605.655	9.51
605.991	9.46
606.326	9.55
606.662	9.45
606.998	9.63
607.333	9.57
607.668	9.64
608.004	9.73
608.339	9.82
608.674	9.82
609.01	9.96
609.345	9.95
609.68	9.84
610.015	9.97
610.35	10.03
610.685	9.75
611.02	9.9
611.355	9.97
611.689	10.02
612.024	10.1
612.359	10.11
612.694	10.29
613.028	10.04
613.363	10.21
613.697	10.28
614.032	10.34
614.366	10.24
614.7	10.26
615.035	10.4
615.369	10.67
615.703	10.63
616.037	10.45
616.371	10.49
616.705	10.6
617.039	10.53
617.373	10.6
617.707	10.64
618.041	10.16
618.375	10.17
618.709	11
619.042	10.7
619.376	10.82
619.71	10.78
620.043	11.06
620.377	10.7
620.71	10.79
621.043	10.75
621.377	11.04
621.71	10.93
622.043	11.09
622.376	10.87
622.709	11.27
623.043	11.24
623.376	10.83
623.709	11.33
624.041	10.83
624.374	11.1
624.707	11.36
625.04	11.06
625.373	11.13
625.705	11.49
626.038	11.2
626.37	11.02
626.703	11.34
627.035	11.27
627.368	11.56
627.7	11.16
628.032	11.38
628.365	11.5
628.697	11.73
629.029	11.27
629.361	11.57
629.693	11.32
630.025	11.6
630.357	11.7
630.689	11.68
631.021	11.93
631.353	11.92
631.684	11.72
632.016	11.65
632.348	11.55
632.679	12.16
633.011	11.62
633.342	11.88
633.674	11.59
634.005	12.07
634.336	12.1
634.668	11.95
634.999	11.69
635.33	12.11
635.661	12.09
635.992	11.84
636.323	11.97
636.654	11.94
636.985	12.01
637.316	12.29
637.647	12.23
637.977	12.12
638.308	12.39
638.639	12.36
638.969	12.12
639.3	12.3
639.63	12.19
639.961	12.73
640.291	12.18
640.622	12.69
640.952	12.91
641.282	12.32
641.612	12.3
641.943	12.48
642.273	12.81
642.603	12.96
642.933	13.08
643.263	13.35
643.592	13.22
643.922	13.31
644.252	12.99
644.582	12.74
644.911	12.97
645.241	12.65
645.571	12.79
645.9	13.23
646.23	12.93
646.559	12.74
646.888	13.42
647.218	12.98
647.547	12.78
647.876	13.11
648.205	12.82
648.534	13.34
648.863	12.86
649.192	13.43
649.521	13.16
649.85	13.43
650.179	13.7
650.508	13.12
650.837	13.19
651.165	13.69
651.494	13.32
651.822	13.78
652.151	13.33
652.479	13.78
652.808	13.56
653.136	13.33
653.465	13.56
653.793	13.66
654.121	13.65
654.449	13.27
654.777	13.36
655.105	13.43
655.433	13.95
655.761	13.58
656.089	13.75
656.417	14.46
656.745	13.76
657.073	13.7
657.4	13.85
657.728	13.89
658.056	14.55
658.383	14.15
658.711	14.26
659.038	14.13
659.365	14.5
659.693	14.35
660.02	14.12
660.347	14.44
660.674	14.28
661.001	14.45
661.329	14.11
661.656	14.08
661.982	14.34
662.309	14.3
662.636	14.55
662.963	14.27
663.29	14.36
663.616	14.02
663.943	14.83
664.27	14.86
664.596	14.61
664.923	14.33
665.249	14.62
665.576	14.23
665.902	14.59
666.228	14.92
666.554	14.78
666.881	14.59
667.207	14.99
667.533	14.9
667.859	14.42
668.185	15.48
668.511	15.35
668.837	15.4
669.162	15.05
669.488	14.35
669.814	14.81
670.139	14.67
670.465	15.74
670.791	14.96
671.116	15.42
671.442	14.66
671.767	15.18
672.092	15.23
672.418	15
672.743	15.53
673.068	15.25
673.393	15.17
673.718	15.09
674.043	14.98
674.368	15.43
674.693	15.66
675.018	15.87
675.343	15.68
675.667	15.59
675.992	15.85
676.317	15.09
676.641	15.67
676.966	15.45
677.29	15.67
677.615	15.5
677.939	15.63
678.264	15.59
678.588	15.76
678.912	16.37
679.236	15.7
679.56	16.24
679.885	15.9
680.209	16.19
680.532	16.1
680.856	16.13
681.18	16.51
681.504	16.27
681.828	15.88
682.152	16.26
682.475	15.86
682.799	16.13
683.122	16.45
683.446	15.64
683.769	16.78
684.093	16.59
684.416	16.34
684.739	16.16
685.062	16.54
685.386	17.25
685.709	16.47
686.032	16.71
