Data from 22-2_forehead_Reflection__2__238.txt Node

Date: Thu Dec 15 18:19:09 CST 2022
User: ToomeyLab
Spectrometer: FLMS14357
Trigger mode: 0
Integration Time (sec): 1.000000E-2
Scans to average: 100
Electric dark correction enabled: true
Nonlinearity correction enabled: false
Boxcar width: 0
XAxis mode: Wavelengths
Number of Pixels in Spectrum: 2048
>>>>>Begin Spectral Data<<<<<
189.047	-337.74
189.435	-337.74
189.823	-337.74
190.211	246.56
190.599	121.7
190.987	53.03
191.375	-33.51
191.763	148.58
192.151	175.63
192.538	81.6
192.926	84.41
193.314	120.6
193.702	145.79
194.089	166.94
194.477	4909.2
194.864	203.22
195.252	43.34
195.639	83.95
196.027	-25.85
196.414	9.84
196.801	2820
197.189	122.44
197.576	478.95
197.963	132.19
198.351	32.95
198.738	27.1
199.125	-111.24
199.512	37.45
199.899	54.55
200.286	4.38
200.673	22.32
201.06	22.77
201.447	32.93
201.833	40.94
202.22	41.51
202.607	-28.84
202.994	42.03
203.38	48.38
203.767	62.83
204.154	37.04
204.54	25.47
204.927	16.88
205.313	42.13
205.699	46.69
206.086	56.43
206.472	30.19
206.858	20.83
207.245	16.68
207.631	39.49
208.017	52.43
208.403	36.4
208.789	23.88
209.175	14.67
209.561	-94.1
209.947	51.53
210.333	-15.52
210.719	59.62
211.105	52.64
211.491	32.72
211.876	9.71
212.262	31.29
212.648	28.48
213.034	8.37
213.419	60.01
213.805	-97.49
214.19	11.96
214.576	-3.37
214.961	20.64
215.346	16.54
215.732	45.41
216.117	18.53
216.502	13.4
216.888	12.43
217.273	27.37
217.658	-1.1
218.043	16.5
218.428	5.25
218.813	31.15
219.198	-0.34
219.583	-3.74
219.968	27.54
220.353	-7.38
220.738	26.39
221.122	-11.96
221.507	-11.06
221.892	9.58
222.276	-16.17
222.661	4.36
223.046	6.25
223.43	14.86
223.815	9.13
224.199	4.93
224.583	1.37
224.968	2.05
225.352	8.47
225.736	9.06
226.121	1.36
226.505	5.78
226.889	11.74
227.273	-0.22
227.657	8.05
228.041	1.47
228.425	4
228.809	1.73
229.193	3.75
229.577	2.3
229.961	2.51
230.344	2.61
230.728	2.89
231.112	3.62
231.495	2.33
231.879	2.22
232.263	3.39
232.646	2.91
233.03	4.91
233.413	4.5
233.797	1.71
234.18	3.88
234.563	3.91
234.946	2.03
235.33	2.23
235.713	3.23
236.096	4.13
236.479	6.02
236.862	2.4
237.245	2.6
237.628	3.95
238.011	4.33
238.394	3.11
238.777	3.41
239.16	4.88
239.543	5.64
239.925	3.78
240.308	3.72
240.691	3.26
241.073	4.19
241.456	3.62
241.838	3.19
242.221	3.27
242.603	2.55
242.986	2.9
243.368	3.07
243.75	2.98
244.133	3.35
244.515	3.43
244.897	2.58
245.279	2.5
245.661	3.4
246.043	3.31
246.425	3.84
246.807	3.33
247.189	3.53
247.571	3.12
247.953	2.9
248.335	3.19
248.717	3.19
249.098	3.09
249.48	2.79
249.862	3.33
250.243	3.41
250.625	3.32
251.006	3.64
251.388	3.69
251.769	2.97
252.151	3.2
252.532	3.33
252.913	3.53
253.295	3.02
253.676	3.16
254.057	3.19
254.438	3.04
254.819	3.26
255.2	4.12
255.581	4.32
255.962	4.53
256.343	4.98
256.724	4.4
257.105	3.38
257.486	2.72
257.867	2.83
258.247	4.04
258.628	3.78
259.009	3.59
259.389	3.57
259.77	3.06
260.15	3.6
260.531	3.24
260.911	3.02
261.292	3.2
261.672	3.11
262.052	3.25
262.432	2.69
262.813	3.41
263.193	4.12
263.573	3.47
263.953	2.94
264.333	2.94
264.713	3.85
265.093	3.28
265.473	2.17
265.853	3.89
266.233	3.58
266.612	3.34
266.992	3.48
267.372	3.24
267.752	3.4
268.131	3.29
268.511	3.2
268.89	3.53
269.27	3
269.649	2.89
270.029	2.76
270.408	3.16
270.787	3.6
271.167	3.81
271.546	3.7
271.925	3.35
272.304	2.9
272.683	2.98
273.062	3.03
273.441	2.72
273.82	3.12
274.199	2.9
274.578	3.16
274.957	3.04
275.336	3.41
275.715	3.36
276.093	2.58
276.472	2.27
276.851	3.43
277.229	3.32
277.608	2.8
277.986	3.35
278.365	3.74
278.743	3.06
279.122	3.4
279.5	3.07
279.878	2.41
280.257	3.06
280.635	3.43
281.013	2.49
281.391	2.94
281.769	4.03
282.147	3.17
282.525	2.7
282.903	2.38
283.281	3.18
283.659	2.76
284.037	2.96
284.415	2.71
284.792	2.46
285.17	2.98
285.548	2.55
285.925	2.56
286.303	3.38
286.68	3.25
287.058	3.13
287.435	3.12
287.813	2.93
288.19	3.04
288.567	2.9
288.945	3.08
289.322	3.25
289.699	3.55
290.076	3.43
290.453	3.27
290.83	3.44
291.207	3.06
291.584	3.1
291.961	3.03
292.338	3.22
292.715	3.37
293.092	3.51
293.469	3.47
293.845	3.58
294.222	4.23
294.599	3.36
294.975	2.68
295.352	3.9
295.728	3.49
296.105	3.83
296.481	3.63
296.858	3.65
297.234	3.75
297.61	3.37
297.986	4.17
298.363	4.14
298.739	4.04
299.115	3.92
299.491	4.11
299.867	3.98
300.243	3.8
300.619	3.86
300.995	4.15
301.371	4.5
301.746	4.17
302.122	4.03
302.498	4.14
302.874	4.21
303.249	4.13
303.625	4.24
304	4.3
304.376	4.85
304.751	4.65
305.127	4.24
305.502	5.33
305.878	4.67
306.253	4.47
306.628	4.95
307.003	4.92
307.378	4.59
307.754	4.77
308.129	5.04
308.504	4.99
308.879	4.96
309.254	5.31
309.629	5.42
310.003	5.36
310.378	5.18
310.753	5.52
311.128	5.34
311.502	5.56
311.877	5.46
312.252	5.61
312.626	5.9
313.001	5.66
313.375	5.72
313.75	5.86
314.124	5.91
314.498	5.93
314.873	5.68
315.247	6.21
315.621	5.94
315.995	6.19
316.369	5.88
316.743	5.65
317.117	6.13
317.491	5.97
317.865	5.66
318.239	6.76
318.613	6.45
318.987	6.14
319.361	6.38
319.734	6.97
320.108	7.15
320.482	6.86
320.855	6.99
321.229	6.99
321.602	6.88
321.976	6.96
322.349	7.83
322.723	7.54
323.096	7.16
323.469	6.98
323.843	7.17
324.216	7.37
324.589	7.73
324.962	7.34
325.335	7.61
325.708	7.09
326.081	7.52
326.454	7.95
326.827	7.94
327.2	7.45
327.573	8.24
327.945	8.08
328.318	7.56
328.691	8.21
329.063	7.94
329.436	8.23
329.809	8.51
330.181	9.21
330.553	8.9
330.926	8.54
331.298	8.25
331.671	8.55
332.043	8.47
332.415	8.76
332.787	9.09
333.159	8.32
333.532	9
333.904	9.29
334.276	9.42
334.648	9.04
335.02	8.75
335.391	8.74
335.763	9.23
336.135	9.74
336.507	9.21
336.879	9.44
337.25	9.47
337.622	9.51
337.993	9.97
338.365	9.76
338.736	9.42
339.108	9.96
339.479	9.46
339.851	9.83
340.222	10.29
340.593	9.89
340.964	10.04
341.336	9.37
341.707	9.84
342.078	9.52
342.449	9.84
342.82	10.17
343.191	10.07
343.562	10.36
343.933	10.17
344.303	10.44
344.674	10.08
345.045	10.25
345.416	10.82
345.786	10.28
346.157	10.43
346.527	10.38
346.898	10.4
347.268	10.41
347.639	10.56
348.009	10.86
348.38	10.51
348.75	10.6
349.12	10.88
349.49	11.23
349.861	10.94
350.231	10.61
350.601	11.08
350.971	11.01
351.341	11.22
351.711	11.01
352.081	10.72
352.45	10.65
352.82	10.62
353.19	11.16
353.56	11.02
353.929	10.94
354.299	11.63
354.669	11.43
355.038	11.52
355.408	11.45
355.777	11.59
356.147	11.5
356.516	11.47
356.885	11.19
357.254	11.24
357.624	11.43
357.993	11.83
358.362	11.6
358.731	12.02
359.1	11.79
359.469	12.03
359.838	11.78
360.207	11.62
360.576	11.9
360.945	12.02
361.314	11.71
361.682	11.57
362.051	11.68
362.42	11.83
362.788	11.96
363.157	11.86
363.525	12.01
363.894	11.79
364.262	12.15
364.631	12.39
364.999	12.09
365.367	12.09
365.735	11.98
366.104	12.2
366.472	12.41
366.84	12.17
367.208	12.66
367.576	12.58
367.944	12.52
368.312	12.52
368.68	13
369.048	12.62
369.416	12.58
369.783	12.71
370.151	12.74
370.519	13.17
370.886	12.9
371.254	13.16
371.621	12.94
371.989	12.84
372.356	13.37
372.724	12.95
373.091	12.8
373.458	13.04
373.826	13.16
374.193	13.22
374.56	13.13
374.927	13.13
375.294	13.5
375.661	13.47
376.028	13.43
376.395	13.47
376.762	13.24
377.129	13.6
377.496	13.72
377.863	13.65
378.229	13.71
378.596	13.78
378.963	13.78
379.329	13.8
379.696	13.81
380.062	13.81
380.429	13.81
380.795	14.07
381.161	13.49
381.528	13.75
381.894	13.88
382.26	14.43
382.626	14.06
382.993	14.48
383.359	14.39
383.725	14.32
384.091	14.26
384.457	14.27
384.823	14.42
385.188	14.38
385.554	14.41
385.92	14.34
386.286	14.47
386.651	14.23
387.017	14.78
387.383	14.36
387.748	14.68
388.114	14.85
388.479	14.42
388.845	14.54
389.21	14.84
389.575	14.78
389.94	14.95
390.306	14.85
390.671	14.82
391.036	15.04
391.401	15.06
391.766	14.92
392.131	15.37
392.496	15.06
392.861	15.21
393.226	14.96
393.591	14.93
393.956	15.28
394.32	15.24
394.685	15.21
395.05	15.13
395.414	15.42
395.779	15.43
396.143	15.32
396.508	15.3
396.872	15.47
397.236	15.59
397.601	15.61
397.965	15.58
398.329	15.61
398.694	15.48
399.058	15.55
399.422	15.69
399.786	15.68
400.15	15.68
400.514	15.96
400.878	15.83
401.242	15.69
401.605	15.98
401.969	15.88
402.333	15.79
402.697	16.07
403.06	16.25
403.424	16.23
403.787	16.28
404.151	16.15
404.514	16.22
404.878	15.98
405.241	16.28
405.604	16.14
405.968	16.12
406.331	16.32
406.694	16.41
407.057	16.28
407.42	16.38
407.783	16.42
408.146	16.3
408.509	16.58
408.872	16.26
409.235	16.63
409.598	16.86
409.961	16.85
410.323	16.71
410.686	17.05
411.049	16.64
411.411	16.85
411.774	16.7
412.136	17.08
412.499	16.78
412.861	16.59
413.223	17.1
413.586	17.07
413.948	17.38
414.31	17.31
414.672	17.2
415.035	17.42
415.397	17.17
415.759	16.97
416.121	17.58
416.483	17.26
416.845	17.35
417.206	17.13
417.568	17.28
417.93	17.42
418.292	17.24
418.653	17.38
419.015	17.34
419.377	17.33
419.738	17.31
420.1	17.3
420.461	17.27
420.822	17.47
421.184	17.37
421.545	17.46
421.906	17.55
422.267	17.38
422.629	17.44
422.99	17.54
423.351	17.56
423.712	17.71
424.073	17.77
424.434	17.89
424.795	17.82
425.155	17.75
425.516	17.79
425.877	17.79
426.238	17.93
426.598	18.07
426.959	17.99
427.32	18.07
427.68	18.34
428.041	18.47
428.401	18.37
428.761	18.66
429.122	18.76
429.482	18.55
429.842	18.66
430.202	18.86
430.563	18.8
430.923	18.87
431.283	19
431.643	18.91
432.003	19.15
432.363	19.21
432.722	19.2
433.082	19.29
433.442	19.31
433.802	19.26
434.161	19.26
434.521	19.26
434.881	19.32
435.24	19.28
435.6	19.5
435.959	19.34
436.319	19.47
436.678	19.66
437.037	19.59
437.396	19.6
437.756	19.74
438.115	19.84
438.474	19.77
438.833	19.9
439.192	19.88
439.551	19.83
439.91	19.91
440.269	19.81
440.628	19.98
440.987	19.92
441.345	19.96
441.704	20.03
442.063	19.92
442.421	20.08
442.78	20.19
443.138	20.12
443.497	20.2
443.855	20.29
444.214	20.43
444.572	20.47
444.93	20.36
445.288	20.57
445.647	20.51
446.005	20.49
446.363	20.47
446.721	20.48
447.079	20.5
447.437	20.42
447.795	20.4
448.153	20.46
448.51	20.52
448.868	20.51
449.226	20.74
449.584	20.74
449.941	20.82
450.299	20.95
450.656	20.9
451.014	21.13
451.371	21.26
451.729	21.22
452.086	21.37
452.443	21.24
452.801	21.51
453.158	21.65
453.515	21.54
453.872	21.67
454.229	21.29
454.586	21.45
454.943	21.64
455.3	21.83
455.657	21.74
456.014	21.83
456.371	21.9
456.727	21.84
457.084	22.15
457.441	22.05
457.797	22.17
458.154	22.14
458.51	21.88
458.867	22.32
459.223	21.92
459.58	22.25
459.936	22.11
460.292	22.2
460.648	22.04
461.005	21.9
461.361	21.75
461.717	21.91
462.073	22.13
462.429	22.21
462.785	22.3
463.141	22.42
463.496	22.76
463.852	22.92
464.208	22.87
464.564	22.98
464.919	22.87
465.275	23.06
465.631	23.22
465.986	23.04
466.342	23.05
466.697	23
467.052	23.3
467.408	23.24
467.763	23.48
468.118	23.24
468.473	23.35
468.829	23.14
469.184	23.33
469.539	23.3
469.894	23.64
470.249	23.52
470.603	23.6
470.958	23.51
471.313	23.69
471.668	23.72
472.023	23.73
472.377	23.77
472.732	23.99
473.086	23.77
473.441	23.92
473.795	24.02
474.15	23.86
474.504	23.9
474.859	23.92
475.213	24.11
475.567	23.93
475.921	24.19
476.275	24.29
476.63	24.47
476.984	24.3
477.338	24.45
477.692	24.27
478.045	24.16
478.399	24.36
478.753	24.37
479.107	24.42
479.461	24.28
479.814	24.36
480.168	24.35
480.521	24.49
480.875	24.49
481.228	24.63
481.582	24.69
481.935	24.77
482.289	24.65
482.642	24.7
482.995	24.72
483.348	24.42
483.701	24.57
484.055	24.45
484.408	24.36
484.761	23.99
485.114	23.82
485.466	23.84
485.819	23.91
486.172	24.08
486.525	24.28
486.878	24.4
487.23	24.55
487.583	24.65
487.936	24.63
488.288	24.5
488.641	24.42
488.993	24.37
489.345	24.56
489.698	24.48
490.05	24.55
490.402	24.67
490.754	24.9
491.107	25.09
491.459	25.33
491.811	25.37
492.163	25.26
492.515	25.17
492.866	24.89
493.218	24.85
493.57	25.04
493.922	25.2
494.274	25.43
494.625	25.71
494.977	25.77
495.328	25.88
495.68	26.13
496.031	26.17
496.383	26.24
496.734	26.29
497.086	26.38
497.437	26.58
497.788	26.48
498.139	26.27
498.49	26.23
498.842	26.4
499.193	26.31
499.544	26.59
499.894	26.55
500.245	26.56
500.596	26.71
500.947	26.61
501.298	26.84
501.648	26.92
501.999	26.94
502.35	26.91
502.7	27.07
503.051	27
503.401	26.98
503.752	27.21
504.102	27.14
504.452	27.21
504.803	27.25
505.153	27.5
505.503	27.27
505.853	27.46
506.203	27.43
506.553	27.52
506.903	27.39
507.253	27.5
507.603	27.81
507.953	27.69
508.303	27.79
508.652	27.66
509.002	27.74
509.352	27.61
509.701	27.72
510.051	27.76
510.4	27.73
510.75	27.62
511.099	27.59
511.449	27.7
511.798	27.88
512.147	27.88
512.496	28.05
512.846	28.02
513.195	27.96
513.544	28.18
513.893	27.96
514.242	28.3
514.591	28.21
514.939	28.42
515.288	28.38
515.637	28.58
515.986	28.48
516.334	28.55
516.683	28.68
517.032	28.62
517.38	28.55
517.729	28.64
518.077	28.71
518.426	28.92
518.774	28.6
519.122	28.65
519.47	28.56
519.819	28.54
520.167	28.35
520.515	28.57
520.863	28.58
521.211	28.69
521.559	28.79
521.907	28.94
522.255	29.08
522.602	29.08
522.95	29.27
523.298	29.38
523.645	29.3
523.993	29.4
524.341	29.5
524.688	29.48
525.036	29.52
525.383	29.56
525.73	29.54
526.078	29.62
526.425	29.41
526.772	29.4
527.119	29.46
527.466	29.3
527.814	29.39
528.161	29.36
528.508	29.49
528.854	29.4
529.201	29.24
529.548	29.23
529.895	28.85
530.242	29.01
530.588	29.08
530.935	29.2
531.282	29.3
531.628	29.38
531.975	29.59
532.321	29.73
532.667	30
533.014	29.97
533.36	30.09
533.706	30
534.052	29.94
534.399	29.75
534.745	29.72
535.091	29.79
535.437	29.87
535.783	30.13
536.129	30.14
536.474	30.46
536.82	30.62
537.166	30.48
537.512	30.52
537.857	30.48
538.203	30.48
538.549	30.57
538.894	30.59
539.239	30.84
539.585	30.96
539.93	31.08
540.276	31.29
540.621	31.32
540.966	31.36
541.311	31.33
541.656	31.21
542.001	31.04
542.346	30.82
542.691	30.63
543.036	30.48
543.381	30.76
543.726	30.93
544.071	30.97
544.415	31.12
544.76	31.09
545.105	31.2
545.449	31.41
545.794	31.53
546.138	31.61
546.483	31.87
546.827	31.7
547.171	31.82
547.516	31.83
547.86	31.83
548.204	31.97
548.548	31.98
548.892	31.96
549.236	32.05
549.58	32.51
549.924	32.43
550.268	32.53
550.612	32.59
550.956	32.77
551.3	33.12
551.643	32.65
551.987	32.94
552.33	33.1
552.674	32.89
553.017	33.02
553.361	33.06
553.704	32.98
554.048	32.95
554.391	32.93
554.734	32.98
555.077	33.18
555.42	33.06
555.764	33.32
556.107	33.08
556.45	33.54
556.793	33.66
557.135	33.66
557.478	33.54
557.821	33.72
558.164	33.56
558.507	33.61
558.849	33.76
559.192	33.63
559.534	33.82
559.877	33.75
560.219	34.09
560.562	33.95
560.904	34.14
561.246	33.94
561.589	34.03
561.931	34.01
562.273	34.17
562.615	34.2
562.957	34.17
563.299	34.31
563.641	34.37
563.983	34.22
564.325	34.39
564.667	34.43
565.008	34.5
565.35	34.34
565.692	34.36
566.033	34.65
566.375	34.66
566.716	34.55
567.058	34.66
567.399	34.65
567.741	34.49
568.082	34.51
568.423	34.35
568.764	34.58
569.105	34.65
569.447	34.88
569.788	34.74
570.129	34.98
570.47	34.76
570.811	34.88
571.151	35.13
571.492	35.13
571.833	35.02
572.174	35.2
572.514	35.15
572.855	35.32
573.195	35.17
573.536	34.98
573.876	35.2
574.217	35.24
574.557	35.36
574.898	35.48
575.238	35.53
575.578	35.5
575.918	35.5
576.258	35.66
576.598	35.42
576.938	35.6
577.278	35.77
577.618	35.61
577.958	35.84
578.298	36.12
578.638	35.98
578.977	35.85
579.317	36.02
579.657	36.08
579.996	36.36
580.336	36.31
580.675	36.3
581.014	36.46
581.354	36.31
581.693	36.59
582.032	36.95
582.372	36.7
582.711	36.72
583.05	36.61
583.389	36.89
583.728	36.97
584.067	36.83
584.406	36.92
584.745	37.1
585.083	37.05
585.422	36.96
585.761	36.74
586.1	36.89
586.438	36.93
586.777	36.86
587.115	37.16
587.454	37.18
587.792	37.28
588.13	37.64
588.469	37.64
588.807	37.58
589.145	37.15
589.483	37.26
589.821	37.4
590.159	37.35
590.497	37.45
590.835	37.63
591.173	37.72
591.511	37.76
591.849	37.53
592.187	37.53
592.524	37.52
592.862	37.61
593.2	37.54
593.537	37.89
593.875	37.93
594.212	37.59
594.55	37.96
594.887	38.23
595.224	38.19
595.561	38.01
595.899	38.18
596.236	38
596.573	37.76
596.91	38.15
597.247	38
597.584	37.9
597.921	37.98
598.258	38.11
598.594	37.99
598.931	37.83
599.268	37.98
599.604	37.92
599.941	38.28
600.277	38.33
600.614	38.52
600.95	38.72
601.287	38.35
601.623	38.38
601.959	39.05
602.296	38.62
602.632	38.89
602.968	38.81
603.304	38.87
603.64	39.11
603.976	38.94
604.312	38.68
604.648	38.96
604.984	38.54
605.319	38.83
605.655	38.73
605.991	38.68
606.326	38.85
606.662	38.55
606.998	39.02
607.333	39.02
607.668	39.2
608.004	39.25
608.339	39.14
608.674	39.58
609.01	39.56
609.345	39.53
609.68	39.8
610.015	39.66
610.35	39.47
610.685	39.46
611.02	39.41
611.355	39.51
611.689	39.39
612.024	39.71
612.359	39.63
612.694	39.93
613.028	39.7
613.363	40.05
613.697	40.28
614.032	40.04
614.366	40.28
614.7	40.36
615.035	39.67
615.369	40.5
615.703	40.57
616.037	40.33
616.371	40.29
616.705	40.6
617.039	40.31
617.373	40.54
617.707	40.81
618.041	40.48
618.375	40.03
618.709	40.59
619.042	40.39
619.376	40.48
619.71	40.58
620.043	40.94
620.377	41.13
620.71	41.02
621.043	40.67
621.377	41.17
621.71	40.96
622.043	40.71
622.376	41.27
622.709	40.9
623.043	41.14
623.376	40.89
623.709	41.22
624.041	40.82
624.374	41.37
624.707	41.46
625.04	41.51
625.373	41.33
625.705	41.37
626.038	41.3
626.37	41.12
626.703	41.52
627.035	41.67
627.368	41.48
627.7	41.52
628.032	41.78
628.365	41.68
628.697	41.54
629.029	41.2
629.361	41.54
629.693	41.86
630.025	41.92
630.357	41.7
630.689	41.89
631.021	41.95
631.353	41.94
631.684	41.97
632.016	41.84
632.348	42.01
632.679	42.03
633.011	42.2
633.342	42.51
633.674	42.07
634.005	42.07
634.336	42.08
634.668	42.07
634.999	42.01
635.33	42.39
635.661	42.37
635.992	41.97
636.323	42.11
636.654	42.54
636.985	42.26
637.316	42.51
637.647	42.64
637.977	42.76
638.308	42.6
638.639	42.77
638.969	42.39
639.3	42.6
639.63	42.62
639.961	42.53
640.291	42.62
640.622	42.98
640.952	43.12
641.282	42.95
641.612	42.87
641.943	42.47
642.273	43.5
642.603	43.44
642.933	43.4
643.263	43.17
643.592	43.66
643.922	43.71
644.252	43
644.582	43.29
644.911	42.93
645.241	42.87
645.571	43.03
645.9	43.63
646.23	43.69
646.559	43.04
646.888	43.43
647.218	43.63
647.547	43.49
647.876	43.4
648.205	43.17
648.534	43.61
648.863	43.87
649.192	43.67
649.521	43.14
649.85	44.48
650.179	43.49
650.508	43.27
650.837	43.37
651.165	44.63
651.494	43.56
651.822	43.84
652.151	43.93
652.479	43.82
652.808	44.06
653.136	43.95
653.465	43.86
653.793	44.17
654.121	43.9
654.449	44.36
654.777	43.71
655.105	43.73
655.433	43.86
655.761	44.58
656.089	43.95
656.417	44.12
656.745	44.59
657.073	44.67
657.4	44.32
657.728	43.97
658.056	45.12
658.383	44.91
658.711	44.78
659.038	44.44
659.365	44.65
659.693	44.54
660.02	44.58
660.347	44.77
660.674	44.38
661.001	44.61
661.329	44.5
661.656	44.22
661.982	44.56
662.309	44.6
662.636	44.77
662.963	44.77
663.29	44.92
663.616	44.75
663.943	44.83
664.27	45.06
664.596	45.28
664.923	45.14
665.249	45.4
665.576	44.52
665.902	45
666.228	44.74
666.554	45.71
666.881	45.03
667.207	45.47
667.533	45.08
667.859	45.14
668.185	45.16
668.511	45.72
668.837	45.27
669.162	45.91
669.488	45.2
669.814	45.56
670.139	45.05
670.465	45.34
670.791	45.54
