Data from 22-2_crown_Reflection__3__234.txt Node

Date: Thu Dec 15 18:18:02 CST 2022
User: ToomeyLab
Spectrometer: FLMS14357
Trigger mode: 0
Integration Time (sec): 1.000000E-2
Scans to average: 100
Electric dark correction enabled: true
Nonlinearity correction enabled: false
Boxcar width: 0
XAxis mode: Wavelengths
Number of Pixels in Spectrum: 2048
>>>>>Begin Spectral Data<<<<<
189.047	784.53
189.435	784.53
189.823	784.53
190.211	246.32
190.599	116.63
190.987	53.1
191.375	-201.97
191.763	1509.72
192.151	9.54
192.538	90.3
192.926	56.66
193.314	87.61
193.702	107.47
194.089	-184.18
194.477	2318.39
194.864	141.52
195.252	112.52
195.639	54.12
196.027	86.91
196.414	-43.32
196.801	3870.91
197.189	589.61
197.576	1116.62
197.963	41.79
198.351	-49.65
198.738	13.22
199.125	-15.24
199.512	16.79
199.899	6.86
200.286	-58.58
200.673	29.69
201.06	-58.12
201.447	5.22
201.833	-14.02
202.22	16.52
202.607	-89.39
202.994	-48.85
203.38	14.56
203.767	-10
204.154	24.8
204.54	20.29
204.927	42.28
205.313	26.82
205.699	54.45
206.086	29.04
206.472	23.32
206.858	-27.01
207.245	-22
207.631	-31.59
208.017	41.52
208.403	-35.58
208.789	12.69
209.175	-24.86
209.561	-119.81
209.947	-5.94
210.333	5.04
210.719	-11.31
211.105	38.45
211.491	6.59
211.876	-33.8
212.262	11.71
212.648	-12.07
213.034	-31.55
213.419	30.98
213.805	-45.2
214.19	-20
214.576	-23.12
214.961	-6.01
215.346	-34.8
215.732	12.29
216.117	-7.32
216.502	-8.97
216.888	-3.51
217.273	13.59
217.658	-8.62
218.043	-12.98
218.428	-3.67
218.813	-7.52
219.198	-24.82
219.583	-0.7
219.968	3.31
220.353	-24.92
220.738	13.06
221.122	-17.12
221.507	1.02
221.892	-18
222.276	-17.89
222.661	-5.97
223.046	-4.37
223.43	15.84
223.815	3.45
224.199	-2.03
224.583	2.48
224.968	-0.25
225.352	-5.99
225.736	10.1
226.121	1.83
226.505	-5.83
226.889	4.82
227.273	-8
227.657	6.74
228.041	8.68
228.425	2.89
228.809	2.44
229.193	5.1
229.577	5.75
229.961	5.4
230.344	5.78
230.728	6.42
231.112	5.93
231.495	5.72
231.879	4.51
232.263	5.48
232.646	5.14
233.03	6.66
233.413	5.81
233.797	4.64
234.18	4.68
234.563	5.4
234.946	3.54
235.33	4.19
235.713	5.5
236.096	5.99
236.479	6.49
236.862	6.07
237.245	3.95
237.628	5.29
238.011	4.55
238.394	4.57
238.777	5.78
239.16	4.91
239.543	5.53
239.925	4.56
240.308	4.04
240.691	3.17
241.073	4.9
241.456	5.7
241.838	5.82
242.221	4.84
242.603	6.13
242.986	5.08
243.368	6
243.75	5.8
244.133	5.71
244.515	5.63
244.897	5.16
245.279	4.72
245.661	5.23
246.043	4.91
246.425	5.86
246.807	5.38
247.189	5.04
247.571	5.58
247.953	5.49
248.335	5.47
248.717	5.61
249.098	5.58
249.48	5.39
249.862	5.39
250.243	5.77
250.625	5.83
251.006	6.33
251.388	5.13
251.769	4.52
252.151	5.53
252.532	5.1
252.913	5.78
253.295	5.25
253.676	5.64
254.057	5.09
254.438	5.34
254.819	5.28
255.2	5.7
255.581	5.72
255.962	6.67
256.343	5.53
256.724	5.81
257.105	5
257.486	4.81
257.867	5.53
258.247	5.52
258.628	5.48
259.009	5.54
259.389	4.46
259.77	4.88
260.15	5.5
260.531	5.36
260.911	5.23
261.292	5.38
261.672	5.1
262.052	5.16
262.432	5.09
262.813	5.11
263.193	5.62
263.573	5.32
263.953	4.87
264.333	4.96
264.713	5.41
265.093	4.99
265.473	4.16
265.853	4.7
266.233	5.57
266.612	4.83
266.992	4.51
267.372	4.97
267.752	5.52
268.131	5.37
268.511	5.1
268.89	5.52
269.27	4.32
269.649	4.92
270.029	4.82
270.408	4.65
270.787	4.92
271.167	5.23
271.546	5.35
271.925	5.35
272.304	4.78
272.683	4.6
273.062	5.11
273.441	4.85
273.82	4.98
274.199	4.67
274.578	5.29
274.957	5.09
275.336	5.16
275.715	5.15
276.093	4.3
276.472	4.2
276.851	5.06
277.229	5.1
277.608	4.67
277.986	4.4
278.365	5.3
278.743	4.66
279.122	4.86
279.5	4.94
279.878	4.92
280.257	4.78
280.635	5.05
281.013	4.25
281.391	4.6
281.769	4.8
282.147	4.59
282.525	4.65
282.903	4.26
283.281	4.82
283.659	4.81
284.037	4.28
284.415	4.8
284.792	4.61
285.17	4.34
285.548	4.46
285.925	4.64
286.303	4.84
286.68	4.71
287.058	4.5
287.435	4.58
287.813	4.75
288.19	4.51
288.567	4.59
288.945	4.35
289.322	4.82
289.699	5.01
290.076	4.68
290.453	4.37
290.83	4.98
291.207	4.46
291.584	4.85
291.961	4.66
292.338	4.61
292.715	4.56
293.092	5.03
293.469	4.43
293.845	4.88
294.222	4.98
294.599	4.42
294.975	3.62
295.352	4.91
295.728	4.35
296.105	4.51
296.481	4.59
296.858	4.75
297.234	4.26
297.61	4.84
297.986	4.8
298.363	4.74
298.739	4.91
299.115	4.78
299.491	4.92
299.867	4.68
300.243	4.54
300.619	4.42
300.995	5.14
301.371	4.9
301.746	4.68
302.122	4.33
302.498	4.9
302.874	4.78
303.249	4.47
303.625	4.1
304	4.56
304.376	5.02
304.751	4.37
305.127	4.34
305.502	4.9
305.878	4.72
306.253	4.43
306.628	4.93
307.003	4.39
307.378	4.88
307.754	4.41
308.129	4.23
308.504	4.71
308.879	4.81
309.254	4.81
309.629	4.92
310.003	4.89
310.378	4.54
310.753	4.67
311.128	4.33
311.502	4.76
311.877	4.59
312.252	4.56
312.626	5.14
313.001	4.3
313.375	4.75
313.75	4.77
314.124	4.84
314.498	5.17
314.873	4.18
315.247	4.54
315.621	4.71
315.995	4.64
316.369	4.47
316.743	4.7
317.117	4.45
317.491	4.86
317.865	4.29
318.239	5.2
318.613	4.96
318.987	4.09
319.361	4.54
319.734	4.83
320.108	4.36
320.482	4.69
320.855	4.66
321.229	4.64
321.602	4.83
321.976	4.27
322.349	5.15
322.723	4.47
323.096	4.33
323.469	4.34
323.843	3.59
324.216	5.14
324.589	4.55
324.962	4.43
325.335	4.53
325.708	4.37
326.081	4.4
326.454	4.92
326.827	4.68
327.2	4.37
327.573	4.93
327.945	4.49
328.318	4.41
328.691	4.59
329.063	3.98
329.436	4.26
329.809	4.54
330.181	4.89
330.553	4.9
330.926	4.53
331.298	4.93
331.671	4.86
332.043	4.53
332.415	4.75
332.787	4.92
333.159	3.89
333.532	4.59
333.904	5.4
334.276	4.97
334.648	4.88
335.02	4.72
335.391	4.85
335.763	4.82
336.135	4.78
336.507	4.05
336.879	4.62
337.25	4.47
337.622	4.69
337.993	4.41
338.365	4.76
338.736	4.53
339.108	4.77
339.479	4.51
339.851	4.93
340.222	5.31
340.593	4.89
340.964	4.57
341.336	4.59
341.707	4.78
342.078	4.36
342.449	4.72
342.82	4.65
343.191	4.35
343.562	4.75
343.933	4.43
344.303	4.75
344.674	4.67
345.045	4.57
345.416	4.9
345.786	4.79
346.157	4.66
346.527	4.53
346.898	4.33
347.268	4.97
347.639	4.47
348.009	4.96
348.38	4.37
348.75	4.97
349.12	4.96
349.49	4.49
349.861	4.98
350.231	4.64
350.601	4.58
350.971	4.7
351.341	4.52
351.711	4.73
352.081	4.32
352.45	4.29
352.82	4.41
353.19	4.31
353.56	4.79
353.929	4.66
354.299	4.99
354.669	5.18
355.038	4.9
355.408	4.67
355.777	4.98
356.147	5
356.516	4.5
356.885	4.91
357.254	4.52
357.624	4.28
357.993	4.68
358.362	4.84
358.731	5.19
359.1	4.89
359.469	4.9
359.838	4.88
360.207	4.82
360.576	4.95
360.945	5.02
361.314	4.64
361.682	4.78
362.051	5.06
362.42	5.2
362.788	4.78
363.157	4.58
363.525	4.88
363.894	4.58
364.262	4.91
364.631	5.15
364.999	5.02
365.367	4.67
365.735	4.91
366.104	4.45
366.472	4.87
366.84	4.75
367.208	5.16
367.576	4.99
367.944	4.76
368.312	4.53
368.68	4.98
369.048	4.74
369.416	4.78
369.783	4.62
370.151	5.13
370.519	5.4
370.886	5
371.254	5.37
371.621	5.16
371.989	5.01
372.356	4.8
372.724	4.83
373.091	5.06
373.458	4.66
373.826	4.94
374.193	5.05
374.56	5.18
374.927	4.84
375.294	5.1
375.661	5.08
376.028	5
376.395	5.27
376.762	4.87
377.129	4.93
377.496	4.95
377.863	5.18
378.229	5.08
378.596	5.07
378.963	5.05
379.329	5.04
379.696	4.89
380.062	5.1
380.429	4.67
380.795	5.06
381.161	4.99
381.528	4.56
381.894	4.89
382.26	5.04
382.626	5.07
382.993	5.35
383.359	4.97
383.725	4.86
384.091	5.02
384.457	5.01
384.823	4.96
385.188	5.01
385.554	5.17
385.92	4.84
386.286	5.01
386.651	4.9
387.017	5.05
387.383	5.14
387.748	5.01
388.114	5.12
388.479	5
388.845	4.89
389.21	5.36
389.575	5.22
389.94	5.35
390.306	4.95
390.671	5.06
391.036	5.01
391.401	5.12
391.766	4.81
392.131	5.1
392.496	5.25
392.861	5.22
393.226	5.1
393.591	5.25
393.956	5.2
394.32	5.06
394.685	5.25
395.05	5.07
395.414	5.08
395.779	5.2
396.143	5.06
396.508	5.08
396.872	5.14
397.236	5.33
397.601	5.1
397.965	4.89
398.329	5.12
398.694	5.21
399.058	5.2
399.422	5.07
399.786	4.97
400.15	5.07
400.514	5.15
400.878	5.01
401.242	4.99
401.605	5.3
401.969	5.35
402.333	5.19
402.697	5.56
403.06	5.3
403.424	5.43
403.787	5.36
404.151	5.33
404.514	5.18
404.878	5.15
405.241	5.28
405.604	5.28
405.968	5.23
406.331	5.46
406.694	5.3
407.057	5.04
407.42	5.14
407.783	5.43
408.146	5.1
408.509	5.3
408.872	5.31
409.235	5.37
409.598	5.25
409.961	5.34
410.323	5.2
410.686	5.19
411.049	5.2
411.411	5.11
411.774	5.23
412.136	5.07
412.499	5.45
412.861	4.92
413.223	4.98
413.586	5.25
413.948	5.42
414.31	5.32
414.672	5.23
415.035	5.44
415.397	5.18
415.759	5.15
416.121	5.39
416.483	5.3
416.845	5.42
417.206	5.31
417.568	5.08
417.93	5.27
418.292	5.1
418.653	5.07
419.015	5.25
419.377	5.21
419.738	5.21
420.1	5.24
420.461	5.14
420.822	5.35
421.184	5.28
421.545	5.36
421.906	5.17
422.267	5.22
422.629	5.2
422.99	5.2
423.351	5.16
423.712	5.28
424.073	5.32
424.434	5.29
424.795	5.16
425.155	5.17
425.516	5.21
425.877	5.15
426.238	5.23
426.598	5.25
426.959	5.36
427.32	5.14
427.68	5.25
428.041	5.38
428.401	5.21
428.761	5.3
429.122	5.39
429.482	5.37
429.842	5.27
430.202	5.51
430.563	5.32
430.923	5.28
431.283	5.42
431.643	5.67
432.003	5.3
432.363	5.46
432.722	5.38
433.082	5.3
433.442	5.58
433.802	5.27
434.161	5.27
434.521	5.28
434.881	5.26
435.24	5.29
435.6	5.38
435.959	5.45
436.319	5.34
436.678	5.53
437.037	5.48
437.396	5.42
437.756	5.39
438.115	5.38
438.474	5.57
438.833	5.4
439.192	5.46
439.551	5.45
439.91	5.34
440.269	5.39
440.628	5.38
440.987	5.54
441.345	5.34
441.704	5.44
442.063	5.36
442.421	5.28
442.78	5.54
443.138	5.43
443.497	5.36
443.855	5.5
444.214	5.27
444.572	5.45
444.93	5.39
445.288	5.42
445.647	5.36
446.005	5.47
446.363	5.35
446.721	5.35
447.079	5.3
447.437	5.37
447.795	5.42
448.153	5.47
448.51	5.48
448.868	5.4
449.226	5.45
449.584	5.42
449.941	5.44
450.299	5.36
450.656	5.48
451.014	5.53
451.371	5.52
451.729	5.55
452.086	5.53
452.443	5.61
452.801	5.64
453.158	5.71
453.515	5.48
453.872	5.53
454.229	5.42
454.586	5.45
454.943	5.58
455.3	5.48
455.657	5.51
456.014	5.65
456.371	5.6
456.727	5.62
457.084	5.68
457.441	5.54
457.797	5.57
458.154	5.52
458.51	5.39
458.867	5.52
459.223	5.42
459.58	5.51
459.936	5.58
460.292	5.45
460.648	5.36
461.005	5.51
461.361	5.46
461.717	5.48
462.073	5.56
462.429	5.57
462.785	5.67
463.141	5.62
463.496	5.53
463.852	5.63
464.208	5.55
464.564	5.48
464.919	5.64
465.275	5.55
465.631	5.77
465.986	5.63
466.342	5.49
466.697	5.52
467.052	5.79
467.408	5.63
467.763	5.49
468.118	5.57
468.473	5.82
468.829	5.54
469.184	5.6
469.539	5.41
469.894	5.74
470.249	5.62
470.603	5.76
470.958	5.74
471.313	5.7
471.668	5.62
472.023	5.71
472.377	5.53
472.732	5.77
473.086	5.64
473.441	5.69
473.795	5.86
474.15	5.74
474.504	5.7
474.859	5.59
475.213	5.77
475.567	5.55
475.921	5.73
476.275	5.78
476.63	5.79
476.984	5.66
477.338	5.64
477.692	5.73
478.045	5.7
478.399	5.69
478.753	5.63
479.107	5.71
479.461	5.59
479.814	5.73
480.168	5.65
480.521	5.65
480.875	5.73
481.228	5.62
481.582	5.7
481.935	5.92
482.289	5.58
482.642	5.67
482.995	5.65
483.348	5.66
483.701	5.63
484.055	5.5
484.408	5.58
484.761	5.45
485.114	5.35
485.466	5.34
485.819	5.37
486.172	5.39
486.525	5.42
486.878	5.49
487.23	5.49
487.583	5.57
487.936	5.48
488.288	5.51
488.641	5.47
488.993	5.43
489.345	5.41
489.698	5.39
490.05	5.41
490.402	5.45
490.754	5.51
491.107	5.51
491.459	5.57
491.811	5.64
492.163	5.61
492.515	5.55
492.866	5.44
493.218	5.44
493.57	5.52
493.922	5.52
494.274	5.59
494.625	5.74
494.977	5.64
495.328	5.74
495.68	5.7
496.031	5.66
496.383	5.67
496.734	5.76
497.086	5.84
497.437	5.76
497.788	5.8
498.139	5.65
498.49	5.66
498.842	5.75
499.193	5.66
499.544	5.67
499.894	5.87
500.245	5.74
500.596	5.77
500.947	5.7
501.298	5.76
501.648	5.78
501.999	5.65
502.35	5.66
502.7	5.91
503.051	5.8
503.401	5.89
503.752	5.7
504.102	5.74
504.452	5.77
504.803	5.68
505.153	5.79
505.503	5.81
505.853	5.85
506.203	5.89
506.553	5.83
506.903	5.79
507.253	5.76
507.603	5.71
507.953	5.82
508.303	5.83
508.652	5.72
509.002	5.91
509.352	5.77
509.701	5.71
510.051	5.87
510.4	5.81
510.75	5.84
511.099	5.69
511.449	5.83
511.798	5.82
512.147	5.79
512.496	5.89
512.846	5.79
513.195	5.79
513.544	5.91
513.893	5.84
514.242	5.86
514.591	5.74
514.939	5.95
515.288	5.86
515.637	5.94
515.986	5.9
516.334	5.89
516.683	5.82
517.032	5.73
517.38	5.66
517.729	5.91
518.077	5.88
518.426	5.85
518.774	5.81
519.122	5.73
519.47	5.76
519.819	5.78
520.167	5.81
520.515	5.85
520.863	5.77
521.211	5.79
521.559	5.75
521.907	5.82
522.255	5.76
522.602	5.81
522.95	5.85
523.298	5.91
523.645	5.82
523.993	5.83
524.341	5.85
524.688	5.86
525.036	5.82
525.383	5.9
525.73	5.81
526.078	5.98
526.425	5.87
526.772	5.77
527.119	5.79
527.466	5.84
527.814	5.76
528.161	5.86
528.508	5.88
528.854	5.75
529.201	5.73
529.548	5.7
529.895	5.59
530.242	5.58
530.588	5.59
530.935	5.68
531.282	5.64
531.628	5.67
531.975	5.74
532.321	5.81
532.667	5.86
533.014	5.87
533.36	5.77
533.706	5.84
534.052	5.9
534.399	5.79
534.745	5.67
535.091	5.72
535.437	5.71
535.783	5.67
536.129	5.76
536.474	5.89
536.82	5.9
537.166	5.85
537.512	5.84
537.857	5.83
538.203	5.78
538.549	5.81
538.894	5.85
539.239	5.88
539.585	5.87
539.93	5.91
540.276	5.96
540.621	6.01
540.966	5.93
541.311	5.97
541.656	5.78
542.001	5.75
542.346	5.78
542.691	5.68
543.036	5.71
543.381	5.75
543.726	5.8
544.071	5.8
544.415	5.78
544.76	5.78
545.105	5.79
545.449	5.83
545.794	5.81
546.138	5.84
546.483	5.9
546.827	5.75
547.171	5.9
547.516	5.95
547.86	6.01
548.204	5.81
548.548	5.87
548.892	5.94
549.236	5.8
549.58	5.94
549.924	6.06
550.268	6.03
550.612	6.04
550.956	6.06
551.3	6.21
551.643	5.96
551.987	6.21
552.33	6.1
552.674	5.95
553.017	6.06
553.361	6.06
553.704	6
554.048	5.96
554.391	5.98
554.734	5.95
555.077	6.06
555.42	6
555.764	5.99
556.107	6.08
556.45	6.1
556.793	6.11
557.135	5.98
557.478	6.16
557.821	6.13
558.164	6.11
558.507	6.09
558.849	6.13
559.192	5.97
559.534	6.18
559.877	5.81
560.219	6.02
560.562	5.97
560.904	6.2
561.246	6.06
561.589	6.25
561.931	6.16
562.273	6
562.615	6.05
562.957	6.05
563.299	6.09
563.641	6.2
563.983	5.92
564.325	5.98
564.667	6.11
565.008	6.11
565.35	5.94
565.692	6.01
566.033	5.89
566.375	6.02
566.716	6.02
567.058	5.97
567.399	6.06
567.741	6.08
568.082	6.03
568.423	6.1
568.764	6.16
569.105	6.03
569.447	5.91
569.788	6.04
570.129	5.98
570.47	5.86
570.811	5.94
571.151	5.96
571.492	5.95
571.833	5.85
572.174	5.82
572.514	6.03
572.855	6.22
573.195	5.93
573.536	6.12
573.876	6.12
574.217	6.03
574.557	5.99
574.898	6.05
575.238	6.12
575.578	6.15
575.918	6.17
576.258	6.13
576.598	5.99
576.938	5.89
577.278	5.88
577.618	5.89
577.958	6.25
578.298	6.13
578.638	6.03
578.977	6.13
579.317	6.13
579.657	6.01
579.996	6.32
580.336	6.2
580.675	6.27
581.014	6.23
581.354	5.91
581.693	6.09
582.032	6.19
582.372	6.16
582.711	6.16
583.05	6.15
583.389	6.2
583.728	6.21
584.067	5.9
584.406	6.09
584.745	6.03
585.083	5.84
585.422	6.1
585.761	6.17
586.1	6.15
586.438	6.02
586.777	6.17
587.115	6.11
587.454	5.97
587.792	6.29
588.13	5.87
588.469	5.98
588.807	6.25
589.145	6.14
589.483	5.98
589.821	6.23
590.159	6.03
590.497	6.21
590.835	6.17
591.173	6.21
591.511	6.14
591.849	6.05
592.187	5.75
592.524	6.21
592.862	5.89
593.2	6.02
593.537	6.03
593.875	6.1
594.212	6.06
594.55	6.14
594.887	6.14
595.224	5.91
595.561	6.08
595.899	6.17
596.236	6.27
596.573	5.99
596.91	5.92
597.247	6.03
597.584	6.15
597.921	6.03
598.258	6.22
598.594	5.98
598.931	5.86
599.268	5.93
599.604	6.05
599.941	6.09
600.277	6.23
600.614	6.01
600.95	6.22
601.287	5.75
601.623	6.04
601.959	6.22
602.296	6.13
602.632	6.11
602.968	6.15
603.304	6.16
603.64	5.93
603.976	6.01
604.312	6.12
604.648	6.22
604.984	6.15
605.319	6.1
605.655	6.09
605.991	6.1
606.326	6.04
606.662	5.85
606.998	6.24
607.333	6.01
607.668	5.87
608.004	6.1
608.339	6.03
608.674	5.99
609.01	6.19
609.345	6.05
609.68	6.02
610.015	6.19
610.35	6.21
610.685	6.06
611.02	6.03
611.355	6.13
611.689	6.04
612.024	6.08
612.359	6.14
612.694	6.16
613.028	6.13
613.363	6.01
613.697	5.9
614.032	6.08
614.366	6.09
614.7	6.23
615.035	6.28
615.369	6.11
615.703	6.31
616.037	6.24
616.371	6.06
616.705	6.13
617.039	6.26
617.373	6.17
617.707	6.13
618.041	5.73
618.375	5.64
618.709	6.32
619.042	6.21
619.376	6.2
619.71	6.08
620.043	6.36
620.377	5.85
620.71	6.15
621.043	6.13
621.377	6.34
621.71	6.25
622.043	6.03
622.376	6.14
622.709	6.65
623.043	5.97
623.376	6.11
623.709	6.25
624.041	6.08
624.374	6.4
624.707	6.14
625.04	6.13
625.373	6.19
625.705	6.2
626.038	6.21
626.37	6.27
626.703	6.38
627.035	6.19
627.368	6.41
627.7	6.1
628.032	6.17
628.365	6.4
628.697	6.24
629.029	6.03
629.361	6.44
629.693	5.87
630.025	6.18
630.357	6.37
630.689	6.36
631.021	5.95
631.353	6.41
631.684	6.05
632.016	5.9
632.348	6.1
632.679	6.51
633.011	6.12
633.342	6.2
633.674	5.99
634.005	6.27
634.336	6.37
634.668	6.25
634.999	6.1
635.33	6.26
635.661	5.87
635.992	5.85
636.323	6.18
636.654	6.06
636.985	5.89
637.316	6.1
637.647	6.36
637.977	6.29
638.308	6.3
638.639	6
638.969	5.97
639.3	5.86
639.63	6.22
639.961	6.29
640.291	5.52
640.622	6.2
640.952	6.52
641.282	6.06
641.612	6.2
641.943	5.78
642.273	6.37
642.603	6.21
642.933	6.45
643.263	6.45
643.592	6.5
643.922	6.72
644.252	6.48
644.582	6.15
644.911	6.27
645.241	6.27
645.571	6.23
645.9	6.55
646.23	6.73
646.559	5.88
646.888	6.62
647.218	6.36
647.547	6.3
647.876	5.85
648.205	6.17
648.534	6.05
648.863	5.75
649.192	6.17
649.521	6.33
649.85	6.56
650.179	6.18
650.508	6.31
650.837	6.31
651.165	6.03
651.494	6.35
651.822	6.34
652.151	6.36
652.479	6.37
652.808	6.13
653.136	6.26
653.465	5.76
653.793	6.41
654.121	6.03
654.449	5.81
654.777	6.03
655.105	5.91
655.433	6.27
655.761	6.03
656.089	6.07
656.417	6.61
656.745	6.59
657.073	6.35
657.4	6.05
657.728	5.6
658.056	5.89
658.383	6.08
658.711	5.55
659.038	6.43
659.365	6.51
659.693	6.08
660.02	6.42
660.347	5.97
660.674	5.7
661.001	6.36
661.329	5.98
661.656	6.07
661.982	5.98
662.309	6.15
662.636	6.35
662.963	6.18
663.29	6.46
663.616	5.94
663.943	6.31
664.27	5.89
664.596	6.38
664.923	6.87
665.249	6.29
665.576	6.45
665.902	6.17
666.228	6.72
666.554	6.85
666.881	5.75
667.207	6.37
667.533	5.97
667.859	6.04
668.185	6.31
668.511	6.44
668.837	6.57
669.162	6.04
669.488	5.85
669.814	6.4
670.139	5.44
670.465	6.27
670.791	5.93
671.116	5.9
671.442	5.47
671.767	5.9
672.092	6.16
672.418	6.51
672.743	6.18
673.068	5.79
673.393	6.51
673.718	5.68
674.043	6.33
674.368	6.16
674.693	6.64
675.018	6.37
675.343	6.63
675.667	5.89
675.992	6.47
676.317	5.06
676.641	6.79
676.966	6.16
677.29	5.55
677.615	5.84
677.939	6.57
678.264	5.9
678.588	6.15
678.912	6.33
679.236	5.91
679.56	6.05
679.885	5.54
680.209	6.22
680.532	6.49
680.856	6.14
681.18	7.22
681.504	6.06
681.828	5.83
682.152	6.08
682.475	6.31
682.799	6.02
683.122	6.25
683.446	5.9
683.769	5.95
684.093	6.51
684.416	5.82
684.739	6.04
685.062	6.11
685.386	6.41
685.709	6.42
686.032	6.39
686.355	6.18
686.678	6.83
687.001	5.81
687.324	6.22
687.646	5.75
687.969	6.4
688.292	6.05
688.614	6.61
688.937	6.45
689.26	6.83
689.582	6.86
689.904	6.57
690.227	6.25
690.549	6.49
690.871	5.9
691.194	5.37
691.516	6.38
691.838	6.98
692.16	5.69
692.482	6.31
