Data from 22-2_chest_Reflection__0__226.txt Node

Date: Thu Dec 15 18:15:39 CST 2022
User: ToomeyLab
Spectrometer: FLMS14357
Trigger mode: 0
Integration Time (sec): 1.000000E-2
Scans to average: 100
Electric dark correction enabled: true
Nonlinearity correction enabled: false
Boxcar width: 0
XAxis mode: Wavelengths
Number of Pixels in Spectrum: 2048
>>>>>Begin Spectral Data<<<<<
189.047	549.81
189.435	549.81
189.823	549.81
190.211	99.07
190.599	276.08
190.987	108.76
191.375	275.56
191.763	511.34
192.151	120.69
192.538	21
192.926	33.4
193.314	148.43
193.702	124.29
194.089	-217.48
194.477	3382.76
194.864	39.37
195.252	52.24
195.639	83.56
196.027	104.22
196.414	-81.46
196.801	-2270.91
197.189	160.05
197.576	-1143.21
197.963	71.29
198.351	-11.65
198.738	-81.47
199.125	-44.19
199.512	5.86
199.899	-24.33
200.286	-6.91
200.673	37.73
201.06	-45.67
201.447	13.41
201.833	7.48
202.22	-45.35
202.607	-15.28
202.994	7.05
203.38	49.55
203.767	42.85
204.154	29.63
204.54	16.76
204.927	-0.42
205.313	25.38
205.699	22.59
206.086	19.18
206.472	39.37
206.858	6.78
207.245	-35.04
207.631	2.88
208.017	36.32
208.403	-132.93
208.789	27.24
209.175	19.66
209.561	-6.63
209.947	-18.15
210.333	-13.61
210.719	40.43
211.105	27.03
211.491	15.28
211.876	-22.46
212.262	21.14
212.648	27.37
213.034	-24.98
213.419	-2.07
213.805	-50.14
214.19	-37.96
214.576	-5.57
214.961	26.28
215.346	-4.68
215.732	11.08
216.117	15.85
216.502	18.16
216.888	-9.1
217.273	13.87
217.658	2.45
218.043	10.4
218.428	-37.99
218.813	21.27
219.198	-28.21
219.583	-11.58
219.968	12.47
220.353	-31.8
220.738	-6.95
221.122	-6.23
221.507	-0.29
221.892	-31.54
222.276	-14.15
222.661	2.84
223.046	-8.45
223.43	10.67
223.815	-2.78
224.199	0.45
224.583	1.26
224.968	-14.81
225.352	-6.32
225.736	5.39
226.121	0.64
226.505	3.35
226.889	0.92
227.273	-7.17
227.657	3.4
228.041	-4.38
228.425	0.28
228.809	-3.79
229.193	1.25
229.577	0.18
229.961	1.54
230.344	2.14
230.728	1.95
231.112	2.29
231.495	0.34
231.879	1.45
232.263	2.66
232.646	1.43
233.03	3.11
233.413	2.22
233.797	-0.88
234.18	1.75
234.563	3.62
234.946	0.47
235.33	2.96
235.713	1.52
236.096	1.41
236.479	2.15
236.862	0.51
237.245	0.8
237.628	2.68
238.011	1.72
238.394	2.41
238.777	2
239.16	4.38
239.543	0.36
239.925	1.26
240.308	0.82
240.691	1.71
241.073	1.77
241.456	2.24
241.838	2.21
242.221	1.41
242.603	2.55
242.986	2.01
243.368	2.18
243.75	2.09
244.133	2.69
244.515	2.23
244.897	1.89
245.279	1.83
245.661	2.99
246.043	2.68
246.425	2.13
246.807	2.93
247.189	2.71
247.571	1.88
247.953	1.86
248.335	2.14
248.717	2.21
249.098	2.11
249.48	2.36
249.862	2.53
250.243	2.17
250.625	2.27
251.006	2.86
251.388	1.77
251.769	1.51
252.151	1.38
252.532	1.77
252.913	1.49
253.295	1.84
253.676	2.35
254.057	2.1
254.438	2.37
254.819	2.54
255.2	2.44
255.581	2.75
255.962	2.82
256.343	2.6
256.724	2.11
257.105	1.45
257.486	1.12
257.867	1.52
258.247	1.04
258.628	1.98
259.009	1.96
259.389	1.63
259.77	2.26
260.15	2.61
260.531	2.31
260.911	2.14
261.292	2.34
261.672	2.15
262.052	2.37
262.432	2.14
262.813	2.26
263.193	1.96
263.573	1.6
263.953	1.64
264.333	2.33
264.713	2.25
265.093	2.14
265.473	1.84
265.853	1.88
266.233	1.61
266.612	1.87
266.992	1.71
267.372	2.44
267.752	2.24
268.131	2.11
268.511	1.61
268.89	2.58
269.27	1.29
269.649	1.77
270.029	2.4
270.408	2
270.787	1.73
271.167	2.19
271.546	2.41
271.925	1.93
272.304	1.66
272.683	1.89
273.062	1.84
273.441	1.66
273.82	2.19
274.199	1.99
274.578	2.27
274.957	2.02
275.336	2.34
275.715	1.92
276.093	1.11
276.472	1.7
276.851	1.67
277.229	1.7
277.608	1.55
277.986	2.04
278.365	2.55
278.743	2.09
279.122	1.65
279.5	2.11
279.878	1.65
280.257	2.07
280.635	1.97
281.013	1.05
281.391	1.96
281.769	1.88
282.147	2.03
282.525	1.87
282.903	1.41
283.281	2.15
283.659	2.08
284.037	1.93
284.415	1.83
284.792	2.04
285.17	1.8
285.548	1.87
285.925	1.73
286.303	2.35
286.68	2.03
287.058	2.11
287.435	2.3
287.813	1.84
288.19	1.74
288.567	2.03
288.945	1.47
289.322	1.94
289.699	2.14
290.076	1.87
290.453	2.07
290.83	2.27
291.207	2.26
291.584	2.29
291.961	2.01
292.338	2.09
292.715	2.11
293.092	2.17
293.469	1.92
293.845	2.28
294.222	2.5
294.599	1.62
294.975	1.98
295.352	2.06
295.728	1.99
296.105	2.48
296.481	2.49
296.858	2.66
297.234	1.49
297.61	1.94
297.986	2.58
298.363	2.31
298.739	2.37
299.115	2.36
299.491	2.64
299.867	2.16
300.243	2.18
300.619	2.04
300.995	2.33
301.371	2.56
301.746	2.23
302.122	1.63
302.498	2.56
302.874	2.54
303.249	2.23
303.625	1.92
304	2.3
304.376	2.99
304.751	2.51
305.127	2.23
305.502	2.99
305.878	2.32
306.253	2.02
306.628	2.59
307.003	2.37
307.378	2.03
307.754	2.52
308.129	2.14
308.504	2.7
308.879	2.78
309.254	2.95
309.629	2.46
310.003	2.32
310.378	2.34
310.753	2.48
311.128	2.19
311.502	2.38
311.877	2.44
312.252	2.43
312.626	2.72
313.001	2.77
313.375	2.75
313.75	2.63
314.124	2.68
314.498	2.96
314.873	2.64
315.247	2.77
315.621	2.63
315.995	2.4
316.369	2.68
316.743	2.5
317.117	2.29
317.491	2.92
317.865	2.16
318.239	3.16
318.613	2.5
318.987	2.02
319.361	2.59
319.734	2.63
320.108	2.26
320.482	2.77
320.855	2.72
321.229	2.73
321.602	3.03
321.976	1.69
322.349	3.36
322.723	2.52
323.096	2.42
323.469	2.66
323.843	1.99
324.216	2.79
324.589	2.79
324.962	2.65
325.335	2.84
325.708	2.95
326.081	2.79
326.454	3.02
326.827	2.55
327.2	2.66
327.573	3.45
327.945	2.15
328.318	2.5
328.691	2.54
329.063	2.48
329.436	2.43
329.809	2.95
330.181	3.79
330.553	3.1
330.926	3.27
331.298	2.78
331.671	2.77
332.043	2.75
332.415	2.9
332.787	3.19
333.159	2.63
333.532	2.84
333.904	3.18
334.276	2.79
334.648	2.94
335.02	2.72
335.391	2.56
335.763	2.79
336.135	2.82
336.507	2.83
336.879	2.7
337.25	3.03
337.622	3.04
337.993	3.02
338.365	2.8
338.736	2.95
339.108	2.73
339.479	2.69
339.851	2.95
340.222	3.35
340.593	3.28
340.964	2.98
341.336	2.45
341.707	2.87
342.078	2.58
342.449	2.66
342.82	3.22
343.191	3.19
343.562	2.88
343.933	2.96
344.303	3.28
344.674	2.86
345.045	3.09
345.416	3.07
345.786	3.1
346.157	2.99
346.527	2.84
346.898	2.72
347.268	3.06
347.639	3.05
348.009	2.88
348.38	2.94
348.75	3.22
349.12	3.14
349.49	2.98
349.861	3.03
350.231	3.17
350.601	3.13
350.971	2.76
351.341	3.07
351.711	3.03
352.081	2.63
352.45	2.72
352.82	2.3
353.19	2.87
353.56	2.79
353.929	3.01
354.299	3.16
354.669	3.25
355.038	2.97
355.408	2.91
355.777	2.97
356.147	2.99
356.516	2.57
356.885	2.86
357.254	2.68
357.624	2.42
357.993	3.05
358.362	3.29
358.731	3.13
359.1	3.15
359.469	3.06
359.838	3.2
360.207	3.11
360.576	3.25
360.945	2.99
361.314	3.15
361.682	3.05
362.051	3.14
362.42	3.14
362.788	3.07
363.157	3
363.525	3.24
363.894	2.92
364.262	2.98
364.631	3.36
364.999	3.08
365.367	2.93
365.735	3.02
366.104	2.98
366.472	2.97
366.84	3.12
367.208	3.18
367.576	3.1
367.944	3.11
368.312	3.09
368.68	3.43
369.048	3.04
369.416	2.95
369.783	3.05
370.151	3.58
370.519	3.51
370.886	3.08
371.254	3.66
371.621	3.29
371.989	3.45
372.356	3.04
372.724	3.12
373.091	2.92
373.458	2.95
373.826	3.17
374.193	3.27
374.56	3.02
374.927	3
375.294	3.12
375.661	3.48
376.028	3.12
376.395	3.24
376.762	3.07
377.129	3.06
377.496	3.22
377.863	3.36
378.229	3.38
378.596	3.35
378.963	3.05
379.329	3.32
379.696	2.93
380.062	3.19
380.429	2.96
380.795	3.49
381.161	2.86
381.528	3.15
381.894	3.01
382.26	3.33
382.626	3.24
382.993	3.61
383.359	3.46
383.725	3.18
384.091	3.27
384.457	3.02
384.823	3.37
385.188	3.43
385.554	3.11
385.92	3.02
386.286	3.34
386.651	3.14
387.017	3.41
387.383	3.42
387.748	3.42
388.114	3.28
388.479	3.22
388.845	3.02
389.21	3.43
389.575	3.69
389.94	3.41
390.306	3.43
390.671	3.23
391.036	3.22
391.401	3.57
391.766	3.22
392.131	3.36
392.496	3.4
392.861	3.36
393.226	3.22
393.591	3.51
393.956	3.45
394.32	3.44
394.685	3.11
395.05	3.29
395.414	3.24
395.779	3.42
396.143	3.28
396.508	3.25
396.872	3.11
397.236	3.6
397.601	3.49
397.965	3.14
398.329	3.51
398.694	3
399.058	3.26
399.422	3.23
399.786	3.24
400.15	3.3
400.514	3.28
400.878	3.4
401.242	3.46
401.605	3.38
401.969	3.27
402.333	3.46
402.697	3.54
403.06	3.34
403.424	3.52
403.787	3.29
404.151	3.55
404.514	3.41
404.878	3.2
405.241	3.43
405.604	3.23
405.968	3.37
406.331	3.46
406.694	3.53
407.057	3.37
407.42	3.43
407.783	3.36
408.146	3.56
408.509	3.25
408.872	3.43
409.235	3.56
409.598	3.43
409.961	3.56
410.323	3.21
410.686	3.71
411.049	3.4
411.411	3.33
411.774	3.37
412.136	3.42
412.499	3.5
412.861	3.17
413.223	3.38
413.586	3.45
413.948	3.47
414.31	3.62
414.672	3.24
415.035	3.64
415.397	3.3
415.759	3.18
416.121	3.48
416.483	3.54
416.845	3.46
417.206	3.34
417.568	3.26
417.93	3.43
418.292	3.29
418.653	3.31
419.015	3.54
419.377	3.41
419.738	3.4
420.1	3.38
420.461	3.27
420.822	3.32
421.184	3.46
421.545	3.49
421.906	3.42
422.267	3.41
422.629	3.33
422.99	3.4
423.351	3.32
423.712	3.45
424.073	3.4
424.434	3.53
424.795	3.33
425.155	3.43
425.516	3.38
425.877	3.45
426.238	3.37
426.598	3.47
426.959	3.5
427.32	3.39
427.68	3.44
428.041	3.5
428.401	3.46
428.761	3.63
429.122	3.52
429.482	3.57
429.842	3.58
430.202	3.68
430.563	3.67
430.923	3.53
431.283	3.56
431.643	3.6
432.003	3.54
432.363	3.62
432.722	3.6
433.082	3.59
433.442	3.74
433.802	3.55
434.161	3.55
434.521	3.62
434.881	3.56
435.24	3.47
435.6	3.54
435.959	3.66
436.319	3.67
436.678	3.9
437.037	3.7
437.396	3.65
437.756	3.45
438.115	3.65
438.474	3.52
438.833	3.6
439.192	3.5
439.551	3.69
439.91	3.61
440.269	3.55
440.628	3.54
440.987	3.59
441.345	3.63
441.704	3.57
442.063	3.61
442.421	3.61
442.78	3.63
443.138	3.73
443.497	3.65
443.855	3.61
444.214	3.52
444.572	3.74
444.93	3.73
445.288	3.64
445.647	3.56
446.005	3.65
446.363	3.58
446.721	3.69
447.079	3.64
447.437	3.61
447.795	3.69
448.153	3.62
448.51	3.62
448.868	3.68
449.226	3.58
449.584	3.6
449.941	3.69
450.299	3.71
450.656	3.65
451.014	3.71
451.371	3.84
451.729	3.8
452.086	3.65
452.443	3.78
452.801	3.79
453.158	3.88
453.515	3.71
453.872	3.7
454.229	3.47
454.586	3.65
454.943	3.72
455.3	3.72
455.657	3.55
456.014	3.79
456.371	3.7
456.727	3.86
457.084	3.84
457.441	3.71
457.797	3.75
458.154	3.77
458.51	3.56
458.867	3.86
459.223	3.7
459.58	3.77
459.936	3.73
460.292	3.67
460.648	3.83
461.005	3.71
461.361	3.77
461.717	3.68
462.073	3.81
462.429	3.84
462.785	3.9
463.141	3.74
463.496	3.84
463.852	3.84
464.208	3.78
464.564	3.88
464.919	3.79
465.275	3.94
465.631	4.04
465.986	3.93
466.342	3.77
466.697	3.94
467.052	4.02
467.408	4
467.763	3.86
468.118	3.79
468.473	3.96
468.829	3.87
469.184	4.03
469.539	3.82
469.894	4.09
470.249	3.97
470.603	4
470.958	4.1
471.313	4.08
471.668	3.92
472.023	3.98
472.377	3.98
472.732	4.16
473.086	3.95
473.441	3.9
473.795	4.12
474.15	3.86
474.504	3.85
474.859	3.78
475.213	4.01
475.567	3.87
475.921	4.03
476.275	4.01
476.63	4.05
476.984	3.91
477.338	4.05
477.692	3.95
478.045	4
478.399	3.98
478.753	4.07
479.107	3.96
479.461	3.88
479.814	4.05
480.168	3.97
480.521	4.11
480.875	3.96
481.228	4.02
481.582	4
481.935	4.08
482.289	3.95
482.642	4.17
482.995	4.06
483.348	3.93
483.701	3.97
484.055	3.93
484.408	3.88
484.761	3.86
485.114	3.78
485.466	3.74
485.819	3.77
486.172	3.84
486.525	3.85
486.878	3.94
487.23	3.97
487.583	3.93
487.936	3.95
488.288	3.95
488.641	3.92
488.993	3.88
489.345	3.89
489.698	3.91
490.05	3.9
490.402	3.96
490.754	4
491.107	4.01
491.459	4.08
491.811	3.98
492.163	3.97
492.515	4.06
492.866	3.95
493.218	3.87
493.57	4
493.922	4
494.274	4.13
494.625	4.19
494.977	4.2
495.328	4.24
495.68	4.16
496.031	4.14
496.383	4.19
496.734	4.14
497.086	4.2
497.437	4.22
497.788	4.26
498.139	4.21
498.49	4.22
498.842	4.23
499.193	4.17
499.544	4.19
499.894	4.17
500.245	4.34
500.596	4.37
500.947	4.33
501.298	4.31
501.648	4.25
501.999	4.37
502.35	4.16
502.7	4.49
503.051	4.26
503.401	4.38
503.752	4.3
504.102	4.18
504.452	4.15
504.803	4.24
505.153	4.36
505.503	4.45
505.853	4.43
506.203	4.38
506.553	4.37
506.903	4.38
507.253	4.27
507.603	4.44
507.953	4.35
508.303	4.4
508.652	4.25
509.002	4.46
509.352	4.44
509.701	4.18
510.051	4.37
510.4	4.37
510.75	4.31
511.099	4.29
511.449	4.4
511.798	4.42
512.147	4.36
512.496	4.45
512.846	4.41
513.195	4.46
513.544	4.49
513.893	4.34
514.242	4.41
514.591	4.42
514.939	4.47
515.288	4.48
515.637	4.62
515.986	4.51
516.334	4.54
516.683	4.49
517.032	4.49
517.38	4.48
517.729	4.66
518.077	4.52
518.426	4.52
518.774	4.44
519.122	4.58
519.47	4.48
519.819	4.46
520.167	4.5
520.515	4.51
520.863	4.51
521.211	4.48
521.559	4.53
521.907	4.52
522.255	4.55
522.602	4.59
522.95	4.68
523.298	4.61
523.645	4.62
523.993	4.67
524.341	4.73
524.688	4.76
525.036	4.65
525.383	4.68
525.73	4.66
526.078	4.69
526.425	4.69
526.772	4.67
527.119	4.58
527.466	4.66
527.814	4.7
528.161	4.69
528.508	4.7
528.854	4.67
529.201	4.67
529.548	4.61
529.895	4.51
530.242	4.46
530.588	4.49
530.935	4.53
531.282	4.58
531.628	4.59
531.975	4.6
532.321	4.66
532.667	4.81
533.014	4.75
533.36	4.74
533.706	4.77
534.052	4.73
534.399	4.74
534.745	4.64
535.091	4.71
535.437	4.75
535.783	4.79
536.129	4.79
536.474	4.87
536.82	4.92
537.166	4.83
537.512	4.84
537.857	4.82
538.203	4.8
538.549	4.84
538.894	4.9
539.239	5
539.585	5.03
539.93	5.02
540.276	4.97
540.621	5.04
540.966	5.06
541.311	5.11
541.656	5.02
542.001	5.01
542.346	4.9
542.691	4.88
543.036	4.86
543.381	4.92
543.726	4.94
544.071	4.97
544.415	4.98
544.76	5.01
545.105	5.06
545.449	5.11
545.794	5.09
546.138	5.17
546.483	5.19
546.827	5.11
547.171	5.22
547.516	5.23
547.86	5.24
548.204	5.11
548.548	5.15
548.892	5.17
549.236	5.23
549.58	5.27
549.924	5.42
550.268	5.5
550.612	5.51
550.956	5.49
551.3	5.64
551.643	5.39
551.987	5.57
552.33	5.6
552.674	5.47
553.017	5.45
553.361	5.59
553.704	5.52
554.048	5.5
554.391	5.54
554.734	5.5
555.077	5.57
555.42	5.54
555.764	5.59
556.107	5.73
556.45	5.62
556.793	5.67
557.135	5.65
557.478	5.55
557.821	5.62
558.164	5.63
558.507	5.67
558.849	5.86
559.192	5.67
559.534	5.79
559.877	5.59
560.219	5.74
560.562	5.68
560.904	5.9
561.246	5.78
561.589	6
561.931	5.76
562.273	5.72
562.615	5.77
562.957	5.78
563.299	5.93
563.641	5.95
563.983	5.91
564.325	6
564.667	5.92
565.008	6
565.35	5.98
565.692	5.95
566.033	6.02
566.375	6.03
566.716	6.01
567.058	5.94
567.399	6.04
567.741	6.03
568.082	5.99
568.423	6
568.764	6.09
569.105	6.19
569.447	6.08
569.788	6.06
570.129	6.12
570.47	6.08
570.811	6.21
571.151	6.19
571.492	6.17
571.833	6.2
572.174	6.28
572.514	6.26
572.855	6.41
573.195	6.22
573.536	6.38
573.876	6.12
574.217	6.19
574.557	6.26
574.898	6.26
575.238	6.46
575.578	6.49
575.918	6.41
576.258	6.54
576.598	6.4
576.938	6.33
577.278	6.28
577.618	6.53
577.958	6.44
578.298	6.49
578.638	6.6
578.977	6.6
579.317	6.62
579.657	6.51
579.996	6.76
580.336	6.89
580.675	6.61
581.014	6.65
581.354	6.51
581.693	6.92
582.032	6.88
582.372	6.71
582.711	6.86
583.05	6.75
583.389	6.8
583.728	6.96
584.067	6.68
584.406	7
584.745	6.72
585.083	7.03
585.422	7.11
585.761	6.98
586.1	7.06
586.438	6.72
586.777	7.12
587.115	7.15
587.454	6.95
587.792	7.01
588.13	7.09
588.469	7.09
588.807	7.29
589.145	7.24
589.483	7.05
589.821	7.23
590.159	7.03
590.497	7.39
590.835	7.46
591.173	7.26
591.511	7.24
591.849	7.26
592.187	7.19
592.524	7.3
592.862	7.14
593.2	7.3
593.537	7.41
593.875	7.44
594.212	7.24
594.55	7.59
594.887	7.41
595.224	7.55
595.561	7.39
595.899	7.51
596.236	7.62
596.573	7.35
596.91	7.52
597.247	7.82
597.584	7.56
597.921	7.64
598.258	7.77
598.594	7.46
598.931	7.42
599.268	7.53
599.604	7.7
599.941	7.57
600.277	7.81
600.614	7.55
600.95	7.66
601.287	7.64
601.623	7.36
601.959	7.69
602.296	7.74
602.632	7.86
602.968	7.99
603.304	7.92
603.64	7.92
603.976	7.74
604.312	7.97
604.648	8.14
604.984	7.87
605.319	8.1
605.655	7.76
605.991	7.83
606.326	7.94
606.662	7.89
606.998	8.25
607.333	8.11
607.668	8.08
608.004	8.06
608.339	8.24
608.674	8.16
609.01	8.42
609.345	8.26
609.68	8.18
610.015	8.29
610.35	8.17
610.685	7.98
611.02	8.17
611.355	8.08
611.689	8.27
612.024	8.41
612.359	8.63
612.694	8.65
613.028	8.66
613.363	8.22
613.697	8.57
614.032	8.51
614.366	8.77
614.7	8.76
615.035	8.58
615.369	8.73
615.703	8.65
616.037	8.64
616.371	8.75
616.705	8.76
617.039	9.11
617.373	8.6
617.707	8.95
618.041	8.5
618.375	8.37
618.709	9.23
619.042	8.61
619.376	8.85
619.71	8.85
620.043	9
620.377	8.83
620.71	8.8
621.043	9.01
621.377	8.87
621.71	9.31
622.043	9.04
622.376	9.32
622.709	9.25
623.043	9.02
623.376	9.1
623.709	9.36
624.041	8.95
624.374	9.42
624.707	9.27
625.04	9.29
625.373	9.31
625.705	9.54
626.038	9.46
626.37	9.48
626.703	9.07
627.035	9.43
627.368	9.52
627.7	9.46
628.032	9.24
628.365	9.68
628.697	9.62
629.029	9.61
629.361	9.62
629.693	9.57
630.025	9.63
630.357	9.71
630.689	9.73
631.021	9.84
631.353	9.81
631.684	9.8
632.016	9.53
632.348	9.73
632.679	9.95
633.011	9.59
633.342	9.88
633.674	9.7
634.005	9.54
634.336	10.03
634.668	9.86
634.999	9.78
635.33	10.14
635.661	9.99
635.992	10.02
636.323	9.86
636.654	9.88
636.985	9.93
637.316	9.97
637.647	10.4
637.977	10.17
638.308	10.5
638.639	9.98
638.969	10.06
639.3	10.43
639.63	9.9
639.961	10.22
640.291	10.14
640.622	10.29
640.952	10.8
641.282	10.38
641.612	10.29
641.943	10.14
642.273	10.65
642.603	10.72
642.933	10.63
643.263	10.61
643.592	10.99
643.922	10.69
644.252	10.82
644.582	10.85
644.911	10.35
645.241	10.59
645.571	10.69
645.9	11.14
646.23	11.34
646.559	10.84
646.888	10.94
647.218	11.07
647.547	10.65
647.876	10.95
648.205	10.52
648.534	10.94
648.863	10.88
649.192	10.83
649.521	10.33
649.85	10.84
650.179	11.41
650.508	11.31
650.837	11.2
651.165	11.21
651.494	10.85
651.822	11.27
652.151	10.92
652.479	11.37
652.808	11.36
653.136	11.02
653.465	11
653.793	11.1
654.121	11.22
654.449	11.06
654.777	11.12
655.105	10.83
655.433	11.82
655.761	11.53
656.089	11.47
656.417	12.52
656.745	11.94
657.073	11.38
657.4	11.61
657.728	11.51
658.056	11.53
658.383	11.37
658.711	11.72
659.038	11.65
659.365	11.51
659.693	11.74
660.02	11.78
660.347	11.81
660.674	11.51
661.001	11.85
661.329	12.01
661.656	11.72
661.982	11.82
662.309	12.12
662.636	11.61
662.963	12.14
663.29	12.07
663.616	11.83
663.943	12.03
664.27	12.03
664.596	11.95
664.923	12.49
665.249	12.49
665.576	12.33
665.902	12.19
666.228	12.13
666.554	12.66
666.881	12.42
667.207	12.5
667.533	12.1
667.859	12.53
668.185	12.45
668.511	12.33
668.837	12.37
669.162	12.07
669.488	12.14
669.814	12.49
670.139	12.18
670.465	12.87
670.791	12.27
671.116	12.24
671.442	12.39
671.767	12.43
672.092	12.07
672.418	12.73
672.743	12.6
673.068	11.94
673.393	13.03
673.718	12.31
674.043	12.72
674.368	13.34
674.693	13.26
675.018	13.28
675.343	13.3
675.667	12.69
675.992	13.27
676.317	12.8
676.641	13.53
676.966	13.28
677.29	12.99
677.615	13.14
677.939	13.05
678.264	12.49
678.588	13.76
678.912	13.39
679.236	13.43
679.56	12.83
679.885	13.39
680.209	13.4
680.532	14.12
680.856	13.58
681.18	14.06
681.504	13.26
681.828	13.08
682.152	13.65
682.475	13.64
682.799	13.31
683.122	13.7
683.446	13.23
683.769	13.85
684.093	14
684.416	13.52
684.739	13.58
685.062	13.47
685.386	13.74
685.709	14.05
686.032	14.02
686.355	14.14
686.678	13.73
687.001	13.37
687.324	14.02
687.646	13.89
687.969	14.16
688.292	13.66
688.614	14.99
