Data from 0387_forehead_Reflection__3__244.txt Node

Date: Fri Dec 15 18:32:10 CST 2023
User: ToomeyLab
Spectrometer: FLMS14357
Trigger mode: 0
Integration Time (sec): 1.000000E-2
Scans to average: 100
Electric dark correction enabled: true
Nonlinearity correction enabled: false
Boxcar width: 0
XAxis mode: Wavelengths
Number of Pixels in Spectrum: 2048
>>>>>Begin Spectral Data<<<<<
189.047	67.92
189.435	67.92
189.823	67.92
190.211	-82.86
190.599	68.54
190.987	205.83
191.375	382.87
191.763	-113.63
192.151	250.55
192.538	121.54
192.926	112.67
193.314	61.78
193.702	-9.76
194.089	-270.75
194.477	48.48
194.864	240
195.252	104.18
195.639	95.76
196.027	644.99
196.414	179.88
196.801	61.39
197.189	92.46
197.576	13.5
197.963	-174.8
198.351	-202.59
198.738	20.79
199.125	35.68
199.512	17.4
199.899	37.73
200.286	24.77
200.673	40.04
201.06	12.38
201.447	12.32
201.833	53.07
202.22	23.16
202.607	36.08
202.994	10.44
203.38	-16.37
203.767	26.81
204.154	66.29
204.54	39.3
204.927	-30.93
205.313	-102.33
205.699	30.63
206.086	71.33
206.472	-7.23
206.858	44.61
207.245	-1.64
207.631	16.25
208.017	28.49
208.403	14.66
208.789	-4.01
209.175	36.18
209.561	-86.39
209.947	27
210.333	26.63
210.719	47.3
211.105	34.23
211.491	-60.84
211.876	21.25
212.262	5.32
212.648	16.66
213.034	25.14
213.419	14.86
213.805	2.06
214.19	-31.43
214.576	-6.01
214.961	-48.22
215.346	-11.18
215.732	-38.21
216.117	30.31
216.502	-29.22
216.888	23.66
217.273	32.47
217.658	31.58
218.043	19.5
218.428	-48.9
218.813	27.16
219.198	-28.87
219.583	25.41
219.968	15.61
220.353	-15.09
220.738	37.49
221.122	1.93
221.507	-28.72
221.892	-54.24
222.276	-18.78
222.661	-6.9
223.046	20.35
223.43	14.74
223.815	12.61
224.199	-5.5
224.583	4.51
224.968	11.39
225.352	24.56
225.736	-2.91
226.121	0.69
226.505	10.91
226.889	7.6
227.273	-1.5
227.657	6.76
228.041	2.93
228.425	5.24
228.809	8.72
229.193	2.49
229.577	5
229.961	1.7
230.344	2.06
230.728	1.7
231.112	2.16
231.495	2.08
231.879	1.36
232.263	3.63
232.646	2.38
233.03	1.92
233.413	2.03
233.797	2.39
234.18	1.84
234.563	2.31
234.946	3.08
235.33	2.61
235.713	3.73
236.096	2.13
236.479	3.28
236.862	0.4
237.245	4.4
237.628	2.08
238.011	1.67
238.394	3.26
238.777	2.42
239.16	2.17
239.543	4.35
239.925	3.5
240.308	2.71
240.691	2.71
241.073	2.43
241.456	0.96
241.838	2.83
242.221	2.93
242.603	1.99
242.986	2.45
243.368	2.84
243.75	3.17
244.133	2.3
244.515	2.68
244.897	2.47
245.279	2.82
245.661	2.41
246.043	2.11
246.425	2.29
246.807	3.57
247.189	2.73
247.571	3.36
247.953	2.7
248.335	2.73
248.717	2.71
249.098	2.37
249.48	2.48
249.862	2.61
250.243	2.09
250.625	2.63
251.006	2.76
251.388	1.37
251.769	2.86
252.151	2.63
252.532	2.13
252.913	1.09
253.295	2.26
253.676	2.86
254.057	2.57
254.438	2.65
254.819	2.64
255.2	2.81
255.581	1.88
255.962	1.37
256.343	2.18
256.724	2.94
257.105	2.41
257.486	2.24
257.867	3.23
258.247	1.96
258.628	2.61
259.009	2.61
259.389	2.67
259.77	2.9
260.15	1.84
260.531	2.68
260.911	2.58
261.292	2.51
261.672	2.62
262.052	2.6
262.432	2.69
262.813	2.77
263.193	2.89
263.573	2.45
263.953	2.33
264.333	2.99
264.713	2.53
265.093	1.48
265.473	2.69
265.853	2.16
266.233	2.95
266.612	1.15
266.992	1.88
267.372	2.89
267.752	2.07
268.131	1.97
268.511	3.06
268.89	3.18
269.27	2.09
269.649	2.35
270.029	2.35
270.408	4.08
270.787	2.64
271.167	3.1
271.546	2.75
271.925	1.21
272.304	2.53
272.683	2.49
273.062	2.22
273.441	2.51
273.82	2.07
274.199	2.08
274.578	2.21
274.957	2.42
275.336	2.49
275.715	2.07
276.093	1.8
276.472	2.57
276.851	2.33
277.229	2.37
277.608	1.75
277.986	2.5
278.365	2.72
278.743	1.77
279.122	2.59
279.5	1.89
279.878	2.91
280.257	2.2
280.635	1.71
281.013	2.11
281.391	2.19
281.769	2.44
282.147	2.44
282.525	2.83
282.903	2.71
283.281	2.93
283.659	2.72
284.037	2.79
284.415	2.64
284.792	2.94
285.17	1.88
285.548	2.55
285.925	2.5
286.303	2.43
286.68	2.81
287.058	2.57
287.435	2.39
287.813	2.93
288.19	2.57
288.567	2.45
288.945	2.63
289.322	2.82
289.699	2.56
290.076	2.67
290.453	2.64
290.83	2.55
291.207	2.55
291.584	2.66
291.961	2.53
292.338	2.45
292.715	3.06
293.092	2.84
293.469	2.62
293.845	3.42
294.222	2.29
294.599	2.63
294.975	2.25
295.352	2.61
295.728	2.42
296.105	3.04
296.481	3.33
296.858	2.83
297.234	3.01
297.61	2.99
297.986	2.78
298.363	3.23
298.739	2.97
299.115	3.08
299.491	2.82
299.867	3.05
300.243	3.13
300.619	2.41
300.995	2.89
301.371	3.37
301.746	3.08
302.122	3.13
302.498	3.1
302.874	3.61
303.249	3.45
303.625	3.4
304	4.13
304.376	3.54
304.751	2.65
305.127	3.92
305.502	3.42
305.878	3.65
306.253	3.53
306.628	4.1
307.003	3.64
307.378	3.86
307.754	3.78
308.129	3.41
308.504	3.46
308.879	3.57
309.254	4.42
309.629	4.87
310.003	4.19
310.378	5.06
310.753	4.03
311.128	4.74
311.502	4.17
311.877	4.7
312.252	4.2
312.626	4.47
313.001	4.43
313.375	4.72
313.75	4.26
314.124	4.59
314.498	4.5
314.873	5.21
315.247	4.17
315.621	4.7
315.995	4.44
316.369	5.02
316.743	4.47
317.117	5.77
317.491	5.3
317.865	5.42
318.239	5.63
318.613	5.28
318.987	5.57
319.361	5.56
319.734	6.15
320.108	5.96
320.482	5.47
320.855	5.95
321.229	5.87
321.602	6.04
321.976	6.65
322.349	6.13
322.723	6.64
323.096	5.74
323.469	5.16
323.843	6.17
324.216	6.45
324.589	5.91
324.962	6.32
325.335	6.12
325.708	6.73
326.081	6.77
326.454	6.7
326.827	6.43
327.2	6.49
327.573	7.02
327.945	6.87
328.318	6.44
328.691	6.47
329.063	6.36
329.436	6.38
329.809	7.08
330.181	6.95
330.553	7.11
330.926	7.3
331.298	6.64
331.671	6.77
332.043	7.38
332.415	7.26
332.787	6.87
333.159	8.18
333.532	7.26
333.904	6.6
334.276	7.22
334.648	7.4
335.02	7.35
335.391	7.28
335.763	7.41
336.135	7.66
336.507	7.82
336.879	7.71
337.25	7.53
337.622	7.76
337.993	7.2
338.365	7.83
338.736	7.83
339.108	8.06
339.479	7.7
339.851	7.93
340.222	7.87
340.593	8.05
340.964	7.41
341.336	8.87
341.707	8.23
342.078	8.47
342.449	8.19
342.82	8.56
343.191	8.13
343.562	8.19
343.933	8.68
344.303	8.57
344.674	8.8
345.045	8.69
345.416	8.63
345.786	8.42
346.157	9.02
346.527	8.9
346.898	8.03
347.268	8.79
347.639	8.5
348.009	8.95
348.38	8.95
348.75	8.67
349.12	8.5
349.49	9.39
349.861	8.97
350.231	9.01
350.601	8.97
350.971	9.35
351.341	9.37
351.711	9.01
352.081	9.04
352.45	9.07
352.82	9.18
353.19	9.37
353.56	9.03
353.929	9.6
354.299	9.37
354.669	9.2
355.038	9.9
355.408	9.77
355.777	9.82
356.147	9.72
356.516	9.9
356.885	9.65
357.254	9.55
357.624	10.07
357.993	9.86
358.362	9.85
358.731	9.89
359.1	10.15
359.469	10.08
359.838	9.72
360.207	9.75
360.576	9.72
360.945	9.97
361.314	10.56
361.682	10.07
362.051	10.25
362.42	10.53
362.788	10.2
363.157	10.5
363.525	10.49
363.894	10.68
364.262	10.45
364.631	10.51
364.999	10.55
365.367	10.32
365.735	11.02
366.104	10.61
366.472	11.01
366.84	10.68
367.208	10.76
367.576	11.45
367.944	11.14
368.312	10.92
368.68	10.47
369.048	11
369.416	11.08
369.783	11.01
370.151	11.29
370.519	11.72
370.886	11.7
371.254	11.31
371.621	11.9
371.989	11.69
372.356	11.07
372.724	11.65
373.091	11.69
373.458	12.02
373.826	11.59
374.193	11.45
374.56	11.77
374.927	11.78
375.294	11.81
375.661	11.95
376.028	11.53
376.395	11.92
376.762	12.24
377.129	11.9
377.496	11.96
377.863	11.9
378.229	11.68
378.596	12.25
378.963	12.12
379.329	12.49
379.696	12.22
380.062	12.42
380.429	12.29
380.795	12.15
381.161	12.56
381.528	12.96
381.894	12.66
382.26	12.48
382.626	12.42
382.993	12.43
383.359	13
383.725	12.65
384.091	12.98
384.457	13.24
384.823	13.01
385.188	13.1
385.554	12.94
385.92	13.22
386.286	13.49
386.651	13.55
387.017	13.45
387.383	13.48
387.748	12.99
388.114	13.62
388.479	13.6
388.845	13.75
389.21	13.59
389.575	13.44
389.94	13.33
390.306	13.52
390.671	13.76
391.036	13.32
391.401	13.62
391.766	13.48
392.131	13.82
392.496	13.99
392.861	13.71
393.226	14.04
393.591	14.04
393.956	13.76
394.32	13.88
394.685	13.96
395.05	13.85
395.414	13.98
395.779	13.9
396.143	14.1
396.508	14.3
396.872	14.31
397.236	14.14
397.601	14.01
397.965	14.15
398.329	14.24
398.694	14.08
399.058	14.22
399.422	14.02
399.786	14.43
400.15	14.63
400.514	14.39
400.878	14.86
401.242	14.92
401.605	14.63
401.969	14.68
402.333	14.52
402.697	14.73
403.06	14.67
403.424	14.8
403.787	14.69
404.151	15.01
404.514	14.74
404.878	14.73
405.241	15.07
405.604	14.86
405.968	15
406.331	14.88
406.694	15.21
407.057	14.71
407.42	15.17
407.783	14.88
408.146	15
408.509	15.09
408.872	14.86
409.235	14.93
409.598	15.46
409.961	15.16
410.323	15.37
410.686	15.28
411.049	15.2
411.411	15.37
411.774	15.38
412.136	15.22
412.499	15.18
412.861	15.11
413.223	15.43
413.586	15.55
413.948	15.37
414.31	15.49
414.672	15.75
415.035	15.37
415.397	16
415.759	15.15
416.121	15.84
416.483	15.64
416.845	15.82
417.206	15.63
417.568	15.89
417.93	15.69
418.292	15.78
418.653	15.92
419.015	16.03
419.377	15.99
419.738	16.09
420.1	16.07
420.461	16.05
420.822	16.18
421.184	16.03
421.545	16.23
421.906	16.07
422.267	16.29
422.629	16.3
422.99	16.18
423.351	16.18
423.712	16.33
424.073	16.44
424.434	16.51
424.795	16.59
425.155	16.72
425.516	16.6
425.877	16.77
426.238	16.82
426.598	16.91
426.959	16.79
427.32	16.93
427.68	17.15
428.041	17.11
428.401	17.39
428.761	17.4
429.122	17.52
429.482	17.75
429.842	18.02
430.202	18
430.563	18.13
430.923	18.07
431.283	18.23
431.643	18.35
432.003	18.01
432.363	18.37
432.722	18.53
433.082	18.61
433.442	18.69
433.802	18.34
434.161	18.54
434.521	18.77
434.881	18.79
435.24	18.69
435.6	18.74
435.959	18.73
436.319	18.96
436.678	18.87
437.037	19.13
437.396	19.22
437.756	19.33
438.115	19.18
438.474	19.46
438.833	19.36
439.192	19.46
439.551	19.77
439.91	19.46
440.269	19.51
440.628	19.55
440.987	19.79
441.345	19.63
441.704	19.88
442.063	19.85
442.421	19.82
442.78	19.95
443.138	19.92
443.497	20.01
443.855	20.18
444.214	20.4
444.572	20.29
444.93	20.51
445.288	20.54
445.647	20.81
446.005	20.76
446.363	20.66
446.721	20.58
447.079	20.56
447.437	20.77
447.795	20.71
448.153	20.69
448.51	20.61
448.868	20.75
449.226	20.83
449.584	21
449.941	20.99
450.299	21.07
450.656	21.15
451.014	21.37
451.371	21.27
451.729	21.41
452.086	21.81
452.443	21.7
452.801	21.66
453.158	21.63
453.515	21.86
453.872	21.91
454.229	21.96
454.586	22.1
454.943	22.18
455.3	22.05
455.657	22.09
456.014	22.25
456.371	22.52
456.727	22.32
457.084	22.48
457.441	22.5
457.797	22.76
458.154	22.79
458.51	22.9
458.867	23.05
459.223	22.73
459.58	22.93
459.936	23.1
460.292	23
460.648	22.9
461.005	22.72
461.361	23.01
461.717	22.86
462.073	22.87
462.429	22.76
462.785	22.9
463.141	23.07
463.496	23.13
463.852	23.55
464.208	23.37
464.564	23.9
464.919	23.72
465.275	23.77
465.631	24.1
465.986	24.2
466.342	23.81
466.697	23.99
467.052	24.15
467.408	24.14
467.763	24.27
468.118	24.33
468.473	24.31
468.829	24.3
469.184	24.35
469.539	24.45
469.894	24.27
470.249	24.86
470.603	24.77
470.958	24.75
471.313	24.81
471.668	25.04
472.023	24.88
472.377	25.19
472.732	24.95
473.086	24.98
473.441	25.04
473.795	25.15
474.15	25.11
474.504	25.42
474.859	25.46
475.213	25.32
475.567	25.17
475.921	25.21
476.275	25.68
476.63	25.7
476.984	25.77
477.338	26.11
477.692	25.72
478.045	25.86
478.399	25.81
478.753	26.02
479.107	25.94
479.461	26.01
479.814	26.18
480.168	26.03
480.521	26.12
480.875	26.06
481.228	26.31
481.582	26.15
481.935	26.3
482.289	26.3
482.642	26.32
482.995	26.39
483.348	26.31
483.701	26.33
484.055	26.5
484.408	26.28
484.761	26.08
485.114	25.9
485.466	25.63
485.819	25.61
486.172	25.46
486.525	25.34
486.878	25.42
487.23	25.63
487.583	25.95
487.936	26.1
488.288	26.24
488.641	26.45
488.993	26.31
489.345	26.18
489.698	26.11
490.05	26.09
490.402	26.16
490.754	26.26
491.107	26.5
491.459	26.77
491.811	27.01
492.163	27.06
492.515	27.21
492.866	27.32
493.218	27.1
493.57	26.87
493.922	26.82
494.274	26.81
494.625	27
494.977	27.28
495.328	27.43
495.68	27.63
496.031	28.06
496.383	28.23
496.734	28.37
497.086	28.34
497.437	28.35
497.788	28.44
498.139	28.28
498.49	28.33
498.842	28.2
499.193	28.51
499.544	28.28
499.894	28.46
500.245	28.51
500.596	28.62
500.947	28.79
501.298	28.74
501.648	28.76
501.999	29.05
502.35	29.07
502.7	29.02
503.051	29.07
503.401	29.35
503.752	29.3
504.102	29.18
504.452	29.42
504.803	29.55
505.153	29.53
505.503	29.53
505.853	29.48
506.203	29.6
506.553	29.6
506.903	29.57
507.253	29.64
507.603	29.59
507.953	29.79
508.303	29.95
508.652	29.81
509.002	29.87
509.352	30.14
509.701	30.08
510.051	29.79
510.4	29.85
510.75	30.04
511.099	30.02
511.449	29.94
511.798	30.04
512.147	30.16
512.496	30.01
512.846	30.16
513.195	30.08
513.544	30.28
513.893	30.32
514.242	30.3
514.591	30.56
514.939	30.27
515.288	30.17
515.637	30.52
515.986	30.61
516.334	30.77
516.683	30.83
517.032	30.87
517.38	30.92
517.729	31.05
518.077	30.89
518.426	31.04
518.774	31.23
519.122	30.99
519.47	30.99
519.819	30.79
520.167	30.72
520.515	30.77
520.863	30.74
521.211	30.57
521.559	31.03
521.907	30.95
522.255	30.93
522.602	31.16
522.95	31.07
523.298	31.28
523.645	31.47
523.993	31.48
524.341	31.88
524.688	31.66
525.036	31.58
525.383	31.59
525.73	31.88
526.078	31.66
526.425	31.73
526.772	31.8
527.119	31.78
527.466	31.49
527.814	31.42
528.161	31.34
528.508	31.41
528.854	31.52
529.201	31.58
529.548	31.49
529.895	31.37
530.242	31.15
530.588	31.09
530.935	31.02
531.282	30.84
531.628	30.86
531.975	31.08
532.321	31.2
532.667	31.54
533.014	31.76
533.36	31.86
533.706	32.08
534.052	32.12
534.399	32.05
534.745	31.9
535.091	31.92
535.437	31.74
535.783	31.67
536.129	31.86
536.474	31.77
536.82	31.88
537.166	32.41
537.512	32.69
537.857	32.6
538.203	32.71
538.549	32.44
538.894	32.44
539.239	32.66
539.585	32.66
539.93	32.81
540.276	32.96
540.621	32.95
540.966	33.34
541.311	33.24
541.656	33.25
542.001	33.33
542.346	33.31
542.691	33.08
543.036	32.88
543.381	32.6
543.726	32.57
544.071	32.56
544.415	32.71
544.76	32.82
545.105	32.88
545.449	33.18
545.794	33.36
546.138	33.39
546.483	33.35
546.827	33.66
547.171	33.6
547.516	33.83
547.86	33.87
548.204	33.95
548.548	33.96
548.892	33.99
549.236	33.94
549.58	34
549.924	34.03
550.268	34.04
550.612	34.31
550.956	34.83
551.3	34.67
551.643	34.72
551.987	35
552.33	34.56
552.674	34.79
553.017	34.88
553.361	35.17
553.704	35.18
554.048	35.14
554.391	34.96
554.734	35.01
555.077	35.02
555.42	34.99
555.764	35.12
556.107	34.92
556.45	34.95
556.793	35.32
557.135	35.44
557.478	35.88
557.821	35.8
558.164	35.74
558.507	35.84
558.849	35.72
559.192	35.93
559.534	35.71
559.877	35.79
560.219	36.17
560.562	36.12
560.904	36.08
561.246	36.24
561.589	36.22
561.931	36.12
562.273	36.18
562.615	36.29
562.957	36.08
563.299	36.16
563.641	36.2
563.983	36.4
564.325	36.15
564.667	36.32
565.008	36.42
565.35	36.52
565.692	36.5
566.033	36.43
566.375	36.81
566.716	36.83
567.058	36.5
567.399	36.56
567.741	36.3
568.082	36.55
568.423	36.46
568.764	36.63
569.105	36.54
569.447	36.26
569.788	36.6
570.129	36.54
570.47	36.6
570.811	36.74
571.151	37.01
571.492	36.99
571.833	37.08
572.174	37.2
572.514	36.94
572.855	37.32
573.195	37.05
573.536	37.22
573.876	36.91
574.217	37.16
574.557	37.1
574.898	37.28
575.238	37.12
575.578	37.18
575.918	37.39
576.258	37.42
576.598	37.62
576.938	37.86
577.278	37.44
577.618	37.69
577.958	37.37
578.298	37.54
578.638	37.46
578.977	37.83
579.317	37.82
579.657	37.73
579.996	38.15
580.336	38.15
580.675	38.14
581.014	38.07
581.354	38.12
581.693	38.15
582.032	38.1
582.372	38.42
582.711	38.47
583.05	38.27
583.389	38.7
583.728	38.37
584.067	38.4
584.406	38.7
584.745	38.65
585.083	38.63
585.422	38.96
585.761	38.99
586.1	38.74
586.438	39.32
586.777	38.86
587.115	39.06
587.454	38.92
587.792	39.2
588.13	39.33
588.469	39.15
588.807	39.12
589.145	39.25
589.483	39.13
589.821	39.26
590.159	39.43
590.497	39.4
590.835	39.6
591.173	39.61
591.511	39.32
591.849	39.19
592.187	39.52
592.524	39.49
592.862	39.29
593.2	39.55
593.537	39.56
593.875	39.63
594.212	39.62
594.55	39.56
594.887	39.6
595.224	39.53
595.561	39.81
595.899	39.51
596.236	40.09
596.573	39.59
596.91	39.51
597.247	39.93
597.584	40.2
597.921	40.19
598.258	39.78
598.594	40.12
598.931	40.09
599.268	40.06
599.604	39.79
599.941	39.77
600.277	39.43
600.614	39.81
600.95	39.89
601.287	40.28
601.623	40.3
601.959	40.34
602.296	40.28
602.632	40.37
602.968	40.72
603.304	40.55
603.64	40.78
603.976	40.65
604.312	40.47
604.648	40.38
604.984	40.68
605.319	40.84
605.655	40.81
605.991	40.77
606.326	40.96
606.662	40.73
606.998	40.35
607.333	40.74
607.668	40.35
608.004	40.71
608.339	40.73
608.674	40.84
609.01	40.8
609.345	40.93
609.68	41.49
610.015	41.12
610.35	41.24
610.685	41.29
611.02	41.19
611.355	41.58
611.689	41.22
612.024	41.04
612.359	40.92
612.694	41.36
613.028	41.16
613.363	41.29
613.697	41.5
614.032	41.79
614.366	41.8
614.7	41.97
615.035	41.91
615.369	41.87
615.703	42.03
616.037	41.92
616.371	41.81
616.705	41.77
617.039	41.94
617.373	42.12
617.707	42.18
618.041	41.91
618.375	42.05
618.709	41.97
619.042	42.77
619.376	42.71
619.71	42.41
620.043	41.83
620.377	42.62
620.71	42.47
621.043	42.4
621.377	42.93
621.71	42.87
622.043	42.08
622.376	42.3
622.709	42.37
623.043	43.09
623.376	42.72
623.709	42.86
624.041	42.68
624.374	43
624.707	43.23
625.04	42.5
625.373	42.57
625.705	43.07
626.038	42.91
626.37	42.56
626.703	43.05
627.035	43.3
627.368	43.54
627.7	43.12
628.032	43.04
628.365	43.51
628.697	42.78
629.029	43.24
629.361	43.04
629.693	43.42
630.025	43.4
630.357	43.51
630.689	43.49
631.021	43.22
631.353	43.27
631.684	42.97
632.016	43.67
632.348	43.8
632.679	44.02
633.011	43.59
633.342	43.79
633.674	43.68
634.005	44.04
634.336	43.45
634.668	43.93
634.999	43.61
635.33	44.58
635.661	44.09
635.992	43.71
636.323	44.07
636.654	43.92
636.985	44.19
637.316	43.59
637.647	43.79
637.977	44
638.308	44.08
638.639	43.79
638.969	44.39
639.3	44.02
639.63	44.38
639.961	44.23
640.291	44.1
640.622	44.49
640.952	44.15
641.282	45.19
641.612	44.86
641.943	44.35
642.273	44.33
642.603	45
642.933	44.68
643.263	44.71
643.592	44.86
643.922	43.98
644.252	44.3
644.582	45.38
644.911	44.54
645.241	44.89
645.571	44.95
645.9	44.73
646.23	45.06
646.559	44.87
646.888	44.62
647.218	45.15
647.547	45.59
647.876	45.1
648.205	45.28
648.534	45.25
648.863	45.89
649.192	45.65
649.521	44.73
649.85	45.31
650.179	45.02
650.508	45.63
650.837	45.28
651.165	45.04
651.494	46.13
651.822	45.9
652.151	45.86
652.479	45.79
652.808	45.72
653.136	46.33
653.465	44.81
653.793	45.51
654.121	46.16
654.449	45.7
654.777	46.08
655.105	45.54
655.433	45.79
655.761	45.92
656.089	46.05
656.417	46.46
656.745	46.09
657.073	45.57
657.4	46.54
657.728	46.72
658.056	46.02
658.383	46.33
658.711	46.49
659.038	46.58
659.365	45.83
659.693	46.74
660.02	46.74
660.347	46.86
660.674	46.24
661.001	46.59
661.329	46.32
661.656	46.42
661.982	46.82
662.309	46.63
662.636	46.29
662.963	46.46
663.29	46.95
663.616	46.64
663.943	46.78
664.27	46.18
664.596	45.88
664.923	47.27
665.249	47.4
665.576	46.97
665.902	47.69
666.228	47.09
666.554	47.29
666.881	47.03
667.207	46.77
667.533	46.77
667.859	47.71
668.185	47.53
668.511	47.4
668.837	47.13
669.162	47.38
669.488	47.36
669.814	47.73
670.139	46.69
670.465	47.41
670.791	47.39
671.116	47.27
671.442	47.79
671.767	47.62
