Data from 0387_chest_Reflection__1__231.txt Node

Date: Fri Dec 15 18:28:08 CST 2023
User: ToomeyLab
Spectrometer: FLMS14357
Trigger mode: 0
Integration Time (sec): 1.000000E-2
Scans to average: 100
Electric dark correction enabled: true
Nonlinearity correction enabled: false
Boxcar width: 0
XAxis mode: Wavelengths
Number of Pixels in Spectrum: 2048
>>>>>Begin Spectral Data<<<<<
189.047	-50.6
189.435	-50.6
189.823	-50.6
190.211	105.5
190.599	-11.37
190.987	94.21
191.375	107.08
191.763	211.17
192.151	150.74
192.538	132.79
192.926	91.68
193.314	83.42
193.702	-31.54
194.089	-99.41
194.477	5.58
194.864	-279.3
195.252	65.12
195.639	49.67
196.027	-345.26
196.414	179.6
196.801	127.5
197.189	101.47
197.576	328.93
197.963	-2.7
198.351	69.97
198.738	-48.48
199.125	25.54
199.512	-75.63
199.899	29.09
200.286	6.72
200.673	-12.81
201.06	3.16
201.447	50.12
201.833	24.34
202.22	29.85
202.607	22.32
202.994	45.9
203.38	64.49
203.767	24.28
204.154	20.89
204.54	25.78
204.927	-61.12
205.313	-117.24
205.699	30.83
206.086	53.33
206.472	13.67
206.858	34.41
207.245	-3.81
207.631	24.02
208.017	30.44
208.403	13.07
208.789	20.37
209.175	4.14
209.561	-20.45
209.947	6.14
210.333	-39.67
210.719	-2
211.105	41.72
211.491	-9.93
211.876	20.77
212.262	43.83
212.648	8.2
213.034	46.77
213.419	-62.78
213.805	27.98
214.19	24.04
214.576	15.41
214.961	-9.43
215.346	-43.81
215.732	-27.53
216.117	23.95
216.502	-4.51
216.888	4.87
217.273	24.14
217.658	-32.87
218.043	-3.41
218.428	-13.74
218.813	-53.74
219.198	-25.26
219.583	20.02
219.968	-18.59
220.353	-13.12
220.738	13.82
221.122	10.42
221.507	-16.2
221.892	-44.23
222.276	-19.44
222.661	23.47
223.046	23.34
223.43	11.09
223.815	13.83
224.199	-2.17
224.583	1.92
224.968	-0.76
225.352	16.63
225.736	-13.81
226.121	-13.37
226.505	1.65
226.889	12.02
227.273	4.84
227.657	13.23
228.041	-2.34
228.425	0.8
228.809	5.52
229.193	6.89
229.577	0.61
229.961	2.67
230.344	3.04
230.728	3.65
231.112	2.45
231.495	3.78
231.879	0.94
232.263	1.59
232.646	3.8
233.03	2.93
233.413	2.68
233.797	5.13
234.18	2.16
234.563	0.7
234.946	1.62
235.33	4.36
235.713	2.58
236.096	4.34
236.479	2.48
236.862	-0.02
237.245	5.12
237.628	3.38
238.011	4.4
238.394	5.34
238.777	2.46
239.16	0.56
239.543	3.17
239.925	4.22
240.308	4.06
240.691	3.94
241.073	3.37
241.456	3.48
241.838	3.6
242.221	3.11
242.603	3.87
242.986	3.51
243.368	3.18
243.75	2.94
244.133	3.2
244.515	3.16
244.897	3.19
245.279	3.39
245.661	3.18
246.043	2.81
246.425	2.31
246.807	4.31
247.189	3.74
247.571	3.62
247.953	3.72
248.335	3.11
248.717	3.48
249.098	3.43
249.48	3.49
249.862	3.16
250.243	3.48
250.625	3.48
251.006	3.62
251.388	2.6
251.769	3.02
252.151	4.01
252.532	3.42
252.913	3.29
253.295	2.75
253.676	3.14
254.057	2.89
254.438	3.3
254.819	3
255.2	3.12
255.581	3.83
255.962	2.43
256.343	3.61
256.724	4.19
257.105	2.61
257.486	2.26
257.867	3.87
258.247	2.34
258.628	2.71
259.009	3.78
259.389	4.27
259.77	3.17
260.15	2.01
260.531	2.57
260.911	3.57
261.292	3.33
261.672	3.38
262.052	3.2
262.432	3.69
262.813	3.55
263.193	3.06
263.573	3.17
263.953	3.15
264.333	3.65
264.713	3.48
265.093	2.92
265.473	3.61
265.853	3.34
266.233	3.52
266.612	1.77
266.992	1.64
267.372	2.92
267.752	3.1
268.131	3.46
268.511	3.06
268.89	3.74
269.27	3.03
269.649	2.45
270.029	3.13
270.408	3.98
270.787	3.11
271.167	3.61
271.546	3.35
271.925	2.46
272.304	3.48
272.683	3.65
273.062	3.4
273.441	3.81
273.82	2.91
274.199	3.19
274.578	3.55
274.957	2.99
275.336	2.98
275.715	2.87
276.093	3
276.472	3.38
276.851	3.06
277.229	2.41
277.608	2.49
277.986	3
278.365	2.48
278.743	2.77
279.122	3.11
279.5	3.63
279.878	3.1
280.257	2.82
280.635	3.05
281.013	2.92
281.391	3.68
281.769	3.37
282.147	3.53
282.525	3.8
282.903	2.75
283.281	3.38
283.659	3.03
284.037	3.16
284.415	3.43
284.792	3.56
285.17	2.48
285.548	2.78
285.925	3.16
286.303	3.4
286.68	2.52
287.058	3.01
287.435	3.07
287.813	2.93
288.19	3.05
288.567	2.93
288.945	3.37
289.322	3.23
289.699	2.94
290.076	3.19
290.453	3.16
290.83	3.35
291.207	2.88
291.584	3.17
291.961	3.57
292.338	2.65
292.715	3.47
293.092	3.55
293.469	3.05
293.845	3.6
294.222	2.98
294.599	2.75
294.975	2.5
295.352	3.09
295.728	3.03
296.105	3.06
296.481	3.43
296.858	3.38
297.234	2.96
297.61	3.45
297.986	3.01
298.363	3.54
298.739	3.43
299.115	3.07
299.491	3.16
299.867	3.02
300.243	3.41
300.619	3.21
300.995	3.36
301.371	3.61
301.746	3.4
302.122	4.17
302.498	3.26
302.874	2.98
303.249	3.35
303.625	3.32
304	3.59
304.376	3.39
304.751	3.18
305.127	4.03
305.502	3.11
305.878	3.01
306.253	3.45
306.628	3.69
307.003	3
307.378	3.5
307.754	3.29
308.129	2.98
308.504	3.48
308.879	3.22
309.254	4.66
309.629	3.85
310.003	3.18
310.378	3.96
310.753	3.45
311.128	3.33
311.502	3.17
311.877	3.78
312.252	2.94
312.626	3.53
313.001	3.44
313.375	3.73
313.75	3.59
314.124	3.69
314.498	3.41
314.873	3.94
315.247	3.89
315.621	3.13
315.995	2.77
316.369	3.81
316.743	2.92
317.117	3.49
317.491	3.63
317.865	4.31
318.239	3.83
318.613	4.14
318.987	4.1
319.361	3.61
319.734	3.7
320.108	3.55
320.482	3
320.855	3.68
321.229	3.51
321.602	3.58
321.976	3.72
322.349	3.14
322.723	3.64
323.096	4.17
323.469	3.47
323.843	3.85
324.216	4.07
324.589	3.25
324.962	4.33
325.335	3.12
325.708	3.7
326.081	3.46
326.454	4.16
326.827	3.93
327.2	4
327.573	3.69
327.945	3.81
328.318	3.85
328.691	2.86
329.063	4.14
329.436	3.36
329.809	3.88
330.181	3.21
330.553	3.71
330.926	3.64
331.298	3.72
331.671	3.75
332.043	4.07
332.415	4.25
332.787	3.8
333.159	4.41
333.532	3.49
333.904	4.11
334.276	3.99
334.648	4.01
335.02	4.06
335.391	3.77
335.763	3.57
336.135	3.56
336.507	4.06
336.879	3.49
337.25	3.24
337.622	3.83
337.993	3.22
338.365	3.73
338.736	3.81
339.108	3.99
339.479	3.58
339.851	4.27
340.222	4.08
340.593	3.85
340.964	3.39
341.336	5.15
341.707	3.8
342.078	3.86
342.449	4.15
342.82	3.79
343.191	4.43
343.562	3.76
343.933	3.83
344.303	3.59
344.674	4.27
345.045	3.98
345.416	3.97
345.786	3.42
346.157	3.71
346.527	3.38
346.898	3.32
347.268	3.83
347.639	3.69
348.009	3.98
348.38	3.99
348.75	4.29
349.12	4.06
349.49	4.63
349.861	3.81
350.231	4.11
350.601	3.73
350.971	4.01
351.341	4.3
351.711	3.94
352.081	3.83
352.45	3.61
352.82	4.01
353.19	3.9
353.56	3.3
353.929	3.96
354.299	3.76
354.669	3.45
355.038	4.08
355.408	4.13
355.777	3.93
356.147	3.79
356.516	4.05
356.885	4.09
357.254	3.73
357.624	4.37
357.993	4.24
358.362	3.61
358.731	3.9
359.1	3.9
359.469	4.02
359.838	4.1
360.207	3.88
360.576	3.6
360.945	4.06
361.314	4.17
361.682	3.89
362.051	3.88
362.42	3.92
362.788	4.06
363.157	4.2
363.525	4.01
363.894	3.93
364.262	3.87
364.631	4.09
364.999	3.85
365.367	3.86
365.735	4.67
366.104	4.02
366.472	4.1
366.84	4.14
367.208	4.3
367.576	4.03
367.944	3.98
368.312	3.69
368.68	4.05
369.048	4.11
369.416	3.79
369.783	3.83
370.151	4.62
370.519	4.11
370.886	3.9
371.254	4.45
371.621	4.02
371.989	4.12
372.356	3.75
372.724	4.23
373.091	3.79
373.458	4.17
373.826	4.1
374.193	3.8
374.56	4.16
374.927	4.1
375.294	4.3
375.661	4
376.028	3.98
376.395	3.86
376.762	4.29
377.129	4.15
377.496	3.89
377.863	3.98
378.229	3.79
378.596	3.89
378.963	3.8
379.329	3.62
379.696	4.36
380.062	4.2
380.429	3.88
380.795	3.8
381.161	4.03
381.528	4.54
381.894	4.22
382.26	3.89
382.626	4.34
382.993	3.66
383.359	4.44
383.725	3.79
384.091	3.94
384.457	4.38
384.823	4.02
385.188	3.94
385.554	4.22
385.92	4.43
386.286	4.38
386.651	4.21
387.017	4.37
387.383	4.28
387.748	4.11
388.114	4.3
388.479	4.02
388.845	4.3
389.21	4.48
389.575	4.08
389.94	4.34
390.306	4.32
390.671	4.42
391.036	3.94
391.401	3.85
391.766	4.26
392.131	3.8
392.496	4.29
392.861	4.37
393.226	4.23
393.591	4.04
393.956	3.87
394.32	4.26
394.685	3.96
395.05	4.14
395.414	4.07
395.779	3.77
396.143	4.28
396.508	4.32
396.872	4.42
397.236	4.18
397.601	3.85
397.965	4.25
398.329	4.22
398.694	4.46
399.058	4.08
399.422	4.01
399.786	3.97
400.15	4.41
400.514	4.3
400.878	4.34
401.242	4.48
401.605	4.05
401.969	4.4
402.333	4.14
402.697	4.22
403.06	4.12
403.424	4.46
403.787	4.23
404.151	4.55
404.514	4.12
404.878	4.05
405.241	4.49
405.604	4.17
405.968	4.37
406.331	4.36
406.694	4.52
407.057	4.26
407.42	4.51
407.783	4.17
408.146	4.39
408.509	4.32
408.872	4.16
409.235	4.37
409.598	4.52
409.961	4.34
410.323	4.48
410.686	4.03
411.049	4.13
411.411	4.24
411.774	4.29
412.136	4.45
412.499	4.43
412.861	4.22
413.223	4.47
413.586	4.5
413.948	4.47
414.31	4.13
414.672	4.33
415.035	3.9
415.397	4.51
415.759	4.03
416.121	4.47
416.483	4.26
416.845	4.14
417.206	4.02
417.568	4.4
417.93	4.26
418.292	4.24
418.653	4.22
419.015	4.34
419.377	4.26
419.738	4.41
420.1	4.28
420.461	4.46
420.822	4.34
421.184	4.4
421.545	4.23
421.906	4.17
422.267	4.18
422.629	4.31
422.99	4.21
423.351	4.26
423.712	4.42
424.073	4.19
424.434	4.2
424.795	4.35
425.155	4.22
425.516	4.21
425.877	4.24
426.238	4.17
426.598	4.39
426.959	4.34
427.32	4.27
427.68	4.17
428.041	4.21
428.401	4.4
428.761	4.42
429.122	4.52
429.482	4.35
429.842	4.52
430.202	4.46
430.563	4.46
430.923	4.34
431.283	4.45
431.643	4.26
432.003	4.33
432.363	4.48
432.722	4.49
433.082	4.44
433.442	4.5
433.802	4.31
434.161	4.51
434.521	4.45
434.881	4.53
435.24	4.39
435.6	4.54
435.959	4.37
436.319	4.31
436.678	4.31
437.037	4.46
437.396	4.57
437.756	4.45
438.115	4.18
438.474	4.58
438.833	4.22
439.192	4.31
439.551	4.56
439.91	4.38
440.269	4.42
440.628	4.2
440.987	4.51
441.345	4.28
441.704	4.56
442.063	4.4
442.421	4.24
442.78	4.47
443.138	4.42
443.497	4.39
443.855	4.45
444.214	4.42
444.572	4.49
444.93	4.46
445.288	4.52
445.647	4.6
446.005	4.45
446.363	4.54
446.721	4.63
447.079	4.25
447.437	4.36
447.795	4.45
448.153	4.37
448.51	4.48
448.868	4.44
449.226	4.36
449.584	4.44
449.941	4.54
450.299	4.49
450.656	4.52
451.014	4.51
451.371	4.55
451.729	4.39
452.086	4.77
452.443	4.66
452.801	4.67
453.158	4.56
453.515	4.5
453.872	4.74
454.229	4.51
454.586	4.48
454.943	4.41
455.3	4.5
455.657	4.47
456.014	4.5
456.371	4.55
456.727	4.56
457.084	4.75
457.441	4.71
457.797	4.6
458.154	4.54
458.51	4.7
458.867	4.71
459.223	4.75
459.58	4.72
459.936	4.75
460.292	4.76
460.648	4.46
461.005	4.57
461.361	4.57
461.717	4.49
462.073	4.43
462.429	4.56
462.785	4.51
463.141	4.48
463.496	4.57
463.852	4.6
464.208	4.62
464.564	4.75
464.919	4.55
465.275	4.62
465.631	4.91
465.986	4.79
466.342	4.62
466.697	4.55
467.052	4.63
467.408	4.7
467.763	4.72
468.118	4.83
468.473	4.61
468.829	4.84
469.184	4.58
469.539	4.69
469.894	4.63
470.249	4.72
470.603	4.78
470.958	4.76
471.313	4.93
471.668	4.74
472.023	4.71
472.377	4.68
472.732	4.72
473.086	4.62
473.441	4.54
473.795	4.83
474.15	4.82
474.504	4.65
474.859	4.7
475.213	4.71
475.567	4.73
475.921	4.74
476.275	4.81
476.63	4.88
476.984	4.93
477.338	4.81
477.692	4.51
478.045	4.67
478.399	4.83
478.753	4.81
479.107	4.7
479.461	4.65
479.814	4.71
480.168	4.68
480.521	4.65
480.875	4.8
481.228	4.64
481.582	4.77
481.935	4.72
482.289	4.66
482.642	4.68
482.995	4.6
483.348	4.68
483.701	4.73
484.055	4.72
484.408	4.75
484.761	4.56
485.114	4.52
485.466	4.41
485.819	4.43
486.172	4.45
486.525	4.47
486.878	4.57
487.23	4.58
487.583	4.72
487.936	4.74
488.288	4.6
488.641	4.63
488.993	4.58
489.345	4.52
489.698	4.57
490.05	4.53
490.402	4.58
490.754	4.64
491.107	4.69
491.459	4.71
491.811	4.71
492.163	4.77
492.515	4.72
492.866	4.8
493.218	4.62
493.57	4.58
493.922	4.61
494.274	4.74
494.625	4.77
494.977	4.81
495.328	4.87
495.68	4.87
496.031	5.03
496.383	4.87
496.734	5.12
497.086	4.9
497.437	5
497.788	4.91
498.139	4.82
498.49	4.86
498.842	4.7
499.193	4.83
499.544	4.86
499.894	4.85
500.245	4.88
500.596	4.93
500.947	4.95
501.298	4.92
501.648	5.07
501.999	5.08
502.35	5.02
502.7	5.06
503.051	4.83
503.401	4.82
503.752	5.05
504.102	4.85
504.452	5.03
504.803	5.1
505.153	4.99
505.503	5
505.853	5.01
506.203	5.02
506.553	4.95
506.903	4.96
507.253	4.97
507.603	4.79
507.953	5.15
508.303	5.19
508.652	4.94
509.002	5.07
509.352	5.2
509.701	4.98
510.051	5
510.4	4.97
510.75	5.06
511.099	5.03
511.449	4.93
511.798	5.13
512.147	5.03
512.496	4.99
512.846	5.05
513.195	5.06
513.544	4.97
513.893	5.1
514.242	5.02
514.591	5.27
514.939	5.07
515.288	5.1
515.637	5.28
515.986	5.11
516.334	5.15
516.683	5.22
517.032	5.31
517.38	5.34
517.729	5.18
518.077	5.05
518.426	5.31
518.774	5.36
519.122	5.21
519.47	5.22
519.819	5.05
520.167	5.13
520.515	5.17
520.863	5.08
521.211	5.2
521.559	5.23
521.907	5.19
522.255	5.2
522.602	5.23
522.95	5.23
523.298	5.15
523.645	5.35
523.993	5.22
524.341	5.38
524.688	5.47
525.036	5.44
525.383	5.37
525.73	5.54
526.078	5.35
526.425	5.32
526.772	5.48
527.119	5.27
527.466	5.12
527.814	5.37
528.161	5.32
528.508	5.33
528.854	5.36
529.201	5.23
529.548	5.28
529.895	5.3
530.242	5.11
530.588	5.08
530.935	5.11
531.282	5.21
531.628	5.22
531.975	5.32
532.321	5.36
532.667	5.45
533.014	5.51
533.36	5.44
533.706	5.48
534.052	5.45
534.399	5.38
534.745	5.34
535.091	5.35
535.437	5.35
535.783	5.38
536.129	5.56
536.474	5.43
536.82	5.51
537.166	5.63
537.512	5.51
537.857	5.51
538.203	5.61
538.549	5.51
538.894	5.45
539.239	5.58
539.585	5.66
539.93	5.57
540.276	5.72
540.621	5.8
540.966	5.75
541.311	5.73
541.656	5.58
542.001	5.65
542.346	5.75
542.691	5.49
543.036	5.66
543.381	5.44
543.726	5.57
544.071	5.62
544.415	5.74
544.76	5.7
545.105	5.75
545.449	5.72
545.794	5.87
546.138	5.94
546.483	5.87
546.827	5.89
547.171	5.92
547.516	6.05
547.86	5.93
548.204	5.86
548.548	5.91
548.892	6.1
549.236	5.95
549.58	5.98
549.924	6.19
550.268	6.14
550.612	6.26
550.956	6.35
551.3	6.24
551.643	6.28
551.987	6.22
552.33	6.27
552.674	6.23
553.017	6.29
553.361	6.21
553.704	6.31
554.048	6.14
554.391	6.28
554.734	6.31
555.077	6.33
555.42	6.07
555.764	6.19
556.107	6.23
556.45	6.22
556.793	6.42
557.135	6.47
557.478	6.75
557.821	6.54
558.164	6.46
558.507	6.56
558.849	6.25
559.192	6.5
559.534	6.62
559.877	6.68
560.219	6.56
560.562	6.81
560.904	6.73
561.246	6.44
561.589	6.68
561.931	6.66
562.273	6.44
562.615	6.66
562.957	6.6
563.299	6.58
563.641	6.72
563.983	6.85
564.325	6.79
564.667	6.75
565.008	6.72
565.35	6.96
565.692	6.64
566.033	6.89
566.375	6.84
566.716	7.03
567.058	6.83
567.399	6.9
567.741	6.9
568.082	6.89
568.423	6.89
568.764	6.86
569.105	6.99
569.447	7.09
569.788	7.18
570.129	7.17
570.47	7.11
570.811	7.17
571.151	7.2
571.492	7.16
571.833	7.09
572.174	7.15
572.514	7.28
572.855	7.25
573.195	7.18
573.536	7.22
573.876	7.15
574.217	7.06
574.557	7.41
574.898	7.52
575.238	7.41
575.578	7.44
575.918	7.55
576.258	7.44
576.598	7.68
576.938	7.57
577.278	7.62
577.618	7.4
577.958	7.51
578.298	7.68
578.638	7.66
578.977	7.43
579.317	7.52
579.657	7.57
579.996	7.7
580.336	7.7
580.675	7.68
581.014	7.54
581.354	7.73
581.693	7.9
582.032	7.62
582.372	7.81
582.711	8
583.05	8.03
583.389	7.82
583.728	7.71
584.067	7.98
584.406	8.23
584.745	8.05
585.083	8.34
585.422	8.13
585.761	8.21
586.1	8.07
586.438	8.14
586.777	8.56
587.115	8.28
587.454	8.46
587.792	8.31
588.13	8.36
588.469	8.37
588.807	8.49
589.145	8.19
589.483	8.35
589.821	8.47
590.159	8.52
590.497	8.71
590.835	8.63
591.173	8.4
591.511	8.71
591.849	8.79
592.187	8.84
592.524	8.56
592.862	8.5
593.2	8.69
593.537	8.82
593.875	8.49
594.212	8.8
594.55	8.57
594.887	8.74
595.224	8.79
595.561	8.88
595.899	8.92
596.236	9.1
596.573	9.01
596.91	8.54
597.247	8.84
597.584	9.04
597.921	9.08
598.258	9.05
598.594	9.25
598.931	9.04
599.268	9.14
599.604	8.92
599.941	9.37
600.277	9.23
600.614	9.21
600.95	9.12
601.287	9.24
601.623	9.52
601.959	9.14
602.296	9.31
602.632	9.43
602.968	9.58
603.304	9.56
603.64	9.6
603.976	9.43
604.312	9.31
604.648	9.58
604.984	9.57
605.319	9.77
605.655	9.67
605.991	9.74
606.326	9.77
606.662	9.75
606.998	9.49
607.333	9.89
607.668	9.9
608.004	10.03
608.339	10.05
608.674	10.05
609.01	9.86
609.345	9.8
609.68	10.27
610.015	9.63
610.35	10.28
610.685	10.05
611.02	10.12
611.355	10.21
611.689	10.06
612.024	10.14
612.359	10.28
612.694	10.38
613.028	10.38
613.363	10.86
613.697	10.45
614.032	10.23
614.366	10.54
614.7	10.61
615.035	10.53
615.369	10.64
615.703	10.91
616.037	10.76
616.371	10.25
616.705	10.6
617.039	10.69
617.373	10.73
617.707	10.61
618.041	10.62
618.375	10.7
618.709	11.03
619.042	11.11
619.376	11.07
619.71	11.13
620.043	11
620.377	10.78
620.71	10.8
621.043	10.99
621.377	11.57
621.71	11.43
622.043	10.82
622.376	10.78
622.709	11.48
623.043	11.39
623.376	10.99
623.709	11.52
624.041	11.6
624.374	11.43
624.707	11.4
625.04	11.7
625.373	11.14
625.705	11.41
626.038	11.45
626.37	11.75
626.703	11.28
627.035	11.86
627.368	11.74
627.7	11.78
628.032	11.83
628.365	12.1
628.697	11.77
629.029	11.54
629.361	11.89
629.693	11.94
630.025	11.93
630.357	12.01
630.689	11.98
631.021	12.11
631.353	12.15
631.684	12.12
632.016	12.04
632.348	12.23
632.679	12.16
633.011	12.35
633.342	12.43
633.674	11.95
634.005	12.39
634.336	12.48
634.668	12.92
634.999	12.31
635.33	12.97
635.661	12.79
635.992	12.55
636.323	12.79
636.654	12.73
636.985	12.5
637.316	12.84
637.647	12.39
637.977	12.79
638.308	13.07
638.639	12.75
638.969	12.88
639.3	12.68
639.63	12.49
639.961	13.15
640.291	12.85
640.622	13.38
640.952	13.28
641.282	13.48
641.612	13.2
641.943	13.01
642.273	13.29
642.603	13.82
642.933	13.61
643.263	13.27
643.592	13.48
643.922	13.06
644.252	13.53
644.582	13.51
644.911	13.16
645.241	13.28
645.571	12.99
645.9	13.57
646.23	13.73
646.559	13.95
646.888	13.72
647.218	13.6
647.547	14.09
647.876	13.1
648.205	13.69
648.534	13.78
648.863	13.68
649.192	14.18
649.521	13.95
649.85	13.58
650.179	14.08
650.508	13.9
650.837	14.11
651.165	13.89
651.494	14.58
651.822	14.43
652.151	14.24
652.479	14.02
652.808	14.28
653.136	14.14
653.465	14.18
653.793	13.98
654.121	14.59
654.449	15.18
654.777	14.8
655.105	14.3
655.433	14.67
655.761	14.36
656.089	14.91
656.417	14.68
656.745	14.92
657.073	14.85
657.4	15.41
657.728	15.08
658.056	14.84
658.383	14.72
658.711	15.46
659.038	15.57
659.365	15.01
659.693	14.87
660.02	15.58
660.347	15.07
660.674	15.45
661.001	15.49
661.329	14.9
661.656	15.31
661.982	15.56
662.309	15.61
662.636	15.25
662.963	15.84
663.29	15.95
663.616	15.71
663.943	15.33
664.27	15.82
664.596	16.03
664.923	15.85
665.249	15.98
665.576	15.79
665.902	16.29
666.228	15.81
666.554	16.17
666.881	15.69
667.207	16.4
667.533	15.7
667.859	16.38
668.185	16.57
668.511	15.67
668.837	15.58
669.162	16.22
669.488	15.83
669.814	16.6
670.139	16.54
670.465	16.3
670.791	17.32
671.116	16.71
671.442	16.43
671.767	16.66
672.092	17.01
672.418	16.48
672.743	16.54
673.068	16.75
673.393	16.97
673.718	16.83
674.043	16.65
674.368	17.14
674.693	17.62
675.018	16.49
675.343	16.52
675.667	16.48
675.992	16.66
676.317	17
676.641	17.2
676.966	17.32
677.29	16.58
677.615	17.27
677.939	17.44
678.264	17.67
678.588	18.13
678.912	16.29
679.236	17.73
679.56	17.22
679.885	17.48
680.209	17.96
680.532	17.36
680.856	18.29
681.18	17.59
681.504	17.45
681.828	17.83
682.152	17.43
682.475	18.11
682.799	17.88
683.122	18.33
683.446	18
683.769	17.78
684.093	17.98
684.416	18.33
684.739	17.84
685.062	18.64
685.386	18.84
685.709	17.99
686.032	17.89
686.355	18.87
686.678	18.44
687.001	18.74
