Data from 0387_chest_Reflection__3__233.txt Node

Date: Fri Dec 15 18:28:27 CST 2023
User: ToomeyLab
Spectrometer: FLMS14357
Trigger mode: 0
Integration Time (sec): 1.000000E-2
Scans to average: 100
Electric dark correction enabled: true
Nonlinearity correction enabled: false
Boxcar width: 0
XAxis mode: Wavelengths
Number of Pixels in Spectrum: 2048
>>>>>Begin Spectral Data<<<<<
189.047	-40.47
189.435	-40.47
189.823	-40.47
190.211	-438.7
190.599	-96.06
190.987	263.3
191.375	223.39
191.763	-91.3
192.151	-4.4
192.538	89.92
192.926	62.93
193.314	73.88
193.702	60.87
194.089	3.91
194.477	40.15
194.864	191.3
195.252	113.37
195.639	95.46
196.027	1089.43
196.414	43.55
196.801	9.62
197.189	24.1
197.576	209.33
197.963	-134.34
198.351	-435.61
198.738	-15.29
199.125	49.51
199.512	-55.17
199.899	48.37
200.286	-4.11
200.673	14.6
201.06	-22.44
201.447	-11.76
201.833	51.66
202.22	35.64
202.607	76.48
202.994	-0.05
203.38	-23.93
203.767	23.24
204.154	14.87
204.54	11.25
204.927	-54.45
205.313	-99.12
205.699	10.35
206.086	49.22
206.472	18.54
206.858	19.23
207.245	-32.2
207.631	30.12
208.017	22.33
208.403	0.09
208.789	35.79
209.175	45.51
209.561	-13.91
209.947	-16.82
210.333	-46.71
210.719	-28.42
211.105	21.53
211.491	-71.03
211.876	-20.89
212.262	31.07
212.648	-3.62
213.034	15.07
213.419	-11.19
213.805	-11.31
214.19	-68.76
214.576	-10.35
214.961	-30.51
215.346	-74.09
215.732	-7.54
216.117	0.97
216.502	-57.76
216.888	4.88
217.273	17.12
217.658	-6.93
218.043	14.75
218.428	-15.39
218.813	-33.2
219.198	-62.92
219.583	-13.84
219.968	9.8
220.353	-7.74
220.738	21.92
221.122	6.54
221.507	-16.08
221.892	-19.74
222.276	-26.73
222.661	-3.15
223.046	-2.57
223.43	0.29
223.815	0.85
224.199	-21.11
224.583	0.44
224.968	0.69
225.352	15.19
225.736	-6.17
226.121	-10.12
226.505	4.67
226.889	7.31
227.273	0.07
227.657	8.29
228.041	0.82
228.425	-1.45
228.809	2.5
229.193	5.36
229.577	0.51
229.961	2.96
230.344	2.56
230.728	2.25
231.112	3.14
231.495	2.48
231.879	1.09
232.263	1.58
232.646	2.19
233.03	2.5
233.413	1.56
233.797	2.82
234.18	1.98
234.563	3.17
234.946	2.15
235.33	4.62
235.713	2.02
236.096	2.8
236.479	4.12
236.862	2.2
237.245	4.31
237.628	0.42
238.011	3.27
238.394	5.16
238.777	2.68
239.16	0.03
239.543	4.22
239.925	2.63
240.308	1.3
240.691	3.05
241.073	2.7
241.456	2.31
241.838	1.7
242.221	2.52
242.603	3.16
242.986	3.21
243.368	3.63
243.75	3.1
244.133	2.31
244.515	3.25
244.897	3.42
245.279	2.77
245.661	2.68
246.043	1.09
246.425	1.92
246.807	4.64
247.189	3.41
247.571	3.52
247.953	2.76
248.335	3
248.717	3.53
249.098	3.04
249.48	3.13
249.862	2.97
250.243	2.89
250.625	3.35
251.006	3.97
251.388	1.55
251.769	2.88
252.151	2.93
252.532	3.29
252.913	1.85
253.295	2.21
253.676	2.05
254.057	3.32
254.438	3.05
254.819	2.61
255.2	2
255.581	3.22
255.962	0.95
256.343	2.47
256.724	2.44
257.105	2.55
257.486	1.87
257.867	3.38
258.247	2.11
258.628	2.82
259.009	3.2
259.389	3.69
259.77	2.48
260.15	2.78
260.531	2.24
260.911	3.51
261.292	3.01
261.672	2.99
262.052	3.14
262.432	3.46
262.813	2.89
263.193	2.89
263.573	2.71
263.953	2.71
264.333	2.85
264.713	2.73
265.093	2.98
265.473	3.1
265.853	2.98
266.233	3.53
266.612	1.72
266.992	1.97
267.372	2.66
267.752	2.48
268.131	2.7
268.511	3.82
268.89	3.25
269.27	2.49
269.649	2.31
270.029	2.81
270.408	4.08
270.787	3.42
271.167	3.15
271.546	3.15
271.925	2.07
272.304	2.71
272.683	3.66
273.062	2.69
273.441	3.1
273.82	2.19
274.199	2.73
274.578	3.1
274.957	2.98
275.336	2.77
275.715	2.79
276.093	3
276.472	3.1
276.851	2.69
277.229	2.27
277.608	2.55
277.986	2.46
278.365	2.75
278.743	2.3
279.122	3.02
279.5	2.08
279.878	3.55
280.257	2.81
280.635	2.36
281.013	2.76
281.391	3.71
281.769	2.58
282.147	3.26
282.525	3.64
282.903	3.18
283.281	3.49
283.659	3.24
284.037	2.88
284.415	2.76
284.792	3.13
285.17	2.29
285.548	3.31
285.925	2.72
286.303	2.5
286.68	2.7
287.058	2.93
287.435	3.03
287.813	2.88
288.19	2.8
288.567	2.89
288.945	2.95
289.322	2.68
289.699	3.07
290.076	2.61
290.453	2.48
290.83	2.59
291.207	2.34
291.584	3.01
291.961	3.13
292.338	2.94
292.715	3.5
293.092	2.9
293.469	2.72
293.845	3.23
294.222	2.74
294.599	3.02
294.975	2.55
295.352	2.99
295.728	2.64
296.105	3.02
296.481	3.15
296.858	3.43
297.234	3.28
297.61	2.47
297.986	3.48
298.363	3.25
298.739	3.34
299.115	3.01
299.491	2.91
299.867	3.26
300.243	3.18
300.619	2.74
300.995	3.17
301.371	3.46
301.746	3.56
302.122	3.88
302.498	3.07
302.874	3.4
303.249	3.74
303.625	3.32
304	3.75
304.376	2.93
304.751	2.31
305.127	3.37
305.502	3.21
305.878	2.64
306.253	3.37
306.628	3.71
307.003	3.63
307.378	3.92
307.754	3.12
308.129	2.8
308.504	3.47
308.879	3.36
309.254	4.09
309.629	3.59
310.003	3.31
310.378	4.12
310.753	4.29
311.128	3.72
311.502	3.34
311.877	3.83
312.252	3.43
312.626	3.43
313.001	3.17
313.375	3.91
313.75	2.93
314.124	3.73
314.498	3.21
314.873	3.64
315.247	3.38
315.621	3.44
315.995	3.11
316.369	3.47
316.743	3.42
317.117	3.41
317.491	3.37
317.865	3.51
318.239	4.29
318.613	3.34
318.987	3.57
319.361	2.98
319.734	4.18
320.108	4.01
320.482	3.66
320.855	3.94
321.229	3.85
321.602	3.7
321.976	3.62
322.349	2.96
322.723	3.72
323.096	4.2
323.469	2.66
323.843	3.66
324.216	4.27
324.589	3.15
324.962	3.96
325.335	3.35
325.708	4.09
326.081	3.37
326.454	3.97
326.827	3.84
327.2	3.74
327.573	3.84
327.945	3.59
328.318	3.78
328.691	3.16
329.063	3.32
329.436	4
329.809	4.16
330.181	3.72
330.553	3.64
330.926	3.81
331.298	4.25
331.671	3.81
332.043	3.94
332.415	4.2
332.787	3.74
333.159	4.71
333.532	4.19
333.904	3.41
334.276	3.92
334.648	3.07
335.02	3.48
335.391	4.1
335.763	3.57
336.135	3.53
336.507	4.39
336.879	3.19
337.25	3.64
337.622	3.72
337.993	3.91
338.365	4.3
338.736	3.89
339.108	4.39
339.479	3.94
339.851	3.97
340.222	3.81
340.593	3.77
340.964	3.77
341.336	4.29
341.707	3.63
342.078	3.98
342.449	4.05
342.82	4.02
343.191	4.12
343.562	4.2
343.933	4.36
344.303	4.1
344.674	4.11
345.045	4.24
345.416	4.08
345.786	4.1
346.157	3.74
346.527	3.4
346.898	3.1
347.268	4.3
347.639	4.08
348.009	4.14
348.38	3.81
348.75	4.13
349.12	3.74
349.49	4.21
349.861	4.08
350.231	3.83
350.601	4.06
350.971	4.2
351.341	4.11
351.711	4.21
352.081	3.64
352.45	3.58
352.82	4.1
353.19	4.15
353.56	3.87
353.929	4.04
354.299	3.84
354.669	3.5
355.038	3.97
355.408	4.03
355.777	3.97
356.147	4.03
356.516	4.08
356.885	4.15
357.254	4.12
357.624	4.5
357.993	4.19
358.362	3.99
358.731	3.75
359.1	3.85
359.469	4.25
359.838	4.25
360.207	3.81
360.576	3.89
360.945	4.2
361.314	4.07
361.682	3.67
362.051	3.9
362.42	4.17
362.788	4.05
363.157	4.15
363.525	4.18
363.894	4.29
364.262	4.12
364.631	4.01
364.999	4.21
365.367	3.73
365.735	4.53
366.104	4.19
366.472	4.34
366.84	3.84
367.208	3.95
367.576	4.29
367.944	4.34
368.312	4.13
368.68	3.87
369.048	4.28
369.416	4.04
369.783	4.08
370.151	4.16
370.519	4.42
370.886	4.23
371.254	4.14
371.621	4.37
371.989	4.29
372.356	3.68
372.724	4.52
373.091	4.16
373.458	4.1
373.826	4.51
374.193	4.13
374.56	4.47
374.927	4.29
375.294	4.15
375.661	4.21
376.028	4.03
376.395	3.76
376.762	4.45
377.129	4.05
377.496	4.23
377.863	4.23
378.229	3.8
378.596	4.45
378.963	4.16
379.329	4.09
379.696	4.2
380.062	4.23
380.429	4.25
380.795	4.02
381.161	4.21
381.528	4.57
381.894	4.03
382.26	4.06
382.626	4.41
382.993	4.06
383.359	4.76
383.725	3.96
384.091	4.21
384.457	4.22
384.823	4.52
385.188	4.44
385.554	4.22
385.92	4.29
386.286	4.49
386.651	4.39
387.017	4.66
387.383	4.39
387.748	4.07
388.114	4.59
388.479	4.19
388.845	4.46
389.21	4.16
389.575	4.45
389.94	4.13
390.306	4.58
390.671	4.54
391.036	3.79
391.401	3.8
391.766	4.28
392.131	4.03
392.496	4.67
392.861	4.23
393.226	4.64
393.591	4.29
393.956	4.38
394.32	4.34
394.685	4.14
395.05	4.14
395.414	4.27
395.779	4.12
396.143	4.49
396.508	4.55
396.872	4.24
397.236	4.42
397.601	4.38
397.965	4.56
398.329	4.72
398.694	4.68
399.058	4.55
399.422	4.09
399.786	4.71
400.15	4.51
400.514	4.68
400.878	4.46
401.242	4.65
401.605	4.63
401.969	4.71
402.333	4.64
402.697	4.44
403.06	4.34
403.424	4.48
403.787	4.56
404.151	4.44
404.514	4.57
404.878	4.57
405.241	4.66
405.604	4.37
405.968	4.45
406.331	4.45
406.694	4.48
407.057	4.41
407.42	4.48
407.783	4.35
408.146	4.23
408.509	4.3
408.872	4.17
409.235	4.45
409.598	4.62
409.961	4.76
410.323	4.78
410.686	4.41
411.049	4.25
411.411	4.51
411.774	4.57
412.136	4.6
412.499	4.56
412.861	4.4
413.223	4.39
413.586	4.66
413.948	4.72
414.31	4.61
414.672	4.45
415.035	4.32
415.397	5.06
415.759	4.04
416.121	4.83
416.483	4.28
416.845	4.46
417.206	4.6
417.568	4.56
417.93	4.54
418.292	4.54
418.653	4.55
419.015	4.51
419.377	4.5
419.738	4.65
420.1	4.56
420.461	4.62
420.822	4.73
421.184	4.46
421.545	4.6
421.906	4.43
422.267	4.53
422.629	4.5
422.99	4.45
423.351	4.5
423.712	4.57
424.073	4.54
424.434	4.43
424.795	4.3
425.155	4.67
425.516	4.48
425.877	4.47
426.238	4.41
426.598	4.63
426.959	4.55
427.32	4.52
427.68	4.46
428.041	4.47
428.401	4.64
428.761	4.55
429.122	4.72
429.482	4.57
429.842	4.74
430.202	4.6
430.563	4.68
430.923	4.58
431.283	4.8
431.643	4.62
432.003	4.7
432.363	4.69
432.722	4.49
433.082	4.56
433.442	4.65
433.802	4.48
434.161	4.65
434.521	4.87
434.881	4.76
435.24	4.58
435.6	4.66
435.959	4.61
436.319	4.72
436.678	4.61
437.037	4.78
437.396	4.68
437.756	4.81
438.115	4.59
438.474	4.89
438.833	4.47
439.192	4.57
439.551	4.85
439.91	4.78
440.269	4.71
440.628	4.65
440.987	4.74
441.345	4.59
441.704	4.65
442.063	4.63
442.421	4.75
442.78	4.8
443.138	4.63
443.497	4.6
443.855	4.65
444.214	4.87
444.572	4.83
444.93	4.75
445.288	4.77
445.647	4.95
446.005	4.74
446.363	4.9
446.721	4.8
447.079	4.54
447.437	4.67
447.795	4.61
448.153	4.58
448.51	4.71
448.868	4.7
449.226	4.72
449.584	4.8
449.941	4.91
450.299	4.69
450.656	4.78
451.014	4.87
451.371	4.84
451.729	4.82
452.086	4.91
452.443	4.82
452.801	4.91
453.158	4.86
453.515	4.79
453.872	4.96
454.229	5.03
454.586	4.84
454.943	4.9
455.3	4.94
455.657	4.89
456.014	4.87
456.371	4.81
456.727	5.1
457.084	4.93
457.441	4.88
457.797	4.84
458.154	5.14
458.51	4.93
458.867	5.1
459.223	5.11
459.58	5.03
459.936	5
460.292	4.93
460.648	4.98
461.005	4.84
461.361	4.92
461.717	4.91
462.073	4.72
462.429	4.85
462.785	4.9
463.141	4.89
463.496	5.05
463.852	5.03
464.208	5.1
464.564	5.05
464.919	5.03
465.275	5.2
465.631	5.28
465.986	4.94
466.342	5.07
466.697	4.87
467.052	5.19
467.408	5.15
467.763	5.17
468.118	5.12
468.473	5.07
468.829	5.13
469.184	5.03
469.539	5.22
469.894	4.92
470.249	5.25
470.603	5.2
470.958	5.23
471.313	5.19
471.668	5.27
472.023	5.18
472.377	5.16
472.732	5.15
473.086	4.99
473.441	5.03
473.795	5.37
474.15	5.07
474.504	4.89
474.859	5.14
475.213	4.85
475.567	5.16
475.921	4.93
476.275	5.15
476.63	5.17
476.984	5.11
477.338	5.18
477.692	5.05
478.045	5.02
478.399	5.27
478.753	5.28
479.107	5.12
479.461	5.16
479.814	5.1
480.168	5.17
480.521	5.23
480.875	5.09
481.228	5.16
481.582	5.13
481.935	5.17
482.289	5.13
482.642	5.21
482.995	5.23
483.348	5.07
483.701	5.17
484.055	5.13
484.408	5.16
484.761	5.11
485.114	4.96
485.466	4.79
485.819	4.84
486.172	4.83
486.525	4.91
486.878	5
487.23	5.03
487.583	5.17
487.936	5.13
488.288	5.08
488.641	5.08
488.993	5.02
489.345	4.95
489.698	4.96
490.05	4.98
490.402	5.08
490.754	5.1
491.107	5.21
491.459	5.26
491.811	5.22
492.163	5.17
492.515	5.2
492.866	5.28
493.218	5.06
493.57	4.99
493.922	5.1
494.274	5.23
494.625	5.24
494.977	5.27
495.328	5.43
495.68	5.41
496.031	5.5
496.383	5.33
496.734	5.59
497.086	5.39
497.437	5.43
497.788	5.29
498.139	5.28
498.49	5.38
498.842	5.19
499.193	5.37
499.544	5.44
499.894	5.33
500.245	5.37
500.596	5.39
500.947	5.34
501.298	5.26
501.648	5.5
501.999	5.37
502.35	5.34
502.7	5.45
503.051	5.44
503.401	5.41
503.752	5.53
504.102	5.44
504.452	5.36
504.803	5.42
505.153	5.59
505.503	5.61
505.853	5.53
506.203	5.32
506.553	5.46
506.903	5.56
507.253	5.51
507.603	5.45
507.953	5.66
508.303	5.67
508.652	5.49
509.002	5.65
509.352	5.67
509.701	5.52
510.051	5.36
510.4	5.47
510.75	5.56
511.099	5.53
511.449	5.5
511.798	5.53
512.147	5.67
512.496	5.55
512.846	5.7
513.195	5.55
513.544	5.66
513.893	5.58
514.242	5.57
514.591	5.8
514.939	5.7
515.288	5.55
515.637	5.79
515.986	5.87
516.334	5.86
516.683	5.81
517.032	5.88
517.38	5.84
517.729	6
518.077	5.63
518.426	5.7
518.774	5.72
519.122	5.69
519.47	5.8
519.819	5.68
520.167	5.7
520.515	5.71
520.863	5.82
521.211	5.79
521.559	5.87
521.907	5.78
522.255	5.83
522.602	5.82
522.95	5.8
523.298	5.98
523.645	5.89
523.993	5.78
524.341	6.03
524.688	5.95
525.036	5.82
525.383	5.9
525.73	6
526.078	5.96
526.425	5.9
526.772	6
527.119	5.81
527.466	5.79
527.814	5.92
528.161	5.86
528.508	5.88
528.854	5.91
529.201	5.79
529.548	5.75
529.895	5.79
530.242	5.66
530.588	5.68
530.935	5.71
531.282	5.81
531.628	5.85
531.975	5.91
532.321	5.96
532.667	6.07
533.014	6.15
533.36	6.09
533.706	6.11
534.052	6.04
534.399	5.96
534.745	5.96
535.091	5.88
535.437	5.99
535.783	6.02
536.129	6.17
536.474	6.13
536.82	6.08
537.166	6.27
537.512	6.23
537.857	6.08
538.203	6.21
538.549	6.22
538.894	6.05
539.239	6.24
539.585	6.35
539.93	6.3
540.276	6.32
540.621	6.41
540.966	6.36
541.311	6.32
541.656	6.29
542.001	6.29
542.346	6.43
542.691	6.21
543.036	6.09
543.381	6.08
543.726	6.18
544.071	6.33
544.415	6.42
544.76	6.34
545.105	6.42
545.449	6.42
545.794	6.56
546.138	6.56
546.483	6.64
546.827	6.62
547.171	6.62
547.516	6.61
547.86	6.56
548.204	6.47
548.548	6.57
548.892	6.58
549.236	6.62
549.58	6.53
549.924	6.76
550.268	6.82
550.612	6.92
550.956	6.95
551.3	6.84
551.643	6.89
551.987	7.01
552.33	6.98
552.674	6.94
553.017	6.95
553.361	6.87
553.704	7.11
554.048	6.91
554.391	6.85
554.734	6.82
555.077	7.08
555.42	6.86
555.764	6.96
556.107	6.99
556.45	7.01
556.793	7.18
557.135	7.12
557.478	7.24
557.821	7.25
558.164	7.04
558.507	7.1
558.849	7.2
559.192	7.38
559.534	7.41
559.877	7.25
560.219	7.26
560.562	7.42
560.904	7.44
561.246	7.35
561.589	7.35
561.931	7.34
562.273	7.42
562.615	7.49
562.957	7.38
563.299	7.32
563.641	7.18
563.983	7.48
564.325	7.25
564.667	7.37
565.008	7.49
565.35	7.4
565.692	7.47
566.033	7.51
566.375	7.86
566.716	7.85
567.058	7.62
567.399	7.48
567.741	7.39
568.082	7.58
568.423	7.68
568.764	7.65
569.105	7.81
569.447	7.89
569.788	7.75
570.129	7.72
570.47	7.79
570.811	7.85
571.151	7.94
571.492	7.85
571.833	7.88
572.174	8.03
572.514	7.83
572.855	7.88
573.195	7.95
573.536	7.94
573.876	7.9
574.217	8.06
574.557	8.01
574.898	8.23
575.238	8.2
575.578	8.13
575.918	8.31
576.258	8.31
576.598	8.24
576.938	7.97
577.278	8.06
577.618	8.17
577.958	8.16
578.298	8.43
578.638	8.29
578.977	8.45
579.317	8.4
579.657	8.51
579.996	8.61
580.336	8.38
580.675	8.55
581.014	8.38
581.354	8.42
581.693	8.62
582.032	8.67
582.372	8.41
582.711	8.75
583.05	8.33
583.389	8.58
583.728	8.83
584.067	8.79
584.406	8.8
584.745	8.81
585.083	8.92
585.422	8.75
585.761	9.07
586.1	8.97
586.438	9
586.777	9.1
587.115	9.01
587.454	9.14
587.792	9.03
588.13	9.05
588.469	9.15
588.807	9.03
589.145	9.15
589.483	9.15
589.821	9.06
590.159	9.14
590.497	9.27
590.835	9.4
591.173	9.27
591.511	9.65
591.849	9.14
592.187	9.54
592.524	9.39
592.862	9.34
593.2	9.38
593.537	9.49
593.875	9.15
594.212	9.35
594.55	9.32
594.887	9.91
595.224	9.58
595.561	9.32
595.899	9.32
596.236	9.64
596.573	9.66
596.91	9.25
597.247	9.53
597.584	10.07
597.921	9.75
598.258	9.66
598.594	9.82
598.931	9.52
599.268	9.69
599.604	9.69
599.941	9.92
600.277	9.87
600.614	9.83
600.95	9.9
601.287	10.38
601.623	10.06
601.959	9.88
602.296	10.1
602.632	9.96
602.968	10.22
603.304	10.26
603.64	10.35
603.976	10.41
604.312	10.11
604.648	9.86
604.984	10.29
605.319	10.2
605.655	10.38
605.991	10.33
606.326	10.28
606.662	10.22
606.998	10.24
607.333	10.4
607.668	10.34
608.004	10.74
608.339	10.72
608.674	10.64
609.01	10.35
609.345	10.68
609.68	10.94
610.015	10.52
610.35	10.48
610.685	10.43
611.02	10.75
611.355	10.89
611.689	10.81
612.024	10.77
612.359	10.6
612.694	10.64
613.028	10.64
613.363	10.98
613.697	11.18
614.032	11.03
614.366	11
614.7	11.05
615.035	11.2
615.369	11.06
615.703	11.26
616.037	11.53
616.371	10.97
616.705	11.27
617.039	11.13
617.373	11.41
617.707	11.07
618.041	11.22
618.375	11.5
618.709	11.59
619.042	11.34
619.376	11.63
619.71	11.35
620.043	11.27
620.377	11.41
620.71	11.62
621.043	11.51
621.377	11.86
621.71	11.87
622.043	11.55
622.376	11.54
622.709	11.67
623.043	11.81
623.376	11.82
623.709	11.93
624.041	12.37
624.374	11.89
624.707	11.85
625.04	12.13
625.373	11.73
625.705	11.74
626.038	11.51
626.37	11.9
626.703	12
627.035	12.33
627.368	12.5
627.7	12.11
628.032	12.13
628.365	12.39
628.697	12.2
629.029	12.17
629.361	12.18
629.693	12.28
630.025	12.43
630.357	12.4
630.689	12.29
631.021	12.35
631.353	12.55
631.684	12.19
632.016	12.23
632.348	12.42
632.679	12.76
633.011	12.82
633.342	12.86
633.674	12.45
634.005	13.16
634.336	12.33
634.668	13.33
634.999	12.13
635.33	12.8
635.661	12.87
635.992	12.98
636.323	12.98
636.654	12.75
636.985	12.91
637.316	12.67
637.647	12.87
637.977	13.52
638.308	13.15
638.639	12.69
638.969	12.94
639.3	13.03
639.63	12.76
639.961	13.05
640.291	13.24
640.622	13.43
640.952	13.12
641.282	13.87
641.612	13.47
641.943	13.34
642.273	13.22
642.603	14.18
642.933	13.49
643.263	13.29
643.592	13.31
643.922	13.22
644.252	13.87
644.582	13.27
644.911	13.08
645.241	13.9
645.571	13.6
645.9	13.41
646.23	13.47
646.559	13.52
646.888	13.22
647.218	13.61
647.547	13.95
647.876	13.47
648.205	14.23
648.534	13.52
648.863	13.45
649.192	14.67
649.521	13.78
649.85	13.55
650.179	13.77
650.508	14.07
650.837	14.23
651.165	13.84
651.494	13.97
651.822	14.55
652.151	14.26
652.479	14.41
652.808	13.48
653.136	14.23
653.465	13.66
653.793	13.72
654.121	13.94
654.449	14.15
654.777	14.79
655.105	14.61
655.433	13.77
655.761	14.43
656.089	14.78
656.417	14.94
656.745	14.78
657.073	14.63
657.4	15.02
657.728	14.95
658.056	14.38
658.383	14.57
658.711	15.12
659.038	14.46
659.365	15.27
659.693	14.75
660.02	14.72
660.347	15.12
660.674	14.89
661.001	15.28
661.329	14.38
661.656	14.8
661.982	15.06
662.309	14.89
662.636	14.6
662.963	15.52
663.29	15.31
663.616	15.16
663.943	14.71
664.27	15.2
664.596	15.61
664.923	15.19
665.249	15
665.576	15.41
665.902	15.97
666.228	15.55
666.554	15.62
666.881	14.81
667.207	15.62
667.533	15.57
667.859	15.99
668.185	16.16
668.511	15
668.837	15.22
669.162	15.68
669.488	15.26
669.814	16.35
670.139	16.19
670.465	15.75
670.791	15.8
671.116	16.56
671.442	15.73
671.767	16.35
672.092	16.43
672.418	16.2
672.743	16.1
673.068	15.56
673.393	16.07
673.718	15.57
674.043	16.12
674.368	16.3
674.693	16.93
675.018	16.16
675.343	15.99
675.667	16.33
675.992	16.23
676.317	16.12
676.641	16.27
676.966	16.16
677.29	15.75
677.615	16.42
677.939	17.04
678.264	16.45
678.588	16.97
678.912	16.38
679.236	17.02
679.56	16.1
679.885	16.37
680.209	16.25
680.532	16.77
680.856	17.28
681.18	16.72
681.504	16.65
681.828	17.52
682.152	16.25
682.475	17.24
682.799	16.98
683.122	16.78
683.446	16.46
683.769	16.77
684.093	16.52
684.416	17.51
684.739	15.99
685.062	16.31
685.386	17.61
685.709	16.27
686.032	16.78
686.355	16.99
