Data from 0387_crown_Reflection__3__239.txt Node

Date: Fri Dec 15 18:31:04 CST 2023
User: ToomeyLab
Spectrometer: FLMS14357
Trigger mode: 0
Integration Time (sec): 1.000000E-2
Scans to average: 100
Electric dark correction enabled: true
Nonlinearity correction enabled: false
Boxcar width: 0
XAxis mode: Wavelengths
Number of Pixels in Spectrum: 2048
>>>>>Begin Spectral Data<<<<<
189.047	-85.6
189.435	-85.6
189.823	-85.6
190.211	-80.18
190.599	35.64
190.987	269.48
191.375	38.71
191.763	234.65
192.151	131.38
192.538	154.54
192.926	105.3
193.314	73.6
193.702	37.75
194.089	-153.55
194.477	24.86
194.864	46.43
195.252	79.85
195.639	108.02
196.027	608.4
196.414	271.43
196.801	21.55
197.189	64.44
197.576	163.46
197.963	50.11
198.351	-231.04
198.738	-30.2
199.125	18.95
199.512	-30.96
199.899	29.43
200.286	61.69
200.673	0.39
201.06	47.01
201.447	7.94
201.833	16.83
202.22	9.06
202.607	0.43
202.994	-15.75
203.38	61.52
203.767	13.65
204.154	66.35
204.54	17.28
204.927	-65.63
205.313	-400.72
205.699	3.85
206.086	36.66
206.472	51.97
206.858	-4.19
207.245	-51.28
207.631	3.11
208.017	-3.57
208.403	-34.34
208.789	17.29
209.175	39.78
209.561	-59.42
209.947	-10.77
210.333	-65.34
210.719	15.59
211.105	-7.94
211.491	-6.63
211.876	62.84
212.262	9.38
212.648	1.95
213.034	27.38
213.419	-9.23
213.805	-5.1
214.19	-46.82
214.576	-24.62
214.961	-60.98
215.346	-55.5
215.732	-3.3
216.117	-10.59
216.502	-40.28
216.888	3.62
217.273	26.31
217.658	14.14
218.043	12.7
218.428	-51.88
218.813	-48.05
219.198	-68.82
219.583	5.39
219.968	8.35
220.353	-49.98
220.738	18.79
221.122	23.24
221.507	-27.91
221.892	-26.06
222.276	-10.98
222.661	-11.65
223.046	7.51
223.43	12.23
223.815	11.85
224.199	-0.01
224.583	11.49
224.968	-17.37
225.352	2.86
225.736	-3.25
226.121	-13.58
226.505	-3.84
226.889	7.09
227.273	-2.31
227.657	4.02
228.041	7.06
228.425	-0.28
228.809	2.72
229.193	5.23
229.577	3.41
229.961	2.74
230.344	2.76
230.728	3.3
231.112	3.84
231.495	3.09
231.879	1.57
232.263	3.86
232.646	3.14
233.03	3.59
233.413	3.47
233.797	2.85
234.18	1.48
234.563	2.67
234.946	-0.19
235.33	4.32
235.713	4.07
236.096	2.9
236.479	5.28
236.862	2.44
237.245	3.77
237.628	1.93
238.011	2.6
238.394	3.15
238.777	3.46
239.16	2.56
239.543	3.05
239.925	4.16
240.308	2.14
240.691	5.52
241.073	3.45
241.456	2.45
241.838	2.99
242.221	0.77
242.603	3.99
242.986	4.45
243.368	3.64
243.75	4.3
244.133	3.39
244.515	3.59
244.897	3.48
245.279	3.47
245.661	3.45
246.043	1.95
246.425	2.65
246.807	4.21
247.189	3.05
247.571	4
247.953	3.87
248.335	3.36
248.717	3.88
249.098	3.49
249.48	3.46
249.862	3.85
250.243	3.61
250.625	3.86
251.006	3.51
251.388	2.96
251.769	3.38
252.151	5.2
252.532	3.6
252.913	3.02
253.295	2.74
253.676	3.42
254.057	3.28
254.438	3.56
254.819	3.2
255.2	3.08
255.581	3.77
255.962	2.09
256.343	3.93
256.724	3.53
257.105	3.15
257.486	3.65
257.867	3.97
258.247	3.94
258.628	2.7
259.009	2.94
259.389	3.37
259.77	3.1
260.15	2.6
260.531	2.37
260.911	3.47
261.292	3.43
261.672	3.75
262.052	3.53
262.432	3.57
262.813	3.3
263.193	3.45
263.573	3.06
263.953	3.35
264.333	3.03
264.713	3.37
265.093	2.53
265.473	3.24
265.853	1.61
266.233	4.34
266.612	1.8
266.992	2.31
267.372	3.32
267.752	2.84
268.131	2.58
268.511	3.67
268.89	3.11
269.27	3.2
269.649	2.68
270.029	2.81
270.408	4.25
270.787	3.28
271.167	3.29
271.546	3.39
271.925	2.89
272.304	3.43
272.683	3.2
273.062	2.58
273.441	3.15
273.82	2.36
274.199	3.18
274.578	3.05
274.957	2.77
275.336	3.45
275.715	2.59
276.093	3.16
276.472	2.78
276.851	3
277.229	2.69
277.608	2.61
277.986	2.38
278.365	3.14
278.743	2.95
279.122	2.66
279.5	3.25
279.878	3.8
280.257	2.96
280.635	2.67
281.013	2.86
281.391	3.44
281.769	2.41
282.147	2.94
282.525	3.26
282.903	2.82
283.281	3.82
283.659	3.17
284.037	3.24
284.415	3.68
284.792	3.22
285.17	2.28
285.548	2.45
285.925	2.94
286.303	3.06
286.68	2.8
287.058	3.19
287.435	2.75
287.813	3.36
288.19	2.62
288.567	2.5
288.945	3.26
289.322	3.02
289.699	2.68
290.076	2.73
290.453	2.64
290.83	2.88
291.207	3.14
291.584	3.47
291.961	3.46
292.338	3.02
292.715	3.38
293.092	3.11
293.469	2.76
293.845	3.3
294.222	2.74
294.599	2.71
294.975	2.68
295.352	3.19
295.728	2.66
296.105	2.48
296.481	3.13
296.858	2.77
297.234	3.2
297.61	3.08
297.986	2.94
298.363	3.29
298.739	3.45
299.115	2.96
299.491	3.04
299.867	3.34
300.243	3.14
300.619	3.21
300.995	2.88
301.371	3.31
301.746	2.68
302.122	3.7
302.498	2.47
302.874	3.07
303.249	3
303.625	3.11
304	3.15
304.376	3.51
304.751	2.75
305.127	4.05
305.502	2.98
305.878	2.9
306.253	3.02
306.628	3.79
307.003	3.1
307.378	3.4
307.754	3.47
308.129	2.31
308.504	3.22
308.879	2.38
309.254	4.19
309.629	3.61
310.003	2.99
310.378	3.26
310.753	3.5
311.128	3.55
311.502	3.47
311.877	3.75
312.252	2.98
312.626	3.25
313.001	2.99
313.375	3.46
313.75	2.97
314.124	3.69
314.498	2.89
314.873	3.44
315.247	3.02
315.621	3.59
315.995	2.82
316.369	3.62
316.743	3.41
317.117	3.18
317.491	3.36
317.865	3.8
318.239	3.05
318.613	3.19
318.987	3.47
319.361	3.03
319.734	3.32
320.108	3.53
320.482	3.38
320.855	4.1
321.229	3.12
321.602	2.82
321.976	3.57
322.349	3.4
322.723	2.88
323.096	4.18
323.469	2.29
323.843	2.34
324.216	3.73
324.589	3.11
324.962	3.64
325.335	3.49
325.708	3.08
326.081	3.62
326.454	3.14
326.827	3.03
327.2	3.23
327.573	3.66
327.945	3.54
328.318	3.08
328.691	2.9
329.063	3.35
329.436	2.91
329.809	3.3
330.181	2.64
330.553	3.31
330.926	3.85
331.298	3.59
331.671	3.35
332.043	3.86
332.415	4.18
332.787	3.22
333.159	4.1
333.532	3.81
333.904	3.67
334.276	2.91
334.648	3.82
335.02	3.24
335.391	2.99
335.763	2.97
336.135	3.39
336.507	3.97
336.879	2.89
337.25	2.94
337.622	3.76
337.993	3.18
338.365	3.26
338.736	3.76
339.108	3.13
339.479	2.87
339.851	3.48
340.222	3.46
340.593	3.35
340.964	3.37
341.336	4.37
341.707	2.96
342.078	3.91
342.449	3.7
342.82	3.61
343.191	3.72
343.562	3.49
343.933	3.33
344.303	3.34
344.674	3.18
345.045	3.67
345.416	3.96
345.786	2.98
346.157	3.46
346.527	3.12
346.898	3.08
347.268	3.42
347.639	3.56
348.009	3.73
348.38	3.46
348.75	3.27
349.12	2.76
349.49	3.85
349.861	3.68
350.231	3.3
350.601	3.62
350.971	3.75
351.341	3.67
351.711	3.33
352.081	4.04
352.45	3.36
352.82	3.74
353.19	3.69
353.56	3.19
353.929	3.45
354.299	3.37
354.669	3.46
355.038	3.38
355.408	3.03
355.777	3.58
356.147	3.1
356.516	3.35
356.885	3.85
357.254	3.89
357.624	4.03
357.993	3.75
358.362	3.02
358.731	3.03
359.1	3.55
359.469	3.66
359.838	3.64
360.207	3.57
360.576	3.22
360.945	3.59
361.314	3.94
361.682	3.27
362.051	3.64
362.42	3.74
362.788	3.39
363.157	3.78
363.525	3.93
363.894	3.82
364.262	3.44
364.631	3.65
364.999	3.66
365.367	3.23
365.735	4.15
366.104	3.66
366.472	3.74
366.84	3.64
367.208	3.46
367.576	3.83
367.944	3.82
368.312	3.56
368.68	3.35
369.048	3.95
369.416	3.69
369.783	3.61
370.151	3.76
370.519	4.02
370.886	3.88
371.254	3.46
371.621	3.88
371.989	3.53
372.356	3.11
372.724	3.45
373.091	3.42
373.458	3.7
373.826	3.65
374.193	3.59
374.56	3.59
374.927	3.56
375.294	3.62
375.661	3.61
376.028	3.42
376.395	3.6
376.762	3.74
377.129	3.41
377.496	3.6
377.863	3.67
378.229	3.52
378.596	3.64
378.963	3.69
379.329	3.3
379.696	4.03
380.062	3.74
380.429	3.97
380.795	3.39
381.161	3.51
381.528	3.89
381.894	3.77
382.26	3.28
382.626	3.77
382.993	3.22
383.359	4.04
383.725	3.45
384.091	4.17
384.457	4.06
384.823	3.66
385.188	3.93
385.554	3.66
385.92	3.72
386.286	3.95
386.651	3.69
387.017	4.38
387.383	3.81
387.748	3.51
388.114	3.87
388.479	3.69
388.845	4.12
389.21	3.79
389.575	3.94
389.94	3.74
390.306	3.99
390.671	4.28
391.036	3.61
391.401	3.62
391.766	3.82
392.131	3.79
392.496	3.99
392.861	3.73
393.226	4.03
393.591	3.99
393.956	3.93
394.32	3.77
394.685	3.52
395.05	3.86
395.414	3.72
395.779	3.5
396.143	3.81
396.508	3.73
396.872	3.67
397.236	3.95
397.601	3.74
397.965	3.74
398.329	3.87
398.694	3.9
399.058	3.79
399.422	3.43
399.786	3.82
400.15	3.96
400.514	4.03
400.878	3.92
401.242	4.11
401.605	4.01
401.969	3.87
402.333	4.03
402.697	4
403.06	4.3
403.424	3.97
403.787	3.69
404.151	4.19
404.514	3.9
404.878	3.7
405.241	4.15
405.604	3.89
405.968	3.8
406.331	4.04
406.694	4.01
407.057	3.97
407.42	3.84
407.783	3.66
408.146	3.77
408.509	3.87
408.872	3.72
409.235	4
409.598	4.06
409.961	3.84
410.323	4.08
410.686	3.95
411.049	3.72
411.411	3.87
411.774	4.02
412.136	4.02
412.499	3.88
412.861	4.08
413.223	3.97
413.586	3.82
413.948	3.95
414.31	3.83
414.672	3.81
415.035	3.7
415.397	4.44
415.759	3.95
416.121	4.31
416.483	3.67
416.845	3.78
417.206	3.82
417.568	4.01
417.93	3.63
418.292	3.87
418.653	3.97
419.015	4.17
419.377	4.05
419.738	4.06
420.1	4
420.461	4.05
420.822	3.99
421.184	3.93
421.545	3.93
421.906	3.94
422.267	3.85
422.629	3.95
422.99	3.9
423.351	3.92
423.712	3.93
424.073	3.92
424.434	3.89
424.795	3.89
425.155	3.98
425.516	3.88
425.877	3.96
426.238	3.9
426.598	4.14
426.959	3.89
427.32	3.68
427.68	3.94
428.041	4.1
428.401	4.09
428.761	4
429.122	3.99
429.482	3.85
429.842	4.07
430.202	4.2
430.563	3.98
430.923	3.83
431.283	4.25
431.643	3.99
432.003	4.11
432.363	4.07
432.722	4.13
433.082	4.21
433.442	4.17
433.802	4.06
434.161	4.17
434.521	4.23
434.881	4.19
435.24	3.99
435.6	4.09
435.959	4.11
436.319	4.13
436.678	4.06
437.037	4.13
437.396	4.09
437.756	4
438.115	4.02
438.474	4.27
438.833	3.97
439.192	4.05
439.551	4.12
439.91	4.1
440.269	4.09
440.628	3.99
440.987	4.22
441.345	3.85
441.704	4.16
442.063	4.16
442.421	4.06
442.78	4.09
443.138	4.08
443.497	4.22
443.855	4.13
444.214	4.12
444.572	4.05
444.93	4.16
445.288	4.23
445.647	4.3
446.005	4.11
446.363	4.18
446.721	4.27
447.079	4.1
447.437	4.19
447.795	4.14
448.153	4.01
448.51	4.09
448.868	4.14
449.226	4.1
449.584	4.07
449.941	4.25
450.299	4.13
450.656	4
451.014	4.25
451.371	4.16
451.729	4.01
452.086	4.37
452.443	4.12
452.801	4.28
453.158	4.14
453.515	4.09
453.872	4.34
454.229	4.2
454.586	4.24
454.943	4.12
455.3	4.3
455.657	4.16
456.014	4.21
456.371	4.43
456.727	4.29
457.084	4.26
457.441	4
457.797	4.35
458.154	4.5
458.51	4.33
458.867	4.5
459.223	4.52
459.58	4.47
459.936	4.17
460.292	4.07
460.648	4.3
461.005	4.15
461.361	4.28
461.717	4.23
462.073	4.17
462.429	4.25
462.785	4.13
463.141	4.16
463.496	4.34
463.852	4.5
464.208	4.28
464.564	4.45
464.919	4.15
465.275	4.35
465.631	4.31
465.986	4.21
466.342	4.2
466.697	4.11
467.052	4.27
467.408	4.44
467.763	4.28
468.118	4.39
468.473	4.15
468.829	4.38
469.184	4.36
469.539	4.39
469.894	4.03
470.249	4.41
470.603	4.5
470.958	4.57
471.313	4.48
471.668	4.64
472.023	4.37
472.377	4.35
472.732	4.47
473.086	4.16
473.441	4.24
473.795	4.62
474.15	4.41
474.504	4.38
474.859	4.42
475.213	4.36
475.567	4.21
475.921	4.26
476.275	4.55
476.63	4.51
476.984	4.54
477.338	4.51
477.692	4.24
478.045	4.36
478.399	4.46
478.753	4.42
479.107	4.47
479.461	4.44
479.814	4.43
480.168	4.42
480.521	4.4
480.875	4.38
481.228	4.43
481.582	4.42
481.935	4.3
482.289	4.48
482.642	4.5
482.995	4.31
483.348	4.31
483.701	4.41
484.055	4.38
484.408	4.36
484.761	4.3
485.114	4.29
485.466	4.15
485.819	4.13
486.172	4.13
486.525	4.16
486.878	4.22
487.23	4.28
487.583	4.31
487.936	4.36
488.288	4.31
488.641	4.3
488.993	4.28
489.345	4.21
489.698	4.24
490.05	4.18
490.402	4.29
490.754	4.3
491.107	4.33
491.459	4.41
491.811	4.35
492.163	4.39
492.515	4.41
492.866	4.46
493.218	4.32
493.57	4.31
493.922	4.27
494.274	4.4
494.625	4.49
494.977	4.52
495.328	4.51
495.68	4.45
496.031	4.61
496.383	4.53
496.734	4.64
497.086	4.5
497.437	4.49
497.788	4.48
498.139	4.42
498.49	4.54
498.842	4.37
499.193	4.5
499.544	4.53
499.894	4.43
500.245	4.53
500.596	4.51
500.947	4.58
501.298	4.53
501.648	4.61
501.999	4.72
502.35	4.61
502.7	4.54
503.051	4.5
503.401	4.52
503.752	4.64
504.102	4.45
504.452	4.68
504.803	4.46
505.153	4.56
505.503	4.47
505.853	4.57
506.203	4.6
506.553	4.54
506.903	4.55
507.253	4.47
507.603	4.4
507.953	4.64
508.303	4.87
508.652	4.43
509.002	4.54
509.352	4.68
509.701	4.53
510.051	4.59
510.4	4.57
510.75	4.48
511.099	4.56
511.449	4.5
511.798	4.54
512.147	4.6
512.496	4.51
512.846	4.61
513.195	4.59
513.544	4.53
513.893	4.69
514.242	4.51
514.591	4.72
514.939	4.59
515.288	4.59
515.637	4.64
515.986	4.72
516.334	4.66
516.683	4.72
517.032	4.62
517.38	4.63
517.729	4.82
518.077	4.59
518.426	4.62
518.774	4.65
519.122	4.65
519.47	4.71
519.819	4.55
520.167	4.64
520.515	4.65
520.863	4.69
521.211	4.69
521.559	4.69
521.907	4.61
522.255	4.6
522.602	4.69
522.95	4.56
523.298	4.73
523.645	4.76
523.993	4.74
524.341	4.79
524.688	4.78
525.036	4.67
525.383	4.72
525.73	4.8
526.078	4.65
526.425	4.61
526.772	4.75
527.119	4.68
527.466	4.58
527.814	4.66
528.161	4.71
528.508	4.69
528.854	4.72
529.201	4.6
529.548	4.6
529.895	4.57
530.242	4.41
530.588	4.48
530.935	4.47
531.282	4.53
531.628	4.53
531.975	4.67
532.321	4.69
532.667	4.66
533.014	4.75
533.36	4.76
533.706	4.76
534.052	4.68
534.399	4.6
534.745	4.66
535.091	4.68
535.437	4.63
535.783	4.63
536.129	4.65
536.474	4.62
536.82	4.77
537.166	4.75
537.512	4.81
537.857	4.81
538.203	4.83
538.549	4.66
538.894	4.73
539.239	4.76
539.585	4.76
539.93	4.66
540.276	4.71
540.621	4.78
540.966	4.91
541.311	4.81
541.656	4.69
542.001	4.78
542.346	4.8
542.691	4.63
543.036	4.64
543.381	4.6
543.726	4.65
544.071	4.75
544.415	4.76
544.76	4.72
545.105	4.76
545.449	4.76
545.794	4.85
546.138	4.87
546.483	4.84
546.827	4.84
547.171	4.93
547.516	5
547.86	4.77
548.204	4.91
548.548	4.83
548.892	4.86
549.236	4.72
549.58	4.78
549.924	4.94
550.268	4.93
550.612	4.92
550.956	5.12
551.3	4.93
551.643	5.1
551.987	4.95
552.33	5.11
552.674	4.93
553.017	4.85
553.361	4.9
553.704	5.11
554.048	4.83
554.391	4.82
554.734	4.92
555.077	5.07
555.42	4.92
555.764	4.98
556.107	4.86
556.45	4.77
556.793	4.95
557.135	4.93
557.478	5.06
557.821	5.03
558.164	4.94
558.507	4.9
558.849	5
559.192	5.13
559.534	4.84
559.877	5.11
560.219	4.98
560.562	5.24
560.904	5.01
561.246	5.01
561.589	4.98
561.931	5.14
562.273	5.1
562.615	5.14
562.957	5.13
563.299	4.87
563.641	5.18
563.983	5.26
564.325	4.91
564.667	4.95
565.008	4.95
565.35	4.98
565.692	5.05
566.033	5.03
566.375	5.33
566.716	5.21
567.058	5.03
567.399	5
567.741	5.07
568.082	5.14
568.423	5
568.764	5
569.105	5.16
569.447	5.07
569.788	4.92
570.129	5.1
570.47	5.03
570.811	5.24
571.151	5.23
571.492	5.3
571.833	5.27
572.174	5.29
572.514	5.03
572.855	4.94
573.195	5.03
573.536	4.99
573.876	4.83
574.217	5.06
574.557	5.21
574.898	5.1
575.238	5.34
575.578	4.97
575.918	5.25
576.258	5.32
576.598	5.15
576.938	5.11
577.278	5.02
577.618	5.14
577.958	5.01
578.298	5.19
578.638	5.24
578.977	5.24
579.317	5.09
579.657	5.13
579.996	5.15
580.336	5.3
580.675	5.24
581.014	5.34
581.354	5.21
581.693	5.15
582.032	5.09
582.372	5.08
582.711	5.21
583.05	4.91
583.389	5.24
583.728	4.97
584.067	5.16
584.406	5.58
584.745	5.33
585.083	5.29
585.422	5.35
585.761	5.42
586.1	5.26
586.438	5.35
586.777	5.34
587.115	5.24
587.454	5.34
587.792	5.25
588.13	5.49
588.469	5.06
588.807	5.25
589.145	5.13
589.483	5.24
589.821	5.23
590.159	5.18
590.497	5.42
590.835	5.78
591.173	5.67
591.511	5.53
591.849	5.15
592.187	5.28
592.524	5.55
592.862	5.32
593.2	5.26
593.537	5.5
593.875	5.12
594.212	5.35
594.55	5.15
594.887	5.41
595.224	5.3
595.561	5.33
595.899	5.31
596.236	5.25
596.573	5.45
596.91	5.14
597.247	5.16
597.584	5.43
597.921	5.43
598.258	5.28
598.594	5.03
598.931	5.28
599.268	5.34
599.604	5.22
599.941	5.35
600.277	5.3
600.614	5.39
600.95	5.09
601.287	5.32
601.623	5.1
601.959	5.28
602.296	5.52
602.632	5.18
602.968	5.43
603.304	5.26
603.64	5.63
603.976	5.41
604.312	5.32
604.648	5.2
604.984	5.27
605.319	5.56
605.655	5.42
605.991	5.17
606.326	5.52
606.662	5.24
606.998	5.21
607.333	5.59
607.668	5.59
608.004	5.46
608.339	5.73
608.674	5.64
609.01	5.31
609.345	5.33
609.68	5.66
610.015	5.24
610.35	5.36
610.685	5.34
611.02	5.39
611.355	5.6
611.689	5.2
612.024	5.55
612.359	5.27
612.694	5.59
613.028	5.52
613.363	5.56
613.697	5.64
614.032	5.67
614.366	5.35
614.7	5.68
615.035	5.5
615.369	5.31
615.703	5.45
616.037	5.84
616.371	5.29
616.705	5.21
617.039	5.6
617.373	5.41
617.707	5.32
618.041	5.44
618.375	5.45
618.709	5.45
619.042	5.26
619.376	5.49
619.71	5.51
620.043	5.69
620.377	5.29
620.71	5.47
621.043	5.61
621.377	5.79
621.71	5.3
622.043	5.38
622.376	5.17
622.709	5.24
623.043	5.66
623.376	5.45
623.709	5.37
624.041	5.96
624.374	5.51
624.707	5.11
625.04	5.85
625.373	5.32
625.705	5.64
626.038	5.63
626.37	5.67
626.703	5.5
627.035	5.79
627.368	5.85
627.7	5.43
628.032	5.49
628.365	5.91
628.697	5.91
629.029	5.51
629.361	5.55
629.693	5.86
630.025	5.51
630.357	5.86
630.689	5.75
631.021	5.58
631.353	5.73
631.684	5.59
632.016	5.62
632.348	5.62
632.679	5.81
633.011	5.62
633.342	6
633.674	6
634.005	6.02
634.336	5.3
634.668	5.96
634.999	5.31
635.33	6.2
635.661	5.67
635.992	5.64
636.323	5.97
636.654	6.02
636.985	5.52
637.316	5.49
637.647	5.24
637.977	5.95
638.308	5.51
638.639	5.12
638.969	5.33
639.3	5.49
639.63	5.17
639.961	5.96
640.291	5.78
640.622	5.81
640.952	5.57
641.282	6.02
641.612	5.97
641.943	5.74
642.273	6.07
642.603	5.58
642.933	6.18
643.263	5.6
643.592	5.41
643.922	5.52
644.252	5.7
644.582	6.24
644.911	5.38
645.241	5.86
645.571	6.04
645.9	5.39
646.23	5.61
646.559	6.23
646.888	5.21
647.218	5.97
647.547	6.22
647.876	5.37
648.205	5.9
648.534	5.61
648.863	5.48
649.192	6.31
649.521	5.48
649.85	5.04
650.179	5.45
650.508	5.38
650.837	5.54
651.165	5.67
651.494	5.63
651.822	5.8
652.151	5.71
652.479	6.06
652.808	5.41
653.136	5.79
653.465	5.11
653.793	5.66
654.121	5.9
654.449	6.18
654.777	6.25
655.105	5.68
655.433	5.89
655.761	6.12
656.089	6.52
656.417	5.82
656.745	5.44
657.073	5.53
657.4	6.14
657.728	6.15
658.056	6.05
658.383	6.01
658.711	5.85
659.038	6.1
659.365	6.08
659.693	5.55
660.02	5.39
660.347	6.08
660.674	5.93
661.001	5.9
661.329	5.32
661.656	5.91
661.982	6.36
662.309	5.88
662.636	5.52
662.963	6.54
663.29	5.96
663.616	6.52
663.943	5.68
664.27	5.65
664.596	6.46
664.923	6.06
665.249	6.37
665.576	6
665.902	6.52
666.228	6.06
666.554	6.1
666.881	5.65
667.207	6.13
667.533	5.89
667.859	6.26
668.185	6.11
668.511	5.62
668.837	4.86
669.162	5.96
669.488	5.49
669.814	5.94
670.139	6.45
670.465	6.16
670.791	6.57
671.116	6.61
671.442	5.87
671.767	6.8
672.092	6.17
672.418	5.91
672.743	6.26
673.068	6.04
673.393	5.74
673.718	5.92
674.043	6.1
674.368	6.14
674.693	6.97
675.018	6.07
675.343	5.69
675.667	6.01
675.992	6.29
676.317	6.27
676.641	6.5
676.966	6.31
677.29	6.13
677.615	5.71
677.939	6.78
678.264	6.14
678.588	7.09
678.912	6.75
679.236	6.34
679.56	5.73
679.885	6.77
680.209	6.06
680.532	6.37
680.856	6.8
681.18	6.14
681.504	6.19
681.828	6.44
682.152	5.92
682.475	6.87
682.799	6.44
683.122	6.6
683.446	5.94
683.769	6.61
684.093	6.06
684.416	6.61
684.739	6.38
685.062	5.99
685.386	6.87
685.709	5.6
686.032	5.73
686.355	6.8
686.678	5.91
687.001	6.18
687.324	6.19
687.646	5.73
687.969	5.73
688.292	6.28
688.614	5.8
688.937	7.07
689.26	6.12
689.582	7.05
689.904	5.72
690.227	6.22
690.549	6.72
690.871	6.41
691.194	6.67
691.516	6.31
691.838	6.89
692.16	6.61
692.482	5.25
692.804	6.28
