Data from 0387_forehead_Reflection__4__245.txt Node

Date: Fri Dec 15 18:32:19 CST 2023
User: ToomeyLab
Spectrometer: FLMS14357
Trigger mode: 0
Integration Time (sec): 1.000000E-2
Scans to average: 100
Electric dark correction enabled: true
Nonlinearity correction enabled: false
Boxcar width: 0
XAxis mode: Wavelengths
Number of Pixels in Spectrum: 2048
>>>>>Begin Spectral Data<<<<<
189.047	58.77
189.435	58.77
189.823	58.77
190.211	5.82
190.599	-78.12
190.987	95.22
191.375	514.66
191.763	-113.63
192.151	-45.93
192.538	101.48
192.926	4.49
193.314	84.92
193.702	50.7
194.089	88.86
194.477	-85.46
194.864	31.3
195.252	127
195.639	60.1
196.027	701.36
196.414	98.3
196.801	39.18
197.189	29.21
197.576	194.97
197.963	-30.03
198.351	-80.9
198.738	-20.53
199.125	31.98
199.512	16.93
199.899	-27.26
200.286	44.02
200.673	35.26
201.06	-2.42
201.447	30.35
201.833	80.66
202.22	39.39
202.607	42.11
202.994	75.7
203.38	46.51
203.767	49.6
204.154	7.17
204.54	32.37
204.927	-85.99
205.313	145.31
205.699	48.53
206.086	44.69
206.472	52.23
206.858	22.92
207.245	33.32
207.631	31.18
208.017	13.45
208.403	14.28
208.789	44.13
209.175	30.3
209.561	-75.08
209.947	-15.1
210.333	18.13
210.719	65.53
211.105	29.6
211.491	-78.17
211.876	61.3
212.262	25.2
212.648	8.68
213.034	51.03
213.419	-9.55
213.805	5.38
214.19	-1.21
214.576	-24.02
214.961	-23.81
215.346	-46.44
215.732	22.42
216.117	24.28
216.502	14.83
216.888	49.92
217.273	39.39
217.658	7.82
218.043	28.85
218.428	-35.38
218.813	-5.08
219.198	-20.93
219.583	10.32
219.968	1.64
220.353	-21.41
220.738	28.6
221.122	-9.82
221.507	-1.17
221.892	-21.01
222.276	-8.2
222.661	6.7
223.046	22.35
223.43	12.36
223.815	10.97
224.199	-9
224.583	-2.64
224.968	11.6
225.352	13.92
225.736	-9.81
226.121	-12.92
226.505	3.84
226.889	5.09
227.273	0.35
227.657	6.2
228.041	3.9
228.425	4.13
228.809	4.39
229.193	3.37
229.577	4.38
229.961	2.21
230.344	2.1
230.728	2.1
231.112	2.36
231.495	2.26
231.879	2.13
232.263	2.47
232.646	3.14
233.03	3.6
233.413	1.74
233.797	1.18
234.18	4.73
234.563	3.01
234.946	1.4
235.33	0.99
235.713	2.17
236.096	1.89
236.479	2.13
236.862	0.64
237.245	3.4
237.628	2.47
238.011	1.91
238.394	0.84
238.777	3.46
239.16	-0.38
239.543	3.58
239.925	3.13
240.308	2.62
240.691	3.83
241.073	2.98
241.456	3.81
241.838	1.75
242.221	1.2
242.603	2.6
242.986	2.21
243.368	2.44
243.75	2.42
244.133	2.49
244.515	2.45
244.897	2.23
245.279	2.62
245.661	1.83
246.043	2.29
246.425	2.42
246.807	2.7
247.189	3.13
247.571	2.08
247.953	3.2
248.335	2.5
248.717	2.6
249.098	2.48
249.48	2.36
249.862	2.49
250.243	1.87
250.625	2.75
251.006	2.42
251.388	1.47
251.769	2.56
252.151	3.12
252.532	2.58
252.913	2.05
253.295	1.02
253.676	2.16
254.057	2.56
254.438	2.15
254.819	2.13
255.2	1.79
255.581	1.61
255.962	2.19
256.343	2.5
256.724	2.53
257.105	2.49
257.486	2.34
257.867	2.29
258.247	2.71
258.628	3.46
259.009	2.1
259.389	3.53
259.77	1.56
260.15	1.97
260.531	1.65
260.911	3.16
261.292	2.65
261.672	2.5
262.052	2.34
262.432	2.62
262.813	2.4
263.193	2.36
263.573	1.93
263.953	2.09
264.333	3.08
264.713	2.87
265.093	2.01
265.473	2.79
265.853	2.82
266.233	3.08
266.612	0.59
266.992	0.87
267.372	3.14
267.752	2.68
268.131	2.24
268.511	3.23
268.89	2.81
269.27	2.23
269.649	2.21
270.029	1.9
270.408	2.99
270.787	2.47
271.167	2.99
271.546	3.11
271.925	1.63
272.304	1.89
272.683	2.6
273.062	2.67
273.441	2.29
273.82	1.39
274.199	2.15
274.578	2.6
274.957	2.01
275.336	2.4
275.715	1.87
276.093	2.5
276.472	2.12
276.851	2.08
277.229	2.61
277.608	1.7
277.986	1.85
278.365	2.19
278.743	2.09
279.122	2.05
279.5	2.21
279.878	2.78
280.257	2.6
280.635	2.21
281.013	1.83
281.391	2.79
281.769	2.18
282.147	2.65
282.525	2.43
282.903	2.22
283.281	2.4
283.659	2.02
284.037	2.52
284.415	2.62
284.792	2.9
285.17	2.05
285.548	1.85
285.925	2.67
286.303	2.38
286.68	1.87
287.058	2.17
287.435	2.34
287.813	2.05
288.19	2.08
288.567	2.7
288.945	2.97
289.322	2.78
289.699	1.83
290.076	2.43
290.453	2.36
290.83	1.74
291.207	2.07
291.584	2.46
291.961	2.76
292.338	2.51
292.715	2.99
293.092	2.17
293.469	2.54
293.845	2.72
294.222	2.14
294.599	2.68
294.975	2.93
295.352	2.59
295.728	2.32
296.105	2.61
296.481	2.68
296.858	2.86
297.234	2.78
297.61	3
297.986	2.69
298.363	2.91
298.739	2.78
299.115	2.53
299.491	2.44
299.867	2.86
300.243	3.13
300.619	2.43
300.995	3.03
301.371	3.49
301.746	2.57
302.122	3.99
302.498	3.32
302.874	3.31
303.249	3.39
303.625	3.04
304	3.74
304.376	3.51
304.751	2.96
305.127	4.37
305.502	3.05
305.878	2.78
306.253	3.15
306.628	3.88
307.003	3.36
307.378	4.42
307.754	3.77
308.129	3.17
308.504	4.12
308.879	3.68
309.254	4.97
309.629	4.28
310.003	4.22
310.378	4.39
310.753	4.29
311.128	4.67
311.502	4.19
311.877	4.83
312.252	3.98
312.626	4.36
313.001	4.32
313.375	4.54
313.75	4.18
314.124	5.06
314.498	4.43
314.873	4.71
315.247	4.71
315.621	4.82
315.995	4.29
316.369	4.27
316.743	4.79
317.117	5.26
317.491	5.29
317.865	5.36
318.239	4.55
318.613	4.38
318.987	5.64
319.361	5.24
319.734	5.77
320.108	5.42
320.482	5.27
320.855	5.76
321.229	5.54
321.602	5.72
321.976	6.65
322.349	5.27
322.723	5.81
323.096	6.06
323.469	5.3
323.843	5.76
324.216	6.06
324.589	6.2
324.962	6.04
325.335	6.34
325.708	6.07
326.081	6.1
326.454	6.27
326.827	5.74
327.2	6.77
327.573	6.57
327.945	6.82
328.318	6.42
328.691	5.92
329.063	6.81
329.436	6.13
329.809	6.76
330.181	7.23
330.553	6.91
330.926	7.35
331.298	7.26
331.671	6.6
332.043	8.02
332.415	7.05
332.787	6.53
333.159	7.59
333.532	7.6
333.904	7.21
334.276	7.41
334.648	7.65
335.02	7.25
335.391	7.43
335.763	7.51
336.135	7.38
336.507	7.77
336.879	7.46
337.25	6.72
337.622	7.09
337.993	7.22
338.365	7.51
338.736	7.4
339.108	7.36
339.479	6.78
339.851	8.22
340.222	8.04
340.593	7.94
340.964	7.75
341.336	8.66
341.707	7.18
342.078	8.56
342.449	8.53
342.82	8.07
343.191	8.34
343.562	8.29
343.933	8.71
344.303	8.5
344.674	8.53
345.045	8.35
345.416	8.36
345.786	7.95
346.157	8.73
346.527	8.1
346.898	7.97
347.268	8.52
347.639	8.25
348.009	8.57
348.38	8.5
348.75	8.56
349.12	8.55
349.49	9.29
349.861	8.96
350.231	8.4
350.601	9.26
350.971	9.05
351.341	9
351.711	8.94
352.081	9.11
352.45	8.58
352.82	9.16
353.19	9.15
353.56	9.43
353.929	8.86
354.299	9.21
354.669	8.93
355.038	9.6
355.408	9.35
355.777	9.2
356.147	9.36
356.516	9.23
356.885	9.6
357.254	9.77
357.624	10.04
357.993	9.64
358.362	8.95
358.731	9.63
359.1	9.63
359.469	9.75
359.838	9.93
360.207	9.74
360.576	9.47
360.945	9.56
361.314	9.94
361.682	9.73
362.051	9.86
362.42	10.01
362.788	9.8
363.157	10
363.525	10.07
363.894	10.14
364.262	10.01
364.631	10.14
364.999	10.21
365.367	9.8
365.735	10.92
366.104	10.57
366.472	10.44
366.84	9.8
367.208	10.24
367.576	10.62
367.944	11.13
368.312	10.69
368.68	10.31
369.048	10.81
369.416	10.77
369.783	10.51
370.151	10.81
370.519	11.02
370.886	11.05
371.254	10.9
371.621	11.16
371.989	11.05
372.356	10.45
372.724	11.19
373.091	10.86
373.458	11.23
373.826	11.17
374.193	11.4
374.56	11.59
374.927	11.28
375.294	11.7
375.661	11.47
376.028	11.02
376.395	11.3
376.762	11.68
377.129	11.52
377.496	11.58
377.863	11.54
378.229	11.13
378.596	11.57
378.963	11.59
379.329	11.55
379.696	11.8
380.062	11.53
380.429	11.65
380.795	11.59
381.161	11.53
381.528	12.27
381.894	11.69
382.26	12.05
382.626	12.21
382.993	11.79
383.359	12.13
383.725	11.89
384.091	12.5
384.457	12.79
384.823	12.21
385.188	12.06
385.554	12.51
385.92	12.48
386.286	12.56
386.651	12.56
387.017	12.55
387.383	12.48
387.748	12.35
388.114	12.7
388.479	12.49
388.845	12.94
389.21	12.53
389.575	12.77
389.94	12.19
390.306	12.51
390.671	12.98
391.036	12.61
391.401	12.71
391.766	12.71
392.131	12.91
392.496	13.29
392.861	12.69
393.226	12.88
393.591	12.95
393.956	12.87
394.32	13.16
394.685	12.76
395.05	13.02
395.414	13.26
395.779	12.67
396.143	13.21
396.508	13.34
396.872	13.15
397.236	13.17
397.601	13.29
397.965	13.41
398.329	13.45
398.694	13.52
399.058	13.21
399.422	13.08
399.786	13.49
400.15	13.49
400.514	13.78
400.878	13.32
401.242	13.89
401.605	13.61
401.969	13.63
402.333	13.38
402.697	13.88
403.06	13.69
403.424	13.64
403.787	13.54
404.151	13.86
404.514	13.62
404.878	13.76
405.241	13.97
405.604	13.68
405.968	13.86
406.331	13.76
406.694	13.85
407.057	13.6
407.42	13.92
407.783	13.63
408.146	13.68
408.509	13.93
408.872	13.76
409.235	13.86
409.598	14.13
409.961	14.07
410.323	14.07
410.686	13.93
411.049	14.13
411.411	14.17
411.774	13.92
412.136	14.04
412.499	13.92
412.861	13.88
413.223	14.15
413.586	14.14
413.948	14.09
414.31	14.14
414.672	14.4
415.035	14.34
415.397	14.52
415.759	14.09
416.121	14.57
416.483	14.42
416.845	14.55
417.206	14.21
417.568	14.4
417.93	14.22
418.292	14.59
418.653	14.59
419.015	14.64
419.377	14.42
419.738	14.75
420.1	14.45
420.461	14.54
420.822	14.61
421.184	14.56
421.545	14.69
421.906	14.65
422.267	14.71
422.629	14.59
422.99	14.64
423.351	14.63
423.712	14.82
424.073	14.99
424.434	14.82
424.795	14.99
425.155	15.09
425.516	14.8
425.877	15.12
426.238	15.01
426.598	15.31
426.959	15.27
427.32	15.25
427.68	15.52
428.041	15.32
428.401	15.78
428.761	15.74
429.122	15.63
429.482	15.86
429.842	16.1
430.202	15.98
430.563	16.09
430.923	16.14
431.283	16.25
431.643	16.49
432.003	16.29
432.363	16.24
432.722	16.24
433.082	16.4
433.442	16.52
433.802	16.35
434.161	16.49
434.521	16.67
434.881	16.72
435.24	16.63
435.6	16.61
435.959	16.58
436.319	16.7
436.678	16.88
437.037	16.8
437.396	17.03
437.756	17.04
438.115	16.96
438.474	17.21
438.833	17.17
439.192	17.09
439.551	17.16
439.91	17.29
440.269	17.24
440.628	17.3
440.987	17.27
441.345	17.11
441.704	17.4
442.063	17.38
442.421	17.45
442.78	17.51
443.138	17.33
443.497	17.38
443.855	17.49
444.214	17.76
444.572	17.69
444.93	17.73
445.288	18.02
445.647	18.04
446.005	17.92
446.363	17.91
446.721	18.02
447.079	17.8
447.437	18.02
447.795	18.04
448.153	17.91
448.51	17.77
448.868	17.89
449.226	18.11
449.584	18.03
449.941	18.34
450.299	18.33
450.656	18.35
451.014	18.42
451.371	18.34
451.729	18.51
452.086	18.77
452.443	18.85
452.801	18.9
453.158	18.88
453.515	18.72
453.872	19.15
454.229	18.74
454.586	18.9
454.943	18.88
455.3	18.99
455.657	18.95
456.014	19.05
456.371	19.22
456.727	19.26
457.084	19.39
457.441	19.43
457.797	19.49
458.154	19.7
458.51	19.52
458.867	19.56
459.223	19.47
459.58	19.56
459.936	19.58
460.292	19.6
460.648	19.5
461.005	19.49
461.361	19.58
461.717	19.39
462.073	19.35
462.429	19.4
462.785	19.5
463.141	19.69
463.496	19.9
463.852	20.22
464.208	19.98
464.564	20.15
464.919	20.07
465.275	20.25
465.631	20.47
465.986	20.33
466.342	20.31
466.697	20.45
467.052	20.44
467.408	20.69
467.763	20.45
468.118	20.6
468.473	20.41
468.829	20.69
469.184	20.5
469.539	20.64
469.894	20.54
470.249	20.96
470.603	20.85
470.958	20.99
471.313	20.74
471.668	21.09
472.023	20.97
472.377	21.13
472.732	20.99
473.086	20.99
473.441	20.93
473.795	21.17
474.15	21.31
474.504	21.19
474.859	21.23
475.213	21.08
475.567	21.25
475.921	21.31
476.275	21.33
476.63	21.68
476.984	21.57
477.338	21.55
477.692	21.6
478.045	21.75
478.399	21.62
478.753	21.59
479.107	21.5
479.461	21.79
479.814	21.71
480.168	21.62
480.521	21.55
480.875	21.69
481.228	21.9
481.582	21.96
481.935	21.78
482.289	21.76
482.642	21.91
482.995	21.87
483.348	21.84
483.701	21.79
484.055	21.83
484.408	21.71
484.761	21.55
485.114	21.38
485.466	20.96
485.819	20.89
486.172	20.9
486.525	21.08
486.878	21.14
487.23	21.34
487.583	21.55
487.936	21.6
488.288	21.69
488.641	21.6
488.993	21.49
489.345	21.46
489.698	21.38
490.05	21.43
490.402	21.59
490.754	21.67
491.107	21.91
491.459	22.12
491.811	22.27
492.163	22.45
492.515	22.36
492.866	22.3
493.218	22.01
493.57	21.91
493.922	21.74
494.274	22.19
494.625	22.4
494.977	22.58
495.328	22.77
495.68	22.86
496.031	22.91
496.383	23.06
496.734	23.38
497.086	23.22
497.437	23.3
497.788	23.36
498.139	23.12
498.49	23.17
498.842	22.94
499.193	23.3
499.544	23.04
499.894	23.15
500.245	23.36
500.596	23.19
500.947	23.58
501.298	23.49
501.648	23.61
501.999	23.73
502.35	23.54
502.7	23.74
503.051	23.67
503.401	23.89
503.752	24.04
504.102	24.05
504.452	23.89
504.803	23.94
505.153	23.97
505.503	24.06
505.853	23.86
506.203	24.12
506.553	23.94
506.903	24.04
507.253	24.14
507.603	24.06
507.953	24.4
508.303	24.38
508.652	24.14
509.002	24.34
509.352	24.28
509.701	24.03
510.051	24.37
510.4	24.18
510.75	24.01
511.099	24.29
511.449	24.24
511.798	24.15
512.147	24.26
512.496	24.26
512.846	24.25
513.195	24.42
513.544	24.29
513.893	24.33
514.242	24.43
514.591	24.4
514.939	24.32
515.288	24.46
515.637	24.74
515.986	24.61
516.334	24.71
516.683	24.87
517.032	24.65
517.38	24.78
517.729	25.02
518.077	24.79
518.426	24.85
518.774	24.8
519.122	24.58
519.47	24.75
519.819	24.5
520.167	24.56
520.515	24.42
520.863	24.56
521.211	24.6
521.559	24.65
521.907	24.72
522.255	24.79
522.602	24.92
522.95	24.79
523.298	24.98
523.645	25.11
523.993	25.05
524.341	25.23
524.688	25.34
525.036	25.29
525.383	25.25
525.73	25.45
526.078	25.22
526.425	25.12
526.772	25.14
527.119	25.05
527.466	24.86
527.814	24.84
528.161	24.83
528.508	24.92
528.854	24.94
529.201	24.8
529.548	24.74
529.895	24.6
530.242	24.13
530.588	24.06
530.935	24.24
531.282	24.42
531.628	24.54
531.975	24.67
532.321	24.79
532.667	25.09
533.014	25.21
533.36	25.2
533.706	25.33
534.052	25.41
534.399	25.24
534.745	25.05
535.091	24.98
535.437	24.9
535.783	25.07
536.129	25.26
536.474	25.32
536.82	25.49
537.166	25.62
537.512	25.65
537.857	25.42
538.203	25.59
538.549	25.4
538.894	25.44
539.239	25.58
539.585	25.76
539.93	25.83
540.276	26.05
540.621	26.03
540.966	26.21
541.311	26.08
541.656	26.17
542.001	26.08
542.346	25.99
542.691	25.64
543.036	25.39
543.381	25.15
543.726	25.35
544.071	25.53
544.415	25.7
544.76	25.82
545.105	25.8
545.449	26.02
545.794	26.18
546.138	26.22
546.483	26.32
546.827	26.46
547.171	26.36
547.516	26.5
547.86	26.47
548.204	26.3
548.548	26.29
548.892	26.41
549.236	26.38
549.58	26.5
549.924	26.81
550.268	26.8
550.612	26.94
550.956	27.06
551.3	27.03
551.643	27.24
551.987	27.32
552.33	27.18
552.674	27.32
553.017	27.05
553.361	27.21
553.704	27.36
554.048	27.06
554.391	26.98
554.734	27.2
555.077	26.94
555.42	27.22
555.764	27.14
556.107	27.23
556.45	27.26
556.793	27.42
557.135	27.73
557.478	27.79
557.821	27.68
558.164	27.39
558.507	27.57
558.849	27.53
559.192	27.56
559.534	27.59
559.877	27.93
560.219	27.89
560.562	27.95
560.904	27.93
561.246	28.03
561.589	27.95
561.931	27.75
562.273	27.91
562.615	27.78
562.957	27.84
563.299	27.74
563.641	27.96
563.983	28.09
564.325	27.88
564.667	27.79
565.008	28.03
565.35	27.98
565.692	27.93
566.033	27.91
566.375	28.24
566.716	28.16
567.058	27.97
567.399	27.68
567.741	27.78
568.082	27.97
568.423	27.81
568.764	28.09
569.105	27.88
569.447	27.68
569.788	28.24
570.129	28.2
570.47	28.15
570.811	28.36
571.151	28.23
571.492	28.43
571.833	28.27
572.174	28.44
572.514	28.17
572.855	28.27
573.195	28.3
573.536	28.27
573.876	28.08
574.217	28.23
574.557	28.39
574.898	28.48
575.238	28.5
575.578	28.24
575.918	28.28
576.258	28.47
576.598	28.47
576.938	28.4
577.278	28.6
577.618	28.78
577.958	28.52
578.298	28.59
578.638	28.71
578.977	28.78
579.317	28.57
579.657	28.63
579.996	29.1
580.336	28.92
580.675	28.97
581.014	28.88
581.354	28.83
581.693	29.04
582.032	29
582.372	29.01
582.711	29.16
583.05	28.97
583.389	29.06
583.728	28.83
584.067	29.3
584.406	29.12
584.745	29.31
585.083	29.45
585.422	29.41
585.761	29.51
586.1	29.44
586.438	29.5
586.777	29.46
587.115	29.41
587.454	29.33
587.792	29.57
588.13	29.37
588.469	29.51
588.807	29.62
589.145	29.55
589.483	29.45
589.821	29.23
590.159	29.54
590.497	29.69
590.835	29.78
591.173	29.61
591.511	29.35
591.849	29.78
592.187	29.67
592.524	29.54
592.862	29.88
593.2	29.58
593.537	29.79
593.875	29.42
594.212	29.48
594.55	29.69
594.887	29.96
595.224	29.51
595.561	29.96
595.899	29.69
596.236	29.81
596.573	30.02
596.91	29.53
597.247	29.72
597.584	29.9
597.921	30.13
598.258	29.72
598.594	29.82
598.931	29.71
599.268	29.58
599.604	29.52
599.941	29.83
600.277	29.75
600.614	30.19
600.95	29.92
601.287	30.18
601.623	30.1
601.959	30.04
602.296	30.25
602.632	30.1
602.968	30.19
603.304	30.14
603.64	30.57
603.976	30.43
604.312	30.21
604.648	30.22
604.984	30.05
605.319	30.24
605.655	30.16
605.991	30.04
606.326	30.32
606.662	30.12
606.998	29.96
607.333	30.02
607.668	30.37
608.004	30.66
608.339	30.55
608.674	30.49
609.01	30.44
609.345	30.63
609.68	30.88
610.015	30.29
610.35	30.45
610.685	30.13
611.02	30.2
611.355	30.49
611.689	30.32
612.024	30.49
612.359	30.5
612.694	30.51
613.028	30.46
613.363	30.66
613.697	30.61
614.032	30.93
614.366	30.56
614.7	31.13
615.035	31.21
615.369	30.95
615.703	31.04
616.037	31.23
616.371	30.94
616.705	30.47
617.039	30.48
617.373	31.09
617.707	30.59
618.041	31.05
618.375	30.85
618.709	31.28
619.042	31.69
619.376	31.42
619.71	30.94
620.043	30.85
620.377	30.87
620.71	31.17
621.043	30.95
621.377	31.33
621.71	31.56
622.043	31.12
622.376	30.89
622.709	31.35
623.043	31.55
623.376	31.33
623.709	30.84
624.041	31.41
624.374	31.49
624.707	31.32
625.04	31.62
625.373	30.46
625.705	31.34
626.038	31.62
626.37	31.28
626.703	31.44
627.035	31.89
627.368	31.95
627.7	31.43
628.032	31.63
628.365	31.25
628.697	31.31
629.029	31.2
629.361	31.29
629.693	31.58
630.025	31.46
630.357	31.48
630.689	31.79
631.021	31.59
631.353	31.53
631.684	31.66
632.016	31.67
632.348	31.96
632.679	31.7
633.011	31.95
633.342	31.67
633.674	31.62
634.005	32.25
634.336	31.65
634.668	31.9
634.999	32.28
635.33	32.07
635.661	31.87
635.992	31.98
636.323	32.06
636.654	32.05
636.985	32.1
637.316	31.94
637.647	31.77
637.977	32.17
638.308	32.09
638.639	32.02
638.969	31.93
639.3	31.53
639.63	31.35
639.961	32.06
640.291	32.52
640.622	32.17
640.952	32.25
641.282	32.75
641.612	31.92
641.943	32.29
642.273	32.46
642.603	32.47
642.933	32.53
643.263	32.09
643.592	32.77
643.922	32.3
644.252	32.32
644.582	32.75
644.911	32.31
645.241	32.35
645.571	32.43
645.9	31.56
646.23	32.24
646.559	32.52
646.888	32.31
647.218	32.34
647.547	32.28
647.876	32.14
648.205	32.18
648.534	32.45
648.863	32.24
649.192	32.95
649.521	32.18
649.85	32.51
650.179	32.43
650.508	32.37
650.837	32.27
651.165	32.14
651.494	32.87
651.822	32.56
652.151	32.86
652.479	32.97
652.808	32.91
653.136	32.99
653.465	32.35
653.793	32.69
654.121	32.76
654.449	33.11
654.777	32.86
655.105	32.73
655.433	32.85
655.761	33.13
656.089	32.57
656.417	33.28
656.745	32.84
657.073	32.46
657.4	33.39
657.728	32.79
658.056	32.53
658.383	33.48
658.711	33.02
659.038	33.29
659.365	32.78
659.693	33.31
660.02	32.55
660.347	33.78
660.674	32.96
661.001	33.11
661.329	32.22
661.656	32.93
661.982	33.47
662.309	32.75
662.636	33.01
662.963	33.41
663.29	33.29
663.616	33.46
663.943	33.03
664.27	33.4
664.596	33.47
664.923	33.37
665.249	33.6
665.576	33.18
665.902	33.95
666.228	33.39
666.554	33.49
666.881	32.98
667.207	33.65
667.533	32.96
667.859	34.15
668.185	34.19
668.511	33.19
668.837	33.01
669.162	34.16
669.488	33.25
669.814	33.49
670.139	33.47
670.465	34.05
670.791	33.98
671.116	34.29
671.442	33.15
671.767	34.14
