Data from 0387_crown_Reflection__2__238.txt Node

Date: Fri Dec 15 18:30:55 CST 2023
User: ToomeyLab
Spectrometer: FLMS14357
Trigger mode: 0
Integration Time (sec): 1.000000E-2
Scans to average: 100
Electric dark correction enabled: true
Nonlinearity correction enabled: false
Boxcar width: 0
XAxis mode: Wavelengths
Number of Pixels in Spectrum: 2048
>>>>>Begin Spectral Data<<<<<
189.047	23.96
189.435	23.96
189.823	23.96
190.211	-180.32
190.599	-49.44
190.987	241.05
191.375	-95.06
191.763	-275.7
192.151	193.97
192.538	77.15
192.926	-9.28
193.314	119.15
193.702	65.92
194.089	-241.89
194.477	67.35
194.864	394.96
195.252	69.5
195.639	107.97
196.027	581.3
196.414	224.94
196.801	34.54
197.189	44.21
197.576	139.05
197.963	-67.39
198.351	-158.7
198.738	-33.88
199.125	28.35
199.512	-100.98
199.899	42.71
200.286	-3.97
200.673	37.82
201.06	3.02
201.447	44.05
201.833	49.21
202.22	-4.68
202.607	46.98
202.994	40.67
203.38	-0.2
203.767	24.97
204.154	-15.28
204.54	21.46
204.927	-63.8
205.313	-223.34
205.699	49.78
206.086	20.62
206.472	38.77
206.858	10.23
207.245	-4.31
207.631	12.9
208.017	-4.34
208.403	-30.65
208.789	8.71
209.175	8.23
209.561	-3.97
209.947	42.36
210.333	-21.17
210.719	25.38
211.105	38.82
211.491	-45.92
211.876	12.06
212.262	24.25
212.648	6.51
213.034	33.71
213.419	-40.56
213.805	-57.38
214.19	-28.25
214.576	-1.65
214.961	11.92
215.346	-53.38
215.732	-24.37
216.117	29.01
216.502	-60.75
216.888	34.36
217.273	13.73
217.658	-35.26
218.043	-18.39
218.428	-60.96
218.813	-70.9
219.198	-53.44
219.583	-20.87
219.968	12.79
220.353	-10.51
220.738	0.24
221.122	7.62
221.507	-50.12
221.892	-28.8
222.276	-10.13
222.661	22.83
223.046	20.69
223.43	7.38
223.815	12.08
224.199	-9.11
224.583	5.8
224.968	2.72
225.352	5.8
225.736	-6.28
226.121	-9.32
226.505	-0.88
226.889	12.71
227.273	-1.33
227.657	4.27
228.041	-1.03
228.425	1.35
228.809	8.22
229.193	3.95
229.577	0.23
229.961	3.12
230.344	3.67
230.728	4.06
231.112	4.58
231.495	3.51
231.879	2.19
232.263	5.28
232.646	3.93
233.03	3.17
233.413	2.35
233.797	4.22
234.18	1
234.563	3.61
234.946	0.85
235.33	4.09
235.713	3.84
236.096	4.81
236.479	4.38
236.862	2.6
237.245	4.35
237.628	4.1
238.011	4.77
238.394	4.98
238.777	5.29
239.16	3.24
239.543	5.01
239.925	3.67
240.308	3.32
240.691	3.07
241.073	3.27
241.456	3.19
241.838	6.02
242.221	2.74
242.603	5.14
242.986	4.08
243.368	3.64
243.75	4.78
244.133	4.25
244.515	4.5
244.897	4.1
245.279	3.89
245.661	4.33
246.043	3.9
246.425	3.42
246.807	4.69
247.189	5.24
247.571	4.32
247.953	4.43
248.335	4.27
248.717	4.49
249.098	4.36
249.48	4.39
249.862	4.61
250.243	4.39
250.625	4.39
251.006	4.31
251.388	4.17
251.769	4.66
252.151	4.52
252.532	4
252.913	3.94
253.295	4.29
253.676	3.59
254.057	4.13
254.438	3.86
254.819	4.13
255.2	3.72
255.581	3.8
255.962	3.3
256.343	4.29
256.724	3.96
257.105	4.42
257.486	3.45
257.867	5.56
258.247	4.19
258.628	4.66
259.009	4.19
259.389	3.75
259.77	4.16
260.15	2.92
260.531	3.86
260.911	4.89
261.292	4.19
261.672	4.3
262.052	4.36
262.432	4.45
262.813	4.81
263.193	4.01
263.573	3.38
263.953	3.47
264.333	4.24
264.713	4.5
265.093	3.77
265.473	3.87
265.853	3.05
266.233	3.63
266.612	2.59
266.992	3.22
267.372	4.66
267.752	3.81
268.131	4.3
268.511	4.8
268.89	4.02
269.27	3.54
269.649	3.89
270.029	3.84
270.408	4.46
270.787	4.64
271.167	4.65
271.546	4.72
271.925	3.34
272.304	3.81
272.683	4.51
273.062	3.44
273.441	4.32
273.82	3.11
274.199	3.59
274.578	3.88
274.957	4.07
275.336	3.84
275.715	3.92
276.093	3.65
276.472	3.99
276.851	3.29
277.229	3.17
277.608	3.45
277.986	4.3
278.365	3.95
278.743	3.17
279.122	3.86
279.5	3.56
279.878	4.39
280.257	3.75
280.635	3.2
281.013	4.09
281.391	4.39
281.769	4.19
282.147	4.41
282.525	4.13
282.903	3.85
283.281	3.94
283.659	3.54
284.037	4.19
284.415	3.89
284.792	3.9
285.17	3.46
285.548	3.57
285.925	4.26
286.303	3.88
286.68	3.84
287.058	4.13
287.435	4.09
287.813	4.16
288.19	3.55
288.567	3.77
288.945	4.45
289.322	4.42
289.699	3.87
290.076	3.74
290.453	3.75
290.83	3.85
291.207	3.9
291.584	4.24
291.961	4.22
292.338	4.07
292.715	4.53
293.092	4.21
293.469	3.79
293.845	4.37
294.222	3.46
294.599	4.06
294.975	3.99
295.352	4.9
295.728	4.09
296.105	4.02
296.481	4.43
296.858	4.13
297.234	4.3
297.61	4.22
297.986	4.04
298.363	4.63
298.739	4.04
299.115	4.24
299.491	4.44
299.867	4.68
300.243	4.74
300.619	4.11
300.995	4.53
301.371	4.58
301.746	4.57
302.122	5.4
302.498	4.24
302.874	4.35
303.249	4.64
303.625	4.73
304	5.06
304.376	4.51
304.751	4.17
305.127	5.03
305.502	4.15
305.878	4.06
306.253	4.9
306.628	4.85
307.003	4.61
307.378	4.77
307.754	4.8
308.129	4.09
308.504	4.91
308.879	4.56
309.254	5.49
309.629	4.71
310.003	4.72
310.378	5.5
310.753	4.94
311.128	4.76
311.502	4.66
311.877	4.93
312.252	4.6
312.626	4.66
313.001	4.55
313.375	5.19
313.75	4.42
314.124	5.13
314.498	4.87
314.873	5.07
315.247	4.63
315.621	4.88
315.995	4.7
316.369	5.2
316.743	5.27
317.117	5.04
317.491	4.78
317.865	5.08
318.239	5.3
318.613	5.03
318.987	5.24
319.361	5.02
319.734	5.26
320.108	5.13
320.482	5.09
320.855	5.47
321.229	5.16
321.602	4.79
321.976	4.85
322.349	5.46
322.723	4.97
323.096	5.84
323.469	4.54
323.843	5.78
324.216	5.87
324.589	5.16
324.962	5.11
325.335	4.9
325.708	4.98
326.081	4.79
326.454	5.34
326.827	5.08
327.2	5.38
327.573	5.39
327.945	4.86
328.318	5.07
328.691	4.26
329.063	5.07
329.436	4.89
329.809	5.15
330.181	4.67
330.553	5.06
330.926	5
331.298	5.36
331.671	5.14
332.043	5.92
332.415	6.12
332.787	5.3
333.159	6.2
333.532	5.44
333.904	5.01
334.276	5.08
334.648	5.05
335.02	5.25
335.391	5.32
335.763	4.96
336.135	5.04
336.507	5.44
336.879	5.04
337.25	4.79
337.622	5.23
337.993	5.17
338.365	5.15
338.736	5.6
339.108	5.05
339.479	5.43
339.851	5.14
340.222	5.05
340.593	5.47
340.964	4.7
341.336	6.29
341.707	5.23
342.078	5.49
342.449	5.41
342.82	5.13
343.191	5.54
343.562	5.23
343.933	5.64
344.303	5.21
344.674	4.96
345.045	5.44
345.416	5.76
345.786	5.23
346.157	5.21
346.527	5.04
346.898	4.93
347.268	5.32
347.639	5.41
348.009	5.17
348.38	5.01
348.75	5.57
349.12	5.31
349.49	5.97
349.861	5.36
350.231	5.18
350.601	5.62
350.971	5.39
351.341	5.17
351.711	5.33
352.081	5.19
352.45	4.84
352.82	5.34
353.19	5.07
353.56	4.94
353.929	5.33
354.299	5.4
354.669	5.07
355.038	5.31
355.408	5.08
355.777	5.2
356.147	5.06
356.516	5.62
356.885	5.15
357.254	5.13
357.624	5.62
357.993	5.34
358.362	5.05
358.731	5.09
359.1	5.69
359.469	5.25
359.838	5.59
360.207	5.15
360.576	5.07
360.945	5.53
361.314	5.98
361.682	5.22
362.051	5.32
362.42	5.55
362.788	5.13
363.157	5.32
363.525	5.41
363.894	5.64
364.262	5.47
364.631	5.3
364.999	5.3
365.367	4.93
365.735	5.98
366.104	5.85
366.472	5.47
366.84	5.38
367.208	5.01
367.576	5.47
367.944	5.94
368.312	5.53
368.68	5.06
369.048	5.42
369.416	5.51
369.783	5.27
370.151	5.58
370.519	5.77
370.886	5.63
371.254	5.44
371.621	5.4
371.989	5.45
372.356	4.83
372.724	5.97
373.091	5.47
373.458	5.29
373.826	5.54
374.193	5.15
374.56	5.72
374.927	5.6
375.294	5.29
375.661	5.61
376.028	5.35
376.395	5.48
376.762	5.64
377.129	5.58
377.496	5.55
377.863	5.11
378.229	5.22
378.596	5.6
378.963	5.54
379.329	5.53
379.696	5.64
380.062	5.65
380.429	5.33
380.795	5.19
381.161	5.65
381.528	5.62
381.894	5.22
382.26	5.14
382.626	5.65
382.993	5.35
383.359	6.14
383.725	5.4
384.091	5.37
384.457	5.57
384.823	5.63
385.188	5.52
385.554	5.64
385.92	5.62
386.286	5.92
386.651	5.98
387.017	5.84
387.383	5.63
387.748	5.49
388.114	5.76
388.479	5.56
388.845	5.71
389.21	5.92
389.575	5.72
389.94	5.52
390.306	5.83
390.671	5.47
391.036	5.39
391.401	5.4
391.766	5.83
392.131	5.78
392.496	5.78
392.861	5.65
393.226	5.7
393.591	5.6
393.956	5.45
394.32	5.65
394.685	5.72
395.05	5.4
395.414	5.65
395.779	5.52
396.143	5.87
396.508	5.62
396.872	5.75
397.236	5.86
397.601	5.45
397.965	5.69
398.329	5.52
398.694	6.08
399.058	5.62
399.422	5.24
399.786	5.75
400.15	5.86
400.514	5.69
400.878	5.96
401.242	5.92
401.605	6
401.969	5.81
402.333	5.63
402.697	5.8
403.06	5.89
403.424	5.78
403.787	5.92
404.151	6.04
404.514	5.67
404.878	5.81
405.241	6.03
405.604	5.72
405.968	6.11
406.331	5.89
406.694	5.98
407.057	5.72
407.42	5.74
407.783	5.68
408.146	5.89
408.509	5.85
408.872	5.89
409.235	5.67
409.598	6.17
409.961	5.93
410.323	6
410.686	5.69
411.049	5.73
411.411	5.68
411.774	5.96
412.136	5.82
412.499	5.84
412.861	5.79
413.223	5.87
413.586	5.74
413.948	5.82
414.31	5.86
414.672	5.79
415.035	5.67
415.397	6
415.759	5.66
416.121	6.05
416.483	5.68
416.845	5.88
417.206	5.67
417.568	6.04
417.93	5.63
418.292	5.85
418.653	5.95
419.015	5.71
419.377	5.88
419.738	5.96
420.1	5.85
420.461	5.81
420.822	5.83
421.184	5.87
421.545	5.87
421.906	5.76
422.267	5.81
422.629	5.8
422.99	5.89
423.351	5.78
423.712	5.73
424.073	5.81
424.434	5.87
424.795	5.84
425.155	5.85
425.516	5.82
425.877	5.7
426.238	5.71
426.598	5.8
426.959	5.86
427.32	5.74
427.68	5.8
428.041	5.73
428.401	5.99
428.761	5.85
429.122	5.98
429.482	5.91
429.842	6.03
430.202	5.99
430.563	6
430.923	5.86
431.283	6.22
431.643	6
432.003	6.06
432.363	5.94
432.722	5.84
433.082	6.08
433.442	6.03
433.802	5.96
434.161	5.97
434.521	6.29
434.881	6.26
435.24	5.98
435.6	5.89
435.959	5.94
436.319	6.13
436.678	6.1
437.037	5.95
437.396	6.04
437.756	6.17
438.115	6.08
438.474	6.23
438.833	5.8
439.192	6.23
439.551	6.35
439.91	6.02
440.269	6.18
440.628	6.1
440.987	6.09
441.345	6
441.704	6.2
442.063	6.01
442.421	6.04
442.78	6.02
443.138	6.04
443.497	6.1
443.855	6.09
444.214	6.1
444.572	6.15
444.93	6.14
445.288	6.13
445.647	6.28
446.005	6.04
446.363	6.14
446.721	6.24
447.079	6.12
447.437	6.07
447.795	6.26
448.153	6.04
448.51	6.06
448.868	6
449.226	6.13
449.584	6.13
449.941	6.33
450.299	6.09
450.656	6.27
451.014	6.2
451.371	6.04
451.729	6.16
452.086	6.3
452.443	6.21
452.801	6.29
453.158	6.13
453.515	6.26
453.872	6.32
454.229	6.25
454.586	6.34
454.943	6.16
455.3	6.38
455.657	6.42
456.014	6.17
456.371	6.32
456.727	6.23
457.084	6.59
457.441	6.37
457.797	6.4
458.154	6.54
458.51	6.37
458.867	6.6
459.223	6.5
459.58	6.58
459.936	6.34
460.292	6.43
460.648	6.38
461.005	6.29
461.361	6.31
461.717	6.51
462.073	6.33
462.429	6.14
462.785	6.42
463.141	6.43
463.496	6.33
463.852	6.63
464.208	6.44
464.564	6.54
464.919	6.46
465.275	6.46
465.631	6.61
465.986	6.47
466.342	6.45
466.697	6.4
467.052	6.73
467.408	6.52
467.763	6.33
468.118	6.48
468.473	6.54
468.829	6.51
469.184	6.47
469.539	6.67
469.894	6.28
470.249	6.85
470.603	6.52
470.958	6.6
471.313	6.61
471.668	6.78
472.023	6.53
472.377	6.52
472.732	6.62
473.086	6.54
473.441	6.31
473.795	6.71
474.15	6.63
474.504	6.74
474.859	6.59
475.213	6.52
475.567	6.52
475.921	6.53
476.275	6.62
476.63	6.75
476.984	6.79
477.338	6.73
477.692	6.49
478.045	6.73
478.399	6.62
478.753	6.55
479.107	6.68
479.461	6.69
479.814	6.71
480.168	6.63
480.521	6.79
480.875	6.54
481.228	6.63
481.582	6.63
481.935	6.7
482.289	6.72
482.642	6.67
482.995	6.59
483.348	6.55
483.701	6.65
484.055	6.73
484.408	6.67
484.761	6.61
485.114	6.53
485.466	6.39
485.819	6.37
486.172	6.35
486.525	6.33
486.878	6.42
487.23	6.42
487.583	6.55
487.936	6.6
488.288	6.56
488.641	6.64
488.993	6.54
489.345	6.49
489.698	6.44
490.05	6.46
490.402	6.52
490.754	6.46
491.107	6.67
491.459	6.69
491.811	6.68
492.163	6.79
492.515	6.77
492.866	6.71
493.218	6.71
493.57	6.61
493.922	6.55
494.274	6.63
494.625	6.63
494.977	6.69
495.328	6.83
495.68	6.72
496.031	6.91
496.383	6.9
496.734	6.91
497.086	7.04
497.437	6.83
497.788	6.91
498.139	6.7
498.49	6.8
498.842	6.93
499.193	6.89
499.544	6.87
499.894	6.87
500.245	6.86
500.596	6.89
500.947	7.03
501.298	6.83
501.648	6.97
501.999	7.01
502.35	7.02
502.7	7.05
503.051	6.9
503.401	6.9
503.752	7.29
504.102	7.04
504.452	6.91
504.803	6.99
505.153	6.96
505.503	6.92
505.853	6.96
506.203	7.04
506.553	6.99
506.903	6.9
507.253	7.07
507.603	6.86
507.953	7.07
508.303	7.13
508.652	6.88
509.002	7.12
509.352	7.07
509.701	7.04
510.051	7.05
510.4	7.09
510.75	7.09
511.099	7.08
511.449	7.18
511.798	7.08
512.147	7.11
512.496	7.04
512.846	7.09
513.195	7.26
513.544	7.1
513.893	7.13
514.242	7
514.591	7.35
514.939	7.06
515.288	7.07
515.637	7.26
515.986	7.15
516.334	7.2
516.683	7.27
517.032	7.29
517.38	7.35
517.729	7.28
518.077	7.11
518.426	7.29
518.774	7.29
519.122	7.14
519.47	7.28
519.819	7.2
520.167	7.21
520.515	7.14
520.863	7.26
521.211	7.22
521.559	7.27
521.907	7.12
522.255	7.17
522.602	7.24
522.95	7.3
523.298	7.23
523.645	7.27
523.993	7.28
524.341	7.39
524.688	7.25
525.036	7.29
525.383	7.39
525.73	7.56
526.078	7.34
526.425	7.38
526.772	7.41
527.119	7.43
527.466	7.3
527.814	7.32
528.161	7.34
528.508	7.31
528.854	7.3
529.201	7.35
529.548	7.29
529.895	7.29
530.242	7.12
530.588	7.14
530.935	7.13
531.282	7.17
531.628	7.22
531.975	7.23
532.321	7.24
532.667	7.38
533.014	7.49
533.36	7.41
533.706	7.38
534.052	7.46
534.399	7.34
534.745	7.33
535.091	7.29
535.437	7.35
535.783	7.34
536.129	7.36
536.474	7.4
536.82	7.39
537.166	7.64
537.512	7.51
537.857	7.52
538.203	7.58
538.549	7.54
538.894	7.46
539.239	7.5
539.585	7.66
539.93	7.47
540.276	7.63
540.621	7.67
540.966	7.68
541.311	7.57
541.656	7.65
542.001	7.66
542.346	7.7
542.691	7.63
543.036	7.6
543.381	7.46
543.726	7.42
544.071	7.46
544.415	7.47
544.76	7.52
545.105	7.64
545.449	7.57
545.794	7.72
546.138	7.75
546.483	7.78
546.827	7.77
547.171	7.73
547.516	7.83
547.86	7.67
548.204	7.79
548.548	7.66
548.892	7.86
549.236	7.71
549.58	7.71
549.924	7.85
550.268	8.04
550.612	7.95
550.956	7.89
551.3	7.81
551.643	7.98
551.987	7.84
552.33	7.91
552.674	8
553.017	7.91
553.361	8
553.704	8.15
554.048	7.91
554.391	7.88
554.734	7.99
555.077	8.03
555.42	7.9
555.764	7.88
556.107	7.93
556.45	7.97
556.793	8.07
557.135	8.02
557.478	8.33
557.821	7.94
558.164	7.98
558.507	8.3
558.849	8.06
559.192	8.22
559.534	8.12
559.877	8.25
560.219	8.04
560.562	8.34
560.904	7.94
561.246	8.05
561.589	8.33
561.931	7.98
562.273	8.06
562.615	8.29
562.957	8.15
563.299	7.9
563.641	8.32
563.983	8.29
564.325	7.93
564.667	8.07
565.008	8.12
565.35	8.14
565.692	8.14
566.033	8.11
566.375	8.58
566.716	8.43
567.058	8.19
567.399	8.15
567.741	8.07
568.082	8.28
568.423	8.26
568.764	8.28
569.105	8.46
569.447	8.21
569.788	8.24
570.129	8.34
570.47	8.26
570.811	8.4
571.151	8.39
571.492	8.38
571.833	8.3
572.174	8.18
572.514	8.36
572.855	8.43
573.195	8.33
573.536	8.47
573.876	8.28
574.217	8.33
574.557	8.35
574.898	8.41
575.238	8.36
575.578	8.2
575.918	8.59
576.258	8.6
576.598	8.43
576.938	8.52
577.278	8.63
577.618	8.38
577.958	8.36
578.298	8.41
578.638	8.36
578.977	8.48
579.317	8.37
579.657	8.46
579.996	8.55
580.336	8.65
580.675	8.56
581.014	8.37
581.354	8.76
581.693	8.63
582.032	8.72
582.372	8.6
582.711	8.79
583.05	8.72
583.389	8.53
583.728	8.54
584.067	8.88
584.406	8.79
584.745	8.72
585.083	8.86
585.422	8.57
585.761	8.86
586.1	8.71
586.438	8.75
586.777	8.5
587.115	8.8
587.454	8.61
587.792	8.67
588.13	8.96
588.469	8.65
588.807	8.61
589.145	8.47
589.483	8.91
589.821	8.58
590.159	8.96
590.497	9.22
590.835	9.08
591.173	8.82
591.511	9.07
591.849	8.98
592.187	8.87
592.524	8.92
592.862	8.92
593.2	9.02
593.537	8.79
593.875	8.71
594.212	8.69
594.55	8.75
594.887	8.75
595.224	8.82
595.561	8.95
595.899	8.86
596.236	8.87
596.573	9.01
596.91	8.86
597.247	8.65
597.584	9.1
597.921	8.82
598.258	8.76
598.594	8.91
598.931	8.98
599.268	9.15
599.604	8.83
599.941	9.02
600.277	8.96
600.614	9
600.95	8.85
601.287	9.31
601.623	8.92
601.959	8.71
602.296	8.99
602.632	9.02
602.968	9.16
603.304	9.37
603.64	9.5
603.976	9.41
604.312	9.1
604.648	9.24
604.984	9.06
605.319	9.09
605.655	8.98
605.991	9.12
606.326	9.24
606.662	8.93
606.998	8.93
607.333	9.3
607.668	9.27
608.004	9.22
608.339	9.36
608.674	9.21
609.01	9.14
609.345	8.76
609.68	9.38
610.015	8.96
610.35	9.08
610.685	9.21
611.02	9.46
611.355	9.33
611.689	9.32
612.024	9.34
612.359	9.36
612.694	9.27
613.028	9.03
613.363	9.18
613.697	9.5
614.032	9.34
614.366	9.36
614.7	9.63
615.035	9.5
615.369	9.08
615.703	9.33
616.037	9.68
616.371	9.25
616.705	9.37
617.039	9.43
617.373	9.43
617.707	9.23
618.041	9.29
618.375	9.54
618.709	9.84
619.042	9.19
619.376	9.6
619.71	9.82
620.043	9.33
620.377	9.93
620.71	9.52
621.043	9.5
621.377	9.59
621.71	9.72
622.043	9.31
622.376	9.11
622.709	9.53
623.043	9.98
623.376	9.54
623.709	9.68
624.041	9.49
624.374	9.82
624.707	9.39
625.04	9.57
625.373	9
625.705	9.63
626.038	9.53
626.37	9.68
626.703	9.44
627.035	9.8
627.368	9.92
627.7	9.6
628.032	9.73
628.365	10.17
628.697	9.74
629.029	9.39
629.361	9.8
629.693	10.05
630.025	9.36
630.357	10.33
630.689	9.76
631.021	9.68
631.353	9.68
631.684	9.68
632.016	9.87
632.348	9.86
632.679	10.27
633.011	9.72
633.342	9.97
633.674	9.65
634.005	10.13
634.336	9.76
634.668	10.18
634.999	9.63
635.33	10.3
635.661	9.75
635.992	9.85
636.323	10.1
636.654	10.02
636.985	9.86
637.316	9.89
637.647	9.62
637.977	10.2
638.308	10.15
638.639	9.49
638.969	9.89
639.3	9.82
639.63	9.58
639.961	10.37
640.291	9.97
640.622	10.6
640.952	10.22
641.282	10.67
641.612	10.07
641.943	10.17
642.273	10.09
642.603	10.15
642.933	10.06
643.263	10.2
643.592	10.48
643.922	9.9
644.252	10.03
644.582	10.42
644.911	9.84
645.241	10.29
645.571	9.85
645.9	9.81
646.23	10
646.559	10.5
646.888	10.02
647.218	9.78
647.547	10.17
647.876	9.84
648.205	10.56
648.534	10.37
648.863	9.5
649.192	10.6
649.521	10.05
649.85	10.3
650.179	10.46
650.508	9.73
650.837	10.41
651.165	10.02
651.494	10.28
651.822	10.28
652.151	10.62
652.479	10.34
652.808	10.24
653.136	10.75
653.465	10.03
653.793	10.08
654.121	10.14
654.449	10.45
654.777	10.86
655.105	10.46
655.433	10.3
655.761	10.02
656.089	10.56
656.417	10.79
656.745	10.07
657.073	10.01
657.4	11.15
657.728	10.57
658.056	10.92
658.383	10.37
658.711	10.79
659.038	10.87
659.365	10.89
659.693	10.37
660.02	10.66
660.347	10.89
660.674	10.67
661.001	11.03
661.329	10.14
661.656	10.64
661.982	10.62
662.309	10.75
662.636	10.27
662.963	10.8
663.29	11.17
663.616	11.1
663.943	10.7
664.27	10.07
664.596	11.23
664.923	10.8
665.249	10.31
665.576	10.54
665.902	11.71
666.228	11.02
666.554	11.08
666.881	10.5
667.207	10.71
667.533	11.27
667.859	10.84
668.185	11.15
668.511	10.78
668.837	10.04
669.162	10.88
669.488	10.57
669.814	11.94
670.139	11.01
670.465	10.53
670.791	11.06
671.116	11.55
671.442	10.84
671.767	11.21
672.092	11.3
672.418	11.55
672.743	11.43
673.068	10.84
673.393	11.15
673.718	11.23
674.043	11.59
674.368	11.27
674.693	11.89
675.018	10.92
675.343	10.62
675.667	11.01
675.992	11.26
676.317	11.57
676.641	11.12
676.966	11.4
677.29	11.58
677.615	12.08
677.939	11.68
678.264	11.98
678.588	11.87
678.912	11.25
679.236	11.4
679.56	11.15
679.885	11.48
680.209	11.59
680.532	11.48
680.856	12.3
681.18	11.65
681.504	11.58
681.828	11.48
682.152	10.9
682.475	11.53
682.799	11.38
683.122	11.85
683.446	11.17
683.769	11.49
684.093	11.21
684.416	11.94
684.739	11.25
685.062	10.76
685.386	11.52
685.709	10.79
686.032	11.54
686.355	12.18
686.678	11.22
687.001	12.03
687.324	12.32
687.646	11.01
687.969	11.44
688.292	11.72
688.614	11.17
688.937	11.64
