Data from 0387_chest_Reflection__4__234.txt Node

Date: Fri Dec 15 18:28:38 CST 2023
User: ToomeyLab
Spectrometer: FLMS14357
Trigger mode: 0
Integration Time (sec): 1.000000E-2
Scans to average: 100
Electric dark correction enabled: true
Nonlinearity correction enabled: false
Boxcar width: 0
XAxis mode: Wavelengths
Number of Pixels in Spectrum: 2048
>>>>>Begin Spectral Data<<<<<
189.047	-59.42
189.435	-59.42
189.823	-59.42
190.211	-224.47
190.599	-37.86
190.987	147.69
191.375	191.6
191.763	-642.86
192.151	79.84
192.538	116.92
192.926	10.7
193.314	45.4
193.702	52.04
194.089	-184.82
194.477	32.86
194.864	842.26
195.252	61.47
195.639	112.4
196.027	1393.22
196.414	143.55
196.801	32.66
197.189	120.51
197.576	501.15
197.963	-12.22
198.351	-210.31
198.738	-5.73
199.125	0.89
199.512	-33.1
199.899	44.34
200.286	52.13
200.673	-34.4
201.06	9.81
201.447	-6.38
201.833	-27.69
202.22	19.15
202.607	-7.35
202.994	-12.57
203.38	1.62
203.767	17.26
204.154	10.8
204.54	48.93
204.927	-90.72
205.313	-206.98
205.699	30.26
206.086	34.77
206.472	-8.29
206.858	26.31
207.245	-67.54
207.631	46.15
208.017	34.24
208.403	-31.57
208.789	21.01
209.175	41.46
209.561	-87.11
209.947	-1.14
210.333	-94.46
210.719	37.59
211.105	10.46
211.491	-49.73
211.876	32.85
212.262	50.67
212.648	-22.12
213.034	2.55
213.419	-5.68
213.805	4.58
214.19	-84.6
214.576	-6.7
214.961	-24.83
215.346	-18.48
215.732	14.12
216.117	8.38
216.502	-34.71
216.888	-21.27
217.273	50.8
217.658	0.6
218.043	17.34
218.428	-72.85
218.813	-32.66
219.198	-24.7
219.583	-2.74
219.968	3.31
220.353	-32.83
220.738	20.55
221.122	9.66
221.507	6.04
221.892	-47.99
222.276	-29.48
222.661	-6.79
223.046	6.9
223.43	2.07
223.815	12.88
224.199	-12.25
224.583	9.47
224.968	-5.46
225.352	15.56
225.736	0.14
226.121	-10.23
226.505	-0.07
226.889	2.56
227.273	2.59
227.657	4.06
228.041	6.49
228.425	-3.94
228.809	3.27
229.193	1.46
229.577	-0.55
229.961	2.47
230.344	1.17
230.728	1.28
231.112	1.64
231.495	0.97
231.879	1.72
232.263	3.08
232.646	4.21
233.03	2.44
233.413	0.72
233.797	0.05
234.18	-0.34
234.563	1.53
234.946	-0.94
235.33	2.99
235.713	1.58
236.096	0.77
236.479	3.21
236.862	0.08
237.245	2.07
237.628	0.38
238.011	3.72
238.394	1.11
238.777	2.63
239.16	-0.2
239.543	0.89
239.925	2.11
240.308	1.55
240.691	2.58
241.073	1.45
241.456	2.1
241.838	2.94
242.221	1.28
242.603	3.35
242.986	1.43
243.368	2.86
243.75	2.16
244.133	2.71
244.515	2.54
244.897	2.2
245.279	2.28
245.661	1.74
246.043	2.5
246.425	1.48
246.807	3.61
247.189	3.56
247.571	2.27
247.953	2.22
248.335	2.35
248.717	2.8
249.098	2.27
249.48	2.5
249.862	2.3
250.243	2.46
250.625	2.31
251.006	3
251.388	1.47
251.769	1.8
252.151	3.53
252.532	1.49
252.913	1.65
253.295	2.59
253.676	2.17
254.057	2.87
254.438	2.29
254.819	2.34
255.2	1.76
255.581	0.89
255.962	1.88
256.343	1.83
256.724	1.34
257.105	2
257.486	2.19
257.867	3.49
258.247	2.92
258.628	1.28
259.009	1.45
259.389	2.55
259.77	1.28
260.15	2.41
260.531	1.85
260.911	2.82
261.292	2.29
261.672	2.68
262.052	2.72
262.432	2.94
262.813	2.65
263.193	2.31
263.573	2.3
263.953	2.88
264.333	2.55
264.713	2.4
265.093	1.7
265.473	2.04
265.853	2.39
266.233	2.85
266.612	0.31
266.992	1.27
267.372	2.26
267.752	2.37
268.131	2.54
268.511	2.99
268.89	2.68
269.27	1.79
269.649	1.95
270.029	2.06
270.408	2.82
270.787	2.77
271.167	2.53
271.546	3.33
271.925	1.93
272.304	1.78
272.683	3.11
273.062	2.44
273.441	2.56
273.82	1.87
274.199	2.02
274.578	2.32
274.957	2.69
275.336	2.36
275.715	2.11
276.093	2.47
276.472	2.36
276.851	2.05
277.229	2.45
277.608	2.22
277.986	2.6
278.365	2.8
278.743	1.97
279.122	2.35
279.5	2.4
279.878	2.81
280.257	1.69
280.635	2.59
281.013	1.73
281.391	2.23
281.769	2.67
282.147	2.14
282.525	2.96
282.903	1.95
283.281	2.94
283.659	2.8
284.037	2.72
284.415	2.44
284.792	2.62
285.17	1.66
285.548	1.9
285.925	2.15
286.303	2.79
286.68	2.02
287.058	2.43
287.435	2.37
287.813	2.62
288.19	2.14
288.567	2.74
288.945	3.1
289.322	1.9
289.699	2.22
290.076	2.23
290.453	2.57
290.83	1.95
291.207	2.33
291.584	2.65
291.961	2.48
292.338	2.23
292.715	3.06
293.092	2.39
293.469	2.65
293.845	2.3
294.222	2.03
294.599	2.26
294.975	1.84
295.352	2.59
295.728	2.56
296.105	2.82
296.481	2.59
296.858	3.44
297.234	2.91
297.61	2.28
297.986	2.43
298.363	2.77
298.739	3
299.115	2.8
299.491	2.57
299.867	2.47
300.243	2.5
300.619	2.67
300.995	3.02
301.371	2.97
301.746	2.83
302.122	3.06
302.498	2.58
302.874	3.12
303.249	2.78
303.625	2.75
304	3.11
304.376	2.51
304.751	2.27
305.127	3.71
305.502	2.62
305.878	2.54
306.253	3.14
306.628	3.39
307.003	2.85
307.378	3.39
307.754	2.94
308.129	2.53
308.504	3.31
308.879	2.43
309.254	4.21
309.629	3.63
310.003	3.43
310.378	3.49
310.753	3.47
311.128	3.52
311.502	3.42
311.877	3.52
312.252	3.12
312.626	3.29
313.001	3.41
313.375	3.98
313.75	3.23
314.124	3.37
314.498	3.17
314.873	3.27
315.247	3.5
315.621	3.62
315.995	2.45
316.369	2.97
316.743	3.25
317.117	3.5
317.491	3.2
317.865	3.33
318.239	3.55
318.613	3.19
318.987	3.19
319.361	3.29
319.734	4.18
320.108	3.23
320.482	3.22
320.855	3.79
321.229	3.45
321.602	3.24
321.976	3.72
322.349	3.26
322.723	3.57
323.096	4.02
323.469	3.61
323.843	3.76
324.216	4.04
324.589	3.55
324.962	3.61
325.335	3.43
325.708	3.42
326.081	3.26
326.454	3.94
326.827	3.85
327.2	3.6
327.573	4.59
327.945	4.13
328.318	3.73
328.691	3.34
329.063	3.38
329.436	3.76
329.809	4.41
330.181	3.24
330.553	3.45
330.926	3.71
331.298	3.98
331.671	3.84
332.043	4.47
332.415	4
332.787	3.88
333.159	4.45
333.532	4.36
333.904	4.15
334.276	4.16
334.648	4.28
335.02	4.37
335.391	3.74
335.763	3.99
336.135	4.06
336.507	3.93
336.879	4.14
337.25	3.42
337.622	3.96
337.993	4.11
338.365	4.34
338.736	4.44
339.108	3.86
339.479	3.72
339.851	4.18
340.222	3.54
340.593	4.01
340.964	4.18
341.336	4.31
341.707	3.89
342.078	4.48
342.449	4.62
342.82	4.2
343.191	3.91
343.562	3.76
343.933	4.18
344.303	4.09
344.674	3.65
345.045	4.17
345.416	4.56
345.786	3.74
346.157	4.24
346.527	3.57
346.898	3.07
347.268	4.58
347.639	4.3
348.009	4.26
348.38	3.94
348.75	4.4
349.12	4.17
349.49	4.45
349.861	4.34
350.231	3.69
350.601	4.19
350.971	3.88
351.341	3.71
351.711	4.2
352.081	3.87
352.45	3.71
352.82	4.45
353.19	3.67
353.56	4.02
353.929	4.49
354.299	4.03
354.669	4.01
355.038	4.55
355.408	3.97
355.777	4.29
356.147	3.78
356.516	4.32
356.885	4.16
357.254	4.31
357.624	4.17
357.993	4.26
358.362	4.2
358.731	3.9
359.1	4.2
359.469	4.68
359.838	4.47
360.207	4.26
360.576	4.17
360.945	4.4
361.314	4.6
361.682	4.07
362.051	3.85
362.42	4.53
362.788	4.15
363.157	4.4
363.525	4.52
363.894	4.38
364.262	4.44
364.631	4.33
364.999	4.35
365.367	3.83
365.735	5.18
366.104	4.56
366.472	4.57
366.84	4.4
367.208	4.37
367.576	4.59
367.944	4.87
368.312	4.47
368.68	4.17
369.048	4.52
369.416	4.52
369.783	4.1
370.151	4.46
370.519	4.72
370.886	4.79
371.254	4.33
371.621	4.45
371.989	4.59
372.356	3.97
372.724	4.1
373.091	4.13
373.458	4.11
373.826	4.64
374.193	4.44
374.56	4.54
374.927	4.36
375.294	4.58
375.661	4.17
376.028	4.28
376.395	4.61
376.762	4.46
377.129	4.54
377.496	4.76
377.863	4.91
378.229	4.14
378.596	4.9
378.963	4.28
379.329	4.36
379.696	4.66
380.062	4.7
380.429	4.72
380.795	4.38
381.161	4.62
381.528	4.93
381.894	4.6
382.26	4.45
382.626	4.73
382.993	4.26
383.359	5.32
383.725	4.4
384.091	4.58
384.457	5.17
384.823	4.36
385.188	4.56
385.554	4.61
385.92	4.64
386.286	4.76
386.651	4.59
387.017	5.23
387.383	4.82
387.748	4.49
388.114	4.78
388.479	4.48
388.845	4.99
389.21	5.13
389.575	4.89
389.94	4.89
390.306	4.85
390.671	4.97
391.036	4.63
391.401	4.53
391.766	4.76
392.131	4.74
392.496	4.58
392.861	4.74
393.226	4.95
393.591	4.87
393.956	4.56
394.32	4.7
394.685	4.72
395.05	4.63
395.414	4.87
395.779	4.56
396.143	4.65
396.508	4.83
396.872	4.95
397.236	5.02
397.601	4.8
397.965	4.77
398.329	4.71
398.694	4.79
399.058	5.1
399.422	4.82
399.786	5.01
400.15	4.84
400.514	4.79
400.878	5.08
401.242	5.45
401.605	4.93
401.969	4.72
402.333	5.14
402.697	4.81
403.06	4.96
403.424	4.83
403.787	4.9
404.151	4.86
404.514	4.9
404.878	4.89
405.241	5.01
405.604	5.03
405.968	5.19
406.331	4.94
406.694	5.07
407.057	4.97
407.42	5.09
407.783	4.82
408.146	5.09
408.509	5.04
408.872	5
409.235	4.77
409.598	5.39
409.961	4.82
410.323	5.11
410.686	5.07
411.049	4.78
411.411	4.78
411.774	4.97
412.136	4.99
412.499	5.04
412.861	4.9
413.223	5.03
413.586	5.04
413.948	5.11
414.31	4.78
414.672	4.82
415.035	4.83
415.397	5.35
415.759	4.85
416.121	5.28
416.483	4.95
416.845	5.12
417.206	4.95
417.568	5.18
417.93	5
418.292	5.05
418.653	4.98
419.015	5.01
419.377	5
419.738	5.12
420.1	5.23
420.461	5.08
420.822	4.95
421.184	4.94
421.545	5.06
421.906	4.95
422.267	4.95
422.629	5.03
422.99	5.09
423.351	4.8
423.712	4.93
424.073	5.07
424.434	5.01
424.795	5.05
425.155	5.03
425.516	4.87
425.877	4.83
426.238	4.89
426.598	4.93
426.959	5.1
427.32	5.01
427.68	4.98
428.041	4.94
428.401	5.1
428.761	5.01
429.122	5.22
429.482	5.09
429.842	5.35
430.202	5.14
430.563	5.27
430.923	5
431.283	5.27
431.643	5.11
432.003	5.17
432.363	5.19
432.722	5.09
433.082	5.1
433.442	5.28
433.802	5.02
434.161	5.1
434.521	5.32
434.881	5.28
435.24	5.12
435.6	5.05
435.959	4.87
436.319	5.21
436.678	5.09
437.037	5.18
437.396	5.39
437.756	5.27
438.115	5.24
438.474	5.32
438.833	5.19
439.192	5.2
439.551	5.28
439.91	5.14
440.269	5.24
440.628	5.1
440.987	5.22
441.345	5.03
441.704	5.41
442.063	5.21
442.421	5.18
442.78	5.2
443.138	5.2
443.497	5.18
443.855	5.16
444.214	5.15
444.572	5.22
444.93	5.2
445.288	5.32
445.647	5.5
446.005	5.14
446.363	5.25
446.721	5.33
447.079	5.12
447.437	5.1
447.795	5.28
448.153	5.09
448.51	5.13
448.868	5.17
449.226	5.16
449.584	5.18
449.941	5.41
450.299	5.23
450.656	5.25
451.014	5.27
451.371	5.22
451.729	5.15
452.086	5.65
452.443	5.45
452.801	5.39
453.158	5.29
453.515	5.27
453.872	5.42
454.229	5.16
454.586	5.35
454.943	5.32
455.3	5.42
455.657	5.32
456.014	5.45
456.371	5.35
456.727	5.46
457.084	5.46
457.441	5.32
457.797	5.41
458.154	5.54
458.51	5.62
458.867	5.71
459.223	5.41
459.58	5.43
459.936	5.36
460.292	5.4
460.648	5.48
461.005	5.37
461.361	5.49
461.717	5.32
462.073	5.38
462.429	5.29
462.785	5.51
463.141	5.31
463.496	5.47
463.852	5.47
464.208	5.49
464.564	5.54
464.919	5.64
465.275	5.44
465.631	5.63
465.986	5.54
466.342	5.53
466.697	5.21
467.052	5.55
467.408	5.65
467.763	5.47
468.118	5.36
468.473	5.54
468.829	5.58
469.184	5.53
469.539	5.43
469.894	5.35
470.249	5.66
470.603	5.57
470.958	5.68
471.313	5.48
471.668	5.7
472.023	5.63
472.377	5.6
472.732	5.65
473.086	5.58
473.441	5.52
473.795	5.67
474.15	5.59
474.504	5.65
474.859	5.55
475.213	5.57
475.567	5.4
475.921	5.62
476.275	5.6
476.63	5.5
476.984	5.97
477.338	5.82
477.692	5.63
478.045	5.75
478.399	5.72
478.753	5.71
479.107	5.76
479.461	5.66
479.814	5.68
480.168	5.66
480.521	5.67
480.875	5.64
481.228	5.65
481.582	5.67
481.935	5.78
482.289	5.6
482.642	5.53
482.995	5.62
483.348	5.6
483.701	5.64
484.055	5.66
484.408	5.65
484.761	5.54
485.114	5.49
485.466	5.34
485.819	5.34
486.172	5.3
486.525	5.32
486.878	5.42
487.23	5.46
487.583	5.55
487.936	5.48
488.288	5.6
488.641	5.54
488.993	5.39
489.345	5.4
489.698	5.45
490.05	5.41
490.402	5.5
490.754	5.44
491.107	5.58
491.459	5.67
491.811	5.69
492.163	5.59
492.515	5.56
492.866	5.71
493.218	5.6
493.57	5.47
493.922	5.45
494.274	5.68
494.625	5.67
494.977	5.74
495.328	5.7
495.68	5.78
496.031	5.84
496.383	5.85
496.734	5.89
497.086	5.78
497.437	5.78
497.788	5.84
498.139	5.73
498.49	5.93
498.842	5.64
499.193	5.75
499.544	5.83
499.894	5.89
500.245	5.75
500.596	5.76
500.947	5.97
501.298	5.88
501.648	5.88
501.999	5.91
502.35	5.92
502.7	5.94
503.051	5.93
503.401	5.94
503.752	6.06
504.102	5.85
504.452	5.91
504.803	5.94
505.153	5.92
505.503	6.1
505.853	6
506.203	5.83
506.553	5.85
506.903	6.05
507.253	6.01
507.603	5.82
507.953	6.05
508.303	6.18
508.652	5.87
509.002	5.93
509.352	6.02
509.701	6.1
510.051	5.94
510.4	5.85
510.75	5.94
511.099	6
511.449	5.93
511.798	6
512.147	6.09
512.496	5.95
512.846	6.02
513.195	6.06
513.544	5.96
513.893	6.04
514.242	6.01
514.591	6.14
514.939	5.99
515.288	6.01
515.637	6.1
515.986	6.11
516.334	6.21
516.683	6.21
517.032	6.01
517.38	6.11
517.729	6.19
518.077	6.09
518.426	6.22
518.774	6.22
519.122	6.18
519.47	6.19
519.819	6.03
520.167	6.09
520.515	6
520.863	6.19
521.211	6.12
521.559	6.2
521.907	6.14
522.255	6.12
522.602	6.23
522.95	6.16
523.298	6.11
523.645	6.31
523.993	6.17
524.341	6.34
524.688	6.3
525.036	6.31
525.383	6.3
525.73	6.52
526.078	6.52
526.425	6.28
526.772	6.31
527.119	6.32
527.466	6.15
527.814	6.24
528.161	6.18
528.508	6.19
528.854	6.27
529.201	6.18
529.548	6.2
529.895	6.22
530.242	6.06
530.588	6.08
530.935	6.08
531.282	6.15
531.628	6.11
531.975	6.24
532.321	6.32
532.667	6.38
533.014	6.43
533.36	6.41
533.706	6.44
534.052	6.43
534.399	6.35
534.745	6.32
535.091	6.27
535.437	6.35
535.783	6.37
536.129	6.33
536.474	6.39
536.82	6.48
537.166	6.59
537.512	6.53
537.857	6.55
538.203	6.64
538.549	6.55
538.894	6.52
539.239	6.55
539.585	6.72
539.93	6.57
540.276	6.85
540.621	6.71
540.966	6.77
541.311	6.65
541.656	6.58
542.001	6.6
542.346	6.73
542.691	6.61
543.036	6.55
543.381	6.45
543.726	6.49
544.071	6.68
544.415	6.65
544.76	6.67
545.105	6.67
545.449	6.7
545.794	6.81
546.138	6.79
546.483	6.84
546.827	6.82
547.171	6.88
547.516	6.87
547.86	6.86
548.204	6.75
548.548	6.8
548.892	6.87
549.236	6.86
549.58	6.92
549.924	6.99
550.268	7.04
550.612	7.13
550.956	7.15
551.3	7.1
551.643	7.31
551.987	7.13
552.33	7.31
552.674	7.15
553.017	7.12
553.361	7.16
553.704	7.27
554.048	7.1
554.391	7.19
554.734	7.09
555.077	7.27
555.42	7.17
555.764	7.31
556.107	7.14
556.45	7.32
556.793	7.43
557.135	7.3
557.478	7.44
557.821	7.33
558.164	7.39
558.507	7.53
558.849	7.45
559.192	7.46
559.534	7.35
559.877	7.75
560.219	7.41
560.562	7.63
560.904	7.55
561.246	7.76
561.589	7.91
561.931	7.71
562.273	7.56
562.615	7.83
562.957	7.73
563.299	7.8
563.641	7.72
563.983	7.83
564.325	7.55
564.667	7.52
565.008	7.57
565.35	7.64
565.692	7.66
566.033	7.66
566.375	7.83
566.716	7.94
567.058	7.79
567.399	7.93
567.741	7.69
568.082	7.77
568.423	7.87
568.764	7.75
569.105	7.86
569.447	7.85
569.788	8.05
570.129	7.88
570.47	8.06
570.811	8.23
571.151	8.3
571.492	8.03
571.833	8.06
572.174	8.07
572.514	7.91
572.855	8.12
573.195	8.16
573.536	8.06
573.876	8.07
574.217	8.06
574.557	8.13
574.898	8.3
575.238	8.28
575.578	8.1
575.918	8.59
576.258	8.24
576.598	8.29
576.938	8.21
577.278	8.35
577.618	8.29
577.958	8.23
578.298	8.36
578.638	8.39
578.977	8.43
579.317	8.51
579.657	8.61
579.996	8.57
580.336	8.48
580.675	8.3
581.014	8.51
581.354	8.57
581.693	8.59
582.032	8.46
582.372	8.63
582.711	8.65
583.05	8.7
583.389	8.93
583.728	8.75
584.067	8.79
584.406	8.95
584.745	8.84
585.083	9.23
585.422	8.86
585.761	9.1
586.1	9.02
586.438	8.8
586.777	9.06
587.115	9.09
587.454	9.14
587.792	8.92
588.13	9.13
588.469	9.2
588.807	9.18
589.145	8.87
589.483	9.07
589.821	9.09
590.159	9.17
590.497	9.47
590.835	9.34
591.173	9.23
591.511	9.37
591.849	9.18
592.187	9.32
592.524	9.51
592.862	9.2
593.2	9.23
593.537	9.3
593.875	9.37
594.212	8.97
594.55	9.24
594.887	9.66
595.224	9.63
595.561	9.78
595.899	9.55
596.236	9.34
596.573	9.82
596.91	9.16
597.247	9.53
597.584	9.86
597.921	9.68
598.258	9.57
598.594	9.82
598.931	9.54
599.268	9.71
599.604	9.59
599.941	10.02
600.277	9.95
600.614	10
600.95	9.7
601.287	9.98
601.623	9.9
601.959	9.72
602.296	10.03
602.632	10.08
602.968	10.22
603.304	10.01
603.64	10.04
603.976	10.17
604.312	9.91
604.648	10.09
604.984	10.18
605.319	10.16
605.655	10.42
605.991	10.24
606.326	10.18
606.662	10.19
606.998	10.05
607.333	10.23
607.668	10.39
608.004	10.4
608.339	10.43
608.674	10.58
609.01	10.53
609.345	10.74
609.68	10.68
610.015	10.72
610.35	10.34
610.685	10.48
611.02	10.71
611.355	10.54
611.689	10.48
612.024	10.73
612.359	10.81
612.694	10.77
613.028	10.52
613.363	10.88
613.697	10.65
614.032	10.96
614.366	10.97
614.7	11.23
615.035	11.3
615.369	10.8
615.703	11.32
616.037	11.4
616.371	10.99
616.705	11.3
617.039	11.46
617.373	10.94
617.707	11.03
618.041	11.19
618.375	10.75
618.709	11.35
619.042	11.31
619.376	11.22
619.71	11.26
620.043	11.51
620.377	11.29
620.71	11.54
621.043	11.11
621.377	11.52
621.71	11.27
622.043	11.32
622.376	11.3
622.709	11.35
623.043	11.58
623.376	11.95
623.709	11.5
624.041	12.23
624.374	12.27
624.707	11.64
625.04	11.71
625.373	11.53
625.705	12.11
626.038	11.55
626.37	11.66
626.703	11.95
627.035	11.64
627.368	12.21
627.7	12.25
628.032	12.1
628.365	12.17
628.697	12
629.029	12.23
629.361	11.98
629.693	12.28
630.025	12.19
630.357	12.53
630.689	12.25
631.021	12.36
631.353	12.08
631.684	11.85
632.016	12.26
632.348	12.63
632.679	12.52
633.011	12.35
633.342	12.64
633.674	11.87
634.005	12.86
634.336	12.49
634.668	13.24
634.999	12.36
635.33	13.14
635.661	12.75
635.992	12.41
636.323	12.72
636.654	12.96
636.985	12.66
637.316	12.68
637.647	12.36
637.977	12.83
638.308	13.28
638.639	12.33
638.969	12.8
639.3	13.06
639.63	12.69
639.961	12.86
640.291	12.91
640.622	13.21
640.952	12.87
641.282	13.16
641.612	12.87
641.943	12.93
642.273	14.06
642.603	13.49
642.933	13.31
643.263	13.16
643.592	13.39
643.922	13.31
644.252	13.15
644.582	13.36
644.911	13.08
645.241	13.55
645.571	13.83
645.9	13.2
646.23	13.62
646.559	13.61
646.888	13.7
647.218	13.52
647.547	13.74
647.876	13.24
648.205	13.73
648.534	13.61
648.863	13.37
649.192	13.75
649.521	13.59
649.85	13.76
650.179	13.95
650.508	13.61
650.837	13.42
651.165	13.83
651.494	13.7
651.822	13.86
652.151	13.79
652.479	14.02
652.808	13.87
653.136	14.12
653.465	13.53
653.793	13.7
654.121	14.08
654.449	14.3
654.777	14.37
655.105	14.18
655.433	13.62
655.761	14.21
656.089	14
656.417	14.33
656.745	13.97
657.073	13.95
657.4	14.67
657.728	13.86
658.056	14.66
658.383	14
658.711	14.92
659.038	14.83
659.365	14
659.693	14.85
660.02	14.57
660.347	14.91
660.674	14.68
661.001	15.13
661.329	14.56
661.656	14.73
661.982	15.37
662.309	14.29
662.636	14.75
662.963	15.21
663.29	14.82
663.616	15.33
663.943	14.7
664.27	14.2
664.596	15.4
664.923	14.97
665.249	15.06
665.576	15.12
665.902	15.49
666.228	15.55
666.554	15.6
666.881	15.06
667.207	15.57
667.533	14.58
667.859	15.33
668.185	16.04
668.511	15.68
668.837	14.37
669.162	15.76
669.488	15.09
669.814	16.05
670.139	15.6
670.465	15.75
670.791	15.51
671.116	16.47
671.442	15.48
671.767	16.02
672.092	15.96
672.418	15.66
672.743	16.6
673.068	15.46
673.393	15.92
673.718	15.61
674.043	16.09
674.368	16.23
674.693	16.51
675.018	15.98
675.343	16.22
675.667	16.37
675.992	16.47
676.317	16.51
676.641	16.48
676.966	16.76
677.29	15.86
677.615	16.78
677.939	16.8
678.264	16.76
678.588	17.41
678.912	16.26
679.236	17
679.56	15.71
679.885	16.94
680.209	16.41
680.532	16.22
680.856	16.46
681.18	17.37
681.504	15.9
681.828	16.36
682.152	16.81
682.475	16.78
682.799	17.19
683.122	16.76
683.446	16.13
683.769	17.57
684.093	16.81
684.416	17.19
684.739	16.35
685.062	16.94
685.386	17.67
685.709	17.26
686.032	17.29
686.355	17.2
686.678	17.46
