Data from 0387_forehead_Reflection__1__242.txt Node

Date: Fri Dec 15 18:31:51 CST 2023
User: ToomeyLab
Spectrometer: FLMS14357
Trigger mode: 0
Integration Time (sec): 1.000000E-2
Scans to average: 100
Electric dark correction enabled: true
Nonlinearity correction enabled: false
Boxcar width: 0
XAxis mode: Wavelengths
Number of Pixels in Spectrum: 2048
>>>>>Begin Spectral Data<<<<<
189.047	-37.19
189.435	-37.19
189.823	-37.19
190.211	-42.93
190.599	57.09
190.987	156.66
191.375	540.69
191.763	-100.16
192.151	44.33
192.538	105.9
192.926	27.79
193.314	44.99
193.702	2.82
194.089	9.51
194.477	-6.75
194.864	-124.87
195.252	73.9
195.639	71.08
196.027	164.23
196.414	229.95
196.801	29.7
197.189	41.95
197.576	499.5
197.963	102.61
198.351	46.99
198.738	-48.92
199.125	35.67
199.512	-17.55
199.899	26.32
200.286	33.97
200.673	18.86
201.06	20.52
201.447	-41.99
201.833	5.37
202.22	52.42
202.607	49.71
202.994	-26.25
203.38	34.92
203.767	12.36
204.154	61.35
204.54	41.95
204.927	-126.12
205.313	21.97
205.699	60.2
206.086	28.62
206.472	57.21
206.858	24.84
207.245	-19.04
207.631	47.3
208.017	17.77
208.403	9.6
208.789	33.17
209.175	18.68
209.561	-11.27
209.947	-1.36
210.333	11.24
210.719	61.35
211.105	31.39
211.491	-52.44
211.876	-9.48
212.262	14.21
212.648	42.44
213.034	44.71
213.419	-45
213.805	1.75
214.19	-24.44
214.576	2.02
214.961	-15.39
215.346	-72.9
215.732	19.57
216.117	16.35
216.502	9.08
216.888	19.76
217.273	33.69
217.658	12.41
218.043	12.81
218.428	-45.12
218.813	20.17
219.198	-10.94
219.583	-16.7
219.968	11.09
220.353	-2.13
220.738	34.36
221.122	37.08
221.507	-12.46
221.892	-7.52
222.276	12.95
222.661	-1.06
223.046	12.81
223.43	29.9
223.815	3.1
224.199	-3.96
224.583	10.66
224.968	0.87
225.352	8.5
225.736	-3.31
226.121	-1.53
226.505	12.48
226.889	5.58
227.273	1.64
227.657	9.18
228.041	8.27
228.425	8
228.809	9.78
229.193	7.02
229.577	6.04
229.961	7.9
230.344	4.79
230.728	5.57
231.112	5.5
231.495	5.22
231.879	2.99
232.263	6.81
232.646	6.95
233.03	4.32
233.413	6.51
233.797	6.08
234.18	3.75
234.563	6.58
234.946	2.03
235.33	6.86
235.713	5.29
236.096	6.13
236.479	7.33
236.862	4.73
237.245	8.49
237.628	4.42
238.011	6.24
238.394	6.5
238.777	5.33
239.16	4.57
239.543	4.88
239.925	6.69
240.308	4.98
240.691	7.72
241.073	5.91
241.456	5.38
241.838	4.81
242.221	5.06
242.603	6.34
242.986	5.65
243.368	6.02
243.75	5.8
244.133	5.24
244.515	5.83
244.897	5.77
245.279	5.61
245.661	5.72
246.043	6
246.425	4.64
246.807	7.11
247.189	5.7
247.571	7.01
247.953	6.25
248.335	5.63
248.717	6.01
249.098	5.62
249.48	5.75
249.862	5.59
250.243	5.89
250.625	5.78
251.006	6.14
251.388	5
251.769	6.02
252.151	6.23
252.532	6.47
252.913	6.02
253.295	5.83
253.676	5.35
254.057	6.22
254.438	5.69
254.819	5.23
255.2	5.65
255.581	6.14
255.962	5.9
256.343	5.19
256.724	5.85
257.105	6.69
257.486	6.1
257.867	6.71
258.247	6.11
258.628	6.26
259.009	5.73
259.389	6.21
259.77	6.31
260.15	5.29
260.531	5.66
260.911	6.2
261.292	5.84
261.672	5.81
262.052	5.77
262.432	6.02
262.813	5.62
263.193	5.42
263.573	5.82
263.953	4.88
264.333	6
264.713	5.57
265.093	5.43
265.473	5.57
265.853	5.12
266.233	5.99
266.612	4.88
266.992	5.02
267.372	5.81
267.752	5.52
268.131	5.75
268.511	6.27
268.89	5.56
269.27	5.1
269.649	5.01
270.029	4.96
270.408	6.19
270.787	5.53
271.167	6.38
271.546	5.81
271.925	5.29
272.304	4.83
272.683	5.78
273.062	5.08
273.441	5.47
273.82	4.88
274.199	5.81
274.578	5.56
274.957	5.35
275.336	5.76
275.715	5.48
276.093	5.05
276.472	5.61
276.851	5.11
277.229	4.43
277.608	4.81
277.986	5.53
278.365	4.95
278.743	5.6
279.122	5.54
279.5	5.2
279.878	5.39
280.257	5.2
280.635	5.16
281.013	4.83
281.391	5.67
281.769	5.01
282.147	6.05
282.525	5.77
282.903	4.94
283.281	5.33
283.659	5.64
284.037	5.44
284.415	5.31
284.792	5.71
285.17	4.33
285.548	4.61
285.925	5.6
286.303	5.66
286.68	5.52
287.058	5.15
287.435	5.35
287.813	5.22
288.19	5.48
288.567	5.49
288.945	5.64
289.322	5.59
289.699	5.17
290.076	5.43
290.453	5.52
290.83	4.83
291.207	5.31
291.584	5.57
291.961	5.65
292.338	5.46
292.715	5.61
293.092	5.8
293.469	5.73
293.845	6.01
294.222	5.06
294.599	5.88
294.975	5.74
295.352	5.99
295.728	5.46
296.105	5.76
296.481	6.01
296.858	6.4
297.234	5.72
297.61	5.68
297.986	5.47
298.363	6.46
298.739	6
299.115	5.58
299.491	5.98
299.867	6.04
300.243	6.24
300.619	5.93
300.995	6.09
301.371	6.57
301.746	6.47
302.122	6.77
302.498	6.6
302.874	6.68
303.249	7
303.625	6.51
304	7.13
304.376	6.67
304.751	6.42
305.127	7.56
305.502	6.22
305.878	6.41
306.253	7.28
306.628	7.34
307.003	7.28
307.378	7.62
307.754	7.35
308.129	6.63
308.504	7.7
308.879	7.01
309.254	8.18
309.629	8.23
310.003	7.8
310.378	8.23
310.753	8.13
311.128	8.26
311.502	8.14
311.877	8.25
312.252	7.85
312.626	7.89
313.001	8.27
313.375	8.86
313.75	7.96
314.124	8.74
314.498	8.93
314.873	8.37
315.247	8.65
315.621	9.35
315.995	8.3
316.369	8.55
316.743	8.38
317.117	9.16
317.491	9.26
317.865	9.05
318.239	9.32
318.613	9.25
318.987	10.04
319.361	9.62
319.734	9.83
320.108	10.04
320.482	9.98
320.855	10.31
321.229	10.66
321.602	10.18
321.976	10.75
322.349	9.9
322.723	10.59
323.096	11.42
323.469	9.81
323.843	10.1
324.216	11.22
324.589	11.04
324.962	10.82
325.335	10.77
325.708	10.38
326.081	10.97
326.454	11.06
326.827	10.77
327.2	10.91
327.573	11.74
327.945	11.41
328.318	10.85
328.691	11.09
329.063	11.12
329.436	11.39
329.809	11.44
330.181	11.08
330.553	11.76
330.926	12.37
331.298	12.05
331.671	11.65
332.043	12.53
332.415	11.86
332.787	12.02
333.159	12.56
333.532	12.38
333.904	12.24
334.276	12.28
334.648	12.77
335.02	12.91
335.391	11.94
335.763	12.28
336.135	12.32
336.507	12.92
336.879	12.56
337.25	12.61
337.622	12.84
337.993	12.88
338.365	13.33
338.736	12.88
339.108	13.03
339.479	12.88
339.851	13.31
340.222	12.65
340.593	13.18
340.964	13.19
341.336	13.96
341.707	13.04
342.078	13.64
342.449	13.8
342.82	13.27
343.191	13.27
343.562	13.4
343.933	13.8
344.303	13.33
344.674	13.63
345.045	14.24
345.416	14.21
345.786	13.61
346.157	13.96
346.527	13.7
346.898	13.9
347.268	14.21
347.639	14.31
348.009	14.35
348.38	14.14
348.75	14.48
349.12	14.16
349.49	15.11
349.861	14.57
350.231	14.46
350.601	14.09
350.971	14.84
351.341	14.57
351.711	14.59
352.081	14.66
352.45	14.84
352.82	14.9
353.19	15.54
353.56	14.8
353.929	14.99
354.299	14.75
354.669	14.64
355.038	15.15
355.408	14.95
355.777	15.23
356.147	15.15
356.516	15.59
356.885	15.1
357.254	15.12
357.624	15.6
357.993	15.7
358.362	15.14
358.731	15.74
359.1	15.85
359.469	15.41
359.838	15.95
360.207	15.97
360.576	15.64
360.945	16.09
361.314	16.41
361.682	15.69
362.051	15.84
362.42	16.25
362.788	15.96
363.157	16.11
363.525	16.46
363.894	16.34
364.262	16.21
364.631	16.09
364.999	16.42
365.367	15.95
365.735	17.36
366.104	16.85
366.472	16.91
366.84	16.7
367.208	16.65
367.576	16.92
367.944	17.04
368.312	16.99
368.68	16.46
369.048	17.36
369.416	16.97
369.783	17.04
370.151	17.81
370.519	17.83
370.886	17.88
371.254	17.5
371.621	17.6
371.989	17.76
372.356	17.07
372.724	17.61
373.091	17.52
373.458	17.77
373.826	17.85
374.193	17.68
374.56	18.18
374.927	18.14
375.294	18.18
375.661	17.96
376.028	18.19
376.395	18.14
376.762	18.64
377.129	18.27
377.496	18.3
377.863	18.45
378.229	18.53
378.596	18.55
378.963	18.5
379.329	18.18
379.696	18.58
380.062	18.58
380.429	18.46
380.795	18.54
381.161	18.9
381.528	18.94
381.894	19.01
382.26	18.5
382.626	19.05
382.993	18.81
383.359	19.5
383.725	18.97
384.091	19.73
384.457	19.72
384.823	19.21
385.188	19.2
385.554	19.58
385.92	19.45
386.286	19.62
386.651	19.69
387.017	20.32
387.383	19.6
387.748	19.61
388.114	20.19
388.479	19.84
388.845	20.13
389.21	20.09
389.575	20.17
389.94	19.81
390.306	19.86
390.671	20.59
391.036	19.87
391.401	20.14
391.766	20.24
392.131	20.28
392.496	20.58
392.861	20.22
393.226	20.4
393.591	20.31
393.956	20.47
394.32	20.18
394.685	20.21
395.05	20.6
395.414	20.52
395.779	20.45
396.143	20.7
396.508	20.76
396.872	20.74
397.236	20.96
397.601	20.73
397.965	20.84
398.329	21.25
398.694	21.33
399.058	21.47
399.422	20.97
399.786	21.52
400.15	21.47
400.514	21.09
400.878	21.29
401.242	21.59
401.605	21.41
401.969	21.83
402.333	21.69
402.697	21.27
403.06	21.67
403.424	21.39
403.787	21.71
404.151	21.75
404.514	21.58
404.878	21.37
405.241	21.87
405.604	21.52
405.968	22.12
406.331	21.51
406.694	21.77
407.057	21.71
407.42	21.97
407.783	21.65
408.146	21.81
408.509	22.05
408.872	22.14
409.235	22.45
409.598	22.27
409.961	22.45
410.323	22.16
410.686	22.11
411.049	22.16
411.411	22.19
411.774	22.19
412.136	22.42
412.499	22.56
412.861	22.06
413.223	22.28
413.586	22.68
413.948	23.11
414.31	22.67
414.672	22.49
415.035	22.62
415.397	23.3
415.759	22.37
416.121	23.01
416.483	22.79
416.845	23.05
417.206	22.83
417.568	22.87
417.93	22.98
418.292	23.16
418.653	22.85
419.015	23.32
419.377	23.02
419.738	23.26
420.1	23.05
420.461	23.16
420.822	23.2
421.184	23.13
421.545	23.22
421.906	23.07
422.267	23.11
422.629	23.24
422.99	23.41
423.351	23.19
423.712	23.55
424.073	23.66
424.434	23.64
424.795	23.61
425.155	23.93
425.516	23.57
425.877	23.71
426.238	23.8
426.598	23.96
426.959	24.04
427.32	24.08
427.68	24.33
428.041	24.32
428.401	24.6
428.761	24.62
429.122	24.76
429.482	24.79
429.842	25.07
430.202	24.93
430.563	25.14
430.923	25.15
431.283	25.26
431.643	25.18
432.003	25.21
432.363	25.44
432.722	25.38
433.082	25.34
433.442	25.4
433.802	25.3
434.161	25.58
434.521	25.5
434.881	25.64
435.24	25.59
435.6	25.7
435.959	25.84
436.319	25.86
436.678	26.06
437.037	26.08
437.396	26.09
437.756	26.38
438.115	26.26
438.474	26.44
438.833	26.5
439.192	26.32
439.551	26.3
439.91	26.38
440.269	26.5
440.628	26.58
440.987	26.67
441.345	26.39
441.704	26.72
442.063	26.63
442.421	26.72
442.78	26.67
443.138	26.66
443.497	26.89
443.855	27
444.214	27.23
444.572	27.2
444.93	27.47
445.288	27.35
445.647	27.51
446.005	27.4
446.363	27.65
446.721	27.42
447.079	27.13
447.437	27.43
447.795	27.25
448.153	27.26
448.51	27.13
448.868	27.29
449.226	27.55
449.584	27.71
449.941	27.77
450.299	27.78
450.656	28.06
451.014	28.08
451.371	28.04
451.729	28.24
452.086	28.61
452.443	28.62
452.801	28.85
453.158	28.49
453.515	28.72
453.872	28.63
454.229	28.49
454.586	28.58
454.943	28.65
455.3	28.91
455.657	28.96
456.014	28.89
456.371	29.34
456.727	29.04
457.084	29.02
457.441	29.13
457.797	29.37
458.154	29.4
458.51	29.55
458.867	29.82
459.223	29.51
459.58	29.55
459.936	29.65
460.292	29.55
460.648	29.34
461.005	29.42
461.361	29.27
461.717	29.14
462.073	29.38
462.429	29.44
462.785	29.73
463.141	29.93
463.496	30.11
463.852	30.3
464.208	30.33
464.564	30.31
464.919	30.74
465.275	30.43
465.631	30.87
465.986	30.56
466.342	30.64
466.697	30.45
467.052	30.73
467.408	30.86
467.763	30.71
468.118	30.76
468.473	30.64
468.829	30.81
469.184	30.95
469.539	31.01
469.894	31.03
470.249	31.31
470.603	31.19
470.958	31.36
471.313	31.47
471.668	31.59
472.023	31.58
472.377	31.29
472.732	31.53
473.086	31.54
473.441	31.46
473.795	31.72
474.15	31.84
474.504	31.72
474.859	31.79
475.213	31.74
475.567	31.94
475.921	32.17
476.275	32.28
476.63	32.15
476.984	32.28
477.338	32.38
477.692	32.28
478.045	32.27
478.399	32.08
478.753	32.11
479.107	32.26
479.461	32.56
479.814	32.33
480.168	32.27
480.521	32.35
480.875	32.5
481.228	32.61
481.582	32.57
481.935	32.6
482.289	32.55
482.642	32.58
482.995	32.51
483.348	32.54
483.701	32.39
484.055	32.41
484.408	32.38
484.761	32.03
485.114	31.52
485.466	31.06
485.819	31.06
486.172	31.45
486.525	31.95
486.878	32.36
487.23	32.57
487.583	32.78
487.936	32.67
488.288	32.6
488.641	32.4
488.993	32.1
489.345	32.08
489.698	32.1
490.05	32.33
490.402	32.59
490.754	32.84
491.107	33.17
491.459	33.48
491.811	33.54
492.163	33.47
492.515	33.33
492.866	33.24
493.218	32.5
493.57	32.64
493.922	32.79
494.274	33.27
494.625	33.82
494.977	34.1
495.328	34.26
495.68	34.26
496.031	34.53
496.383	34.67
496.734	34.77
497.086	34.71
497.437	34.7
497.788	34.64
498.139	34.35
498.49	34.49
498.842	34.38
499.193	34.45
499.544	34.69
499.894	34.9
500.245	34.84
500.596	35.04
500.947	35.2
501.298	34.92
501.648	35.09
501.999	35.4
502.35	35.62
502.7	35.4
503.051	35.52
503.401	35.54
503.752	35.95
504.102	35.72
504.452	35.53
504.803	35.76
505.153	35.78
505.503	35.77
505.853	35.6
506.203	35.48
506.553	35.76
506.903	35.85
507.253	35.76
507.603	35.84
507.953	36.05
508.303	36.14
508.652	36.2
509.002	36.01
509.352	36.16
509.701	36.08
510.051	35.97
510.4	36.04
510.75	36.17
511.099	36.12
511.449	36.24
511.798	36.24
512.147	36.41
512.496	36.21
512.846	36.39
513.195	36.52
513.544	36.38
513.893	36.51
514.242	36.63
514.591	36.58
514.939	36.58
515.288	36.62
515.637	36.73
515.986	36.95
516.334	37.05
516.683	37.11
517.032	37.39
517.38	37.15
517.729	37.01
518.077	37.08
518.426	36.97
518.774	37.03
519.122	37.01
519.47	36.89
519.819	36.81
520.167	36.76
520.515	36.54
520.863	36.68
521.211	36.88
521.559	37.27
521.907	37.31
522.255	37.41
522.602	37.6
522.95	37.53
523.298	37.57
523.645	37.9
523.993	37.72
524.341	37.9
524.688	37.93
525.036	37.79
525.383	37.98
525.73	37.88
526.078	37.89
526.425	37.82
526.772	37.74
527.119	37.22
527.466	37.21
527.814	37.17
528.161	37.17
528.508	37.74
528.854	37.52
529.201	37.58
529.548	37.32
529.895	36.93
530.242	36.37
530.588	36.3
530.935	36.78
531.282	37.29
531.628	37.65
531.975	37.9
532.321	37.93
532.667	38.21
533.014	38.42
533.36	38.28
533.706	38.43
534.052	38.25
534.399	37.95
534.745	37.64
535.091	37.45
535.437	37.49
535.783	37.99
536.129	38.35
536.474	38.67
536.82	38.47
537.166	38.9
537.512	39.03
537.857	38.73
538.203	38.47
538.549	38.17
538.894	38.31
539.239	38.77
539.585	39.13
539.93	39.19
540.276	39.35
540.621	39.57
540.966	39.56
541.311	39.34
541.656	39.42
542.001	39.21
542.346	39.02
542.691	38.59
543.036	38.04
543.381	37.91
543.726	38.34
544.071	38.88
544.415	39.15
544.76	39.34
545.105	39.12
545.449	39.46
545.794	39.65
546.138	40
546.483	39.84
546.827	39.92
547.171	39.67
547.516	39.86
547.86	39.97
548.204	39.84
548.548	39.95
548.892	39.93
549.236	40.02
549.58	40.2
549.924	40.44
550.268	40.75
550.612	40.9
550.956	41.02
551.3	41.01
551.643	40.9
551.987	41.15
552.33	41.18
552.674	41.14
553.017	41.04
553.361	41.13
553.704	41.2
554.048	41.22
554.391	40.7
554.734	41.02
555.077	41.1
555.42	41.01
555.764	41.19
556.107	41.23
556.45	41.34
556.793	41.41
557.135	41.63
557.478	42.04
557.821	41.67
558.164	41.81
558.507	41.76
558.849	41.89
559.192	41.75
559.534	41.91
559.877	42.02
560.219	42.07
560.562	42.47
560.904	42.09
561.246	42.59
561.589	42.27
561.931	41.99
562.273	42.28
562.615	42.3
562.957	42.31
563.299	42.15
563.641	42.2
563.983	42.55
564.325	42.36
564.667	42.51
565.008	42.56
565.35	42.5
565.692	42.29
566.033	42.55
566.375	42.63
566.716	42.73
567.058	42.57
567.399	42.31
567.741	42.27
568.082	42.25
568.423	42.23
568.764	42.46
569.105	42.71
569.447	42.56
569.788	42.88
570.129	42.87
570.47	43.25
570.811	42.76
571.151	43.22
571.492	42.78
571.833	43.01
572.174	43.02
572.514	42.95
572.855	43.11
573.195	43
573.536	42.8
573.876	42.6
574.217	42.99
574.557	43.02
574.898	43.18
575.238	43.22
575.578	43.18
575.918	43.32
576.258	43.35
576.598	43.32
576.938	43.31
577.278	43.13
577.618	43.33
577.958	43.44
578.298	43.82
578.638	43.55
578.977	43.93
579.317	43.86
579.657	43.74
579.996	44.03
580.336	44.14
580.675	44.1
581.014	44.09
581.354	44.1
581.693	44.02
582.032	43.95
582.372	44.22
582.711	44.39
583.05	44.29
583.389	44.22
583.728	44.34
584.067	44.55
584.406	44.83
584.745	44.45
585.083	44.5
585.422	44.63
585.761	44.85
586.1	44.95
586.438	44.76
586.777	45.13
587.115	44.82
587.454	44.83
587.792	44.9
588.13	45.27
588.469	44.88
588.807	45
589.145	44.57
589.483	45
589.821	45.24
590.159	45.19
590.497	45.34
590.835	45.56
591.173	45.14
591.511	44.95
591.849	45.27
592.187	45.13
592.524	45.14
592.862	45.26
593.2	45.44
593.537	45.83
593.875	45.55
594.212	45.63
594.55	45.29
594.887	45.66
595.224	45.37
595.561	45.48
595.899	45.4
596.236	45.17
596.573	45.81
596.91	45.32
597.247	45.61
597.584	45.68
597.921	45.6
598.258	45.45
598.594	45.49
598.931	45.28
599.268	45.34
599.604	45.17
599.941	45.51
600.277	45.74
600.614	46.23
600.95	46.24
601.287	46.49
601.623	46.27
601.959	45.72
602.296	45.79
602.632	46.22
602.968	46.49
603.304	46.21
603.64	46.56
603.976	46.57
604.312	46.22
604.648	46.44
604.984	46.2
605.319	45.87
605.655	46.05
605.991	46.16
606.326	46.02
606.662	45.86
606.998	45.63
607.333	46.5
607.668	46.29
608.004	46.95
608.339	47.03
608.674	47.15
609.01	46.82
609.345	46.98
609.68	47.27
610.015	46.92
610.35	46.9
610.685	46.8
611.02	46.82
611.355	46.78
611.689	46.72
612.024	46.78
612.359	46.7
612.694	47.13
613.028	47.07
613.363	47.31
613.697	47.5
614.032	47.53
614.366	47.44
614.7	47.48
615.035	47.67
615.369	47.52
615.703	47.67
616.037	47.9
616.371	47.52
616.705	48.12
617.039	47.74
617.373	47.56
617.707	48.2
618.041	48.08
618.375	47.72
618.709	47.88
619.042	48.04
619.376	47.5
619.71	48.18
620.043	47.37
620.377	48.07
620.71	47.91
621.043	47.91
621.377	48.28
621.71	48
622.043	48
622.376	47.91
622.709	47.97
623.043	47.96
623.376	48.26
623.709	48.05
624.041	48.5
624.374	48.55
624.707	48.39
625.04	48.61
625.373	48.36
625.705	48.53
626.038	48.29
626.37	48.32
626.703	48.27
627.035	48.99
627.368	49.15
627.7	48.37
628.032	48.55
628.365	48.52
628.697	48.08
629.029	48.53
629.361	48.54
629.693	48.95
630.025	48.65
630.357	48.99
630.689	49.2
631.021	48.78
631.353	48.58
631.684	48.74
632.016	48.65
632.348	49.12
632.679	49.54
633.011	49.7
633.342	48.67
633.674	48.96
634.005	49.16
634.336	49.25
634.668	49.63
634.999	48.96
635.33	49.44
635.661	49.65
635.992	48.91
636.323	49.49
636.654	49.43
636.985	49.49
637.316	49.2
637.647	49.46
637.977	49.49
638.308	50.06
638.639	49.37
638.969	49.73
639.3	49.16
639.63	49.38
639.961	49.51
640.291	49.93
640.622	49.45
640.952	49.53
641.282	50.83
641.612	49.97
641.943	50.17
642.273	49.8
642.603	50.56
642.933	50.5
643.263	49.84
643.592	50.39
643.922	50.21
644.252	50.49
644.582	50.07
644.911	50.61
645.241	50.39
645.571	50.36
645.9	49.49
646.23	50.58
646.559	50.82
646.888	50.24
647.218	50.64
647.547	50.44
647.876	49.91
648.205	50.77
648.534	50.08
648.863	50.54
649.192	51.35
649.521	50.57
649.85	51.19
650.179	50.59
650.508	50.77
650.837	50.78
651.165	51.19
651.494	50.94
651.822	51.16
652.151	51.33
652.479	51.06
652.808	51.1
653.136	50.76
653.465	50.73
653.793	50.71
654.121	50.95
654.449	52.01
654.777	51.54
655.105	51.15
655.433	51.13
655.761	51.73
656.089	51.67
656.417	52.11
656.745	51.24
657.073	50.97
657.4	51.6
657.728	51.28
658.056	51.38
658.383	51.28
658.711	51.59
659.038	51.6
659.365	51.25
659.693	52.44
660.02	51.81
660.347	51.8
660.674	51.58
661.001	51.18
661.329	51.21
661.656	51.47
661.982	51.84
662.309	52.13
662.636	52.26
662.963	52.06
663.29	52.24
663.616	52.35
663.943	52.07
664.27	52.05
664.596	52.19
664.923	52.32
665.249	52.15
665.576	52.47
665.902	52.23
666.228	52.61
666.554	52.8
666.881	51.83
667.207	52.22
667.533	52.1
667.859	52.61
668.185	52.91
668.511	52.27
668.837	52.34
669.162	52.78
669.488	52.13
