Data from 0387_crown_Reflection__4__240.txt Node

Date: Fri Dec 15 18:31:12 CST 2023
User: ToomeyLab
Spectrometer: FLMS14357
Trigger mode: 0
Integration Time (sec): 1.000000E-2
Scans to average: 100
Electric dark correction enabled: true
Nonlinearity correction enabled: false
Boxcar width: 0
XAxis mode: Wavelengths
Number of Pixels in Spectrum: 2048
>>>>>Begin Spectral Data<<<<<
189.047	11.65
189.435	11.65
189.823	11.65
190.211	35.37
190.599	-81.15
190.987	216.19
191.375	-55.52
191.763	-252.05
192.151	103.64
192.538	96.94
192.926	13.01
193.314	73.67
193.702	93.95
194.089	-166.84
194.477	138.65
194.864	180.7
195.252	51.52
195.639	64.35
196.027	212.74
196.414	141.89
196.801	115.08
197.189	78.73
197.576	236.68
197.963	-95.54
198.351	-67.66
198.738	-19.87
199.125	10.29
199.512	-72.23
199.899	-8.05
200.286	13.18
200.673	0.43
201.06	44.21
201.447	15.98
201.833	-13.19
202.22	22.01
202.607	33.96
202.994	20.96
203.38	3.72
203.767	-3.52
204.154	-11.71
204.54	45.69
204.927	-108.06
205.313	-52.69
205.699	63.78
206.086	17.13
206.472	51.05
206.858	15.19
207.245	-9.36
207.631	12.62
208.017	23.98
208.403	-29.52
208.789	34.64
209.175	-21.02
209.561	-68.67
209.947	19.11
210.333	15.72
210.719	41.14
211.105	34.08
211.491	21.3
211.876	-14.09
212.262	10.44
212.648	-8.25
213.034	27.88
213.419	-1.45
213.805	-26.6
214.19	-28.07
214.576	2.46
214.961	-27.72
215.346	-36.23
215.732	-52
216.117	20.72
216.502	-10.66
216.888	28.31
217.273	34.6
217.658	-8.95
218.043	20.03
218.428	-15.36
218.813	-45.07
219.198	-39.6
219.583	-6.96
219.968	8.46
220.353	-31.84
220.738	14.17
221.122	-20.52
221.507	-4.45
221.892	-14.4
222.276	-26.49
222.661	3.62
223.046	10.55
223.43	6.49
223.815	4.98
224.199	-10.65
224.583	-8.09
224.968	-2.11
225.352	5.28
225.736	-2.5
226.121	-2.11
226.505	7.7
226.889	7.1
227.273	-0.37
227.657	12.88
228.041	0.71
228.425	5.06
228.809	6.17
229.193	5.94
229.577	3.38
229.961	4.65
230.344	6
230.728	4.62
231.112	5.87
231.495	6.12
231.879	4.9
232.263	3.47
232.646	5.91
233.03	5.83
233.413	4.09
233.797	5.55
234.18	1.84
234.563	5.16
234.946	2.7
235.33	4.87
235.713	6.45
236.096	5.84
236.479	3.5
236.862	4.18
237.245	5.58
237.628	4.14
238.011	6.27
238.394	5.69
238.777	5.27
239.16	3.99
239.543	4.67
239.925	5.83
240.308	5.86
240.691	6.76
241.073	6.24
241.456	5.45
241.838	4.53
242.221	5.38
242.603	5.81
242.986	5.1
243.368	5.88
243.75	6.54
244.133	5.19
244.515	5.73
244.897	5.44
245.279	5.98
245.661	4.8
246.043	4.36
246.425	4.55
246.807	5.4
247.189	5.97
247.571	5.02
247.953	5.97
248.335	5.42
248.717	5.73
249.098	5.19
249.48	4.96
249.862	5.4
250.243	5.02
250.625	5.59
251.006	6.06
251.388	4.61
251.769	5.33
252.151	5.71
252.532	5.42
252.913	4.83
253.295	4.74
253.676	5.25
254.057	5.82
254.438	5.52
254.819	4.23
255.2	4.58
255.581	4.86
255.962	4.22
256.343	4.74
256.724	5.92
257.105	5.05
257.486	4.84
257.867	6.19
258.247	4.33
258.628	3.47
259.009	4.8
259.389	5.07
259.77	4.67
260.15	3.79
260.531	3.87
260.911	5.28
261.292	5.15
261.672	5.27
262.052	5.13
262.432	4.87
262.813	5.08
263.193	4.79
263.573	4.58
263.953	5.06
264.333	5.25
264.713	5.01
265.093	4.41
265.473	4.47
265.853	3.09
266.233	5.33
266.612	3.41
266.992	3.99
267.372	5.1
267.752	5.19
268.131	4.48
268.511	4.73
268.89	5.37
269.27	4.51
269.649	4.09
270.029	4.24
270.408	5.87
270.787	5.1
271.167	5.34
271.546	5.18
271.925	3.82
272.304	3.93
272.683	4.64
273.062	4.52
273.441	4.7
273.82	4.28
274.199	4.69
274.578	4.5
274.957	4.85
275.336	4.45
275.715	3.89
276.093	4.68
276.472	4.06
276.851	4.27
277.229	4.39
277.608	4.02
277.986	4.39
278.365	4.24
278.743	4.73
279.122	4.77
279.5	4.94
279.878	5.21
280.257	4.38
280.635	4.48
281.013	4.32
281.391	5.27
281.769	4.94
282.147	4.66
282.525	4.99
282.903	4.48
283.281	4.54
283.659	4.63
284.037	4.88
284.415	4.48
284.792	5.09
285.17	3.51
285.548	4.44
285.925	4.52
286.303	4.72
286.68	4.77
287.058	4.35
287.435	4.13
287.813	4.66
288.19	4.33
288.567	4.05
288.945	4.86
289.322	4.58
289.699	4.56
290.076	4.34
290.453	4.49
290.83	4.07
291.207	4.69
291.584	4.32
291.961	4.61
292.338	4.63
292.715	5.12
293.092	4.69
293.469	4.26
293.845	4.76
294.222	4.9
294.599	4.26
294.975	3.87
295.352	4.5
295.728	3.83
296.105	3.96
296.481	5.05
296.858	4.8
297.234	4.1
297.61	4.2
297.986	4.73
298.363	4.72
298.739	4.72
299.115	4.47
299.491	4.32
299.867	4.35
300.243	4.58
300.619	4.56
300.995	4.37
301.371	4.6
301.746	4.64
302.122	4.69
302.498	4.89
302.874	4.16
303.249	4.96
303.625	4.67
304	4.91
304.376	4.53
304.751	3.85
305.127	5.27
305.502	3.7
305.878	4.27
306.253	4.5
306.628	4.81
307.003	4.03
307.378	4.98
307.754	5.13
308.129	3.88
308.504	4.52
308.879	4.14
309.254	5.69
309.629	4.81
310.003	4.89
310.378	4.73
310.753	4.65
311.128	4.62
311.502	4.77
311.877	4.99
312.252	4.32
312.626	4.53
313.001	4.44
313.375	4.91
313.75	4.45
314.124	4.67
314.498	4.74
314.873	4.59
315.247	4.57
315.621	4.67
315.995	4.17
316.369	4.52
316.743	4.35
317.117	4.69
317.491	4.54
317.865	4.62
318.239	4.19
318.613	4.84
318.987	5.25
319.361	4.01
319.734	5.37
320.108	5.07
320.482	4
320.855	4.65
321.229	4.18
321.602	4.33
321.976	5.02
322.349	3.95
322.723	4.49
323.096	4.73
323.469	4.84
323.843	4.96
324.216	5.48
324.589	4.15
324.962	4.76
325.335	3.95
325.708	4.89
326.081	5.02
326.454	4.02
326.827	4.95
327.2	4.97
327.573	5.49
327.945	4.8
328.318	4.85
328.691	4.63
329.063	4.77
329.436	4.56
329.809	4.74
330.181	4.75
330.553	4.49
330.926	4.76
331.298	4.94
331.671	4.19
332.043	4.55
332.415	5.14
332.787	4.82
333.159	5.64
333.532	4.89
333.904	4.07
334.276	4.63
334.648	5.19
335.02	4.59
335.391	4.35
335.763	4.62
336.135	5.27
336.507	5
336.879	4.76
337.25	4.94
337.622	4.27
337.993	4.27
338.365	4.51
338.736	4.8
339.108	4.97
339.479	4.67
339.851	4.66
340.222	4.63
340.593	4.65
340.964	4.8
341.336	5.33
341.707	4.15
342.078	5.62
342.449	5.58
342.82	4.68
343.191	4.55
343.562	4.88
343.933	4.55
344.303	5.19
344.674	4.6
345.045	5.2
345.416	4.97
345.786	4.84
346.157	5.03
346.527	4.31
346.898	4.32
347.268	5.56
347.639	4.69
348.009	5.02
348.38	4.37
348.75	4.33
349.12	4.93
349.49	5.33
349.861	4.88
350.231	4.56
350.601	5.21
350.971	4.72
351.341	4.85
351.711	5.03
352.081	5.08
352.45	5.14
352.82	5.03
353.19	4.39
353.56	4.83
353.929	4.67
354.299	4.53
354.669	4.62
355.038	4.92
355.408	4.51
355.777	4.7
356.147	4.81
356.516	4.96
356.885	4.88
357.254	4.83
357.624	5.2
357.993	5.18
358.362	4.68
358.731	4.88
359.1	4.59
359.469	4.97
359.838	5.18
360.207	4.88
360.576	4.71
360.945	5.07
361.314	5.54
361.682	4.49
362.051	4.68
362.42	4.95
362.788	4.97
363.157	4.94
363.525	5.23
363.894	5.19
364.262	5.07
364.631	4.89
364.999	4.93
365.367	4.42
365.735	5.31
366.104	5.19
366.472	4.88
366.84	4.84
367.208	4.86
367.576	4.81
367.944	5.34
368.312	4.77
368.68	4.85
369.048	5.03
369.416	4.74
369.783	4.85
370.151	5.03
370.519	5.09
370.886	5.32
371.254	4.72
371.621	5.18
371.989	5.15
372.356	4.53
372.724	5.08
373.091	4.6
373.458	4.88
373.826	5.11
374.193	5.02
374.56	5.29
374.927	5.28
375.294	5.44
375.661	4.81
376.028	4.89
376.395	4.73
376.762	5.33
377.129	5.02
377.496	5.12
377.863	4.96
378.229	4.83
378.596	4.94
378.963	4.94
379.329	4.92
379.696	5.35
380.062	5.15
380.429	4.97
380.795	5.11
381.161	5
381.528	5.19
381.894	4.96
382.26	4.92
382.626	5.32
382.993	4.64
383.359	5.38
383.725	4.77
384.091	5.11
384.457	5.32
384.823	5.18
385.188	5.47
385.554	5.01
385.92	5.26
386.286	5.72
386.651	5.15
387.017	5.36
387.383	5.15
387.748	5.08
388.114	5.19
388.479	4.9
388.845	5.41
389.21	5.48
389.575	5.26
389.94	4.87
390.306	5.38
390.671	5.34
391.036	4.92
391.401	4.99
391.766	5.37
392.131	5.06
392.496	5.22
392.861	5.23
393.226	5.33
393.591	5.18
393.956	5.06
394.32	5.29
394.685	5
395.05	5.1
395.414	5.36
395.779	5.1
396.143	5.4
396.508	5.34
396.872	5.37
397.236	5.31
397.601	4.98
397.965	5.57
398.329	5.48
398.694	5.4
399.058	5.5
399.422	5.09
399.786	5.44
400.15	5.35
400.514	5.5
400.878	5.31
401.242	5.59
401.605	5.4
401.969	5.28
402.333	5.18
402.697	5.26
403.06	5.49
403.424	5.44
403.787	5.23
404.151	5.29
404.514	5.44
404.878	5.06
405.241	5.62
405.604	5.24
405.968	5.59
406.331	5.45
406.694	5.64
407.057	5.56
407.42	5.55
407.783	5.25
408.146	5.48
408.509	5.47
408.872	5.29
409.235	5.46
409.598	5.5
409.961	5.52
410.323	5.14
410.686	5.45
411.049	5.25
411.411	5.26
411.774	5.61
412.136	5.44
412.499	5.19
412.861	5.3
413.223	5.34
413.586	5.49
413.948	5.59
414.31	5.56
414.672	5.22
415.035	5.31
415.397	5.39
415.759	5.2
416.121	5.81
416.483	5.39
416.845	5.47
417.206	5.41
417.568	5.48
417.93	5.38
418.292	5.34
418.653	5.49
419.015	5.49
419.377	5.39
419.738	5.6
420.1	5.29
420.461	5.44
420.822	5.44
421.184	5.49
421.545	5.58
421.906	5.26
422.267	5.36
422.629	5.59
422.99	5.52
423.351	5.24
423.712	5.39
424.073	5.48
424.434	5.34
424.795	5.43
425.155	5.49
425.516	5.29
425.877	5.43
426.238	5.44
426.598	5.62
426.959	5.41
427.32	5.32
427.68	5.44
428.041	5.43
428.401	5.57
428.761	5.47
429.122	5.45
429.482	5.35
429.842	5.61
430.202	5.55
430.563	5.5
430.923	5.65
431.283	5.68
431.643	5.56
432.003	5.47
432.363	5.64
432.722	5.53
433.082	5.55
433.442	5.61
433.802	5.41
434.161	5.68
434.521	5.83
434.881	5.55
435.24	5.49
435.6	5.68
435.959	5.67
436.319	5.53
436.678	5.37
437.037	5.6
437.396	5.65
437.756	5.65
438.115	5.45
438.474	5.67
438.833	5.33
439.192	5.63
439.551	5.78
439.91	5.72
440.269	5.63
440.628	5.5
440.987	5.6
441.345	5.56
441.704	5.62
442.063	5.53
442.421	5.55
442.78	5.62
443.138	5.66
443.497	5.56
443.855	5.66
444.214	5.63
444.572	5.52
444.93	5.85
445.288	5.75
445.647	5.84
446.005	5.65
446.363	5.71
446.721	5.67
447.079	5.51
447.437	5.54
447.795	5.65
448.153	5.47
448.51	5.57
448.868	5.58
449.226	5.56
449.584	5.63
449.941	5.73
450.299	5.54
450.656	5.68
451.014	5.69
451.371	5.54
451.729	5.61
452.086	5.88
452.443	5.68
452.801	5.71
453.158	5.65
453.515	5.63
453.872	5.69
454.229	5.68
454.586	5.71
454.943	5.8
455.3	5.81
455.657	5.62
456.014	5.55
456.371	5.74
456.727	5.65
457.084	5.75
457.441	5.65
457.797	5.75
458.154	5.92
458.51	5.86
458.867	5.89
459.223	5.75
459.58	5.78
459.936	5.82
460.292	5.68
460.648	5.73
461.005	5.77
461.361	5.91
461.717	5.84
462.073	5.61
462.429	5.7
462.785	5.87
463.141	5.74
463.496	5.78
463.852	5.94
464.208	5.77
464.564	5.83
464.919	5.9
465.275	5.79
465.631	6.04
465.986	5.78
466.342	5.87
466.697	5.6
467.052	5.84
467.408	5.93
467.763	5.79
468.118	5.79
468.473	5.82
468.829	5.99
469.184	5.74
469.539	6.06
469.894	5.87
470.249	5.98
470.603	6.01
470.958	6.02
471.313	6.02
471.668	6.05
472.023	5.86
472.377	5.74
472.732	5.82
473.086	5.66
473.441	5.77
473.795	5.98
474.15	6.03
474.504	5.96
474.859	5.88
475.213	5.67
475.567	5.88
475.921	5.94
476.275	5.89
476.63	5.89
476.984	6.12
477.338	6.04
477.692	5.83
478.045	5.96
478.399	5.9
478.753	6.03
479.107	5.94
479.461	5.88
479.814	5.9
480.168	5.89
480.521	5.85
480.875	5.96
481.228	5.94
481.582	5.97
481.935	5.99
482.289	5.99
482.642	6.01
482.995	6.03
483.348	5.91
483.701	5.93
484.055	6.01
484.408	6.05
484.761	5.85
485.114	5.81
485.466	5.69
485.819	5.67
486.172	5.62
486.525	5.63
486.878	5.68
487.23	5.67
487.583	5.75
487.936	5.82
488.288	5.91
488.641	5.87
488.993	5.73
489.345	5.74
489.698	5.76
490.05	5.7
490.402	5.78
490.754	5.76
491.107	5.83
491.459	5.92
491.811	5.91
492.163	5.95
492.515	5.9
492.866	5.99
493.218	5.91
493.57	5.83
493.922	5.78
494.274	5.92
494.625	5.92
494.977	5.91
495.328	5.98
495.68	5.96
496.031	6.11
496.383	6.05
496.734	6.13
497.086	6.09
497.437	5.97
497.788	6.1
498.139	6.07
498.49	6.07
498.842	6.02
499.193	6.04
499.544	6.02
499.894	6.09
500.245	6.09
500.596	6.04
500.947	6.08
501.298	6.07
501.648	6.1
501.999	6.14
502.35	6.14
502.7	6.21
503.051	5.86
503.401	6.02
503.752	6.16
504.102	6.14
504.452	6.13
504.803	6.19
505.153	6.08
505.503	6.09
505.853	6.13
506.203	6.15
506.553	6.22
506.903	6.04
507.253	6.09
507.603	6.03
507.953	6.33
508.303	6.37
508.652	6.02
509.002	6.33
509.352	6.15
509.701	6.19
510.051	6.07
510.4	6.07
510.75	6.09
511.099	6.11
511.449	6.14
511.798	6.21
512.147	6.17
512.496	6.2
512.846	6.12
513.195	6.22
513.544	6.19
513.893	6.3
514.242	6.14
514.591	6.24
514.939	6.12
515.288	6.17
515.637	6.3
515.986	6.16
516.334	6.25
516.683	6.3
517.032	6.2
517.38	6.27
517.729	6.32
518.077	6.17
518.426	6.31
518.774	6.22
519.122	6.14
519.47	6.16
519.819	6.08
520.167	6.24
520.515	6.09
520.863	6.17
521.211	6.16
521.559	6.22
521.907	6.21
522.255	6.18
522.602	6.17
522.95	6.23
523.298	6.36
523.645	6.32
523.993	6.21
524.341	6.41
524.688	6.38
525.036	6.27
525.383	6.39
525.73	6.47
526.078	6.39
526.425	6.3
526.772	6.31
527.119	6.25
527.466	6.27
527.814	6.19
528.161	6.25
528.508	6.35
528.854	6.21
529.201	6.15
529.548	6.24
529.895	6.24
530.242	6.15
530.588	6.11
530.935	6.13
531.282	6.1
531.628	6.06
531.975	6.11
532.321	6.17
532.667	6.23
533.014	6.34
533.36	6.27
533.706	6.33
534.052	6.39
534.399	6.23
534.745	6.22
535.091	6.27
535.437	6.23
535.783	6.21
536.129	6.21
536.474	6.23
536.82	6.28
537.166	6.36
537.512	6.38
537.857	6.33
538.203	6.35
538.549	6.35
538.894	6.32
539.239	6.3
539.585	6.31
539.93	6.35
540.276	6.39
540.621	6.52
540.966	6.51
541.311	6.34
541.656	6.42
542.001	6.39
542.346	6.52
542.691	6.42
543.036	6.34
543.381	6.19
543.726	6.22
544.071	6.33
544.415	6.36
544.76	6.34
545.105	6.36
545.449	6.39
545.794	6.49
546.138	6.38
546.483	6.48
546.827	6.49
547.171	6.45
547.516	6.6
547.86	6.44
548.204	6.39
548.548	6.51
548.892	6.59
549.236	6.5
549.58	6.42
549.924	6.51
550.268	6.56
550.612	6.59
550.956	6.63
551.3	6.69
551.643	6.65
551.987	6.83
552.33	6.53
552.674	6.81
553.017	6.59
553.361	6.54
553.704	6.78
554.048	6.55
554.391	6.48
554.734	6.58
555.077	6.53
555.42	6.48
555.764	6.6
556.107	6.46
556.45	6.32
556.793	6.62
557.135	6.61
557.478	6.86
557.821	6.6
558.164	6.8
558.507	6.65
558.849	6.72
559.192	6.69
559.534	6.89
559.877	6.85
560.219	6.79
560.562	6.93
560.904	6.84
561.246	6.64
561.589	6.65
561.931	6.56
562.273	6.83
562.615	6.62
562.957	6.84
563.299	6.53
563.641	6.66
563.983	6.86
564.325	6.63
564.667	6.59
565.008	6.78
565.35	6.51
565.692	6.45
566.033	6.56
566.375	6.7
566.716	6.91
567.058	6.75
567.399	6.65
567.741	6.64
568.082	6.82
568.423	6.5
568.764	6.81
569.105	6.74
569.447	6.73
569.788	6.64
570.129	6.8
570.47	6.84
570.811	6.87
571.151	6.9
571.492	6.78
571.833	6.78
572.174	6.61
572.514	6.67
572.855	6.76
573.195	6.67
573.536	6.77
573.876	6.55
574.217	6.7
574.557	6.93
574.898	6.89
575.238	6.9
575.578	6.76
575.918	6.91
576.258	6.91
576.598	6.87
576.938	6.86
577.278	6.73
577.618	6.66
577.958	6.77
578.298	6.93
578.638	6.74
578.977	6.94
579.317	6.65
579.657	6.87
579.996	6.97
580.336	6.95
580.675	6.8
581.014	6.71
581.354	6.87
581.693	7.08
582.032	6.99
582.372	6.82
582.711	6.86
583.05	6.71
583.389	6.91
583.728	6.88
584.067	6.82
584.406	6.99
584.745	6.99
585.083	6.7
585.422	6.93
585.761	7.05
586.1	7.09
586.438	7.04
586.777	7.09
587.115	7.08
587.454	6.94
587.792	6.76
588.13	7
588.469	6.77
588.807	6.84
589.145	6.69
589.483	6.88
589.821	6.93
590.159	6.97
590.497	7.16
590.835	7.27
591.173	6.95
591.511	7.24
591.849	7.04
592.187	6.86
592.524	7.09
592.862	7.01
593.2	7
593.537	7.11
593.875	6.87
594.212	6.76
594.55	7.11
594.887	7.21
595.224	6.93
595.561	6.96
595.899	7.01
596.236	7.09
596.573	7.18
596.91	6.82
597.247	6.81
597.584	7.34
597.921	6.96
598.258	6.68
598.594	6.89
598.931	6.96
599.268	7.11
599.604	6.84
599.941	7.11
600.277	6.96
600.614	7.02
600.95	6.98
601.287	7.2
601.623	7.03
601.959	6.95
602.296	7.06
602.632	6.98
602.968	7.34
603.304	7.05
603.64	7.08
603.976	7.3
604.312	7.15
604.648	6.97
604.984	7.08
605.319	7.09
605.655	7
605.991	7.25
606.326	7
606.662	7.12
606.998	6.92
607.333	7.26
607.668	7.14
608.004	6.99
608.339	7.19
608.674	7.08
609.01	7.02
609.345	6.92
609.68	7.38
610.015	6.93
610.35	7.07
610.685	6.93
611.02	7.3
611.355	7.45
611.689	7.2
612.024	7.14
612.359	7.28
612.694	7.17
613.028	7.11
613.363	7.23
613.697	7.39
614.032	7.48
614.366	7.17
614.7	7.48
615.035	7.44
615.369	7.19
615.703	7.21
616.037	7.19
616.371	7.11
616.705	7.03
617.039	7.33
617.373	7.02
617.707	7.11
618.041	6.85
618.375	7.2
618.709	7.34
619.042	7.06
619.376	7.45
619.71	7.49
620.043	7.4
620.377	7.25
620.71	7.41
621.043	6.89
621.377	7.29
621.71	7.29
622.043	7.03
622.376	6.89
622.709	7.34
623.043	7.23
623.376	7.23
623.709	7.26
624.041	7.31
624.374	6.82
624.707	7.16
625.04	7.39
625.373	7.06
625.705	7.72
626.038	7.44
626.37	7.32
626.703	6.78
627.035	7.67
627.368	7.69
627.7	7.5
628.032	7.05
628.365	7.7
628.697	7.44
629.029	7.13
629.361	7.64
629.693	7.56
630.025	7.27
630.357	7.55
630.689	7.36
631.021	7.37
631.353	7.65
631.684	7.53
632.016	7.19
632.348	7.48
632.679	7.53
633.011	7.47
633.342	7.56
633.674	7.27
634.005	7.85
634.336	7.3
634.668	7.85
634.999	7.35
635.33	7.76
635.661	7.51
635.992	7.62
636.323	7.55
636.654	7.73
636.985	7.61
637.316	7.67
637.647	7.52
637.977	7.67
638.308	7.66
638.639	7.27
638.969	7.32
639.3	7.42
639.63	6.88
639.961	6.94
640.291	7.4
640.622	7.69
640.952	7.17
641.282	8.02
641.612	7.48
641.943	7.21
642.273	7.46
642.603	7.64
642.933	7.64
643.263	7.75
643.592	7.66
643.922	7.37
644.252	7.09
644.582	7.66
644.911	7.34
645.241	7.56
645.571	7.07
645.9	7.32
646.23	7.96
646.559	7.21
646.888	7.47
647.218	7.48
647.547	7.59
647.876	8.02
648.205	7.15
648.534	7.33
648.863	7.19
649.192	7.68
649.521	7.27
649.85	7.47
650.179	7.99
650.508	7.13
650.837	7.58
651.165	7.26
651.494	7.61
651.822	7.67
652.151	7.61
652.479	8.11
652.808	7.41
653.136	7.87
653.465	7.16
653.793	7.31
654.121	7.14
654.449	7.88
654.777	7.83
655.105	7.65
655.433	7.64
655.761	7.7
656.089	7.72
656.417	7.52
656.745	7.87
657.073	7.27
657.4	8.21
657.728	7.93
658.056	7.43
658.383	7.63
658.711	7.88
659.038	8.27
659.365	7.52
659.693	7.73
660.02	7.94
660.347	7.81
660.674	7.74
661.001	7.6
661.329	7.29
661.656	7.92
661.982	7.93
662.309	7.81
662.636	7.91
662.963	8.03
663.29	8.03
663.616	8.31
663.943	7.43
664.27	7.65
664.596	7.84
664.923	7.52
665.249	7.78
665.576	8.06
665.902	8.7
666.228	8.34
666.554	7.98
666.881	8.16
667.207	8.21
667.533	7.66
667.859	8.27
668.185	7.96
668.511	6.84
668.837	7.06
669.162	8.19
669.488	7.37
669.814	8.42
670.139	8.41
670.465	8.49
670.791	7.87
671.116	7.94
671.442	7.53
671.767	7.81
672.092	8.28
672.418	7.93
672.743	8.16
673.068	7.88
673.393	7.69
673.718	7.77
674.043	7.81
674.368	8.13
674.693	8.41
675.018	7.54
675.343	7.5
675.667	7.5
675.992	8.23
676.317	8.63
676.641	8.3
676.966	7.91
677.29	7.81
677.615	8.11
677.939	8.5
678.264	8.28
678.588	8.3
678.912	8.62
679.236	8.61
679.56	7.88
679.885	8.92
680.209	8.18
680.532	8.1
680.856	8.69
681.18	8.39
681.504	8.22
681.828	8.7
682.152	8.53
682.475	8.41
682.799	8.2
683.122	8.34
683.446	7.94
683.769	8.3
684.093	7.76
684.416	8.67
684.739	8.3
685.062	7.95
685.386	8.46
685.709	7.97
686.032	7.91
686.355	8.61
686.678	8.46
687.001	7.71
687.324	7.94
687.646	7.42
687.969	7.98
688.292	8.05
688.614	8.53
688.937	8.65
689.26	8.49
689.582	8.02
689.904	8.13
690.227	8.6
690.549	8.63
690.871	8.48
691.194	8.07
691.516	7.98
691.838	8.33
