Data from 0387_chest_Reflection__0__230.txt Node

Date: Fri Dec 15 18:27:59 CST 2023
User: ToomeyLab
Spectrometer: FLMS14357
Trigger mode: 0
Integration Time (sec): 1.000000E-2
Scans to average: 100
Electric dark correction enabled: true
Nonlinearity correction enabled: false
Boxcar width: 0
XAxis mode: Wavelengths
Number of Pixels in Spectrum: 2048
>>>>>Begin Spectral Data<<<<<
189.047	-6.59
189.435	-6.59
189.823	-6.59
190.211	-77.5
190.599	-24.78
190.987	128.7
191.375	229.65
191.763	-147.45
192.151	242.59
192.538	55.75
192.926	14.2
193.314	88.61
193.702	141.33
194.089	-30.1
194.477	-22.74
194.864	526.26
195.252	156.72
195.639	71.08
196.027	853.66
196.414	190.26
196.801	68.58
197.189	-7.77
197.576	344.44
197.963	-139.68
198.351	-24.23
198.738	-10.97
199.125	8.81
199.512	-25.63
199.899	13.09
200.286	-7.8
200.673	-9.11
201.06	4.77
201.447	-17.45
201.833	86.89
202.22	7.27
202.607	42.41
202.994	78.64
203.38	4.5
203.767	-1.98
204.154	43.74
204.54	10.7
204.927	-74.89
205.313	-359.1
205.699	-13.4
206.086	28.8
206.472	-2.08
206.858	11.26
207.245	-22.41
207.631	34.3
208.017	46.23
208.403	-8.06
208.789	2.88
209.175	24.39
209.561	-3.64
209.947	42.25
210.333	-61.47
210.719	-17.43
211.105	24.06
211.491	-58.53
211.876	17.76
212.262	-11.34
212.648	8.53
213.034	36.31
213.419	-17.31
213.805	43.52
214.19	-15.63
214.576	-0.9
214.961	-14.47
215.346	-67.61
215.732	-0.12
216.117	-17.7
216.502	-33.69
216.888	-4.55
217.273	5.9
217.658	-7.65
218.043	9.67
218.428	-27.04
218.813	-43.39
219.198	-48.34
219.583	1.64
219.968	-1.43
220.353	-9.53
220.738	33.24
221.122	10.23
221.507	-35.02
221.892	-30.55
222.276	-17.57
222.661	-15.08
223.046	6.46
223.43	13.69
223.815	20.26
224.199	-4.9
224.583	-1.79
224.968	7.68
225.352	9.85
225.736	-7.56
226.121	-11.85
226.505	-1.98
226.889	8.3
227.273	-1.66
227.657	7.01
228.041	1.12
228.425	0.79
228.809	7.31
229.193	5.31
229.577	2.71
229.961	3.62
230.344	3.47
230.728	2.6
231.112	3.34
231.495	3.36
231.879	2.46
232.263	3.98
232.646	3.61
233.03	3.72
233.413	1.8
233.797	5.18
234.18	3.17
234.563	4.19
234.946	1.67
235.33	4.61
235.713	4.1
236.096	3.82
236.479	5.26
236.862	4.23
237.245	3.53
237.628	1.59
238.011	2.26
238.394	3.71
238.777	2.05
239.16	3.27
239.543	3.9
239.925	5.26
240.308	3.96
240.691	3.86
241.073	3.86
241.456	2.78
241.838	2.3
242.221	4.16
242.603	3.62
242.986	3.84
243.368	4.3
243.75	4.22
244.133	3.04
244.515	3.84
244.897	3.06
245.279	3.79
245.661	3.04
246.043	2.82
246.425	3.03
246.807	4.9
247.189	3.33
247.571	3.16
247.953	3.57
248.335	3.28
248.717	3.76
249.098	3.62
249.48	3.4
249.862	3.55
250.243	3.49
250.625	2.95
251.006	3.58
251.388	2.85
251.769	2.5
252.151	3.64
252.532	3.58
252.913	3.77
253.295	2.51
253.676	3.44
254.057	4.01
254.438	3.45
254.819	2.87
255.2	2.73
255.581	2.21
255.962	1.79
256.343	5.12
256.724	2.91
257.105	2.85
257.486	3.75
257.867	3.27
258.247	3.16
258.628	3.5
259.009	3.55
259.389	3.64
259.77	2.86
260.15	2.35
260.531	2.22
260.911	3.65
261.292	3.44
261.672	3.61
262.052	3.57
262.432	3.58
262.813	3.48
263.193	3.15
263.573	3.11
263.953	3.6
264.333	3.38
264.713	3.66
265.093	2.96
265.473	3.96
265.853	2.83
266.233	3.05
266.612	2.37
266.992	3.21
267.372	3.38
267.752	3.74
268.131	3.13
268.511	3.97
268.89	3.06
269.27	2.73
269.649	2.2
270.029	3.16
270.408	4.44
270.787	3.37
271.167	3.61
271.546	4.01
271.925	3.16
272.304	3.18
272.683	3.4
273.062	3.38
273.441	3.29
273.82	2.58
274.199	3.07
274.578	3.37
274.957	3.18
275.336	2.86
275.715	3.12
276.093	2.84
276.472	3.31
276.851	2.93
277.229	2.78
277.608	2.6
277.986	3.09
278.365	3.74
278.743	3.15
279.122	3.24
279.5	3.38
279.878	3.48
280.257	3.1
280.635	3.16
281.013	2.69
281.391	3.92
281.769	3.58
282.147	3.19
282.525	3.66
282.903	2.9
283.281	3.8
283.659	3.17
284.037	3.57
284.415	3.28
284.792	3.42
285.17	2.42
285.548	2.68
285.925	3.12
286.303	3.78
286.68	3.28
287.058	2.92
287.435	3.12
287.813	3.43
288.19	3.08
288.567	3.09
288.945	3.74
289.322	3.1
289.699	2.8
290.076	3.25
290.453	3.02
290.83	2.71
291.207	3.18
291.584	3.48
291.961	3.38
292.338	3.54
292.715	3.14
293.092	3.22
293.469	3.23
293.845	3.75
294.222	2.5
294.599	3.76
294.975	3.14
295.352	4.12
295.728	3.48
296.105	3.19
296.481	3.46
296.858	3.37
297.234	3.05
297.61	3.12
297.986	3.25
298.363	3.63
298.739	3.67
299.115	3.57
299.491	3.3
299.867	3.31
300.243	3.63
300.619	2.84
300.995	3.48
301.371	3.88
301.746	3.55
302.122	4.59
302.498	4.04
302.874	4.05
303.249	3.91
303.625	3.8
304	3.62
304.376	3.82
304.751	2.87
305.127	3.88
305.502	3.21
305.878	3.29
306.253	3.63
306.628	4
307.003	3.84
307.378	4.12
307.754	3.85
308.129	3.3
308.504	3.77
308.879	3.95
309.254	4.49
309.629	4.25
310.003	4
310.378	4.45
310.753	3.92
311.128	4.13
311.502	4.1
311.877	4.65
312.252	3.43
312.626	4.07
313.001	3.93
313.375	4.11
313.75	3.39
314.124	3.85
314.498	3.45
314.873	3.71
315.247	3.33
315.621	4.64
315.995	3.5
316.369	3.95
316.743	3.43
317.117	4.33
317.491	4.21
317.865	3.86
318.239	3.54
318.613	4.18
318.987	4.02
319.361	3.43
319.734	4.54
320.108	4.14
320.482	3.97
320.855	4.26
321.229	3.54
321.602	3.68
321.976	4.05
322.349	3.45
322.723	3.85
323.096	4.45
323.469	3.31
323.843	4.2
324.216	4.15
324.589	4.24
324.962	4.39
325.335	4.24
325.708	4.08
326.081	3.67
326.454	3.97
326.827	3.76
327.2	4.14
327.573	4.47
327.945	4.05
328.318	3.99
328.691	3.68
329.063	4.38
329.436	4.4
329.809	4.56
330.181	3.65
330.553	4.66
330.926	3.84
331.298	4.42
331.671	3.77
332.043	4.88
332.415	4.4
332.787	4.87
333.159	4.92
333.532	4.26
333.904	4.79
334.276	4.07
334.648	4.19
335.02	3.81
335.391	4.55
335.763	3.87
336.135	4.69
336.507	4.56
336.879	4.55
337.25	4.09
337.622	4.39
337.993	4.08
338.365	4.27
338.736	4.46
339.108	3.98
339.479	4.05
339.851	4.36
340.222	4.11
340.593	3.93
340.964	3.93
341.336	4.39
341.707	3.72
342.078	4.61
342.449	4.81
342.82	4.35
343.191	4.83
343.562	4.5
343.933	4.55
344.303	4.25
344.674	4.15
345.045	4.35
345.416	4.79
345.786	3.96
346.157	5
346.527	4.1
346.898	3.96
347.268	4.48
347.639	4.09
348.009	4.7
348.38	4.09
348.75	4.42
349.12	4.18
349.49	5.01
349.861	4.3
350.231	4.4
350.601	4.34
350.971	4.84
351.341	4.32
351.711	4.12
352.081	4.22
352.45	4.2
352.82	4.52
353.19	4.25
353.56	4.33
353.929	4.16
354.299	4.27
354.669	4.52
355.038	4.64
355.408	4.42
355.777	4.61
356.147	4.62
356.516	4.67
356.885	4.78
357.254	4.29
357.624	4.91
357.993	4.53
358.362	4.22
358.731	4.11
359.1	4.56
359.469	4.72
359.838	4.67
360.207	4.32
360.576	4.32
360.945	4.39
361.314	5.15
361.682	4.4
362.051	4.54
362.42	4.76
362.788	4.25
363.157	4.78
363.525	4.85
363.894	4.73
364.262	4.62
364.631	4.38
364.999	4.52
365.367	4.18
365.735	5.05
366.104	4.94
366.472	4.71
366.84	4.39
367.208	4.61
367.576	4.93
367.944	4.58
368.312	4.45
368.68	4.52
369.048	5.07
369.416	4.67
369.783	4.29
370.151	4.7
370.519	5.29
370.886	5.21
371.254	4.22
371.621	5.16
371.989	4.96
372.356	4.22
372.724	4.96
373.091	4.69
373.458	4.76
373.826	4.58
374.193	4.64
374.56	4.92
374.927	4.62
375.294	4.67
375.661	4.76
376.028	4.54
376.395	4.62
376.762	4.87
377.129	4.81
377.496	4.68
377.863	4.79
378.229	4.37
378.596	4.53
378.963	4.62
379.329	4.46
379.696	4.64
380.062	4.94
380.429	4.63
380.795	4.47
381.161	4.57
381.528	4.48
381.894	4.77
382.26	4.31
382.626	4.96
382.993	4.45
383.359	5.29
383.725	4.36
384.091	4.77
384.457	4.59
384.823	4.57
385.188	4.84
385.554	4.84
385.92	4.74
386.286	5.01
386.651	5.13
387.017	4.92
387.383	4.56
387.748	4.77
388.114	4.79
388.479	4.64
388.845	5.22
389.21	4.83
389.575	4.85
389.94	4.9
390.306	4.85
390.671	4.83
391.036	4.62
391.401	4.88
391.766	5.01
392.131	4.81
392.496	4.99
392.861	4.68
393.226	5.2
393.591	4.67
393.956	4.83
394.32	4.78
394.685	4.77
395.05	4.77
395.414	4.58
395.779	4.48
396.143	4.75
396.508	4.82
396.872	5.06
397.236	5.23
397.601	4.67
397.965	4.87
398.329	4.87
398.694	5.13
399.058	5.03
399.422	4.66
399.786	5.26
400.15	5.1
400.514	5.11
400.878	5.05
401.242	5.09
401.605	5
401.969	5.14
402.333	4.96
402.697	4.68
403.06	5
403.424	5.05
403.787	4.77
404.151	5.03
404.514	4.84
404.878	4.67
405.241	5.11
405.604	4.76
405.968	4.95
406.331	4.95
406.694	5.13
407.057	4.98
407.42	5.13
407.783	4.79
408.146	5.04
408.509	5.14
408.872	4.91
409.235	4.86
409.598	5.11
409.961	5.02
410.323	4.99
410.686	4.86
411.049	4.87
411.411	4.8
411.774	5.02
412.136	4.89
412.499	5.15
412.861	4.76
413.223	5.14
413.586	4.88
413.948	4.79
414.31	4.94
414.672	5.15
415.035	4.68
415.397	5.25
415.759	4.53
416.121	5.2
416.483	5.11
416.845	4.94
417.206	5.08
417.568	5.18
417.93	4.76
418.292	5.09
418.653	5.2
419.015	5.21
419.377	5.19
419.738	5.13
420.1	5.15
420.461	5.06
420.822	5.05
421.184	5.1
421.545	5.04
421.906	4.89
422.267	5.05
422.629	5.02
422.99	5.02
423.351	4.93
423.712	4.98
424.073	4.93
424.434	5.08
424.795	5.08
425.155	5.06
425.516	4.95
425.877	5.17
426.238	5
426.598	5.09
426.959	5.07
427.32	4.92
427.68	4.98
428.041	5.12
428.401	5.24
428.761	5.14
429.122	5.2
429.482	4.95
429.842	5.3
430.202	5.19
430.563	5.21
430.923	4.98
431.283	5.37
431.643	5.18
432.003	5.09
432.363	5.22
432.722	5.14
433.082	5.32
433.442	4.99
433.802	5.09
434.161	5.14
434.521	5.35
434.881	5.28
435.24	4.95
435.6	5.08
435.959	5.22
436.319	5.36
436.678	5.18
437.037	5.26
437.396	5.36
437.756	5.31
438.115	5.38
438.474	5.26
438.833	5.1
439.192	5.36
439.551	5.44
439.91	5.36
440.269	5.29
440.628	5.09
440.987	5.36
441.345	5.09
441.704	5.32
442.063	5.12
442.421	5.13
442.78	5.06
443.138	5.15
443.497	5.26
443.855	5.27
444.214	5.13
444.572	5.23
444.93	5.26
445.288	5.28
445.647	5.34
446.005	5.33
446.363	5.37
446.721	5.39
447.079	5.2
447.437	5.35
447.795	5.34
448.153	5.22
448.51	5.21
448.868	5.27
449.226	5.31
449.584	5.29
449.941	5.4
450.299	5.38
450.656	5.36
451.014	5.29
451.371	5.25
451.729	5.3
452.086	5.49
452.443	5.56
452.801	5.57
453.158	5.48
453.515	5.34
453.872	5.53
454.229	5.35
454.586	5.27
454.943	5.39
455.3	5.49
455.657	5.19
456.014	5.36
456.371	5.45
456.727	5.48
457.084	5.66
457.441	5.5
457.797	5.42
458.154	5.74
458.51	5.62
458.867	5.38
459.223	5.42
459.58	5.54
459.936	5.43
460.292	5.4
460.648	5.54
461.005	5.43
461.361	5.53
461.717	5.49
462.073	5.39
462.429	5.32
462.785	5.46
463.141	5.52
463.496	5.24
463.852	5.66
464.208	5.52
464.564	5.64
464.919	5.67
465.275	5.36
465.631	5.61
465.986	5.79
466.342	5.51
466.697	5.55
467.052	5.61
467.408	5.68
467.763	5.54
468.118	5.56
468.473	5.58
468.829	5.6
469.184	5.55
469.539	5.8
469.894	5.38
470.249	5.78
470.603	5.77
470.958	5.62
471.313	5.86
471.668	5.56
472.023	5.68
472.377	5.64
472.732	5.68
473.086	5.63
473.441	5.54
473.795	5.69
474.15	5.8
474.504	5.7
474.859	5.66
475.213	5.57
475.567	5.58
475.921	5.53
476.275	5.59
476.63	5.74
476.984	5.65
477.338	5.72
477.692	5.7
478.045	5.61
478.399	5.62
478.753	5.72
479.107	5.7
479.461	5.66
479.814	5.76
480.168	5.79
480.521	5.65
480.875	5.69
481.228	5.68
481.582	5.74
481.935	5.79
482.289	5.77
482.642	5.7
482.995	5.65
483.348	5.71
483.701	5.71
484.055	5.7
484.408	5.68
484.761	5.56
485.114	5.57
485.466	5.38
485.819	5.4
486.172	5.35
486.525	5.39
486.878	5.47
487.23	5.49
487.583	5.58
487.936	5.66
488.288	5.63
488.641	5.66
488.993	5.57
489.345	5.53
489.698	5.52
490.05	5.51
490.402	5.63
490.754	5.57
491.107	5.74
491.459	5.78
491.811	5.74
492.163	5.73
492.515	5.74
492.866	5.79
493.218	5.66
493.57	5.64
493.922	5.57
494.274	5.73
494.625	5.75
494.977	5.79
495.328	5.91
495.68	5.85
496.031	5.97
496.383	5.9
496.734	5.95
497.086	6.03
497.437	5.89
497.788	6.1
498.139	5.83
498.49	6.06
498.842	5.77
499.193	5.88
499.544	5.91
499.894	5.89
500.245	6.02
500.596	5.94
500.947	6.1
501.298	5.97
501.648	6
501.999	6.07
502.35	6.03
502.7	6.18
503.051	5.92
503.401	5.86
503.752	6.1
504.102	5.99
504.452	6.15
504.803	5.95
505.153	6.16
505.503	6.03
505.853	6.08
506.203	6.06
506.553	6.13
506.903	6.03
507.253	6.12
507.603	5.87
507.953	6.34
508.303	6.29
508.652	6.04
509.002	6.26
509.352	6.28
509.701	6.13
510.051	6.17
510.4	6.08
510.75	6.03
511.099	6.21
511.449	5.95
511.798	6.07
512.147	6.19
512.496	6.03
512.846	6.12
513.195	6.24
513.544	6.18
513.893	6.37
514.242	6.2
514.591	6.44
514.939	6.31
515.288	6.18
515.637	6.49
515.986	6.26
516.334	6.4
516.683	6.3
517.032	6.38
517.38	6.39
517.729	6.4
518.077	6.28
518.426	6.33
518.774	6.55
519.122	6.35
519.47	6.31
519.819	6.15
520.167	6.34
520.515	6.31
520.863	6.37
521.211	6.35
521.559	6.46
521.907	6.37
522.255	6.27
522.602	6.37
522.95	6.47
523.298	6.39
523.645	6.52
523.993	6.38
524.341	6.58
524.688	6.5
525.036	6.52
525.383	6.53
525.73	6.7
526.078	6.53
526.425	6.59
526.772	6.61
527.119	6.5
527.466	6.5
527.814	6.5
528.161	6.46
528.508	6.48
528.854	6.47
529.201	6.43
529.548	6.47
529.895	6.47
530.242	6.35
530.588	6.31
530.935	6.35
531.282	6.38
531.628	6.45
531.975	6.5
532.321	6.58
532.667	6.55
533.014	6.61
533.36	6.73
533.706	6.67
534.052	6.76
534.399	6.69
534.745	6.71
535.091	6.61
535.437	6.58
535.783	6.65
536.129	6.72
536.474	6.68
536.82	6.83
537.166	6.81
537.512	6.9
537.857	6.86
538.203	6.89
538.549	6.82
538.894	6.76
539.239	6.9
539.585	6.84
539.93	6.87
540.276	7.09
540.621	7.06
540.966	7.06
541.311	6.95
541.656	6.91
542.001	6.96
542.346	7.1
542.691	6.87
543.036	6.9
543.381	6.88
543.726	6.9
544.071	6.93
544.415	7.07
544.76	7.01
545.105	7.01
545.449	7.02
545.794	7.09
546.138	7.05
546.483	7.23
546.827	7.25
547.171	7.25
547.516	7.35
547.86	7.19
548.204	7.34
548.548	7.28
548.892	7.39
549.236	7.28
549.58	7.32
549.924	7.41
550.268	7.45
550.612	7.55
550.956	7.47
551.3	7.53
551.643	7.63
551.987	7.65
552.33	7.59
552.674	7.7
553.017	7.5
553.361	7.5
553.704	7.88
554.048	7.66
554.391	7.62
554.734	7.69
555.077	7.58
555.42	7.63
555.764	7.64
556.107	7.63
556.45	7.45
556.793	7.79
557.135	7.93
557.478	8.02
557.821	7.83
558.164	7.9
558.507	7.92
558.849	7.9
559.192	7.8
559.534	7.93
559.877	7.95
560.219	8.03
560.562	8.24
560.904	8.16
561.246	8.23
561.589	8.2
561.931	8.04
562.273	8.02
562.615	8.1
562.957	8.19
563.299	8.06
563.641	8.21
563.983	8.29
564.325	8.11
564.667	8.14
565.008	8.14
565.35	8.21
565.692	8.12
566.033	8.33
566.375	8.65
566.716	8.35
567.058	8.36
567.399	8.27
567.741	8.2
568.082	8.34
568.423	8.34
568.764	8.26
569.105	8.65
569.447	8.3
569.788	8.37
570.129	8.63
570.47	8.7
570.811	8.62
571.151	8.8
571.492	8.68
571.833	8.7
572.174	8.68
572.514	8.79
572.855	8.63
573.195	8.77
573.536	8.69
573.876	8.5
574.217	8.53
574.557	8.74
574.898	8.77
575.238	9.03
575.578	8.68
575.918	9.01
576.258	8.87
576.598	9.02
576.938	8.77
577.278	8.85
577.618	9.03
577.958	9.1
578.298	9.03
578.638	8.98
578.977	9.08
579.317	8.99
579.657	8.92
579.996	9.19
580.336	9.31
580.675	9.41
581.014	9.41
581.354	9.38
581.693	9.46
582.032	8.91
582.372	9.43
582.711	9.62
583.05	9.32
583.389	9.45
583.728	9.22
584.067	9.66
584.406	9.65
584.745	9.38
585.083	9.64
585.422	9.67
585.761	9.61
586.1	9.78
586.438	9.84
586.777	9.56
587.115	10.03
587.454	9.98
587.792	9.77
588.13	10.03
588.469	9.76
588.807	10.02
589.145	9.72
589.483	9.73
589.821	10.01
590.159	10.1
590.497	10.17
590.835	10.34
591.173	10.25
591.511	9.99
591.849	10.2
592.187	10.13
592.524	10.41
592.862	10.07
593.2	10.22
593.537	10.22
593.875	10.26
594.212	10.15
594.55	10.33
594.887	10.47
595.224	10.24
595.561	10.42
595.899	10.49
596.236	10.39
596.573	10.64
596.91	10.18
597.247	10.2
597.584	10.62
597.921	10.49
598.258	10.36
598.594	10.64
598.931	10.43
599.268	10.71
599.604	10.48
599.941	10.7
600.277	10.43
600.614	10.71
600.95	10.65
601.287	10.99
601.623	10.98
601.959	10.96
602.296	10.91
602.632	10.94
602.968	11.14
603.304	10.91
603.64	11.17
603.976	10.86
604.312	10.92
604.648	10.68
604.984	11.15
605.319	11.19
605.655	11.21
605.991	11.14
606.326	11.08
606.662	11.2
606.998	11.06
607.333	11.42
607.668	11.32
608.004	11.38
608.339	11.42
608.674	11.42
609.01	11.21
609.345	11.14
609.68	11.72
610.015	11.29
610.35	11.58
610.685	11.45
611.02	11.79
611.355	11.7
611.689	11.67
612.024	11.64
612.359	11.76
612.694	11.68
613.028	11.82
613.363	11.99
613.697	12.24
614.032	11.8
614.366	12.08
614.7	12.22
615.035	12.14
615.369	11.71
615.703	12.09
616.037	12.22
616.371	11.73
616.705	12.02
617.039	11.96
617.373	11.8
617.707	11.86
618.041	12.09
618.375	12.22
618.709	12.31
619.042	12.06
619.376	12.79
619.71	12.55
620.043	12.85
620.377	12.3
620.71	12.38
621.043	12.48
621.377	12.6
621.71	12.52
622.043	12.34
622.376	12.47
622.709	12.46
623.043	13
623.376	12.76
623.709	12.54
624.041	13.17
624.374	13.04
624.707	13.07
625.04	12.74
625.373	12.53
625.705	12.85
626.038	12.93
626.37	12.92
626.703	12.83
627.035	13.29
627.368	13.46
627.7	13.07
628.032	13.37
628.365	13.58
628.697	13.02
629.029	13.13
629.361	13.43
629.693	13.63
630.025	13.25
630.357	13.57
630.689	13.7
631.021	13.38
631.353	13.53
631.684	13.61
632.016	13.45
632.348	13.75
632.679	14.1
633.011	13.57
633.342	14.06
633.674	13.78
634.005	14.24
634.336	13.83
634.668	14.07
634.999	13.77
635.33	13.92
635.661	13.93
635.992	13.89
636.323	14.35
636.654	13.96
636.985	13.6
637.316	14.19
637.647	13.98
637.977	14.03
638.308	14.14
638.639	14.42
638.969	14.03
639.3	14.16
639.63	14.26
639.961	14.44
640.291	14.27
640.622	14.73
640.952	14.47
641.282	15.16
641.612	14.51
641.943	14.35
642.273	14.49
642.603	15.05
642.933	14.97
643.263	14.55
643.592	14.73
643.922	14.68
644.252	14.59
644.582	14.99
644.911	14.7
645.241	15.21
645.571	14.91
645.9	14.65
646.23	14.86
646.559	15.24
646.888	14.96
647.218	14.97
647.547	15.49
647.876	14.87
648.205	15.09
648.534	15.14
648.863	15.07
649.192	15.91
649.521	15.07
649.85	15
650.179	14.99
650.508	14.73
650.837	14.88
651.165	15.34
651.494	15.32
651.822	15.26
652.151	15.8
652.479	15.31
652.808	15.03
653.136	15.82
653.465	15.24
653.793	15.57
654.121	15.12
654.449	15.84
654.777	16.13
655.105	15.87
655.433	15.32
655.761	16.05
656.089	15.97
656.417	15.95
656.745	15.62
657.073	15.24
657.4	16.59
657.728	15.6
658.056	16.04
658.383	16.09
658.711	16.43
659.038	16.75
659.365	16.32
659.693	16.4
660.02	15.99
660.347	16.52
660.674	16.23
661.001	16.36
661.329	16.38
661.656	16.13
661.982	16.8
662.309	16.17
662.636	16.69
662.963	16.71
663.29	16.56
663.616	17.32
663.943	16.48
664.27	16.35
664.596	16.77
664.923	16.87
665.249	16.54
665.576	16.97
665.902	17.66
666.228	17.4
666.554	17.44
666.881	16.66
667.207	17.12
667.533	16.84
667.859	17.14
668.185	17.31
668.511	16.91
668.837	16.6
669.162	17
669.488	16.82
669.814	17.35
670.139	17.57
670.465	17.63
670.791	17.43
671.116	17.93
671.442	17.37
671.767	17.64
672.092	18.36
672.418	18.25
672.743	18.33
673.068	17.22
673.393	17.92
673.718	17.84
674.043	17.32
674.368	17.3
674.693	18.01
675.018	18.11
675.343	17.57
675.667	17.51
675.992	17.32
676.317	17.8
676.641	17.67
676.966	18.15
677.29	18.27
677.615	17.82
677.939	18.8
678.264	18.24
678.588	18.72
678.912	18.67
679.236	18.67
679.56	17.53
679.885	19.25
680.209	18.07
680.532	18.96
680.856	18.65
681.18	18.43
681.504	18.51
681.828	18.5
682.152	18.55
682.475	18.67
682.799	18.27
683.122	18.83
683.446	18.5
683.769	19.08
684.093	18.56
684.416	19.2
684.739	18.71
685.062	18.87
685.386	19.33
685.709	18.52
