Data from 0387_forehead_Reflection__0__241.txt Node

Date: Fri Dec 15 18:31:41 CST 2023
User: ToomeyLab
Spectrometer: FLMS14357
Trigger mode: 0
Integration Time (sec): 1.000000E-2
Scans to average: 100
Electric dark correction enabled: true
Nonlinearity correction enabled: false
Boxcar width: 0
XAxis mode: Wavelengths
Number of Pixels in Spectrum: 2048
>>>>>Begin Spectral Data<<<<<
189.047	-21.93
189.435	-21.93
189.823	-21.93
190.211	-4.88
190.599	34.66
190.987	175.53
191.375	193.74
191.763	-211.49
192.151	42.14
192.538	135.82
192.926	107.37
193.314	111.85
193.702	162.42
194.089	-263.19
194.477	76.97
194.864	624.7
195.252	165.94
195.639	89.33
196.027	1068.83
196.414	65.04
196.801	62.88
197.189	103.44
197.576	344.01
197.963	37.95
198.351	-168.11
198.738	-2.93
199.125	39.76
199.512	115.1
199.899	1.76
200.286	55.96
200.673	-8.91
201.06	9.39
201.447	29.84
201.833	25.24
202.22	53.57
202.607	66.91
202.994	28.29
203.38	72.86
203.767	27.78
204.154	68.29
204.54	41.2
204.927	-66.04
205.313	-39.13
205.699	43.22
206.086	28.57
206.472	84.9
206.858	31.36
207.245	3.83
207.631	21.34
208.017	-33.27
208.403	-8.26
208.789	69.88
209.175	37.23
209.561	61.17
209.947	49.87
210.333	-23.6
210.719	31.97
211.105	34.82
211.491	-26.12
211.876	61.16
212.262	11.42
212.648	56.72
213.034	47.14
213.419	1.77
213.805	42.27
214.19	-35.17
214.576	5.8
214.961	3.21
215.346	-20.27
215.732	15.23
216.117	10.99
216.502	-13.91
216.888	9.3
217.273	40.45
217.658	-20.63
218.043	18.03
218.428	-36.4
218.813	-6.69
219.198	-23.22
219.583	19.65
219.968	20.23
220.353	3.91
220.738	33.75
221.122	8.81
221.507	-13.4
221.892	-3.49
222.276	13.05
222.661	19
223.046	19.24
223.43	15
223.815	19.97
224.199	-15.71
224.583	16.16
224.968	9.51
225.352	22.01
225.736	6.53
226.121	-3.66
226.505	9.85
226.889	19.86
227.273	2.5
227.657	13.62
228.041	4.45
228.425	4.39
228.809	7.6
229.193	2.82
229.577	4.19
229.961	5.62
230.344	5.2
230.728	5.26
231.112	4.6
231.495	4.55
231.879	4.86
232.263	6.65
232.646	5.61
233.03	3.27
233.413	4.37
233.797	7.24
234.18	4.69
234.563	7.17
234.946	4.75
235.33	7.13
235.713	6.32
236.096	5.9
236.479	6.12
236.862	3.6
237.245	5.56
237.628	3.73
238.011	6.61
238.394	5.21
238.777	4.63
239.16	4.13
239.543	6.1
239.925	5.31
240.308	4.97
240.691	7.02
241.073	5.6
241.456	5.13
241.838	5.16
242.221	3.71
242.603	4.94
242.986	5.52
243.368	6.37
243.75	5.35
244.133	5.07
244.515	5.4
244.897	5.49
245.279	5.53
245.661	5.66
246.043	5.03
246.425	4
246.807	6.41
247.189	5.2
247.571	4.17
247.953	5.15
248.335	5.24
248.717	5.31
249.098	5.05
249.48	5.48
249.862	5.6
250.243	5.33
250.625	5.38
251.006	6.19
251.388	4.84
251.769	5.65
252.151	6.55
252.532	6.01
252.913	5.36
253.295	4.84
253.676	5.9
254.057	4.78
254.438	5.91
254.819	5.39
255.2	5.59
255.581	5.81
255.962	4.98
256.343	5.25
256.724	6.66
257.105	5.52
257.486	5.73
257.867	6.33
258.247	6.02
258.628	6.16
259.009	5.6
259.389	5.45
259.77	5.59
260.15	5.58
260.531	4.9
260.911	5.23
261.292	5.27
261.672	5.19
262.052	5.23
262.432	5.39
262.813	5.51
263.193	5.37
263.573	5.77
263.953	4.84
264.333	5.66
264.713	5.04
265.093	4.88
265.473	6.19
265.853	4.3
266.233	5.82
266.612	3.73
266.992	3.9
267.372	5.2
267.752	5.47
268.131	4.46
268.511	5.53
268.89	5.15
269.27	4.96
269.649	4.76
270.029	5.11
270.408	5.68
270.787	5.03
271.167	5.68
271.546	5.47
271.925	4.54
272.304	4.86
272.683	5.13
273.062	4.74
273.441	5.06
273.82	4.69
274.199	5.28
274.578	4.89
274.957	4.75
275.336	4.61
275.715	4.81
276.093	4.57
276.472	5.07
276.851	4.2
277.229	4.79
277.608	4.87
277.986	4.22
278.365	4.78
278.743	4.46
279.122	4.52
279.5	5.7
279.878	5.65
280.257	4.94
280.635	4.8
281.013	4.7
281.391	5.18
281.769	5.19
282.147	5.35
282.525	5.61
282.903	4.52
283.281	5.45
283.659	5.97
284.037	5.52
284.415	5.28
284.792	4.83
285.17	4.67
285.548	4.56
285.925	5.28
286.303	4.78
286.68	4.81
287.058	4.97
287.435	4.63
287.813	4.66
288.19	4.85
288.567	4.84
288.945	5.54
289.322	5.53
289.699	5.15
290.076	4.75
290.453	4.62
290.83	4.84
291.207	4.69
291.584	5.07
291.961	5.34
292.338	5.11
292.715	5.4
293.092	5.25
293.469	5.36
293.845	5.9
294.222	4.99
294.599	5.51
294.975	5.14
295.352	5.72
295.728	5.21
296.105	5.61
296.481	5.48
296.858	5.73
297.234	5.51
297.61	5.78
297.986	6.02
298.363	5.89
298.739	6.15
299.115	5.92
299.491	5.55
299.867	5.86
300.243	5.88
300.619	5.93
300.995	5.88
301.371	6.38
301.746	6.24
302.122	6.78
302.498	6.21
302.874	6.6
303.249	6.78
303.625	6.28
304	7.1
304.376	6.91
304.751	5.93
305.127	7.59
305.502	6.17
305.878	6.4
306.253	6.99
306.628	7.39
307.003	7.4
307.378	7.16
307.754	7.4
308.129	6.64
308.504	7.04
308.879	7.29
309.254	8.62
309.629	8.01
310.003	8.04
310.378	8.14
310.753	7.67
311.128	8.11
311.502	8.23
311.877	8.7
312.252	8.26
312.626	8.07
313.001	7.99
313.375	8.81
313.75	8.53
314.124	8.8
314.498	8.61
314.873	8.55
315.247	8.76
315.621	8.97
315.995	8.38
316.369	9.5
316.743	9.08
317.117	9.71
317.491	9.19
317.865	9.71
318.239	10.23
318.613	9.8
318.987	9.63
319.361	9.55
319.734	10.82
320.108	10.42
320.482	10.25
320.855	10.26
321.229	10.12
321.602	11.15
321.976	10.95
322.349	11.1
322.723	10.21
323.096	11.64
323.469	10.14
323.843	11.02
324.216	10.93
324.589	10.85
324.962	11.6
325.335	11.54
325.708	11.33
326.081	11.16
326.454	11.52
326.827	10.95
327.2	11.45
327.573	11.94
327.945	11.92
328.318	11.6
328.691	11.45
329.063	11.71
329.436	11.44
329.809	12.37
330.181	11.86
330.553	12.39
330.926	12.16
331.298	12.28
331.671	12.19
332.043	13.17
332.415	13.22
332.787	12.67
333.159	13.81
333.532	12.96
333.904	12.32
334.276	12.5
334.648	12.81
335.02	12.55
335.391	13.12
335.763	13.12
336.135	13.37
336.507	13.66
336.879	13.05
337.25	13.01
337.622	13.24
337.993	13.91
338.365	13.73
338.736	14.03
339.108	13.43
339.479	13.8
339.851	14.03
340.222	13.71
340.593	13.64
340.964	13.79
341.336	14.58
341.707	13.45
342.078	14.75
342.449	14.11
342.82	14.56
343.191	14.43
343.562	14.56
343.933	14.35
344.303	14.67
344.674	14.75
345.045	14.74
345.416	14.82
345.786	14.87
346.157	15.03
346.527	14.16
346.898	14.37
347.268	14.54
347.639	14.68
348.009	14.93
348.38	14.66
348.75	15.23
349.12	15.2
349.49	16.03
349.861	15.08
350.231	15.35
350.601	15.94
350.971	15.46
351.341	15.83
351.711	15.51
352.081	15.56
352.45	15.49
352.82	15.74
353.19	16.21
353.56	15.53
353.929	16.11
354.299	16.03
354.669	16.03
355.038	16.16
355.408	16.06
355.777	16.61
356.147	16.14
356.516	16.84
356.885	16.67
357.254	16.61
357.624	17.11
357.993	16.38
358.362	16.63
358.731	16.68
359.1	16.87
359.469	17.02
359.838	16.77
360.207	16.83
360.576	16.88
360.945	16.8
361.314	17.41
361.682	17.06
362.051	17.21
362.42	17.53
362.788	17.31
363.157	17.4
363.525	17.31
363.894	17.5
364.262	17.53
364.631	17.37
364.999	17.26
365.367	17.83
365.735	18.24
366.104	18.14
366.472	18.13
366.84	17.69
367.208	17.65
367.576	18.31
367.944	18
368.312	17.66
368.68	18
369.048	18.33
369.416	18.48
369.783	18.14
370.151	18.79
370.519	19.01
370.886	18.71
371.254	18.64
371.621	19.21
371.989	19.19
372.356	18.43
372.724	19.01
373.091	18.73
373.458	19.16
373.826	19.3
374.193	18.87
374.56	19.52
374.927	19.24
375.294	19.84
375.661	19.42
376.028	18.99
376.395	19.58
376.762	19.73
377.129	19.58
377.496	19.55
377.863	19.66
378.229	19.88
378.596	20.01
378.963	20.03
379.329	19.75
379.696	20.09
380.062	20.31
380.429	20.35
380.795	20.3
381.161	20.46
381.528	20.7
381.894	20.49
382.26	20.28
382.626	20.86
382.993	20.41
383.359	20.82
383.725	20.48
384.091	20.61
384.457	21.25
384.823	20.95
385.188	21.2
385.554	20.95
385.92	21.35
386.286	21.21
386.651	21.5
387.017	21.66
387.383	21.21
387.748	21.38
388.114	21.37
388.479	21.58
388.845	21.41
389.21	21.59
389.575	21.19
389.94	21.48
390.306	21.62
390.671	21.99
391.036	21.46
391.401	21.66
391.766	21.88
392.131	22.01
392.496	22.28
392.861	21.86
393.226	22.24
393.591	21.86
393.956	22.14
394.32	22.22
394.685	21.9
395.05	22.13
395.414	22.51
395.779	22.43
396.143	22.56
396.508	22.3
396.872	22.31
397.236	22.59
397.601	22.34
397.965	22.65
398.329	22.77
398.694	22.98
399.058	22.77
399.422	22.92
399.786	22.99
400.15	23.21
400.514	23.1
400.878	23.04
401.242	23.39
401.605	23.13
401.969	23.22
402.333	23.23
402.697	23.24
403.06	23.12
403.424	23.68
403.787	23.34
404.151	23.5
404.514	23.36
404.878	23.25
405.241	23.61
405.604	23.59
405.968	23.75
406.331	23.55
406.694	23.52
407.057	23.25
407.42	23.58
407.783	23.25
408.146	23.71
408.509	23.95
408.872	23.51
409.235	23.59
409.598	24.06
409.961	23.92
410.323	23.93
410.686	24.09
411.049	23.95
411.411	23.83
411.774	23.95
412.136	23.75
412.499	24.02
412.861	24.03
413.223	24.24
413.586	24.16
413.948	24.4
414.31	24.4
414.672	24.55
415.035	24.24
415.397	24.89
415.759	24.51
416.121	24.77
416.483	24.73
416.845	24.53
417.206	24.54
417.568	24.84
417.93	24.51
418.292	24.83
418.653	24.77
419.015	24.79
419.377	25.02
419.738	25.1
420.1	24.97
420.461	25.04
420.822	25.23
421.184	25.01
421.545	24.97
421.906	25.07
422.267	25.23
422.629	25.12
422.99	25.2
423.351	25.14
423.712	25.26
424.073	25.27
424.434	25.54
424.795	25.59
425.155	25.72
425.516	25.54
425.877	25.8
426.238	25.83
426.598	25.89
426.959	26.12
427.32	26
427.68	26.15
428.041	26.29
428.401	26.59
428.761	26.7
429.122	26.86
429.482	26.85
429.842	27.15
430.202	27.14
430.563	27.23
430.923	27.22
431.283	27.57
431.643	27.41
432.003	27.33
432.363	27.41
432.722	27.66
433.082	27.6
433.442	27.97
433.802	27.75
434.161	27.95
434.521	27.87
434.881	28.08
435.24	27.8
435.6	27.97
435.959	28.19
436.319	28.27
436.678	28.25
437.037	28.4
437.396	28.44
437.756	28.56
438.115	28.45
438.474	28.63
438.833	28.78
439.192	28.79
439.551	28.96
439.91	28.82
440.269	28.94
440.628	28.82
440.987	29.07
441.345	28.9
441.704	29.15
442.063	29.1
442.421	29.22
442.78	29.06
443.138	29.08
443.497	29.13
443.855	29.25
444.214	29.48
444.572	29.62
444.93	29.68
445.288	29.9
445.647	29.93
446.005	29.84
446.363	30.08
446.721	29.86
447.079	29.75
447.437	30.01
447.795	29.8
448.153	29.82
448.51	29.75
448.868	29.68
449.226	30.05
449.584	30.01
449.941	30.21
450.299	30.27
450.656	30.45
451.014	30.79
451.371	30.53
451.729	30.64
452.086	30.99
452.443	31.01
452.801	31.32
453.158	31.26
453.515	31.21
453.872	31.53
454.229	31.42
454.586	31.48
454.943	31.34
455.3	31.56
455.657	31.45
456.014	31.54
456.371	31.91
456.727	32.02
457.084	31.84
457.441	31.88
457.797	31.97
458.154	32.26
458.51	32.49
458.867	32.38
459.223	32.24
459.58	32.37
459.936	32.44
460.292	32.53
460.648	32.33
461.005	32.06
461.361	32.08
461.717	32.19
462.073	32.15
462.429	32.13
462.785	32.27
463.141	32.38
463.496	32.56
463.852	32.9
464.208	32.79
464.564	33.2
464.919	33.13
465.275	33.43
465.631	33.5
465.986	33.52
466.342	33.53
466.697	33.32
467.052	33.59
467.408	33.63
467.763	33.54
468.118	33.75
468.473	33.66
468.829	33.83
469.184	33.75
469.539	33.87
469.894	33.41
470.249	34.14
470.603	34.47
470.958	34.2
471.313	34.37
471.668	34.37
472.023	34.23
472.377	34.35
472.732	34.25
473.086	34.47
473.441	34.11
473.795	34.57
474.15	34.62
474.504	34.84
474.859	34.71
475.213	34.7
475.567	34.68
475.921	34.82
476.275	34.98
476.63	35.21
476.984	35.37
477.338	35.5
477.692	35.25
478.045	35.24
478.399	35.3
478.753	35.42
479.107	35.21
479.461	35.25
479.814	35.42
480.168	35.63
480.521	35.58
480.875	35.4
481.228	35.54
481.582	35.38
481.935	35.71
482.289	35.75
482.642	35.75
482.995	36.03
483.348	35.96
483.701	35.91
484.055	35.61
484.408	35.75
484.761	35.46
485.114	35.42
485.466	34.85
485.819	34.99
486.172	34.76
486.525	34.76
486.878	34.73
487.23	35.04
487.583	35.42
487.936	35.57
488.288	35.56
488.641	35.81
488.993	35.69
489.345	35.45
489.698	35.48
490.05	35.42
490.402	35.53
490.754	35.79
491.107	35.92
491.459	36.17
491.811	36.32
492.163	36.73
492.515	36.68
492.866	36.73
493.218	36.31
493.57	36.23
493.922	36.15
494.274	36.24
494.625	36.4
494.977	36.56
495.328	36.98
495.68	37.29
496.031	37.44
496.383	37.76
496.734	37.66
497.086	37.7
497.437	37.9
497.788	37.91
498.139	37.96
498.49	37.87
498.842	37.82
499.193	37.91
499.544	37.79
499.894	38.05
500.245	38.13
500.596	38.02
500.947	38.22
501.298	37.99
501.648	38.46
501.999	38.35
502.35	38.58
502.7	38.86
503.051	38.74
503.401	38.85
503.752	38.97
504.102	38.91
504.452	39.01
504.803	38.88
505.153	39.04
505.503	39.28
505.853	39.05
506.203	39.09
506.553	38.95
506.903	39.15
507.253	39.07
507.603	39.23
507.953	39.45
508.303	39.46
508.652	39.41
509.002	39.47
509.352	39.4
509.701	39.36
510.051	39.41
510.4	39.46
510.75	39.55
511.099	39.4
511.449	39.55
511.798	39.6
512.147	39.7
512.496	39.43
512.846	39.74
513.195	39.83
513.544	39.79
513.893	39.73
514.242	39.91
514.591	40.07
514.939	40.06
515.288	39.85
515.637	39.95
515.986	40.28
516.334	40.32
516.683	40.36
517.032	40.32
517.38	40.29
517.729	40.58
518.077	40.2
518.426	40.67
518.774	40.47
519.122	40.54
519.47	40.51
519.819	40.57
520.167	40.31
520.515	40.04
520.863	40.22
521.211	40.07
521.559	40.46
521.907	40.42
522.255	40.45
522.602	40.68
522.95	40.63
523.298	40.91
523.645	41.06
523.993	41.02
524.341	41.23
524.688	41.19
525.036	41.14
525.383	41.22
525.73	41.51
526.078	41.13
526.425	41.35
526.772	41.34
527.119	41.24
527.466	41.15
527.814	40.98
528.161	40.78
528.508	40.84
528.854	40.95
529.201	41.07
529.548	41.02
529.895	41.12
530.242	40.72
530.588	40.72
530.935	40.53
531.282	40.43
531.628	40.42
531.975	40.68
532.321	40.81
532.667	41.18
533.014	41.59
533.36	41.46
533.706	41.6
534.052	41.79
534.399	41.61
534.745	41.69
535.091	41.56
535.437	41.56
535.783	41.34
536.129	41.44
536.474	41.6
536.82	41.6
537.166	42
537.512	42.14
537.857	42.44
538.203	42.52
538.549	41.98
538.894	42.15
539.239	42.14
539.585	42.42
539.93	42.3
540.276	42.74
540.621	42.95
540.966	42.99
541.311	43.02
541.656	43.12
542.001	42.97
542.346	43.11
542.691	42.66
543.036	42.56
543.381	42.19
543.726	42.23
544.071	42.19
544.415	42.32
544.76	42.59
545.105	42.42
545.449	42.79
545.794	42.86
546.138	43.06
546.483	43.29
546.827	43.41
547.171	43.45
547.516	43.47
547.86	43.5
548.204	43.31
548.548	43.77
548.892	43.67
549.236	43.6
549.58	43.52
549.924	43.71
550.268	43.98
550.612	44.1
550.956	44.08
551.3	44.35
551.643	44.45
551.987	44.48
552.33	44.49
552.674	44.48
553.017	44.8
553.361	44.58
553.704	44.76
554.048	44.83
554.391	44.38
554.734	44.7
555.077	44.73
555.42	44.63
555.764	44.9
556.107	44.75
556.45	44.71
556.793	44.9
557.135	45.02
557.478	45.42
557.821	45.19
558.164	45.06
558.507	45.26
558.849	45.66
559.192	45.36
559.534	45.59
559.877	45.63
560.219	45.29
560.562	45.88
560.904	45.83
561.246	45.99
561.589	45.71
561.931	45.97
562.273	45.92
562.615	46.17
562.957	46.04
563.299	45.9
563.641	45.74
563.983	46.13
564.325	45.96
564.667	46.03
565.008	46.23
565.35	46.08
565.692	46.21
566.033	46.34
566.375	46.49
566.716	46.34
567.058	46.13
567.399	46.06
567.741	46.14
568.082	46.3
568.423	46.14
568.764	46.2
569.105	46.46
569.447	46.05
569.788	46.37
570.129	46.36
570.47	46.53
570.811	46.61
571.151	46.63
571.492	46.63
571.833	46.68
572.174	46.81
572.514	46.79
572.855	46.76
573.195	46.66
573.536	46.86
573.876	46.77
574.217	46.83
574.557	46.57
574.898	46.7
575.238	46.69
575.578	46.85
575.918	46.85
576.258	47.19
576.598	47.41
576.938	46.99
577.278	47.29
577.618	46.99
577.958	47.09
578.298	47.18
578.638	47.44
578.977	47.63
579.317	47.45
579.657	47.48
579.996	47.96
580.336	48.06
580.675	47.52
581.014	47.41
581.354	47.56
581.693	47.87
582.032	48.07
582.372	47.78
582.711	47.99
583.05	48
583.389	48.33
583.728	48.09
584.067	48.3
584.406	48.4
584.745	48.3
585.083	48.24
585.422	48.76
585.761	48.78
586.1	48.6
586.438	48.74
586.777	48.88
587.115	48.82
587.454	48.67
587.792	48.64
588.13	48.66
588.469	48.94
588.807	48.83
589.145	48.66
589.483	48.72
589.821	48.84
590.159	48.96
590.497	49.35
590.835	49.2
591.173	48.99
591.511	49.04
591.849	48.81
592.187	49.41
592.524	49.39
592.862	49.05
593.2	49.15
593.537	49.34
593.875	49.29
594.212	49.66
594.55	49.41
594.887	49.44
595.224	49.68
595.561	49.52
595.899	49.55
596.236	49.64
596.573	49.43
596.91	49.39
597.247	49.67
597.584	49.86
597.921	49.99
598.258	49.54
598.594	49.76
598.931	49.74
599.268	49.81
599.604	49.45
599.941	49.59
600.277	49.39
600.614	49.61
600.95	49.81
601.287	50.44
601.623	50.56
601.959	49.82
602.296	50.1
602.632	50.33
602.968	50.32
603.304	50.3
603.64	50.81
603.976	50.51
604.312	50.32
604.648	50.32
604.984	50.8
605.319	50.63
605.655	50.52
605.991	50.38
606.326	50.42
606.662	50.11
606.998	50.12
607.333	50.24
607.668	50.16
608.004	50.69
608.339	50.37
608.674	50.6
609.01	50.87
609.345	50.57
609.68	51.26
610.015	51.31
610.35	51.13
610.685	50.78
611.02	51.36
611.355	51.44
611.689	51.11
612.024	50.9
612.359	51.18
612.694	50.94
613.028	50.93
613.363	51.08
613.697	51.05
614.032	51.04
614.366	51.18
614.7	51.75
615.035	51.62
615.369	51.53
615.703	51.97
616.037	51.77
616.371	51.48
616.705	51.89
617.039	52.07
617.373	52.03
617.707	51.61
618.041	51.53
618.375	51.95
618.709	52.06
619.042	52.27
619.376	52.09
619.71	52
620.043	51.53
620.377	51.81
620.71	52.01
621.043	51.92
621.377	52.34
621.71	52.64
622.043	52.08
622.376	52.24
622.709	51.91
623.043	52.15
623.376	52.8
623.709	52.25
624.041	52.63
624.374	52.88
624.707	52.42
625.04	52.58
625.373	52.06
625.705	52.7
626.038	52.94
626.37	52.64
626.703	53.27
627.035	52.84
627.368	53.07
627.7	52.63
628.032	53.08
628.365	52.86
628.697	52.67
629.029	52.84
629.361	53.11
629.693	53.1
630.025	52.76
630.357	52.89
630.689	53.11
631.021	52.73
631.353	53.25
631.684	53.4
632.016	53.73
632.348	53.08
632.679	53.44
633.011	53.4
633.342	53.16
633.674	53.73
634.005	53.7
634.336	53.06
634.668	53.4
634.999	53.74
635.33	53.97
635.661	53.36
635.992	53.41
636.323	54.33
636.654	53.82
636.985	53.73
637.316	53.35
637.647	53.21
637.977	53.84
638.308	54.12
638.639	53.78
638.969	53.59
639.3	54.23
639.63	53.85
639.961	54.07
640.291	54.04
640.622	54.31
640.952	53.95
641.282	54.96
641.612	54.14
641.943	54.02
642.273	54.39
642.603	54.7
642.933	54.6
643.263	54.44
643.592	54.79
643.922	54.37
644.252	54.48
644.582	54.64
644.911	53.97
645.241	54.64
645.571	54.74
645.9	53.73
646.23	54.65
646.559	54.48
646.888	54.33
647.218	54.44
647.547	54.55
647.876	54.34
648.205	54.61
648.534	54.51
648.863	54.71
649.192	55.5
649.521	54.47
649.85	55.38
650.179	54.43
650.508	54.72
650.837	55.4
651.165	54.42
651.494	54.75
651.822	55.63
652.151	55.89
652.479	55.61
652.808	55.57
653.136	55.69
653.465	55.09
653.793	55.11
654.121	55.52
654.449	55.43
654.777	56.06
655.105	55.47
655.433	55.57
655.761	55.99
656.089	55.71
656.417	56.18
656.745	55.92
657.073	55.38
657.4	56.2
657.728	56.14
658.056	56.24
658.383	56.47
658.711	56.25
659.038	56.12
659.365	55.88
659.693	56.2
660.02	55.82
660.347	56.77
660.674	56.33
661.001	56.46
661.329	56.27
661.656	56.08
661.982	56.64
662.309	56.46
662.636	56.37
662.963	56.15
663.29	56.83
663.616	57.09
663.943	56.6
664.27	56.01
664.596	55.92
664.923	56.68
665.249	56.46
665.576	56.48
665.902	56.59
666.228	57.44
666.554	56.89
666.881	56.37
667.207	57.1
667.533	56.57
667.859	57.35
668.185	57.8
668.511	57.08
668.837	56.3
669.162	56.63
