Data from 0054_chest_Reflection__2__02.txt Node

Date: Fri Dec 16 13:50:25 CST 2022
User: ToomeyLab
Spectrometer: FLMS14357
Trigger mode: 0
Integration Time (sec): 1.000000E-2
Scans to average: 100
Electric dark correction enabled: true
Nonlinearity correction enabled: false
Boxcar width: 0
XAxis mode: Wavelengths
Number of Pixels in Spectrum: 2048
>>>>>Begin Spectral Data<<<<<
189.047	89.04
189.435	89.04
189.823	89.04
190.211	211.93
190.599	-14.61
190.987	-138.94
191.375	-42.6
191.763	127.27
192.151	-117.15
192.538	40.98
192.926	235.98
193.314	80.05
193.702	52.23
194.089	129.43
194.477	-67.48
194.864	-277.11
195.252	28.46
195.639	158.53
196.027	-5.73
196.414	1165.65
196.801	166.65
197.189	3.72
197.576	59.81
197.963	127.27
198.351	-13
198.738	47.55
199.125	38.71
199.512	-4
199.899	5.64
200.286	10.6
200.673	35.92
201.06	15.24
201.447	49.16
201.833	3.34
202.22	19.27
202.607	34.57
202.994	19.72
203.38	-43.23
203.767	-8.5
204.154	-0.28
204.54	30.28
204.927	16.66
205.313	17.76
205.699	17.9
206.086	10.14
206.472	12.2
206.858	24.36
207.245	18.38
207.631	-12.33
208.017	15.94
208.403	1.5
208.789	18.97
209.175	32.69
209.561	4.15
209.947	3.59
210.333	-14.07
210.719	-4.46
211.105	-4.09
211.491	38.52
211.876	-4.03
212.262	-7.55
212.648	-21.28
213.034	14.02
213.419	25.59
213.805	2.14
214.19	1.06
214.576	1
214.961	35.41
215.346	-14.35
215.732	-7.54
216.117	16.88
216.502	5.43
216.888	11.01
217.273	8.08
217.658	-23.83
218.043	-6.55
218.428	25.46
218.813	-5.06
219.198	-23.85
219.583	9.55
219.968	3
220.353	14.58
220.738	-1.79
221.122	26.07
221.507	-0.2
221.892	-5.26
222.276	11.76
222.661	4.06
223.046	10.83
223.43	3.68
223.815	17.45
224.199	5.34
224.583	9.91
224.968	6.66
225.352	2.86
225.736	6.04
226.121	-1.72
226.505	8.63
226.889	6.87
227.273	7.19
227.657	3.12
228.041	8.46
228.425	2.76
228.809	5.51
229.193	1.82
229.577	2.04
229.961	3.84
230.344	3.63
230.728	3.36
231.112	3.57
231.495	4.24
231.879	2.89
232.263	2.36
232.646	2.65
233.03	2.19
233.413	1.32
233.797	4.46
234.18	3.49
234.563	3.43
234.946	3.07
235.33	3.73
235.713	3.18
236.096	2.98
236.479	4.53
236.862	3.21
237.245	4.33
237.628	4.14
238.011	4.18
238.394	3.91
238.777	3.92
239.16	2.11
239.543	4.12
239.925	5.17
240.308	3.15
240.691	3.64
241.073	2.85
241.456	4.21
241.838	4.35
242.221	2.81
242.603	3.46
242.986	4.27
243.368	3.38
243.75	3.19
244.133	3.47
244.515	3.11
244.897	2.78
245.279	3.14
245.661	3.24
246.043	3.53
246.425	2.55
246.807	4.31
247.189	3.54
247.571	3.53
247.953	3.15
248.335	3.31
248.717	3.27
249.098	3.19
249.48	3.01
249.862	3.33
250.243	3.16
250.625	3.41
251.006	3.05
251.388	3.75
251.769	3.11
252.151	3.24
252.532	3.11
252.913	3.76
253.295	3.32
253.676	3.2
254.057	2.87
254.438	3.54
254.819	3.6
255.2	3.71
255.581	2.68
255.962	4.78
256.343	3.73
256.724	2.91
257.105	3.72
257.486	2.79
257.867	2.09
258.247	3.38
258.628	3.96
259.009	2.96
259.389	3.54
259.77	2.91
260.15	3.57
260.531	3.34
260.911	3.22
261.292	2.95
261.672	3.06
262.052	2.92
262.432	2.78
262.813	2.67
263.193	2.92
263.573	3.16
263.953	2.81
264.333	3.64
264.713	3.2
265.093	3.32
265.473	3.19
265.853	3.28
266.233	3.18
266.612	3.05
266.992	3.15
267.372	3.58
267.752	3.07
268.131	2.99
268.511	2.71
268.89	2.93
269.27	3.35
269.649	3.15
270.029	3.27
270.408	2.74
270.787	2.92
271.167	3.04
271.546	2.73
271.925	3.54
272.304	3.14
272.683	3.03
273.062	3.51
273.441	3.3
273.82	3.4
274.199	3.34
274.578	2.92
274.957	3.26
275.336	3.08
275.715	3.47
276.093	3.58
276.472	3.57
276.851	3.82
277.229	3.98
277.608	2.97
277.986	2.31
278.365	2.86
278.743	3.1
279.122	2.62
279.5	2.79
279.878	2.6
280.257	2.85
280.635	3.37
281.013	3.6
281.391	3.39
281.769	3.19
282.147	3.44
282.525	2.66
282.903	2.97
283.281	3.15
283.659	2.81
284.037	2.99
284.415	3.01
284.792	3.9
285.17	2.86
285.548	2.95
285.925	3.1
286.303	2.96
286.68	3
287.058	3.04
287.435	2.5
287.813	3
288.19	3.19
288.567	2.83
288.945	3.28
289.322	2.69
289.699	3.17
290.076	2.94
290.453	2.62
290.83	3.49
291.207	2.73
291.584	2.91
291.961	3.14
292.338	3.18
292.715	3.21
293.092	3.16
293.469	3.26
293.845	3.41
294.222	3.19
294.599	3.2
294.975	3.54
295.352	3.2
295.728	3.56
296.105	3.36
296.481	3.55
296.858	3.29
297.234	3.09
297.61	3.24
297.986	3.26
298.363	2.88
298.739	3.3
299.115	2.86
299.491	2.84
299.867	3.38
300.243	2.92
300.619	3.28
300.995	3.35
301.371	3.54
301.746	2.93
302.122	3.47
302.498	3.28
302.874	3.19
303.249	3.71
303.625	3.48
304	3.18
304.376	3.27
304.751	3.38
305.127	3.23
305.502	3.2
305.878	3.16
306.253	2.93
306.628	3.84
307.003	3.49
307.378	2.94
307.754	3.57
308.129	3
308.504	3.25
308.879	3.63
309.254	3.58
309.629	3.23
310.003	3.81
310.378	3.76
310.753	3.23
311.128	3.12
311.502	3.05
311.877	3.48
312.252	3.47
312.626	3.2
313.001	3.37
313.375	3.21
313.75	3.26
314.124	3.85
314.498	3.53
314.873	3.51
315.247	3.17
315.621	4.03
315.995	3.31
316.369	3.74
316.743	3.96
317.117	3.77
317.491	3.96
317.865	3.12
318.239	3.92
318.613	3.35
318.987	3.4
319.361	2.77
319.734	3.51
320.108	3.64
320.482	3.79
320.855	3.5
321.229	4.3
321.602	3.35
321.976	3.44
322.349	3.09
322.723	2.8
323.096	3.37
323.469	3.08
323.843	3.51
324.216	2.98
324.589	3.68
324.962	3.47
325.335	3.43
325.708	3.96
326.081	4.02
326.454	3.4
326.827	3.87
327.2	4.11
327.573	3.49
327.945	3.53
328.318	4.02
328.691	3.71
329.063	3.87
329.436	3.56
329.809	3.13
330.181	3.56
330.553	3.96
330.926	3.85
331.298	2.98
331.671	3.81
332.043	3.84
332.415	4.07
332.787	4.23
333.159	3.48
333.532	3.42
333.904	3.76
334.276	3.72
334.648	3.86
335.02	3.66
335.391	3.9
335.763	3.86
336.135	4.16
336.507	3.64
336.879	3.74
337.25	3.69
337.622	3.59
337.993	3.8
338.365	3.91
338.736	3.97
339.108	3.34
339.479	3.46
339.851	4.07
340.222	3.97
340.593	3.86
340.964	3.83
341.336	3.39
341.707	3.7
342.078	3.68
342.449	4.06
342.82	3.6
343.191	3.64
343.562	3.67
343.933	4.03
344.303	4.11
344.674	3.46
345.045	3.92
345.416	3.85
345.786	3.41
346.157	3.81
346.527	3.65
346.898	3.6
347.268	3.62
347.639	3.91
348.009	3.81
348.38	3.69
348.75	3.84
349.12	3.99
349.49	3.72
349.861	4.1
350.231	4.13
350.601	3.43
350.971	3.81
351.341	4.04
351.711	3.94
352.081	3.9
352.45	3.94
352.82	4.23
353.19	3.98
353.56	3.92
353.929	4.06
354.299	3.5
354.669	3.74
355.038	3.56
355.408	4.33
355.777	3.92
356.147	4.09
356.516	4.28
356.885	3.97
357.254	3.94
357.624	4.03
357.993	3.64
358.362	3.91
358.731	3.7
359.1	3.74
359.469	3.78
359.838	3.66
360.207	3.64
360.576	4.1
360.945	3.74
361.314	4.17
361.682	3.65
362.051	3.82
362.42	3.99
362.788	4.1
363.157	3.7
363.525	3.81
363.894	3.61
364.262	3.77
364.631	4.4
364.999	3.99
365.367	4.24
365.735	3.67
366.104	3.55
366.472	3.88
366.84	4.29
367.208	3.67
367.576	4.27
367.944	4.28
368.312	3.75
368.68	4.14
369.048	4.32
369.416	3.88
369.783	4.09
370.151	4.2
370.519	3.83
370.886	3.98
371.254	4.18
371.621	3.93
371.989	4.22
372.356	3.83
372.724	4.01
373.091	4.08
373.458	4.02
373.826	4
374.193	4.55
374.56	3.98
374.927	4.02
375.294	4.46
375.661	4.45
376.028	3.95
376.395	3.92
376.762	4.41
377.129	4.25
377.496	4.21
377.863	4.16
378.229	4.07
378.596	4.31
378.963	4.11
379.329	4.16
379.696	4.02
380.062	4.31
380.429	4.31
380.795	4.26
381.161	4.28
381.528	4
381.894	4.15
382.26	3.97
382.626	3.95
382.993	3.86
383.359	3.93
383.725	4.52
384.091	4.18
384.457	4.25
384.823	4.22
385.188	4.35
385.554	4.08
385.92	4.43
386.286	4.29
386.651	4.2
387.017	4.21
387.383	4.24
387.748	4.07
388.114	4.29
388.479	4.25
388.845	4.32
389.21	4.12
389.575	4.47
389.94	4.38
390.306	4.32
390.671	4.44
391.036	4.53
391.401	4.58
391.766	4.26
392.131	4.33
392.496	4.29
392.861	4.25
393.226	4.24
393.591	4.31
393.956	4.31
394.32	4.39
394.685	4.46
395.05	4.06
395.414	4.36
395.779	4.2
396.143	4.37
396.508	4.56
396.872	4.62
397.236	4.11
397.601	4.67
397.965	4.04
398.329	4.22
398.694	4.24
399.058	4.16
399.422	4.54
399.786	4.62
400.15	4.26
400.514	4.35
400.878	4.43
401.242	4.63
401.605	4.33
401.969	4.49
402.333	4.3
402.697	4.38
403.06	4.59
403.424	4.18
403.787	4.56
404.151	4.35
404.514	4.6
404.878	4.44
405.241	4.68
405.604	4.49
405.968	4.54
406.331	4.45
406.694	4.52
407.057	4.53
407.42	4.41
407.783	4.53
408.146	4.48
408.509	4.33
408.872	4.44
409.235	4.52
409.598	4.51
409.961	4.59
410.323	4.59
410.686	4.32
411.049	4.47
411.411	4.65
411.774	4.49
412.136	4.69
412.499	4.42
412.861	4.44
413.223	4.52
413.586	4.42
413.948	4.69
414.31	4.81
414.672	4.6
415.035	4.5
415.397	4.69
415.759	4.53
416.121	4.79
416.483	4.72
416.845	4.65
417.206	4.57
417.568	4.65
417.93	4.59
418.292	4.69
418.653	4.54
419.015	4.66
419.377	4.75
419.738	4.57
420.1	4.47
420.461	4.5
420.822	4.7
421.184	4.65
421.545	4.67
421.906	4.63
422.267	4.39
422.629	4.47
422.99	4.58
423.351	4.53
423.712	4.54
424.073	4.63
424.434	4.55
424.795	4.55
425.155	4.65
425.516	4.52
425.877	4.63
426.238	4.42
426.598	4.66
426.959	4.53
427.32	4.77
427.68	4.71
428.041	4.69
428.401	4.8
428.761	4.6
429.122	4.71
429.482	4.79
429.842	4.88
430.202	4.84
430.563	4.76
430.923	4.69
431.283	4.89
431.643	4.87
432.003	4.87
432.363	4.88
432.722	4.77
433.082	4.83
433.442	4.77
433.802	4.79
434.161	4.7
434.521	4.77
434.881	4.79
435.24	4.69
435.6	4.78
435.959	4.89
436.319	4.77
436.678	4.83
437.037	4.93
437.396	4.88
437.756	4.79
438.115	4.84
438.474	4.89
438.833	4.9
439.192	5.05
439.551	4.89
439.91	4.85
440.269	4.91
440.628	4.82
440.987	4.78
441.345	4.8
441.704	4.9
442.063	4.9
442.421	4.76
442.78	4.83
443.138	4.96
443.497	4.84
443.855	4.93
444.214	4.87
444.572	4.72
444.93	5.03
445.288	4.89
445.647	5
446.005	4.9
446.363	4.93
446.721	4.77
447.079	4.92
447.437	4.92
447.795	4.81
448.153	4.89
448.51	4.89
448.868	4.97
449.226	4.95
449.584	5.03
449.941	4.93
450.299	5.06
450.656	5.1
451.014	5.02
451.371	5.05
451.729	5.08
452.086	4.91
452.443	5.09
452.801	5.22
453.158	5.04
453.515	4.9
453.872	5.08
454.229	5
454.586	5.02
454.943	5.06
455.3	5.17
455.657	4.99
456.014	5.07
456.371	5.11
456.727	5.1
457.084	5.07
457.441	5.02
457.797	5.28
458.154	5.2
458.51	5.32
458.867	5
459.223	5.22
459.58	5.14
459.936	5.15
460.292	5.22
460.648	5.12
461.005	4.94
461.361	5.06
461.717	5.11
462.073	5.02
462.429	5.25
462.785	5.25
463.141	5.33
463.496	5.2
463.852	5.41
464.208	5.32
464.564	5.15
464.919	5.23
465.275	5.35
465.631	5.31
465.986	5.28
466.342	5.36
466.697	5.18
467.052	5.22
467.408	5.36
467.763	5.18
468.118	5.3
468.473	5.46
468.829	5.32
469.184	5.56
469.539	5.25
469.894	5.3
470.249	5.39
470.603	5.4
470.958	5.56
471.313	5.37
471.668	5.45
472.023	5.48
472.377	5.4
472.732	5.34
473.086	5.2
473.441	5.4
473.795	5.43
474.15	5.33
474.504	5.46
474.859	5.58
475.213	5.53
475.567	5.35
475.921	5.62
476.275	5.57
476.63	5.48
476.984	5.45
477.338	5.62
477.692	5.68
478.045	5.45
478.399	5.43
478.753	5.39
479.107	5.47
479.461	5.51
479.814	5.53
480.168	5.5
480.521	5.47
480.875	5.69
481.228	5.55
481.582	5.44
481.935	5.5
482.289	5.46
482.642	5.55
482.995	5.58
483.348	5.44
483.701	5.52
484.055	5.4
484.408	5.44
484.761	5.27
485.114	5.25
485.466	5.21
485.819	5.22
486.172	5.33
486.525	5.4
486.878	5.46
487.23	5.49
487.583	5.51
487.936	5.52
488.288	5.43
488.641	5.44
488.993	5.36
489.345	5.38
489.698	5.48
490.05	5.48
490.402	5.58
490.754	5.64
491.107	5.56
491.459	5.65
491.811	5.69
492.163	5.71
492.515	5.57
492.866	5.43
493.218	5.52
493.57	5.6
493.922	5.62
494.274	5.68
494.625	5.71
494.977	5.76
495.328	5.84
495.68	6.02
496.031	5.79
496.383	5.94
496.734	5.96
497.086	5.83
497.437	5.83
497.788	5.81
498.139	5.86
498.49	5.87
498.842	5.83
499.193	5.89
499.544	5.98
499.894	5.93
500.245	5.93
500.596	6.06
500.947	5.93
501.298	6.1
501.648	5.97
501.999	6.09
502.35	6.14
502.7	6.14
503.051	6.19
503.401	6.11
503.752	6.09
504.102	5.98
504.452	6
504.803	6
505.153	6.14
505.503	6
505.853	6.01
506.203	6.02
506.553	6.08
506.903	6.02
507.253	6.17
507.603	6.17
507.953	6.25
508.303	6.21
508.652	6.11
509.002	6.2
509.352	6.27
509.701	6.12
510.051	6.27
510.4	6.22
510.75	6.14
511.099	6.18
511.449	6.33
511.798	6.31
512.147	6.28
512.496	6.27
512.846	6.19
513.195	6.19
513.544	6.25
513.893	6.21
514.242	6.35
514.591	6.37
514.939	6.23
515.288	6.34
515.637	6.51
515.986	6.36
516.334	6.4
516.683	6.49
517.032	6.32
517.38	6.36
517.729	6.47
518.077	6.56
518.426	6.36
518.774	6.46
519.122	6.44
519.47	6.48
519.819	6.44
520.167	6.44
520.515	6.36
520.863	6.33
521.211	6.5
521.559	6.55
521.907	6.45
522.255	6.6
522.602	6.74
522.95	6.66
523.298	6.62
523.645	6.63
523.993	6.75
524.341	6.62
524.688	6.72
525.036	6.79
525.383	6.72
525.73	6.77
526.078	6.69
526.425	6.68
526.772	6.59
527.119	6.54
527.466	6.62
527.814	6.69
528.161	6.73
528.508	6.78
528.854	6.66
529.201	6.65
529.548	6.58
529.895	6.49
530.242	6.45
530.588	6.55
530.935	6.59
531.282	6.67
531.628	6.76
531.975	6.8
532.321	6.83
532.667	6.78
533.014	6.88
533.36	6.89
533.706	6.95
534.052	6.92
534.399	6.76
534.745	6.76
535.091	6.81
535.437	6.9
535.783	6.97
536.129	7.01
536.474	7.1
536.82	7.09
537.166	7.17
537.512	7.13
537.857	7.03
538.203	6.99
538.549	7.07
538.894	7.09
539.239	7.16
539.585	7.25
539.93	7.26
540.276	7.22
540.621	7.25
540.966	7.29
541.311	7.42
541.656	7.21
542.001	7.32
542.346	7.18
542.691	7.06
543.036	7.03
543.381	7.13
543.726	7.25
544.071	7.31
544.415	7.27
544.76	7.22
545.105	7.36
545.449	7.4
545.794	7.43
546.138	7.65
546.483	7.62
546.827	7.57
547.171	7.48
547.516	7.61
547.86	7.58
548.204	7.53
548.548	7.56
548.892	7.59
549.236	7.68
549.58	7.78
549.924	7.67
550.268	7.82
550.612	7.84
550.956	7.88
551.3	7.87
551.643	7.89
551.987	7.8
552.33	7.87
552.674	8.03
553.017	7.87
553.361	8.08
553.704	7.85
554.048	7.89
554.391	8
554.734	8.08
555.077	8.12
555.42	8.12
555.764	8.07
556.107	8.19
556.45	8.23
556.793	8.33
557.135	8.29
557.478	8.3
557.821	8.08
558.164	8.02
558.507	8.12
558.849	8.31
559.192	8.43
559.534	8.37
559.877	8.4
560.219	8.54
560.562	8.48
560.904	8.41
561.246	8.42
561.589	8.43
561.931	8.59
562.273	8.37
562.615	8.58
562.957	8.48
563.299	8.52
563.641	8.67
563.983	8.52
564.325	8.42
564.667	8.78
565.008	8.59
565.35	8.88
565.692	8.86
566.033	8.83
566.375	8.61
566.716	8.88
567.058	8.78
567.399	8.82
567.741	8.75
568.082	8.81
568.423	8.74
568.764	8.91
569.105	8.9
569.447	8.87
569.788	8.96
570.129	8.86
570.47	9.07
570.811	9.07
571.151	9.01
571.492	9.25
571.833	9.08
572.174	9.13
572.514	9.06
572.855	9.14
573.195	9.14
573.536	9.12
573.876	9.18
574.217	9.2
574.557	9.21
574.898	9.17
575.238	9.22
575.578	9.5
575.918	9.35
576.258	9.31
576.598	9.33
576.938	9.5
577.278	9.38
577.618	9.44
577.958	9.48
578.298	9.59
578.638	9.39
578.977	9.55
579.317	9.65
579.657	9.62
579.996	9.72
580.336	9.67
580.675	9.95
581.014	9.71
581.354	9.86
581.693	9.79
582.032	9.92
582.372	9.99
582.711	9.96
583.05	10.04
583.389	10.12
583.728	10.04
584.067	9.79
584.406	10.06
584.745	9.82
585.083	10.2
585.422	10.11
585.761	10.34
586.1	10.24
586.438	10.3
586.777	9.94
587.115	10.27
587.454	10.36
587.792	10.13
588.13	10.64
588.469	10.59
588.807	10.47
589.145	10.54
589.483	10.25
589.821	10.5
590.159	10.4
590.497	10.19
590.835	10.55
591.173	10.69
591.511	10.6
591.849	10.68
592.187	10.69
592.524	10.75
592.862	10.65
593.2	10.56
593.537	10.59
593.875	10.77
594.212	10.68
594.55	10.82
594.887	10.79
595.224	10.76
595.561	10.73
595.899	10.94
596.236	10.91
596.573	10.68
596.91	10.97
597.247	10.76
597.584	11.12
597.921	10.98
598.258	11.04
598.594	10.84
598.931	11.01
599.268	10.95
599.604	11.28
599.941	11.16
600.277	11.21
600.614	11.3
600.95	11.37
601.287	11.32
601.623	11.49
601.959	11.23
602.296	11.45
602.632	11.62
602.968	11.48
603.304	11.56
603.64	11.41
603.976	11.62
604.312	11.67
604.648	11.64
604.984	11.51
605.319	11.76
605.655	11.59
605.991	11.55
606.326	11.6
606.662	11.42
606.998	11.63
607.333	11.75
607.668	11.8
608.004	11.83
608.339	11.75
608.674	11.81
609.01	11.9
609.345	12.42
609.68	11.74
610.015	12.26
610.35	12.07
610.685	12.01
611.02	12.15
611.355	12.21
611.689	11.99
612.024	12.33
612.359	12.38
612.694	12.45
613.028	12.63
613.363	12.12
613.697	12.35
614.032	12.5
614.366	12.43
614.7	12.77
615.035	12.3
615.369	12.64
615.703	12.71
616.037	12.48
616.371	12.34
616.705	12.8
617.039	12.71
617.373	12.68
617.707	12.76
618.041	13.01
618.375	12.69
618.709	12.75
619.042	13.2
619.376	12.8
619.71	13.12
620.043	12.79
620.377	13.11
620.71	13.01
621.043	12.92
621.377	12.91
621.71	13.37
622.043	13.34
622.376	13.14
622.709	13.45
623.043	13.31
623.376	13.41
623.709	13.45
624.041	13.04
624.374	13.45
624.707	13.5
625.04	13.45
625.373	13.39
625.705	13.55
626.038	13.63
626.37	13.58
626.703	13.66
627.035	13.3
627.368	13.52
627.7	13.58
628.032	13.65
628.365	13.44
628.697	13.4
629.029	13.85
629.361	13.59
629.693	13.74
630.025	13.74
630.357	13.45
630.689	13.92
631.021	14
631.353	14.01
631.684	14.05
632.016	13.89
632.348	14.02
632.679	14.07
633.011	14.01
633.342	14.03
633.674	13.86
634.005	14.03
634.336	14.32
634.668	13.88
634.999	14.14
635.33	14.08
635.661	14.18
635.992	13.87
636.323	14.62
636.654	14.21
636.985	14.16
637.316	14.54
637.647	14.42
637.977	14.31
638.308	14.46
638.639	14.43
638.969	14.45
639.3	14.66
639.63	14.44
639.961	14.71
640.291	15.09
640.622	14.9
640.952	14.85
641.282	14.33
641.612	14.64
641.943	15.25
642.273	14.64
642.603	14.98
642.933	14.72
643.263	15.51
643.592	14.84
643.922	15.49
644.252	15.12
644.582	15.07
644.911	15.17
645.241	14.68
645.571	14.99
645.9	15.43
646.23	15.12
646.559	15.28
646.888	15.08
647.218	15.5
647.547	15.58
647.876	15.6
648.205	15.39
648.534	15.6
648.863	15.72
649.192	15.46
649.521	15.58
649.85	15.91
650.179	15.52
650.508	15.24
650.837	15.65
651.165	15.85
651.494	16.04
651.822	15.4
652.151	16.16
652.479	16.41
652.808	15.47
653.136	15.86
653.465	16.12
653.793	15.92
654.121	16.1
654.449	15.76
654.777	16.04
655.105	16.44
655.433	16.3
655.761	15.47
656.089	16.02
656.417	16.39
656.745	16.6
657.073	16.63
657.4	15.92
657.728	16.33
658.056	16.22
658.383	16.57
658.711	16.3
659.038	16.7
659.365	16.52
659.693	16.92
660.02	16.46
660.347	16.58
660.674	16.19
661.001	16.18
661.329	16.62
661.656	16.88
661.982	16.88
662.309	16.84
662.636	16.84
662.963	16.85
663.29	16.89
663.616	17.06
663.943	17.26
664.27	16.59
664.596	16.79
664.923	17.36
665.249	17.03
665.576	16.98
665.902	16.99
666.228	16.66
666.554	17.01
666.881	17.77
667.207	16.91
667.533	17.34
667.859	17.18
668.185	17.7
668.511	17.1
668.837	16.92
669.162	17.02
669.488	17.51
669.814	17.72
670.139	17.71
670.465	17.51
670.791	17.5
671.116	17.29
671.442	17.41
671.767	17.8
672.092	18.32
672.418	17.49
672.743	18.31
673.068	17.69
673.393	17.82
673.718	17.76
674.043	17.49
674.368	19.05
674.693	18.43
675.018	17.87
675.343	18.03
675.667	17.78
675.992	18.11
676.317	18.4
676.641	18.32
676.966	18.2
677.29	17.88
677.615	18.04
677.939	18.07
678.264	18.16
678.588	18.81
678.912	19.05
679.236	18.53
679.56	18.35
679.885	18.8
680.209	17.84
680.532	18.02
680.856	18.61
681.18	18.65
681.504	18.44
681.828	18.47
682.152	18.5
682.475	18.51
682.799	19.19
683.122	17.66
683.446	19.08
683.769	18.68
684.093	18.66
684.416	18.9
684.739	19.29
685.062	19.36
685.386	18.69
685.709	18.99
686.032	18.41
