Data from 0054_forehead_Reflection__2__12.txt Node

Date: Fri Dec 16 13:53:14 CST 2022
User: ToomeyLab
Spectrometer: FLMS14357
Trigger mode: 0
Integration Time (sec): 1.000000E-2
Scans to average: 100
Electric dark correction enabled: true
Nonlinearity correction enabled: false
Boxcar width: 0
XAxis mode: Wavelengths
Number of Pixels in Spectrum: 2048
>>>>>Begin Spectral Data<<<<<
189.047	292.34
189.435	292.34
189.823	292.34
190.211	-72.58
190.599	89.7
190.987	-121.53
191.375	69
191.763	129.96
192.151	110.01
192.538	69.47
192.926	159.09
193.314	39.51
193.702	-484.5
194.089	24.27
194.477	-56.07
194.864	-33.6
195.252	42.35
195.639	142.24
196.027	122.62
196.414	393.88
196.801	338.04
197.189	42.73
197.576	-10.59
197.963	-56.54
198.351	18.37
198.738	36.17
199.125	26.89
199.512	25.25
199.899	-17.61
200.286	44.66
200.673	22.98
201.06	53.03
201.447	41.92
201.833	37.83
202.22	35.84
202.607	4.51
202.994	13.74
203.38	4.08
203.767	12.08
204.154	12.43
204.54	31.6
204.927	29.49
205.313	18.36
205.699	62.35
206.086	18.98
206.472	60.07
206.858	61.08
207.245	24.3
207.631	18.17
208.017	34.25
208.403	36.16
208.789	13.32
209.175	39.62
209.561	13.92
209.947	38.69
210.333	19.92
210.719	37.88
211.105	29.16
211.491	28.54
211.876	5.02
212.262	3.13
212.648	3.15
213.034	6.75
213.419	32.54
213.805	26.05
214.19	37.01
214.576	6.51
214.961	-1.6
215.346	-8.8
215.732	3.78
216.117	12.92
216.502	10
216.888	35.5
217.273	18.57
217.658	0.12
218.043	16.58
218.428	23.8
218.813	19.79
219.198	-0.31
219.583	20.88
219.968	0.57
220.353	27.67
220.738	-5.07
221.122	23.72
221.507	8.8
221.892	-4.53
222.276	-1.18
222.661	9.1
223.046	3.02
223.43	-5.32
223.815	7.38
224.199	9.72
224.583	7.59
224.968	8.8
225.352	1.5
225.736	14.35
226.121	4.27
226.505	8.01
226.889	12.96
227.273	10.98
227.657	3.82
228.041	8.01
228.425	4.78
228.809	4.46
229.193	1.01
229.577	3.84
229.961	3.1
230.344	3.61
230.728	3.89
231.112	2.5
231.495	3.31
231.879	4.99
232.263	3.23
232.646	3.2
233.03	2.79
233.413	2.97
233.797	5.9
234.18	2.73
234.563	3.81
234.946	3.2
235.33	4.25
235.713	4.3
236.096	2.31
236.479	5.38
236.862	5.07
237.245	4.85
237.628	5.56
238.011	4.42
238.394	4.41
238.777	6.35
239.16	2.11
239.543	2.29
239.925	5.1
240.308	3.28
240.691	4.26
241.073	2.92
241.456	3.14
241.838	2.71
242.221	4.11
242.603	3.53
242.986	3.49
243.368	3.28
243.75	3.45
244.133	3.18
244.515	3.06
244.897	2.66
245.279	2.84
245.661	3.42
246.043	4.56
246.425	3.23
246.807	2.89
247.189	3.27
247.571	3.38
247.953	2.96
248.335	3.02
248.717	3.23
249.098	3.42
249.48	3.07
249.862	3.23
250.243	3.53
250.625	3.56
251.006	3.36
251.388	4.88
251.769	4.08
252.151	3.43
252.532	2.94
252.913	3.92
253.295	3.44
253.676	3.51
254.057	3.51
254.438	2.96
254.819	3.32
255.2	3.58
255.581	4.06
255.962	4.35
256.343	4.03
256.724	3.42
257.105	3.92
257.486	3.49
257.867	2.66
258.247	4.2
258.628	4.26
259.009	3.22
259.389	3.67
259.77	3.74
260.15	3.71
260.531	2.99
260.911	3.05
261.292	3.06
261.672	2.91
262.052	3.07
262.432	3.25
262.813	3.06
263.193	2.96
263.573	3.86
263.953	3.14
264.333	2.86
264.713	2.32
265.093	2.74
265.473	4.23
265.853	3.8
266.233	2.77
266.612	3.68
266.992	2.94
267.372	3.79
267.752	3
268.131	3.17
268.511	3.29
268.89	4.03
269.27	3.74
269.649	3.95
270.029	3.47
270.408	3.26
270.787	3.15
271.167	3.58
271.546	2.86
271.925	3.03
272.304	3.02
272.683	2.94
273.062	3.26
273.441	3.45
273.82	3.7
274.199	3.51
274.578	3.1
274.957	3.44
275.336	2.9
275.715	3.42
276.093	3.41
276.472	3.37
276.851	3.39
277.229	3.93
277.608	2.73
277.986	3.42
278.365	3.04
278.743	3.03
279.122	2.94
279.5	3.28
279.878	2.94
280.257	3.44
280.635	2.74
281.013	3.81
281.391	2.98
281.769	3.15
282.147	3.63
282.525	2.89
282.903	3.37
283.281	3.01
283.659	3.11
284.037	3.01
284.415	3.53
284.792	3.24
285.17	2.87
285.548	2.91
285.925	2.92
286.303	3.1
286.68	3.59
287.058	3.21
287.435	3.1
287.813	3.42
288.19	3.53
288.567	3.12
288.945	3.12
289.322	3.09
289.699	3.2
290.076	3.35
290.453	3.07
290.83	3.76
291.207	3.45
291.584	3.38
291.961	3.28
292.338	3.22
292.715	3.25
293.092	3.4
293.469	3.42
293.845	4.19
294.222	3.75
294.599	3.96
294.975	3.8
295.352	3.44
295.728	3.72
296.105	3.38
296.481	4.31
296.858	3.89
297.234	3.7
297.61	3.78
297.986	3.73
298.363	3.1
298.739	3.88
299.115	3.28
299.491	3.61
299.867	3.72
300.243	3.7
300.619	3.74
300.995	3.78
301.371	4.06
301.746	3.61
302.122	3.99
302.498	3.83
302.874	4.19
303.249	4.23
303.625	4.08
304	3.83
304.376	3.86
304.751	4.56
305.127	4.35
305.502	4.43
305.878	4
306.253	4.16
306.628	4.41
307.003	3.97
307.378	4.05
307.754	4.46
308.129	4.31
308.504	4.05
308.879	4.72
309.254	4.58
309.629	4.3
310.003	4.88
310.378	4.63
310.753	4.63
311.128	4.61
311.502	4.35
311.877	4.77
312.252	4.23
312.626	4.32
313.001	4.69
313.375	4.62
313.75	4.29
314.124	5.33
314.498	4.69
314.873	4.28
315.247	4.13
315.621	5.21
315.995	5.03
316.369	4.96
316.743	5.29
317.117	4.97
317.491	4.98
317.865	5.08
318.239	5.39
318.613	5.25
318.987	4.92
319.361	4.91
319.734	5.55
320.108	5.51
320.482	5.01
320.855	5.71
321.229	6.03
321.602	5.87
321.976	5.39
322.349	5.17
322.723	4.94
323.096	5.2
323.469	5.33
323.843	5.72
324.216	5.62
324.589	6.14
324.962	5.6
325.335	5.42
325.708	6.07
326.081	5.95
326.454	5.48
326.827	6.15
327.2	6.24
327.573	6.14
327.945	5.82
328.318	6.05
328.691	5.91
329.063	6.04
329.436	5.79
329.809	5.25
330.181	5.82
330.553	5.88
330.926	6.22
331.298	5.95
331.671	5.99
332.043	5.86
332.415	6.75
332.787	6.58
333.159	6
333.532	6.17
333.904	6.55
334.276	6.36
334.648	6.22
335.02	5.91
335.391	6.41
335.763	6.66
336.135	6.64
336.507	6.26
336.879	6.5
337.25	6.26
337.622	6.29
337.993	7.04
338.365	7.11
338.736	6.86
339.108	6.48
339.479	6.59
339.851	7.13
340.222	7.16
340.593	6.78
340.964	6.74
341.336	6.32
341.707	6.78
342.078	6.79
342.449	7.67
342.82	6.92
343.191	6.46
343.562	6.94
343.933	7.29
344.303	7.23
344.674	7.02
345.045	7.18
345.416	7.24
345.786	7.21
346.157	7.43
346.527	7.17
346.898	7.22
347.268	7.78
347.639	7.47
348.009	7.33
348.38	7.05
348.75	7.44
349.12	6.97
349.49	7.59
349.861	8.06
350.231	7.82
350.601	7.6
350.971	7.84
351.341	7.75
351.711	7.48
352.081	7.69
352.45	7.86
352.82	7.97
353.19	7.59
353.56	7.65
353.929	8.23
354.299	7.81
354.669	8.13
355.038	8.25
355.408	8.34
355.777	8.06
356.147	8.23
356.516	8.26
356.885	7.96
357.254	8.35
357.624	8.15
357.993	8.31
358.362	8.49
358.731	8.31
359.1	8.58
359.469	8.57
359.838	8.51
360.207	8.42
360.576	8.68
360.945	8.43
361.314	8.42
361.682	8.19
362.051	8.47
362.42	8.7
362.788	8.46
363.157	8.29
363.525	8.36
363.894	8.63
364.262	8.54
364.631	9.45
364.999	8.67
365.367	9.22
365.735	8.63
366.104	9.1
366.472	9.13
366.84	8.95
367.208	8.63
367.576	8.98
367.944	9.22
368.312	8.71
368.68	9.04
369.048	8.91
369.416	8.92
369.783	8.99
370.151	9.3
370.519	9.35
370.886	9.31
371.254	9.53
371.621	9.46
371.989	9.39
372.356	9.2
372.724	9.54
373.091	9.4
373.458	9.4
373.826	9.36
374.193	9.81
374.56	9.72
374.927	9.37
375.294	9.93
375.661	9.83
376.028	9.7
376.395	9.49
376.762	10.21
377.129	10.22
377.496	9.88
377.863	9.7
378.229	9.78
378.596	9.92
378.963	9.88
379.329	9.98
379.696	9.95
380.062	10.67
380.429	10.14
380.795	10.22
381.161	10.41
381.528	9.88
381.894	10.34
382.26	10.16
382.626	10.26
382.993	10.28
383.359	10.67
383.725	10.65
384.091	10.39
384.457	10.45
384.823	10.76
385.188	10.66
385.554	10.56
385.92	10.75
386.286	10.79
386.651	10.82
387.017	10.66
387.383	10.7
387.748	10.61
388.114	10.89
388.479	11.13
388.845	10.84
389.21	11.37
389.575	11.13
389.94	11.08
390.306	10.96
390.671	11.2
391.036	11.14
391.401	11.48
391.766	10.86
392.131	11.2
392.496	11.07
392.861	10.93
393.226	11.32
393.591	11.36
393.956	11.34
394.32	11.58
394.685	11.74
395.05	11.26
395.414	11.66
395.779	11.61
396.143	11.62
396.508	11.69
396.872	11.76
397.236	11.41
397.601	11.72
397.965	11.77
398.329	11.73
398.694	11.73
399.058	12.11
399.422	12.02
399.786	12.07
400.15	12.21
400.514	12.24
400.878	11.76
401.242	12.3
401.605	12.25
401.969	12.3
402.333	12.51
402.697	12.4
403.06	12.36
403.424	12.22
403.787	12.43
404.151	12.45
404.514	12.57
404.878	12.56
405.241	12.6
405.604	12.38
405.968	12.5
406.331	12.5
406.694	12.64
407.057	13
407.42	12.65
407.783	12.65
408.146	12.85
408.509	12.61
408.872	12.68
409.235	13.06
409.598	13.09
409.961	13.03
410.323	12.99
410.686	12.99
411.049	12.85
411.411	13.1
411.774	13.07
412.136	13.26
412.499	13.25
412.861	12.95
413.223	13.39
413.586	13.21
413.948	13.39
414.31	13.45
414.672	13.51
415.035	13.62
415.397	13.52
415.759	13.28
416.121	13.5
416.483	13.54
416.845	13.66
417.206	13.53
417.568	13.62
417.93	13.49
418.292	13.51
418.653	13.57
419.015	13.45
419.377	13.59
419.738	13.58
420.1	13.64
420.461	13.53
420.822	13.67
421.184	13.67
421.545	13.68
421.906	13.7
422.267	13.43
422.629	13.76
422.99	13.7
423.351	13.81
423.712	13.93
424.073	14.07
424.434	13.93
424.795	13.91
425.155	13.83
425.516	13.91
425.877	13.99
426.238	14.01
426.598	14.18
426.959	14.19
427.32	14.43
427.68	14.48
428.041	14.41
428.401	14.52
428.761	14.76
429.122	14.67
429.482	14.65
429.842	14.69
430.202	14.9
430.563	14.77
430.923	14.75
431.283	14.85
431.643	14.66
432.003	14.97
432.363	15.1
432.722	14.95
433.082	14.89
433.442	15.13
433.802	14.97
434.161	14.85
434.521	14.83
434.881	15.01
435.24	14.95
435.6	15.04
435.959	15.17
436.319	15.23
436.678	15.46
437.037	15.47
437.396	15.57
437.756	15.33
438.115	15.6
438.474	15.6
438.833	15.78
439.192	15.69
439.551	15.63
439.91	15.51
440.269	15.77
440.628	15.58
440.987	15.45
441.345	15.45
441.704	15.81
442.063	15.57
442.421	15.66
442.78	15.64
443.138	15.85
443.497	15.86
443.855	16
444.214	16.03
444.572	16.08
444.93	16.16
445.288	16.14
445.647	16.12
446.005	15.92
446.363	15.98
446.721	16.05
447.079	16
447.437	16.02
447.795	15.97
448.153	16.06
448.51	16.19
448.868	16.2
449.226	16.22
449.584	16.32
449.941	16.38
450.299	16.59
450.656	16.72
451.014	16.6
451.371	16.85
451.729	16.93
452.086	16.89
452.443	16.82
452.801	16.91
453.158	16.94
453.515	16.77
453.872	16.93
454.229	16.91
454.586	16.93
454.943	17.14
455.3	17.21
455.657	17
456.014	16.98
456.371	17.22
456.727	17.37
457.084	17.25
457.441	17.42
457.797	17.6
458.154	17.41
458.51	17.46
458.867	17.51
459.223	17.29
459.58	17.38
459.936	17.56
460.292	17.38
460.648	17.19
461.005	17.04
461.361	17.13
461.717	17.31
462.073	17.49
462.429	17.6
462.785	17.89
463.141	17.88
463.496	17.87
463.852	18.16
464.208	18.14
464.564	17.94
464.919	18.18
465.275	18.33
465.631	18
465.986	18.08
466.342	18.08
466.697	18.28
467.052	18.34
467.408	18.43
467.763	18.33
468.118	18.51
468.473	18.35
468.829	18.54
469.184	18.58
469.539	18.48
469.894	18.68
470.249	18.63
470.603	18.79
470.958	18.8
471.313	18.95
471.668	18.98
472.023	19.06
472.377	18.81
472.732	18.99
473.086	19.07
473.441	19.02
473.795	19.25
474.15	18.78
474.504	19.02
474.859	19.21
475.213	19.1
475.567	19.08
475.921	19.25
476.275	19.48
476.63	19.38
476.984	19.51
477.338	19.58
477.692	19.3
478.045	19.36
478.399	19.38
478.753	19.3
479.107	19.54
479.461	19.52
479.814	19.52
480.168	19.42
480.521	19.56
480.875	19.81
481.228	19.74
481.582	19.73
481.935	19.81
482.289	19.55
482.642	19.65
482.995	19.63
483.348	19.66
483.701	19.37
484.055	19.39
484.408	19.16
484.761	18.84
485.114	18.64
485.466	18.77
485.819	19.1
486.172	19.46
486.525	19.61
486.878	19.68
487.23	19.86
487.583	19.8
487.936	19.7
488.288	19.55
488.641	19.4
488.993	19.31
489.345	19.43
489.698	19.63
490.05	19.85
490.402	20.07
490.754	20.27
491.107	20.4
491.459	20.5
491.811	20.6
492.163	20.48
492.515	20.09
492.866	19.76
493.218	19.82
493.57	20.22
493.922	20.48
494.274	20.77
494.625	20.87
494.977	21.08
495.328	21.17
495.68	21.41
496.031	21.42
496.383	21.14
496.734	21.45
497.086	21.29
497.437	21.48
497.788	21.21
498.139	21.17
498.49	21.37
498.842	21.29
499.193	21.5
499.544	21.52
499.894	21.53
500.245	21.55
500.596	21.87
500.947	21.79
501.298	21.92
501.648	21.94
501.999	22.12
502.35	21.98
502.7	22.05
503.051	22.23
503.401	22.16
503.752	22.06
504.102	22.23
504.452	22.28
504.803	22.18
505.153	22.24
505.503	22.33
505.853	22.38
506.203	22.39
506.553	22.59
506.903	22.45
507.253	22.53
507.603	22.74
507.953	22.7
508.303	22.62
508.652	22.53
509.002	22.79
509.352	22.6
509.701	22.55
510.051	22.66
510.4	22.76
510.75	22.61
511.099	22.67
511.449	22.8
511.798	22.96
512.147	22.94
512.496	23.01
512.846	22.87
513.195	22.98
513.544	22.94
513.893	23.07
514.242	23.2
514.591	23.24
514.939	23.27
515.288	23.48
515.637	23.57
515.986	23.53
516.334	23.64
516.683	23.55
517.032	23.7
517.38	23.79
517.729	23.83
518.077	23.68
518.426	23.61
518.774	23.57
519.122	23.47
519.47	23.44
519.819	23.36
520.167	23.38
520.515	23.52
520.863	23.63
521.211	23.67
521.559	23.85
521.907	24.12
522.255	23.99
522.602	24.35
522.95	24.26
523.298	24.51
523.645	24.5
523.993	24.5
524.341	24.35
524.688	24.5
525.036	24.48
525.383	24.54
525.73	24.46
526.078	24.51
526.425	24.29
526.772	24.12
527.119	24.11
527.466	24.09
527.814	24.38
528.161	24.4
528.508	24.56
528.854	24.41
529.201	24.14
529.548	23.84
529.895	23.53
530.242	23.76
530.588	24.06
530.935	24.28
531.282	24.5
531.628	24.6
531.975	24.67
532.321	24.96
532.667	24.98
533.014	25.25
533.36	24.91
533.706	24.97
534.052	24.79
534.399	24.46
534.745	24.39
535.091	24.61
535.437	24.96
535.783	25.27
536.129	25.4
536.474	25.55
536.82	25.61
537.166	25.7
537.512	25.54
537.857	25.31
538.203	25.4
538.549	25.51
538.894	25.66
539.239	26.01
539.585	25.92
539.93	26.14
540.276	26.33
540.621	26.39
540.966	26.21
541.311	26.14
541.656	26.06
542.001	25.84
542.346	25.44
542.691	25.18
543.036	25.44
543.381	25.72
543.726	25.92
544.071	26.17
544.415	26.2
544.76	26.11
545.105	26.38
545.449	26.47
545.794	26.7
546.138	27.01
546.483	26.87
546.827	26.72
547.171	26.92
547.516	26.87
547.86	26.89
548.204	26.86
548.548	26.87
548.892	26.89
549.236	27.37
549.58	27.31
549.924	27.53
550.268	27.67
550.612	27.7
550.956	27.8
551.3	27.98
551.643	27.93
551.987	28.02
552.33	27.85
552.674	28.04
553.017	27.91
553.361	28.02
553.704	27.78
554.048	27.95
554.391	27.79
554.734	27.77
555.077	28.11
555.42	28.55
555.764	28.34
556.107	28.38
556.45	28.38
556.793	28.63
557.135	28.43
557.478	28.47
557.821	28.44
558.164	29.03
558.507	28.66
558.849	28.88
559.192	28.7
559.534	28.65
559.877	29.09
560.219	29.16
560.562	28.74
560.904	29.01
561.246	29.15
561.589	29.12
561.931	29.24
562.273	29.1
562.615	29.24
562.957	29.04
563.299	29.22
563.641	29.41
563.983	29.46
564.325	29.21
564.667	29.47
565.008	29.58
565.35	29.59
565.692	29.61
566.033	29.57
566.375	29.29
566.716	29.45
567.058	29.47
567.399	29.31
567.741	29.36
568.082	29.49
568.423	29.71
568.764	29.68
569.105	30.05
569.447	29.92
569.788	30.07
570.129	30.09
570.47	30.13
570.811	30.04
571.151	30.28
571.492	30.37
571.833	30.23
572.174	30.28
572.514	30.18
572.855	30.26
573.195	29.99
573.536	29.87
573.876	30.14
574.217	30.22
574.557	30.3
574.898	30.53
575.238	30.58
575.578	30.7
575.918	30.55
576.258	30.55
576.598	30.63
576.938	30.74
577.278	30.77
577.618	30.72
577.958	31.04
578.298	31.25
578.638	31.35
578.977	31.21
579.317	31.13
579.657	31.16
579.996	31.39
580.336	31.37
580.675	31.41
581.014	31.6
581.354	31.71
581.693	31.53
582.032	31.63
582.372	31.74
582.711	31.4
583.05	32.23
583.389	31.86
583.728	31.86
584.067	31.96
584.406	32
584.745	31.91
585.083	32.25
585.422	32.33
585.761	32.18
586.1	32.06
586.438	32.13
586.777	32.3
587.115	32.26
587.454	32.5
587.792	32.28
588.13	32.64
588.469	32.49
588.807	32.74
589.145	32.61
589.483	32.48
589.821	32.53
590.159	32.74
590.497	32.48
590.835	32.47
591.173	32.74
591.511	32.61
591.849	32.71
592.187	32.61
592.524	32.78
592.862	32.79
593.2	32.93
593.537	33.04
593.875	33.2
594.212	32.74
594.55	33.06
594.887	33.37
595.224	33.1
595.561	33.15
595.899	32.79
596.236	33.2
596.573	33.41
596.91	33.44
597.247	33.09
597.584	33.42
597.921	33.26
598.258	33.09
598.594	32.85
598.931	33.32
599.268	33.16
599.604	33.55
599.941	33.69
600.277	33.75
600.614	33.9
600.95	33.93
601.287	33.91
601.623	34.39
601.959	34.02
602.296	34.43
602.632	33.75
602.968	33.87
603.304	34.18
603.64	34.11
603.976	33.83
604.312	34.14
604.648	33.87
604.984	34.01
605.319	33.91
605.655	33.76
605.991	33.71
606.326	34.06
606.662	33.87
606.998	34.13
607.333	34.16
607.668	34.72
608.004	34.63
608.339	34.7
608.674	34.86
609.01	34.72
609.345	34.76
609.68	34.62
610.015	34.89
610.35	34.58
610.685	34.44
611.02	34.36
611.355	34.72
611.689	34.92
612.024	35.1
612.359	35.35
612.694	35.55
613.028	35.56
613.363	35.12
613.697	35.35
614.032	35.29
614.366	35.29
614.7	35.83
615.035	35.76
615.369	35.89
615.703	35.86
616.037	35.79
616.371	35.63
616.705	35.13
617.039	35.85
617.373	35.67
617.707	35.6
618.041	35.66
618.375	35.51
618.709	35.93
619.042	36.05
619.376	35.53
619.71	36.15
620.043	35.74
620.377	35.93
620.71	36.06
621.043	35.93
621.377	36.27
621.71	36.23
622.043	36.55
622.376	36.11
622.709	36.76
623.043	36.89
623.376	36.44
623.709	36.67
624.041	36.85
624.374	36.77
624.707	36.4
625.04	36.76
625.373	36.52
625.705	36.87
626.038	37.06
626.37	36.87
626.703	36.83
627.035	36.91
627.368	36.8
627.7	36.63
628.032	36.65
628.365	36.59
628.697	36.73
629.029	36.89
629.361	36.67
629.693	37.19
630.025	37.19
630.357	37.23
630.689	37.13
631.021	37.64
631.353	37.43
631.684	37.28
632.016	37.24
632.348	37.47
632.679	37.45
633.011	37.47
633.342	37.34
633.674	37.79
634.005	37.71
634.336	37.52
634.668	37.32
634.999	38.09
635.33	37.33
635.661	37.77
635.992	37.72
636.323	37.55
636.654	37.93
636.985	38
637.316	37.84
637.647	37.8
637.977	38
638.308	37.85
638.639	37.97
638.969	37.84
639.3	38.2
639.63	38.12
639.961	37.95
640.291	38.44
640.622	38.57
640.952	38.23
641.282	38.12
641.612	38.08
641.943	38.89
642.273	38.61
642.603	38.39
642.933	38.7
643.263	39.2
643.592	38.14
643.922	39.22
644.252	38.57
644.582	38.57
644.911	38.72
645.241	38.29
645.571	38.56
645.9	39.31
646.23	38.96
646.559	38.58
646.888	38.96
647.218	39.21
647.547	38.59
647.876	39.39
648.205	38.5
648.534	39.07
648.863	39.14
649.192	39
649.521	39.37
649.85	39.93
650.179	39.56
650.508	39.62
650.837	39.11
651.165	39.59
651.494	39.12
651.822	38.96
652.151	39.44
652.479	39.55
652.808	39.41
653.136	39.06
653.465	39.67
653.793	39.26
654.121	39.45
654.449	39.96
654.777	39.3
655.105	40.09
655.433	39.6
655.761	39.75
656.089	39.89
656.417	40.34
656.745	40.23
657.073	40.15
657.4	40.04
657.728	39.68
658.056	39.91
658.383	39.99
658.711	39.98
659.038	40.22
659.365	40.31
659.693	39.85
660.02	40.14
660.347	40.26
660.674	39.63
661.001	39.68
661.329	40.15
661.656	40.17
661.982	40.5
662.309	40.5
662.636	40.37
662.963	40.4
663.29	40.49
663.616	40.06
663.943	41.14
664.27	40.3
664.596	41.21
664.923	40.8
665.249	40.83
665.576	40.84
665.902	41.12
666.228	40.39
666.554	40.63
666.881	40.8
667.207	40.23
667.533	41.08
667.859	40.55
668.185	40.84
668.511	41.38
668.837	40.58
669.162	41.03
669.488	41.16
669.814	41.31
670.139	41.14
670.465	41.66
670.791	40.83
671.116	41.21
671.442	41.09
671.767	41.55
672.092	41.5
672.418	41.51
672.743	41.81
673.068	41.16
673.393	40.95
