Data from 0054_chest_Reflection__3__03.txt Node

Date: Fri Dec 16 13:50:37 CST 2022
User: ToomeyLab
Spectrometer: FLMS14357
Trigger mode: 0
Integration Time (sec): 1.000000E-2
Scans to average: 100
Electric dark correction enabled: true
Nonlinearity correction enabled: false
Boxcar width: 0
XAxis mode: Wavelengths
Number of Pixels in Spectrum: 2048
>>>>>Begin Spectral Data<<<<<
189.047	439.28
189.435	439.28
189.823	439.28
190.211	130.36
190.599	25.92
190.987	61.16
191.375	-201.16
191.763	89.99
192.151	-83.24
192.538	79.05
192.926	-55.14
193.314	106.64
193.702	-414.23
194.089	43.52
194.477	-21.98
194.864	-37.77
195.252	-95.19
195.639	161.04
196.027	-24.23
196.414	-143.29
196.801	95.51
197.189	83.73
197.576	71.61
197.963	-89.61
198.351	64
198.738	-58.8
199.125	10.48
199.512	38.03
199.899	-37.65
200.286	-12.79
200.673	43.28
201.06	21.15
201.447	14.59
201.833	36.45
202.22	2.95
202.607	-26.99
202.994	12.37
203.38	10.47
203.767	-5.09
204.154	1.7
204.54	19.41
204.927	19.08
205.313	66.18
205.699	12.64
206.086	-11.93
206.472	-9.97
206.858	34.3
207.245	13.01
207.631	12.56
208.017	24.15
208.403	23.24
208.789	16.3
209.175	30.13
209.561	13.17
209.947	-28.37
210.333	-14.71
210.719	23.58
211.105	-10.14
211.491	19.46
211.876	7.22
212.262	-9.37
212.648	4.93
213.034	-0.62
213.419	17.62
213.805	-6.4
214.19	29.52
214.576	0.62
214.961	3.63
215.346	-4.98
215.732	24.8
216.117	0.61
216.502	2.67
216.888	-44.32
217.273	24.29
217.658	13.13
218.043	12.95
218.428	40.72
218.813	-9.67
219.198	5.03
219.583	8.57
219.968	-0.47
220.353	28.45
220.738	-8.15
221.122	15.49
221.507	3.27
221.892	14.06
222.276	10.46
222.661	13.22
223.046	11.16
223.43	2.57
223.815	8.6
224.199	4.59
224.583	6.47
224.968	12.4
225.352	-0.24
225.736	11.28
226.121	3.28
226.505	9.32
226.889	8.74
227.273	4.77
227.657	3.1
228.041	7.64
228.425	4.84
228.809	2.21
229.193	1.84
229.577	4.39
229.961	3.96
230.344	3.85
230.728	3.75
231.112	3.58
231.495	2.45
231.879	4.23
232.263	3.6
232.646	2.41
233.03	2.17
233.413	2.33
233.797	4.59
234.18	2.72
234.563	2.74
234.946	5.07
235.33	3.12
235.713	4.37
236.096	3.46
236.479	4.09
236.862	7.59
237.245	5.58
237.628	3.76
238.011	4.32
238.394	6.62
238.777	5.06
239.16	2.73
239.543	3.2
239.925	4.86
240.308	4.28
240.691	2.82
241.073	3.86
241.456	3.43
241.838	4.15
242.221	3.45
242.603	3.39
242.986	4.6
243.368	3.67
243.75	4
244.133	3.9
244.515	3.59
244.897	3.84
245.279	3.68
245.661	3.38
246.043	3.89
246.425	2.52
246.807	4.26
247.189	3.75
247.571	3.32
247.953	3.29
248.335	3.67
248.717	3.58
249.098	3.58
249.48	3.29
249.862	3.7
250.243	3.65
250.625	3.52
251.006	4.32
251.388	3.23
251.769	3.9
252.151	3.5
252.532	3.48
252.913	3.98
253.295	3.35
253.676	3.46
254.057	3.29
254.438	3.41
254.819	3.56
255.2	3.5
255.581	3.18
255.962	2.5
256.343	4.36
256.724	4.2
257.105	4.4
257.486	3.32
257.867	3.2
258.247	3.37
258.628	4.02
259.009	3.93
259.389	4.36
259.77	3.28
260.15	4.06
260.531	3.62
260.911	3.55
261.292	3.3
261.672	3.42
262.052	3.42
262.432	3.56
262.813	3.87
263.193	3.1
263.573	3.33
263.953	3.22
264.333	3.99
264.713	3.18
265.093	3.02
265.473	3.71
265.853	3.28
266.233	3.14
266.612	3.87
266.992	2.86
267.372	3.42
267.752	3.12
268.131	3.26
268.511	3.81
268.89	3.92
269.27	3.71
269.649	3.41
270.029	3.3
270.408	3.34
270.787	3.54
271.167	3.74
271.546	2.73
271.925	3.66
272.304	3.34
272.683	3.27
273.062	3.63
273.441	3.74
273.82	3.56
274.199	3.4
274.578	3.17
274.957	3.42
275.336	3.4
275.715	3.79
276.093	3.79
276.472	3.55
276.851	3.62
277.229	4.38
277.608	3.29
277.986	3.34
278.365	3.06
278.743	4.06
279.122	3.2
279.5	3.04
279.878	2.96
280.257	3.21
280.635	2.75
281.013	3.29
281.391	3.71
281.769	3.29
282.147	3.67
282.525	3.21
282.903	4.11
283.281	3.4
283.659	3.41
284.037	3.1
284.415	3.37
284.792	3.48
285.17	2.89
285.548	3.02
285.925	3.17
286.303	2.85
286.68	3.47
287.058	3.03
287.435	3.03
287.813	3.57
288.19	3.49
288.567	3.27
288.945	3.29
289.322	3.46
289.699	2.88
290.076	3.57
290.453	3.42
290.83	3.48
291.207	3.48
291.584	3.13
291.961	3.55
292.338	3.61
292.715	3.34
293.092	3.19
293.469	3.4
293.845	4.06
294.222	3.85
294.599	3.7
294.975	3.79
295.352	3.15
295.728	3.66
296.105	3.45
296.481	4.04
296.858	3.22
297.234	3.51
297.61	3.52
297.986	3.49
298.363	2.99
298.739	3.5
299.115	3.02
299.491	3.4
299.867	3.62
300.243	3.63
300.619	3.43
300.995	3.37
301.371	3.6
301.746	3.5
302.122	3.75
302.498	3.49
302.874	3.23
303.249	3.88
303.625	3.8
304	3.17
304.376	3.59
304.751	3.73
305.127	3.04
305.502	3.66
305.878	3.52
306.253	3.51
306.628	3.58
307.003	4.04
307.378	4
307.754	3.51
308.129	3.09
308.504	3.21
308.879	3.68
309.254	3.69
309.629	3.16
310.003	4.11
310.378	3.57
310.753	3.64
311.128	3.54
311.502	3.75
311.877	3.71
312.252	3.9
312.626	3.84
313.001	3.71
313.375	3.68
313.75	3.37
314.124	4.31
314.498	3.34
314.873	3.69
315.247	3.63
315.621	3.96
315.995	3.4
316.369	3.64
316.743	4.03
317.117	4
317.491	4.24
317.865	3.56
318.239	4.1
318.613	3.6
318.987	4.29
319.361	3.37
319.734	3.46
320.108	3.46
320.482	3.49
320.855	4.14
321.229	4.74
321.602	4.02
321.976	3.85
322.349	3.63
322.723	3.08
323.096	3.5
323.469	3.54
323.843	3.42
324.216	3.47
324.589	4.34
324.962	4.3
325.335	3.48
325.708	3.99
326.081	4.46
326.454	4.19
326.827	4.31
327.2	3.87
327.573	3.9
327.945	3.62
328.318	4.15
328.691	3.83
329.063	3.84
329.436	4.19
329.809	3.89
330.181	3.96
330.553	4.15
330.926	3.39
331.298	3.57
331.671	4.02
332.043	3.86
332.415	4.44
332.787	4.46
333.159	3.48
333.532	3.93
333.904	3.45
334.276	3.96
334.648	4.09
335.02	4.18
335.391	4.52
335.763	3.86
336.135	4.21
336.507	4.19
336.879	4.05
337.25	4.02
337.622	4.38
337.993	3.86
338.365	4.19
338.736	4.23
339.108	3.94
339.479	3.8
339.851	4.21
340.222	4.44
340.593	4.06
340.964	4.15
341.336	3.71
341.707	3.73
342.078	3.58
342.449	4.41
342.82	4.06
343.191	3.79
343.562	4.29
343.933	4.27
344.303	3.97
344.674	4.11
345.045	4.36
345.416	3.99
345.786	3.82
346.157	3.72
346.527	4.22
346.898	3.92
347.268	4.09
347.639	3.64
348.009	4.21
348.38	4.02
348.75	4.06
349.12	4.08
349.49	4.26
349.861	4.41
350.231	4.56
350.601	4.03
350.971	4.19
351.341	3.85
351.711	4.32
352.081	4.15
352.45	4
352.82	4.21
353.19	3.59
353.56	4.04
353.929	4.14
354.299	4.16
354.669	4.44
355.038	4.35
355.408	4.67
355.777	3.98
356.147	4.16
356.516	4.39
356.885	3.99
357.254	4.44
357.624	4.04
357.993	4.09
358.362	4.04
358.731	4.39
359.1	4.35
359.469	4.35
359.838	4.24
360.207	4.09
360.576	4.04
360.945	4.03
361.314	4.1
361.682	3.88
362.051	3.92
362.42	4.27
362.788	4.07
363.157	4.05
363.525	3.78
363.894	3.99
364.262	4.16
364.631	4.85
364.999	4.11
365.367	4.49
365.735	3.96
366.104	3.98
366.472	4.31
366.84	4.33
367.208	4.1
367.576	4.13
367.944	4.43
368.312	3.89
368.68	4.44
369.048	4.46
369.416	4.17
369.783	4.04
370.151	4.18
370.519	4.29
370.886	4.08
371.254	4.15
371.621	4.32
371.989	4.22
372.356	4.36
372.724	4.31
373.091	4.45
373.458	4.32
373.826	4.28
374.193	4.46
374.56	4.35
374.927	4.13
375.294	4.66
375.661	4.15
376.028	4.27
376.395	4.1
376.762	4.27
377.129	4.67
377.496	4.17
377.863	4.14
378.229	4.23
378.596	4.01
378.963	4.27
379.329	4.36
379.696	4.3
380.062	4.42
380.429	4.38
380.795	4.16
381.161	4.27
381.528	4.08
381.894	4.3
382.26	4.11
382.626	4.15
382.993	4.33
383.359	4.35
383.725	4.55
384.091	4.3
384.457	4.36
384.823	4.09
385.188	4.74
385.554	4.77
385.92	4.52
386.286	4.6
386.651	4.23
387.017	4.43
387.383	4.53
387.748	4.24
388.114	4.48
388.479	4.57
388.845	4.4
389.21	4.66
389.575	4.66
389.94	4.51
390.306	4.39
390.671	4.38
391.036	4.76
391.401	4.65
391.766	4.34
392.131	4.31
392.496	4.25
392.861	4.38
393.226	4.41
393.591	4.7
393.956	4.55
394.32	4.49
394.685	4.57
395.05	4.38
395.414	4.52
395.779	4.42
396.143	4.4
396.508	4.62
396.872	4.65
397.236	4.21
397.601	4.67
397.965	4.27
398.329	4.59
398.694	4.54
399.058	4.54
399.422	4.61
399.786	4.54
400.15	4.53
400.514	4.64
400.878	4.47
401.242	4.62
401.605	4.6
401.969	4.63
402.333	4.41
402.697	4.85
403.06	4.53
403.424	4.39
403.787	4.61
404.151	4.5
404.514	4.56
404.878	4.56
405.241	4.64
405.604	4.74
405.968	4.57
406.331	4.64
406.694	4.65
407.057	4.92
407.42	4.58
407.783	4.61
408.146	4.57
408.509	4.58
408.872	4.6
409.235	4.68
409.598	4.68
409.961	4.93
410.323	4.64
410.686	4.59
411.049	4.55
411.411	4.61
411.774	4.71
412.136	4.79
412.499	4.47
412.861	4.44
413.223	4.86
413.586	4.48
413.948	4.69
414.31	4.74
414.672	4.78
415.035	4.67
415.397	4.78
415.759	4.75
416.121	4.96
416.483	4.82
416.845	4.68
417.206	4.8
417.568	4.63
417.93	4.68
418.292	4.58
418.653	4.89
419.015	4.77
419.377	4.86
419.738	4.6
420.1	4.58
420.461	4.61
420.822	4.74
421.184	4.7
421.545	4.63
421.906	4.75
422.267	4.51
422.629	4.65
422.99	4.65
423.351	4.67
423.712	4.76
424.073	4.8
424.434	4.65
424.795	4.66
425.155	4.71
425.516	4.72
425.877	4.67
426.238	4.6
426.598	4.71
426.959	4.69
427.32	4.81
427.68	4.76
428.041	4.89
428.401	4.77
428.761	4.7
429.122	4.82
429.482	4.82
429.842	4.84
430.202	4.97
430.563	4.85
430.923	4.69
431.283	4.92
431.643	4.89
432.003	5.09
432.363	4.84
432.722	4.9
433.082	4.83
433.442	4.92
433.802	4.96
434.161	4.78
434.521	4.92
434.881	4.96
435.24	4.93
435.6	4.85
435.959	4.91
436.319	4.84
436.678	4.98
437.037	4.92
437.396	4.99
437.756	4.9
438.115	5.06
438.474	5.09
438.833	4.98
439.192	5.05
439.551	5.04
439.91	5.11
440.269	5.04
440.628	4.89
440.987	4.89
441.345	4.85
441.704	5.01
442.063	4.88
442.421	5.01
442.78	4.95
443.138	4.93
443.497	4.88
443.855	4.89
444.214	5.03
444.572	4.86
444.93	5.01
445.288	5.19
445.647	5.03
446.005	4.85
446.363	5
446.721	4.92
447.079	5
447.437	4.92
447.795	4.97
448.153	4.93
448.51	4.91
448.868	5
449.226	4.91
449.584	5.09
449.941	5.25
450.299	5.01
450.656	5.2
451.014	5.19
451.371	5.07
451.729	5.18
452.086	5.08
452.443	5.02
452.801	5.11
453.158	5.06
453.515	5.16
453.872	5.09
454.229	5.11
454.586	5.15
454.943	5.18
455.3	5.21
455.657	5.11
456.014	5.25
456.371	5.34
456.727	5.16
457.084	4.99
457.441	5.07
457.797	5.3
458.154	5.17
458.51	5.23
458.867	5.2
459.223	5.2
459.58	5.28
459.936	5.22
460.292	5.13
460.648	5.02
461.005	5.1
461.361	5.15
461.717	5.09
462.073	5.09
462.429	5.18
462.785	5.18
463.141	5.39
463.496	5.06
463.852	5.34
464.208	5.23
464.564	5.15
464.919	5.25
465.275	5.41
465.631	5.36
465.986	5.31
466.342	5.38
466.697	5.24
467.052	5.38
467.408	5.47
467.763	5.26
468.118	5.29
468.473	5.48
468.829	5.23
469.184	5.38
469.539	5.17
469.894	5.38
470.249	5.49
470.603	5.44
470.958	5.45
471.313	5.34
471.668	5.4
472.023	5.45
472.377	5.42
472.732	5.3
473.086	5.28
473.441	5.49
473.795	5.67
474.15	5.39
474.504	5.34
474.859	5.51
475.213	5.37
475.567	5.37
475.921	5.77
476.275	5.62
476.63	5.49
476.984	5.42
477.338	5.61
477.692	5.38
478.045	5.45
478.399	5.58
478.753	5.46
479.107	5.51
479.461	5.45
479.814	5.4
480.168	5.53
480.521	5.47
480.875	5.61
481.228	5.56
481.582	5.45
481.935	5.51
482.289	5.51
482.642	5.56
482.995	5.63
483.348	5.48
483.701	5.49
484.055	5.43
484.408	5.39
484.761	5.24
485.114	5.21
485.466	5.21
485.819	5.24
486.172	5.31
486.525	5.38
486.878	5.36
487.23	5.49
487.583	5.44
487.936	5.45
488.288	5.41
488.641	5.37
488.993	5.36
489.345	5.35
489.698	5.46
490.05	5.48
490.402	5.54
490.754	5.58
491.107	5.65
491.459	5.69
491.811	5.71
492.163	5.61
492.515	5.6
492.866	5.44
493.218	5.5
493.57	5.56
493.922	5.59
494.274	5.63
494.625	5.66
494.977	5.66
495.328	5.83
495.68	5.82
496.031	5.79
496.383	5.78
496.734	6
497.086	5.65
497.437	5.9
497.788	5.76
498.139	5.86
498.49	5.83
498.842	5.78
499.193	5.88
499.544	5.87
499.894	5.97
500.245	5.89
500.596	5.95
500.947	5.88
501.298	5.87
501.648	6.05
501.999	6.09
502.35	6.14
502.7	6
503.051	6.03
503.401	5.96
503.752	5.96
504.102	5.92
504.452	5.97
504.803	5.95
505.153	6.08
505.503	6
505.853	6.07
506.203	6
506.553	6.03
506.903	6.02
507.253	6.14
507.603	6.03
507.953	6.2
508.303	6.17
508.652	6.15
509.002	6.16
509.352	6.11
509.701	6.15
510.051	6.13
510.4	6.14
510.75	6.1
511.099	6.15
511.449	6.19
511.798	6.24
512.147	6.14
512.496	6.24
512.846	6.17
513.195	6.28
513.544	6.22
513.893	6.12
514.242	6.23
514.591	6.3
514.939	6.26
515.288	6.27
515.637	6.44
515.986	6.41
516.334	6.45
516.683	6.39
517.032	6.46
517.38	6.45
517.729	6.42
518.077	6.56
518.426	6.35
518.774	6.39
519.122	6.39
519.47	6.34
519.819	6.36
520.167	6.34
520.515	6.31
520.863	6.43
521.211	6.42
521.559	6.46
521.907	6.45
522.255	6.57
522.602	6.63
522.95	6.69
523.298	6.72
523.645	6.5
523.993	6.64
524.341	6.6
524.688	6.65
525.036	6.83
525.383	6.74
525.73	6.71
526.078	6.75
526.425	6.7
526.772	6.51
527.119	6.56
527.466	6.63
527.814	6.68
528.161	6.71
528.508	6.66
528.854	6.67
529.201	6.6
529.548	6.56
529.895	6.44
530.242	6.49
530.588	6.53
530.935	6.54
531.282	6.61
531.628	6.62
531.975	6.74
532.321	6.78
532.667	6.8
533.014	6.85
533.36	6.85
533.706	6.82
534.052	6.75
534.399	6.84
534.745	6.73
535.091	6.8
535.437	6.82
535.783	7
536.129	6.86
536.474	7.05
536.82	7.02
537.166	7.1
537.512	7.23
537.857	7.08
538.203	7.02
538.549	7.16
538.894	7.17
539.239	7.33
539.585	7.3
539.93	7.32
540.276	7.27
540.621	7.26
540.966	7.24
541.311	7.32
541.656	7.27
542.001	7.31
542.346	7.24
542.691	7.12
543.036	7.21
543.381	7.19
543.726	7.23
544.071	7.33
544.415	7.32
544.76	7.26
545.105	7.39
545.449	7.35
545.794	7.48
546.138	7.63
546.483	7.46
546.827	7.57
547.171	7.55
547.516	7.72
547.86	7.63
548.204	7.68
548.548	7.66
548.892	7.75
549.236	7.72
549.58	7.66
549.924	7.88
550.268	7.91
550.612	7.85
550.956	7.8
551.3	7.94
551.643	7.93
551.987	7.95
552.33	7.96
552.674	8.21
553.017	7.97
553.361	8.12
553.704	7.91
554.048	8.1
554.391	8.08
554.734	8.1
555.077	8.27
555.42	8.24
555.764	8.24
556.107	8.21
556.45	8.25
556.793	8.53
557.135	8.37
557.478	8.46
557.821	8.37
558.164	8.52
558.507	8.33
558.849	8.48
559.192	8.52
559.534	8.37
559.877	8.7
560.219	8.72
560.562	8.57
560.904	8.46
561.246	8.82
561.589	8.62
561.931	8.76
562.273	8.73
562.615	8.95
562.957	8.85
563.299	8.89
563.641	8.91
563.983	8.83
564.325	8.75
564.667	8.93
565.008	8.81
565.35	8.96
565.692	8.92
566.033	9.07
566.375	8.73
566.716	9.17
567.058	9.18
567.399	9.01
567.741	9.11
568.082	8.98
568.423	8.98
568.764	9.13
569.105	9.18
569.447	9.12
569.788	9.32
570.129	9.17
570.47	9.31
570.811	9.38
571.151	9.36
571.492	9.56
571.833	9.37
572.174	9.39
572.514	9.43
572.855	9.42
573.195	9.53
573.536	9.46
573.876	9.49
574.217	9.56
574.557	9.48
574.898	9.42
575.238	9.74
575.578	9.84
575.918	9.73
576.258	9.86
576.598	9.72
576.938	9.88
577.278	9.76
577.618	9.79
577.958	9.88
578.298	9.87
578.638	10.02
578.977	9.98
579.317	10.02
579.657	10.03
579.996	10.15
580.336	10.19
580.675	10.19
581.014	10.16
581.354	10.27
581.693	10.23
582.032	10.23
582.372	10.46
582.711	10.06
583.05	10.56
583.389	10.56
583.728	10.51
584.067	10.42
584.406	10.61
584.745	10.59
585.083	10.8
585.422	10.74
585.761	10.91
586.1	11
586.438	10.93
586.777	10.54
587.115	10.85
587.454	10.71
587.792	10.74
588.13	11.23
588.469	10.88
588.807	11.1
589.145	10.95
589.483	10.84
589.821	11.15
590.159	11.03
590.497	10.97
590.835	11.12
591.173	11.18
591.511	11.21
591.849	11.25
592.187	11.41
592.524	11.22
592.862	11.35
593.2	11.31
593.537	11.41
593.875	11.27
594.212	11.35
594.55	11.47
594.887	11.59
595.224	11.8
595.561	11.55
595.899	11.7
596.236	11.65
596.573	11.54
596.91	11.58
597.247	11.67
597.584	11.87
597.921	11.68
598.258	11.68
598.594	11.66
598.931	11.66
599.268	11.64
599.604	11.96
599.941	12.19
600.277	12.09
600.614	11.98
600.95	12.34
601.287	12.18
601.623	12.55
601.959	12.15
602.296	12.28
602.632	12.54
602.968	12.29
603.304	12.43
603.64	12.46
603.976	12.52
604.312	12.53
604.648	12.56
604.984	12.38
605.319	12.47
605.655	12.51
605.991	12.6
606.326	12.5
606.662	12.47
606.998	12.48
607.333	12.66
607.668	12.89
608.004	12.89
608.339	12.6
608.674	12.69
609.01	12.82
609.345	13.01
609.68	12.64
610.015	13.07
610.35	13.2
610.685	13.06
611.02	13.17
611.355	13.21
611.689	13.02
612.024	13.32
612.359	13.26
612.694	13.4
613.028	13.47
613.363	13.13
613.697	13.43
614.032	13.62
614.366	13.47
614.7	13.69
615.035	13.72
615.369	13.89
615.703	13.9
616.037	13.38
616.371	13.59
616.705	13.78
617.039	13.67
617.373	13.88
617.707	13.83
618.041	14.07
618.375	13.5
618.709	14.11
619.042	13.79
619.376	14.12
619.71	14.11
620.043	13.96
620.377	14.13
620.71	14.44
621.043	14.11
621.377	13.71
621.71	14.14
622.043	14.32
622.376	14.15
622.709	14.58
623.043	14.43
623.376	14.68
623.709	14.71
624.041	14.41
624.374	14.63
624.707	14.56
625.04	14.91
625.373	14.42
625.705	14.86
626.038	14.53
626.37	15.07
626.703	14.72
627.035	15
627.368	15.36
627.7	15.09
628.032	15.18
628.365	14.81
628.697	14.99
629.029	15.19
629.361	15.01
629.693	15.42
630.025	15.04
630.357	15.32
630.689	15.53
631.021	15.47
631.353	15.39
631.684	15.56
632.016	15.3
632.348	15.55
632.679	15.11
633.011	15.56
633.342	15.57
633.674	15.62
634.005	15.69
634.336	15.82
634.668	15.6
634.999	15.64
635.33	15.4
635.661	15.98
635.992	15.62
636.323	16.04
636.654	16.12
636.985	15.92
637.316	16.32
637.647	16.3
637.977	15.92
638.308	15.81
638.639	16.23
638.969	15.99
639.3	16.02
639.63	16.15
639.961	16.35
640.291	16.76
640.622	16.48
640.952	16.21
641.282	16.56
641.612	16.22
641.943	16.52
642.273	16.68
642.603	16.78
642.933	16.46
643.263	16.79
643.592	16.5
643.922	17.19
644.252	17.15
644.582	16.86
644.911	16.73
645.241	16.62
645.571	17.02
645.9	16.98
646.23	16.9
646.559	17.23
646.888	17.25
647.218	17.07
647.547	17.47
647.876	17.3
648.205	17.27
648.534	17.01
648.863	17.43
649.192	17.12
649.521	16.88
649.85	17.62
650.179	17.61
650.508	18.02
650.837	17.25
651.165	17.73
651.494	17.14
651.822	18.13
652.151	17.92
652.479	17.93
652.808	17.98
653.136	17.65
653.465	17.77
653.793	18.25
654.121	18.11
654.449	18.02
654.777	18.03
655.105	18.45
655.433	18.08
655.761	17.89
656.089	17.98
656.417	17.81
656.745	18.09
657.073	18.51
657.4	18.18
657.728	18.08
658.056	18.56
658.383	18.45
658.711	18.58
659.038	19.03
659.365	18.75
659.693	18.54
660.02	18.72
660.347	18.83
660.674	18.29
661.001	18.24
661.329	18.66
661.656	18.76
661.982	19.08
662.309	18.27
662.636	18.91
662.963	19.03
663.29	18.68
663.616	19.35
663.943	19.48
664.27	18.77
664.596	18.9
664.923	19.71
665.249	19.4
665.576	19.49
665.902	19.01
666.228	19.18
666.554	19.2
666.881	19.72
667.207	19.02
667.533	19.86
667.859	19.45
668.185	19.25
668.511	19.65
668.837	19.28
669.162	19.86
669.488	19.75
669.814	20.44
670.139	20.46
670.465	20.12
670.791	20.24
671.116	19.81
671.442	19.93
671.767	19.91
672.092	20.05
672.418	20.28
672.743	19.7
673.068	20.4
673.393	20.65
673.718	20.87
674.043	20.23
674.368	20.7
674.693	20.23
675.018	19.91
675.343	20.63
675.667	20.24
675.992	20.37
676.317	20.76
676.641	21.25
676.966	21.15
677.29	20.51
677.615	21.03
677.939	20.83
678.264	20.53
678.588	21.28
678.912	21.51
679.236	21.04
679.56	20.8
679.885	21.19
680.209	20.77
680.532	20.43
680.856	21.73
681.18	20.88
681.504	20.72
681.828	20.9
682.152	21.42
682.475	21.36
682.799	21.68
683.122	21.08
683.446	21.23
683.769	20.82
684.093	21.71
684.416	21.18
684.739	22.27
685.062	21.71
685.386	21.23
