Data from 0054_forehead_Reflection__1__11.txt Node

Date: Fri Dec 16 13:53:02 CST 2022
User: ToomeyLab
Spectrometer: FLMS14357
Trigger mode: 0
Integration Time (sec): 1.000000E-2
Scans to average: 100
Electric dark correction enabled: true
Nonlinearity correction enabled: false
Boxcar width: 0
XAxis mode: Wavelengths
Number of Pixels in Spectrum: 2048
>>>>>Begin Spectral Data<<<<<
189.047	-28.81
189.435	-28.81
189.823	-28.81
190.211	-84.17
190.599	27.77
190.987	-67.23
191.375	-188.85
191.763	-77.23
192.151	95.03
192.538	96.66
192.926	-217.44
193.314	67.97
193.702	864.33
194.089	250.62
194.477	-109.01
194.864	168.55
195.252	-137.27
195.639	-1.64
196.027	12.64
196.414	-366.82
196.801	29.19
197.189	60.44
197.576	105.17
197.963	232.67
198.351	0.34
198.738	27.87
199.125	17.36
199.512	8.2
199.899	-48.91
200.286	-6.3
200.673	55.37
201.06	49.59
201.447	23.04
201.833	18.95
202.22	43.85
202.607	-0.91
202.994	28.28
203.38	-9.91
203.767	6.33
204.154	-36.85
204.54	30.28
204.927	28.61
205.313	65.79
205.699	0.05
206.086	6.48
206.472	38.97
206.858	19.14
207.245	27.12
207.631	-1.91
208.017	27.59
208.403	35.71
208.789	17.28
209.175	31.52
209.561	10.07
209.947	-7.32
210.333	-30.4
210.719	35.21
211.105	-33.97
211.491	22.93
211.876	26.56
212.262	14.53
212.648	-3.06
213.034	10.01
213.419	23.59
213.805	12.57
214.19	35.9
214.576	-7.05
214.961	0.95
215.346	-5.39
215.732	-11.76
216.117	9.26
216.502	-10.85
216.888	-16.35
217.273	24.11
217.658	4.12
218.043	16.71
218.428	14.66
218.813	-5.9
219.198	-18.31
219.583	1.13
219.968	-0.11
220.353	2.9
220.738	-8.12
221.122	13.73
221.507	-6.3
221.892	4.2
222.276	15.91
222.661	-15.55
223.046	16.89
223.43	9.14
223.815	8.31
224.199	9.61
224.583	4.65
224.968	15.89
225.352	1.01
225.736	10.59
226.121	-3.84
226.505	-0.93
226.889	8.32
227.273	5.42
227.657	-0.77
228.041	2.85
228.425	6.26
228.809	3.2
229.193	-0.17
229.577	2.73
229.961	1.47
230.344	2.62
230.728	2.41
231.112	2.31
231.495	2.13
231.879	2.18
232.263	3.21
232.646	2.98
233.03	1.54
233.413	1.9
233.797	4.96
234.18	2.88
234.563	2.99
234.946	3.26
235.33	3.01
235.713	2.67
236.096	3.44
236.479	4.06
236.862	2.38
237.245	4.28
237.628	4.6
238.011	2.38
238.394	3.36
238.777	1.87
239.16	2.5
239.543	1.52
239.925	4.77
240.308	2.46
240.691	0.6
241.073	3.51
241.456	2.28
241.838	2.49
242.221	1.58
242.603	2.48
242.986	3.53
243.368	2.05
243.75	2.18
244.133	2.3
244.515	2.5
244.897	2.04
245.279	2.75
245.661	1.93
246.043	2.29
246.425	2.24
246.807	3.22
247.189	2.2
247.571	2.86
247.953	2.58
248.335	2.4
248.717	2.53
249.098	2.5
249.48	2.08
249.862	2.77
250.243	2.64
250.625	3.14
251.006	3.21
251.388	2.81
251.769	2.49
252.151	2.44
252.532	2.11
252.913	2.54
253.295	2.7
253.676	2.41
254.057	2.67
254.438	2.33
254.819	3.31
255.2	3.29
255.581	2.94
255.962	3.18
256.343	3.69
256.724	3.1
257.105	2.75
257.486	3.12
257.867	1.37
258.247	2.93
258.628	3.33
259.009	3.02
259.389	2.44
259.77	2.74
260.15	3.19
260.531	2.61
260.911	2.43
261.292	2.45
261.672	2.2
262.052	2.47
262.432	2.52
262.813	3.14
263.193	2.08
263.573	2.82
263.953	2.82
264.333	2.07
264.713	2.59
265.093	2.05
265.473	3.14
265.853	2.69
266.233	2.82
266.612	2.97
266.992	2.36
267.372	2.55
267.752	1.93
268.131	2.48
268.511	2.82
268.89	2.98
269.27	2.84
269.649	2.73
270.029	2.15
270.408	2.17
270.787	2.74
271.167	2.47
271.546	1.68
271.925	2.79
272.304	2.87
272.683	2.48
273.062	3.03
273.441	2.57
273.82	2.99
274.199	2.51
274.578	2.44
274.957	2.26
275.336	2.27
275.715	3.26
276.093	3.47
276.472	2.5
276.851	2.68
277.229	3.36
277.608	2.53
277.986	2.3
278.365	2.25
278.743	2.66
279.122	1.93
279.5	2.28
279.878	1.71
280.257	2.86
280.635	2.11
281.013	2.78
281.391	2.1
281.769	1.92
282.147	2.21
282.525	2.28
282.903	2.39
283.281	2.49
283.659	2.43
284.037	2.33
284.415	2.45
284.792	2.82
285.17	2.3
285.548	2.68
285.925	2.7
286.303	2.46
286.68	2.51
287.058	2.57
287.435	2.51
287.813	2.42
288.19	2.75
288.567	2.14
288.945	2.47
289.322	2.67
289.699	2.42
290.076	2.94
290.453	2.38
290.83	2.5
291.207	2.67
291.584	2.44
291.961	2.77
292.338	2.78
292.715	2.93
293.092	2.77
293.469	3.02
293.845	3.39
294.222	2.73
294.599	3.53
294.975	2.94
295.352	2.31
295.728	2.99
296.105	3.03
296.481	3.51
296.858	2.91
297.234	3.05
297.61	2.91
297.986	2.68
298.363	2.62
298.739	2.77
299.115	2.8
299.491	2.86
299.867	3.06
300.243	3.12
300.619	2.79
300.995	3.39
301.371	3.08
301.746	2.68
302.122	3.41
302.498	3.39
302.874	3.02
303.249	3.33
303.625	3.32
304	2.97
304.376	3.17
304.751	3.43
305.127	3.12
305.502	3.33
305.878	3.42
306.253	2.92
306.628	3.19
307.003	3.22
307.378	3.16
307.754	3.93
308.129	3.62
308.504	3.48
308.879	3.41
309.254	3.65
309.629	3.42
310.003	3.96
310.378	3.62
310.753	3.77
311.128	3.62
311.502	3.27
311.877	3.54
312.252	3.67
312.626	3.75
313.001	3.72
313.375	3.7
313.75	3.92
314.124	4.56
314.498	3.68
314.873	3.96
315.247	4
315.621	4.3
315.995	4.09
316.369	4.51
316.743	4.32
317.117	3.63
317.491	4.52
317.865	3.87
318.239	4.39
318.613	4.41
318.987	4.65
319.361	4.14
319.734	4.36
320.108	4.4
320.482	4.56
320.855	4.69
321.229	4.9
321.602	4.09
321.976	4.94
322.349	4.22
322.723	3.89
323.096	4.84
323.469	4.59
323.843	4.7
324.216	4.34
324.589	4.73
324.962	4.47
325.335	4.73
325.708	5.02
326.081	5.21
326.454	5.05
326.827	5.3
327.2	5.75
327.573	5.23
327.945	5.17
328.318	5.29
328.691	4.68
329.063	4.41
329.436	4.88
329.809	4.56
330.181	5.39
330.553	5.34
330.926	5.3
331.298	4.93
331.671	5.16
332.043	5.11
332.415	5.74
332.787	5.63
333.159	5.43
333.532	5.17
333.904	5.67
334.276	5.24
334.648	5.69
335.02	5.6
335.391	5.53
335.763	5.23
336.135	5.63
336.507	6.16
336.879	5.51
337.25	5.5
337.622	6.08
337.993	6.14
338.365	5.85
338.736	6.09
339.108	5.74
339.479	5.55
339.851	6.15
340.222	6.02
340.593	5.67
340.964	5.94
341.336	5.19
341.707	5.46
342.078	6.18
342.449	6.69
342.82	5.82
343.191	5.7
343.562	5.96
343.933	6.35
344.303	6.22
344.674	6.04
345.045	6.58
345.416	6.24
345.786	6.09
346.157	6.85
346.527	6.08
346.898	6.28
347.268	6.25
347.639	6.6
348.009	6.62
348.38	6.86
348.75	6.49
349.12	6.56
349.49	6.73
349.861	7.15
350.231	6.89
350.601	6.37
350.971	6.52
351.341	6.78
351.711	6.8
352.081	6.88
352.45	7.06
352.82	7.18
353.19	6.94
353.56	6.68
353.929	7
354.299	7.03
354.669	7.07
355.038	6.86
355.408	7.28
355.777	6.86
356.147	7.31
356.516	7.36
356.885	7.09
357.254	7.5
357.624	7.44
357.993	7.16
358.362	7.19
358.731	7.33
359.1	7.21
359.469	7.29
359.838	7.42
360.207	7.36
360.576	7.55
360.945	7.22
361.314	7.29
361.682	7.18
362.051	7.58
362.42	7.7
362.788	7.43
363.157	7.49
363.525	7.66
363.894	7.39
364.262	7.69
364.631	8.44
364.999	7.59
365.367	8.1
365.735	7.71
366.104	8.07
366.472	8.04
366.84	8.23
367.208	7.56
367.576	8.23
367.944	8.38
368.312	7.86
368.68	8.34
369.048	8.26
369.416	7.95
369.783	8.26
370.151	8.2
370.519	8.22
370.886	8.28
371.254	8.66
371.621	8.52
371.989	8.66
372.356	8.43
372.724	8.28
373.091	8.6
373.458	8.7
373.826	8.6
374.193	8.96
374.56	8.64
374.927	8.65
375.294	9.32
375.661	8.83
376.028	8.8
376.395	9.06
376.762	9.24
377.129	9.08
377.496	9.14
377.863	8.79
378.229	8.93
378.596	9.11
378.963	8.96
379.329	9.23
379.696	9.21
380.062	9.75
380.429	9.67
380.795	9.16
381.161	9.41
381.528	8.86
381.894	9.45
382.26	9.35
382.626	9.71
382.993	9.63
383.359	9.4
383.725	9.72
384.091	9.53
384.457	9.76
384.823	9.67
385.188	9.84
385.554	9.78
385.92	10.08
386.286	10.09
386.651	10.12
387.017	10.06
387.383	10.04
387.748	9.67
388.114	10.23
388.479	10.06
388.845	10.45
389.21	10.05
389.575	10.31
389.94	10
390.306	10.13
390.671	10.44
391.036	10.37
391.401	10.76
391.766	10.45
392.131	10.31
392.496	10.43
392.861	10.34
393.226	10.49
393.591	10.54
393.956	10.7
394.32	10.65
394.685	10.83
395.05	10.33
395.414	10.67
395.779	10.72
396.143	10.88
396.508	10.99
396.872	11.17
397.236	10.87
397.601	11.1
397.965	10.66
398.329	11.08
398.694	10.63
399.058	11.02
399.422	11.3
399.786	11.19
400.15	11.03
400.514	11.15
400.878	11.44
401.242	11.79
401.605	11.46
401.969	11.42
402.333	11.3
402.697	11.47
403.06	11.56
403.424	11.47
403.787	11.83
404.151	11.52
404.514	11.81
404.878	11.82
405.241	11.83
405.604	11.86
405.968	11.72
406.331	11.79
406.694	11.85
407.057	12.12
407.42	11.83
407.783	12.03
408.146	11.95
408.509	11.89
408.872	11.93
409.235	12.35
409.598	12.62
409.961	12.2
410.323	12.38
410.686	12.27
411.049	12.12
411.411	12.23
411.774	12.18
412.136	12.53
412.499	12.3
412.861	12.22
413.223	12.5
413.586	12.54
413.948	12.88
414.31	12.59
414.672	12.75
415.035	12.75
415.397	12.77
415.759	12.62
416.121	12.92
416.483	12.93
416.845	12.94
417.206	12.95
417.568	12.87
417.93	12.94
418.292	12.91
418.653	12.96
419.015	12.8
419.377	12.83
419.738	12.77
420.1	12.95
420.461	12.78
420.822	13.08
421.184	12.9
421.545	13.03
421.906	13.01
422.267	12.8
422.629	12.94
422.99	12.86
423.351	13.13
423.712	13.09
424.073	13.38
424.434	13.21
424.795	13.14
425.155	13.19
425.516	13.3
425.877	13.21
426.238	13.23
426.598	13.39
426.959	13.31
427.32	13.5
427.68	13.72
428.041	13.81
428.401	13.64
428.761	13.95
429.122	13.76
429.482	13.77
429.842	14
430.202	14.06
430.563	14.16
430.923	13.96
431.283	14.25
431.643	14.13
432.003	14.2
432.363	14.41
432.722	14.15
433.082	14.22
433.442	14.23
433.802	14.35
434.161	14.27
434.521	14.25
434.881	14.4
435.24	14.26
435.6	14.36
435.959	14.55
436.319	14.49
436.678	14.67
437.037	14.78
437.396	14.71
437.756	14.71
438.115	14.81
438.474	15.06
438.833	14.78
439.192	15.03
439.551	14.97
439.91	15.03
440.269	14.99
440.628	14.93
440.987	14.84
441.345	14.82
441.704	15.07
442.063	14.91
442.421	14.89
442.78	14.98
443.138	15.1
443.497	15.25
443.855	15.36
444.214	15.5
444.572	15.41
444.93	15.57
445.288	15.52
445.647	15.4
446.005	15.34
446.363	15.38
446.721	15.31
447.079	15.32
447.437	15.26
447.795	15.28
448.153	15.3
448.51	15.36
448.868	15.43
449.226	15.43
449.584	15.71
449.941	15.79
450.299	15.78
450.656	15.83
451.014	16.03
451.371	16.01
451.729	15.9
452.086	16.04
452.443	16.05
452.801	16.26
453.158	16.19
453.515	16.01
453.872	16.19
454.229	16.04
454.586	16.2
454.943	16.27
455.3	16.68
455.657	16.42
456.014	16.46
456.371	16.71
456.727	16.67
457.084	16.62
457.441	16.59
457.797	16.65
458.154	16.91
458.51	16.7
458.867	16.84
459.223	16.89
459.58	16.79
459.936	16.87
460.292	16.7
460.648	16.51
461.005	16.49
461.361	16.4
461.717	16.56
462.073	16.78
462.429	16.98
462.785	17.09
463.141	17.18
463.496	17.23
463.852	17.26
464.208	17.53
464.564	17.29
464.919	17.31
465.275	17.68
465.631	17.64
465.986	17.55
466.342	17.58
466.697	17.7
467.052	17.68
467.408	17.68
467.763	17.53
468.118	17.72
468.473	17.77
468.829	17.89
469.184	17.99
469.539	17.83
469.894	17.97
470.249	18.04
470.603	18.03
470.958	17.94
471.313	17.96
471.668	18.25
472.023	18.13
472.377	18.26
472.732	18.31
473.086	18.3
473.441	18.28
473.795	18.47
474.15	18.35
474.504	18.29
474.859	18.41
475.213	18.42
475.567	18.68
475.921	18.69
476.275	18.66
476.63	18.79
476.984	18.49
477.338	18.95
477.692	18.62
478.045	18.66
478.399	18.64
478.753	18.63
479.107	18.78
479.461	18.89
479.814	18.93
480.168	18.79
480.521	18.85
480.875	19.09
481.228	18.97
481.582	19.01
481.935	19.09
482.289	18.95
482.642	19.12
482.995	18.98
483.348	18.91
483.701	18.85
484.055	18.86
484.408	18.64
484.761	18.23
485.114	18.11
485.466	18.08
485.819	18.18
486.172	18.44
486.525	18.63
486.878	18.77
487.23	18.93
487.583	18.93
487.936	19.02
488.288	18.82
488.641	18.8
488.993	18.7
489.345	18.74
489.698	18.89
490.05	18.94
490.402	19.19
490.754	19.44
491.107	19.58
491.459	19.73
491.811	19.76
492.163	19.8
492.515	19.42
492.866	19.16
493.218	19.18
493.57	19.38
493.922	19.56
494.274	19.79
494.625	19.99
494.977	20.2
495.328	20.4
495.68	20.66
496.031	20.57
496.383	20.55
496.734	20.63
497.086	20.54
497.437	20.66
497.788	20.52
498.139	20.48
498.49	20.58
498.842	20.55
499.193	20.7
499.544	20.78
499.894	20.72
500.245	20.83
500.596	20.92
500.947	21.03
501.298	21.18
501.648	21.08
501.999	21.22
502.35	21.21
502.7	21.6
503.051	21.45
503.401	21.56
503.752	21.5
504.102	21.38
504.452	21.49
504.803	21.4
505.153	21.46
505.503	21.38
505.853	21.54
506.203	21.59
506.553	21.66
506.903	21.81
507.253	21.79
507.603	21.98
507.953	21.91
508.303	21.8
508.652	21.91
509.002	21.92
509.352	21.92
509.701	21.93
510.051	21.88
510.4	21.88
510.75	21.78
511.099	21.93
511.449	21.98
511.798	22.32
512.147	22.11
512.496	22.24
512.846	22.2
513.195	22.25
513.544	22.04
513.893	22.21
514.242	22.37
514.591	22.27
514.939	22.49
515.288	22.57
515.637	22.63
515.986	22.7
516.334	22.87
516.683	22.85
517.032	22.74
517.38	23.01
517.729	22.91
518.077	23.01
518.426	22.85
518.774	22.78
519.122	22.71
519.47	22.71
519.819	22.5
520.167	22.58
520.515	22.56
520.863	22.71
521.211	22.95
521.559	23.02
521.907	23.1
522.255	23.21
522.602	23.37
522.95	23.38
523.298	23.46
523.645	23.43
523.993	23.6
524.341	23.59
524.688	23.71
525.036	23.64
525.383	23.76
525.73	23.7
526.078	23.66
526.425	23.45
526.772	23.29
527.119	23.37
527.466	23.3
527.814	23.41
528.161	23.48
528.508	23.6
528.854	23.44
529.201	23.17
529.548	23.06
529.895	22.86
530.242	22.96
530.588	23.03
530.935	23.18
531.282	23.39
531.628	23.48
531.975	23.67
532.321	23.85
532.667	23.86
533.014	24.11
533.36	24.04
533.706	24.02
534.052	23.86
534.399	23.66
534.745	23.52
535.091	23.7
535.437	23.89
535.783	24.13
536.129	24.35
536.474	24.52
536.82	24.61
537.166	24.74
537.512	24.69
537.857	24.51
538.203	24.36
538.549	24.47
538.894	24.5
539.239	24.89
539.585	25.02
539.93	25.13
540.276	25.21
540.621	25.24
540.966	25.1
541.311	25.28
541.656	25.02
542.001	24.95
542.346	24.59
542.691	24.27
543.036	24.32
543.381	24.52
543.726	24.69
544.071	24.9
544.415	24.88
544.76	25.05
545.105	25.14
545.449	25.2
545.794	25.38
546.138	25.65
546.483	25.72
546.827	25.6
547.171	25.79
547.516	25.79
547.86	25.74
548.204	25.79
548.548	25.77
548.892	25.78
549.236	26.11
549.58	26.2
549.924	26.14
550.268	26.47
550.612	26.37
550.956	26.49
551.3	26.64
551.643	26.66
551.987	26.95
552.33	26.87
552.674	26.77
553.017	26.79
553.361	26.71
553.704	26.63
554.048	26.69
554.391	26.61
554.734	26.82
555.077	26.85
555.42	26.9
555.764	27.29
556.107	27.13
556.45	27.18
556.793	27.4
557.135	27.37
557.478	27.42
557.821	27.4
558.164	27.6
558.507	27.41
558.849	27.67
559.192	27.85
559.534	27.56
559.877	27.74
560.219	27.99
560.562	27.7
560.904	27.68
561.246	27.93
561.589	27.86
561.931	27.92
562.273	27.79
562.615	27.99
562.957	27.75
563.299	27.87
563.641	27.96
563.983	28.11
564.325	28.06
564.667	28.26
565.008	28.25
565.35	28.48
565.692	28.26
566.033	28.27
566.375	28.27
566.716	28.11
567.058	28.17
567.399	28.11
567.741	28.02
568.082	28.04
568.423	28.23
568.764	28.46
569.105	28.51
569.447	28.54
569.788	28.52
570.129	28.47
570.47	28.8
570.811	28.72
571.151	28.78
571.492	29.2
571.833	28.82
572.174	28.74
572.514	28.65
572.855	28.88
573.195	28.79
573.536	28.67
573.876	28.67
574.217	28.97
574.557	28.86
574.898	28.98
575.238	29.32
575.578	29.27
575.918	29.35
576.258	29.17
576.598	29.14
576.938	29.35
577.278	29.11
577.618	29.32
577.958	29.55
578.298	29.55
578.638	29.7
578.977	29.67
579.317	29.86
579.657	29.6
579.996	29.98
580.336	29.82
580.675	30.1
581.014	29.91
581.354	29.96
581.693	30.22
582.032	30.01
582.372	30
582.711	30.08
583.05	30.39
583.389	30.34
583.728	30.29
584.067	30.21
584.406	30.39
584.745	30.1
585.083	30.73
585.422	30.7
585.761	30.7
586.1	30.77
586.438	30.57
586.777	30.52
587.115	30.93
587.454	30.87
587.792	30.64
588.13	30.94
588.469	30.79
588.807	31.02
589.145	30.87
589.483	30.72
589.821	31
590.159	31.14
590.497	30.66
590.835	30.81
591.173	30.87
591.511	30.93
591.849	31.07
592.187	30.95
592.524	31.27
592.862	30.95
593.2	30.86
593.537	31.49
593.875	31.64
594.212	31.26
594.55	31.4
594.887	31.47
595.224	31.46
595.561	31.73
595.899	31.55
596.236	31.72
596.573	31.38
596.91	31.43
597.247	31.38
597.584	31.49
597.921	31.46
598.258	31.4
598.594	31.35
598.931	31.42
599.268	31.46
599.604	31.76
599.941	31.95
600.277	31.96
600.614	32.12
600.95	31.97
601.287	32.09
601.623	32.3
601.959	32.12
602.296	32.39
602.632	32.42
602.968	32.29
603.304	32.39
603.64	32.2
603.976	32.31
604.312	32.49
604.648	32.23
604.984	32.08
605.319	31.97
605.655	32.23
605.991	32.1
606.326	32.3
606.662	31.88
606.998	32.34
607.333	32.25
607.668	32.62
608.004	32.69
608.339	32.91
608.674	32.6
609.01	32.84
609.345	32.97
609.68	32.58
610.015	32.64
610.35	32.96
610.685	32.77
611.02	32.74
611.355	32.91
611.689	33.05
612.024	32.92
612.359	33.26
612.694	33.38
613.028	33.61
613.363	33.6
613.697	33.21
614.032	33.39
614.366	33.51
614.7	33.89
615.035	33.78
615.369	33.83
615.703	33.76
616.037	33.59
616.371	33.49
616.705	33.48
617.039	33.82
617.373	33.52
617.707	33.75
618.041	33.84
618.375	33.88
618.709	34
619.042	33.79
619.376	34.05
619.71	34.03
620.043	34.12
620.377	34.19
620.71	34.01
621.043	33.85
621.377	34.15
621.71	34.39
622.043	34.12
622.376	34.34
622.709	33.93
623.043	34.37
623.376	34.47
623.709	34.23
624.041	34.34
624.374	34.57
624.707	34.73
625.04	35.01
625.373	34.52
625.705	34.72
626.038	34.74
626.37	34.75
626.703	34.65
627.035	34.84
627.368	34.85
627.7	34.77
628.032	34.64
628.365	34.6
628.697	34.67
629.029	34.84
629.361	34.66
629.693	35.23
630.025	35.08
630.357	35.23
630.689	35.47
631.021	35.33
631.353	35.28
631.684	35.06
632.016	35.04
632.348	35.09
632.679	35.29
633.011	35.64
633.342	35.63
633.674	35.45
634.005	35.65
634.336	35.46
634.668	35.5
634.999	35.79
635.33	35.34
635.661	35.52
635.992	35.51
636.323	35.35
636.654	35.7
636.985	35.86
637.316	36.25
637.647	35.82
637.977	35.71
638.308	35.55
638.639	35.77
638.969	35.41
639.3	36.06
639.63	36.26
639.961	36.05
640.291	36.3
640.622	36.16
640.952	36.38
641.282	36.13
641.612	35.83
641.943	36.55
642.273	36.35
642.603	36.45
642.933	36.22
643.263	36.34
643.592	36.02
643.922	36.45
644.252	36.42
644.582	36.65
644.911	36.47
645.241	36.26
645.571	36.56
645.9	36.89
646.23	36.64
646.559	36.8
646.888	36.85
647.218	36.95
647.547	36.34
647.876	37.09
648.205	37.01
648.534	36.92
648.863	37.04
649.192	37.01
649.521	37.01
649.85	36.97
650.179	36.79
650.508	37.15
650.837	36.88
651.165	36.88
651.494	37.02
651.822	37.03
652.151	36.61
652.479	37.58
652.808	36.88
653.136	36.93
653.465	37.24
653.793	36.89
654.121	37.1
654.449	37.16
654.777	37.1
655.105	37.94
655.433	37.3
655.761	37.24
656.089	37.16
656.417	37.19
656.745	37.85
657.073	37.82
657.4	37.98
657.728	37.3
658.056	37.93
658.383	37.83
658.711	37.69
659.038	37.83
659.365	38.08
659.693	37.84
660.02	37.94
660.347	37.74
660.674	37.18
661.001	37.37
661.329	37.21
661.656	38.03
661.982	37.67
662.309	38.18
662.636	37.94
662.963	37.83
663.29	38.17
663.616	38.03
663.943	38.04
664.27	38.05
664.596	37.87
664.923	38.52
665.249	38.33
665.576	38.37
665.902	38.31
666.228	38.56
666.554	38.12
666.881	38.45
667.207	38.62
667.533	39.04
667.859	38.1
668.185	38.38
668.511	38.27
668.837	38.14
669.162	38.25
669.488	39.36
669.814	38.86
670.139	38.77
670.465	38.8
670.791	38.32
671.116	38.02
671.442	38.42
671.767	38.59
672.092	39.08
672.418	39.07
672.743	38.64
673.068	38.24
