Data from 0054_chest_Reflection__1__01.txt Node

Date: Fri Dec 16 13:49:50 CST 2022
User: ToomeyLab
Spectrometer: FLMS14357
Trigger mode: 0
Integration Time (sec): 1.000000E-2
Scans to average: 100
Electric dark correction enabled: true
Nonlinearity correction enabled: false
Boxcar width: 0
XAxis mode: Wavelengths
Number of Pixels in Spectrum: 2048
>>>>>Begin Spectral Data<<<<<
189.047	210.18
189.435	210.18
189.823	210.18
190.211	106.73
190.599	36.41
190.987	-119.98
191.375	31.37
191.763	127.3
192.151	207.99
192.538	45.07
192.926	292.24
193.314	68.19
193.702	-287.26
194.089	70.63
194.477	-44.64
194.864	-67.76
195.252	-46.43
195.639	160.02
196.027	9.94
196.414	356
196.801	156.45
197.189	14.34
197.576	22.84
197.963	122.38
198.351	5.75
198.738	71.15
199.125	31.07
199.512	12.74
199.899	-1.84
200.286	4.21
200.673	38.35
201.06	54.18
201.447	30.2
201.833	26.26
202.22	30.23
202.607	-13.86
202.994	39.31
203.38	-30.5
203.767	-33.68
204.154	-1.62
204.54	26.7
204.927	31.4
205.313	56.49
205.699	-7.23
206.086	18.53
206.472	23.2
206.858	27.9
207.245	7.61
207.631	15.48
208.017	9.51
208.403	5.98
208.789	-7.59
209.175	35.12
209.561	13.92
209.947	6.12
210.333	11.84
210.719	31.54
211.105	25.26
211.491	23.24
211.876	7.26
212.262	-40.31
212.648	3.9
213.034	10.15
213.419	35.62
213.805	12.96
214.19	-3.39
214.576	-25.08
214.961	-3.86
215.346	30.19
215.732	19.92
216.117	0.87
216.502	-0.58
216.888	-4.38
217.273	39.36
217.658	43.15
218.043	19.67
218.428	8.51
218.813	-11.12
219.198	-6.11
219.583	30.48
219.968	-5.65
220.353	23.07
220.738	1.27
221.122	15.44
221.507	7.98
221.892	18.94
222.276	3.06
222.661	-5.11
223.046	10.64
223.43	12.52
223.815	14.31
224.199	15.37
224.583	0.9
224.968	4.19
225.352	3.74
225.736	9.1
226.121	4.05
226.505	0.7
226.889	12.52
227.273	9.06
227.657	6.86
228.041	5.15
228.425	9.55
228.809	5.4
229.193	2.46
229.577	3.84
229.961	5.89
230.344	5.03
230.728	4.44
231.112	4.93
231.495	4.58
231.879	4.8
232.263	3.62
232.646	4.82
233.03	3.73
233.413	3.63
233.797	8.03
234.18	3.99
234.563	5.51
234.946	4.28
235.33	6.36
235.713	4.86
236.096	3.31
236.479	5.7
236.862	6.4
237.245	4.53
237.628	5.12
238.011	5.19
238.394	6.03
238.777	6.2
239.16	3.51
239.543	4.66
239.925	6.92
240.308	5.7
240.691	2.51
241.073	4.83
241.456	5.14
241.838	4.58
242.221	4.54
242.603	4.4
242.986	5.36
243.368	4.45
243.75	4.21
244.133	4.31
244.515	4.91
244.897	4.18
245.279	4.51
245.661	4.47
246.043	4.06
246.425	4.29
246.807	3.81
247.189	4.29
247.571	4.73
247.953	4.42
248.335	4.52
248.717	4.39
249.098	4.45
249.48	4.33
249.862	4.21
250.243	4.06
250.625	4.64
251.006	4.89
251.388	4.71
251.769	4.56
252.151	4.39
252.532	5.54
252.913	4.91
253.295	4.7
253.676	4.58
254.057	4.34
254.438	4.02
254.819	4.83
255.2	4.74
255.581	3.54
255.962	4.76
256.343	5.51
256.724	4.64
257.105	4.99
257.486	4.76
257.867	2.81
258.247	5.04
258.628	5.02
259.009	4.3
259.389	4.75
259.77	4.58
260.15	4.55
260.531	4.35
260.911	4.54
261.292	4.12
261.672	4.01
262.052	3.96
262.432	3.58
262.813	4.17
263.193	3.94
263.573	4.5
263.953	4.35
264.333	4.49
264.713	4.16
265.093	3.26
265.473	4.68
265.853	4.12
266.233	4.91
266.612	4.63
266.992	3.92
267.372	4.4
267.752	4.04
268.131	4.22
268.511	4.54
268.89	4.3
269.27	4.15
269.649	4.91
270.029	4.34
270.408	3.74
270.787	3.84
271.167	3.76
271.546	3.75
271.925	4.09
272.304	4.17
272.683	3.76
273.062	4.28
273.441	4.54
273.82	4.42
274.199	4.45
274.578	3.94
274.957	4.01
275.336	3.96
275.715	4.28
276.093	4.71
276.472	4.3
276.851	4
277.229	4.34
277.608	3.46
277.986	3.8
278.365	3.82
278.743	4.36
279.122	3.65
279.5	3.56
279.878	3.98
280.257	4.18
280.635	3.8
281.013	4.43
281.391	3.65
281.769	3.72
282.147	4.5
282.525	3.76
282.903	4.16
283.281	4.1
283.659	3.77
284.037	3.98
284.415	4.2
284.792	4.45
285.17	3.61
285.548	3.84
285.925	3.55
286.303	3.89
286.68	4.08
287.058	3.97
287.435	3.75
287.813	3.75
288.19	4.27
288.567	4.06
288.945	4.44
289.322	3.87
289.699	4.02
290.076	3.9
290.453	3.91
290.83	4.17
291.207	3.8
291.584	3.95
291.961	4.09
292.338	4.07
292.715	4.25
293.092	3.88
293.469	4.1
293.845	4.15
294.222	3.97
294.599	4.5
294.975	4.39
295.352	3.79
295.728	4.24
296.105	3.9
296.481	4.09
296.858	3.96
297.234	3.96
297.61	3.85
297.986	3.83
298.363	3.66
298.739	4.09
299.115	3.58
299.491	4.1
299.867	3.98
300.243	3.8
300.619	3.7
300.995	4.06
301.371	4.02
301.746	3.64
302.122	3.93
302.498	3.84
302.874	3.98
303.249	4.05
303.625	3.43
304	3.75
304.376	3.64
304.751	3.77
305.127	3.98
305.502	3.99
305.878	3.85
306.253	3.7
306.628	4
307.003	3.8
307.378	3.9
307.754	3.89
308.129	3.11
308.504	3.21
308.879	3.85
309.254	4.35
309.629	3.59
310.003	4.48
310.378	4.04
310.753	3.88
311.128	3.97
311.502	3.71
311.877	3.88
312.252	3.82
312.626	3.64
313.001	3.68
313.375	3.87
313.75	4.06
314.124	3.93
314.498	3.72
314.873	3.66
315.247	3.73
315.621	4.08
315.995	3.64
316.369	4.05
316.743	4.4
317.117	4.2
317.491	3.73
317.865	3.55
318.239	4.37
318.613	3.93
318.987	4.43
319.361	3.53
319.734	4.02
320.108	4.1
320.482	3.71
320.855	4.21
321.229	4.85
321.602	3.55
321.976	4.58
322.349	3.71
322.723	3.29
323.096	4.07
323.469	3.27
323.843	4.35
324.216	3.56
324.589	4.06
324.962	3.68
325.335	3.52
325.708	4.36
326.081	4.58
326.454	3.85
326.827	3.94
327.2	4.23
327.573	3.74
327.945	3.82
328.318	4.41
328.691	3.5
329.063	4.13
329.436	3.82
329.809	3.32
330.181	3.51
330.553	4.28
330.926	4.2
331.298	3.67
331.671	4.34
332.043	3.8
332.415	4.07
332.787	4.28
333.159	3.77
333.532	3.67
333.904	3.62
334.276	3.55
334.648	4.19
335.02	3.95
335.391	3.87
335.763	4.06
336.135	3.81
336.507	3.97
336.879	3.61
337.25	4.08
337.622	4.14
337.993	3.55
338.365	3.9
338.736	3.78
339.108	3.92
339.479	3.93
339.851	4.32
340.222	3.88
340.593	3.83
340.964	3.94
341.336	3.57
341.707	3.85
342.078	3.91
342.449	4.27
342.82	3.88
343.191	3.58
343.562	3.78
343.933	3.98
344.303	3.61
344.674	3.88
345.045	4.11
345.416	3.9
345.786	3.28
346.157	4.01
346.527	3.74
346.898	3.84
347.268	3.74
347.639	3.93
348.009	4.12
348.38	3.61
348.75	4.15
349.12	4.39
349.49	3.66
349.861	3.95
350.231	4.31
350.601	4.12
350.971	4
351.341	3.75
351.711	3.95
352.081	3.96
352.45	4.31
352.82	3.98
353.19	3.71
353.56	3.92
353.929	3.78
354.299	4.01
354.669	4.16
355.038	3.67
355.408	4.43
355.777	3.62
356.147	4.28
356.516	4.13
356.885	3.85
357.254	4.07
357.624	3.97
357.993	3.96
358.362	3.93
358.731	4.08
359.1	4.44
359.469	3.9
359.838	3.83
360.207	3.66
360.576	4.01
360.945	3.92
361.314	4.05
361.682	3.88
362.051	3.78
362.42	4.16
362.788	4.06
363.157	4.01
363.525	4.02
363.894	3.85
364.262	3.86
364.631	4.57
364.999	3.78
365.367	4.14
365.735	3.37
366.104	4
366.472	4.27
366.84	4.31
367.208	3.91
367.576	3.97
367.944	4.13
368.312	3.95
368.68	3.87
369.048	4.07
369.416	4.04
369.783	4.07
370.151	4.07
370.519	3.85
370.886	3.85
371.254	4.17
371.621	4.27
371.989	4.21
372.356	4.11
372.724	4.23
373.091	4.25
373.458	3.99
373.826	4.11
374.193	4.26
374.56	3.63
374.927	3.93
375.294	4.29
375.661	4.38
376.028	4.15
376.395	3.87
376.762	4.58
377.129	4.1
377.496	4.13
377.863	4.24
378.229	4.11
378.596	4.19
378.963	4.08
379.329	4.19
379.696	3.96
380.062	4.34
380.429	4
380.795	4.18
381.161	4.2
381.528	3.94
381.894	3.78
382.26	4
382.626	4
382.993	4
383.359	4.15
383.725	4.38
384.091	4.26
384.457	4.3
384.823	4.14
385.188	4.3
385.554	4.26
385.92	4.24
386.286	4.31
386.651	4.07
387.017	4.44
387.383	4.31
387.748	4.17
388.114	4.38
388.479	4.16
388.845	4.17
389.21	4.41
389.575	4.2
389.94	4.09
390.306	4.34
390.671	4.1
391.036	4.18
391.401	4.55
391.766	4.11
392.131	4.24
392.496	4.19
392.861	4.12
393.226	4.29
393.591	4.22
393.956	4.37
394.32	4.13
394.685	4.34
395.05	4.09
395.414	4.24
395.779	4.13
396.143	4.36
396.508	4.15
396.872	4.44
397.236	3.86
397.601	4.34
397.965	3.88
398.329	4.45
398.694	4.07
399.058	4.32
399.422	4.26
399.786	4.24
400.15	4.19
400.514	4.25
400.878	4.2
401.242	4.34
401.605	4.1
401.969	4.3
402.333	4.31
402.697	4.24
403.06	4.46
403.424	4.29
403.787	4.74
404.151	4.44
404.514	4.37
404.878	4.39
405.241	4.29
405.604	4.32
405.968	4.3
406.331	4.27
406.694	4.3
407.057	4.47
407.42	4.3
407.783	4.41
408.146	4.28
408.509	4.14
408.872	4.39
409.235	4.28
409.598	4.49
409.961	4.18
410.323	4.57
410.686	4.22
411.049	4.22
411.411	4.37
411.774	4.3
412.136	4.44
412.499	4.31
412.861	4.05
413.223	4.42
413.586	4.26
413.948	4.65
414.31	4.46
414.672	4.39
415.035	4.34
415.397	4.49
415.759	4.34
416.121	4.51
416.483	4.5
416.845	4.4
417.206	4.41
417.568	4.53
417.93	4.32
418.292	4.39
418.653	4.39
419.015	4.53
419.377	4.49
419.738	4.25
420.1	4.26
420.461	4.28
420.822	4.38
421.184	4.3
421.545	4.31
421.906	4.3
422.267	4.15
422.629	4.39
422.99	4.23
423.351	4.32
423.712	4.35
424.073	4.27
424.434	4.3
424.795	4.27
425.155	4.29
425.516	4.32
425.877	4.31
426.238	4.29
426.598	4.32
426.959	4.37
427.32	4.33
427.68	4.42
428.041	4.36
428.401	4.37
428.761	4.33
429.122	4.43
429.482	4.42
429.842	4.48
430.202	4.43
430.563	4.4
430.923	4.6
431.283	4.5
431.643	4.45
432.003	4.44
432.363	4.65
432.722	4.43
433.082	4.45
433.442	4.46
433.802	4.52
434.161	4.36
434.521	4.51
434.881	4.52
435.24	4.44
435.6	4.39
435.959	4.48
436.319	4.44
436.678	4.56
437.037	4.6
437.396	4.59
437.756	4.47
438.115	4.68
438.474	4.55
438.833	4.63
439.192	4.66
439.551	4.53
439.91	4.66
440.269	4.58
440.628	4.58
440.987	4.46
441.345	4.46
441.704	4.45
442.063	4.47
442.421	4.53
442.78	4.42
443.138	4.5
443.497	4.42
443.855	4.61
444.214	4.54
444.572	4.5
444.93	4.51
445.288	4.59
445.647	4.56
446.005	4.51
446.363	4.54
446.721	4.49
447.079	4.53
447.437	4.47
447.795	4.48
448.153	4.49
448.51	4.47
448.868	4.62
449.226	4.53
449.584	4.52
449.941	4.71
450.299	4.59
450.656	4.68
451.014	4.52
451.371	4.72
451.729	4.64
452.086	4.46
452.443	4.63
452.801	4.76
453.158	4.69
453.515	4.59
453.872	4.73
454.229	4.59
454.586	4.59
454.943	4.56
455.3	4.91
455.657	4.65
456.014	4.37
456.371	4.57
456.727	4.57
457.084	4.67
457.441	4.67
457.797	4.66
458.154	4.75
458.51	4.56
458.867	4.6
459.223	4.65
459.58	4.62
459.936	4.68
460.292	4.7
460.648	4.56
461.005	4.56
461.361	4.6
461.717	4.53
462.073	4.62
462.429	4.64
462.785	4.7
463.141	4.81
463.496	4.75
463.852	4.89
464.208	4.68
464.564	4.69
464.919	4.61
465.275	4.78
465.631	4.55
465.986	4.73
466.342	4.75
466.697	4.82
467.052	4.82
467.408	4.84
467.763	4.53
468.118	4.78
468.473	4.79
468.829	4.59
469.184	4.87
469.539	4.57
469.894	4.73
470.249	4.68
470.603	4.85
470.958	5
471.313	4.71
471.668	4.74
472.023	4.89
472.377	4.75
472.732	4.84
473.086	4.85
473.441	4.85
473.795	4.96
474.15	4.84
474.504	4.79
474.859	4.9
475.213	4.63
475.567	4.82
475.921	4.88
476.275	4.83
476.63	4.86
476.984	4.8
477.338	4.95
477.692	4.91
478.045	4.76
478.399	5.04
478.753	4.69
479.107	4.8
479.461	4.98
479.814	4.89
480.168	4.78
480.521	4.77
480.875	5
481.228	4.8
481.582	4.75
481.935	4.88
482.289	4.75
482.642	5.03
482.995	4.84
483.348	4.78
483.701	4.81
484.055	4.78
484.408	4.76
484.761	4.61
485.114	4.58
485.466	4.57
485.819	4.54
486.172	4.61
486.525	4.66
486.878	4.64
487.23	4.72
487.583	4.71
487.936	4.79
488.288	4.75
488.641	4.7
488.993	4.65
489.345	4.65
489.698	4.7
490.05	4.74
490.402	4.82
490.754	4.82
491.107	4.76
491.459	4.96
491.811	4.88
492.163	4.96
492.515	4.92
492.866	4.73
493.218	4.79
493.57	4.83
493.922	4.81
494.274	4.88
494.625	4.92
494.977	4.94
495.328	5
495.68	5.14
496.031	5.12
496.383	4.99
496.734	5.1
497.086	4.91
497.437	5.11
497.788	5.08
498.139	5.02
498.49	5.05
498.842	4.96
499.193	5.02
499.544	5.09
499.894	5.05
500.245	5.05
500.596	5
500.947	5.04
501.298	5.05
501.648	5.12
501.999	5.17
502.35	5.22
502.7	5.21
503.051	5.24
503.401	5.14
503.752	5.11
504.102	5.14
504.452	5.07
504.803	4.99
505.153	5.27
505.503	5.22
505.853	5.08
506.203	5.11
506.553	5.18
506.903	5.08
507.253	5.17
507.603	5.18
507.953	5.28
508.303	5.29
508.652	5.25
509.002	5.26
509.352	5.21
509.701	5.28
510.051	5.26
510.4	5.21
510.75	5.26
511.099	5.14
511.449	5.25
511.798	5.42
512.147	5.19
512.496	5.36
512.846	5.33
513.195	5.29
513.544	5.21
513.893	5.25
514.242	5.37
514.591	5.32
514.939	5.27
515.288	5.41
515.637	5.3
515.986	5.37
516.334	5.46
516.683	5.44
517.032	5.38
517.38	5.44
517.729	5.32
518.077	5.46
518.426	5.29
518.774	5.46
519.122	5.37
519.47	5.34
519.819	5.4
520.167	5.34
520.515	5.28
520.863	5.32
521.211	5.42
521.559	5.38
521.907	5.44
522.255	5.45
522.602	5.52
522.95	5.56
523.298	5.45
523.645	5.39
523.993	5.55
524.341	5.43
524.688	5.49
525.036	5.6
525.383	5.68
525.73	5.66
526.078	5.58
526.425	5.58
526.772	5.48
527.119	5.52
527.466	5.45
527.814	5.49
528.161	5.61
528.508	5.49
528.854	5.41
529.201	5.48
529.548	5.38
529.895	5.35
530.242	5.35
530.588	5.38
530.935	5.43
531.282	5.47
531.628	5.49
531.975	5.5
532.321	5.61
532.667	5.68
533.014	5.64
533.36	5.64
533.706	5.72
534.052	5.63
534.399	5.6
534.745	5.56
535.091	5.62
535.437	5.63
535.783	5.69
536.129	5.75
536.474	5.75
536.82	5.75
537.166	5.83
537.512	5.89
537.857	5.77
538.203	5.74
538.549	5.83
538.894	5.82
539.239	6.01
539.585	5.99
539.93	6.02
540.276	5.94
540.621	5.98
540.966	5.89
541.311	6.12
541.656	5.96
542.001	5.93
542.346	5.93
542.691	5.79
543.036	5.78
543.381	5.93
543.726	5.93
544.071	6
544.415	5.98
544.76	5.89
545.105	6.02
545.449	6.09
545.794	6.09
546.138	6.22
546.483	6.12
546.827	6.22
547.171	6.32
547.516	6.27
547.86	6.28
548.204	6.16
548.548	6.31
548.892	6.23
549.236	6.35
549.58	6.29
549.924	6.34
550.268	6.48
550.612	6.55
550.956	6.33
551.3	6.56
551.643	6.5
551.987	6.57
552.33	6.5
552.674	6.52
553.017	6.68
553.361	6.45
553.704	6.47
554.048	6.6
554.391	6.58
554.734	6.5
555.077	6.69
555.42	6.65
555.764	6.73
556.107	6.76
556.45	6.68
556.793	6.76
557.135	6.96
557.478	6.87
557.821	6.75
558.164	6.89
558.507	6.71
558.849	6.76
559.192	6.87
559.534	6.73
559.877	6.95
560.219	7.1
560.562	6.97
560.904	6.91
561.246	7
561.589	7.07
561.931	7.11
562.273	7.11
562.615	7.07
562.957	7.15
563.299	7.07
563.641	7.2
563.983	7.07
564.325	6.97
564.667	7.12
565.008	6.97
565.35	7.4
565.692	7.2
566.033	7.37
566.375	7.21
566.716	7.22
567.058	7.4
567.399	7.32
567.741	7.33
568.082	7.2
568.423	7.27
568.764	7.37
569.105	7.42
569.447	7.35
569.788	7.48
570.129	7.58
570.47	7.53
570.811	7.56
571.151	7.54
571.492	7.76
571.833	7.49
572.174	7.64
572.514	7.54
572.855	7.76
573.195	7.46
573.536	7.61
573.876	7.5
574.217	7.66
574.557	7.73
574.898	7.75
575.238	7.66
575.578	7.83
575.918	7.91
576.258	7.8
576.598	7.7
576.938	7.96
577.278	7.85
577.618	7.85
577.958	8.02
578.298	8.07
578.638	8
578.977	8.07
579.317	8.12
579.657	8.1
579.996	8.08
580.336	8.11
580.675	8.19
581.014	8.14
581.354	8.34
581.693	8.38
582.032	8.14
582.372	8.41
582.711	8.31
583.05	8.49
583.389	8.6
583.728	8.74
584.067	8.61
584.406	8.72
584.745	8.48
585.083	8.85
585.422	8.5
585.761	8.69
586.1	8.61
586.438	8.57
586.777	8.58
587.115	8.69
587.454	8.83
587.792	8.78
588.13	8.89
588.469	8.84
588.807	8.93
589.145	8.83
589.483	8.63
589.821	8.88
590.159	8.69
590.497	8.7
590.835	8.82
591.173	9.15
591.511	9.11
591.849	9.21
592.187	8.88
592.524	8.93
592.862	9.18
593.2	9.25
593.537	9.04
593.875	9.25
594.212	9.13
594.55	9.29
594.887	9.33
595.224	9.26
595.561	9.26
595.899	9.38
596.236	9.29
596.573	9.14
596.91	9.36
597.247	9.33
597.584	9.54
597.921	9.35
598.258	9.33
598.594	9.31
598.931	9.42
599.268	9.44
599.604	9.81
599.941	9.58
600.277	9.68
600.614	9.79
600.95	9.79
601.287	9.74
601.623	9.87
601.959	9.87
602.296	10.13
602.632	9.86
602.968	10.06
603.304	9.87
603.64	9.96
603.976	10.19
604.312	10.24
604.648	10.11
604.984	10.01
605.319	9.95
605.655	10.15
605.991	10.04
606.326	10.1
606.662	9.96
606.998	10.18
607.333	10.26
607.668	10.46
608.004	10.32
608.339	10.33
608.674	10.17
609.01	10.43
609.345	10.65
609.68	10.3
610.015	10.58
610.35	10.54
610.685	10.47
611.02	10.77
611.355	10.59
611.689	10.36
612.024	10.8
612.359	10.75
612.694	10.82
613.028	10.95
613.363	10.77
613.697	11.02
614.032	11.16
614.366	10.84
614.7	11.42
615.035	10.88
615.369	11.25
615.703	11.22
616.037	11.03
616.371	11.35
616.705	11.1
617.039	11.17
617.373	10.98
617.707	11.45
618.041	11.39
618.375	11.45
618.709	11.59
619.042	11.14
619.376	11.46
619.71	11.43
620.043	11.33
620.377	11.68
620.71	11.55
621.043	11.4
621.377	11.39
621.71	11.5
622.043	11.8
622.376	11.62
622.709	11.88
623.043	11.98
623.376	11.94
623.709	12.11
624.041	11.7
624.374	11.9
624.707	12
625.04	12.02
625.373	11.88
625.705	12.06
626.038	12.11
626.37	12.28
626.703	12.02
627.035	12.19
627.368	12.28
627.7	12.22
628.032	12.23
628.365	11.92
628.697	11.98
629.029	12.42
629.361	12.05
629.693	12.74
630.025	12.52
630.357	12.6
630.689	12.48
631.021	12.6
631.353	12.63
631.684	12.45
632.016	12.6
632.348	12.94
632.679	12.67
633.011	12.98
633.342	12.81
633.674	13.06
634.005	12.65
634.336	12.94
634.668	12.64
634.999	13.07
635.33	12.79
635.661	13.12
635.992	12.96
636.323	13.45
636.654	13.16
636.985	12.9
637.316	13.37
637.647	13.2
637.977	13.28
638.308	13.01
638.639	13.18
638.969	13.38
639.3	13.72
639.63	13.4
639.961	13.33
640.291	13.56
640.622	13.9
640.952	13.83
641.282	13.43
641.612	13.51
641.943	13.97
642.273	13.62
642.603	13.42
642.933	13.24
643.263	14.12
643.592	13.98
643.922	14.17
644.252	14.01
644.582	13.35
644.911	13.43
645.241	14.08
645.571	13.94
645.9	13.93
646.23	13.81
646.559	14.2
646.888	14.13
647.218	13.96
647.547	14.28
647.876	14.47
648.205	14.28
648.534	14.19
648.863	14.45
649.192	14.62
649.521	14.13
649.85	14.69
650.179	14.34
650.508	14.55
650.837	14.34
651.165	14.52
651.494	14.44
651.822	14.59
652.151	14.65
652.479	15.02
652.808	14.58
653.136	14.54
653.465	14.52
653.793	14.91
654.121	14.79
654.449	14.72
654.777	15.07
655.105	15.09
655.433	14.68
655.761	14.92
656.089	14.99
656.417	14.94
656.745	15.97
657.073	15.16
657.4	15.2
657.728	14.75
658.056	15.26
658.383	15.65
658.711	14.87
659.038	15.47
659.365	15.57
659.693	15.33
660.02	15.36
660.347	15.71
660.674	15.3
661.001	15.01
661.329	15.36
661.656	15.47
661.982	15.35
662.309	15.69
662.636	15.5
662.963	16.37
663.29	15.96
663.616	15.91
663.943	15.87
664.27	16.14
664.596	15.79
664.923	16.02
665.249	15.94
665.576	15.88
665.902	16.05
666.228	15.73
666.554	16.43
666.881	15.94
667.207	16.06
667.533	16.21
667.859	16.06
668.185	16.53
668.511	15.56
668.837	15.99
669.162	16.71
669.488	16.23
669.814	17.05
670.139	16.82
670.465	16.84
670.791	16.56
671.116	16.83
671.442	16.51
671.767	16.46
672.092	17.22
672.418	16.81
672.743	17.01
673.068	17
673.393	17.13
673.718	16.66
674.043	16.9
674.368	16.78
674.693	17.45
675.018	16.91
675.343	17.69
675.667	16.72
675.992	17.24
676.317	17.01
676.641	17.34
676.966	17.53
677.29	17.47
677.615	17.45
677.939	16.36
678.264	17.66
678.588	17.55
678.912	17.59
679.236	17.75
679.56	17.1
679.885	17.93
680.209	17.49
680.532	17.6
680.856	17.65
681.18	17.6
681.504	17.24
681.828	17.29
682.152	17.81
682.475	18.08
682.799	17.81
683.122	17.98
683.446	17.7
683.769	18.08
684.093	17.88
684.416	18.11
684.739	18.49
685.062	18.03
685.386	17.67
685.709	17.39
686.032	18.04
686.355	17.99
686.678	17.85
687.001	17.69
687.324	18
687.646	18.21
