Data from 0054_chest_Reflection__0__00.txt Node

Date: Fri Dec 16 13:49:38 CST 2022
User: ToomeyLab
Spectrometer: FLMS14357
Trigger mode: 0
Integration Time (sec): 1.000000E-2
Scans to average: 100
Electric dark correction enabled: true
Nonlinearity correction enabled: false
Boxcar width: 0
XAxis mode: Wavelengths
Number of Pixels in Spectrum: 2048
>>>>>Begin Spectral Data<<<<<
189.047	809.8
189.435	809.8
189.823	809.8
190.211	44.55
190.599	56.67
190.987	-41.58
191.375	7.87
191.763	69.29
192.151	238.56
192.538	72.95
192.926	-7.09
193.314	106.8
193.702	-608.7
194.089	169.75
194.477	26.81
194.864	-9.36
195.252	-459.39
195.639	130.65
196.027	-129.52
196.414	-541.41
196.801	188.65
197.189	124.72
197.576	56
197.963	289.61
198.351	29.4
198.738	19.37
199.125	30
199.512	35.72
199.899	-30.2
200.286	-8.04
200.673	18.85
201.06	20.64
201.447	22.98
201.833	41.66
202.22	37.54
202.607	9.86
202.994	8.43
203.38	-29.16
203.767	-30.65
204.154	-34.92
204.54	33.52
204.927	25.3
205.313	80.4
205.699	11.88
206.086	10.54
206.472	9.23
206.858	13.84
207.245	27.54
207.631	4.91
208.017	40.85
208.403	18.09
208.789	3.85
209.175	33.51
209.561	20.05
209.947	15.59
210.333	-6.36
210.719	-1.86
211.105	-24.23
211.491	10.07
211.876	16.44
212.262	-17.12
212.648	1.37
213.034	1.79
213.419	21.04
213.805	20.93
214.19	25.81
214.576	0.16
214.961	-14.98
215.346	6.66
215.732	17.4
216.117	14.78
216.502	-20.42
216.888	11.17
217.273	12.06
217.658	-20.68
218.043	12.68
218.428	23.17
218.813	0.76
219.198	-3.31
219.583	-0.91
219.968	10.73
220.353	20.96
220.738	5.08
221.122	3.48
221.507	22.83
221.892	14.57
222.276	8.23
222.661	-3.96
223.046	6.43
223.43	10.29
223.815	3.17
224.199	-0.65
224.583	1.76
224.968	8.78
225.352	0.09
225.736	2.69
226.121	-4.34
226.505	0.56
226.889	8.41
227.273	3.04
227.657	-1.22
228.041	2.89
228.425	0.74
228.809	2.51
229.193	1.68
229.577	1.84
229.961	2.22
230.344	2.26
230.728	1.89
231.112	1.62
231.495	1.67
231.879	0.9
232.263	0.25
232.646	1.17
233.03	0.58
233.413	1.44
233.797	4.8
234.18	1.24
234.563	1.83
234.946	1.22
235.33	2.84
235.713	1.32
236.096	2.74
236.479	1.28
236.862	3.92
237.245	3.14
237.628	2.1
238.011	1.96
238.394	4.55
238.777	3.45
239.16	0.27
239.543	0.24
239.925	2.1
240.308	4.61
240.691	1.93
241.073	2.44
241.456	0.95
241.838	2.33
242.221	2.71
242.603	2.05
242.986	2.72
243.368	2.27
243.75	1.24
244.133	1.74
244.515	1.76
244.897	1.66
245.279	1.98
245.661	2.9
246.043	1.1
246.425	1.8
246.807	2.05
247.189	1.58
247.571	1.94
247.953	1.63
248.335	2.04
248.717	1.82
249.098	1.94
249.48	1.47
249.862	2.21
250.243	1.68
250.625	1.99
251.006	1.93
251.388	2.35
251.769	2.19
252.151	2.35
252.532	1.95
252.913	2.14
253.295	1.84
253.676	2.22
254.057	1.64
254.438	1.72
254.819	2.91
255.2	2.2
255.581	2.03
255.962	2.25
256.343	1.81
256.724	1.21
257.105	1.51
257.486	1.39
257.867	1.14
258.247	2.39
258.628	2.66
259.009	1.88
259.389	2.41
259.77	2.33
260.15	2.33
260.531	2.17
260.911	1.93
261.292	1.88
261.672	1.73
262.052	1.64
262.432	1.62
262.813	1.89
263.193	1.46
263.573	1.58
263.953	1.54
264.333	2.17
264.713	1.51
265.093	1.97
265.473	1.94
265.853	2.14
266.233	1.67
266.612	2.31
266.992	1.44
267.372	1.89
267.752	1.62
268.131	1.81
268.511	2.1
268.89	1.8
269.27	1.96
269.649	1.95
270.029	1.47
270.408	1.52
270.787	1.67
271.167	1.98
271.546	1.43
271.925	1.32
272.304	1.89
272.683	1.65
273.062	2.02
273.441	1.63
273.82	2.04
274.199	2.01
274.578	1.25
274.957	2.27
275.336	1.43
275.715	1.74
276.093	1.86
276.472	2.11
276.851	1.83
277.229	2.6
277.608	1.84
277.986	1.92
278.365	1.73
278.743	1.84
279.122	1.32
279.5	1.91
279.878	1.73
280.257	1.7
280.635	1.62
281.013	2.14
281.391	1.49
281.769	1.57
282.147	2.23
282.525	1.84
282.903	1.74
283.281	1.71
283.659	1.57
284.037	1.9
284.415	1.56
284.792	1.39
285.17	1.66
285.548	1.54
285.925	1.76
286.303	1.71
286.68	1.91
287.058	1.72
287.435	1.37
287.813	1.99
288.19	1.84
288.567	1.54
288.945	1.9
289.322	1.48
289.699	2.24
290.076	2.42
290.453	1.64
290.83	1.99
291.207	1.7
291.584	1.58
291.961	1.96
292.338	1.95
292.715	1.91
293.092	1.67
293.469	2.18
293.845	2.16
294.222	1.71
294.599	2.2
294.975	2.48
295.352	1.55
295.728	1.72
296.105	1.45
296.481	2.43
296.858	2.17
297.234	2.03
297.61	1.94
297.986	1.78
298.363	1.69
298.739	1.97
299.115	1.54
299.491	2
299.867	2.15
300.243	1.94
300.619	1.62
300.995	2.1
301.371	2.06
301.746	1.91
302.122	1.85
302.498	2.07
302.874	2.05
303.249	2.13
303.625	2.25
304	1.62
304.376	1.76
304.751	2.25
305.127	2.33
305.502	2.34
305.878	1.58
306.253	2.13
306.628	2.24
307.003	2.24
307.378	1.74
307.754	2.31
308.129	2.04
308.504	2.38
308.879	1.49
309.254	2.26
309.629	1.94
310.003	2.24
310.378	2.19
310.753	2.17
311.128	2.14
311.502	1.95
311.877	2.23
312.252	2.08
312.626	2.14
313.001	1.85
313.375	2.23
313.75	2.04
314.124	2.46
314.498	1.95
314.873	2.16
315.247	1.88
315.621	2.48
315.995	2.27
316.369	2.33
316.743	2.49
317.117	2.13
317.491	2.47
317.865	1.53
318.239	2.7
318.613	2.23
318.987	2.03
319.361	2.23
319.734	2.59
320.108	2.25
320.482	1.95
320.855	2.22
321.229	2.39
321.602	2.59
321.976	2.22
322.349	1.32
322.723	1.45
323.096	1.87
323.469	2.02
323.843	2.62
324.216	1.97
324.589	2.69
324.962	2.5
325.335	1.9
325.708	2.41
326.081	2.82
326.454	2.14
326.827	2.17
327.2	2.69
327.573	2.33
327.945	2.27
328.318	1.98
328.691	2.2
329.063	2.38
329.436	2.02
329.809	2.14
330.181	2.02
330.553	2.56
330.926	2.9
331.298	1.9
331.671	2.43
332.043	2.27
332.415	2.6
332.787	2.74
333.159	1.91
333.532	2.27
333.904	2.08
334.276	2.24
334.648	2.35
335.02	2.33
335.391	2.44
335.763	2.53
336.135	2.38
336.507	2.51
336.879	2.43
337.25	2.15
337.622	2.33
337.993	2.47
338.365	2.71
338.736	2.46
339.108	2.51
339.479	1.97
339.851	2.41
340.222	2.47
340.593	1.74
340.964	2.05
341.336	2.15
341.707	2.33
342.078	2.12
342.449	2.65
342.82	2.46
343.191	2.12
343.562	2.35
343.933	2.33
344.303	2.59
344.674	2.54
345.045	2.57
345.416	2.31
345.786	2.02
346.157	2.56
346.527	2.32
346.898	2.56
347.268	2.42
347.639	2.55
348.009	2.47
348.38	2.34
348.75	2.41
349.12	2.43
349.49	2.43
349.861	2.58
350.231	3.05
350.601	2.52
350.971	2.62
351.341	2.51
351.711	2.22
352.081	2.43
352.45	2.44
352.82	2.87
353.19	2.33
353.56	2.23
353.929	2.61
354.299	2.57
354.669	2.94
355.038	2.15
355.408	2.76
355.777	2.37
356.147	2.36
356.516	2.64
356.885	2.12
357.254	2.42
357.624	2.39
357.993	2.16
358.362	2.48
358.731	2.22
359.1	2.92
359.469	2.54
359.838	2.23
360.207	2.24
360.576	2.66
360.945	2.41
361.314	2.48
361.682	2.48
362.051	2.37
362.42	2.8
362.788	2.6
363.157	2.3
363.525	2.42
363.894	2.3
364.262	2.56
364.631	2.84
364.999	2.55
365.367	2.71
365.735	2.14
366.104	2.27
366.472	2.73
366.84	2.63
367.208	2.35
367.576	2.59
367.944	2.85
368.312	2.24
368.68	2.96
369.048	2.84
369.416	2.46
369.783	2.71
370.151	2.57
370.519	2.26
370.886	2.5
371.254	2.61
371.621	2.32
371.989	2.47
372.356	2.55
372.724	2.65
373.091	2.51
373.458	2.74
373.826	2.4
374.193	2.93
374.56	2.51
374.927	2.55
375.294	2.85
375.661	2.92
376.028	2.52
376.395	2.61
376.762	2.82
377.129	2.79
377.496	2.83
377.863	2.72
378.229	2.61
378.596	2.83
378.963	2.6
379.329	2.56
379.696	2.58
380.062	2.74
380.429	2.51
380.795	2.29
381.161	2.67
381.528	2.16
381.894	2.61
382.26	2.7
382.626	2.41
382.993	2.39
383.359	2.49
383.725	2.95
384.091	2.63
384.457	2.95
384.823	2.59
385.188	3.07
385.554	2.62
385.92	2.95
386.286	2.85
386.651	2.81
387.017	2.63
387.383	2.78
387.748	2.61
388.114	2.96
388.479	2.84
388.845	2.79
389.21	2.87
389.575	3
389.94	2.71
390.306	2.62
390.671	2.68
391.036	2.92
391.401	3.14
391.766	2.69
392.131	2.73
392.496	2.73
392.861	2.53
393.226	2.81
393.591	2.76
393.956	3.14
394.32	2.81
394.685	2.93
395.05	2.72
395.414	2.62
395.779	2.81
396.143	2.86
396.508	3.07
396.872	3.06
397.236	2.5
397.601	3.1
397.965	2.76
398.329	2.99
398.694	2.65
399.058	3.18
399.422	2.84
399.786	2.77
400.15	2.74
400.514	2.7
400.878	2.63
401.242	2.99
401.605	2.64
401.969	2.87
402.333	2.7
402.697	3.1
403.06	2.84
403.424	2.84
403.787	2.95
404.151	2.72
404.514	2.82
404.878	2.98
405.241	2.91
405.604	2.95
405.968	2.85
406.331	2.81
406.694	2.96
407.057	3.15
407.42	2.95
407.783	2.85
408.146	2.82
408.509	2.9
408.872	2.84
409.235	3.03
409.598	3.19
409.961	3.08
410.323	2.93
410.686	2.8
411.049	2.88
411.411	2.94
411.774	2.77
412.136	3.07
412.499	2.85
412.861	2.82
413.223	3.11
413.586	2.93
413.948	3.1
414.31	3.17
414.672	2.86
415.035	3.11
415.397	3.05
415.759	3.06
416.121	3.41
416.483	3.22
416.845	3.09
417.206	3.17
417.568	3.08
417.93	2.95
418.292	2.93
418.653	2.99
419.015	3.13
419.377	3.02
419.738	3.04
420.1	3.06
420.461	2.89
420.822	3.12
421.184	2.94
421.545	2.89
421.906	2.99
422.267	2.84
422.629	2.95
422.99	2.96
423.351	3.05
423.712	2.94
424.073	3.05
424.434	2.86
424.795	2.9
425.155	3
425.516	2.99
425.877	2.99
426.238	2.87
426.598	2.98
426.959	2.94
427.32	2.98
427.68	3.09
428.041	3.11
428.401	3.06
428.761	2.96
429.122	3.06
429.482	2.92
429.842	3.06
430.202	3.17
430.563	3.11
430.923	3.08
431.283	3.27
431.643	3.09
432.003	3.19
432.363	3.24
432.722	3.19
433.082	3.11
433.442	3.06
433.802	3.09
434.161	3.1
434.521	3.24
434.881	3.2
435.24	3.06
435.6	3.06
435.959	3.14
436.319	2.96
436.678	3.14
437.037	3.25
437.396	3.2
437.756	3.01
438.115	3.13
438.474	3.16
438.833	3.22
439.192	3.39
439.551	3.29
439.91	3.26
440.269	3.38
440.628	3.11
440.987	3.13
441.345	3.08
441.704	3.26
442.063	3.15
442.421	3.14
442.78	3.2
443.138	3.08
443.497	3.06
443.855	3.25
444.214	3.28
444.572	3.21
444.93	3.36
445.288	3.17
445.647	3.32
446.005	3.18
446.363	3.24
446.721	3.03
447.079	3.21
447.437	3.23
447.795	3.16
448.153	3.13
448.51	3.15
448.868	3.24
449.226	3.26
449.584	3.28
449.941	3.34
450.299	3.2
450.656	3.2
451.014	3.22
451.371	3.34
451.729	3.45
452.086	3.43
452.443	3.27
452.801	3.49
453.158	3.32
453.515	3.31
453.872	3.44
454.229	3.18
454.586	3.25
454.943	3.25
455.3	3.39
455.657	3.4
456.014	3.34
456.371	3.46
456.727	3.41
457.084	3.36
457.441	3.35
457.797	3.31
458.154	3.39
458.51	3.43
458.867	3.34
459.223	3.46
459.58	3.31
459.936	3.36
460.292	3.41
460.648	3.3
461.005	3.25
461.361	3.33
461.717	3.31
462.073	3.33
462.429	3.36
462.785	3.41
463.141	3.56
463.496	3.32
463.852	3.61
464.208	3.46
464.564	3.41
464.919	3.52
465.275	3.47
465.631	3.49
465.986	3.29
466.342	3.58
466.697	3.44
467.052	3.51
467.408	3.62
467.763	3.32
468.118	3.44
468.473	3.62
468.829	3.37
469.184	3.53
469.539	3.26
469.894	3.6
470.249	3.54
470.603	3.63
470.958	3.56
471.313	3.48
471.668	3.62
472.023	3.63
472.377	3.44
472.732	3.42
473.086	3.32
473.441	3.65
473.795	3.71
474.15	3.49
474.504	3.62
474.859	3.55
475.213	3.56
475.567	3.38
475.921	3.72
476.275	3.61
476.63	3.52
476.984	3.53
477.338	3.79
477.692	3.63
478.045	3.51
478.399	3.68
478.753	3.56
479.107	3.68
479.461	3.61
479.814	3.57
480.168	3.66
480.521	3.54
480.875	3.66
481.228	3.79
481.582	3.58
481.935	3.68
482.289	3.45
482.642	3.7
482.995	3.52
483.348	3.64
483.701	3.54
484.055	3.49
484.408	3.52
484.761	3.38
485.114	3.43
485.466	3.44
485.819	3.46
486.172	3.48
486.525	3.53
486.878	3.53
487.23	3.59
487.583	3.56
487.936	3.66
488.288	3.58
488.641	3.54
488.993	3.43
489.345	3.5
489.698	3.56
490.05	3.58
490.402	3.63
490.754	3.68
491.107	3.62
491.459	3.72
491.811	3.72
492.163	3.74
492.515	3.65
492.866	3.65
493.218	3.62
493.57	3.7
493.922	3.71
494.274	3.71
494.625	3.63
494.977	3.7
495.328	3.94
495.68	3.96
496.031	3.89
496.383	3.83
496.734	3.85
497.086	3.83
497.437	3.96
497.788	3.87
498.139	3.91
498.49	3.88
498.842	3.85
499.193	3.8
499.544	4
499.894	3.94
500.245	3.93
500.596	3.91
500.947	3.93
501.298	3.84
501.648	4.07
501.999	4.09
502.35	4
502.7	3.98
503.051	4.14
503.401	3.99
503.752	4.09
504.102	4.06
504.452	4.04
504.803	3.87
505.153	4.13
505.503	3.99
505.853	3.92
506.203	4.04
506.553	4.11
506.903	4.05
507.253	4.09
507.603	3.95
507.953	4.21
508.303	4.17
508.652	4.09
509.002	4.21
509.352	4.11
509.701	4.13
510.051	4.18
510.4	4.12
510.75	4.14
511.099	4.16
511.449	4.19
511.798	4.14
512.147	4.23
512.496	4.23
512.846	4.13
513.195	4.25
513.544	4.26
513.893	4.07
514.242	4.23
514.591	4.23
514.939	4.18
515.288	4.21
515.637	4.25
515.986	4.24
516.334	4.4
516.683	4.32
517.032	4.31
517.38	4.3
517.729	4.34
518.077	4.32
518.426	4.33
518.774	4.32
519.122	4.36
519.47	4.32
519.819	4.34
520.167	4.34
520.515	4.29
520.863	4.35
521.211	4.38
521.559	4.38
521.907	4.29
522.255	4.54
522.602	4.38
522.95	4.44
523.298	4.34
523.645	4.44
523.993	4.56
524.341	4.56
524.688	4.49
525.036	4.58
525.383	4.52
525.73	4.64
526.078	4.53
526.425	4.45
526.772	4.34
527.119	4.44
527.466	4.5
527.814	4.47
528.161	4.53
528.508	4.56
528.854	4.42
529.201	4.46
529.548	4.46
529.895	4.45
530.242	4.44
530.588	4.49
530.935	4.46
531.282	4.56
531.628	4.56
531.975	4.66
532.321	4.64
532.667	4.65
533.014	4.73
533.36	4.7
533.706	4.75
534.052	4.65
534.399	4.7
534.745	4.65
535.091	4.69
535.437	4.72
535.783	4.78
536.129	4.74
536.474	4.85
536.82	4.85
537.166	4.96
537.512	4.92
537.857	4.82
538.203	4.89
538.549	4.88
538.894	4.9
539.239	5
539.585	5.11
539.93	5.1
540.276	5.08
540.621	5.01
540.966	4.97
541.311	5.13
541.656	4.92
542.001	5.04
542.346	5.04
542.691	4.93
543.036	4.94
543.381	5
543.726	5.04
544.071	5.09
544.415	5.06
544.76	5.06
545.105	5.2
545.449	5.21
545.794	5.27
546.138	5.36
546.483	5.32
546.827	5.32
547.171	5.38
547.516	5.37
547.86	5.27
548.204	5.49
548.548	5.52
548.892	5.44
549.236	5.47
549.58	5.59
549.924	5.54
550.268	5.5
550.612	5.66
550.956	5.54
551.3	5.61
551.643	5.62
551.987	5.59
552.33	5.59
552.674	5.72
553.017	5.56
553.361	5.7
553.704	5.61
554.048	5.86
554.391	5.74
554.734	5.73
555.077	5.8
555.42	5.84
555.764	5.9
556.107	5.82
556.45	5.93
556.793	6.02
557.135	6.01
557.478	5.97
557.821	5.9
558.164	6.12
558.507	5.95
558.849	5.99
559.192	6.18
559.534	5.83
559.877	6.21
560.219	6.4
560.562	6.23
560.904	6.07
561.246	6.27
561.589	6.36
561.931	6.41
562.273	6.26
562.615	6.23
562.957	6.44
563.299	6.42
563.641	6.42
563.983	6.2
564.325	6.11
564.667	6.35
565.008	6.41
565.35	6.47
565.692	6.43
566.033	6.5
566.375	6.47
566.716	6.5
567.058	6.46
567.399	6.52
567.741	6.57
568.082	6.44
568.423	6.46
568.764	6.6
569.105	6.7
569.447	6.61
569.788	6.8
570.129	6.76
570.47	6.77
570.811	6.77
571.151	6.95
571.492	6.93
571.833	6.99
572.174	6.77
572.514	6.95
572.855	7.02
573.195	6.89
573.536	6.87
573.876	7.01
574.217	7.08
574.557	7.04
574.898	6.96
575.238	7.02
575.578	7.09
575.918	7.2
576.258	7.06
576.598	6.97
576.938	7.27
577.278	7.27
577.618	7.4
577.958	7.17
578.298	7.53
578.638	7.43
578.977	7.39
579.317	7.62
579.657	7.4
579.996	7.51
580.336	7.47
580.675	7.48
581.014	7.46
581.354	7.67
581.693	7.58
582.032	7.58
582.372	7.71
582.711	7.7
583.05	7.88
583.389	7.72
583.728	7.82
584.067	7.98
584.406	7.88
584.745	7.7
585.083	8.12
585.422	8.03
585.761	8.13
586.1	8.16
586.438	8.2
586.777	8.07
587.115	8.27
587.454	8.19
587.792	8.05
588.13	8.46
588.469	8.32
588.807	8.43
589.145	8.48
589.483	7.89
589.821	8.45
590.159	8.37
590.497	8.18
590.835	8.32
591.173	8.4
591.511	8.51
591.849	8.66
592.187	8.59
592.524	8.54
592.862	8.27
593.2	8.72
593.537	8.5
593.875	8.7
594.212	8.43
594.55	8.68
594.887	8.64
595.224	8.57
595.561	8.68
595.899	8.92
596.236	8.86
596.573	8.76
596.91	9
597.247	8.61
597.584	9.07
597.921	8.79
598.258	8.81
598.594	8.97
598.931	8.86
599.268	8.78
599.604	9.29
599.941	8.99
600.277	9.06
600.614	9.19
600.95	9.38
601.287	9.44
601.623	9.4
601.959	8.98
602.296	9.24
602.632	9.49
602.968	9.51
603.304	9.51
603.64	9.4
603.976	9.49
604.312	9.67
604.648	9.62
604.984	9.43
605.319	9.55
605.655	9.56
605.991	9.66
606.326	9.58
606.662	9.43
606.998	9.68
607.333	9.69
607.668	9.86
608.004	9.7
608.339	9.75
608.674	9.8
609.01	9.96
609.345	10.06
609.68	9.78
610.015	10.01
610.35	9.94
610.685	9.98
611.02	10.17
611.355	10
611.689	9.77
612.024	10.5
612.359	10.22
612.694	10.28
613.028	10.41
613.363	10.18
613.697	10.3
614.032	10.53
614.366	10.4
614.7	10.79
615.035	10.7
615.369	10.71
615.703	10.88
616.037	10.82
616.371	10.33
616.705	10.77
617.039	11.01
617.373	10.63
617.707	10.81
618.041	10.64
618.375	10.67
618.709	10.91
619.042	10.74
619.376	10.77
619.71	10.73
620.043	10.93
620.377	10.9
620.71	10.94
621.043	10.95
621.377	11.16
621.71	11.19
622.043	11.55
622.376	10.85
622.709	11.48
623.043	11.24
623.376	11.52
623.709	11.65
624.041	11.31
624.374	11.69
624.707	11.5
625.04	11.72
625.373	11.27
625.705	11.63
626.038	11.4
626.37	11.31
626.703	11.58
627.035	11.58
627.368	11.47
627.7	11.75
628.032	11.9
628.365	11.69
628.697	11.63
629.029	11.84
629.361	11.72
629.693	12.09
630.025	11.83
630.357	12.11
630.689	12.34
631.021	11.94
631.353	12.17
631.684	12.48
632.016	11.85
632.348	12.36
632.679	11.89
633.011	12.44
633.342	12.34
633.674	12.21
634.005	12.5
634.336	12.49
634.668	12.61
634.999	12.51
635.33	12.52
635.661	12.64
635.992	12.68
636.323	12.56
636.654	12.84
636.985	12.48
637.316	12.78
637.647	12.99
637.977	12.69
638.308	12.49
638.639	12.7
638.969	12.91
639.3	12.88
639.63	12.72
639.961	12.96
640.291	13.6
640.622	13.16
640.952	13.06
641.282	12.77
641.612	13.34
641.943	13.38
642.273	13.24
642.603	13.47
642.933	13.29
643.263	13.58
643.592	13.52
643.922	14.13
644.252	13.62
644.582	13.4
644.911	13
645.241	13.6
645.571	13.56
645.9	13.65
646.23	13.65
646.559	13.36
646.888	13.81
647.218	13.75
647.547	13.83
647.876	13.97
648.205	13.63
648.534	13.64
648.863	14.27
649.192	13.99
649.521	13.72
649.85	14.16
650.179	13.8
650.508	13.98
650.837	13.79
651.165	14.32
651.494	14.41
651.822	14.38
652.151	13.98
652.479	14.24
652.808	13.87
653.136	14.1
653.465	14.48
653.793	14.43
654.121	14.54
654.449	14.32
654.777	14.91
655.105	14.51
655.433	14.58
655.761	14
656.089	14.16
656.417	14.34
656.745	15.13
657.073	15.4
657.4	14.6
657.728	14.86
658.056	15.23
658.383	14.99
658.711	14.55
659.038	14.69
659.365	14.86
659.693	14.93
660.02	15.2
660.347	15.09
660.674	15
661.001	14.52
661.329	14.66
661.656	14.86
661.982	14.87
662.309	14.79
662.636	15.07
662.963	15.55
663.29	15.21
663.616	15.12
663.943	15.6
664.27	15.36
664.596	15.86
664.923	16
665.249	15.5
665.576	15.39
665.902	15.7
666.228	15.31
666.554	15.6
666.881	16.2
667.207	15.74
667.533	16.01
667.859	15.35
668.185	15.87
668.511	15.51
668.837	15.33
669.162	16.37
669.488	15.75
669.814	16.55
670.139	16.6
670.465	15.95
670.791	16.47
671.116	16.02
671.442	15.92
671.767	15.72
672.092	16.48
672.418	16.8
672.743	16.11
673.068	16.25
673.393	16.72
673.718	16.33
674.043	16.67
674.368	16.69
674.693	17.05
675.018	16.6
675.343	16.97
675.667	16.73
675.992	16.13
676.317	16.72
676.641	16.78
676.966	16.76
677.29	16.37
677.615	16.6
677.939	16.37
678.264	17.19
678.588	17.1
678.912	17.01
679.236	17.31
679.56	16.92
679.885	17.08
680.209	16.3
680.532	16.62
680.856	17.22
681.18	17.56
681.504	16.9
681.828	16.84
682.152	17.37
682.475	17
682.799	17.62
683.122	17.07
683.446	16.92
683.769	17.9
684.093	17.24
684.416	17.4
684.739	18.18
685.062	17.69
685.386	18.05
685.709	17.15
686.032	16.95
686.355	17.35
686.678	17.82
687.001	17.03
687.324	17.47
687.646	17.57
687.969	18.36
