Data from 0054_crown_Reflection__4__09.txt Node

Date: Fri Dec 16 13:52:16 CST 2022
User: ToomeyLab
Spectrometer: FLMS14357
Trigger mode: 0
Integration Time (sec): 1.000000E-2
Scans to average: 100
Electric dark correction enabled: true
Nonlinearity correction enabled: false
Boxcar width: 0
XAxis mode: Wavelengths
Number of Pixels in Spectrum: 2048
>>>>>Begin Spectral Data<<<<<
189.047	387.1
189.435	387.1
189.823	387.1
190.211	105.51
190.599	110.32
190.987	73.62
191.375	-52.18
191.763	73.15
192.151	35.45
192.538	79.72
192.926	150.28
193.314	59.68
193.702	314.01
194.089	-14.62
194.477	1.81
194.864	6.2
195.252	-44.29
195.639	62.6
196.027	-80.65
196.414	604.47
196.801	173.89
197.189	74.08
197.576	25.23
197.963	47.25
198.351	18.24
198.738	-37.06
199.125	8.62
199.512	9.82
199.899	-4.53
200.286	-4.47
200.673	54.11
201.06	41.27
201.447	42.99
201.833	22.24
202.22	32.07
202.607	-12.74
202.994	17.25
203.38	20.67
203.767	-24.13
204.154	-59.71
204.54	34.15
204.927	15.11
205.313	29.78
205.699	4.06
206.086	8.2
206.472	7.01
206.858	0.78
207.245	11.3
207.631	21.8
208.017	58.76
208.403	25.92
208.789	36.22
209.175	31.72
209.561	12.04
209.947	-0.09
210.333	12.57
210.719	23.49
211.105	-0.06
211.491	1.5
211.876	5.43
212.262	-18.94
212.648	-34.34
213.034	10.49
213.419	23.16
213.805	-12.2
214.19	3.81
214.576	-8.1
214.961	-0.41
215.346	3.22
215.732	-1.73
216.117	-20.17
216.502	27.82
216.888	15.34
217.273	20.55
217.658	8.55
218.043	5.18
218.428	-2.62
218.813	-0.6
219.198	-25.15
219.583	2.86
219.968	9.76
220.353	5.64
220.738	8.91
221.122	0.6
221.507	25.05
221.892	21.14
222.276	11.9
222.661	-2.9
223.046	0.21
223.43	-3.16
223.815	2.57
224.199	8.55
224.583	4.62
224.968	8.74
225.352	1.56
225.736	8.23
226.121	-3.89
226.505	12.78
226.889	10.47
227.273	9.21
227.657	4.57
228.041	7.72
228.425	6.71
228.809	5.98
229.193	5.14
229.577	4.34
229.961	5.66
230.344	5.05
230.728	5.45
231.112	5.22
231.495	3.96
231.879	4.05
232.263	3.39
232.646	4.77
233.03	3.96
233.413	5.5
233.797	6.88
234.18	1.57
234.563	4.4
234.946	5.41
235.33	4.2
235.713	4.56
236.096	5.29
236.479	6.33
236.862	5.75
237.245	6.19
237.628	4.2
238.011	4.08
238.394	5.56
238.777	5.96
239.16	3.97
239.543	3.39
239.925	5.63
240.308	5.3
240.691	4.19
241.073	6.36
241.456	3.37
241.838	3.92
242.221	4.65
242.603	3.86
242.986	5.41
243.368	4.43
243.75	3.95
244.133	4.53
244.515	4.12
244.897	4.72
245.279	4.36
245.661	4.4
246.043	4.24
246.425	4.35
246.807	4.91
247.189	4.04
247.571	3.82
247.953	4.04
248.335	4.12
248.717	4.29
249.098	4.17
249.48	3.78
249.862	4.48
250.243	3.97
250.625	4.43
251.006	4.35
251.388	5.04
251.769	3.79
252.151	4.12
252.532	4.13
252.913	3.83
253.295	4.1
253.676	4.42
254.057	4.03
254.438	3.83
254.819	3.99
255.2	4.77
255.581	2.96
255.962	5.01
256.343	5.47
256.724	4.41
257.105	4.74
257.486	4.45
257.867	2.97
258.247	3.77
258.628	4.12
259.009	3.82
259.389	4.16
259.77	3.25
260.15	4.49
260.531	4.24
260.911	3.63
261.292	3.74
261.672	3.71
262.052	3.86
262.432	3.75
262.813	3.91
263.193	3.36
263.573	4.35
263.953	3.76
264.333	3.39
264.713	3.78
265.093	3.71
265.473	4.29
265.853	3.98
266.233	3.73
266.612	3.62
266.992	3.38
267.372	3.72
267.752	3.14
268.131	3.66
268.511	3.87
268.89	4.44
269.27	4.6
269.649	3.99
270.029	3.94
270.408	3.69
270.787	4.01
271.167	4.18
271.546	3.44
271.925	3.83
272.304	3.61
272.683	3.29
273.062	3.9
273.441	3.87
273.82	3.89
274.199	3.96
274.578	3.6
274.957	3.86
275.336	3.35
275.715	4.29
276.093	4.57
276.472	3.59
276.851	3.71
277.229	4.07
277.608	3.85
277.986	3.84
278.365	3.41
278.743	3.83
279.122	3.1
279.5	3.03
279.878	2.81
280.257	3.33
280.635	3.32
281.013	3.96
281.391	3.56
281.769	3.28
282.147	3.62
282.525	3.49
282.903	3.61
283.281	3.49
283.659	3.72
284.037	3.52
284.415	3.72
284.792	3.46
285.17	3.07
285.548	3.82
285.925	3.57
286.303	3.37
286.68	3.43
287.058	3.4
287.435	3.3
287.813	3.54
288.19	3.86
288.567	3.24
288.945	3.75
289.322	3.34
289.699	3.7
290.076	3.48
290.453	3.37
290.83	3.63
291.207	3.24
291.584	3.21
291.961	3.55
292.338	3.5
292.715	3.37
293.092	3.31
293.469	3.43
293.845	3.82
294.222	3.24
294.599	3.87
294.975	3.43
295.352	3.06
295.728	3.32
296.105	3.23
296.481	3.69
296.858	3.56
297.234	3.56
297.61	3.74
297.986	3.24
298.363	3.04
298.739	3.3
299.115	2.89
299.491	3.3
299.867	3.35
300.243	2.85
300.619	3.12
300.995	3.83
301.371	3.48
301.746	3.24
302.122	3.79
302.498	3.19
302.874	3.26
303.249	3.31
303.625	3.14
304	3.41
304.376	3.23
304.751	3.39
305.127	3.04
305.502	3.57
305.878	2.73
306.253	3.18
306.628	3.45
307.003	3.73
307.378	2.8
307.754	3.28
308.129	3.37
308.504	3.14
308.879	3.6
309.254	3.56
309.629	3
310.003	3.41
310.378	3.45
310.753	3.47
311.128	3.06
311.502	3.35
311.877	3.1
312.252	3.12
312.626	2.61
313.001	3.3
313.375	3.29
313.75	3.26
314.124	3.51
314.498	3.14
314.873	3.33
315.247	2.92
315.621	3.78
315.995	3.42
316.369	3.54
316.743	3.69
317.117	2.76
317.491	3.49
317.865	2.77
318.239	3.38
318.613	3.15
318.987	3.13
319.361	3.14
319.734	3.46
320.108	2.92
320.482	2.91
320.855	3.45
321.229	3.76
321.602	3.37
321.976	3.34
322.349	2.91
322.723	2.55
323.096	3.09
323.469	3.04
323.843	3.45
324.216	2.6
324.589	4.01
324.962	3.44
325.335	3.33
325.708	3.33
326.081	3.51
326.454	3.36
326.827	3.4
327.2	3.55
327.573	3.59
327.945	3.14
328.318	3.26
328.691	3.33
329.063	3.5
329.436	3.06
329.809	2.73
330.181	3.1
330.553	3.43
330.926	3.46
331.298	2.88
331.671	2.96
332.043	3.24
332.415	3.89
332.787	3.75
333.159	3.55
333.532	3.5
333.904	3.56
334.276	3.31
334.648	3.64
335.02	3.25
335.391	3.8
335.763	3.14
336.135	3.39
336.507	3.72
336.879	3.35
337.25	3.28
337.622	3.87
337.993	3.27
338.365	3.69
338.736	3.44
339.108	3.19
339.479	3.2
339.851	3.57
340.222	3.49
340.593	3.06
340.964	3.02
341.336	2.95
341.707	2.89
342.078	2.98
342.449	3.46
342.82	2.96
343.191	2.75
343.562	3.33
343.933	3.61
344.303	3.04
344.674	3.19
345.045	3.89
345.416	3.25
345.786	3.06
346.157	3.41
346.527	3.18
346.898	3.31
347.268	3.55
347.639	3.15
348.009	3.76
348.38	3.19
348.75	3.24
349.12	3.19
349.49	3.27
349.861	3.63
350.231	3.48
350.601	3.57
350.971	3.42
351.341	3.72
351.711	3.59
352.081	3.49
352.45	3.67
352.82	3.17
353.19	3.25
353.56	3.3
353.929	3.39
354.299	2.94
354.669	3.25
355.038	3.11
355.408	3.54
355.777	3.24
356.147	3.43
356.516	3.66
356.885	3.4
357.254	3.57
357.624	3.26
357.993	3.35
358.362	3.54
358.731	3.17
359.1	3.55
359.469	3.26
359.838	3.23
360.207	3.23
360.576	3.35
360.945	3.19
361.314	3.57
361.682	3.1
362.051	3.37
362.42	3.85
362.788	3.31
363.157	3.31
363.525	3.41
363.894	3.19
364.262	3.38
364.631	4
364.999	3.24
365.367	3.55
365.735	3
366.104	3.37
366.472	3.4
366.84	3.19
367.208	3.1
367.576	3.52
367.944	3.77
368.312	3.36
368.68	3.6
369.048	3.64
369.416	3.36
369.783	3.51
370.151	3.23
370.519	3.23
370.886	3.44
371.254	3.59
371.621	3.72
371.989	3.46
372.356	3.47
372.724	3.42
373.091	3.43
373.458	3.63
373.826	3.33
374.193	3.78
374.56	3.49
374.927	3.46
375.294	3.68
375.661	3.55
376.028	3.62
376.395	3.52
376.762	3.82
377.129	3.69
377.496	3.5
377.863	3.41
378.229	3.46
378.596	3.47
378.963	3.32
379.329	3.61
379.696	3.41
380.062	4.12
380.429	3.6
380.795	3.43
381.161	3.58
381.528	3.23
381.894	3.7
382.26	3.4
382.626	3.22
382.993	3.37
383.359	3.43
383.725	3.58
384.091	3.53
384.457	3.32
384.823	3.59
385.188	3.98
385.554	3.66
385.92	3.79
386.286	3.7
386.651	3.49
387.017	3.74
387.383	3.36
387.748	3.34
388.114	3.83
388.479	3.96
388.845	3.64
389.21	3.74
389.575	3.56
389.94	3.67
390.306	3.63
390.671	3.44
391.036	3.67
391.401	3.73
391.766	3.36
392.131	3.41
392.496	3.31
392.861	3.49
393.226	3.73
393.591	3.64
393.956	3.78
394.32	3.68
394.685	3.66
395.05	3.28
395.414	3.7
395.779	3.65
396.143	3.7
396.508	3.83
396.872	3.88
397.236	3.41
397.601	3.69
397.965	3.4
398.329	3.73
398.694	3.49
399.058	3.79
399.422	3.59
399.786	3.69
400.15	3.66
400.514	3.8
400.878	3.65
401.242	3.84
401.605	3.69
401.969	3.52
402.333	3.72
402.697	3.68
403.06	3.85
403.424	3.69
403.787	3.62
404.151	3.51
404.514	3.76
404.878	3.77
405.241	3.84
405.604	3.75
405.968	3.86
406.331	3.7
406.694	3.72
407.057	4.1
407.42	3.75
407.783	3.65
408.146	3.69
408.509	3.59
408.872	3.58
409.235	3.67
409.598	3.9
409.961	3.67
410.323	3.57
410.686	3.78
411.049	3.68
411.411	3.73
411.774	3.68
412.136	3.66
412.499	3.7
412.861	3.72
413.223	3.83
413.586	3.5
413.948	3.87
414.31	3.88
414.672	3.6
415.035	4.16
415.397	3.77
415.759	3.86
416.121	4.05
416.483	3.88
416.845	3.73
417.206	3.83
417.568	3.79
417.93	3.71
418.292	3.77
418.653	3.69
419.015	3.77
419.377	3.8
419.738	3.75
420.1	3.7
420.461	3.56
420.822	3.75
421.184	3.65
421.545	3.75
421.906	3.72
422.267	3.48
422.629	3.68
422.99	3.69
423.351	3.75
423.712	3.68
424.073	3.75
424.434	3.58
424.795	3.66
425.155	3.69
425.516	3.63
425.877	3.64
426.238	3.58
426.598	3.78
426.959	3.63
427.32	3.75
427.68	3.83
428.041	3.73
428.401	3.74
428.761	3.79
429.122	3.79
429.482	3.76
429.842	3.8
430.202	3.9
430.563	3.8
430.923	3.82
431.283	3.8
431.643	3.76
432.003	4.02
432.363	3.94
432.722	3.87
433.082	3.86
433.442	3.8
433.802	3.87
434.161	3.64
434.521	3.68
434.881	3.86
435.24	3.69
435.6	3.84
435.959	3.82
436.319	3.71
436.678	3.79
437.037	3.87
437.396	3.71
437.756	3.82
438.115	3.77
438.474	3.89
438.833	3.97
439.192	3.92
439.551	3.91
439.91	3.95
440.269	3.96
440.628	3.7
440.987	3.65
441.345	3.77
441.704	3.83
442.063	3.75
442.421	3.83
442.78	3.71
443.138	3.75
443.497	3.73
443.855	3.74
444.214	3.86
444.572	3.73
444.93	3.89
445.288	3.94
445.647	3.87
446.005	3.82
446.363	3.76
446.721	3.61
447.079	3.74
447.437	3.66
447.795	3.79
448.153	3.65
448.51	3.71
448.868	3.89
449.226	3.82
449.584	3.79
449.941	3.87
450.299	3.82
450.656	3.88
451.014	3.82
451.371	3.89
451.729	3.88
452.086	3.59
452.443	3.97
452.801	3.93
453.158	3.77
453.515	3.72
453.872	3.98
454.229	3.71
454.586	3.77
454.943	3.78
455.3	3.91
455.657	3.83
456.014	3.85
456.371	3.89
456.727	3.79
457.084	3.85
457.441	3.79
457.797	3.72
458.154	3.89
458.51	3.8
458.867	3.71
459.223	3.85
459.58	3.96
459.936	3.75
460.292	3.76
460.648	3.61
461.005	3.68
461.361	3.73
461.717	3.77
462.073	3.78
462.429	3.97
462.785	3.93
463.141	3.97
463.496	3.83
463.852	4.06
464.208	3.96
464.564	3.83
464.919	3.92
465.275	4.03
465.631	3.92
465.986	3.81
466.342	3.91
466.697	3.78
467.052	3.89
467.408	3.86
467.763	3.82
468.118	3.86
468.473	4.06
468.829	3.89
469.184	3.96
469.539	3.92
469.894	3.82
470.249	3.82
470.603	3.87
470.958	3.97
471.313	3.77
471.668	4.05
472.023	4.03
472.377	4.01
472.732	3.83
473.086	3.73
473.441	3.86
473.795	3.93
474.15	3.74
474.504	3.84
474.859	3.95
475.213	3.83
475.567	3.83
475.921	4.01
476.275	3.95
476.63	3.9
476.984	3.93
477.338	4.01
477.692	3.93
478.045	3.82
478.399	3.89
478.753	3.8
479.107	3.89
479.461	3.89
479.814	3.75
480.168	3.95
480.521	3.9
480.875	3.98
481.228	3.89
481.582	3.88
481.935	3.84
482.289	3.8
482.642	3.84
482.995	3.79
483.348	3.78
483.701	3.79
484.055	3.73
484.408	3.62
484.761	3.44
485.114	3.44
485.466	3.49
485.819	3.6
486.172	3.7
486.525	3.8
486.878	3.78
487.23	3.79
487.583	3.76
487.936	3.77
488.288	3.62
488.641	3.61
488.993	3.55
489.345	3.6
489.698	3.69
490.05	3.79
490.402	3.81
490.754	3.88
491.107	3.82
491.459	3.84
491.811	3.88
492.163	3.82
492.515	3.67
492.866	3.55
493.218	3.62
493.57	3.74
493.922	3.82
494.274	3.92
494.625	3.84
494.977	3.91
495.328	3.93
495.68	4.02
496.031	3.97
496.383	3.91
496.734	3.96
497.086	3.85
497.437	3.85
497.788	3.76
498.139	3.8
498.49	3.78
498.842	3.77
499.193	3.86
499.544	3.9
499.894	3.87
500.245	3.86
500.596	3.99
500.947	3.98
501.298	3.91
501.648	3.87
501.999	3.97
502.35	3.89
502.7	3.97
503.051	4.01
503.401	3.97
503.752	3.87
504.102	3.92
504.452	3.79
504.803	3.72
505.153	3.94
505.503	3.86
505.853	3.78
506.203	3.98
506.553	3.9
506.903	3.9
507.253	3.9
507.603	3.83
507.953	4.09
508.303	3.83
508.652	3.76
509.002	3.97
509.352	3.8
509.701	3.84
510.051	3.85
510.4	3.87
510.75	3.83
511.099	3.84
511.449	3.86
511.798	4
512.147	3.7
512.496	3.86
512.846	3.77
513.195	3.82
513.544	3.79
513.893	3.71
514.242	3.95
514.591	3.97
514.939	3.78
515.288	3.92
515.637	3.91
515.986	3.9
516.334	3.93
516.683	3.92
517.032	3.9
517.38	3.9
517.729	3.92
518.077	3.85
518.426	3.75
518.774	3.78
519.122	3.83
519.47	3.81
519.819	3.78
520.167	3.84
520.515	3.73
520.863	3.81
521.211	3.78
521.559	3.92
521.907	3.92
522.255	3.9
522.602	3.99
522.95	3.94
523.298	3.87
523.645	3.83
523.993	4.04
524.341	3.88
524.688	3.88
525.036	3.97
525.383	3.87
525.73	3.97
526.078	3.91
526.425	3.88
526.772	3.62
527.119	3.64
527.466	3.75
527.814	3.78
528.161	3.83
528.508	3.78
528.854	3.7
529.201	3.66
529.548	3.59
529.895	3.49
530.242	3.53
530.588	3.63
530.935	3.73
531.282	3.76
531.628	3.79
531.975	3.83
532.321	3.81
532.667	3.75
533.014	3.77
533.36	3.8
533.706	3.67
534.052	3.68
534.399	3.61
534.745	3.6
535.091	3.65
535.437	3.75
535.783	3.88
536.129	3.83
536.474	3.92
536.82	3.84
537.166	3.87
537.512	3.88
537.857	3.68
538.203	3.65
538.549	3.77
538.894	3.78
539.239	3.98
539.585	3.98
539.93	3.88
540.276	3.81
540.621	3.83
540.966	3.92
541.311	3.8
541.656	3.72
542.001	3.81
542.346	3.62
542.691	3.57
543.036	3.59
543.381	3.71
543.726	3.76
544.071	3.79
544.415	3.77
544.76	3.72
545.105	3.81
545.449	3.84
545.794	3.77
546.138	3.92
546.483	3.85
546.827	3.9
547.171	3.88
547.516	3.85
547.86	3.7
548.204	3.72
548.548	3.88
548.892	3.81
549.236	3.86
549.58	3.88
549.924	3.92
550.268	3.92
550.612	3.94
550.956	3.86
551.3	3.86
551.643	3.88
551.987	3.87
552.33	3.89
552.674	4.06
553.017	4
553.361	3.89
553.704	3.85
554.048	3.91
554.391	3.8
554.734	3.68
555.077	3.92
555.42	3.96
555.764	3.95
556.107	3.91
556.45	3.81
556.793	4.12
557.135	4.04
557.478	4
557.821	3.81
558.164	4.1
558.507	3.8
558.849	3.82
559.192	3.97
559.534	3.85
559.877	3.95
560.219	4.06
560.562	3.86
560.904	3.92
561.246	4.11
561.589	3.83
561.931	3.95
562.273	3.91
562.615	3.93
562.957	3.88
563.299	3.88
563.641	3.9
563.983	4
564.325	3.82
564.667	3.9
565.008	3.87
565.35	4.12
565.692	3.91
566.033	4.02
566.375	3.72
566.716	3.91
567.058	3.91
567.399	3.84
567.741	3.92
568.082	3.75
568.423	3.86
568.764	3.94
569.105	3.96
569.447	3.9
569.788	3.93
570.129	3.9
570.47	3.99
570.811	3.86
571.151	3.76
571.492	3.98
571.833	3.9
572.174	3.91
572.514	3.8
572.855	3.85
573.195	3.77
573.536	3.76
573.876	3.96
574.217	3.78
574.557	4.05
574.898	3.76
575.238	3.78
575.578	4.07
575.918	3.88
576.258	3.97
576.598	3.76
576.938	3.95
577.278	3.81
577.618	3.85
577.958	3.85
578.298	3.94
578.638	3.97
578.977	4.1
579.317	4
579.657	3.98
579.996	3.88
580.336	3.83
580.675	3.81
581.014	3.83
581.354	3.93
581.693	3.82
582.032	3.66
582.372	3.83
582.711	4.07
583.05	4.11
583.389	3.97
583.728	3.98
584.067	3.85
584.406	4.07
584.745	3.92
585.083	4.25
585.422	3.86
585.761	4.18
586.1	4.04
586.438	3.86
586.777	3.98
587.115	4.04
587.454	3.87
587.792	3.82
588.13	4.15
588.469	3.97
588.807	3.84
589.145	4.03
589.483	3.84
589.821	4.02
590.159	3.9
590.497	3.76
590.835	3.99
591.173	4.03
591.511	4.07
591.849	4.04
592.187	3.9
592.524	4.05
592.862	3.96
593.2	3.78
593.537	3.99
593.875	3.98
594.212	3.87
594.55	3.91
594.887	4
595.224	3.96
595.561	3.91
595.899	3.98
596.236	4.05
596.573	3.7
596.91	3.9
597.247	3.67
597.584	4.04
597.921	3.77
598.258	3.81
598.594	3.65
598.931	3.7
599.268	3.9
599.604	4.07
599.941	3.92
600.277	4.07
600.614	3.95
600.95	4
601.287	4
601.623	4.3
601.959	3.74
602.296	3.93
602.632	4.18
602.968	3.97
603.304	3.92
603.64	3.82
603.976	3.94
604.312	3.91
604.648	3.99
604.984	3.93
605.319	3.96
605.655	3.82
605.991	3.89
606.326	3.77
606.662	3.8
606.998	3.87
607.333	3.94
607.668	3.98
608.004	4.07
608.339	3.89
608.674	4.08
609.01	4.25
609.345	3.94
609.68	3.64
610.015	3.85
610.35	3.9
610.685	3.91
611.02	4.09
611.355	4.03
611.689	3.71
612.024	4.13
612.359	4.02
612.694	4.05
613.028	4.06
613.363	3.81
613.697	3.89
614.032	4.2
614.366	3.76
614.7	4.25
615.035	3.92
615.369	3.92
615.703	4.51
616.037	4.03
616.371	4.01
616.705	3.78
617.039	4.21
617.373	3.64
617.707	3.78
618.041	4.21
618.375	4.03
618.709	3.88
619.042	4.23
619.376	3.78
619.71	3.95
620.043	4.13
620.377	4.02
620.71	3.98
621.043	3.52
621.377	3.74
621.71	3.86
622.043	4.1
622.376	3.89
622.709	4.08
623.043	4.03
623.376	4.22
623.709	4.22
624.041	3.69
624.374	3.91
624.707	3.83
625.04	4.15
625.373	3.96
625.705	4.01
626.038	4.49
626.37	3.97
626.703	3.88
627.035	3.97
627.368	4.04
627.7	4.04
628.032	3.91
628.365	3.84
628.697	3.81
629.029	4.15
629.361	3.77
629.693	4.25
630.025	3.83
630.357	4.09
630.689	4.06
631.021	3.99
631.353	4.38
631.684	3.7
632.016	3.82
632.348	3.97
632.679	3.89
633.011	4.11
633.342	4.22
633.674	3.95
634.005	4.24
634.336	3.73
634.668	3.81
634.999	3.82
635.33	3.83
635.661	4.07
635.992	3.68
636.323	4.02
636.654	4.11
636.985	3.95
637.316	3.83
637.647	4.1
637.977	4.1
638.308	3.94
638.639	3.88
638.969	3.91
639.3	4.06
639.63	4.08
639.961	3.77
640.291	4.24
640.622	4.26
640.952	3.98
641.282	3.63
641.612	3.85
641.943	4.45
642.273	4.15
642.603	4.07
642.933	3.93
643.263	4.17
643.592	4.01
643.922	4.3
644.252	4.25
644.582	4.01
644.911	4.04
645.241	3.74
645.571	3.9
645.9	4.33
646.23	3.8
646.559	4.19
646.888	4.07
647.218	4.04
647.547	4.14
647.876	4.17
648.205	3.79
648.534	4.04
648.863	4.35
649.192	3.57
649.521	3.86
649.85	4.02
650.179	3.72
650.508	3.92
650.837	4.15
651.165	3.89
651.494	3.85
651.822	3.84
652.151	4.24
652.479	4.76
652.808	3.74
653.136	3.84
653.465	4.44
653.793	4.27
654.121	4.26
654.449	4.17
654.777	4.19
655.105	4.61
655.433	4.05
655.761	3.79
656.089	4.06
656.417	3.81
656.745	4.57
657.073	4.51
657.4	4.33
657.728	3.99
658.056	4
658.383	4.4
658.711	4.1
659.038	4.33
659.365	4.17
659.693	4.48
660.02	3.93
660.347	4.2
660.674	3.84
661.001	3.77
661.329	4
661.656	3.85
661.982	3.91
662.309	4.33
662.636	4.09
662.963	4.28
663.29	4.37
663.616	4.15
663.943	4.38
664.27	4.07
664.596	4.33
664.923	4.4
665.249	4.05
665.576	3.79
665.902	4.19
666.228	4.07
666.554	4.3
666.881	4
667.207	4.36
667.533	4.66
667.859	4.52
668.185	4.75
668.511	3.97
668.837	3.52
669.162	4.12
669.488	4
669.814	4.33
670.139	4.58
670.465	4.06
670.791	4.32
671.116	4.31
671.442	4.19
671.767	4.29
672.092	4.67
672.418	4.45
672.743	4.21
673.068	4.09
673.393	4.15
673.718	4.12
674.043	4.3
674.368	4.53
674.693	4.26
675.018	4.04
675.343	4.32
675.667	4.36
675.992	4.11
676.317	4.35
676.641	3.99
676.966	4.23
677.29	4.21
677.615	4.61
677.939	4.17
678.264	4.16
678.588	4.41
678.912	4.82
679.236	4.57
679.56	3.62
679.885	4.15
680.209	3.82
680.532	4.03
680.856	4.79
681.18	3.99
681.504	3.94
681.828	4.02
682.152	4.31
682.475	4.15
682.799	4.77
683.122	4.79
683.446	3.62
683.769	4.06
684.093	4.32
684.416	4.04
684.739	4.33
685.062	4.47
685.386	3.72
685.709	4.19
686.032	4.04
686.355	4.77
686.678	4.77
687.001	3.62
687.324	4
687.646	4.24
687.969	4.52
688.292	5.1
688.614	4.76
688.937	4.11
689.26	3.89
689.582	4.73
689.904	4.22
690.227	4.63
690.549	5.14
690.871	4.61
691.194	4.52
691.516	4.87
691.838	4.59
692.16	4.71
692.482	4.5
692.804	3.89
693.126	4.31
693.448	3.99
693.769	4.4
