Data from 0054_forehead_Reflection__3__13.txt Node

Date: Fri Dec 16 13:53:24 CST 2022
User: ToomeyLab
Spectrometer: FLMS14357
Trigger mode: 0
Integration Time (sec): 1.000000E-2
Scans to average: 100
Electric dark correction enabled: true
Nonlinearity correction enabled: false
Boxcar width: 0
XAxis mode: Wavelengths
Number of Pixels in Spectrum: 2048
>>>>>Begin Spectral Data<<<<<
189.047	346.17
189.435	346.17
189.823	346.17
190.211	151.17
190.599	81.42
190.987	-12.69
191.375	-98.51
191.763	92.67
192.151	-167.65
192.538	14.62
192.926	320.46
193.314	53.1
193.702	604.88
194.089	154.35
194.477	-97.76
194.864	-35.96
195.252	127.12
195.639	162.24
196.027	-54.97
196.414	-418.12
196.801	-147.72
197.189	99.01
197.576	5.99
197.963	359.54
198.351	36.79
198.738	-24.67
199.125	11.03
199.512	13.5
199.899	15.58
200.286	42.99
200.673	27.23
201.06	52.52
201.447	34.82
201.833	4.76
202.22	12.16
202.607	6.83
202.994	33.39
203.38	-13.35
203.767	29.48
204.154	33.71
204.54	40.61
204.927	62.59
205.313	76.99
205.699	20.65
206.086	-29.25
206.472	58.44
206.858	18.37
207.245	32.52
207.631	1.12
208.017	35.79
208.403	2.29
208.789	17.81
209.175	29.67
209.561	-0.98
209.947	-37.61
210.333	-1.76
210.719	26.26
211.105	1.23
211.491	26.22
211.876	19.92
212.262	-7.23
212.648	-0.42
213.034	11.02
213.419	25.86
213.805	24.78
214.19	23.34
214.576	8.15
214.961	33.75
215.346	17.23
215.732	15.06
216.117	9.23
216.502	5.11
216.888	7.21
217.273	25.34
217.658	14.37
218.043	-0.7
218.428	-1.66
218.813	3.46
219.198	11.08
219.583	11.46
219.968	5.75
220.353	25.98
220.738	11.73
221.122	21.05
221.507	6.87
221.892	3.92
222.276	18.7
222.661	1.79
223.046	9.03
223.43	6.6
223.815	16.55
224.199	12.83
224.583	4.77
224.968	10.17
225.352	5.67
225.736	8.87
226.121	7.16
226.505	0.42
226.889	4.85
227.273	6.69
227.657	-0.66
228.041	5.77
228.425	7.27
228.809	4.71
229.193	3
229.577	4.02
229.961	5.38
230.344	4.16
230.728	4.1
231.112	3.45
231.495	3.64
231.879	5.23
232.263	2.75
232.646	3.83
233.03	2.21
233.413	4.93
233.797	5.96
234.18	3.25
234.563	4.78
234.946	3.05
235.33	4.92
235.713	4.1
236.096	4.76
236.479	6.19
236.862	5.29
237.245	5.13
237.628	4.55
238.011	3.89
238.394	7
238.777	5.34
239.16	4.06
239.543	4.44
239.925	4.87
240.308	5.25
240.691	3
241.073	4.4
241.456	2.5
241.838	3.45
242.221	4.21
242.603	4.24
242.986	4.92
243.368	3.99
243.75	4.19
244.133	4.03
244.515	4.19
244.897	4.11
245.279	4.92
245.661	4.13
246.043	4.57
246.425	3.84
246.807	3.21
247.189	3.97
247.571	4.42
247.953	3.98
248.335	4.05
248.717	4.01
249.098	4.11
249.48	3.76
249.862	4.4
250.243	4.26
250.625	4.1
251.006	4.83
251.388	5.3
251.769	4.36
252.151	4.61
252.532	3.63
252.913	4.86
253.295	4.3
253.676	4.48
254.057	4.04
254.438	4.32
254.819	5.01
255.2	5.55
255.581	3.75
255.962	4.27
256.343	4.3
256.724	3.44
257.105	4.44
257.486	4.93
257.867	3.21
258.247	4.37
258.628	4.63
259.009	4.56
259.389	4.36
259.77	3.76
260.15	4.53
260.531	4.08
260.911	4.14
261.292	4.14
261.672	4.12
262.052	3.82
262.432	3.76
262.813	4.19
263.193	3.96
263.573	4.24
263.953	4.2
264.333	4.22
264.713	3.87
265.093	3.78
265.473	4.78
265.853	4.52
266.233	3.85
266.612	4.54
266.992	4.18
267.372	4.66
267.752	4.13
268.131	4.37
268.511	4.63
268.89	4.08
269.27	4.49
269.649	4.36
270.029	4.17
270.408	4.09
270.787	4.83
271.167	4.68
271.546	2.96
271.925	4.14
272.304	4.26
272.683	4.09
273.062	4.18
273.441	4.13
273.82	4.34
274.199	4.22
274.578	3.89
274.957	4.09
275.336	4.25
275.715	4.25
276.093	4.78
276.472	3.83
276.851	4.26
277.229	4.67
277.608	3.65
277.986	3.7
278.365	3.91
278.743	3.87
279.122	3.51
279.5	3.73
279.878	3.93
280.257	4.4
280.635	3.47
281.013	4.31
281.391	4.15
281.769	3.77
282.147	3.75
282.525	3.66
282.903	4.41
283.281	4.33
283.659	3.96
284.037	3.64
284.415	4.28
284.792	4.17
285.17	3.99
285.548	4.12
285.925	4.19
286.303	4.02
286.68	4.32
287.058	3.98
287.435	3.93
287.813	3.89
288.19	4.48
288.567	3.89
288.945	3.97
289.322	3.75
289.699	3.84
290.076	4.16
290.453	3.81
290.83	4.13
291.207	4.17
291.584	4
291.961	4.28
292.338	4.28
292.715	4.44
293.092	4.43
293.469	4.71
293.845	4.67
294.222	4.37
294.599	4.9
294.975	4.61
295.352	4.22
295.728	4.72
296.105	4.08
296.481	4.98
296.858	4.66
297.234	4.59
297.61	4.25
297.986	4.56
298.363	4.34
298.739	4.58
299.115	4.28
299.491	4.67
299.867	4.62
300.243	4.65
300.619	4.33
300.995	4.77
301.371	5.09
301.746	4.55
302.122	5.41
302.498	4.76
302.874	5.25
303.249	5.13
303.625	4.83
304	4.3
304.376	5.22
304.751	5.05
305.127	4.87
305.502	5.01
305.878	4.87
306.253	4.73
306.628	5.17
307.003	5.48
307.378	4.91
307.754	5.28
308.129	4.7
308.504	5.63
308.879	5.31
309.254	5.6
309.629	5.44
310.003	5.58
310.378	5.76
310.753	5.82
311.128	5.27
311.502	5.02
311.877	5.61
312.252	5.36
312.626	5.65
313.001	5.44
313.375	5.66
313.75	5.78
314.124	6.34
314.498	5.65
314.873	5.53
315.247	5.39
315.621	5.87
315.995	5.99
316.369	6.2
316.743	6.39
317.117	6.06
317.491	5.88
317.865	5.25
318.239	6.63
318.613	6.21
318.987	6.12
319.361	6.04
319.734	6.49
320.108	6.68
320.482	5.96
320.855	6.25
321.229	6.68
321.602	6
321.976	6.04
322.349	5.93
322.723	5.9
323.096	6.4
323.469	6.56
323.843	6.61
324.216	5.84
324.589	6.91
324.962	6.91
325.335	6.61
325.708	6.73
326.081	7.24
326.454	6.76
326.827	7.46
327.2	7.19
327.573	6.66
327.945	7.07
328.318	7.01
328.691	7.07
329.063	7.16
329.436	6.87
329.809	6.94
330.181	7.17
330.553	7.56
330.926	7.01
331.298	7.56
331.671	7.21
332.043	7.44
332.415	7.6
332.787	7.91
333.159	7.29
333.532	7.96
333.904	7.44
334.276	7.62
334.648	7.51
335.02	7.69
335.391	8.31
335.763	7.26
336.135	7.83
336.507	8.11
336.879	7.55
337.25	7.79
337.622	8
337.993	7.93
338.365	7.82
338.736	7.78
339.108	7.81
339.479	7.78
339.851	8.47
340.222	7.77
340.593	7.74
340.964	7.9
341.336	7.79
341.707	7.6
342.078	7.37
342.449	8.58
342.82	8.42
343.191	7.84
343.562	8.2
343.933	7.92
344.303	8.4
344.674	8.44
345.045	8.43
345.416	8.41
345.786	8.15
346.157	7.94
346.527	8.37
346.898	8.39
347.268	8.13
347.639	8.77
348.009	8.53
348.38	8.18
348.75	8.86
349.12	8.86
349.49	8.35
349.861	8.98
350.231	9.03
350.601	8.87
350.971	8.51
351.341	8.72
351.711	8.71
352.081	8.87
352.45	8.95
352.82	8.93
353.19	9.02
353.56	8.85
353.929	9.26
354.299	9.01
354.669	9.1
355.038	9.37
355.408	9.42
355.777	9.13
356.147	9.2
356.516	9.57
356.885	9.24
357.254	9.41
357.624	9.54
357.993	9.34
358.362	9.72
358.731	9.22
359.1	9.63
359.469	9.69
359.838	9.27
360.207	9.36
360.576	9.77
360.945	9.67
361.314	9.68
361.682	9.3
362.051	9.79
362.42	9.9
362.788	9.61
363.157	9.32
363.525	9.78
363.894	9.57
364.262	9.59
364.631	10.61
364.999	9.73
365.367	10.21
365.735	9.85
366.104	10.11
366.472	10.44
366.84	10.34
367.208	10.06
367.576	10.22
367.944	10.6
368.312	10.03
368.68	10.59
369.048	10.36
369.416	10.46
369.783	10.59
370.151	10.72
370.519	10.57
370.886	10.54
371.254	10.7
371.621	10.71
371.989	10.65
372.356	10.88
372.724	10.88
373.091	10.55
373.458	10.38
373.826	10.3
374.193	11.27
374.56	10.68
374.927	10.73
375.294	11.28
375.661	10.96
376.028	11.13
376.395	11.03
376.762	11.22
377.129	11.51
377.496	11.34
377.863	11.2
378.229	10.92
378.596	11.04
378.963	11.06
379.329	11.28
379.696	11.16
380.062	11.68
380.429	11.48
380.795	10.96
381.161	11.43
381.528	11.23
381.894	11.48
382.26	11.61
382.626	11.45
382.993	11.64
383.359	11.67
383.725	12.08
384.091	11.77
384.457	11.86
384.823	11.83
385.188	12.12
385.554	11.98
385.92	12.11
386.286	12.43
386.651	11.9
387.017	12.19
387.383	12.06
387.748	12.05
388.114	12.17
388.479	12.32
388.845	12.48
389.21	12.09
389.575	12.27
389.94	12.41
390.306	12.55
390.671	12.38
391.036	12.68
391.401	12.93
391.766	12.51
392.131	12.83
392.496	12.7
392.861	12.6
393.226	12.82
393.591	12.75
393.956	12.79
394.32	12.87
394.685	13.15
395.05	12.64
395.414	12.95
395.779	12.86
396.143	12.84
396.508	13.13
396.872	13.16
397.236	12.51
397.601	13.29
397.965	13.11
398.329	13.29
398.694	13.02
399.058	13.3
399.422	13.4
399.786	13.34
400.15	13.63
400.514	13.12
400.878	13.11
401.242	13.8
401.605	13.39
401.969	13.7
402.333	13.5
402.697	13.69
403.06	13.76
403.424	13.54
403.787	13.86
404.151	13.8
404.514	13.6
404.878	13.92
405.241	13.94
405.604	13.82
405.968	13.82
406.331	14.11
406.694	13.86
407.057	14.12
407.42	13.78
407.783	14.27
408.146	14.02
408.509	14.05
408.872	14.24
409.235	14.18
409.598	14.23
409.961	14.46
410.323	14.41
410.686	14.4
411.049	14.31
411.411	14.49
411.774	14.41
412.136	14.35
412.499	14.58
412.861	14.48
413.223	14.88
413.586	14.69
413.948	14.67
414.31	14.83
414.672	14.76
415.035	14.89
415.397	14.96
415.759	14.85
416.121	15.24
416.483	15.14
416.845	14.78
417.206	14.97
417.568	15.13
417.93	14.93
418.292	15.1
418.653	15.05
419.015	15.05
419.377	15.04
419.738	14.99
420.1	15
420.461	14.94
420.822	15.12
421.184	15.11
421.545	15.23
421.906	15.15
422.267	14.93
422.629	15.09
422.99	15.24
423.351	15.27
423.712	15.3
424.073	15.54
424.434	15.34
424.795	15.42
425.155	15.33
425.516	15.28
425.877	15.38
426.238	15.44
426.598	15.5
426.959	15.53
427.32	15.77
427.68	15.85
428.041	16.13
428.401	15.93
428.761	16.03
429.122	16.08
429.482	16.09
429.842	16.3
430.202	15.98
430.563	16.29
430.923	16.06
431.283	16.18
431.643	16.38
432.003	16.54
432.363	16.48
432.722	16.31
433.082	16.42
433.442	16.58
433.802	16.5
434.161	16.32
434.521	16.47
434.881	16.61
435.24	16.49
435.6	16.56
435.959	16.61
436.319	16.74
436.678	16.78
437.037	17.05
437.396	16.97
437.756	16.82
438.115	17.14
438.474	17.19
438.833	17.14
439.192	17.03
439.551	17.13
439.91	17
440.269	17.22
440.628	17.07
440.987	16.96
441.345	16.94
441.704	17.13
442.063	17.04
442.421	17.22
442.78	17.15
443.138	17.3
443.497	17.3
443.855	17.46
444.214	17.53
444.572	17.51
444.93	17.62
445.288	17.72
445.647	17.61
446.005	17.63
446.363	17.57
446.721	17.44
447.079	17.47
447.437	17.49
447.795	17.43
448.153	17.55
448.51	17.42
448.868	17.71
449.226	17.64
449.584	17.84
449.941	17.97
450.299	17.98
450.656	18.17
451.014	18.17
451.371	18.25
451.729	18.32
452.086	18.27
452.443	18.2
452.801	18.42
453.158	18.4
453.515	18.39
453.872	18.5
454.229	18.44
454.586	18.46
454.943	18.62
455.3	18.74
455.657	18.59
456.014	18.75
456.371	18.76
456.727	18.72
457.084	18.72
457.441	18.94
457.797	19
458.154	18.85
458.51	18.83
458.867	19.15
459.223	18.95
459.58	18.97
459.936	19.02
460.292	19.11
460.648	18.72
461.005	18.86
461.361	18.82
461.717	18.82
462.073	19
462.429	19.27
462.785	19.29
463.141	19.53
463.496	19.45
463.852	19.63
464.208	19.58
464.564	19.54
464.919	19.57
465.275	19.8
465.631	19.9
465.986	19.77
466.342	19.77
466.697	19.69
467.052	19.91
467.408	19.92
467.763	19.82
468.118	19.89
468.473	20.06
468.829	20
469.184	20.05
469.539	19.95
469.894	20.14
470.249	20.19
470.603	20.46
470.958	20.31
471.313	20.24
471.668	20.43
472.023	20.59
472.377	20.42
472.732	20.4
473.086	20.26
473.441	20.55
473.795	20.64
474.15	20.58
474.504	20.58
474.859	20.74
475.213	20.45
475.567	20.7
475.921	20.94
476.275	21.08
476.63	20.9
476.984	21.07
477.338	21.21
477.692	20.91
478.045	20.95
478.399	20.83
478.753	20.89
479.107	20.95
479.461	21.15
479.814	21.21
480.168	21.2
480.521	21.3
480.875	21.37
481.228	21.24
481.582	21.2
481.935	21.56
482.289	21.1
482.642	21.23
482.995	21.37
483.348	21.21
483.701	21.04
484.055	21.14
484.408	20.84
484.761	20.46
485.114	20.4
485.466	20.46
485.819	20.56
486.172	20.78
486.525	21
486.878	21.16
487.23	21.17
487.583	21.3
487.936	21.37
488.288	21.16
488.641	21.1
488.993	21.06
489.345	21.07
489.698	21.18
490.05	21.3
490.402	21.53
490.754	21.79
491.107	21.82
491.459	22.06
491.811	22.12
492.163	21.98
492.515	21.71
492.866	21.51
493.218	21.57
493.57	21.68
493.922	21.86
494.274	22.08
494.625	22.31
494.977	22.51
495.328	22.6
495.68	22.95
496.031	22.94
496.383	23.03
496.734	22.97
497.086	22.93
497.437	22.97
497.788	23
498.139	22.86
498.49	22.94
498.842	22.9
499.193	22.93
499.544	23.17
499.894	23.06
500.245	23.14
500.596	23.45
500.947	23.43
501.298	23.43
501.648	23.45
501.999	23.58
502.35	23.8
502.7	23.73
503.051	23.77
503.401	23.95
503.752	23.88
504.102	23.91
504.452	23.82
504.803	23.96
505.153	24.03
505.503	23.88
505.853	23.93
506.203	24.02
506.553	24.27
506.903	24.19
507.253	24.1
507.603	24.23
507.953	24.3
508.303	24.22
508.652	24.33
509.002	24.21
509.352	24.13
509.701	24.27
510.051	24.27
510.4	24.34
510.75	24.2
511.099	24.26
511.449	24.44
511.798	24.66
512.147	24.78
512.496	24.58
512.846	24.65
513.195	24.75
513.544	24.63
513.893	24.62
514.242	24.82
514.591	24.89
514.939	24.94
515.288	25.08
515.637	25.12
515.986	25.25
516.334	25.31
516.683	25.35
517.032	25.34
517.38	25.34
517.729	25.43
518.077	25.47
518.426	25.42
518.774	25.43
519.122	25.26
519.47	25.26
519.819	25.07
520.167	25.18
520.515	25.04
520.863	25.29
521.211	25.39
521.559	25.61
521.907	25.56
522.255	25.7
522.602	26.02
522.95	26.07
523.298	26.1
523.645	26.02
523.993	26.32
524.341	26.04
524.688	26.16
525.036	26.3
525.383	26.2
525.73	26.22
526.078	26.32
526.425	26.1
526.772	25.89
527.119	25.82
527.466	25.89
527.814	26.07
528.161	26.14
528.508	26.28
528.854	26.08
529.201	26
529.548	25.65
529.895	25.48
530.242	25.56
530.588	25.71
530.935	25.78
531.282	25.94
531.628	26.16
531.975	26.21
532.321	26.54
532.667	26.54
533.014	26.75
533.36	26.72
533.706	26.71
534.052	26.69
534.399	26.46
534.745	26.28
535.091	26.39
535.437	26.56
535.783	26.86
536.129	26.92
536.474	27.21
536.82	27.29
537.166	27.42
537.512	27.41
537.857	27.25
538.203	27.16
538.549	27.28
538.894	27.41
539.239	27.53
539.585	27.74
539.93	27.87
540.276	28.01
540.621	28.02
540.966	27.82
541.311	28.04
541.656	27.77
542.001	27.68
542.346	27.36
542.691	27.18
543.036	27.16
543.381	27.48
543.726	27.54
544.071	27.71
544.415	27.72
544.76	27.76
545.105	28.09
545.449	28.19
545.794	28.13
546.138	28.47
546.483	28.45
546.827	28.59
547.171	28.8
547.516	28.6
547.86	28.52
548.204	28.53
548.548	28.63
548.892	28.66
549.236	28.94
549.58	29.06
549.924	28.95
550.268	29.46
550.612	29.35
550.956	29.31
551.3	29.67
551.643	29.59
551.987	29.55
552.33	29.69
552.674	29.87
553.017	29.69
553.361	29.65
553.704	29.56
554.048	29.73
554.391	29.74
554.734	29.72
555.077	29.85
555.42	30
555.764	30.18
556.107	29.99
556.45	30.03
556.793	30.28
557.135	30.44
557.478	30.49
557.821	30.3
558.164	30.39
558.507	30.45
558.849	30.6
559.192	30.42
559.534	30.5
559.877	30.46
560.219	30.96
560.562	30.64
560.904	31.18
561.246	30.92
561.589	30.9
561.931	30.99
562.273	31
562.615	31.17
562.957	30.89
563.299	30.92
563.641	31.36
563.983	31.08
564.325	31.19
564.667	31.52
565.008	31.22
565.35	31.36
565.692	31.48
566.033	31.3
566.375	31.22
566.716	31.41
567.058	31.43
567.399	31.47
567.741	31.13
568.082	31.27
568.423	31.37
568.764	31.45
569.105	31.62
569.447	31.61
569.788	31.8
570.129	32.08
570.47	32.09
570.811	31.88
571.151	32.17
571.492	32.08
571.833	32.07
572.174	31.93
572.514	31.96
572.855	32.12
573.195	31.95
573.536	31.89
573.876	31.91
574.217	32.04
574.557	32.11
574.898	32.29
575.238	32.21
575.578	32.61
575.918	32.36
576.258	32.37
576.598	32.37
576.938	32.6
577.278	32.38
577.618	32.48
577.958	32.65
578.298	32.81
578.638	32.91
578.977	33.09
579.317	32.78
579.657	33.06
579.996	32.97
580.336	32.97
580.675	33.37
581.014	33.2
581.354	33.47
581.693	33.21
582.032	33.38
582.372	33.58
582.711	33.24
583.05	33.9
583.389	33.9
583.728	33.53
584.067	33.55
584.406	33.76
584.745	33.59
585.083	33.96
585.422	33.61
585.761	34.09
586.1	34.04
586.438	34.11
586.777	34
587.115	34.26
587.454	34.19
587.792	34.28
588.13	34.65
588.469	34.25
588.807	34.29
589.145	34.36
589.483	34.48
589.821	34.24
590.159	34.58
590.497	34.68
590.835	34.55
591.173	34.57
591.511	34.61
591.849	34.71
592.187	34.47
592.524	34.6
592.862	34.81
593.2	34.78
593.537	34.88
593.875	35.04
594.212	34.61
594.55	34.89
594.887	34.8
595.224	34.82
595.561	34.8
595.899	34.98
596.236	35.1
596.573	35.05
596.91	35.07
597.247	34.91
597.584	35.1
597.921	35.14
598.258	34.83
598.594	34.84
598.931	35.09
599.268	34.89
599.604	35.7
599.941	35.5
600.277	35.42
600.614	35.82
600.95	35.44
601.287	35.59
601.623	36.09
601.959	35.66
602.296	36.16
602.632	35.97
602.968	35.81
603.304	36.18
603.64	36
603.976	36.14
604.312	36.14
604.648	36.08
604.984	35.8
605.319	35.79
605.655	35.97
605.991	35.61
606.326	36.01
606.662	35.77
606.998	36.29
607.333	35.97
607.668	36.5
608.004	36.39
608.339	36.52
608.674	36.35
609.01	36.57
609.345	36.77
609.68	36.65
610.015	36.66
610.35	36.68
610.685	36.57
611.02	36.64
611.355	36.73
611.689	36.39
612.024	36.81
612.359	36.96
612.694	37.19
613.028	37.26
613.363	37.31
613.697	37.22
614.032	37.39
614.366	37.19
614.7	37.74
615.035	37.68
615.369	37.47
615.703	37.69
616.037	37.24
616.371	37.67
616.705	37.7
617.039	37.51
617.373	38.04
617.707	37.54
618.041	38.18
618.375	37.65
618.709	37.9
619.042	37.8
619.376	38.23
619.71	37.76
620.043	37.68
620.377	37.84
620.71	38.24
621.043	38.17
621.377	38.35
621.71	37.87
622.043	38.24
622.376	38.22
622.709	38.39
623.043	38.76
623.376	38.78
623.709	38.62
624.041	38.84
624.374	38.72
624.707	38.64
625.04	38.61
625.373	38.93
625.705	39.06
626.038	38.97
626.37	38.97
626.703	38.54
627.035	38.95
627.368	39.08
627.7	39.17
628.032	38.7
628.365	38.49
628.697	38.7
629.029	38.76
629.361	38.69
629.693	39.35
630.025	39.53
630.357	39.02
630.689	39.22
631.021	39.44
631.353	38.99
631.684	39.48
632.016	39.32
632.348	39.27
632.679	39.4
633.011	39.56
633.342	39.51
633.674	39.8
634.005	39.62
634.336	39.4
634.668	39.54
634.999	39.56
635.33	39.57
635.661	39.86
635.992	39.69
636.323	39.77
636.654	40.25
636.985	39.88
637.316	40.52
637.647	40.11
637.977	39.97
638.308	39.74
638.639	40.02
638.969	40.27
639.3	40.51
639.63	40.07
639.961	40.25
640.291	40.36
640.622	40.73
640.952	40.46
641.282	40.11
641.612	39.8
641.943	40.94
642.273	41.15
642.603	40.84
642.933	41
643.263	40.54
643.592	40.26
643.922	41.17
644.252	40.9
644.582	41.07
644.911	40.52
645.241	40.85
645.571	40.68
645.9	40.63
646.23	41.17
646.559	41.12
646.888	40.95
647.218	41.13
647.547	40.2
647.876	41.47
648.205	41.09
648.534	41.25
648.863	41.25
649.192	41.34
649.521	41.7
649.85	41.55
650.179	41.32
650.508	41.96
650.837	41.49
651.165	41.62
651.494	41.59
651.822	41.98
652.151	41.05
652.479	41.88
652.808	41.55
653.136	41.08
653.465	41.84
653.793	41.68
654.121	41.81
654.449	41.76
654.777	41.82
655.105	42.27
655.433	42.38
655.761	41.82
656.089	42.39
656.417	41.69
656.745	42.51
657.073	42.31
657.4	42.11
657.728	42.22
658.056	42.42
658.383	42.34
658.711	42.34
659.038	42.31
659.365	42.52
659.693	42.35
660.02	42.42
660.347	42.74
660.674	42.15
661.001	42.16
661.329	42.26
661.656	42.68
661.982	42.77
662.309	42.55
662.636	42.86
662.963	42.73
663.29	42.96
663.616	42.81
663.943	43.21
664.27	42.96
664.596	43.25
664.923	43.5
665.249	42.96
665.576	42.88
665.902	42.93
666.228	43.26
666.554	43.31
666.881	43.66
667.207	42.47
667.533	43.39
667.859	42.52
668.185	43.48
668.511	43.65
668.837	42.34
669.162	43.38
669.488	43.69
669.814	43.44
670.139	44.16
670.465	43.5
670.791	43.48
671.116	43.41
671.442	43.58
671.767	43.17
672.092	43.91
672.418	44.81
672.743	43.38
