Data from 0054_crown_Reflection__2__07.txt Node

Date: Fri Dec 16 13:51:57 CST 2022
User: ToomeyLab
Spectrometer: FLMS14357
Trigger mode: 0
Integration Time (sec): 1.000000E-2
Scans to average: 100
Electric dark correction enabled: true
Nonlinearity correction enabled: false
Boxcar width: 0
XAxis mode: Wavelengths
Number of Pixels in Spectrum: 2048
>>>>>Begin Spectral Data<<<<<
189.047	397.09
189.435	397.09
189.823	397.09
190.211	39.08
190.599	7.84
190.987	-53.74
191.375	-35.73
191.763	39.78
192.151	166.49
192.538	36.23
192.926	-103.64
193.314	94.27
193.702	539.7
194.089	53.17
194.477	-75.02
194.864	-50.73
195.252	38.61
195.639	143
196.027	12.34
196.414	380.71
196.801	417.58
197.189	92.24
197.576	-39.03
197.963	374.23
198.351	6.23
198.738	-86.6
199.125	41.27
199.512	30.36
199.899	0.36
200.286	33.12
200.673	23.13
201.06	3.34
201.447	29.16
201.833	35.45
202.22	25.39
202.607	15.99
202.994	18.02
203.38	-10.16
203.767	-33.93
204.154	3.03
204.54	19.11
204.927	34.23
205.313	16.34
205.699	-4.51
206.086	8.13
206.472	35.42
206.858	2.78
207.245	32.01
207.631	0.17
208.017	5.56
208.403	2.55
208.789	7.05
209.175	29.59
209.561	-6.91
209.947	25.34
210.333	4.25
210.719	-32.62
211.105	-30.47
211.491	-13.12
211.876	6.79
212.262	-5.83
212.648	-15.33
213.034	15.51
213.419	12.81
213.805	-0.87
214.19	-1.04
214.576	-4.04
214.961	5.07
215.346	-31.29
215.732	16.81
216.117	4.49
216.502	12.4
216.888	-31.26
217.273	25.13
217.658	-19.26
218.043	13.84
218.428	-2.67
218.813	25.12
219.198	-19.05
219.583	8.41
219.968	2.49
220.353	17.76
220.738	-0.88
221.122	-16.49
221.507	-7.15
221.892	8.98
222.276	9.85
222.661	0.75
223.046	3.46
223.43	0.28
223.815	10.37
224.199	8.06
224.583	2.58
224.968	7.75
225.352	-2.21
225.736	12.06
226.121	3.68
226.505	2.44
226.889	5.11
227.273	0.08
227.657	4.37
228.041	1.77
228.425	1.27
228.809	2.36
229.193	-0.24
229.577	1.57
229.961	2.41
230.344	1.98
230.728	2.15
231.112	2.61
231.495	0.91
231.879	2.77
232.263	1.78
232.646	1.95
233.03	1.2
233.413	1.72
233.797	5.38
234.18	0.64
234.563	4.11
234.946	2.28
235.33	3.74
235.713	2.68
236.096	2.04
236.479	2.86
236.862	3.27
237.245	1.89
237.628	1.9
238.011	2.34
238.394	3.26
238.777	2.41
239.16	-0.04
239.543	0.85
239.925	1.57
240.308	1.69
240.691	2.66
241.073	1.52
241.456	1.91
241.838	2.01
242.221	2.92
242.603	2.02
242.986	2.87
243.368	2.04
243.75	1.57
244.133	2.15
244.515	2.12
244.897	1.8
245.279	2.23
245.661	1.32
246.043	2.2
246.425	2.42
246.807	1.91
247.189	1.83
247.571	2.02
247.953	1.93
248.335	2.25
248.717	1.8
249.098	1.84
249.48	1.46
249.862	1.89
250.243	2.04
250.625	2.35
251.006	2.64
251.388	2.86
251.769	1.89
252.151	1.81
252.532	2.46
252.913	2.15
253.295	1.41
253.676	2.33
254.057	1.93
254.438	2.07
254.819	1.93
255.2	1.8
255.581	1.96
255.962	2.19
256.343	1.77
256.724	1.97
257.105	2.07
257.486	1.47
257.867	1.15
258.247	2
258.628	2.83
259.009	1.73
259.389	2.57
259.77	1.83
260.15	2.87
260.531	2.36
260.911	1.78
261.292	1.81
261.672	1.73
262.052	1.67
262.432	1.39
262.813	2.03
263.193	1.4
263.573	2.31
263.953	1.71
264.333	2.17
264.713	2.11
265.093	1.96
265.473	2.27
265.853	1.97
266.233	1.5
266.612	2.47
266.992	1.67
267.372	1.56
267.752	1.58
268.131	1.88
268.511	1.42
268.89	2.52
269.27	1.86
269.649	2.38
270.029	1.52
270.408	1.55
270.787	1.92
271.167	1.43
271.546	1.1
271.925	1.88
272.304	1.96
272.683	1.5
273.062	2.1
273.441	2.19
273.82	1.84
274.199	2.06
274.578	1.34
274.957	1.54
275.336	2.06
275.715	1.75
276.093	2.11
276.472	2.1
276.851	2.12
277.229	1.9
277.608	1.82
277.986	1.86
278.365	1.26
278.743	1.71
279.122	1.3
279.5	1.53
279.878	1.2
280.257	1.47
280.635	1.31
281.013	1.65
281.391	1.59
281.769	1.88
282.147	1.88
282.525	1.63
282.903	1.89
283.281	1.97
283.659	1.91
284.037	1.79
284.415	1.53
284.792	1.82
285.17	1.84
285.548	2.03
285.925	1.44
286.303	1.5
286.68	1.93
287.058	1.48
287.435	1.51
287.813	1.68
288.19	2.17
288.567	1.66
288.945	1.91
289.322	1.69
289.699	1.66
290.076	2.08
290.453	1.88
290.83	1.82
291.207	1.66
291.584	1.71
291.961	1.58
292.338	1.74
292.715	1.99
293.092	1.79
293.469	2.37
293.845	1.86
294.222	1.64
294.599	2.32
294.975	2.21
295.352	1.56
295.728	1.77
296.105	1.75
296.481	1.92
296.858	1.75
297.234	1.71
297.61	1.77
297.986	1.65
298.363	1.32
298.739	1.59
299.115	1.57
299.491	1.73
299.867	1.37
300.243	1.24
300.619	1.64
300.995	1.65
301.371	2.22
301.746	1.41
302.122	2.24
302.498	1.78
302.874	1.92
303.249	2.19
303.625	1.84
304	1.31
304.376	1.54
304.751	1.7
305.127	1.57
305.502	1.79
305.878	1.65
306.253	1.58
306.628	1.75
307.003	1.71
307.378	1.72
307.754	1.81
308.129	1.39
308.504	1.95
308.879	1.57
309.254	1.64
309.629	1.72
310.003	1.96
310.378	2.01
310.753	1.95
311.128	1.61
311.502	1.7
311.877	1.77
312.252	1.69
312.626	1.72
313.001	1.47
313.375	1.86
313.75	1.74
314.124	1.94
314.498	2
314.873	1.68
315.247	1.54
315.621	1.67
315.995	1.81
316.369	1.88
316.743	2.23
317.117	1.78
317.491	1.94
317.865	1.89
318.239	2.3
318.613	1.85
318.987	1.99
319.361	2.14
319.734	2.07
320.108	2.07
320.482	1.63
320.855	1.62
321.229	2.73
321.602	2.4
321.976	1.8
322.349	1.19
322.723	1.4
323.096	1.22
323.469	1.91
323.843	1.45
324.216	1.57
324.589	2.43
324.962	1.63
325.335	1.83
325.708	1.86
326.081	2.22
326.454	1.99
326.827	2.17
327.2	2.02
327.573	1.98
327.945	1.62
328.318	2.04
328.691	1.72
329.063	1.68
329.436	1.93
329.809	1.66
330.181	1.64
330.553	2.25
330.926	1.92
331.298	1.3
331.671	2.02
332.043	2.05
332.415	2.1
332.787	2.09
333.159	1.35
333.532	1.48
333.904	1.77
334.276	1.65
334.648	1.82
335.02	1.63
335.391	1.95
335.763	1.58
336.135	1.77
336.507	2.14
336.879	1.67
337.25	1.92
337.622	1.76
337.993	2.31
338.365	1.9
338.736	1.44
339.108	1.6
339.479	1.97
339.851	1.78
340.222	2.09
340.593	1.9
340.964	1.61
341.336	1.65
341.707	1.74
342.078	1.62
342.449	2.02
342.82	1.97
343.191	1.79
343.562	1.93
343.933	1.6
344.303	1.81
344.674	1.66
345.045	2.2
345.416	1.87
345.786	1.45
346.157	1.91
346.527	1.57
346.898	1.81
347.268	1.51
347.639	1.78
348.009	1.68
348.38	1.76
348.75	1.68
349.12	1.65
349.49	1.84
349.861	2.11
350.231	2.28
350.601	1.98
350.971	1.81
351.341	2.02
351.711	1.62
352.081	2.27
352.45	1.93
352.82	1.91
353.19	1.62
353.56	1.85
353.929	1.9
354.299	1.41
354.669	1.63
355.038	1.91
355.408	1.96
355.777	1.79
356.147	1.89
356.516	2.26
356.885	1.71
357.254	1.92
357.624	2.11
357.993	1.73
358.362	1.92
358.731	1.65
359.1	2.13
359.469	1.84
359.838	1.53
360.207	1.73
360.576	1.82
360.945	2.05
361.314	1.89
361.682	1.52
362.051	1.8
362.42	1.87
362.788	1.91
363.157	1.89
363.525	1.68
363.894	1.69
364.262	1.68
364.631	2.37
364.999	1.54
365.367	2.02
365.735	1.53
366.104	1.78
366.472	1.98
366.84	1.62
367.208	1.85
367.576	1.86
367.944	2.12
368.312	1.74
368.68	2.22
369.048	2.11
369.416	1.86
369.783	1.76
370.151	1.73
370.519	1.79
370.886	1.76
371.254	1.92
371.621	2.07
371.989	1.99
372.356	1.79
372.724	1.83
373.091	2.01
373.458	1.88
373.826	1.76
374.193	2.07
374.56	1.62
374.927	1.76
375.294	2.01
375.661	2.14
376.028	1.86
376.395	1.93
376.762	2.23
377.129	2.16
377.496	2.03
377.863	2.51
378.229	1.5
378.596	1.94
378.963	1.58
379.329	1.75
379.696	1.57
380.062	2.06
380.429	2.04
380.795	1.84
381.161	2.21
381.528	1.57
381.894	2.02
382.26	1.8
382.626	1.68
382.993	1.8
383.359	1.77
383.725	2.04
384.091	1.77
384.457	2.19
384.823	2.19
385.188	2.11
385.554	1.95
385.92	2.29
386.286	2.05
386.651	1.78
387.017	2.11
387.383	2.05
387.748	1.9
388.114	2.03
388.479	2.12
388.845	1.97
389.21	2.08
389.575	2.12
389.94	1.97
390.306	2.17
390.671	2.07
391.036	2.02
391.401	2.25
391.766	2.25
392.131	1.94
392.496	2.02
392.861	1.98
393.226	2.08
393.591	1.91
393.956	2.13
394.32	1.97
394.685	2.28
395.05	1.61
395.414	2.2
395.779	2.08
396.143	2.09
396.508	1.98
396.872	2.16
397.236	1.79
397.601	2.13
397.965	1.86
398.329	1.96
398.694	2.06
399.058	2.14
399.422	2.11
399.786	2.11
400.15	1.93
400.514	2.24
400.878	2
401.242	2.16
401.605	2.08
401.969	2.08
402.333	2
402.697	2.3
403.06	2.24
403.424	2.12
403.787	2.17
404.151	1.98
404.514	2.12
404.878	1.9
405.241	1.95
405.604	1.97
405.968	2.16
406.331	2.31
406.694	2.17
407.057	2.29
407.42	2.26
407.783	2.05
408.146	2.06
408.509	1.96
408.872	2.16
409.235	2.21
409.598	2.34
409.961	2.1
410.323	2.04
410.686	2.07
411.049	1.61
411.411	2.21
411.774	2.1
412.136	2.19
412.499	2.3
412.861	1.98
413.223	2.14
413.586	2.04
413.948	2.07
414.31	2.18
414.672	2.12
415.035	2.25
415.397	2.3
415.759	2.03
416.121	2.22
416.483	2.46
416.845	2.06
417.206	2.12
417.568	2.15
417.93	2.12
418.292	2.07
418.653	2.29
419.015	2.1
419.377	2.31
419.738	2.01
420.1	2.04
420.461	2.11
420.822	2.09
421.184	2.15
421.545	2.09
421.906	2.11
422.267	2.01
422.629	2.15
422.99	2.06
423.351	2.1
423.712	2.18
424.073	2.23
424.434	2.12
424.795	2.15
425.155	2.12
425.516	2.07
425.877	2.07
426.238	2.09
426.598	2.24
426.959	2.03
427.32	2.18
427.68	2.19
428.041	2.18
428.401	2.08
428.761	2.19
429.122	2.15
429.482	2.16
429.842	2.15
430.202	2.05
430.563	2.14
430.923	2.11
431.283	2.3
431.643	2.19
432.003	2.26
432.363	2.52
432.722	2.11
433.082	2.19
433.442	2.16
433.802	2.18
434.161	2.18
434.521	2.17
434.881	2.28
435.24	2.14
435.6	2.12
435.959	2.16
436.319	2.26
436.678	2.32
437.037	2.18
437.396	2.39
437.756	2.2
438.115	2.28
438.474	2.34
438.833	2.23
439.192	2.34
439.551	2.28
439.91	2.31
440.269	2.38
440.628	2.17
440.987	2.05
441.345	2.24
441.704	2.3
442.063	2.21
442.421	2.14
442.78	2.21
443.138	2.26
443.497	2.15
443.855	2.25
444.214	2.35
444.572	2.28
444.93	2.22
445.288	2.37
445.647	2.26
446.005	2.12
446.363	2.23
446.721	2.18
447.079	2.17
447.437	2.17
447.795	2.17
448.153	2.25
448.51	2.16
448.868	2.26
449.226	2.19
449.584	2.3
449.941	2.37
450.299	2.19
450.656	2.38
451.014	2.16
451.371	2.39
451.729	2.25
452.086	2.18
452.443	2.25
452.801	2.37
453.158	2.22
453.515	2.13
453.872	2.28
454.229	2.23
454.586	2.29
454.943	2.24
455.3	2.44
455.657	2.17
456.014	2.42
456.371	2.46
456.727	2.31
457.084	2.24
457.441	2.08
457.797	2.22
458.154	2.34
458.51	2.22
458.867	2.1
459.223	2.35
459.58	2.2
459.936	2.3
460.292	2.39
460.648	2.17
461.005	2.07
461.361	2.22
461.717	2.28
462.073	2.35
462.429	2.28
462.785	2.29
463.141	2.45
463.496	2.42
463.852	2.48
464.208	2.38
464.564	2.3
464.919	2.1
465.275	2.43
465.631	2.37
465.986	2.22
466.342	2.27
466.697	2.36
467.052	2.42
467.408	2.34
467.763	2.17
468.118	2.27
468.473	2.41
468.829	2.34
469.184	2.4
469.539	2.12
469.894	2.37
470.249	2.42
470.603	2.36
470.958	2.49
471.313	2.24
471.668	2.38
472.023	2.48
472.377	2.3
472.732	2.33
473.086	2.23
473.441	2.31
473.795	2.51
474.15	2.19
474.504	2.38
474.859	2.36
475.213	2.39
475.567	2.38
475.921	2.5
476.275	2.31
476.63	2.32
476.984	2.3
477.338	2.58
477.692	2.5
478.045	2.34
478.399	2.48
478.753	2.27
479.107	2.39
479.461	2.41
479.814	2.37
480.168	2.35
480.521	2.36
480.875	2.5
481.228	2.45
481.582	2.41
481.935	2.33
482.289	2.32
482.642	2.39
482.995	2.34
483.348	2.37
483.701	2.38
484.055	2.29
484.408	2.24
484.761	2.2
485.114	2.13
485.466	2.17
485.819	2.21
486.172	2.3
486.525	2.36
486.878	2.37
487.23	2.37
487.583	2.27
487.936	2.33
488.288	2.28
488.641	2.27
488.993	2.21
489.345	2.26
489.698	2.36
490.05	2.35
490.402	2.42
490.754	2.48
491.107	2.37
491.459	2.45
491.811	2.45
492.163	2.41
492.515	2.33
492.866	2.24
493.218	2.31
493.57	2.38
493.922	2.38
494.274	2.42
494.625	2.38
494.977	2.46
495.328	2.53
495.68	2.51
496.031	2.53
496.383	2.54
496.734	2.56
497.086	2.38
497.437	2.46
497.788	2.47
498.139	2.43
498.49	2.52
498.842	2.39
499.193	2.41
499.544	2.53
499.894	2.55
500.245	2.45
500.596	2.44
500.947	2.48
501.298	2.5
501.648	2.46
501.999	2.66
502.35	2.62
502.7	2.58
503.051	2.57
503.401	2.57
503.752	2.47
504.102	2.49
504.452	2.37
504.803	2.39
505.153	2.53
505.503	2.55
505.853	2.41
506.203	2.56
506.553	2.43
506.903	2.48
507.253	2.53
507.603	2.5
507.953	2.64
508.303	2.46
508.652	2.49
509.002	2.6
509.352	2.58
509.701	2.43
510.051	2.57
510.4	2.56
510.75	2.47
511.099	2.34
511.449	2.46
511.798	2.61
512.147	2.56
512.496	2.62
512.846	2.47
513.195	2.6
513.544	2.5
513.893	2.41
514.242	2.56
514.591	2.57
514.939	2.57
515.288	2.5
515.637	2.57
515.986	2.5
516.334	2.66
516.683	2.55
517.032	2.53
517.38	2.58
517.729	2.53
518.077	2.59
518.426	2.56
518.774	2.47
519.122	2.49
519.47	2.53
519.819	2.51
520.167	2.52
520.515	2.54
520.863	2.48
521.211	2.5
521.559	2.57
521.907	2.5
522.255	2.57
522.602	2.64
522.95	2.6
523.298	2.59
523.645	2.53
523.993	2.56
524.341	2.58
524.688	2.67
525.036	2.67
525.383	2.58
525.73	2.63
526.078	2.64
526.425	2.52
526.772	2.46
527.119	2.45
527.466	2.54
527.814	2.52
528.161	2.51
528.508	2.61
528.854	2.48
529.201	2.48
529.548	2.41
529.895	2.36
530.242	2.38
530.588	2.48
530.935	2.5
531.282	2.56
531.628	2.57
531.975	2.56
532.321	2.57
532.667	2.59
533.014	2.7
533.36	2.54
533.706	2.52
534.052	2.51
534.399	2.51
534.745	2.51
535.091	2.54
535.437	2.54
535.783	2.62
536.129	2.58
536.474	2.67
536.82	2.55
537.166	2.65
537.512	2.62
537.857	2.52
538.203	2.54
538.549	2.6
538.894	2.54
539.239	2.75
539.585	2.64
539.93	2.69
540.276	2.64
540.621	2.63
540.966	2.56
541.311	2.68
541.656	2.51
542.001	2.69
542.346	2.48
542.691	2.48
543.036	2.46
543.381	2.55
543.726	2.6
544.071	2.68
544.415	2.66
544.76	2.58
545.105	2.61
545.449	2.61
545.794	2.56
546.138	2.77
546.483	2.59
546.827	2.72
547.171	2.79
547.516	2.75
547.86	2.62
548.204	2.63
548.548	2.73
548.892	2.7
549.236	2.75
549.58	2.68
549.924	2.77
550.268	2.72
550.612	2.75
550.956	2.74
551.3	2.77
551.643	2.69
551.987	2.66
552.33	2.67
552.674	2.91
553.017	2.84
553.361	2.76
553.704	2.65
554.048	2.78
554.391	2.71
554.734	2.82
555.077	2.87
555.42	2.72
555.764	2.71
556.107	2.75
556.45	2.58
556.793	2.89
557.135	2.87
557.478	2.87
557.821	2.74
558.164	2.89
558.507	2.82
558.849	2.66
559.192	2.88
559.534	2.63
559.877	2.81
560.219	2.82
560.562	2.96
560.904	2.75
561.246	2.96
561.589	2.81
561.931	2.91
562.273	2.9
562.615	2.83
562.957	2.68
563.299	2.88
563.641	2.85
563.983	2.68
564.325	2.73
564.667	2.72
565.008	2.71
565.35	2.86
565.692	2.83
566.033	2.88
566.375	2.64
566.716	2.94
567.058	2.8
567.399	2.79
567.741	2.84
568.082	2.66
568.423	2.8
568.764	2.85
569.105	2.9
569.447	2.82
569.788	2.85
570.129	2.68
570.47	2.81
570.811	2.82
571.151	2.82
571.492	3.11
571.833	2.81
572.174	2.78
572.514	2.77
572.855	2.96
573.195	2.82
573.536	2.87
573.876	2.88
574.217	2.79
574.557	2.95
574.898	2.83
575.238	2.84
575.578	2.89
575.918	2.77
576.258	2.84
576.598	2.7
576.938	3.08
577.278	2.82
577.618	2.84
577.958	2.93
578.298	2.92
578.638	3.07
578.977	2.98
579.317	2.86
579.657	2.89
579.996	2.88
580.336	2.72
580.675	3.21
581.014	2.91
581.354	2.79
581.693	2.85
582.032	2.58
582.372	3.07
582.711	2.71
583.05	3.19
583.389	3.12
583.728	3.03
584.067	2.86
584.406	3.28
584.745	2.94
585.083	3.18
585.422	2.99
585.761	2.99
586.1	3.32
586.438	3.14
586.777	2.92
587.115	2.84
587.454	2.95
587.792	2.87
588.13	3.11
588.469	2.99
588.807	3.11
589.145	2.94
589.483	2.72
589.821	3.04
590.159	2.8
590.497	2.49
590.835	2.91
591.173	3.12
591.511	3.08
591.849	2.84
592.187	2.98
592.524	3.08
592.862	2.98
593.2	2.79
593.537	3.12
593.875	3.06
594.212	3.01
594.55	3.03
594.887	3.08
595.224	3.03
595.561	3.03
595.899	3.07
596.236	3.02
596.573	2.96
596.91	2.97
597.247	2.86
597.584	3.11
597.921	3.01
598.258	3.01
598.594	2.75
598.931	2.83
599.268	2.94
599.604	3.14
599.941	2.87
600.277	3.06
600.614	2.91
600.95	3.14
601.287	3.01
601.623	3.23
601.959	3.07
602.296	3.09
602.632	3.36
602.968	2.92
603.304	3.05
603.64	2.96
603.976	3.04
604.312	3.21
604.648	3.06
604.984	3.08
605.319	2.92
605.655	3.11
605.991	3
606.326	3.01
606.662	3.01
606.998	3.01
607.333	3.01
607.668	3.2
608.004	3.14
608.339	3.08
608.674	3.04
609.01	3.01
609.345	3.29
609.68	2.88
610.015	3.16
610.35	3.14
610.685	3.23
611.02	3.19
611.355	3.22
611.689	3.02
612.024	3.09
612.359	3.14
612.694	3.13
613.028	3.45
613.363	2.98
613.697	3.11
614.032	3.36
614.366	3.03
614.7	3.47
615.035	2.86
615.369	3.23
615.703	3.37
616.037	3.22
616.371	3.1
616.705	3.02
617.039	3.32
617.373	3.17
617.707	3.26
618.041	3.29
618.375	2.9
618.709	3.48
619.042	3.4
619.376	3.03
619.71	3.01
620.043	3.22
620.377	3.18
620.71	3.39
621.043	2.95
621.377	3.2
621.71	3.33
622.043	3.41
622.376	3.4
622.709	3.05
623.043	2.98
623.376	3.51
623.709	3.44
624.041	3.23
624.374	3.34
624.707	3.19
625.04	3.37
625.373	3.1
625.705	3.3
626.038	3.31
626.37	3.19
626.703	3.07
627.035	3.18
627.368	3.35
627.7	3.16
628.032	3.44
628.365	2.94
628.697	3.35
629.029	3.46
629.361	3.3
629.693	3.28
630.025	3.4
630.357	3.36
630.689	3.4
631.021	3.23
631.353	3.35
631.684	3.21
632.016	2.99
632.348	3.34
632.679	3.28
633.011	3.59
633.342	3.42
633.674	3.56
634.005	3.29
634.336	3.38
634.668	3.33
634.999	3.3
635.33	3.33
635.661	3.67
635.992	3.35
636.323	3.41
636.654	3.3
636.985	2.92
637.316	3.08
637.647	3.7
637.977	3.33
638.308	3.11
638.639	3.4
638.969	3.26
639.3	3.17
639.63	3.44
639.961	3.18
640.291	3.43
640.622	3.31
640.952	3.36
641.282	3.23
641.612	2.87
641.943	3.69
642.273	3.5
642.603	3.32
642.933	3.53
643.263	4.12
643.592	3.34
643.922	3.77
644.252	3.32
644.582	3.54
644.911	3.28
645.241	3.51
645.571	3.43
645.9	3.41
646.23	3.06
646.559	3.54
646.888	3.2
647.218	3.6
647.547	3.39
647.876	3.49
648.205	3.39
648.534	3.29
648.863	3.77
649.192	3.23
649.521	3.38
649.85	3.46
650.179	3.06
650.508	3.44
650.837	3.64
651.165	3.42
651.494	3.46
651.822	3.68
652.151	3.52
652.479	3.53
652.808	3.3
653.136	3.24
653.465	3.61
653.793	3.76
654.121	3.59
654.449	3.31
654.777	3.51
655.105	3.84
655.433	3.92
655.761	3.75
656.089	3.22
656.417	3.26
656.745	4.06
657.073	3.85
657.4	3.79
657.728	3.33
658.056	3.71
658.383	3.87
658.711	3.45
659.038	3.99
659.365	3.7
659.693	3.42
660.02	3.38
660.347	3.47
660.674	3.18
661.001	3.27
661.329	3.48
661.656	3.38
661.982	3.8
662.309	3.85
662.636	3.62
662.963	3.53
663.29	3.75
663.616	3.77
663.943	3.86
664.27	3.45
664.596	3.54
664.923	4.05
665.249	3.8
665.576	3.23
665.902	3.35
666.228	3.56
666.554	3.4
666.881	4.11
667.207	3.46
667.533	3.98
667.859	3.25
668.185	4.02
668.511	3.3
668.837	3.26
669.162	3.45
669.488	3.4
669.814	3.82
670.139	4.18
670.465	3.96
670.791	4.17
671.116	3.28
671.442	3.47
671.767	3.2
672.092	3.44
672.418	4.07
672.743	3.84
673.068	3.49
673.393	3.66
673.718	3.41
674.043	4.4
674.368	3.71
674.693	4.15
675.018	3.34
675.343	4.09
675.667	4.12
675.992	3.18
676.317	4.04
676.641	3.95
676.966	4.29
677.29	3.75
677.615	3.89
677.939	3.87
678.264	3.65
678.588	3.97
678.912	4.27
679.236	4.24
679.56	3.38
679.885	3.84
680.209	3.82
680.532	3.4
680.856	4.44
681.18	3.47
681.504	3.58
681.828	3.58
682.152	3.72
682.475	4.28
682.799	4.16
683.122	3.49
683.446	4
683.769	3.51
684.093	3.71
684.416	3.67
684.739	4.07
685.062	3.94
685.386	3.91
685.709	3.28
686.032	3.65
686.355	4.41
686.678	3.82
687.001	3.28
687.324	3.25
687.646	3.45
687.969	3.86
688.292	4.55
688.614	5.1
688.937	3.75
689.26	3.89
689.582	3.84
689.904	3.49
690.227	3.8
690.549	4.04
690.871	4.7
691.194	4.03
691.516	3.78
691.838	3.9
692.16	4.69
692.482	4.6
