Data from 0054_chest_Reflection__4__04.txt Node

Date: Fri Dec 16 13:50:56 CST 2022
User: ToomeyLab
Spectrometer: FLMS14357
Trigger mode: 0
Integration Time (sec): 1.000000E-2
Scans to average: 100
Electric dark correction enabled: true
Nonlinearity correction enabled: false
Boxcar width: 0
XAxis mode: Wavelengths
Number of Pixels in Spectrum: 2048
>>>>>Begin Spectral Data<<<<<
189.047	573.13
189.435	573.13
189.823	573.13
190.211	32.01
190.599	8.56
190.987	19.35
191.375	-102.83
191.763	56.98
192.151	295.03
192.538	19.17
192.926	-58.84
193.314	29.19
193.702	164.12
194.089	-150.92
194.477	11.13
194.864	-277.23
195.252	-37.74
195.639	88.28
196.027	59.49
196.414	-245.88
196.801	-21.23
197.189	30.47
197.576	-82.2
197.963	331.97
198.351	16.7
198.738	99.41
199.125	27.12
199.512	5.74
199.899	-13.97
200.286	-65.08
200.673	40.48
201.06	12.46
201.447	18.64
201.833	-11.05
202.22	3.71
202.607	-7.47
202.994	41.04
203.38	5.04
203.767	6.14
204.154	-7.57
204.54	22.55
204.927	-15.02
205.313	83.03
205.699	-0.81
206.086	-3.06
206.472	-23.38
206.858	23.5
207.245	-4.63
207.631	34.9
208.017	35.21
208.403	5.33
208.789	-1.29
209.175	29.95
209.561	-3.2
209.947	28.6
210.333	-24.09
210.719	0.19
211.105	11.3
211.491	36.02
211.876	-7.49
212.262	-5.19
212.648	-20.54
213.034	1.62
213.419	19.72
213.805	6.25
214.19	-9.5
214.576	-1.99
214.961	10.01
215.346	24.85
215.732	5.15
216.117	6.12
216.502	3.53
216.888	-0.08
217.273	21.53
217.658	-5.56
218.043	-9.45
218.428	-5.21
218.813	0.23
219.198	-24.73
219.583	13.28
219.968	5.63
220.353	26.6
220.738	-2.6
221.122	-10.61
221.507	5.25
221.892	1.38
222.276	20.19
222.661	-3.61
223.046	2.64
223.43	3.19
223.815	5.44
224.199	12.74
224.583	12.13
224.968	11.06
225.352	0.86
225.736	11.65
226.121	5.7
226.505	10.31
226.889	5.6
227.273	8.72
227.657	0.81
228.041	6.38
228.425	4.59
228.809	3.35
229.193	2.54
229.577	3.78
229.961	4.42
230.344	4.34
230.728	3.76
231.112	3.52
231.495	4.53
231.879	4.87
232.263	3.41
232.646	2.34
233.03	1.77
233.413	5
233.797	5.97
234.18	1.67
234.563	3.85
234.946	1.52
235.33	5.91
235.713	3.73
236.096	2.56
236.479	4.51
236.862	5.36
237.245	5.15
237.628	5.04
238.011	5.24
238.394	6.57
238.777	5.86
239.16	1.59
239.543	3.28
239.925	4.58
240.308	4.42
240.691	2.89
241.073	3.47
241.456	3.69
241.838	4
242.221	3.99
242.603	3.78
242.986	4.62
243.368	3.2
243.75	3.78
244.133	3.58
244.515	3.59
244.897	3.39
245.279	3.95
245.661	4.38
246.043	4.46
246.425	2.47
246.807	3.92
247.189	3.87
247.571	3.83
247.953	3.54
248.335	3.92
248.717	3.67
249.098	3.72
249.48	3.43
249.862	3.85
250.243	3.95
250.625	3.41
251.006	4.33
251.388	4.42
251.769	3.82
252.151	4.25
252.532	4.46
252.913	4.41
253.295	3.73
253.676	3.94
254.057	3.81
254.438	3.61
254.819	4.52
255.2	4.74
255.581	3.78
255.962	4.18
256.343	4.29
256.724	4.4
257.105	4.12
257.486	5.34
257.867	2.27
258.247	4.28
258.628	4.35
259.009	4.05
259.389	4
259.77	3.34
260.15	4.15
260.531	3.62
260.911	3.68
261.292	3.76
261.672	3.36
262.052	3.48
262.432	3.54
262.813	3.49
263.193	3.98
263.573	3.65
263.953	3.03
264.333	3.5
264.713	4.01
265.093	3.17
265.473	4.45
265.853	3.66
266.233	4.18
266.612	4.08
266.992	3.75
267.372	3.58
267.752	2.87
268.131	3.54
268.511	3.41
268.89	3.82
269.27	3.65
269.649	3.78
270.029	3.37
270.408	3.52
270.787	3.35
271.167	4.01
271.546	3.44
271.925	3.6
272.304	3.45
272.683	3.51
273.062	3.77
273.441	3.67
273.82	3.93
274.199	3.57
274.578	3.13
274.957	3.54
275.336	3.6
275.715	3.5
276.093	4.06
276.472	3.52
276.851	4.01
277.229	4.07
277.608	3.28
277.986	3.15
278.365	2.41
278.743	4.37
279.122	2.76
279.5	3.14
279.878	2.66
280.257	4.22
280.635	3.04
281.013	3.66
281.391	3.62
281.769	3.63
282.147	3.43
282.525	3.22
282.903	3.41
283.281	3.53
283.659	3.36
284.037	3.33
284.415	3.78
284.792	3.52
285.17	3.43
285.548	3.29
285.925	3.53
286.303	3.56
286.68	3.72
287.058	3.27
287.435	3.3
287.813	3.5
288.19	4.06
288.567	3.22
288.945	3.61
289.322	3.4
289.699	3.76
290.076	3.58
290.453	3.11
290.83	3.9
291.207	4.08
291.584	3.54
291.961	3.4
292.338	3.6
292.715	4.08
293.092	3.55
293.469	4.42
293.845	3.62
294.222	3.8
294.599	3.86
294.975	3.96
295.352	3.86
295.728	4.23
296.105	3.81
296.481	4.1
296.858	4
297.234	3.97
297.61	3.77
297.986	3.84
298.363	3.28
298.739	4.21
299.115	3.37
299.491	4
299.867	4
300.243	3.98
300.619	4.13
300.995	3.82
301.371	4.06
301.746	3.75
302.122	3.98
302.498	4.05
302.874	3.8
303.249	4.14
303.625	4.04
304	3.81
304.376	4.13
304.751	4.19
305.127	4.56
305.502	4.51
305.878	3.97
306.253	4.41
306.628	4.31
307.003	4.16
307.378	4.04
307.754	4.37
308.129	3.96
308.504	4.64
308.879	4.23
309.254	4.25
309.629	4.23
310.003	4.74
310.378	4.86
310.753	4.2
311.128	4.43
311.502	4.13
311.877	4.48
312.252	4.28
312.626	4.23
313.001	4.49
313.375	4.28
313.75	4.43
314.124	4.7
314.498	4.41
314.873	4.6
315.247	4.56
315.621	4.8
315.995	5.03
316.369	4.66
316.743	4.72
317.117	4.39
317.491	4.76
317.865	4.21
318.239	5.44
318.613	4.79
318.987	4.71
319.361	5.15
319.734	4.73
320.108	4.67
320.482	5.23
320.855	4.69
321.229	5.74
321.602	5.33
321.976	5.08
322.349	4.58
322.723	4.29
323.096	4.79
323.469	4.56
323.843	5.36
324.216	4.77
324.589	5.02
324.962	5.32
325.335	4.79
325.708	4.75
326.081	5.26
326.454	5.04
326.827	5.18
327.2	5.83
327.573	5.38
327.945	5.23
328.318	5.26
328.691	5.48
329.063	5.36
329.436	5.44
329.809	4.8
330.181	4.96
330.553	5.88
330.926	5.55
331.298	4.84
331.671	5.09
332.043	5.14
332.415	5.74
332.787	5.94
333.159	5.41
333.532	4.94
333.904	5.42
334.276	5.42
334.648	5.57
335.02	5.24
335.391	5.65
335.763	5.44
336.135	5.64
336.507	5.74
336.879	5.2
337.25	5.65
337.622	5.62
337.993	5.81
338.365	5.78
338.736	5.95
339.108	5.58
339.479	5.44
339.851	5.69
340.222	5.34
340.593	5.53
340.964	5.47
341.336	5.04
341.707	5.6
342.078	5.28
342.449	5.85
342.82	5.76
343.191	4.97
343.562	5.53
343.933	5.45
344.303	5.63
344.674	5.69
345.045	5.73
345.416	5.66
345.786	5.26
346.157	5.54
346.527	5.25
346.898	5.43
347.268	5.4
347.639	5.56
348.009	5.65
348.38	5.63
348.75	5.36
349.12	5.77
349.49	5.99
349.861	6.12
350.231	6.36
350.601	5.94
350.971	5.57
351.341	5.95
351.711	5.6
352.081	5.98
352.45	6.07
352.82	5.78
353.19	5.81
353.56	5.87
353.929	5.63
354.299	5.85
354.669	5.99
355.038	5.94
355.408	6.51
355.777	5.78
356.147	6.2
356.516	6.16
356.885	5.89
357.254	5.99
357.624	6.24
357.993	5.65
358.362	6.05
358.731	5.92
359.1	6.15
359.469	6.17
359.838	5.98
360.207	5.98
360.576	5.97
360.945	5.58
361.314	5.95
361.682	5.84
362.051	5.93
362.42	6.2
362.788	5.96
363.157	5.86
363.525	5.98
363.894	5.87
364.262	6.01
364.631	6.47
364.999	5.99
365.367	6.3
365.735	5.98
366.104	5.78
366.472	6.19
366.84	6.18
367.208	5.81
367.576	5.99
367.944	6.5
368.312	5.91
368.68	6.19
369.048	6.23
369.416	6.33
369.783	5.99
370.151	6.28
370.519	6.24
370.886	6.23
371.254	6.12
371.621	6.19
371.989	6.39
372.356	6.31
372.724	6.16
373.091	6.5
373.458	6.34
373.826	6.24
374.193	6.76
374.56	6.21
374.927	6.09
375.294	6.78
375.661	6.45
376.028	6.53
376.395	6.41
376.762	6.69
377.129	6.7
377.496	6.4
377.863	6.62
378.229	6.58
378.596	6.28
378.963	6.21
379.329	6.44
379.696	6.43
380.062	6.63
380.429	6.51
380.795	6.35
381.161	6.34
381.528	6.2
381.894	6.43
382.26	6.4
382.626	6.6
382.993	6.43
383.359	6.33
383.725	6.61
384.091	6.63
384.457	6.86
384.823	6.22
385.188	6.83
385.554	6.57
385.92	6.74
386.286	6.67
386.651	6.65
387.017	6.73
387.383	6.6
387.748	6.43
388.114	6.56
388.479	6.99
388.845	6.86
389.21	6.81
389.575	7.02
389.94	6.73
390.306	7.03
390.671	6.8
391.036	6.96
391.401	7.02
391.766	6.87
392.131	6.69
392.496	6.89
392.861	6.77
393.226	6.83
393.591	6.92
393.956	7
394.32	6.71
394.685	6.88
395.05	6.7
395.414	6.89
395.779	6.74
396.143	6.94
396.508	7.1
396.872	7.05
397.236	6.71
397.601	7.15
397.965	6.76
398.329	6.99
398.694	6.65
399.058	6.84
399.422	7.05
399.786	6.86
400.15	6.99
400.514	6.9
400.878	6.86
401.242	7.21
401.605	6.89
401.969	7.09
402.333	6.96
402.697	7.11
403.06	7.15
403.424	7.27
403.787	7.44
404.151	7.12
404.514	7.09
404.878	7.11
405.241	7.21
405.604	7.02
405.968	7.22
406.331	7.06
406.694	7.21
407.057	7.35
407.42	7.1
407.783	7.28
408.146	7.22
408.509	7.14
408.872	7.25
409.235	7.23
409.598	7.38
409.961	7.25
410.323	7.52
410.686	7.47
411.049	7.31
411.411	7.21
411.774	7.27
412.136	7.38
412.499	7.33
412.861	7.2
413.223	7.61
413.586	7.29
413.948	7.52
414.31	7.39
414.672	7.41
415.035	7.73
415.397	7.43
415.759	7.71
416.121	7.6
416.483	7.74
416.845	7.57
417.206	7.59
417.568	7.64
417.93	7.62
418.292	7.61
418.653	7.61
419.015	7.7
419.377	7.62
419.738	7.47
420.1	7.64
420.461	7.45
420.822	7.62
421.184	7.51
421.545	7.58
421.906	7.54
422.267	7.49
422.629	7.59
422.99	7.45
423.351	7.53
423.712	7.48
424.073	7.6
424.434	7.68
424.795	7.5
425.155	7.56
425.516	7.55
425.877	7.62
426.238	7.51
426.598	7.64
426.959	7.52
427.32	7.74
427.68	7.76
428.041	7.71
428.401	7.66
428.761	7.68
429.122	7.77
429.482	7.68
429.842	7.81
430.202	7.89
430.563	7.76
430.923	7.9
431.283	7.97
431.643	7.94
432.003	8.1
432.363	7.97
432.722	8
433.082	7.93
433.442	8.11
433.802	8.03
434.161	7.85
434.521	7.89
434.881	8.01
435.24	7.85
435.6	7.99
435.959	7.89
436.319	7.95
436.678	7.97
437.037	8.03
437.396	8.06
437.756	8.07
438.115	8.12
438.474	8.14
438.833	8.1
439.192	8.22
439.551	8.15
439.91	8.24
440.269	8.25
440.628	8.18
440.987	8.06
441.345	8.14
441.704	8.25
442.063	8.09
442.421	8.15
442.78	8.07
443.138	8.01
443.497	7.99
443.855	8.2
444.214	8.36
444.572	8.12
444.93	8.22
445.288	8.43
445.647	8.42
446.005	8.02
446.363	8.24
446.721	8.13
447.079	8.18
447.437	8.21
447.795	8.13
448.153	8.13
448.51	8.17
448.868	8.25
449.226	8.25
449.584	8.14
449.941	8.4
450.299	8.27
450.656	8.3
451.014	8.33
451.371	8.45
451.729	8.43
452.086	8.43
452.443	8.32
452.801	8.41
453.158	8.59
453.515	8.27
453.872	8.42
454.229	8.41
454.586	8.51
454.943	8.32
455.3	8.65
455.657	8.35
456.014	8.61
456.371	8.54
456.727	8.46
457.084	8.61
457.441	8.48
457.797	8.53
458.154	8.72
458.51	8.55
458.867	8.54
459.223	8.55
459.58	8.47
459.936	8.51
460.292	8.62
460.648	8.55
461.005	8.44
461.361	8.46
461.717	8.47
462.073	8.47
462.429	8.52
462.785	8.7
463.141	8.71
463.496	8.75
463.852	8.84
464.208	8.76
464.564	8.59
464.919	8.75
465.275	8.82
465.631	8.78
465.986	8.77
466.342	8.79
466.697	8.83
467.052	8.73
467.408	8.76
467.763	8.68
468.118	8.74
468.473	9.07
468.829	8.82
469.184	8.98
469.539	8.68
469.894	8.81
470.249	8.77
470.603	9.02
470.958	9.01
471.313	8.88
471.668	9.1
472.023	9.01
472.377	9.04
472.732	8.97
473.086	8.9
473.441	8.93
473.795	9.24
474.15	9.02
474.504	9.08
474.859	9.1
475.213	8.84
475.567	8.94
475.921	9.23
476.275	9.11
476.63	9.12
476.984	9.02
477.338	9.28
477.692	9.1
478.045	9.05
478.399	9.14
478.753	9.01
479.107	9.04
479.461	9.18
479.814	9.26
480.168	9.28
480.521	9.07
480.875	9.27
481.228	9.28
481.582	9.18
481.935	9.18
482.289	9.26
482.642	9.1
482.995	9.31
483.348	9.07
483.701	9.14
484.055	9.14
484.408	9.07
484.761	8.87
485.114	8.76
485.466	8.74
485.819	8.74
486.172	8.8
486.525	8.88
486.878	8.94
487.23	9.04
487.583	9.08
487.936	9.14
488.288	9.1
488.641	9.03
488.993	9
489.345	8.99
489.698	9.05
490.05	9.06
490.402	9.14
490.754	9.26
491.107	9.21
491.459	9.36
491.811	9.42
492.163	9.46
492.515	9.36
492.866	9.16
493.218	9.18
493.57	9.26
493.922	9.26
494.274	9.35
494.625	9.36
494.977	9.32
495.328	9.62
495.68	9.77
496.031	9.72
496.383	9.58
496.734	9.82
497.086	9.73
497.437	9.78
497.788	9.6
498.139	9.74
498.49	9.7
498.842	9.76
499.193	9.76
499.544	9.86
499.894	9.83
500.245	9.83
500.596	9.82
500.947	9.78
501.298	9.85
501.648	9.88
501.999	10.13
502.35	10.09
502.7	10.07
503.051	10.04
503.401	10.03
503.752	9.9
504.102	9.89
504.452	9.94
504.803	9.96
505.153	10.12
505.503	10.08
505.853	10.13
506.203	10.1
506.553	10.11
506.903	10.1
507.253	10.23
507.603	10.21
507.953	10.26
508.303	10.27
508.652	10.17
509.002	10.23
509.352	10.17
509.701	10.28
510.051	10.28
510.4	10.2
510.75	10.22
511.099	10.27
511.449	10.29
511.798	10.34
512.147	10.37
512.496	10.41
512.846	10.42
513.195	10.4
513.544	10.42
513.893	10.3
514.242	10.56
514.591	10.52
514.939	10.44
515.288	10.6
515.637	10.59
515.986	10.67
516.334	10.66
516.683	10.67
517.032	10.54
517.38	10.64
517.729	10.65
518.077	10.68
518.426	10.68
518.774	10.75
519.122	10.58
519.47	10.62
519.819	10.62
520.167	10.66
520.515	10.62
520.863	10.57
521.211	10.77
521.559	10.74
521.907	10.79
522.255	10.83
522.602	10.92
522.95	10.89
523.298	10.94
523.645	10.78
523.993	11.07
524.341	10.92
524.688	11.06
525.036	11.04
525.383	10.99
525.73	11.09
526.078	11.13
526.425	11.02
526.772	10.88
527.119	10.87
527.466	10.96
527.814	10.99
528.161	11
528.508	11.02
528.854	10.97
529.201	10.96
529.548	10.91
529.895	10.83
530.242	10.83
530.588	10.84
530.935	10.89
531.282	10.87
531.628	10.94
531.975	11.1
532.321	11.08
532.667	11.26
533.014	11.32
533.36	11.29
533.706	11.36
534.052	11.36
534.399	11.25
534.745	11.24
535.091	11.23
535.437	11.35
535.783	11.39
536.129	11.43
536.474	11.51
536.82	11.52
537.166	11.74
537.512	11.7
537.857	11.66
538.203	11.54
538.549	11.77
538.894	11.74
539.239	11.75
539.585	11.85
539.93	11.87
540.276	11.94
540.621	11.94
540.966	11.87
541.311	12.05
541.656	11.97
542.001	12.06
542.346	11.89
542.691	11.75
543.036	11.7
543.381	11.78
543.726	11.75
544.071	11.81
544.415	11.89
544.76	11.96
545.105	12.07
545.449	12.04
545.794	12.09
546.138	12.25
546.483	12.27
546.827	12.33
547.171	12.36
547.516	12.51
547.86	12.37
548.204	12.35
548.548	12.5
548.892	12.5
549.236	12.49
549.58	12.45
549.924	12.49
550.268	12.72
550.612	12.7
550.956	12.79
551.3	12.85
551.643	12.72
551.987	12.86
552.33	12.9
552.674	13.01
553.017	12.94
553.361	12.95
553.704	12.86
554.048	13.11
554.391	13.08
554.734	12.93
555.077	13.06
555.42	13.19
555.764	13.13
556.107	13.09
556.45	13.18
556.793	13.36
557.135	13.42
557.478	13.32
557.821	13.19
558.164	13.43
558.507	13.34
558.849	13.34
559.192	13.26
559.534	13.27
559.877	13.43
560.219	13.76
560.562	13.54
560.904	13.65
561.246	13.71
561.589	13.82
561.931	13.76
562.273	13.62
562.615	13.76
562.957	13.76
563.299	13.72
563.641	13.87
563.983	13.74
564.325	13.77
564.667	13.89
565.008	13.69
565.35	14.01
565.692	14.09
566.033	14.07
566.375	13.99
566.716	14.1
567.058	13.9
567.399	14.19
567.741	14.19
568.082	14.06
568.423	14.19
568.764	14.25
569.105	14.33
569.447	14.17
569.788	14.13
570.129	14.29
570.47	14.52
570.811	14.39
571.151	14.52
571.492	14.62
571.833	14.51
572.174	14.54
572.514	14.48
572.855	14.75
573.195	14.64
573.536	14.56
573.876	14.62
574.217	14.72
574.557	14.64
574.898	14.73
575.238	14.61
575.578	14.91
575.918	14.86
576.258	14.92
576.598	14.88
576.938	15.03
577.278	14.85
577.618	14.84
577.958	15.02
578.298	15.25
578.638	15.33
578.977	15.24
579.317	15.32
579.657	15.37
579.996	15
580.336	15.13
580.675	15.44
581.014	15.28
581.354	15.56
581.693	15.37
582.032	15.42
582.372	15.7
582.711	15.57
583.05	15.59
583.389	15.72
583.728	15.48
584.067	15.79
584.406	15.7
584.745	15.82
585.083	16.09
585.422	15.9
585.761	15.95
586.1	15.88
586.438	16.07
586.777	16.19
587.115	16.07
587.454	16.16
587.792	15.9
588.13	16.37
588.469	16.03
588.807	16.53
589.145	16.4
589.483	16.06
589.821	16.48
590.159	16.35
590.497	16.27
590.835	16.31
591.173	16.47
591.511	16.57
591.849	16.67
592.187	16.44
592.524	16.44
592.862	16.59
593.2	16.57
593.537	16.76
593.875	16.94
594.212	16.61
594.55	16.76
594.887	17
595.224	16.84
595.561	16.87
595.899	17.09
596.236	16.97
596.573	16.86
596.91	16.81
597.247	17.16
597.584	17.01
597.921	17.08
598.258	17.18
598.594	17.09
598.931	17.1
599.268	17.08
599.604	17.37
599.941	17.09
600.277	17.27
600.614	17.22
600.95	17.3
601.287	17.5
601.623	17.52
601.959	17.49
602.296	17.66
602.632	17.7
602.968	17.74
603.304	17.58
603.64	17.5
603.976	17.79
604.312	17.74
604.648	18
604.984	17.71
605.319	17.65
605.655	17.66
605.991	17.86
606.326	17.79
606.662	17.57
606.998	17.95
607.333	17.99
607.668	18.09
608.004	17.97
608.339	18.14
608.674	18.14
609.01	18.42
609.345	18.26
609.68	18.18
610.015	18.39
610.35	18.36
610.685	18.32
611.02	18.44
611.355	18.4
611.689	18.42
612.024	18.59
612.359	18.62
612.694	18.78
613.028	18.56
613.363	18.51
613.697	18.64
614.032	18.76
614.366	18.69
614.7	19.34
615.035	18.69
615.369	19.3
615.703	19.1
616.037	18.86
616.371	18.88
616.705	19.23
617.039	19.37
617.373	19.01
617.707	19.24
618.041	19.05
618.375	19.24
618.709	19.19
619.042	19.32
619.376	19.22
619.71	19.32
620.043	19.21
620.377	19.47
620.71	19.34
621.043	19.39
621.377	19.23
621.71	19.37
622.043	19.47
622.376	19.89
622.709	20.13
623.043	19.75
623.376	19.7
623.709	19.78
624.041	19.84
624.374	19.59
624.707	20.06
625.04	20.31
625.373	19.75
625.705	20.28
626.038	20.17
626.37	20.13
626.703	20.01
627.035	20.41
627.368	20.37
627.7	20.21
628.032	20.52
628.365	20.08
628.697	20.14
629.029	20.34
629.361	20.18
629.693	20.69
630.025	20.61
630.357	20.35
630.689	20.51
631.021	20.41
631.353	20.57
631.684	20.59
632.016	20.27
632.348	20.83
632.679	20.76
633.011	21
633.342	20.96
633.674	20.63
634.005	20.89
634.336	20.7
634.668	20.62
634.999	20.79
635.33	20.99
635.661	21.15
635.992	21.1
636.323	21.05
636.654	21.2
636.985	20.95
637.316	21.17
637.647	21.08
637.977	21.1
638.308	21.01
638.639	20.87
638.969	21.26
639.3	21.25
639.63	21.06
639.961	21.2
640.291	21.51
640.622	21.95
640.952	21.7
641.282	21
641.612	21.54
641.943	22
642.273	21.89
642.603	21.89
642.933	21.65
643.263	22.26
643.592	22.04
643.922	22.3
644.252	21.9
644.582	21.75
644.911	22.03
645.241	21.92
645.571	21.77
645.9	22.14
646.23	22.38
646.559	22.23
646.888	22.22
647.218	22.57
647.547	22.33
647.876	22.86
648.205	21.99
648.534	22.31
648.863	22.52
649.192	22.03
649.521	22.18
649.85	23.5
650.179	22.24
650.508	22.65
650.837	22.51
651.165	22.71
651.494	22.43
651.822	22.56
652.151	22.55
652.479	23.37
652.808	22.57
653.136	22.29
653.465	23.25
653.793	23.17
654.121	23.22
654.449	22.91
654.777	22.8
655.105	23.6
655.433	23.7
655.761	22.69
656.089	22.78
656.417	22.65
656.745	23.65
657.073	23.5
657.4	23.36
657.728	22.95
658.056	23.38
658.383	23.24
658.711	23.12
659.038	23.74
659.365	23.19
659.693	23.17
660.02	23.32
660.347	24.08
660.674	23.35
661.001	23.18
661.329	23.64
661.656	23.75
661.982	23.94
662.309	23.86
662.636	23.66
662.963	23.71
663.29	23.7
663.616	23.72
663.943	23.84
664.27	23.62
664.596	23.86
664.923	24.8
665.249	24.03
665.576	23.94
665.902	23.73
666.228	24.17
666.554	23.98
666.881	24.22
667.207	23.99
667.533	24.45
667.859	24.16
668.185	25.05
668.511	24.12
668.837	24.1
669.162	24.36
669.488	25.06
669.814	25.2
670.139	24.55
670.465	24.13
670.791	24.57
671.116	24.15
671.442	24.49
671.767	24.58
672.092	25.48
672.418	24.88
672.743	24.61
673.068	23.89
673.393	24.6
673.718	25.31
674.043	25.17
674.368	24.96
674.693	24.46
675.018	24.7
675.343	24.96
675.667	24.81
675.992	24.95
676.317	25.05
676.641	25.12
676.966	24.95
677.29	24.69
677.615	25.32
677.939	25.28
678.264	25.71
678.588	25.3
678.912	25.52
679.236	25.36
679.56	25.71
679.885	25.38
680.209	24.99
680.532	25.37
680.856	25.7
