Data from 0054_crown_Reflection__3__08.txt Node

Date: Fri Dec 16 13:52:07 CST 2022
User: ToomeyLab
Spectrometer: FLMS14357
Trigger mode: 0
Integration Time (sec): 1.000000E-2
Scans to average: 100
Electric dark correction enabled: true
Nonlinearity correction enabled: false
Boxcar width: 0
XAxis mode: Wavelengths
Number of Pixels in Spectrum: 2048
>>>>>Begin Spectral Data<<<<<
189.047	825.22
189.435	825.22
189.823	825.22
190.211	114.26
190.599	-1.6
190.987	-39.43
191.375	-4.03
191.763	74.18
192.151	-90.3
192.538	104.28
192.926	27.36
193.314	54.15
193.702	522.29
194.089	-110.6
194.477	-0.92
194.864	-455.02
195.252	245.02
195.639	105.33
196.027	27.37
196.414	-285.18
196.801	259.4
197.189	87.91
197.576	34.1
197.963	593.41
198.351	-32.1
198.738	-9.5
199.125	22.59
199.512	-21.65
199.899	-65.57
200.286	-31.38
200.673	5.52
201.06	35.75
201.447	18.68
201.833	-21.97
202.22	17.74
202.607	-6.99
202.994	6.05
203.38	-0.84
203.767	-24.24
204.154	-16.98
204.54	26.73
204.927	12.69
205.313	38.23
205.699	13.57
206.086	-0.83
206.472	22.09
206.858	-10
207.245	22.98
207.631	8.25
208.017	16.1
208.403	26.13
208.789	-8.22
209.175	27.1
209.561	12.52
209.947	-0.21
210.333	-8.28
210.719	23.11
211.105	-16.98
211.491	-2.94
211.876	0.28
212.262	5.19
212.648	-21.24
213.034	3.03
213.419	10.29
213.805	-13.61
214.19	-8.52
214.576	-8.6
214.961	2.97
215.346	-30.29
215.732	-2.29
216.117	-7.72
216.502	-2.15
216.888	-17.54
217.273	10.74
217.658	-10.4
218.043	9.97
218.428	2.72
218.813	-15.83
219.198	-17.94
219.583	18.21
219.968	-8.2
220.353	5.73
220.738	-4.9
221.122	-1.37
221.507	-5.03
221.892	-9.79
222.276	8.69
222.661	8.17
223.046	3.15
223.43	4.22
223.815	9.44
224.199	7.88
224.583	1.66
224.968	11.04
225.352	-0.55
225.736	18.32
226.121	-4.18
226.505	4.44
226.889	5.03
227.273	4.61
227.657	0.59
228.041	4.03
228.425	5.61
228.809	6.59
229.193	3.8
229.577	4.08
229.961	4.33
230.344	4.28
230.728	4.35
231.112	3.37
231.495	4.24
231.879	4.55
232.263	2.68
232.646	3.88
233.03	2.19
233.413	1.59
233.797	4.45
234.18	0.87
234.563	2.87
234.946	6.33
235.33	5.05
235.713	4.6
236.096	5.31
236.479	3.42
236.862	3.32
237.245	3.7
237.628	3.94
238.011	3.73
238.394	5.15
238.777	2.71
239.16	3.18
239.543	2.47
239.925	4.9
240.308	4.13
240.691	3.69
241.073	2.19
241.456	1.88
241.838	3.63
242.221	3.78
242.603	4.23
242.986	4.46
243.368	3.85
243.75	3.47
244.133	3.63
244.515	3.91
244.897	3.8
245.279	3.05
245.661	3.67
246.043	3.53
246.425	2.42
246.807	4.11
247.189	4.1
247.571	3.9
247.953	3.61
248.335	3.89
248.717	3.67
249.098	3.81
249.48	3.7
249.862	3.71
250.243	3.68
250.625	3.69
251.006	3.69
251.388	4.18
251.769	3.45
252.151	4.09
252.532	3.41
252.913	3.31
253.295	3.63
253.676	3.91
254.057	3.02
254.438	3.44
254.819	3.5
255.2	3.44
255.581	3.75
255.962	3.11
256.343	3.78
256.724	3.5
257.105	4.65
257.486	3.73
257.867	2.62
258.247	3.92
258.628	4.22
259.009	3.37
259.389	3.8
259.77	2.6
260.15	3.84
260.531	3.7
260.911	3.5
261.292	3.45
261.672	3.29
262.052	3.35
262.432	3.19
262.813	3.74
263.193	3.4
263.573	3.45
263.953	2.97
264.333	3.67
264.713	2.6
265.093	3.66
265.473	4.05
265.853	3.46
266.233	3.67
266.612	3.23
266.992	3.05
267.372	3.19
267.752	3.43
268.131	3.3
268.511	3.57
268.89	3.41
269.27	3.71
269.649	3.16
270.029	3.29
270.408	2.96
270.787	2.89
271.167	4
271.546	2.7
271.925	3.42
272.304	3.76
272.683	3.2
273.062	3.14
273.441	3.64
273.82	3.64
274.199	3.41
274.578	3.09
274.957	3.15
275.336	3.5
275.715	3.52
276.093	3.78
276.472	4.03
276.851	3.34
277.229	3.88
277.608	3.2
277.986	3.59
278.365	3.24
278.743	3.3
279.122	2.66
279.5	3.13
279.878	2.63
280.257	3.17
280.635	3.06
281.013	3.47
281.391	3.11
281.769	3.1
282.147	3.37
282.525	2.66
282.903	2.98
283.281	3.12
283.659	3.57
284.037	2.9
284.415	3.24
284.792	3.19
285.17	3.02
285.548	2.54
285.925	3.22
286.303	3.05
286.68	3.51
287.058	2.76
287.435	2.96
287.813	3.15
288.19	3.04
288.567	2.86
288.945	3.05
289.322	2.27
289.699	2.8
290.076	3.29
290.453	2.94
290.83	2.92
291.207	2.88
291.584	2.74
291.961	3.09
292.338	3.26
292.715	3.35
293.092	2.66
293.469	3.34
293.845	3.43
294.222	3
294.599	3.38
294.975	3.13
295.352	2.61
295.728	3.39
296.105	2.75
296.481	3.7
296.858	3.03
297.234	2.78
297.61	3.07
297.986	3.16
298.363	2.57
298.739	3.04
299.115	2.4
299.491	2.9
299.867	3.1
300.243	3
300.619	3.06
300.995	2.95
301.371	3.06
301.746	2.59
302.122	2.96
302.498	2.85
302.874	3.05
303.249	3.35
303.625	3.16
304	2.5
304.376	3.05
304.751	2.77
305.127	2.38
305.502	3.11
305.878	2.62
306.253	2.69
306.628	3.36
307.003	2.96
307.378	2.64
307.754	2.81
308.129	2.76
308.504	2.97
308.879	3.1
309.254	3.13
309.629	2.53
310.003	2.97
310.378	3.15
310.753	2.87
311.128	2.98
311.502	2.91
311.877	2.94
312.252	2.88
312.626	2.54
313.001	2.62
313.375	2.7
313.75	2.76
314.124	3.38
314.498	3.1
314.873	2.75
315.247	2.15
315.621	3.04
315.995	2.91
316.369	3.01
316.743	3.5
317.117	2.67
317.491	2.69
317.865	2.44
318.239	3.18
318.613	3.03
318.987	3.42
319.361	3.04
319.734	2.96
320.108	2.8
320.482	2.92
320.855	2.98
321.229	3.48
321.602	2.53
321.976	2.73
322.349	2.62
322.723	2.38
323.096	2.52
323.469	2.27
323.843	2.66
324.216	2.43
324.589	3.01
324.962	2.4
325.335	2.07
325.708	3.15
326.081	2.99
326.454	2.92
326.827	2.86
327.2	2.85
327.573	3.41
327.945	2.77
328.318	2.85
328.691	2.9
329.063	2.64
329.436	2.84
329.809	2.4
330.181	2.34
330.553	2.89
330.926	3.11
331.298	2.86
331.671	2.9
332.043	2.92
332.415	2.81
332.787	3.11
333.159	2.81
333.532	2.9
333.904	2.98
334.276	2.41
334.648	3.02
335.02	2.62
335.391	2.92
335.763	2.44
336.135	3.01
336.507	2.96
336.879	2.62
337.25	2.93
337.622	3.2
337.993	2.97
338.365	3.13
338.736	2.91
339.108	2.52
339.479	3.03
339.851	3.01
340.222	2.91
340.593	2.33
340.964	2.18
341.336	2.29
341.707	2.58
342.078	2.36
342.449	3.19
342.82	2.8
343.191	2.59
343.562	2.86
343.933	2.82
344.303	2.89
344.674	2.82
345.045	2.99
345.416	3.06
345.786	2.53
346.157	2.78
346.527	2.5
346.898	2.67
347.268	2.65
347.639	2.97
348.009	3.03
348.38	2.75
348.75	2.85
349.12	2.96
349.49	2.45
349.861	2.82
350.231	3.04
350.601	2.74
350.971	2.87
351.341	2.94
351.711	2.72
352.081	3.17
352.45	2.91
352.82	3.14
353.19	2.71
353.56	2.91
353.929	2.95
354.299	2.64
354.669	3
355.038	2.82
355.408	3.32
355.777	2.58
356.147	2.73
356.516	3.05
356.885	2.65
357.254	3.23
357.624	3.18
357.993	2.88
358.362	3.1
358.731	2.87
359.1	2.99
359.469	3.07
359.838	2.73
360.207	2.83
360.576	2.98
360.945	2.81
361.314	3.1
361.682	2.66
362.051	2.96
362.42	3.34
362.788	2.9
363.157	2.97
363.525	2.58
363.894	2.6
364.262	2.88
364.631	3.26
364.999	2.74
365.367	2.96
365.735	2.64
366.104	2.63
366.472	3.03
366.84	2.87
367.208	2.64
367.576	2.95
367.944	3.14
368.312	2.94
368.68	2.97
369.048	3
369.416	2.98
369.783	3.02
370.151	3.31
370.519	2.76
370.886	2.72
371.254	3.04
371.621	2.87
371.989	2.89
372.356	2.99
372.724	3.04
373.091	3.04
373.458	2.85
373.826	2.78
374.193	3.33
374.56	2.81
374.927	2.79
375.294	2.98
375.661	2.93
376.028	2.96
376.395	2.88
376.762	3.21
377.129	3.41
377.496	3.1
377.863	2.88
378.229	2.96
378.596	2.8
378.963	2.91
379.329	2.99
379.696	2.89
380.062	3.26
380.429	2.96
380.795	2.85
381.161	2.85
381.528	2.92
381.894	3.18
382.26	2.79
382.626	2.79
382.993	2.95
383.359	2.97
383.725	3.49
384.091	2.98
384.457	3.31
384.823	3.22
385.188	3.15
385.554	3.1
385.92	3.31
386.286	3.2
386.651	3.02
387.017	3.29
387.383	3.15
387.748	2.86
388.114	3.11
388.479	3.3
388.845	2.99
389.21	3.35
389.575	3.04
389.94	2.97
390.306	2.99
390.671	2.82
391.036	3.33
391.401	3.17
391.766	3.35
392.131	3.12
392.496	3.03
392.861	3.05
393.226	3.19
393.591	3.25
393.956	3.24
394.32	3.16
394.685	3.08
395.05	3.13
395.414	3.16
395.779	2.99
396.143	3.05
396.508	3.21
396.872	3.27
397.236	2.83
397.601	3.21
397.965	2.97
398.329	3.16
398.694	2.95
399.058	3.17
399.422	3.15
399.786	3.49
400.15	3.13
400.514	3.39
400.878	3.11
401.242	3.36
401.605	3.24
401.969	3.36
402.333	3.13
402.697	3.57
403.06	3.37
403.424	3.17
403.787	3.24
404.151	3.13
404.514	3.32
404.878	3.23
405.241	3.25
405.604	3.18
405.968	3.28
406.331	3.14
406.694	3.1
407.057	3.36
407.42	3.2
407.783	3.13
408.146	3.26
408.509	3.13
408.872	3.1
409.235	3.25
409.598	3.2
409.961	3.52
410.323	3.2
410.686	3.03
411.049	3.01
411.411	3.28
411.774	3.09
412.136	3.44
412.499	3.26
412.861	2.96
413.223	3.55
413.586	3.11
413.948	3.44
414.31	3.36
414.672	3.32
415.035	3.33
415.397	3.36
415.759	3.18
416.121	3.47
416.483	3.39
416.845	3.34
417.206	3.45
417.568	3.27
417.93	3.31
418.292	3.31
418.653	3.27
419.015	3.48
419.377	3.37
419.738	3.29
420.1	3.34
420.461	3.2
420.822	3.31
421.184	3.35
421.545	3.25
421.906	3.28
422.267	3.21
422.629	3.24
422.99	3.25
423.351	3.31
423.712	3.21
424.073	3.25
424.434	3.24
424.795	3.19
425.155	3.26
425.516	3.23
425.877	3.22
426.238	3.18
426.598	3.29
426.959	3.21
427.32	3.31
427.68	3.39
428.041	3.43
428.401	3.36
428.761	3.25
429.122	3.3
429.482	3.23
429.842	3.43
430.202	3.28
430.563	3.47
430.923	3.35
431.283	3.5
431.643	3.35
432.003	3.61
432.363	3.45
432.722	3.39
433.082	3.36
433.442	3.39
433.802	3.33
434.161	3.34
434.521	3.37
434.881	3.46
435.24	3.38
435.6	3.36
435.959	3.35
436.319	3.44
436.678	3.49
437.037	3.4
437.396	3.46
437.756	3.53
438.115	3.33
438.474	3.41
438.833	3.5
439.192	3.59
439.551	3.43
439.91	3.55
440.269	3.65
440.628	3.47
440.987	3.28
441.345	3.34
441.704	3.34
442.063	3.42
442.421	3.47
442.78	3.36
443.138	3.36
443.497	3.42
443.855	3.31
444.214	3.43
444.572	3.44
444.93	3.49
445.288	3.5
445.647	3.54
446.005	3.28
446.363	3.54
446.721	3.27
447.079	3.35
447.437	3.31
447.795	3.44
448.153	3.38
448.51	3.38
448.868	3.49
449.226	3.38
449.584	3.48
449.941	3.48
450.299	3.51
450.656	3.54
451.014	3.44
451.371	3.52
451.729	3.39
452.086	3.39
452.443	3.53
452.801	3.6
453.158	3.58
453.515	3.48
453.872	3.62
454.229	3.44
454.586	3.51
454.943	3.51
455.3	3.51
455.657	3.33
456.014	3.54
456.371	3.43
456.727	3.4
457.084	3.46
457.441	3.54
457.797	3.67
458.154	3.64
458.51	3.49
458.867	3.46
459.223	3.49
459.58	3.52
459.936	3.52
460.292	3.51
460.648	3.46
461.005	3.43
461.361	3.48
461.717	3.52
462.073	3.51
462.429	3.57
462.785	3.58
463.141	3.68
463.496	3.39
463.852	3.6
464.208	3.6
464.564	3.37
464.919	3.46
465.275	3.63
465.631	3.61
465.986	3.55
466.342	3.58
466.697	3.56
467.052	3.63
467.408	3.48
467.763	3.5
468.118	3.57
468.473	3.61
468.829	3.45
469.184	3.67
469.539	3.48
469.894	3.6
470.249	3.56
470.603	3.42
470.958	3.65
471.313	3.52
471.668	3.66
472.023	3.64
472.377	3.53
472.732	3.53
473.086	3.63
473.441	3.54
473.795	3.75
474.15	3.52
474.504	3.58
474.859	3.76
475.213	3.61
475.567	3.53
475.921	3.61
476.275	3.72
476.63	3.61
476.984	3.57
477.338	3.83
477.692	3.53
478.045	3.49
478.399	3.68
478.753	3.55
479.107	3.59
479.461	3.61
479.814	3.63
480.168	3.64
480.521	3.71
480.875	3.75
481.228	3.7
481.582	3.47
481.935	3.5
482.289	3.65
482.642	3.66
482.995	3.6
483.348	3.58
483.701	3.6
484.055	3.48
484.408	3.5
484.761	3.38
485.114	3.37
485.466	3.4
485.819	3.43
486.172	3.47
486.525	3.53
486.878	3.51
487.23	3.59
487.583	3.53
487.936	3.54
488.288	3.49
488.641	3.46
488.993	3.4
489.345	3.49
489.698	3.54
490.05	3.5
490.402	3.56
490.754	3.66
491.107	3.57
491.459	3.62
491.811	3.72
492.163	3.74
492.515	3.59
492.866	3.44
493.218	3.47
493.57	3.56
493.922	3.56
494.274	3.63
494.625	3.57
494.977	3.63
495.328	3.71
495.68	3.82
496.031	3.84
496.383	3.6
496.734	3.69
497.086	3.6
497.437	3.72
497.788	3.64
498.139	3.74
498.49	3.6
498.842	3.6
499.193	3.6
499.544	3.79
499.894	3.74
500.245	3.74
500.596	3.69
500.947	3.72
501.298	3.68
501.648	3.65
501.999	3.78
502.35	3.69
502.7	3.75
503.051	3.88
503.401	3.77
503.752	3.64
504.102	3.77
504.452	3.61
504.803	3.61
505.153	3.71
505.503	3.76
505.853	3.66
506.203	3.7
506.553	3.81
506.903	3.73
507.253	3.7
507.603	3.8
507.953	3.72
508.303	3.8
508.652	3.64
509.002	3.82
509.352	3.72
509.701	3.75
510.051	3.81
510.4	3.75
510.75	3.68
511.099	3.64
511.449	3.75
511.798	3.86
512.147	3.64
512.496	3.77
512.846	3.8
513.195	3.73
513.544	3.76
513.893	3.61
514.242	3.79
514.591	3.79
514.939	3.76
515.288	3.81
515.637	3.83
515.986	3.82
516.334	3.87
516.683	3.9
517.032	3.75
517.38	3.76
517.729	3.77
518.077	3.83
518.426	3.67
518.774	3.76
519.122	3.81
519.47	3.69
519.819	3.74
520.167	3.66
520.515	3.75
520.863	3.71
521.211	3.75
521.559	3.73
521.907	3.76
522.255	3.79
522.602	3.81
522.95	3.98
523.298	3.88
523.645	3.75
523.993	3.89
524.341	3.77
524.688	3.92
525.036	3.79
525.383	3.76
525.73	3.79
526.078	3.81
526.425	3.8
526.772	3.68
527.119	3.65
527.466	3.74
527.814	3.76
528.161	3.77
528.508	3.76
528.854	3.76
529.201	3.75
529.548	3.62
529.895	3.59
530.242	3.58
530.588	3.64
530.935	3.67
531.282	3.7
531.628	3.72
531.975	3.77
532.321	3.8
532.667	3.76
533.014	3.8
533.36	3.77
533.706	3.83
534.052	3.67
534.399	3.67
534.745	3.66
535.091	3.69
535.437	3.76
535.783	3.79
536.129	3.79
536.474	3.88
536.82	3.79
537.166	3.81
537.512	3.83
537.857	3.86
538.203	3.79
538.549	3.86
538.894	3.77
539.239	3.95
539.585	3.85
539.93	3.84
540.276	3.82
540.621	3.84
540.966	3.79
541.311	3.97
541.656	3.83
542.001	3.82
542.346	3.68
542.691	3.65
543.036	3.66
543.381	3.74
543.726	3.77
544.071	3.86
544.415	3.8
544.76	3.71
545.105	3.84
545.449	3.81
545.794	3.79
546.138	3.88
546.483	3.86
546.827	3.92
547.171	3.9
547.516	3.96
547.86	3.86
548.204	3.83
548.548	3.86
548.892	3.91
549.236	3.83
549.58	3.88
549.924	3.75
550.268	4.02
550.612	4
550.956	3.79
551.3	4.05
551.643	3.93
551.987	3.85
552.33	3.76
552.674	3.97
553.017	4.01
553.361	3.8
553.704	3.72
554.048	4.03
554.391	3.85
554.734	3.82
555.077	3.9
555.42	3.86
555.764	4.06
556.107	3.96
556.45	3.78
556.793	4.21
557.135	4.03
557.478	4.08
557.821	3.91
558.164	4.22
558.507	3.97
558.849	3.89
559.192	3.88
559.534	3.78
559.877	4.04
560.219	4.15
560.562	3.95
560.904	3.95
561.246	4.01
561.589	3.92
561.931	4.15
562.273	3.92
562.615	4.05
562.957	4.06
563.299	4.11
563.641	3.93
563.983	3.91
564.325	3.82
564.667	4.01
565.008	3.91
565.35	4.14
565.692	4.14
566.033	3.99
566.375	3.83
566.716	4.01
567.058	3.99
567.399	3.96
567.741	3.96
568.082	3.86
568.423	3.97
568.764	4
569.105	4.06
569.447	3.89
569.788	4.03
570.129	3.93
570.47	4.04
570.811	4.1
571.151	3.98
571.492	4.06
571.833	4.11
572.174	4.03
572.514	3.82
572.855	4.06
573.195	3.75
573.536	3.91
573.876	3.99
574.217	4.02
574.557	4.03
574.898	3.88
575.238	3.87
575.578	4.13
575.918	3.99
576.258	4
576.598	3.97
576.938	4.02
577.278	4.02
577.618	3.82
577.958	3.92
578.298	4.03
578.638	3.83
578.977	4.06
579.317	3.96
579.657	4.05
579.996	4.08
580.336	3.81
580.675	4.08
581.014	3.94
581.354	4.15
581.693	3.98
582.032	3.9
582.372	4.29
582.711	3.99
583.05	4.09
583.389	4.1
583.728	4.26
584.067	4.19
584.406	4.12
584.745	4.07
585.083	4.29
585.422	3.98
585.761	4.08
586.1	4.26
586.438	4.04
586.777	4.25
587.115	4.19
587.454	4.13
587.792	3.86
588.13	4.44
588.469	4.01
588.807	4.19
589.145	4.02
589.483	3.88
589.821	4.09
590.159	3.96
590.497	3.86
590.835	3.96
591.173	4.15
591.511	4.1
591.849	4.08
592.187	3.94
592.524	4.05
592.862	3.99
593.2	4.06
593.537	4.15
593.875	3.99
594.212	4.05
594.55	4.11
594.887	4.12
595.224	4.08
595.561	4.12
595.899	4.07
596.236	3.98
596.573	4.12
596.91	3.95
597.247	3.91
597.584	3.99
597.921	4.15
598.258	4.09
598.594	4.01
598.931	4.03
599.268	4
599.604	4.18
599.941	4.18
600.277	4.02
600.614	4
600.95	4.07
601.287	4.05
601.623	4.13
601.959	4.03
602.296	4.36
602.632	4.23
602.968	4.23
603.304	4.14
603.64	3.94
603.976	4.06
604.312	4.2
604.648	4.2
604.984	4.05
605.319	4.08
605.655	4.04
605.991	4.05
606.326	4.08
606.662	3.9
606.998	4.07
607.333	3.98
607.668	4.21
608.004	4.24
608.339	3.86
608.674	3.89
609.01	4.21
609.345	4.43
609.68	3.94
610.015	4.18
610.35	3.97
610.685	4.05
611.02	4.28
611.355	4.1
611.689	3.88
612.024	4.31
612.359	4.18
612.694	4.43
613.028	4.58
613.363	4.14
613.697	4.12
614.032	4.07
614.366	4.15
614.7	4.26
615.035	4.24
615.369	4.2
615.703	4.38
616.037	4.04
616.371	4.16
616.705	4.13
617.039	4.24
617.373	4.09
617.707	4.19
618.041	4.33
618.375	4.07
618.709	4.22
619.042	4.16
619.376	3.57
619.71	4.25
620.043	4.07
620.377	4.15
620.71	4.29
621.043	3.87
621.377	4.06
621.71	4.35
622.043	4.25
622.376	3.83
622.709	4.2
623.043	4.3
623.376	4.24
623.709	4.52
624.041	3.99
624.374	3.94
624.707	4.06
625.04	4.48
625.373	4.19
625.705	4.17
626.038	4.05
626.37	4.24
626.703	4.23
627.035	4.2
627.368	4.39
627.7	4.28
628.032	4.21
628.365	3.8
628.697	4.07
629.029	4.36
629.361	3.98
629.693	4.47
630.025	4.16
630.357	3.93
630.689	4.39
631.021	4.38
631.353	4.33
631.684	4.15
632.016	3.79
632.348	4.48
632.679	4.07
633.011	4.04
633.342	3.91
633.674	4.24
634.005	4.37
634.336	3.83
634.668	4.06
634.999	4.4
635.33	4.16
635.661	4.49
635.992	4.04
636.323	4.34
636.654	4.15
636.985	4.35
637.316	4.27
637.647	4.42
637.977	4.03
638.308	3.9
638.639	3.86
638.969	3.89
639.3	4.27
639.63	4.3
639.961	4.21
640.291	4.61
640.622	4.24
640.952	4.41
641.282	3.87
641.612	4.08
641.943	4.4
642.273	4.4
642.603	4.22
642.933	4.34
643.263	4.55
643.592	4.15
643.922	4.68
644.252	5.03
644.582	4.24
644.911	4.46
645.241	4.05
645.571	4.44
645.9	4.39
646.23	4.22
646.559	4.23
646.888	4.21
647.218	4.21
647.547	4.28
647.876	4.44
648.205	3.96
648.534	4.13
648.863	4.58
649.192	3.85
649.521	3.9
649.85	4.7
650.179	4.01
650.508	4.68
650.837	3.98
651.165	4.15
651.494	4.46
651.822	4.35
652.151	5.01
652.479	4.51
652.808	4.27
653.136	4.41
653.465	4.63
653.793	4.77
654.121	4.39
654.449	4.06
654.777	3.88
655.105	5
655.433	4.47
655.761	3.97
656.089	5.02
656.417	4.24
656.745	4.76
657.073	5.18
657.4	4.42
657.728	4.51
658.056	4.46
658.383	4.23
658.711	4.59
659.038	4.56
659.365	4.05
659.693	4.34
660.02	4.32
660.347	4.35
660.674	4.02
661.001	4.1
661.329	4.4
661.656	4.27
661.982	4.46
662.309	4.28
662.636	3.87
662.963	4.37
663.29	4.62
663.616	4.34
663.943	4.91
664.27	4.32
664.596	4.05
664.923	4.7
665.249	4.38
665.576	4.49
665.902	4.53
666.228	3.83
666.554	4.31
666.881	4.54
667.207	4.13
667.533	4.42
667.859	4.28
668.185	4.48
668.511	3.93
668.837	3.57
669.162	4.45
669.488	4.24
669.814	4.93
670.139	5.19
670.465	4.42
670.791	4.71
671.116	4.26
671.442	4.6
671.767	4.58
672.092	4.85
672.418	4.08
672.743	4.48
673.068	4.2
673.393	4.41
673.718	4.29
674.043	4.7
674.368	5.12
674.693	5.21
675.018	4.98
675.343	4.72
675.667	5.09
675.992	4.1
676.317	4.6
676.641	4.66
676.966	4.82
677.29	4.1
677.615	4.39
677.939	4.28
678.264	4.42
678.588	4.74
678.912	4.69
679.236	4.33
679.56	3.82
679.885	4.59
680.209	4.05
680.532	4.44
680.856	5.4
681.18	4.41
681.504	4.38
681.828	4.04
682.152	4.46
682.475	4.44
682.799	4.55
683.122	4.54
683.446	4.12
683.769	4.53
684.093	4.65
684.416	4.43
684.739	5.3
685.062	4.91
685.386	4.52
685.709	4.08
686.032	4.74
686.355	4.36
686.678	4.36
687.001	4
687.324	4.23
687.646	4.55
687.969	4.8
688.292	5.18
688.614	5.57
688.937	4.71
689.26	4.26
689.582	4.3
689.904	4.63
690.227	4.39
690.549	4.73
690.871	4.88
691.194	4.85
691.516	4.29
691.838	4.72
692.16	4.02
692.482	4.76
692.804	4.21
693.126	4.21
