Data from 0054_forehead_Reflection__4__14.txt Node

Date: Fri Dec 16 13:53:35 CST 2022
User: ToomeyLab
Spectrometer: FLMS14357
Trigger mode: 0
Integration Time (sec): 1.000000E-2
Scans to average: 100
Electric dark correction enabled: true
Nonlinearity correction enabled: false
Boxcar width: 0
XAxis mode: Wavelengths
Number of Pixels in Spectrum: 2048
>>>>>Begin Spectral Data<<<<<
189.047	63.53
189.435	63.53
189.823	63.53
190.211	152.93
190.599	21.77
190.987	-94.92
191.375	22.72
191.763	-25.54
192.151	41.04
192.538	43.91
192.926	-124.28
193.314	14.99
193.702	550.11
194.089	-100.36
194.477	-22.84
194.864	-19.95
195.252	-123.91
195.639	110.1
196.027	-22.68
196.414	0.24
196.801	276.01
197.189	54.58
197.576	50.88
197.963	420.48
198.351	50.79
198.738	-16.94
199.125	38.44
199.512	8.6
199.899	-21.92
200.286	-16.7
200.673	41.12
201.06	22.09
201.447	43.22
201.833	2.92
202.22	41.32
202.607	16.97
202.994	31.22
203.38	7.87
203.767	43.78
204.154	-11.36
204.54	44.18
204.927	18.96
205.313	87.62
205.699	37.64
206.086	-13.09
206.472	34.12
206.858	24.31
207.245	37.94
207.631	20.54
208.017	39.41
208.403	24.23
208.789	27.98
209.175	44.56
209.561	50.6
209.947	18.46
210.333	12.8
210.719	-3.11
211.105	30
211.491	17.36
211.876	25.59
212.262	25.63
212.648	-15.01
213.034	18.29
213.419	51.7
213.805	22.86
214.19	11.75
214.576	1.4
214.961	-0.01
215.346	14.27
215.732	9.73
216.117	7.24
216.502	7.84
216.888	11.74
217.273	27.84
217.658	-2.4
218.043	17.9
218.428	3.24
218.813	10.66
219.198	4.24
219.583	34.31
219.968	16.35
220.353	26.17
220.738	12.74
221.122	27.32
221.507	16.46
221.892	15.57
222.276	26.2
222.661	6.35
223.046	22.62
223.43	9.97
223.815	14.23
224.199	16.1
224.583	6.89
224.968	17.6
225.352	9.84
225.736	15.52
226.121	-2.17
226.505	-0.55
226.889	12.36
227.273	9
227.657	-1.11
228.041	1.28
228.425	7.42
228.809	5.67
229.193	1.72
229.577	3.22
229.961	2.89
230.344	3.48
230.728	3.13
231.112	2.94
231.495	2.84
231.879	4.69
232.263	2.8
232.646	3.23
233.03	1.59
233.413	3.32
233.797	3.93
234.18	0.71
234.563	6.37
234.946	2.6
235.33	3.08
235.713	3.31
236.096	2.25
236.479	5.78
236.862	5.15
237.245	4.8
237.628	3.39
238.011	3.84
238.394	4.26
238.777	3.54
239.16	3
239.543	2.59
239.925	5.07
240.308	3.41
240.691	3.21
241.073	3.9
241.456	3.14
241.838	4.19
242.221	4.03
242.603	3.13
242.986	4.02
243.368	3.01
243.75	2.77
244.133	3.29
244.515	2.9
244.897	2.62
245.279	3.04
245.661	3.16
246.043	3.96
246.425	3.12
246.807	2.84
247.189	2.32
247.571	3.22
247.953	2.63
248.335	3.14
248.717	2.81
249.098	2.84
249.48	2.76
249.862	3.08
250.243	2.84
250.625	3.19
251.006	2.83
251.388	2.54
251.769	3.34
252.151	3.73
252.532	3.15
252.913	3.41
253.295	3.03
253.676	3.15
254.057	3.12
254.438	2.88
254.819	3.77
255.2	3.78
255.581	3.26
255.962	3.78
256.343	3.67
256.724	2.94
257.105	2.63
257.486	4.66
257.867	2.44
258.247	4.14
258.628	3.18
259.009	3.16
259.389	3.95
259.77	2.91
260.15	3.96
260.531	2.86
260.911	2.86
261.292	2.82
261.672	2.76
262.052	2.77
262.432	2.97
262.813	3.4
263.193	2.37
263.573	2.98
263.953	2.83
264.333	3.05
264.713	2.73
265.093	2.84
265.473	3.32
265.853	3.69
266.233	2.35
266.612	3.41
266.992	2.68
267.372	2.94
267.752	2.81
268.131	3.48
268.511	3.52
268.89	3.43
269.27	2.92
269.649	2.96
270.029	3.17
270.408	2.84
270.787	3.5
271.167	3.05
271.546	3.05
271.925	2.93
272.304	3.27
272.683	2.5
273.062	3.03
273.441	2.88
273.82	3.09
274.199	3.52
274.578	2.89
274.957	2.99
275.336	2.99
275.715	3.14
276.093	3.18
276.472	2.98
276.851	3.21
277.229	3.45
277.608	3.09
277.986	3.43
278.365	3.32
278.743	3.23
279.122	3.23
279.5	2.74
279.878	2.36
280.257	3.05
280.635	2.92
281.013	2.99
281.391	2.55
281.769	2.03
282.147	2.91
282.525	2.93
282.903	3.27
283.281	2.49
283.659	3.32
284.037	3.22
284.415	2.74
284.792	2.96
285.17	2.85
285.548	3.02
285.925	2.87
286.303	2.61
286.68	3.06
287.058	2.88
287.435	2.81
287.813	2.77
288.19	3.36
288.567	2.49
288.945	3.16
289.322	2.98
289.699	2.73
290.076	3.11
290.453	3.31
290.83	3.33
291.207	3.27
291.584	2.77
291.961	3.14
292.338	3.17
292.715	3.38
293.092	3.34
293.469	3.23
293.845	3.06
294.222	3.22
294.599	3.31
294.975	3.03
295.352	2.64
295.728	3.45
296.105	3.06
296.481	3.63
296.858	3.6
297.234	3.45
297.61	3.44
297.986	3.29
298.363	2.97
298.739	3.46
299.115	3.24
299.491	3.17
299.867	3.48
300.243	3.32
300.619	3.31
300.995	3.51
301.371	3.77
301.746	3.49
302.122	3.35
302.498	4.1
302.874	3.65
303.249	3.91
303.625	3.49
304	3.27
304.376	3.39
304.751	3.62
305.127	3.66
305.502	3.66
305.878	3.79
306.253	3.3
306.628	4.42
307.003	4.2
307.378	3.37
307.754	4.57
308.129	3.81
308.504	3.35
308.879	4.19
309.254	4.51
309.629	4.23
310.003	4.59
310.378	4.11
310.753	4.2
311.128	4.3
311.502	4.08
311.877	4.33
312.252	3.91
312.626	4.35
313.001	4.13
313.375	4.16
313.75	4.12
314.124	4.77
314.498	4.64
314.873	4.47
315.247	4.19
315.621	4.57
315.995	4.8
316.369	4.55
316.743	4.82
317.117	4.72
317.491	4.73
317.865	3.9
318.239	4.9
318.613	4.86
318.987	4.99
319.361	4.42
319.734	4.55
320.108	4.88
320.482	4.57
320.855	4.7
321.229	5.6
321.602	5.03
321.976	5.1
322.349	4.34
322.723	4.22
323.096	5.1
323.469	4.79
323.843	5.1
324.216	5.03
324.589	5.43
324.962	5.1
325.335	5.27
325.708	5.49
326.081	6.02
326.454	5.84
326.827	5.89
327.2	5.87
327.573	5.47
327.945	5.19
328.318	5.58
328.691	5.67
329.063	5.33
329.436	5.47
329.809	5.68
330.181	5.67
330.553	6.17
330.926	5.99
331.298	5.43
331.671	5.54
332.043	5.77
332.415	5.9
332.787	6.44
333.159	5.94
333.532	5.82
333.904	6.09
334.276	6.07
334.648	6.03
335.02	5.63
335.391	6.01
335.763	5.58
336.135	6.02
336.507	6.52
336.879	6.33
337.25	6.26
337.622	6.01
337.993	6.41
338.365	6.29
338.736	6.11
339.108	6.24
339.479	6.27
339.851	6.55
340.222	6.37
340.593	6.48
340.964	6.33
341.336	6.52
341.707	6.49
342.078	6.24
342.449	6.33
342.82	6.51
343.191	5.97
343.562	6.63
343.933	6.73
344.303	6.46
344.674	7.06
345.045	7.42
345.416	6.96
345.786	6.54
346.157	6.51
346.527	6.31
346.898	6.75
347.268	6.74
347.639	6.73
348.009	7.19
348.38	6.9
348.75	7.09
349.12	6.8
349.49	7.04
349.861	7.45
350.231	7.6
350.601	7.12
350.971	7.17
351.341	7.25
351.711	7.59
352.081	7.49
352.45	7.16
352.82	7.38
353.19	7.16
353.56	7.37
353.929	7.37
354.299	7.12
354.669	7.53
355.038	7.59
355.408	7.52
355.777	7.51
356.147	7.79
356.516	7.85
356.885	7.35
357.254	8.04
357.624	7.83
357.993	7.46
358.362	7.69
358.731	7.7
359.1	7.66
359.469	7.64
359.838	7.7
360.207	7.7
360.576	7.64
360.945	7.85
361.314	7.9
361.682	7.76
362.051	7.74
362.42	8.28
362.788	8.05
363.157	7.92
363.525	7.92
363.894	7.61
364.262	7.96
364.631	8.71
364.999	8.46
365.367	8.57
365.735	8.05
366.104	7.91
366.472	8.66
366.84	8.63
367.208	8.42
367.576	8.39
367.944	8.84
368.312	8.05
368.68	8.82
369.048	8.69
369.416	8.64
369.783	8.78
370.151	8.66
370.519	8.62
370.886	8.82
371.254	8.81
371.621	8.98
371.989	8.86
372.356	8.97
372.724	8.84
373.091	9
373.458	9.08
373.826	8.9
374.193	9.46
374.56	8.79
374.927	9.13
375.294	9.54
375.661	9.3
376.028	9.42
376.395	9.21
376.762	9.36
377.129	9.25
377.496	9.31
377.863	9.52
378.229	9.47
378.596	9.3
378.963	9.47
379.329	9.55
379.696	9.42
380.062	9.52
380.429	9.56
380.795	9.56
381.161	9.6
381.528	9.3
381.894	9.84
382.26	9.91
382.626	9.79
382.993	9.63
383.359	9.64
383.725	10.05
384.091	9.99
384.457	10.37
384.823	10.18
385.188	10.34
385.554	10.32
385.92	10.25
386.286	10.52
386.651	10.03
387.017	10.39
387.383	10.49
387.748	10.21
388.114	10.36
388.479	10.62
388.845	10.74
389.21	10.55
389.575	10.61
389.94	10.52
390.306	10.52
390.671	10.78
391.036	10.76
391.401	10.94
391.766	10.78
392.131	10.89
392.496	10.78
392.861	10.4
393.226	10.87
393.591	10.85
393.956	11.03
394.32	10.77
394.685	11.07
395.05	10.76
395.414	11
395.779	10.99
396.143	11.03
396.508	11.36
396.872	11.48
397.236	11.02
397.601	11.32
397.965	11.3
398.329	11.46
398.694	11.28
399.058	11.46
399.422	11.43
399.786	11.6
400.15	11.39
400.514	11.5
400.878	11.36
401.242	11.7
401.605	11.51
401.969	11.73
402.333	11.62
402.697	11.87
403.06	11.79
403.424	11.69
403.787	12.05
404.151	11.78
404.514	11.87
404.878	12
405.241	11.99
405.604	11.9
405.968	11.91
406.331	11.84
406.694	12.11
407.057	12.17
407.42	11.99
407.783	12.12
408.146	12.22
408.509	12.12
408.872	12.32
409.235	12.36
409.598	12.53
409.961	12.57
410.323	12.47
410.686	12.47
411.049	12.47
411.411	12.57
411.774	12.32
412.136	12.59
412.499	12.66
412.861	12.6
413.223	13.04
413.586	12.58
413.948	12.87
414.31	12.82
414.672	12.75
415.035	12.81
415.397	13.04
415.759	12.83
416.121	12.99
416.483	12.89
416.845	13.02
417.206	13.09
417.568	12.98
417.93	13.01
418.292	13.02
418.653	13.12
419.015	13.03
419.377	12.97
419.738	12.97
420.1	12.96
420.461	12.92
420.822	13.07
421.184	13.25
421.545	13.07
421.906	12.99
422.267	12.92
422.629	13.04
422.99	13.02
423.351	13.12
423.712	13.2
424.073	13.5
424.434	13.32
424.795	13.24
425.155	13.23
425.516	13.33
425.877	13.28
426.238	13.35
426.598	13.45
426.959	13.53
427.32	13.61
427.68	13.96
428.041	13.87
428.401	13.94
428.761	13.88
429.122	13.88
429.482	14.1
429.842	14.1
430.202	14.14
430.563	14.22
430.923	14
431.283	14.08
431.643	14.32
432.003	14.35
432.363	14.53
432.722	14.3
433.082	14.33
433.442	14.45
433.802	14.32
434.161	14.29
434.521	14.37
434.881	14.47
435.24	14.48
435.6	14.44
435.959	14.4
436.319	14.47
436.678	14.68
437.037	14.74
437.396	14.9
437.756	14.79
438.115	14.71
438.474	15.01
438.833	15.02
439.192	15.01
439.551	14.91
439.91	14.82
440.269	15.03
440.628	14.89
440.987	14.88
441.345	14.85
441.704	15.07
442.063	14.94
442.421	14.95
442.78	14.99
443.138	15.25
443.497	15.31
443.855	15.51
444.214	15.54
444.572	15.44
444.93	15.43
445.288	15.51
445.647	15.37
446.005	15.36
446.363	15.54
446.721	15.22
447.079	15.34
447.437	15.41
447.795	15.24
448.153	15.27
448.51	15.38
448.868	15.66
449.226	15.54
449.584	15.67
449.941	15.72
450.299	15.83
450.656	15.99
451.014	15.98
451.371	16.08
451.729	15.96
452.086	16.1
452.443	16.28
452.801	16.29
453.158	16.31
453.515	16.21
453.872	16.33
454.229	16.35
454.586	16.44
454.943	16.31
455.3	16.38
455.657	16.32
456.014	16.56
456.371	16.51
456.727	16.58
457.084	16.52
457.441	16.77
457.797	16.75
458.154	16.92
458.51	16.78
458.867	16.65
459.223	16.8
459.58	16.74
459.936	16.93
460.292	16.71
460.648	16.63
461.005	16.47
461.361	16.47
461.717	16.63
462.073	16.77
462.429	16.84
462.785	17.08
463.141	17.3
463.496	17.17
463.852	17.41
464.208	17.39
464.564	17.19
464.919	17.36
465.275	17.64
465.631	17.63
465.986	17.5
466.342	17.61
466.697	17.66
467.052	17.54
467.408	17.74
467.763	17.69
468.118	17.78
468.473	17.67
468.829	17.63
469.184	17.99
469.539	17.79
469.894	18.02
470.249	17.93
470.603	17.99
470.958	18.24
471.313	18.07
471.668	18.16
472.023	18.22
472.377	18.05
472.732	18.21
473.086	18.31
473.441	18.22
473.795	18.44
474.15	18.4
474.504	18.41
474.859	18.36
475.213	18.41
475.567	18.62
475.921	18.64
476.275	18.78
476.63	18.75
476.984	18.76
477.338	18.93
477.692	18.68
478.045	18.63
478.399	18.6
478.753	18.56
479.107	18.72
479.461	18.8
479.814	18.8
480.168	18.9
480.521	18.72
480.875	18.96
481.228	19.09
481.582	19.05
481.935	18.95
482.289	18.97
482.642	19.04
482.995	19.02
483.348	18.84
483.701	18.85
484.055	18.74
484.408	18.6
484.761	18.25
485.114	18.07
485.466	18.09
485.819	18.19
486.172	18.51
486.525	18.65
486.878	18.79
487.23	19.02
487.583	19.07
487.936	19.04
488.288	18.83
488.641	18.74
488.993	18.67
489.345	18.69
489.698	18.83
490.05	18.9
490.402	19.22
490.754	19.46
491.107	19.54
491.459	19.63
491.811	19.77
492.163	19.65
492.515	19.45
492.866	19.05
493.218	19.1
493.57	19.35
493.922	19.56
494.274	19.78
494.625	19.94
494.977	20.09
495.328	20.44
495.68	20.51
496.031	20.57
496.383	20.61
496.734	20.81
497.086	20.47
497.437	20.62
497.788	20.54
498.139	20.39
498.49	20.43
498.842	20.42
499.193	20.67
499.544	20.82
499.894	20.69
500.245	20.83
500.596	21.02
500.947	20.94
501.298	21.08
501.648	21.07
501.999	21.24
502.35	21.1
502.7	21.44
503.051	21.51
503.401	21.45
503.752	21.41
504.102	21.47
504.452	21.56
504.803	21.29
505.153	21.54
505.503	21.44
505.853	21.48
506.203	21.55
506.553	21.79
506.903	21.76
507.253	21.73
507.603	21.8
507.953	22.08
508.303	21.85
508.652	21.82
509.002	21.82
509.352	21.91
509.701	21.77
510.051	21.82
510.4	21.74
510.75	21.73
511.099	21.88
511.449	21.95
511.798	22.02
512.147	22.12
512.496	22.14
512.846	22.03
513.195	22.21
513.544	21.91
513.893	22.15
514.242	22.33
514.591	22.38
514.939	22.42
515.288	22.48
515.637	22.59
515.986	22.69
516.334	22.95
516.683	22.88
517.032	22.94
517.38	23.02
517.729	22.92
518.077	23.05
518.426	22.81
518.774	22.83
519.122	22.71
519.47	22.73
519.819	22.52
520.167	22.56
520.515	22.55
520.863	22.73
521.211	22.8
521.559	22.95
521.907	23.07
522.255	23.31
522.602	23.46
522.95	23.42
523.298	23.53
523.645	23.48
523.993	23.62
524.341	23.58
524.688	23.67
525.036	23.79
525.383	23.62
525.73	23.66
526.078	23.63
526.425	23.48
526.772	23.25
527.119	23.27
527.466	23.21
527.814	23.37
528.161	23.46
528.508	23.72
528.854	23.43
529.201	23.26
529.548	22.93
529.895	22.93
530.242	22.94
530.588	23.14
530.935	23.23
531.282	23.37
531.628	23.46
531.975	23.76
532.321	23.98
532.667	23.92
533.014	24.13
533.36	24.06
533.706	24.09
534.052	23.97
534.399	23.78
534.745	23.56
535.091	23.76
535.437	23.94
535.783	24.26
536.129	24.31
536.474	24.57
536.82	24.67
537.166	24.69
537.512	24.7
537.857	24.44
538.203	24.41
538.549	24.58
538.894	24.68
539.239	24.94
539.585	24.94
539.93	25.22
540.276	25.34
540.621	25.42
540.966	25.34
541.311	25.3
541.656	25.02
542.001	24.97
542.346	24.63
542.691	24.43
543.036	24.48
543.381	24.6
543.726	24.83
544.071	24.97
544.415	25.06
544.76	25.09
545.105	25.25
545.449	25.41
545.794	25.53
546.138	25.72
546.483	25.8
546.827	25.86
547.171	25.88
547.516	25.83
547.86	25.86
548.204	25.66
548.548	25.92
548.892	25.93
549.236	26.24
549.58	26.41
549.924	26.29
550.268	26.59
550.612	26.77
550.956	26.45
551.3	26.79
551.643	26.7
551.987	26.86
552.33	27.13
552.674	27.03
553.017	26.92
553.361	26.98
553.704	26.87
554.048	26.95
554.391	26.87
554.734	26.75
555.077	27.09
555.42	27.03
555.764	27.42
556.107	27.34
556.45	27.11
556.793	27.58
557.135	27.62
557.478	27.71
557.821	27.48
558.164	27.78
558.507	27.51
558.849	27.85
559.192	27.72
559.534	27.68
559.877	27.99
560.219	28.09
560.562	28.01
560.904	27.96
561.246	27.95
561.589	28.08
561.931	28.19
562.273	28.04
562.615	28.27
562.957	28.04
563.299	28.18
563.641	28.27
563.983	28.29
564.325	28.46
564.667	28.22
565.008	28.47
565.35	28.58
565.692	28.66
566.033	28.55
566.375	28.47
566.716	28.4
567.058	28.38
567.399	28.5
567.741	28.22
568.082	28.19
568.423	28.35
568.764	28.66
569.105	28.7
569.447	28.69
569.788	28.81
570.129	29.06
570.47	29.06
570.811	28.94
571.151	28.97
571.492	29.09
571.833	28.96
572.174	29.1
572.514	29.09
572.855	28.99
573.195	29.02
573.536	28.78
573.876	28.89
574.217	29.1
574.557	29.12
574.898	29.45
575.238	29.42
575.578	29.45
575.918	29.35
576.258	29.35
576.598	29.46
576.938	29.55
577.278	29.35
577.618	29.7
577.958	29.68
578.298	29.74
578.638	29.94
578.977	29.82
579.317	29.89
579.657	29.9
579.996	30.05
580.336	30.27
580.675	30.12
581.014	30.15
581.354	30.31
581.693	30.32
582.032	30.29
582.372	30.75
582.711	30.52
583.05	30.57
583.389	30.43
583.728	30.52
584.067	30.42
584.406	30.67
584.745	30.56
585.083	30.92
585.422	30.91
585.761	30.89
586.1	30.98
586.438	31.12
586.777	30.95
587.115	30.93
587.454	31.04
587.792	30.98
588.13	31.12
588.469	31.04
588.807	31.02
589.145	31.36
589.483	31.17
589.821	31.45
590.159	31.33
590.497	31.35
590.835	31.23
591.173	31.35
591.511	31.35
591.849	31.34
592.187	31.39
592.524	31.41
592.862	31.43
593.2	31.62
593.537	31.67
593.875	31.78
594.212	31.48
594.55	31.81
594.887	31.82
595.224	31.67
595.561	31.97
595.899	31.95
596.236	32
596.573	31.78
596.91	32
597.247	31.84
597.584	32.1
597.921	31.88
598.258	31.65
598.594	31.53
598.931	31.93
599.268	31.73
599.604	32.06
599.941	32.07
600.277	32.28
600.614	32.63
600.95	32.29
601.287	32.2
601.623	32.63
601.959	32.58
602.296	32.91
602.632	32.99
602.968	32.66
603.304	32.59
603.64	32.6
603.976	32.63
604.312	32.62
604.648	32.69
604.984	32.37
605.319	32.5
605.655	32.51
605.991	32.43
606.326	32.67
606.662	32.61
606.998	32.84
607.333	32.87
607.668	33.08
608.004	33.16
608.339	33.37
608.674	33.29
609.01	33.56
609.345	33.58
609.68	33.02
610.015	33.58
610.35	33.29
610.685	33.34
611.02	33.33
611.355	33.38
611.689	33.36
612.024	33.38
612.359	33.61
612.694	33.77
613.028	33.83
613.363	33.5
613.697	34.05
614.032	34.07
614.366	33.99
614.7	34.51
615.035	34.26
615.369	34.21
615.703	34.58
616.037	34.33
616.371	33.87
616.705	34.28
617.039	34.43
617.373	34.5
617.707	34.27
618.041	34.63
618.375	34.33
618.709	34.38
619.042	34.74
619.376	34.55
619.71	34.63
620.043	34.15
620.377	34.56
620.71	34.53
621.043	34.67
621.377	34.69
621.71	34.93
622.043	35.16
622.376	35.02
622.709	34.61
623.043	35.39
623.376	35.12
623.709	35.2
624.041	34.72
624.374	34.89
624.707	34.88
625.04	35.64
625.373	35.24
625.705	35.9
626.038	35.03
626.37	35.42
626.703	35.28
627.035	35.41
627.368	35.37
627.7	35.55
628.032	34.97
628.365	35.33
628.697	35.13
629.029	35.24
629.361	35.27
629.693	35.64
630.025	35.8
630.357	35.86
630.689	35.73
631.021	35.71
631.353	35.79
631.684	35.78
632.016	35.85
632.348	35.81
632.679	35.94
633.011	36.12
633.342	36.14
633.674	36.22
634.005	36.11
634.336	35.7
634.668	36
634.999	36.62
635.33	35.71
635.661	36.44
635.992	36.21
636.323	36.14
636.654	36.17
636.985	36.09
637.316	36.43
637.647	36.41
637.977	36.24
638.308	36.02
638.639	36.08
638.969	36.67
639.3	36.66
639.63	36.57
639.961	36.77
640.291	37.02
640.622	36.4
640.952	36.82
641.282	36.05
641.612	36.7
641.943	37.35
642.273	36.74
642.603	36.76
642.933	36.7
643.263	37.56
643.592	36.41
643.922	37.57
644.252	37.22
644.582	37.35
644.911	37
645.241	37.27
645.571	37.08
645.9	37.46
646.23	37.35
646.559	37.27
646.888	37.4
647.218	37.6
647.547	37.09
647.876	37.21
648.205	37.47
648.534	37.44
648.863	37.47
649.192	37.82
649.521	37.62
649.85	38.28
650.179	37.83
650.508	37.69
650.837	37.85
651.165	37.54
651.494	37.54
651.822	37.84
652.151	37.65
652.479	38.4
652.808	37.31
653.136	37.66
653.465	37.97
653.793	37.97
654.121	38.3
654.449	37.72
654.777	38.37
655.105	39.05
655.433	38.46
655.761	38.4
656.089	38.16
656.417	38.25
656.745	38.27
657.073	38.76
657.4	38.29
657.728	38.27
658.056	39.13
658.383	38.29
658.711	38.36
659.038	38.6
659.365	38.93
659.693	38.64
660.02	38.5
660.347	38.82
660.674	38.63
661.001	38.26
661.329	38.24
661.656	38.59
661.982	38.5
662.309	38.78
662.636	38.69
662.963	38.59
663.29	39.28
663.616	39.02
663.943	39.34
664.27	38.67
664.596	39.24
664.923	39.46
665.249	38.95
665.576	39.13
665.902	39.37
666.228	39.46
666.554	39.7
666.881	39.18
667.207	39.02
667.533	39.82
667.859	38.32
668.185	39.48
668.511	39.67
668.837	38.86
669.162	39.35
669.488	39.64
669.814	39.39
670.139	39.8
670.465	39.83
670.791	39.36
671.116	39.44
671.442	39.73
671.767	39.18
672.092	40.04
672.418	40.56
672.743	40
673.068	39.77
