Data from 0054_forehead_Reflection__0__10.txt Node

Date: Fri Dec 16 13:52:51 CST 2022
User: ToomeyLab
Spectrometer: FLMS14357
Trigger mode: 0
Integration Time (sec): 1.000000E-2
Scans to average: 100
Electric dark correction enabled: true
Nonlinearity correction enabled: false
Boxcar width: 0
XAxis mode: Wavelengths
Number of Pixels in Spectrum: 2048
>>>>>Begin Spectral Data<<<<<
189.047	261.98
189.435	261.98
189.823	261.98
190.211	110.02
190.599	17.9
190.987	-122.29
191.375	35.32
191.763	58.55
192.151	-185.96
192.538	119.93
192.926	51.08
193.314	78.36
193.702	-102.55
194.089	266.37
194.477	-64.04
194.864	459.64
195.252	-10.49
195.639	83.9
196.027	-57.26
196.414	45.88
196.801	218.41
197.189	66.07
197.576	10.27
197.963	257.64
198.351	19.41
198.738	14.37
199.125	33.15
199.512	53.26
199.899	12.65
200.286	5.9
200.673	36.44
201.06	32.6
201.447	38.64
201.833	26.18
202.22	32.57
202.607	15.01
202.994	7.19
203.38	-63.43
203.767	10.18
204.154	-36.28
204.54	23.91
204.927	3.66
205.313	18.88
205.699	13.94
206.086	6.75
206.472	9.66
206.858	0.34
207.245	37.54
207.631	-2.16
208.017	46.19
208.403	20.93
208.789	20.33
209.175	12.27
209.561	2.49
209.947	-1.21
210.333	-33.44
210.719	24.82
211.105	2.1
211.491	8.93
211.876	14.51
212.262	11.49
212.648	-29.91
213.034	32.34
213.419	31.92
213.805	16.53
214.19	-0.36
214.576	0.6
214.961	-23.96
215.346	-9.43
215.732	-19.2
216.117	-8.02
216.502	23.51
216.888	2.97
217.273	3.68
217.658	-4.63
218.043	9.91
218.428	2.98
218.813	-3.54
219.198	-6.68
219.583	4.06
219.968	-6.37
220.353	21.76
220.738	-11.74
221.122	9.26
221.507	-0.83
221.892	27.17
222.276	11.64
222.661	-3.21
223.046	1.36
223.43	3.25
223.815	3.75
224.199	8.28
224.583	5.48
224.968	0.53
225.352	-1.49
225.736	9.7
226.121	2.22
226.505	6.07
226.889	2.35
227.273	-0.05
227.657	0.37
228.041	2.85
228.425	4.61
228.809	1.13
229.193	1.4
229.577	2.21
229.961	2.82
230.344	2.59
230.728	2.24
231.112	2.61
231.495	2.24
231.879	2.17
232.263	0.81
232.646	2.6
233.03	0.25
233.413	1.85
233.797	3.44
234.18	2.02
234.563	1.4
234.946	3.37
235.33	2.57
235.713	2.34
236.096	2.96
236.479	2.79
236.862	2.4
237.245	2.29
237.628	2.48
238.011	2.39
238.394	3.43
238.777	2.64
239.16	1.17
239.543	0.4
239.925	4.05
240.308	2.44
240.691	2.16
241.073	3.59
241.456	2.18
241.838	2.69
242.221	2.97
242.603	2.7
242.986	2.94
243.368	2.1
243.75	2.14
244.133	2.12
244.515	2.47
244.897	2.04
245.279	2.1
245.661	2.47
246.043	2.49
246.425	2.17
246.807	2.76
247.189	1.81
247.571	2.37
247.953	2.12
248.335	2.39
248.717	2.18
249.098	2.29
249.48	2.25
249.862	2.57
250.243	2.39
250.625	2.38
251.006	2.23
251.388	2.38
251.769	2.43
252.151	1.99
252.532	2.19
252.913	1.93
253.295	2.3
253.676	2.26
254.057	1.96
254.438	2.24
254.819	2.33
255.2	2.92
255.581	3.09
255.962	3.74
256.343	2.91
256.724	1.4
257.105	2.15
257.486	1.47
257.867	1.41
258.247	2.85
258.628	2.83
259.009	2.09
259.389	2.92
259.77	2.38
260.15	2.7
260.531	2.41
260.911	2.18
261.292	2.25
261.672	2.32
262.052	2.22
262.432	2.02
262.813	2.28
263.193	1.61
263.573	2.27
263.953	2.27
264.333	2.28
264.713	2.24
265.093	2.51
265.473	3.32
265.853	2.5
266.233	2.17
266.612	2.7
266.992	2.06
267.372	1.98
267.752	2.1
268.131	2.18
268.511	2.25
268.89	2.87
269.27	2.45
269.649	2.18
270.029	2.15
270.408	2.67
270.787	1.89
271.167	2.15
271.546	1.86
271.925	2.57
272.304	2.55
272.683	1.98
273.062	2.6
273.441	2.28
273.82	2.42
274.199	2.34
274.578	2.17
274.957	2.23
275.336	2.31
275.715	2.69
276.093	2.86
276.472	2.37
276.851	2.67
277.229	2.5
277.608	2.04
277.986	2.52
278.365	2.34
278.743	2.56
279.122	2.28
279.5	1.73
279.878	1.66
280.257	2.63
280.635	2.17
281.013	2.37
281.391	2.12
281.769	2.29
282.147	2.29
282.525	2.34
282.903	2.48
283.281	2.45
283.659	2.48
284.037	2.22
284.415	2.41
284.792	2.34
285.17	2.15
285.548	2.17
285.925	2.16
286.303	2.32
286.68	2.48
287.058	2.14
287.435	1.73
287.813	2.45
288.19	2.55
288.567	2.06
288.945	2.15
289.322	2.62
289.699	2.29
290.076	2.62
290.453	2.19
290.83	2.56
291.207	2.45
291.584	2.62
291.961	2.54
292.338	2.6
292.715	2.76
293.092	2.13
293.469	2.59
293.845	2.92
294.222	2.82
294.599	3.13
294.975	2.82
295.352	2.43
295.728	2.62
296.105	2.47
296.481	3.07
296.858	2.92
297.234	2.94
297.61	2.72
297.986	2.5
298.363	2.37
298.739	2.83
299.115	2.57
299.491	2.36
299.867	2.87
300.243	2.95
300.619	2.63
300.995	3.01
301.371	2.8
301.746	2.91
302.122	2.74
302.498	2.81
302.874	2.71
303.249	3.27
303.625	2.78
304	2.48
304.376	2.9
304.751	2.61
305.127	2.88
305.502	3.55
305.878	2.85
306.253	3.11
306.628	3.65
307.003	3.13
307.378	2.84
307.754	3.39
308.129	3.03
308.504	3.25
308.879	3.9
309.254	3.33
309.629	3.28
310.003	3.83
310.378	3.84
310.753	3.51
311.128	3.15
311.502	3.07
311.877	3.37
312.252	3.43
312.626	3.08
313.001	3.41
313.375	3.33
313.75	3.16
314.124	4.01
314.498	3.59
314.873	3.84
315.247	3.58
315.621	4.11
315.995	3.58
316.369	3.97
316.743	3.72
317.117	3.69
317.491	3.93
317.865	3.22
318.239	4.15
318.613	3.86
318.987	4.05
319.361	3.89
319.734	3.99
320.108	4.09
320.482	4.08
320.855	4.59
321.229	4.47
321.602	4.23
321.976	3.91
322.349	3.47
322.723	3.63
323.096	3.97
323.469	4.38
323.843	4.58
324.216	4.07
324.589	4.6
324.962	4.24
325.335	4.67
325.708	4.29
326.081	4.62
326.454	4.29
326.827	4.39
327.2	4.87
327.573	4.66
327.945	4.57
328.318	4.51
328.691	4.45
329.063	4.22
329.436	4.38
329.809	4.59
330.181	4.48
330.553	5.15
330.926	4.88
331.298	4.41
331.671	4.97
332.043	4.66
332.415	4.51
332.787	5.71
333.159	4.66
333.532	4.81
333.904	4.92
334.276	5.1
334.648	5.32
335.02	5.04
335.391	4.89
335.763	4.58
336.135	5.02
336.507	5.27
336.879	4.91
337.25	4.93
337.622	5.08
337.993	5.56
338.365	4.77
338.736	5.28
339.108	5.24
339.479	5.01
339.851	5.21
340.222	5.3
340.593	4.88
340.964	5.28
341.336	4.71
341.707	5.32
342.078	5.2
342.449	5.44
342.82	5.13
343.191	4.97
343.562	5.23
343.933	5.13
344.303	5.33
344.674	5.31
345.045	5.21
345.416	5.52
345.786	5.24
346.157	5.57
346.527	5.27
346.898	5.53
347.268	5.58
347.639	5.51
348.009	5.63
348.38	5.51
348.75	5.66
349.12	5.44
349.49	5.46
349.861	6.35
350.231	5.85
350.601	5.61
350.971	5.46
351.341	6.05
351.711	5.47
352.081	5.83
352.45	5.91
352.82	5.92
353.19	5.5
353.56	5.61
353.929	6.26
354.299	5.83
354.669	6.11
355.038	6.09
355.408	6.15
355.777	6.12
356.147	6.2
356.516	6.33
356.885	5.98
357.254	6.41
357.624	6.21
357.993	5.94
358.362	6.1
358.731	6.11
359.1	6.54
359.469	6.18
359.838	6.28
360.207	6.25
360.576	6.24
360.945	6.29
361.314	6.48
361.682	6.05
362.051	6.42
362.42	6.5
362.788	6.38
363.157	6.23
363.525	6.29
363.894	6.09
364.262	6.18
364.631	7.05
364.999	5.98
365.367	6.86
365.735	6.52
366.104	6.44
366.472	6.81
366.84	6.97
367.208	6.51
367.576	6.59
367.944	7.01
368.312	6.28
368.68	6.85
369.048	7.04
369.416	6.97
369.783	7.02
370.151	6.72
370.519	6.99
370.886	6.93
371.254	7.02
371.621	6.64
371.989	6.64
372.356	6.88
372.724	7.1
373.091	7.1
373.458	7.15
373.826	6.75
374.193	7.58
374.56	7.23
374.927	6.93
375.294	7.89
375.661	7.59
376.028	7.39
376.395	7.27
376.762	7.64
377.129	7.73
377.496	7.66
377.863	7.74
378.229	7.17
378.596	7.44
378.963	7.49
379.329	7.31
379.696	7.43
380.062	7.82
380.429	7.47
380.795	7.58
381.161	7.78
381.528	7.4
381.894	7.74
382.26	7.54
382.626	7.7
382.993	7.71
383.359	7.77
383.725	8.11
384.091	7.86
384.457	8.11
384.823	7.88
385.188	8.23
385.554	7.94
385.92	8.02
386.286	8.39
386.651	8.31
387.017	8.28
387.383	8.12
387.748	8.03
388.114	8.51
388.479	8.34
388.845	8.17
389.21	8.31
389.575	8.49
389.94	8.26
390.306	8.48
390.671	8.43
391.036	8.43
391.401	8.5
391.766	8.35
392.131	8.5
392.496	8.52
392.861	8.33
393.226	8.43
393.591	8.73
393.956	8.77
394.32	8.45
394.685	8.66
395.05	8.35
395.414	8.85
395.779	8.42
396.143	8.62
396.508	8.82
396.872	8.92
397.236	8.6
397.601	9.01
397.965	8.89
398.329	9.02
398.694	8.63
399.058	9
399.422	9.07
399.786	8.97
400.15	8.93
400.514	9.42
400.878	8.85
401.242	9.29
401.605	9.13
401.969	9.12
402.333	9.1
402.697	9.29
403.06	9.34
403.424	9.32
403.787	9.29
404.151	9.41
404.514	9.42
404.878	9.53
405.241	9.57
405.604	9.22
405.968	9.34
406.331	9.47
406.694	9.48
407.057	9.7
407.42	9.59
407.783	9.6
408.146	9.61
408.509	9.48
408.872	9.55
409.235	9.76
409.598	9.81
409.961	9.74
410.323	10.02
410.686	9.68
411.049	9.72
411.411	9.92
411.774	9.82
412.136	9.92
412.499	9.85
412.861	10.07
413.223	10.09
413.586	10.03
413.948	10.1
414.31	10.21
414.672	10.28
415.035	10.31
415.397	10.17
415.759	10.03
416.121	10.47
416.483	10.42
416.845	10.39
417.206	10.27
417.568	10.21
417.93	10.09
418.292	10.39
418.653	10.29
419.015	10.27
419.377	10.4
419.738	10.18
420.1	10.16
420.461	10.28
420.822	10.35
421.184	10.26
421.545	10.32
421.906	10.24
422.267	10.11
422.629	10.29
422.99	10.23
423.351	10.43
423.712	10.37
424.073	10.5
424.434	10.47
424.795	10.48
425.155	10.31
425.516	10.44
425.877	10.46
426.238	10.55
426.598	10.5
426.959	10.63
427.32	10.82
427.68	10.91
428.041	10.91
428.401	10.82
428.761	10.99
429.122	11.03
429.482	11.1
429.842	11.25
430.202	11.14
430.563	11.11
430.923	11.2
431.283	11.17
431.643	11.16
432.003	11.26
432.363	11.36
432.722	11.23
433.082	11.42
433.442	11.23
433.802	11.24
434.161	11.15
434.521	11.22
434.881	11.3
435.24	11.28
435.6	11.3
435.959	11.41
436.319	11.47
436.678	11.4
437.037	11.66
437.396	11.69
437.756	11.62
438.115	11.74
438.474	11.76
438.833	11.62
439.192	11.87
439.551	11.69
439.91	11.78
440.269	11.83
440.628	11.72
440.987	11.56
441.345	11.71
441.704	11.8
442.063	11.75
442.421	11.88
442.78	11.78
443.138	11.98
443.497	12
443.855	12.11
444.214	12.1
444.572	11.99
444.93	12.12
445.288	12.12
445.647	12.05
446.005	11.96
446.363	12.14
446.721	11.96
447.079	12.11
447.437	11.99
447.795	12
448.153	12.03
448.51	12.11
448.868	12.23
449.226	12.3
449.584	12.32
449.941	12.45
450.299	12.53
450.656	12.52
451.014	12.56
451.371	12.77
451.729	12.71
452.086	12.73
452.443	12.8
452.801	12.87
453.158	12.85
453.515	12.6
453.872	12.88
454.229	12.82
454.586	12.87
454.943	12.97
455.3	13.13
455.657	12.87
456.014	12.89
456.371	13.05
456.727	12.99
457.084	12.98
457.441	13.14
457.797	13.12
458.154	13.26
458.51	13.21
458.867	13.23
459.223	13.16
459.58	13.25
459.936	13.2
460.292	13.21
460.648	12.99
461.005	12.88
461.361	12.88
461.717	13.13
462.073	13.19
462.429	13.41
462.785	13.48
463.141	13.62
463.496	13.46
463.852	13.88
464.208	13.6
464.564	13.63
464.919	13.65
465.275	13.7
465.631	13.85
465.986	13.66
466.342	13.75
466.697	13.77
467.052	13.82
467.408	13.99
467.763	13.86
468.118	13.95
468.473	14.05
468.829	13.93
469.184	14.17
469.539	14.09
469.894	14.18
470.249	14.06
470.603	14.21
470.958	14.29
471.313	14.19
471.668	14.29
472.023	14.44
472.377	14.18
472.732	14.36
473.086	14.16
473.441	14.19
473.795	14.58
474.15	14.44
474.504	14.44
474.859	14.52
475.213	14.4
475.567	14.61
475.921	14.7
476.275	14.98
476.63	14.75
476.984	14.5
477.338	14.87
477.692	14.71
478.045	14.74
478.399	14.66
478.753	14.64
479.107	14.91
479.461	14.84
479.814	14.94
480.168	15.02
480.521	14.95
480.875	15.05
481.228	14.97
481.582	15.01
481.935	15.02
482.289	14.89
482.642	14.92
482.995	14.94
483.348	14.81
483.701	14.8
484.055	14.72
484.408	14.57
484.761	14.24
485.114	14.03
485.466	14.18
485.819	14.37
486.172	14.6
486.525	14.82
486.878	14.97
487.23	15.06
487.583	15.09
487.936	15
488.288	14.72
488.641	14.68
488.993	14.62
489.345	14.64
489.698	14.85
490.05	14.99
490.402	15.22
490.754	15.39
491.107	15.48
491.459	15.57
491.811	15.52
492.163	15.51
492.515	15.23
492.866	15
493.218	14.99
493.57	15.28
493.922	15.44
494.274	15.7
494.625	15.76
494.977	16.07
495.328	16.17
495.68	16.31
496.031	16.29
496.383	16.18
496.734	16.43
497.086	16.22
497.437	16.35
497.788	16.17
498.139	16.14
498.49	16.1
498.842	16.33
499.193	16.23
499.544	16.52
499.894	16.47
500.245	16.53
500.596	16.63
500.947	16.59
501.298	16.71
501.648	16.66
501.999	16.77
502.35	16.85
502.7	16.99
503.051	16.96
503.401	16.96
503.752	16.98
504.102	17.12
504.452	16.97
504.803	17.08
505.153	17
505.503	17.03
505.853	16.96
506.203	17.11
506.553	17.18
506.903	17.17
507.253	17.19
507.603	17.27
507.953	17.41
508.303	17.39
508.652	17.54
509.002	17.4
509.352	17.42
509.701	17.34
510.051	17.31
510.4	17.37
510.75	17.4
511.099	17.31
511.449	17.47
511.798	17.46
512.147	17.5
512.496	17.56
512.846	17.52
513.195	17.63
513.544	17.55
513.893	17.52
514.242	17.78
514.591	17.91
514.939	17.84
515.288	17.99
515.637	17.87
515.986	18.07
516.334	18.08
516.683	18.18
517.032	18.11
517.38	18.16
517.729	18.14
518.077	18.23
518.426	18.15
518.774	18.04
519.122	17.96
519.47	17.98
519.819	17.76
520.167	17.82
520.515	17.85
520.863	18.07
521.211	18.11
521.559	18.33
521.907	18.3
522.255	18.41
522.602	18.66
522.95	18.59
523.298	18.58
523.645	18.73
523.993	18.94
524.341	18.65
524.688	18.82
525.036	18.92
525.383	18.78
525.73	18.87
526.078	18.84
526.425	18.67
526.772	18.38
527.119	18.43
527.466	18.57
527.814	18.6
528.161	18.76
528.508	18.87
528.854	18.53
529.201	18.41
529.548	18.13
529.895	18
530.242	18.07
530.588	18.32
530.935	18.54
531.282	18.65
531.628	18.84
531.975	19.02
532.321	19.06
532.667	19.16
533.014	19.24
533.36	19.17
533.706	19.24
534.052	19.01
534.399	18.7
534.745	18.67
535.091	18.87
535.437	19.05
535.783	19.42
536.129	19.48
536.474	19.58
536.82	19.72
537.166	19.8
537.512	19.65
537.857	19.34
538.203	19.42
538.549	19.55
538.894	19.75
539.239	19.9
539.585	20.08
539.93	20.15
540.276	20.22
540.621	20.33
540.966	20.17
541.311	20.1
541.656	19.95
542.001	19.94
542.346	19.45
542.691	19.29
543.036	19.34
543.381	19.57
543.726	19.91
544.071	20.07
544.415	20.06
544.76	20.04
545.105	20.2
545.449	20.31
545.794	20.43
546.138	20.66
546.483	20.55
546.827	20.53
547.171	20.66
547.516	20.72
547.86	20.73
548.204	20.6
548.548	20.71
548.892	20.72
549.236	20.97
549.58	21.03
549.924	21.06
550.268	21.44
550.612	21.37
550.956	21.4
551.3	21.58
551.643	21.31
551.987	21.73
552.33	21.52
552.674	21.68
553.017	21.68
553.361	21.73
553.704	21.55
554.048	21.53
554.391	21.51
554.734	21.74
555.077	21.67
555.42	21.9
555.764	22.05
556.107	21.86
556.45	21.88
556.793	22.29
557.135	22.1
557.478	22.24
557.821	22.17
558.164	22.33
558.507	21.94
558.849	22.35
559.192	22.44
559.534	22.44
559.877	22.29
560.219	22.54
560.562	22.61
560.904	22.59
561.246	22.7
561.589	22.67
561.931	22.67
562.273	22.63
562.615	22.78
562.957	22.62
563.299	22.81
563.641	22.7
563.983	22.9
564.325	22.86
564.667	22.89
565.008	22.98
565.35	23.07
565.692	23.07
566.033	23.19
566.375	22.87
566.716	22.96
567.058	22.86
567.399	22.89
567.741	22.83
568.082	22.85
568.423	22.99
568.764	22.96
569.105	23.31
569.447	23.26
569.788	23.48
570.129	23.25
570.47	23.63
570.811	23.31
571.151	23.51
571.492	23.58
571.833	23.44
572.174	23.59
572.514	23.46
572.855	23.65
573.195	23.37
573.536	23.43
573.876	23.43
574.217	23.65
574.557	23.74
574.898	23.73
575.238	23.68
575.578	23.86
575.918	23.83
576.258	23.67
576.598	23.8
576.938	23.95
577.278	23.95
577.618	23.95
577.958	24.12
578.298	24.23
578.638	24.19
578.977	24.36
579.317	24.35
579.657	24.48
579.996	24.42
580.336	24.32
580.675	24.66
581.014	24.63
581.354	24.59
581.693	24.69
582.032	24.82
582.372	24.96
582.711	24.69
583.05	25.03
583.389	24.87
583.728	24.9
584.067	24.96
584.406	25.16
584.745	24.94
585.083	25.1
585.422	25.16
585.761	25.13
586.1	25.23
586.438	25.54
586.777	25.14
587.115	25.45
587.454	25.26
587.792	25.21
588.13	25.43
588.469	25.32
588.807	25.43
589.145	25.49
589.483	25.45
589.821	25.55
590.159	25.38
590.497	25.26
590.835	25.45
591.173	25.61
591.511	25.29
591.849	25.67
592.187	25.71
592.524	25.37
592.862	25.84
593.2	25.7
593.537	26.05
593.875	26.02
594.212	25.71
594.55	25.93
594.887	26.09
595.224	25.98
595.561	25.87
595.899	25.89
596.236	25.92
596.573	25.95
596.91	25.93
597.247	26.08
597.584	25.98
597.921	25.94
598.258	25.88
598.594	25.7
598.931	25.84
599.268	25.88
599.604	26.24
599.941	26.32
600.277	26.55
600.614	26.64
600.95	26.39
601.287	26.71
601.623	26.83
601.959	26.74
602.296	26.85
602.632	26.78
602.968	26.83
603.304	26.79
603.64	26.72
603.976	26.7
604.312	26.87
604.648	26.61
604.984	26.44
605.319	26.63
605.655	26.89
605.991	26.4
606.326	26.5
606.662	26.48
606.998	27
607.333	27.13
607.668	27.16
608.004	27.12
608.339	27.4
608.674	27.27
609.01	27.29
609.345	27.6
609.68	27.15
610.015	27.14
610.35	27.34
610.685	26.88
611.02	27.29
611.355	27.3
611.689	27.08
612.024	27.64
612.359	27.72
612.694	27.94
613.028	28.15
613.363	27.62
613.697	27.95
614.032	27.96
614.366	27.69
614.7	28.22
615.035	28
615.369	28.18
615.703	28.41
616.037	28.22
616.371	28
616.705	28.2
617.039	28.38
617.373	28.36
617.707	28.2
618.041	28.53
618.375	28.19
618.709	28.05
619.042	28.46
619.376	28.34
619.71	28.2
620.043	28.15
620.377	28.39
620.71	28.29
621.043	28.17
621.377	28.84
621.71	28.66
622.043	28.59
622.376	28.51
622.709	29.02
623.043	28.94
623.376	28.72
623.709	29.14
624.041	28.66
624.374	28.87
624.707	29.02
625.04	29.09
625.373	28.93
625.705	29.1
626.038	29.02
626.37	28.8
626.703	28.94
627.035	29.3
627.368	29.08
627.7	28.98
628.032	29.19
628.365	28.87
628.697	28.89
629.029	29.07
629.361	28.97
629.693	29.58
630.025	29.12
630.357	29.28
630.689	29.61
631.021	29.43
631.353	29.54
631.684	29.8
632.016	29.32
632.348	29.7
632.679	30.04
633.011	29.88
633.342	29.75
633.674	29.58
634.005	29.56
634.336	29.71
634.668	29.38
634.999	29.62
635.33	29.81
635.661	29.83
635.992	29.73
636.323	29.87
636.654	30.12
636.985	29.81
637.316	30.19
637.647	30.03
637.977	30.29
638.308	29.76
638.639	30.04
638.969	30.56
639.3	30.31
639.63	30.27
639.961	30.34
640.291	30.8
640.622	30.69
640.952	30.66
641.282	30.43
641.612	30.63
641.943	30.75
642.273	30.34
642.603	30.77
642.933	30.09
643.263	30.87
643.592	30.3
643.922	30.98
644.252	30.35
644.582	30.81
644.911	30.75
645.241	30.65
645.571	30.52
645.9	31.65
646.23	30.8
646.559	31.03
646.888	30.65
647.218	30.94
647.547	30.79
647.876	31.56
648.205	31.06
648.534	31.37
648.863	30.98
649.192	30.97
649.521	30.87
649.85	31.46
650.179	30.98
650.508	31.67
650.837	31.38
651.165	31.28
651.494	31.37
651.822	31.55
652.151	31.37
652.479	31.37
652.808	31.25
653.136	31.38
653.465	31.85
653.793	31.45
654.121	31.39
654.449	31.35
654.777	31.38
655.105	31.74
655.433	32.08
655.761	31.51
656.089	31.71
656.417	31.83
656.745	32.25
657.073	32.13
657.4	32.4
657.728	31.42
658.056	32.38
658.383	32.19
658.711	32.09
659.038	32.12
659.365	32.41
659.693	31.82
660.02	31.7
660.347	31.75
660.674	31.63
661.001	31.64
661.329	31.75
661.656	32.22
661.982	32.54
662.309	32.41
662.636	32.51
662.963	32.56
663.29	32.79
663.616	32.04
663.943	32.61
664.27	32.37
664.596	32.92
664.923	32.69
665.249	33.03
665.576	32.62
665.902	32.36
666.228	33.01
666.554	32.28
666.881	32.99
667.207	32.13
667.533	32.89
667.859	32.6
668.185	33.04
668.511	32.73
668.837	32.56
669.162	32.73
669.488	33.06
669.814	33.1
670.139	33.01
670.465	33.28
670.791	32.69
671.116	32.94
671.442	33.17
671.767	32.83
672.092	32.84
672.418	33.22
672.743	33.25
673.068	33.08
673.393	32.97
673.718	33.34
674.043	33.15
674.368	33.69
674.693	33.94
675.018	33.65
