Data from 0220_chest_Reflection__0__220.txt Node

Date: Fri Sep 22 22:36:51 CDT 2023
User: ToomeyLab
Spectrometer: FLMS14357
Trigger mode: 0
Integration Time (sec): 1.000000E-2
Scans to average: 100
Electric dark correction enabled: true
Nonlinearity correction enabled: false
Boxcar width: 0
XAxis mode: Wavelengths
Number of Pixels in Spectrum: 2048
>>>>>Begin Spectral Data<<<<<
189.047	97.41
189.435	97.41
189.823	97.41
190.211	104.92
190.599	45.59
190.987	391.07
191.375	66.89
191.763	34.32
192.151	55.55
192.538	93.96
192.926	37.5
193.314	1293.9
193.702	47.52
194.089	96.21
194.477	59.3
194.864	245.25
195.252	266.21
195.639	55.77
196.027	4.72
196.414	296.82
196.801	-27.13
197.189	94.79
197.576	101.5
197.963	31.4
198.351	8.56
198.738	36.93
199.125	-3.95
199.512	8.9
199.899	62.77
200.286	-3.14
200.673	4.88
201.06	8.04
201.447	29.87
201.833	-0.83
202.22	59.81
202.607	14.11
202.994	50.99
203.38	35.09
203.767	10.68
204.154	57.23
204.54	38.51
204.927	-19.98
205.313	40.93
205.699	56.27
206.086	38.07
206.472	69.28
206.858	81.73
207.245	11.05
207.631	45.27
208.017	1.76
208.403	31.12
208.789	19.92
209.175	49.68
209.561	44.24
209.947	74.21
210.333	47.32
210.719	20.5
211.105	44.25
211.491	36.13
211.876	61.63
212.262	42.26
212.648	34.25
213.034	37.43
213.419	7.34
213.805	13.76
214.19	8.37
214.576	32.18
214.961	49.8
215.346	1.49
215.732	30.03
216.117	30.29
216.502	33.63
216.888	13.62
217.273	11.33
217.658	-1.11
218.043	5.81
218.428	26.05
218.813	20.2
219.198	32.57
219.583	-1.61
219.968	5.31
220.353	36.99
220.738	16.68
221.122	38.7
221.507	16.7
221.892	5.46
222.276	-3.49
222.661	-15.85
223.046	15.21
223.43	20.52
223.815	14.31
224.199	6.6
224.583	9.86
224.968	12.31
225.352	13.02
225.736	-2.07
226.121	3.12
226.505	11.48
226.889	7.87
227.273	4.31
227.657	10.12
228.041	3.37
228.425	13.07
228.809	4.59
229.193	3.48
229.577	9.33
229.961	6.08
230.344	7.55
230.728	4.61
231.112	4.99
231.495	5.4
231.879	5
232.263	4.66
232.646	5.83
233.03	4.74
233.413	6.11
233.797	5.49
234.18	4.12
234.563	5.92
234.946	8.31
235.33	3.48
235.713	3.88
236.096	5.23
236.479	4.98
236.862	6.01
237.245	6.73
237.628	7.59
238.011	5.63
238.394	5.58
238.777	7.79
239.16	6.41
239.543	7.29
239.925	7.24
240.308	5.91
240.691	5.91
241.073	5.79
241.456	4.96
241.838	4.23
242.221	3.87
242.603	5.5
242.986	4.9
243.368	5.11
243.75	6.2
244.133	5.71
244.515	4.83
244.897	5.19
245.279	4.99
245.661	4.99
246.043	4.7
246.425	4.79
246.807	5.09
247.189	3.97
247.571	5.58
247.953	5.76
248.335	5.45
248.717	5.49
249.098	5.11
249.48	4.73
249.862	4.69
250.243	4.67
250.625	4.97
251.006	4.53
251.388	5.07
251.769	5.25
252.151	5
252.532	3.74
252.913	5.1
253.295	6.07
253.676	5.29
254.057	5.1
254.438	5.41
254.819	4.6
255.2	4.95
255.581	4.76
255.962	5.86
256.343	4.97
256.724	4.22
257.105	5.39
257.486	5.6
257.867	4.56
258.247	5.34
258.628	6.42
259.009	4.3
259.389	4.4
259.77	5.54
260.15	5.4
260.531	3.48
260.911	4.89
261.292	4.73
261.672	4.64
262.052	4.49
262.432	4.66
262.813	4.8
263.193	4.44
263.573	5.24
263.953	4.45
264.333	4.74
264.713	4.99
265.093	4.69
265.473	4.62
265.853	4.19
266.233	4.37
266.612	5.05
266.992	4.33
267.372	4.69
267.752	4.8
268.131	4.68
268.511	4.67
268.89	4.54
269.27	4.32
269.649	4.15
270.029	4.5
270.408	4.53
270.787	4.93
271.167	4.19
271.546	4.7
271.925	4.83
272.304	4.52
272.683	5.13
273.062	5.33
273.441	4.73
273.82	5.3
274.199	4.7
274.578	5.05
274.957	4.88
275.336	4.38
275.715	4.29
276.093	4.77
276.472	4.37
276.851	4.86
277.229	3.83
277.608	4.83
277.986	4.87
278.365	4.83
278.743	4.78
279.122	4.37
279.5	4.82
279.878	4.66
280.257	5.01
280.635	4.14
281.013	4.98
281.391	4.41
281.769	5.28
282.147	4.5
282.525	4.75
282.903	4.77
283.281	4.82
283.659	4.84
284.037	4.61
284.415	4.72
284.792	4.77
285.17	5.23
285.548	4.72
285.925	5.06
286.303	4.4
286.68	4.21
287.058	4.43
287.435	4.48
287.813	4.42
288.19	4.2
288.567	4.63
288.945	4.2
289.322	4.59
289.699	4.36
290.076	4.61
290.453	4.45
290.83	4.22
291.207	4.04
291.584	4.34
291.961	4.5
292.338	4.41
292.715	4.79
293.092	4.41
293.469	4.18
293.845	4.35
294.222	4.48
294.599	4.74
294.975	4.49
295.352	4.7
295.728	4.5
296.105	4.51
296.481	5
296.858	4.78
297.234	4.45
297.61	4.39
297.986	4.81
298.363	4.44
298.739	4.77
299.115	4.6
299.491	4.83
299.867	4.21
300.243	4.16
300.619	4.53
300.995	4.37
301.371	4.89
301.746	4.66
302.122	4.65
302.498	4.39
302.874	4.39
303.249	4.45
303.625	4.99
304	4.6
304.376	5
304.751	5.05
305.127	4.43
305.502	5.24
305.878	4.92
306.253	5.07
306.628	4.44
307.003	4.87
307.378	4.71
307.754	4.65
308.129	4.64
308.504	4.79
308.879	4.82
309.254	4.39
309.629	4.52
310.003	5.55
310.378	5.34
310.753	4.78
311.128	4.96
311.502	4.75
311.877	4.66
312.252	4.64
312.626	4.98
313.001	4.76
313.375	4.73
313.75	4.86
314.124	5.59
314.498	4.6
314.873	4.97
315.247	5.1
315.621	4.88
315.995	4.62
316.369	4.48
316.743	4.56
317.117	5.26
317.491	5.02
317.865	4.07
318.239	4.81
318.613	4.93
318.987	5.02
319.361	4.19
319.734	4.87
320.108	5.13
320.482	4.63
320.855	5.06
321.229	5.62
321.602	5.29
321.976	4.4
322.349	4.91
322.723	4.68
323.096	4.97
323.469	4.96
323.843	5.01
324.216	5.08
324.589	4.92
324.962	4.68
325.335	4.66
325.708	4.55
326.081	4.88
326.454	4.67
326.827	4.93
327.2	4.69
327.573	5.24
327.945	4.47
328.318	5.01
328.691	4.73
329.063	4.63
329.436	5.2
329.809	5.37
330.181	4.56
330.553	4.62
330.926	4.69
331.298	4.8
331.671	4.97
332.043	4.5
332.415	4.66
332.787	5.26
333.159	4.66
333.532	4.44
333.904	4.94
334.276	4.31
334.648	4.63
335.02	4.56
335.391	4.82
335.763	5.28
336.135	4.82
336.507	4.91
336.879	4.43
337.25	4.35
337.622	4.45
337.993	4.57
338.365	4.89
338.736	5.41
339.108	5.06
339.479	4.89
339.851	4.44
340.222	4.75
340.593	4.57
340.964	4.56
341.336	4.36
341.707	4.49
342.078	4.91
342.449	5.14
342.82	4.6
343.191	4.57
343.562	4.63
343.933	5.03
344.303	4.96
344.674	4.87
345.045	4.96
345.416	5.12
345.786	4.49
346.157	4.89
346.527	4.46
346.898	5.25
347.268	4.97
347.639	4.88
348.009	4.67
348.38	5.11
348.75	4.97
349.12	5.08
349.49	4.98
349.861	4.54
350.231	5.11
350.601	4.74
350.971	4.59
351.341	4.44
351.711	5.3
352.081	4.7
352.45	4.45
352.82	5.05
353.19	5.06
353.56	4.52
353.929	4.59
354.299	4.8
354.669	4.81
355.038	4.98
355.408	4.54
355.777	4.85
356.147	4.75
356.516	4.95
356.885	4.8
357.254	5.34
357.624	4.34
357.993	5.07
358.362	4.75
358.731	4.35
359.1	4.96
359.469	4.93
359.838	4.43
360.207	4.65
360.576	4.84
360.945	4.88
361.314	5.19
361.682	5.12
362.051	5.02
362.42	4.97
362.788	4.75
363.157	4.86
363.525	4.59
363.894	4.8
364.262	4.88
364.631	4.85
364.999	4.66
365.367	5.1
365.735	4.87
366.104	4.8
366.472	5.16
366.84	4.77
367.208	5.07
367.576	5.05
367.944	4.93
368.312	5.06
368.68	5.03
369.048	5.1
369.416	5.14
369.783	5.1
370.151	4.73
370.519	4.58
370.886	4.97
371.254	5.22
371.621	4.62
371.989	4.8
372.356	4.62
372.724	5.08
373.091	5.08
373.458	4.95
373.826	4.81
374.193	5.09
374.56	5.13
374.927	5.23
375.294	4.98
375.661	5.02
376.028	5.13
376.395	5.16
376.762	4.9
377.129	5.29
377.496	5.22
377.863	4.99
378.229	5.08
378.596	5.05
378.963	5.53
379.329	4.9
379.696	5.17
380.062	4.86
380.429	5.05
380.795	5.1
381.161	4.96
381.528	4.92
381.894	4.65
382.26	4.95
382.626	4.77
382.993	4.87
383.359	4.98
383.725	5.11
384.091	5.11
384.457	4.75
384.823	4.91
385.188	5.48
385.554	5.05
385.92	5.26
386.286	4.94
386.651	5.03
387.017	5.11
387.383	4.86
387.748	5.08
388.114	4.91
388.479	5.3
388.845	4.85
389.21	4.67
389.575	5.34
389.94	5.05
390.306	5.19
390.671	5.21
391.036	4.83
391.401	5.08
391.766	4.98
392.131	5.01
392.496	5.19
392.861	4.98
393.226	5.15
393.591	5.06
393.956	4.88
394.32	5
394.685	4.96
395.05	5.23
395.414	5.24
395.779	5.13
396.143	5.15
396.508	4.89
396.872	4.99
397.236	5.3
397.601	4.92
397.965	5.22
398.329	5.03
398.694	5.1
399.058	4.87
399.422	5.15
399.786	5.16
400.15	5.12
400.514	5.27
400.878	4.97
401.242	5.4
401.605	5.27
401.969	4.92
402.333	5.31
402.697	4.88
403.06	4.92
403.424	4.78
403.787	5.04
404.151	5.02
404.514	5.21
404.878	5.23
405.241	5.25
405.604	4.94
405.968	5.12
406.331	5.03
406.694	4.95
407.057	4.86
407.42	4.88
407.783	5.19
408.146	5.07
408.509	4.98
408.872	4.99
409.235	4.81
409.598	4.92
409.961	5.32
410.323	5.2
410.686	5.1
411.049	5.41
411.411	5.13
411.774	4.83
412.136	4.97
412.499	4.94
412.861	4.98
413.223	5.13
413.586	4.75
413.948	4.74
414.31	4.98
414.672	4.91
415.035	4.95
415.397	5.3
415.759	5.37
416.121	4.93
416.483	5.04
416.845	5.1
417.206	5.01
417.568	5.1
417.93	5.01
418.292	4.96
418.653	5.03
419.015	5
419.377	4.88
419.738	5.1
420.1	4.86
420.461	5.08
420.822	4.98
421.184	4.95
421.545	5.09
421.906	5.07
422.267	4.96
422.629	4.95
422.99	4.88
423.351	4.95
423.712	4.88
424.073	4.91
424.434	5.04
424.795	4.94
425.155	4.98
425.516	4.99
425.877	4.91
426.238	4.86
426.598	4.89
426.959	4.95
427.32	5.09
427.68	5.01
428.041	4.93
428.401	4.99
428.761	5.11
429.122	5.19
429.482	5.1
429.842	4.8
430.202	4.96
430.563	5.08
430.923	5.21
431.283	5.25
431.643	5.22
432.003	5.27
432.363	5.37
432.722	5.17
433.082	5.16
433.442	5
433.802	5.38
434.161	5.06
434.521	5.14
434.881	5.29
435.24	5.12
435.6	5.06
435.959	5.23
436.319	5
436.678	5.15
437.037	5.2
437.396	4.9
437.756	5.25
438.115	5.3
438.474	5.22
438.833	5.24
439.192	5.35
439.551	5.26
439.91	5.33
440.269	5.24
440.628	5.27
440.987	5.19
441.345	5.27
441.704	5.3
442.063	5.12
442.421	5.08
442.78	5.23
443.138	5.31
443.497	5.06
443.855	5.27
444.214	5.19
444.572	5.44
444.93	5.39
445.288	5.32
445.647	5.35
446.005	5.22
446.363	5.2
446.721	5.18
447.079	5.19
447.437	5.42
447.795	5.31
448.153	5.13
448.51	5.24
448.868	5.11
449.226	5.26
449.584	5.24
449.941	5.12
450.299	5.21
450.656	5.27
451.014	5.34
451.371	5.31
451.729	5.33
452.086	5.27
452.443	5.27
452.801	5.32
453.158	5.31
453.515	5.44
453.872	5.15
454.229	5.48
454.586	5.35
454.943	5.4
455.3	5.49
455.657	5.38
456.014	5.3
456.371	5.48
456.727	5.56
457.084	5.52
457.441	5.27
457.797	5.44
458.154	5.37
458.51	5.38
458.867	5.44
459.223	5.32
459.58	5.33
459.936	5.63
460.292	5.39
460.648	5.39
461.005	5.37
461.361	5.52
461.717	5.23
462.073	5.29
462.429	5.24
462.785	5.37
463.141	5.34
463.496	5.4
463.852	5.48
464.208	5.47
464.564	5.78
464.919	5.44
465.275	5.48
465.631	5.67
465.986	5.68
466.342	5.65
466.697	5.68
467.052	5.61
467.408	5.54
467.763	5.45
468.118	5.58
468.473	5.58
468.829	5.5
469.184	5.41
469.539	5.51
469.894	5.6
470.249	5.6
470.603	5.55
470.958	5.55
471.313	5.65
471.668	5.66
472.023	5.57
472.377	5.65
472.732	5.44
473.086	5.71
473.441	5.47
473.795	5.89
474.15	5.73
474.504	5.54
474.859	5.85
475.213	5.63
475.567	5.41
475.921	5.52
476.275	5.65
476.63	5.6
476.984	5.53
477.338	5.73
477.692	5.63
478.045	5.73
478.399	5.74
478.753	5.57
479.107	5.68
479.461	5.68
479.814	5.72
480.168	5.72
480.521	5.77
480.875	5.83
481.228	5.74
481.582	5.47
481.935	5.82
482.289	5.52
482.642	5.56
482.995	5.67
483.348	5.55
483.701	5.64
484.055	5.68
484.408	5.57
484.761	5.69
485.114	5.46
485.466	5.37
485.819	5.32
486.172	5.27
486.525	5.25
486.878	5.31
487.23	5.42
487.583	5.43
487.936	5.51
488.288	5.54
488.641	5.52
488.993	5.46
489.345	5.45
489.698	5.4
490.05	5.44
490.402	5.45
490.754	5.37
491.107	5.6
491.459	5.6
491.811	5.53
492.163	5.63
492.515	5.62
492.866	5.59
493.218	5.58
493.57	5.58
493.922	5.46
494.274	5.51
494.625	5.5
494.977	5.65
495.328	5.71
495.68	5.74
496.031	5.67
496.383	5.81
496.734	5.82
497.086	5.8
497.437	5.85
497.788	5.92
498.139	5.92
498.49	5.96
498.842	5.71
499.193	5.71
499.544	5.84
499.894	5.75
500.245	5.84
500.596	5.79
500.947	5.92
501.298	5.81
501.648	5.86
501.999	5.92
502.35	5.91
502.7	5.86
503.051	5.92
503.401	5.99
503.752	5.83
504.102	5.87
504.452	5.99
504.803	5.93
505.153	5.93
505.503	5.91
505.853	6.07
506.203	5.97
506.553	5.99
506.903	5.91
507.253	5.87
507.603	6.03
507.953	6.06
508.303	5.96
508.652	6.02
509.002	6.1
509.352	6.08
509.701	5.93
510.051	6
510.4	6.05
510.75	5.77
511.099	5.89
511.449	5.99
511.798	5.99
512.147	5.98
512.496	6.02
512.846	5.89
513.195	6.05
513.544	6.08
513.893	6.21
514.242	6.01
514.591	6.08
514.939	6.18
515.288	5.88
515.637	6.11
515.986	5.99
516.334	6.17
516.683	6.05
517.032	6.18
517.38	6.07
517.729	6.19
518.077	6.14
518.426	6.22
518.774	6.14
519.122	6.08
519.47	6.04
519.819	6.07
520.167	6.1
520.515	6.12
520.863	5.99
521.211	6.1
521.559	6.04
521.907	6.08
522.255	6.09
522.602	6.21
522.95	6.12
523.298	6.09
523.645	6.31
523.993	6.23
524.341	6.12
524.688	6.28
525.036	6.26
525.383	6.22
525.73	6.35
526.078	6.12
526.425	6.26
526.772	6.38
527.119	6.22
527.466	6.19
527.814	6.08
528.161	6.09
528.508	6.13
528.854	6.13
529.201	6.2
529.548	6.22
529.895	6.15
530.242	6.02
530.588	5.99
530.935	5.92
531.282	5.94
531.628	6
531.975	6
532.321	6.09
532.667	6.18
533.014	6.24
533.36	6.22
533.706	6.24
534.052	6.4
534.399	6.35
534.745	6.37
535.091	6.24
535.437	6.18
535.783	6.12
536.129	6.18
536.474	6.24
536.82	6.17
537.166	6.32
537.512	6.34
537.857	6.41
538.203	6.42
538.549	6.31
538.894	6.32
539.239	6.38
539.585	6.38
539.93	6.52
540.276	6.47
540.621	6.58
540.966	6.56
541.311	6.61
541.656	6.49
542.001	6.58
542.346	6.5
542.691	6.6
543.036	6.43
543.381	6.41
543.726	6.31
544.071	6.29
544.415	6.42
544.76	6.33
545.105	6.39
545.449	6.46
545.794	6.5
546.138	6.48
546.483	6.51
546.827	6.51
547.171	6.68
547.516	6.69
547.86	6.72
548.204	6.75
548.548	6.62
548.892	6.73
549.236	6.59
549.58	6.72
549.924	6.74
550.268	6.93
550.612	6.75
550.956	6.84
551.3	6.81
551.643	6.86
551.987	7.01
552.33	6.95
552.674	6.73
553.017	6.93
553.361	6.91
553.704	6.99
554.048	6.99
554.391	7.06
554.734	7.05
555.077	7
555.42	6.91
555.764	7.19
556.107	7.06
556.45	7.06
556.793	7.08
557.135	7
557.478	6.99
557.821	7
558.164	7.25
558.507	7.15
558.849	7.19
559.192	7.35
559.534	7.19
559.877	7.29
560.219	7.29
560.562	7.26
560.904	7.33
561.246	7.4
561.589	7.25
561.931	7.27
562.273	7.26
562.615	7.26
562.957	7.16
563.299	7.53
563.641	7.5
563.983	7.25
564.325	7.2
564.667	7.47
565.008	7.41
565.35	7.47
565.692	7.57
566.033	7.45
566.375	7.52
566.716	7.58
567.058	7.47
567.399	7.46
567.741	7.85
568.082	7.51
568.423	7.72
568.764	7.59
569.105	7.37
569.447	7.54
569.788	7.46
570.129	7.76
570.47	7.72
570.811	7.65
571.151	7.76
571.492	7.62
571.833	7.52
572.174	7.73
572.514	7.58
572.855	7.6
573.195	7.72
573.536	7.71
573.876	7.82
574.217	7.58
574.557	7.61
574.898	7.77
575.238	7.54
575.578	7.73
575.918	7.97
576.258	7.89
576.598	7.91
576.938	7.94
577.278	7.93
577.618	7.82
577.958	8.16
578.298	7.98
578.638	7.97
578.977	8.05
579.317	8.13
579.657	8.18
579.996	8.02
580.336	8.11
580.675	8.14
581.014	8.19
581.354	8
581.693	8.25
582.032	8.18
582.372	8.23
582.711	8.07
583.05	8.15
583.389	8.39
583.728	8.38
584.067	8.35
584.406	8.2
584.745	8.18
585.083	8.31
585.422	8.4
585.761	8.16
586.1	8.18
586.438	8.61
586.777	8.45
587.115	8.61
587.454	8.24
587.792	8.71
588.13	8.62
588.469	8.31
588.807	8.62
589.145	8.84
589.483	8.66
589.821	8.42
590.159	8.52
590.497	8.73
590.835	8.76
591.173	8.63
591.511	8.49
591.849	8.82
592.187	8.58
592.524	8.9
592.862	8.86
593.2	8.64
593.537	8.46
593.875	8.89
594.212	8.77
594.55	9.04
594.887	8.72
595.224	8.84
595.561	9.09
595.899	9.06
596.236	9.14
596.573	9.05
596.91	9.12
597.247	8.95
597.584	9.25
597.921	8.91
598.258	9
598.594	9
598.931	8.97
599.268	9.17
599.604	9.24
599.941	9.15
600.277	8.98
600.614	9.07
600.95	9.37
601.287	9.34
601.623	9.08
601.959	9.48
602.296	9.37
602.632	9.29
602.968	9.52
603.304	9.52
603.64	9.46
603.976	9.41
604.312	9.81
604.648	9.53
604.984	9.5
605.319	9.42
605.655	9.56
605.991	9.41
606.326	9.51
606.662	9.24
606.998	9.53
607.333	9.57
607.668	9.46
608.004	9.65
608.339	9.48
608.674	9.66
609.01	9.64
609.345	9.73
609.68	9.91
610.015	9.35
610.35	9.87
610.685	9.84
611.02	9.85
611.355	9.64
611.689	9.75
612.024	9.96
612.359	9.88
612.694	10
613.028	9.68
613.363	9.77
613.697	10.14
614.032	10.13
614.366	10.01
614.7	10.25
615.035	9.77
615.369	10.1
615.703	10.04
616.037	10.13
616.371	10.37
616.705	10.24
617.039	9.89
617.373	10.2
617.707	10.36
618.041	10.46
618.375	10.35
618.709	10.51
619.042	10.65
619.376	10.56
619.71	10.36
620.043	9.98
620.377	10.24
620.71	10.35
621.043	10.55
621.377	10.25
621.71	10.53
622.043	10.44
622.376	10.89
622.709	10.7
623.043	10.25
623.376	10.7
623.709	10.74
624.041	10.41
624.374	11.13
624.707	10.58
625.04	10.89
625.373	10.22
625.705	10.72
626.038	10.77
626.37	10.99
626.703	11.06
627.035	10.9
627.368	10.73
627.7	11.24
628.032	10.95
628.365	10.99
628.697	11.09
629.029	11.28
629.361	10.82
629.693	11.03
630.025	11.21
630.357	10.93
630.689	11.05
631.021	10.87
631.353	10.96
631.684	11.15
632.016	11.28
632.348	11.64
632.679	11.27
633.011	11.46
633.342	11.36
633.674	11.77
634.005	10.89
634.336	11.26
634.668	11.34
634.999	11.82
635.33	11.38
635.661	11.3
635.992	11.33
636.323	11.51
636.654	11.27
636.985	11.35
637.316	11.82
637.647	11.61
637.977	11.35
638.308	12.02
638.639	11.92
638.969	11.82
639.3	11.9
639.63	12.05
639.961	11.39
640.291	11.71
640.622	11.44
640.952	11.78
641.282	11.83
641.612	11.94
641.943	11.79
642.273	12.18
642.603	11.76
642.933	12.07
643.263	11.59
643.592	11.97
643.922	12.25
644.252	12.28
644.582	12.32
644.911	12.37
645.241	12.5
645.571	12.53
645.9	12.63
646.23	12.82
646.559	12.56
646.888	12.31
647.218	12.16
647.547	11.72
647.876	12.35
648.205	12.03
648.534	12.79
648.863	12.2
649.192	11.9
649.521	12.45
649.85	12.38
650.179	12.59
650.508	12.61
650.837	12.93
651.165	12.43
651.494	12.68
651.822	12.36
652.151	13.05
652.479	12.81
652.808	12.57
653.136	13.07
653.465	13.02
653.793	12.54
654.121	12.87
654.449	12.32
654.777	13
655.105	12.63
655.433	12.76
655.761	13.55
656.089	12.69
656.417	12.75
656.745	12.84
657.073	13.03
657.4	13.56
657.728	12.91
658.056	13.63
658.383	13.67
658.711	12.92
659.038	13.23
659.365	13.12
659.693	13.1
660.02	13.55
660.347	13.5
660.674	13.33
661.001	13.41
661.329	13.27
661.656	13.31
661.982	13.27
662.309	13.35
662.636	13.62
662.963	13.31
663.29	13.59
663.616	13.25
663.943	13.76
664.27	13.55
664.596	13.71
664.923	13.62
665.249	13.35
665.576	13.31
665.902	13.59
666.228	13.45
666.554	13.55
666.881	14.22
667.207	13.57
667.533	13.42
667.859	13.65
668.185	13.82
668.511	14.29
668.837	13.72
669.162	13.75
669.488	13.39
669.814	13.76
670.139	13.83
670.465	14.54
670.791	14.03
671.116	13.71
671.442	14.4
671.767	13.42
672.092	14.83
672.418	14.44
672.743	14.36
673.068	13.81
673.393	13.49
673.718	14.67
674.043	14.89
674.368	15.15
674.693	13.97
675.018	14.57
675.343	14.25
675.667	14.46
675.992	14.43
676.317	14.96
676.641	14.97
676.966	13.7
677.29	14.21
677.615	15.32
677.939	15.49
678.264	14.77
678.588	15.64
678.912	14.4
679.236	14.93
679.56	14.86
679.885	15.01
680.209	15.45
680.532	14.58
680.856	14.49
681.18	14.66
681.504	14.77
681.828	15.12
682.152	14.91
682.475	15.35
682.799	14.71
683.122	15.31
683.446	15.08
683.769	15.25
684.093	15.77
684.416	15.25
684.739	14.71
685.062	15.55
685.386	15.77
685.709	14.68
686.032	15.54
686.355	15.81
686.678	15.17
687.001	15.48
687.324	15.56
687.646	15.63
687.969	15.83
688.292	15.95
