Data from 0220_crown_Reflection__4__229.txt Node

Date: Fri Sep 22 22:39:14 CDT 2023
User: ToomeyLab
Spectrometer: FLMS14357
Trigger mode: 0
Integration Time (sec): 1.000000E-2
Scans to average: 100
Electric dark correction enabled: true
Nonlinearity correction enabled: false
Boxcar width: 0
XAxis mode: Wavelengths
Number of Pixels in Spectrum: 2048
>>>>>Begin Spectral Data<<<<<
189.047	-109.81
189.435	-109.81
189.823	-109.81
190.211	-566.32
190.599	-98.33
190.987	-22.45
191.375	460.59
191.763	140.46
192.151	72.51
192.538	230.13
192.926	-0.16
193.314	8124.39
193.702	66.68
194.089	193.09
194.477	-223.61
194.864	1009.79
195.252	-52.42
195.639	38.71
196.027	70.26
196.414	226.08
196.801	-39.45
197.189	39.25
197.576	67.15
197.963	-8.22
198.351	-14.73
198.738	26.96
199.125	38.55
199.512	-0.06
199.899	50.58
200.286	29.79
200.673	18.08
201.06	10.44
201.447	26.76
201.833	-47.18
202.22	49.02
202.607	49
202.994	56.17
203.38	50.88
203.767	14.9
204.154	24.36
204.54	39.89
204.927	1.63
205.313	44.99
205.699	36.57
206.086	26.95
206.472	56.32
206.858	31.35
207.245	19.75
207.631	23.64
208.017	37.43
208.403	23.55
208.789	16.12
209.175	47.26
209.561	44.91
209.947	38.09
210.333	45.08
210.719	-6.12
211.105	54.71
211.491	12.66
211.876	52.3
212.262	18.22
212.648	21.28
213.034	38.13
213.419	23.81
213.805	7.18
214.19	12.54
214.576	32.41
214.961	29.9
215.346	16.54
215.732	14.99
216.117	0.16
216.502	56.25
216.888	19.74
217.273	10.86
217.658	-0.14
218.043	10.07
218.428	48.52
218.813	9.28
219.198	24.35
219.583	40.03
219.968	8.06
220.353	26.18
220.738	13.76
221.122	10.2
221.507	5.41
221.892	1.01
222.276	-5.21
222.661	-11.4
223.046	23.29
223.43	20
223.815	5.97
224.199	-1.28
224.583	12.08
224.968	29.77
225.352	9.82
225.736	9.05
226.121	9.17
226.505	13.53
226.889	13.25
227.273	7.44
227.657	2.75
228.041	10.51
228.425	17.09
228.809	5.66
229.193	8.16
229.577	8.55
229.961	6.38
230.344	7.44
230.728	5.32
231.112	6.82
231.495	5.31
231.879	6.4
232.263	5.86
232.646	4.34
233.03	4.94
233.413	6.49
233.797	6.24
234.18	6.4
234.563	7.49
234.946	8.14
235.33	1.32
235.713	4.54
236.096	5.89
236.479	6.4
236.862	7.73
237.245	5.86
237.628	6.83
238.011	5.5
238.394	5.61
238.777	7.36
239.16	6.03
239.543	7.9
239.925	5.45
240.308	6.86
240.691	5.4
241.073	8.89
241.456	5.67
241.838	4.35
242.221	4.8
242.603	5.78
242.986	4.3
243.368	4.44
243.75	5.35
244.133	5.64
244.515	5.22
244.897	4.8
245.279	5.12
245.661	5.24
246.043	5.02
246.425	4.9
246.807	4.31
247.189	3.7
247.571	5.58
247.953	5.16
248.335	4.6
248.717	5.05
249.098	5.15
249.48	4.59
249.862	4.5
250.243	4.87
250.625	4.86
251.006	4.67
251.388	5.12
251.769	5.54
252.151	4.73
252.532	4.75
252.913	4.52
253.295	5.56
253.676	5.28
254.057	5.32
254.438	5.19
254.819	4.58
255.2	4.7
255.581	5.18
255.962	5.6
256.343	4.81
256.724	5.36
257.105	5.28
257.486	4.89
257.867	5.52
258.247	5.28
258.628	4.98
259.009	4.76
259.389	4.21
259.77	5.21
260.15	5.18
260.531	4.73
260.911	4.44
261.292	4.04
261.672	4.01
262.052	4.19
262.432	4.49
262.813	4.56
263.193	4.4
263.573	5.23
263.953	4.74
264.333	3.98
264.713	3.94
265.093	4.24
265.473	5.34
265.853	4.73
266.233	3.74
266.612	4.77
266.992	5.09
267.372	4.52
267.752	5.03
268.131	3.35
268.511	3.82
268.89	4.9
269.27	4
269.649	4.43
270.029	4.37
270.408	3.86
270.787	4.56
271.167	4.35
271.546	4.06
271.925	3.89
272.304	3.96
272.683	4.41
273.062	4.62
273.441	3.93
273.82	4.42
274.199	4.4
274.578	4.63
274.957	4.21
275.336	3.63
275.715	4.15
276.093	4.16
276.472	3.69
276.851	4.61
277.229	4.02
277.608	4.12
277.986	3.84
278.365	4.57
278.743	3.93
279.122	4.19
279.5	4.24
279.878	3.77
280.257	4.63
280.635	3.5
281.013	4.33
281.391	4.1
281.769	4.24
282.147	4.14
282.525	4.18
282.903	4.34
283.281	4.03
283.659	4.36
284.037	3.8
284.415	4.62
284.792	3.95
285.17	4.06
285.548	3.85
285.925	3.89
286.303	4.15
286.68	3.83
287.058	3.45
287.435	3.97
287.813	3.7
288.19	3.82
288.567	4.01
288.945	3.77
289.322	3.81
289.699	3.32
290.076	3.93
290.453	3.44
290.83	3.54
291.207	3.81
291.584	3.45
291.961	3.58
292.338	3.87
292.715	3.59
293.092	3.72
293.469	3.39
293.845	3.8
294.222	3.95
294.599	4.18
294.975	4.21
295.352	4
295.728	3.74
296.105	4.14
296.481	3.82
296.858	3.81
297.234	3.64
297.61	4.07
297.986	3.7
298.363	3.61
298.739	3.8
299.115	3.98
299.491	3.72
299.867	3.96
300.243	3.5
300.619	3.63
300.995	3.4
301.371	3.74
301.746	3.73
302.122	3.67
302.498	3.66
302.874	3.59
303.249	3.95
303.625	3.4
304	3.82
304.376	3.99
304.751	3.59
305.127	3.61
305.502	3.84
305.878	3.93
306.253	3.71
306.628	3.72
307.003	3.5
307.378	3.2
307.754	3.91
308.129	3.74
308.504	3.84
308.879	3.48
309.254	4.26
309.629	3.7
310.003	4.17
310.378	4.29
310.753	4.14
311.128	3.55
311.502	3.96
311.877	3.08
312.252	3.61
312.626	3.7
313.001	3.79
313.375	3.72
313.75	3.6
314.124	3.96
314.498	3.21
314.873	3.28
315.247	4.12
315.621	3.76
315.995	3.54
316.369	3.41
316.743	3.45
317.117	3.89
317.491	3.98
317.865	3.27
318.239	3.69
318.613	4.12
318.987	3.44
319.361	2.97
319.734	3.66
320.108	4.28
320.482	4.04
320.855	3.65
321.229	3.9
321.602	4.14
321.976	3.11
322.349	3.89
322.723	3.67
323.096	4.31
323.469	3.77
323.843	3.47
324.216	4.09
324.589	3.76
324.962	3.85
325.335	3.5
325.708	3.59
326.081	4.09
326.454	3.31
326.827	3.75
327.2	3.77
327.573	4.12
327.945	3.85
328.318	3.92
328.691	4.12
329.063	3.69
329.436	3.78
329.809	3.63
330.181	3.76
330.553	4.35
330.926	3.27
331.298	3.69
331.671	4.12
332.043	2.91
332.415	3.73
332.787	4.32
333.159	3.65
333.532	3.63
333.904	3.74
334.276	3.28
334.648	3.63
335.02	3.61
335.391	3.48
335.763	4.1
336.135	3.53
336.507	3.64
336.879	3.66
337.25	3.91
337.622	4.19
337.993	4.27
338.365	4.58
338.736	3.55
339.108	3.47
339.479	3.81
339.851	3.43
340.222	3.28
340.593	3.33
340.964	3.46
341.336	3.97
341.707	3.92
342.078	4.12
342.449	3.69
342.82	3.52
343.191	3.38
343.562	3.87
343.933	3.84
344.303	3.89
344.674	3.45
345.045	3.78
345.416	3.98
345.786	3.6
346.157	3.27
346.527	3.41
346.898	3.67
347.268	3.56
347.639	3.83
348.009	3.8
348.38	3.76
348.75	3.96
349.12	3.62
349.49	4.17
349.861	3.78
350.231	3.76
350.601	4.22
350.971	4.18
351.341	3.73
351.711	3.57
352.081	3.61
352.45	3.84
352.82	3.83
353.19	3.73
353.56	3.46
353.929	3.92
354.299	3.77
354.669	3.71
355.038	3.79
355.408	3.57
355.777	3.87
356.147	3.93
356.516	3.96
356.885	3.63
357.254	3.82
357.624	3.37
357.993	3.97
358.362	3.97
358.731	3.51
359.1	3.94
359.469	3.91
359.838	3.48
360.207	3.56
360.576	3.94
360.945	3.79
361.314	3.9
361.682	4.12
362.051	4.17
362.42	4.25
362.788	3.74
363.157	3.92
363.525	3.79
363.894	3.6
364.262	3.72
364.631	3.63
364.999	3.71
365.367	3.96
365.735	3.87
366.104	3.72
366.472	4.21
366.84	3.55
367.208	4.48
367.576	4.03
367.944	3.82
368.312	4.06
368.68	4.36
369.048	4.26
369.416	3.75
369.783	3.79
370.151	3.68
370.519	3.49
370.886	4.36
371.254	4.18
371.621	4.17
371.989	4.18
372.356	3.82
372.724	4.45
373.091	4.11
373.458	4.31
373.826	4.27
374.193	4.36
374.56	4.17
374.927	4.07
375.294	4.22
375.661	4.12
376.028	4.47
376.395	3.91
376.762	3.93
377.129	4.02
377.496	4.54
377.863	4.28
378.229	4.11
378.596	3.77
378.963	4.39
379.329	4.1
379.696	4.2
380.062	3.81
380.429	4.18
380.795	3.72
381.161	4.07
381.528	3.68
381.894	3.63
382.26	3.76
382.626	3.92
382.993	4.39
383.359	4.01
383.725	4.16
384.091	4.54
384.457	4.18
384.823	3.78
385.188	4.41
385.554	4.25
385.92	4.42
386.286	4.3
386.651	4
387.017	4.11
387.383	3.9
387.748	4.17
388.114	4.1
388.479	4.24
388.845	3.88
389.21	4.02
389.575	4.09
389.94	3.77
390.306	4.46
390.671	4.66
391.036	3.89
391.401	4.27
391.766	4.11
392.131	4.19
392.496	4.18
392.861	3.98
393.226	4.39
393.591	4.36
393.956	4.26
394.32	4.17
394.685	4.26
395.05	4.41
395.414	4.39
395.779	4.58
396.143	4.2
396.508	3.96
396.872	4.33
397.236	4.21
397.601	4.18
397.965	4.45
398.329	4.14
398.694	4.15
399.058	4.09
399.422	4.49
399.786	4.42
400.15	4.33
400.514	4.04
400.878	4.22
401.242	4.47
401.605	4.25
401.969	4.08
402.333	4.29
402.697	4.16
403.06	4.02
403.424	4.43
403.787	4.25
404.151	4.36
404.514	4.14
404.878	4.18
405.241	4.31
405.604	4.24
405.968	4.27
406.331	4.22
406.694	4.34
407.057	4.12
407.42	4.3
407.783	4.32
408.146	4.26
408.509	4.2
408.872	4.07
409.235	4.4
409.598	4.15
409.961	4.59
410.323	4.27
410.686	4.51
411.049	4.44
411.411	4.52
411.774	4.36
412.136	4.19
412.499	4.32
412.861	4.3
413.223	4.42
413.586	4.2
413.948	4.63
414.31	4.31
414.672	4.37
415.035	4.29
415.397	4.65
415.759	4.53
416.121	4.25
416.483	4.2
416.845	4.2
417.206	4.25
417.568	4.22
417.93	4.06
418.292	4.3
418.653	4.08
419.015	4.3
419.377	4.25
419.738	4.37
420.1	4.14
420.461	4.27
420.822	4.35
421.184	4.21
421.545	4.31
421.906	4.24
422.267	4.14
422.629	4.33
422.99	4.12
423.351	4.11
423.712	4.11
424.073	4.09
424.434	4.16
424.795	4.15
425.155	4.2
425.516	4.22
425.877	4.23
426.238	4.1
426.598	4.12
426.959	4.2
427.32	4.25
427.68	4.23
428.041	4.11
428.401	4.28
428.761	4.27
429.122	4.33
429.482	4.3
429.842	4.09
430.202	4.26
430.563	4.43
430.923	4.45
431.283	4.37
431.643	4.59
432.003	4.4
432.363	4.45
432.722	4.34
433.082	4.34
433.442	4.26
433.802	4.51
434.161	4.23
434.521	4.27
434.881	4.27
435.24	4.24
435.6	4.27
435.959	4.23
436.319	4.3
436.678	4.33
437.037	4.39
437.396	4.27
437.756	4.34
438.115	4.25
438.474	4.25
438.833	4.47
439.192	4.38
439.551	4.36
439.91	4.48
440.269	4.4
440.628	4.21
440.987	4.36
441.345	4.4
441.704	4.34
442.063	4.35
442.421	4.25
442.78	4.3
443.138	4.22
443.497	4.26
443.855	4.31
444.214	4.13
444.572	4.42
444.93	4.38
445.288	4.28
445.647	4.38
446.005	4.27
446.363	4.18
446.721	4.43
447.079	4.25
447.437	4.37
447.795	4.3
448.153	4.18
448.51	4.3
448.868	4.29
449.226	4.25
449.584	4.22
449.941	4.23
450.299	4.39
450.656	4.35
451.014	4.46
451.371	4.42
451.729	4.26
452.086	4.33
452.443	4.42
452.801	4.52
453.158	4.38
453.515	4.52
453.872	4.29
454.229	4.4
454.586	4.42
454.943	4.31
455.3	4.34
455.657	4.38
456.014	4.62
456.371	4.47
456.727	4.64
457.084	4.34
457.441	4.44
457.797	4.42
458.154	4.49
458.51	4.32
458.867	4.37
459.223	4.27
459.58	4.5
459.936	4.55
460.292	4.34
460.648	4.37
461.005	4.42
461.361	4.44
461.717	4.14
462.073	4.3
462.429	4.19
462.785	4.3
463.141	4.35
463.496	4.47
463.852	4.37
464.208	4.36
464.564	4.46
464.919	4.52
465.275	4.71
465.631	4.6
465.986	4.45
466.342	4.62
466.697	4.67
467.052	4.33
467.408	4.43
467.763	4.49
468.118	4.5
468.473	4.45
468.829	4.36
469.184	4.34
469.539	4.47
469.894	4.42
470.249	4.52
470.603	4.58
470.958	4.45
471.313	4.44
471.668	4.62
472.023	4.52
472.377	4.48
472.732	4.41
473.086	4.48
473.441	4.17
473.795	4.7
474.15	4.5
474.504	4.5
474.859	4.72
475.213	4.28
475.567	4.37
475.921	4.46
476.275	4.47
476.63	4.37
476.984	4.36
477.338	4.57
477.692	4.53
478.045	4.62
478.399	4.55
478.753	4.4
479.107	4.53
479.461	4.37
479.814	4.53
480.168	4.36
480.521	4.51
480.875	4.59
481.228	4.32
481.582	4.28
481.935	4.44
482.289	4.38
482.642	4.33
482.995	4.41
483.348	4.42
483.701	4.35
484.055	4.39
484.408	4.38
484.761	4.37
485.114	4.2
485.466	4.16
485.819	4.02
486.172	3.99
486.525	4.01
486.878	4.11
487.23	4.19
487.583	4.24
487.936	4.26
488.288	4.33
488.641	4.23
488.993	4.12
489.345	4.1
489.698	4.11
490.05	4.14
490.402	4.21
490.754	4.14
491.107	4.17
491.459	4.29
491.811	4.28
492.163	4.32
492.515	4.29
492.866	4.41
493.218	4.35
493.57	4.22
493.922	4.15
494.274	4.14
494.625	4.27
494.977	4.31
495.328	4.37
495.68	4.42
496.031	4.41
496.383	4.39
496.734	4.42
497.086	4.43
497.437	4.41
497.788	4.33
498.139	4.4
498.49	4.41
498.842	4.24
499.193	4.28
499.544	4.38
499.894	4.36
500.245	4.44
500.596	4.34
500.947	4.51
501.298	4.39
501.648	4.49
501.999	4.44
502.35	4.41
502.7	4.48
503.051	4.53
503.401	4.42
503.752	4.34
504.102	4.41
504.452	4.43
504.803	4.38
505.153	4.32
505.503	4.34
505.853	4.48
506.203	4.36
506.553	4.52
506.903	4.45
507.253	4.38
507.603	4.5
507.953	4.57
508.303	4.44
508.652	4.36
509.002	4.48
509.352	4.51
509.701	4.46
510.051	4.41
510.4	4.39
510.75	4.4
511.099	4.17
511.449	4.36
511.798	4.45
512.147	4.38
512.496	4.33
512.846	4.25
513.195	4.35
513.544	4.4
513.893	4.5
514.242	4.3
514.591	4.44
514.939	4.47
515.288	4.29
515.637	4.34
515.986	4.29
516.334	4.39
516.683	4.46
517.032	4.49
517.38	4.45
517.729	4.24
518.077	4.41
518.426	4.38
518.774	4.42
519.122	4.31
519.47	4.26
519.819	4.36
520.167	4.35
520.515	4.26
520.863	4.15
521.211	4.16
521.559	4.22
521.907	4.29
522.255	4.31
522.602	4.32
522.95	4.36
523.298	4.43
523.645	4.36
523.993	4.41
524.341	4.2
524.688	4.45
525.036	4.28
525.383	4.33
525.73	4.46
526.078	4.22
526.425	4.37
526.772	4.33
527.119	4.35
527.466	4.13
527.814	4.07
528.161	4.14
528.508	4.16
528.854	4.26
529.201	4.29
529.548	4.12
529.895	4.17
530.242	4.12
530.588	3.95
530.935	3.85
531.282	3.94
531.628	4.05
531.975	4.08
532.321	4.15
532.667	4.21
533.014	4.25
533.36	4.21
533.706	4.17
534.052	4.34
534.399	4.31
534.745	4.14
535.091	4.1
535.437	4.08
535.783	4
536.129	4.09
536.474	4.18
536.82	4.18
537.166	4.28
537.512	4.23
537.857	4.19
538.203	4.31
538.549	4.19
538.894	4.11
539.239	4.15
539.585	4.09
539.93	4.33
540.276	4.29
540.621	4.19
540.966	4.25
541.311	4.29
541.656	4.24
542.001	4.23
542.346	4.17
542.691	4.2
543.036	4.2
543.381	3.97
543.726	3.97
544.071	3.99
544.415	3.98
544.76	4.06
545.105	4
545.449	4.1
545.794	4.11
546.138	4.14
546.483	4.15
546.827	4.21
547.171	4.17
547.516	4.25
547.86	4.15
548.204	4.17
548.548	4.11
548.892	4.25
549.236	4.16
549.58	4.13
549.924	4.31
550.268	4.35
550.612	4.18
550.956	4.31
551.3	4.24
551.643	4.39
551.987	4.28
552.33	4.34
552.674	4.3
553.017	4.28
553.361	4.13
553.704	4.32
554.048	4.35
554.391	4.27
554.734	4.18
555.077	4.18
555.42	4.11
555.764	4.13
556.107	4.06
556.45	4.14
556.793	4.25
557.135	4.26
557.478	4.08
557.821	4.24
558.164	4.35
558.507	4.52
558.849	4.03
559.192	4.44
559.534	4.33
559.877	4.22
560.219	4.29
560.562	4.33
560.904	4.23
561.246	4.49
561.589	4.28
561.931	4.11
562.273	4.17
562.615	4.26
562.957	4.14
563.299	4.31
563.641	4.12
563.983	4.11
564.325	4.28
564.667	4.23
565.008	4.31
565.35	4.21
565.692	4.3
566.033	4.19
566.375	4.09
566.716	4.32
567.058	4.27
567.399	4.22
567.741	4.39
568.082	4.18
568.423	4.27
568.764	4.35
569.105	3.95
569.447	4.09
569.788	3.99
570.129	4
570.47	4.27
570.811	4.04
571.151	4.27
571.492	4.17
571.833	4.27
572.174	4.18
572.514	4.19
572.855	4.31
573.195	3.94
573.536	4.05
573.876	4.06
574.217	4.1
574.557	4.05
574.898	4.17
575.238	4.09
575.578	4.21
575.918	4.23
576.258	4.05
576.598	4.18
576.938	4.18
577.278	4.2
577.618	3.98
577.958	4.12
578.298	4.25
578.638	4.04
578.977	4.12
579.317	4.06
579.657	4.2
579.996	4.08
580.336	4.17
580.675	4.18
581.014	4.13
581.354	4.12
581.693	4.2
582.032	4.19
582.372	4.09
582.711	4.21
583.05	4.06
583.389	4.27
583.728	4.27
584.067	4.33
584.406	4.23
584.745	4.26
585.083	4.5
585.422	4.35
585.761	4.09
586.1	4.19
586.438	4.06
586.777	4.15
587.115	4.03
587.454	3.88
587.792	4.36
588.13	4.34
588.469	4.17
588.807	4.25
589.145	4.11
589.483	4.21
589.821	4.08
590.159	4.38
590.497	4.36
590.835	4.26
591.173	4.13
591.511	4.31
591.849	4.17
592.187	4.03
592.524	4.28
592.862	4.12
593.2	4.2
593.537	4.12
593.875	4.15
594.212	4.06
594.55	4.37
594.887	3.95
595.224	4.11
595.561	4.28
595.899	4.2
596.236	4.44
596.573	4.17
596.91	4.07
597.247	4
597.584	4.15
597.921	4.4
598.258	4.06
598.594	4.12
598.931	4.04
599.268	4.05
599.604	4.2
599.941	4.06
600.277	4.03
600.614	4.02
600.95	4.11
601.287	3.95
601.623	4.14
601.959	4.18
602.296	4.37
602.632	3.83
602.968	4.14
603.304	4.21
603.64	4.02
603.976	4.01
604.312	4.33
604.648	4.1
604.984	4.14
605.319	3.99
605.655	4.06
605.991	3.91
606.326	4.06
606.662	3.98
606.998	3.96
607.333	4.05
607.668	4
608.004	4.12
608.339	4.08
608.674	4.22
609.01	4.06
609.345	4.14
609.68	4.28
610.015	4.15
610.35	3.86
610.685	4.12
611.02	4.32
611.355	4.19
611.689	3.92
612.024	4.02
612.359	4.02
612.694	3.96
613.028	4
613.363	4.02
613.697	4.06
614.032	3.98
614.366	4.1
614.7	3.89
615.035	4.14
615.369	3.89
615.703	3.91
616.037	4.15
616.371	4.43
616.705	4.56
617.039	4.24
617.373	4.15
617.707	3.91
618.041	4.32
618.375	4.35
618.709	3.82
619.042	4.22
619.376	4.45
619.71	4.15
620.043	4.05
620.377	3.71
620.71	3.93
621.043	4.62
621.377	4.22
621.71	4.29
622.043	4.34
622.376	4.17
622.709	3.93
623.043	4.24
623.376	3.89
623.709	4.47
624.041	4.07
624.374	4.27
624.707	4.29
625.04	4.18
625.373	4.05
625.705	4.04
626.038	3.99
626.37	4.32
626.703	4.25
627.035	3.97
627.368	4.36
627.7	4.5
628.032	4.11
628.365	4.11
628.697	4.24
629.029	3.88
629.361	4.23
629.693	4.23
630.025	4.09
630.357	3.98
630.689	4.01
631.021	4.2
631.353	3.77
631.684	4.09
632.016	4.4
632.348	3.78
632.679	3.99
633.011	4.04
633.342	4.12
633.674	4.57
634.005	4
634.336	4.1
634.668	4.23
634.999	3.92
635.33	4.2
635.661	3.88
635.992	3.86
636.323	4.07
636.654	4.05
636.985	4.05
637.316	4.01
637.647	4.41
637.977	3.52
638.308	4.44
638.639	4.32
638.969	4.47
639.3	3.99
639.63	4.11
639.961	4.08
640.291	4.39
640.622	4.26
640.952	4.01
641.282	4.25
641.612	3.85
641.943	4.28
642.273	4.35
642.603	3.99
642.933	3.87
643.263	3.86
643.592	3.94
643.922	4.31
644.252	4.03
644.582	4.65
644.911	4.18
645.241	3.92
645.571	3.91
645.9	4.47
646.23	4.46
646.559	4.04
646.888	4.45
647.218	4.28
647.547	4.15
647.876	4.2
648.205	3.42
648.534	4.51
648.863	4.21
649.192	3.53
649.521	4.32
649.85	4.13
650.179	3.9
650.508	4.29
650.837	4.39
651.165	3.94
651.494	3.93
651.822	4.21
652.151	4.17
652.479	4.57
652.808	4.44
653.136	4.59
653.465	4.2
653.793	3.95
654.121	4.31
654.449	3.93
654.777	4.27
655.105	4.68
655.433	4.32
655.761	4.74
656.089	4.25
656.417	4.1
656.745	4.49
657.073	4.4
657.4	4.9
657.728	4.38
658.056	4.38
658.383	4.7
658.711	3.73
659.038	3.87
659.365	3.99
659.693	4.26
660.02	4.35
660.347	4.57
660.674	4.22
661.001	4.39
661.329	4.07
661.656	4.05
661.982	3.92
662.309	4.32
662.636	4.23
662.963	4.22
663.29	4.59
663.616	4.52
663.943	4.29
664.27	4.32
664.596	4.06
664.923	4.3
665.249	3.94
665.576	3.56
665.902	4.5
666.228	4.42
666.554	4.18
666.881	4.26
667.207	4.03
667.533	4.21
667.859	5.17
668.185	4.37
668.511	4.73
668.837	4.55
669.162	4.05
669.488	4
669.814	4.38
670.139	3.95
670.465	4.48
670.791	4.72
671.116	4.37
671.442	4.88
671.767	3.67
672.092	4.6
672.418	4.76
672.743	4.62
673.068	4.58
673.393	3.68
673.718	4.76
674.043	5.12
674.368	4.73
674.693	4.19
675.018	4.69
675.343	4.4
675.667	4.61
675.992	4.5
676.317	4.4
676.641	4.24
676.966	4.68
677.29	4.19
677.615	4.45
677.939	4.72
678.264	4.45
678.588	4.57
678.912	4.57
679.236	4.18
679.56	4.88
679.885	4.25
680.209	5.04
680.532	4.25
680.856	4.63
681.18	5.06
681.504	4.3
681.828	4.72
682.152	4.27
682.475	5.21
682.799	4.95
683.122	4.34
683.446	4.29
683.769	3.8
684.093	4.6
684.416	4.63
684.739	4.85
685.062	5.2
685.386	4.07
685.709	4.64
686.032	4.68
686.355	4.59
686.678	4.89
687.001	4.98
687.324	5.41
687.646	4.55
687.969	4.94
688.292	4.26
688.614	4.27
688.937	4.88
689.26	3.87
689.582	4.77
689.904	4.53
690.227	4.7
690.549	4.83
690.871	4.25
691.194	4.58
691.516	4
691.838	4.86
692.16	4.62
692.482	4.47
692.804	4.04
