Data from 0220_chest_Reflection__3__223.txt Node

Date: Fri Sep 22 22:37:25 CDT 2023
User: ToomeyLab
Spectrometer: FLMS14357
Trigger mode: 0
Integration Time (sec): 1.000000E-2
Scans to average: 100
Electric dark correction enabled: true
Nonlinearity correction enabled: false
Boxcar width: 0
XAxis mode: Wavelengths
Number of Pixels in Spectrum: 2048
>>>>>Begin Spectral Data<<<<<
189.047	-205.59
189.435	-205.59
189.823	-205.59
190.211	473.83
190.599	16.05
190.987	-40.91
191.375	202.02
191.763	188.43
192.151	9.29
192.538	95.12
192.926	-15.24
193.314	1508.54
193.702	-2.98
194.089	29.86
194.477	48.36
194.864	254.75
195.252	-44.63
195.639	-52.1
196.027	97.69
196.414	413.45
196.801	224.81
197.189	-4.55
197.576	7.7
197.963	-37.54
198.351	31.39
198.738	15.3
199.125	13.55
199.512	11.14
199.899	37.83
200.286	63.77
200.673	26.83
201.06	11.07
201.447	69.05
201.833	-0.65
202.22	49.28
202.607	43.03
202.994	49.37
203.38	22.69
203.767	-6.28
204.154	32.25
204.54	31.33
204.927	12.92
205.313	25.83
205.699	55.74
206.086	25.76
206.472	69.82
206.858	41.67
207.245	5.07
207.631	22.02
208.017	10.7
208.403	22.2
208.789	25.38
209.175	32.58
209.561	49.72
209.947	54.37
210.333	56.92
210.719	69.82
211.105	41.79
211.491	3.47
211.876	22.59
212.262	30.23
212.648	38.69
213.034	45.71
213.419	20.97
213.805	19.18
214.19	22.96
214.576	11.35
214.961	10.57
215.346	15.27
215.732	22.66
216.117	48.49
216.502	32.92
216.888	34.84
217.273	-2.67
217.658	12.48
218.043	24.3
218.428	48.8
218.813	38
219.198	23.68
219.583	11.82
219.968	-6.61
220.353	42.49
220.738	-4.11
221.122	7.65
221.507	7.33
221.892	16.63
222.276	12.28
222.661	-31
223.046	5.92
223.43	18.11
223.815	0.24
224.199	-9.25
224.583	17.46
224.968	10.36
225.352	-0.85
225.736	24.69
226.121	4.98
226.505	14.09
226.889	9.99
227.273	7.35
227.657	7.16
228.041	5.11
228.425	11.67
228.809	7.87
229.193	4.93
229.577	7.27
229.961	8.51
230.344	7.01
230.728	4.37
231.112	5.27
231.495	4.56
231.879	5.37
232.263	4.68
232.646	4.85
233.03	5.36
233.413	6.36
233.797	5.09
234.18	6.27
234.563	4.9
234.946	8.49
235.33	3.41
235.713	4.97
236.096	5.62
236.479	4.77
236.862	7.17
237.245	5.53
237.628	7.76
238.011	5.65
238.394	6.25
238.777	6.83
239.16	7.48
239.543	6.93
239.925	8.16
240.308	5.97
240.691	6.31
241.073	8.82
241.456	6.17
241.838	4.65
242.221	5.07
242.603	5.95
242.986	5.4
243.368	5.21
243.75	5.68
244.133	5.55
244.515	4.48
244.897	4.66
245.279	4.98
245.661	5.03
246.043	4.67
246.425	4.31
246.807	5.22
247.189	3.9
247.571	4.79
247.953	5.15
248.335	5.09
248.717	4.93
249.098	4.92
249.48	4.62
249.862	4.51
250.243	4.35
250.625	4.5
251.006	4.38
251.388	4.83
251.769	4.99
252.151	5.01
252.532	6.19
252.913	5.44
253.295	6.32
253.676	4.91
254.057	5.1
254.438	5.25
254.819	4.01
255.2	4.82
255.581	4.48
255.962	5.76
256.343	4.68
256.724	3.42
257.105	5.17
257.486	4.81
257.867	5.02
258.247	4.62
258.628	5.16
259.009	4.87
259.389	4.45
259.77	4.35
260.15	4.99
260.531	5.3
260.911	4.51
261.292	4.44
261.672	4.4
262.052	4.6
262.432	4.42
262.813	4.5
263.193	4.42
263.573	4.64
263.953	4.68
264.333	4.6
264.713	4
265.093	4.33
265.473	4.11
265.853	4.3
266.233	4.71
266.612	4.65
266.992	5.07
267.372	4.95
267.752	5.37
268.131	5.04
268.511	4.28
268.89	4.21
269.27	4.48
269.649	4.6
270.029	4.4
270.408	4.5
270.787	4.46
271.167	4.18
271.546	4.33
271.925	4.54
272.304	4.35
272.683	4.48
273.062	4.98
273.441	4.52
273.82	4.91
274.199	4.59
274.578	4.47
274.957	4.25
275.336	4.46
275.715	4.1
276.093	3.92
276.472	3.95
276.851	4.83
277.229	3.61
277.608	4.99
277.986	3.85
278.365	4.38
278.743	4.73
279.122	4.61
279.5	4.83
279.878	4.27
280.257	4.58
280.635	3.87
281.013	5.09
281.391	4.43
281.769	4.98
282.147	4.87
282.525	4.91
282.903	4.72
283.281	4.97
283.659	4.39
284.037	4.61
284.415	4.45
284.792	4.51
285.17	4.4
285.548	4.86
285.925	4.76
286.303	4.29
286.68	3.9
287.058	4.06
287.435	4.29
287.813	4.39
288.19	3.6
288.567	4.32
288.945	4.05
289.322	4.1
289.699	4.24
290.076	4.19
290.453	4.06
290.83	3.81
291.207	3.5
291.584	4.12
291.961	3.98
292.338	4.47
292.715	4.62
293.092	4.15
293.469	4.49
293.845	3.82
294.222	4.64
294.599	4.44
294.975	4.63
295.352	4.53
295.728	3.83
296.105	4.44
296.481	4.07
296.858	4.2
297.234	4.43
297.61	4.36
297.986	4.36
298.363	3.82
298.739	4.21
299.115	4.26
299.491	4.34
299.867	4.08
300.243	4
300.619	4.23
300.995	4.11
301.371	4.69
301.746	4.28
302.122	4.15
302.498	3.91
302.874	4.29
303.249	4.25
303.625	3.94
304	4.16
304.376	4.2
304.751	4.19
305.127	4.35
305.502	5.1
305.878	3.95
306.253	4.87
306.628	4.36
307.003	4.42
307.378	4.51
307.754	4.22
308.129	4.48
308.504	4.28
308.879	4.46
309.254	4.2
309.629	4.57
310.003	4.51
310.378	4.8
310.753	4.7
311.128	4.45
311.502	4.55
311.877	3.79
312.252	4.42
312.626	4.39
313.001	4.56
313.375	4.52
313.75	4.83
314.124	4.53
314.498	4.13
314.873	4.46
315.247	4.76
315.621	4.14
315.995	4.49
316.369	4.8
316.743	4.22
317.117	4.34
317.491	4.62
317.865	3.96
318.239	4.31
318.613	4.67
318.987	4.38
319.361	4.34
319.734	4.22
320.108	4.97
320.482	4.02
320.855	4.44
321.229	5.06
321.602	4.09
321.976	4.48
322.349	4.13
322.723	4.58
323.096	4.31
323.469	4.7
323.843	4.15
324.216	4.69
324.589	4.34
324.962	3.92
325.335	4.19
325.708	4.03
326.081	4.6
326.454	4.1
326.827	4.49
327.2	4.09
327.573	4.89
327.945	4.31
328.318	4.6
328.691	4.76
329.063	4.1
329.436	3.91
329.809	4.17
330.181	4.46
330.553	4.19
330.926	4.92
331.298	5.05
331.671	4.63
332.043	3.31
332.415	4.15
332.787	4.74
333.159	4.15
333.532	4.42
333.904	3.86
334.276	3.81
334.648	3.65
335.02	4.08
335.391	4.5
335.763	4.71
336.135	4.4
336.507	4.84
336.879	3.66
337.25	4.16
337.622	4.17
337.993	4.25
338.365	4.43
338.736	4.65
339.108	4.65
339.479	4.52
339.851	4.4
340.222	4.35
340.593	4.39
340.964	3.93
341.336	3.89
341.707	4.17
342.078	4.51
342.449	4.3
342.82	4.18
343.191	3.51
343.562	4.34
343.933	4.35
344.303	4.48
344.674	4.6
345.045	4.32
345.416	4.55
345.786	4.3
346.157	4.29
346.527	4.33
346.898	3.71
347.268	4.07
347.639	3.76
348.009	4.03
348.38	4.38
348.75	4.64
349.12	4.41
349.49	4.72
349.861	3.92
350.231	4.07
350.601	4.1
350.971	4.35
351.341	3.99
351.711	4.32
352.081	4.03
352.45	4.1
352.82	4.65
353.19	4.39
353.56	4.09
353.929	4.59
354.299	4.03
354.669	4.31
355.038	3.86
355.408	4.3
355.777	4.88
356.147	4.16
356.516	4.5
356.885	4.43
357.254	4.76
357.624	4.08
357.993	4.01
358.362	4.43
358.731	4.33
359.1	4.13
359.469	4.33
359.838	4.18
360.207	4.1
360.576	4.29
360.945	4.57
361.314	4.37
361.682	4.54
362.051	4.59
362.42	4.56
362.788	4.2
363.157	4.34
363.525	4.36
363.894	4.1
364.262	4.14
364.631	4.15
364.999	4.1
365.367	4.13
365.735	4.22
366.104	4.06
366.472	4.48
366.84	4.23
367.208	4.51
367.576	4.57
367.944	4.21
368.312	4.51
368.68	4.61
369.048	4.29
369.416	4.51
369.783	4.14
370.151	3.99
370.519	4.26
370.886	4
371.254	4.26
371.621	3.89
371.989	4.22
372.356	4.58
372.724	4.94
373.091	4.14
373.458	4.25
373.826	4.05
374.193	4.31
374.56	4.51
374.927	4.28
375.294	4.2
375.661	4.09
376.028	4.28
376.395	4.56
376.762	4.21
377.129	4.55
377.496	4.41
377.863	4.34
378.229	4.11
378.596	4.37
378.963	4.45
379.329	4.31
379.696	4.65
380.062	4.19
380.429	4.48
380.795	4.18
381.161	4.1
381.528	4.28
381.894	4.01
382.26	4.25
382.626	4.01
382.993	4.31
383.359	4.16
383.725	4.29
384.091	4.3
384.457	4.24
384.823	4.39
385.188	4.47
385.554	4.39
385.92	4.42
386.286	4.32
386.651	4.33
387.017	4.29
387.383	4.16
387.748	4.35
388.114	4.31
388.479	4.41
388.845	4.01
389.21	4.05
389.575	4.62
389.94	4.09
390.306	4.18
390.671	4.57
391.036	4
391.401	4.32
391.766	4.28
392.131	4.34
392.496	4.39
392.861	4.3
393.226	4.49
393.591	4.27
393.956	4.31
394.32	4.17
394.685	4.3
395.05	4.6
395.414	4.37
395.779	4.39
396.143	4.43
396.508	4.35
396.872	4.3
397.236	4.44
397.601	4.32
397.965	4.38
398.329	4.33
398.694	4.39
399.058	4.3
399.422	4.36
399.786	4.33
400.15	4.31
400.514	4.37
400.878	4.15
401.242	4.38
401.605	4.14
401.969	4.12
402.333	4.5
402.697	4.04
403.06	4.48
403.424	4.52
403.787	4.45
404.151	4.45
404.514	4.51
404.878	4.46
405.241	4.73
405.604	4.36
405.968	4.3
406.331	4.34
406.694	4.27
407.057	4.24
407.42	4.63
407.783	4.28
408.146	4.23
408.509	4.25
408.872	4.34
409.235	4.35
409.598	4.43
409.961	4.49
410.323	4.41
410.686	4.34
411.049	4.68
411.411	4.36
411.774	4.29
412.136	4.32
412.499	4.45
412.861	4.36
413.223	4.46
413.586	4.33
413.948	4.32
414.31	4.32
414.672	4.56
415.035	4.29
415.397	4.6
415.759	4.65
416.121	4.36
416.483	4.14
416.845	4.39
417.206	4.16
417.568	4.41
417.93	4.27
418.292	4.3
418.653	4.15
419.015	4.36
419.377	4.29
419.738	4.44
420.1	4.26
420.461	4.46
420.822	4.3
421.184	4.43
421.545	4.25
421.906	4.36
422.267	4.21
422.629	4.41
422.99	4.27
423.351	4.17
423.712	4.25
424.073	4.16
424.434	4.33
424.795	4.32
425.155	4.24
425.516	4.43
425.877	4.28
426.238	4.12
426.598	4.17
426.959	4.19
427.32	4.24
427.68	4.19
428.041	4.06
428.401	4.29
428.761	4.5
429.122	4.42
429.482	4.41
429.842	4.09
430.202	4.29
430.563	4.28
430.923	4.41
431.283	4.54
431.643	4.31
432.003	4.45
432.363	4.51
432.722	4.4
433.082	4.64
433.442	4.43
433.802	4.5
434.161	4.43
434.521	4.47
434.881	4.44
435.24	4.26
435.6	4.27
435.959	4.28
436.319	4.31
436.678	4.47
437.037	4.35
437.396	4.43
437.756	4.45
438.115	4.36
438.474	4.39
438.833	4.49
439.192	4.47
439.551	4.54
439.91	4.43
440.269	4.42
440.628	4.28
440.987	4.31
441.345	4.33
441.704	4.42
442.063	4.27
442.421	4.33
442.78	4.36
443.138	4.36
443.497	4.35
443.855	4.39
444.214	4.3
444.572	4.43
444.93	4.5
445.288	4.37
445.647	4.39
446.005	4.25
446.363	4.3
446.721	4.58
447.079	4.27
447.437	4.35
447.795	4.48
448.153	4.31
448.51	4.38
448.868	4.23
449.226	4.34
449.584	4.39
449.941	4.3
450.299	4.38
450.656	4.42
451.014	4.5
451.371	4.38
451.729	4.56
452.086	4.36
452.443	4.4
452.801	4.6
453.158	4.35
453.515	4.64
453.872	4.49
454.229	4.47
454.586	4.4
454.943	4.53
455.3	4.4
455.657	4.27
456.014	4.54
456.371	4.55
456.727	4.56
457.084	4.46
457.441	4.39
457.797	4.47
458.154	4.42
458.51	4.5
458.867	4.33
459.223	4.45
459.58	4.54
459.936	4.59
460.292	4.63
460.648	4.54
461.005	4.5
461.361	4.68
461.717	4.34
462.073	4.44
462.429	4.27
462.785	4.42
463.141	4.42
463.496	4.48
463.852	4.48
464.208	4.4
464.564	4.6
464.919	4.49
465.275	4.56
465.631	4.54
465.986	4.53
466.342	4.61
466.697	4.66
467.052	4.47
467.408	4.56
467.763	4.59
468.118	4.8
468.473	4.61
468.829	4.61
469.184	4.66
469.539	4.53
469.894	4.55
470.249	4.48
470.603	4.46
470.958	4.64
471.313	4.61
471.668	4.6
472.023	4.68
472.377	4.63
472.732	4.66
473.086	4.82
473.441	4.5
473.795	4.78
474.15	4.42
474.504	4.56
474.859	4.75
475.213	4.51
475.567	4.59
475.921	4.66
476.275	4.58
476.63	4.53
476.984	4.52
477.338	4.73
477.692	4.49
478.045	4.77
478.399	4.7
478.753	4.54
479.107	4.38
479.461	4.5
479.814	4.65
480.168	4.57
480.521	4.51
480.875	4.71
481.228	4.65
481.582	4.46
481.935	4.69
482.289	4.5
482.642	4.36
482.995	4.61
483.348	4.69
483.701	4.52
484.055	4.49
484.408	4.48
484.761	4.55
485.114	4.35
485.466	4.36
485.819	4.26
486.172	4.28
486.525	4.28
486.878	4.25
487.23	4.33
487.583	4.39
487.936	4.4
488.288	4.52
488.641	4.43
488.993	4.34
489.345	4.41
489.698	4.35
490.05	4.34
490.402	4.43
490.754	4.32
491.107	4.43
491.459	4.47
491.811	4.51
492.163	4.59
492.515	4.55
492.866	4.59
493.218	4.55
493.57	4.53
493.922	4.36
494.274	4.38
494.625	4.46
494.977	4.52
495.328	4.63
495.68	4.63
496.031	4.56
496.383	4.68
496.734	4.69
497.086	4.59
497.437	4.68
497.788	4.71
498.139	4.65
498.49	4.82
498.842	4.66
499.193	4.7
499.544	4.67
499.894	4.58
500.245	4.76
500.596	4.72
500.947	4.74
501.298	4.8
501.648	4.76
501.999	4.86
502.35	4.69
502.7	4.82
503.051	4.66
503.401	4.9
503.752	4.71
504.102	4.77
504.452	4.77
504.803	4.89
505.153	4.77
505.503	4.79
505.853	4.92
506.203	4.71
506.553	4.78
506.903	4.68
507.253	4.73
507.603	4.85
507.953	4.82
508.303	5
508.652	4.91
509.002	4.93
509.352	4.73
509.701	4.92
510.051	4.84
510.4	4.84
510.75	4.79
511.099	4.63
511.449	4.87
511.798	4.87
512.147	4.75
512.496	4.75
512.846	4.85
513.195	4.85
513.544	4.84
513.893	4.95
514.242	4.91
514.591	4.8
514.939	4.92
515.288	4.75
515.637	4.84
515.986	4.83
516.334	5
516.683	4.79
517.032	4.99
517.38	5.01
517.729	4.85
518.077	4.99
518.426	4.85
518.774	4.89
519.122	4.94
519.47	4.91
519.819	4.89
520.167	4.88
520.515	4.9
520.863	4.93
521.211	4.86
521.559	5
521.907	4.88
522.255	4.83
522.602	4.99
522.95	4.99
523.298	5.08
523.645	4.96
523.993	5.02
524.341	4.92
524.688	4.93
525.036	5.05
525.383	4.98
525.73	5.1
526.078	5.02
526.425	5.14
526.772	5.05
527.119	5.17
527.466	4.97
527.814	4.82
528.161	4.93
528.508	4.94
528.854	4.93
529.201	5.01
529.548	4.93
529.895	5.04
530.242	4.9
530.588	4.91
530.935	4.82
531.282	4.83
531.628	4.89
531.975	4.86
532.321	4.91
532.667	5
533.014	5.09
533.36	5.17
533.706	5.15
534.052	5.17
534.399	5.09
534.745	5.05
535.091	4.98
535.437	4.96
535.783	4.91
536.129	5.02
536.474	5.05
536.82	4.99
537.166	5.25
537.512	5.21
537.857	5.19
538.203	5.22
538.549	5.24
538.894	5.22
539.239	5.19
539.585	5.12
539.93	5.4
540.276	5.31
540.621	5.36
540.966	5.3
541.311	5.36
541.656	5.24
542.001	5.31
542.346	5.26
542.691	5.33
543.036	5.28
543.381	5.16
543.726	5.2
544.071	5.17
544.415	5.21
544.76	5.23
545.105	5.19
545.449	5.26
545.794	5.33
546.138	5.35
546.483	5.36
546.827	5.36
547.171	5.35
547.516	5.58
547.86	5.56
548.204	5.48
548.548	5.55
548.892	5.57
549.236	5.49
549.58	5.57
549.924	5.6
550.268	5.61
550.612	5.57
550.956	5.72
551.3	5.59
551.643	5.7
551.987	5.77
552.33	5.79
552.674	5.73
553.017	5.87
553.361	5.64
553.704	6.03
554.048	5.88
554.391	5.85
554.734	5.9
555.077	5.78
555.42	5.78
555.764	5.75
556.107	5.78
556.45	5.89
556.793	5.89
557.135	5.84
557.478	5.88
557.821	6.03
558.164	6.13
558.507	6.24
558.849	5.8
559.192	6.01
559.534	6.04
559.877	5.87
560.219	6.11
560.562	6.16
560.904	6.15
561.246	6.31
561.589	6.08
561.931	6
562.273	5.96
562.615	6.1
562.957	6.26
563.299	6.15
563.641	6.15
563.983	6.2
564.325	6.21
564.667	6.28
565.008	6.21
565.35	6.33
565.692	6.34
566.033	6.34
566.375	6.32
566.716	6.15
567.058	6.23
567.399	6.22
567.741	6.42
568.082	6.3
568.423	6.5
568.764	6.61
569.105	6.22
569.447	6.4
569.788	6.16
570.129	6.41
570.47	6.61
570.811	6.57
571.151	6.43
571.492	6.5
571.833	6.48
572.174	6.4
572.514	6.49
572.855	6.46
573.195	6.4
573.536	6.62
573.876	6.54
574.217	6.47
574.557	6.59
574.898	6.53
575.238	6.73
575.578	6.64
575.918	6.6
576.258	6.54
576.598	6.77
576.938	6.74
577.278	6.9
577.618	6.58
577.958	6.79
578.298	6.94
578.638	6.68
578.977	6.76
579.317	6.78
579.657	6.84
579.996	6.85
580.336	6.98
580.675	7.08
581.014	7
581.354	7.06
581.693	7.04
582.032	7.05
582.372	7.17
582.711	7.01
583.05	7.28
583.389	7.15
583.728	7.28
584.067	7.18
584.406	7.18
584.745	7
585.083	7.35
585.422	7.3
585.761	7.18
586.1	7.43
586.438	7.49
586.777	7.2
587.115	7.55
587.454	7.22
587.792	7.69
588.13	7.53
588.469	7.34
588.807	7.67
589.145	7.55
589.483	7.47
589.821	7.37
590.159	7.28
590.497	7.82
590.835	7.63
591.173	7.57
591.511	7.59
591.849	7.83
592.187	7.75
592.524	7.76
592.862	7.65
593.2	7.75
593.537	7.87
593.875	7.55
594.212	7.92
594.55	8
594.887	7.78
595.224	7.65
595.561	8.14
595.899	7.98
596.236	8.24
596.573	8.07
596.91	8.03
597.247	8.04
597.584	8.11
597.921	8.2
598.258	8
598.594	8.09
598.931	8.08
599.268	8.31
599.604	8.1
599.941	8.24
600.277	8
600.614	8.11
600.95	8.28
601.287	8.13
601.623	8.28
601.959	8.1
602.296	8.41
602.632	8.33
602.968	8.56
603.304	8.44
603.64	8.48
603.976	8.34
604.312	8.49
604.648	8.46
604.984	8.75
605.319	8.51
605.655	8.46
605.991	8.37
606.326	8.7
606.662	8.49
606.998	8.56
607.333	8.59
607.668	8.7
608.004	8.69
608.339	8.43
608.674	8.79
609.01	8.84
609.345	8.72
609.68	9.17
610.015	8.75
610.35	9.06
610.685	9.09
611.02	8.86
611.355	8.97
611.689	8.91
612.024	9.04
612.359	8.88
612.694	8.96
613.028	8.94
613.363	8.99
613.697	9.14
614.032	8.88
614.366	9.08
614.7	8.99
615.035	9.21
615.369	9.34
615.703	9.1
616.037	9.26
616.371	9.44
616.705	9.68
617.039	9.54
617.373	9.48
617.707	9.25
618.041	9.69
618.375	9.51
618.709	9.55
619.042	9.91
619.376	9.42
619.71	9.73
620.043	9.36
620.377	9.57
620.71	10.02
621.043	10.02
621.377	9.73
621.71	9.87
622.043	9.86
622.376	9.95
622.709	9.96
623.043	9.82
623.376	9.84
623.709	10.1
624.041	10.08
624.374	9.96
624.707	10.34
625.04	10.43
625.373	9.84
625.705	10.45
626.038	10.15
626.37	10.19
626.703	10.11
627.035	10.25
627.368	10.3
627.7	10.45
628.032	10.55
628.365	10.42
628.697	10.15
629.029	10.23
629.361	10.26
629.693	10.22
630.025	10.42
630.357	10.42
630.689	10.53
631.021	10.37
631.353	10.23
631.684	10.59
632.016	10.75
632.348	10.6
632.679	10.31
633.011	10.71
633.342	10.78
633.674	10.97
634.005	10.99
634.336	11.06
634.668	10.82
634.999	11.09
635.33	11.07
635.661	10.69
635.992	10.91
636.323	11.24
636.654	10.79
636.985	10.81
637.316	11.32
637.647	11.61
637.977	10.89
638.308	11.31
638.639	11.01
638.969	11.46
639.3	10.99
639.63	11.45
639.961	11.27
640.291	11.49
640.622	11.75
640.952	11.36
641.282	11.56
641.612	11.25
641.943	11.76
642.273	11.5
642.603	11.53
642.933	11.34
643.263	11.32
643.592	11.49
643.922	12.19
644.252	11.13
644.582	11.77
644.911	11.93
645.241	11.81
645.571	12.02
645.9	11.69
646.23	12.13
646.559	12.2
646.888	12.1
647.218	12.03
647.547	11.92
647.876	12.21
648.205	12.05
648.534	12.23
648.863	12.23
649.192	11.57
649.521	12.32
649.85	12.5
650.179	12.37
650.508	11.8
650.837	12.27
651.165	12.58
651.494	12.28
651.822	12.49
652.151	12.1
652.479	12.67
652.808	12.44
653.136	12.72
653.465	12.57
653.793	12.11
654.121	12.65
654.449	12.11
654.777	12.58
655.105	13
655.433	12.6
655.761	13.1
656.089	12.55
656.417	12.32
656.745	12.74
657.073	13.03
657.4	13.28
657.728	12.54
658.056	13.06
658.383	13.29
658.711	12.85
659.038	12.63
659.365	13.14
659.693	12.89
660.02	13.74
660.347	13.54
660.674	12.85
661.001	13.11
661.329	12.88
661.656	13.06
661.982	13.33
662.309	13.19
662.636	13.43
662.963	13.13
663.29	13.79
663.616	13.24
663.943	13.61
664.27	13.66
664.596	13.43
664.923	13.47
665.249	13.47
665.576	13.1
665.902	13.6
666.228	13.58
666.554	13.22
666.881	13.89
667.207	13.54
667.533	13.32
667.859	13.8
668.185	14.47
668.511	14.64
668.837	13.96
669.162	14.51
669.488	14.11
669.814	13.55
670.139	14.04
670.465	14.91
670.791	13.97
671.116	13.85
671.442	14.11
671.767	13.95
672.092	14.66
672.418	14.92
672.743	14.13
673.068	14
673.393	14.01
673.718	14.16
674.043	14.3
674.368	14.81
674.693	14.39
675.018	14.66
675.343	14.6
675.667	15.08
675.992	14.57
676.317	15.13
676.641	15.62
676.966	14.8
677.29	14.58
677.615	14.13
677.939	14.5
678.264	15.27
678.588	15.92
678.912	15.05
679.236	14.73
679.56	14.97
679.885	14.99
680.209	15.87
680.532	14.44
680.856	15.28
681.18	15.94
681.504	15.16
681.828	15.3
682.152	14.93
682.475	15.65
682.799	15.54
683.122	15
683.446	15.25
683.769	15.15
684.093	15.61
684.416	15.24
684.739	15.44
685.062	15.57
685.386	15.16
685.709	14.89
686.032	15.32
686.355	15.85
686.678	15.27
687.001	16.01
687.324	16.53
687.646	15.94
687.969	16.46
688.292	16.02
688.614	16.78
688.937	16.08
