Data from 0220_forehead_Reflection__3__233.txt Node

Date: Fri Sep 22 22:40:47 CDT 2023
User: ToomeyLab
Spectrometer: FLMS14357
Trigger mode: 0
Integration Time (sec): 1.000000E-2
Scans to average: 100
Electric dark correction enabled: true
Nonlinearity correction enabled: false
Boxcar width: 0
XAxis mode: Wavelengths
Number of Pixels in Spectrum: 2048
>>>>>Begin Spectral Data<<<<<
189.047	131.47
189.435	131.47
189.823	131.47
190.211	375.91
190.599	44.94
190.987	214.4
191.375	31.03
191.763	331.99
192.151	39.79
192.538	65.57
192.926	28.56
193.314	4306.1
193.702	25.03
194.089	67.58
194.477	36.24
194.864	272.26
195.252	211.67
195.639	72.97
196.027	58.58
196.414	572.18
196.801	-204.48
197.189	-150.96
197.576	54.17
197.963	-54.09
198.351	5.3
198.738	17.27
199.125	39.44
199.512	26.4
199.899	37.87
200.286	52.75
200.673	15.22
201.06	13.85
201.447	59.45
201.833	14.1
202.22	67.39
202.607	43.72
202.994	72.14
203.38	28.82
203.767	26.24
204.154	33.98
204.54	42.58
204.927	36.43
205.313	35.11
205.699	46.14
206.086	53.66
206.472	75.49
206.858	59.78
207.245	31.75
207.631	64.06
208.017	45.39
208.403	34.04
208.789	27.76
209.175	51.78
209.561	51.08
209.947	42.31
210.333	54.2
210.719	24.99
211.105	68.94
211.491	8.71
211.876	47.53
212.262	17.3
212.648	35.61
213.034	33.62
213.419	39.55
213.805	22.67
214.19	36.2
214.576	48.36
214.961	47.87
215.346	25.69
215.732	41.45
216.117	38.98
216.502	43.49
216.888	34.2
217.273	58.42
217.658	10.6
218.043	39.39
218.428	51.06
218.813	3.32
219.198	15.86
219.583	53.3
219.968	28.13
220.353	39.86
220.738	29.43
221.122	30.87
221.507	28.49
221.892	21.79
222.276	17.32
222.661	21.15
223.046	20.22
223.43	29.13
223.815	13.46
224.199	3.74
224.583	18.45
224.968	20.86
225.352	2.86
225.736	25.54
226.121	16.95
226.505	16.5
226.889	14
227.273	9.32
227.657	9.32
228.041	5.07
228.425	12.6
228.809	6.39
229.193	10
229.577	9.48
229.961	7.82
230.344	7.08
230.728	4.56
231.112	5.45
231.495	4.54
231.879	4.98
232.263	4.65
232.646	4.98
233.03	4.34
233.413	4.34
233.797	4.84
234.18	3.74
234.563	8.63
234.946	7.3
235.33	5.7
235.713	6.9
236.096	4.83
236.479	3.45
236.862	7.05
237.245	5.34
237.628	6.54
238.011	6.71
238.394	5.91
238.777	5.56
239.16	4.78
239.543	5.51
239.925	7.1
240.308	5.47
240.691	7.32
241.073	7.21
241.456	6.49
241.838	5.77
242.221	4.94
242.603	5.71
242.986	5.31
243.368	4.05
243.75	4.82
244.133	5.11
244.515	4.74
244.897	3.95
245.279	4.37
245.661	4.06
246.043	4.47
246.425	4.06
246.807	5.01
247.189	3.58
247.571	5.61
247.953	5.08
248.335	4.62
248.717	4.45
249.098	4.67
249.48	4.3
249.862	3.86
250.243	4.34
250.625	4.67
251.006	3.95
251.388	4.09
251.769	5.55
252.151	3.65
252.532	4.5
252.913	4.82
253.295	6.52
253.676	4.63
254.057	4.95
254.438	5.3
254.819	4.36
255.2	5.14
255.581	4.64
255.962	5.36
256.343	5.85
256.724	3.67
257.105	5.03
257.486	5.67
257.867	5.29
258.247	4.67
258.628	5.74
259.009	5.69
259.389	4.63
259.77	4.87
260.15	5.68
260.531	4.83
260.911	4.17
261.292	4.6
261.672	4.16
262.052	4.44
262.432	4.34
262.813	4.49
263.193	4.37
263.573	5.38
263.953	4.71
264.333	4.88
264.713	4.99
265.093	4.73
265.473	4.66
265.853	4.36
266.233	5.58
266.612	5.45
266.992	5.34
267.372	5.76
267.752	5.35
268.131	4.98
268.511	4.31
268.89	4.61
269.27	4.56
269.649	4.99
270.029	4.45
270.408	4.4
270.787	4.4
271.167	4.63
271.546	4.33
271.925	4.54
272.304	4.52
272.683	5.2
273.062	5.08
273.441	4.36
273.82	4.99
274.199	4.53
274.578	4.81
274.957	4.41
275.336	4.18
275.715	4.95
276.093	4.31
276.472	4.45
276.851	4.61
277.229	3.79
277.608	5.12
277.986	4.39
278.365	5.01
278.743	4.49
279.122	4.98
279.5	4.88
279.878	4.45
280.257	5.11
280.635	4.1
281.013	5.34
281.391	4.33
281.769	5.23
282.147	5.49
282.525	4.88
282.903	4.87
283.281	4.67
283.659	4.8
284.037	4.61
284.415	4.56
284.792	4.74
285.17	4.32
285.548	5.13
285.925	4.77
286.303	4.68
286.68	4.36
287.058	4.45
287.435	4.61
287.813	4.43
288.19	4.43
288.567	4.68
288.945	4.61
289.322	4.67
289.699	4.88
290.076	4.57
290.453	4.43
290.83	4.58
291.207	4.87
291.584	4.23
291.961	4.49
292.338	5.35
292.715	5.41
293.092	4.84
293.469	4.88
293.845	4.89
294.222	5.81
294.599	5.38
294.975	5.82
295.352	4.97
295.728	5.46
296.105	6.01
296.481	5.33
296.858	5.1
297.234	5.37
297.61	5.34
297.986	5.96
298.363	5.5
298.739	5.53
299.115	5.7
299.491	5.76
299.867	5.6
300.243	5.33
300.619	5.68
300.995	5.63
301.371	5.93
301.746	5.84
302.122	5.97
302.498	5.88
302.874	5.95
303.249	5.76
303.625	5.55
304	6.42
304.376	6.35
304.751	6.51
305.127	6.54
305.502	6.41
305.878	6.5
306.253	6.67
306.628	6.67
307.003	6.43
307.378	6.51
307.754	6.46
308.129	7.18
308.504	6.93
308.879	7.12
309.254	6.9
309.629	7.16
310.003	7.24
310.378	7.92
310.753	7.11
311.128	6.91
311.502	7.66
311.877	7.22
312.252	7.41
312.626	7.47
313.001	7.62
313.375	8.02
313.75	7.98
314.124	8.1
314.498	7.59
314.873	7.87
315.247	7.75
315.621	8.16
315.995	8.22
316.369	8.58
316.743	8.8
317.117	8.45
317.491	8.43
317.865	8.32
318.239	8.76
318.613	8.86
318.987	8.56
319.361	8.67
319.734	8.67
320.108	9.23
320.482	8.85
320.855	8.87
321.229	9.56
321.602	9.05
321.976	9.03
322.349	9.66
322.723	9.18
323.096	9.93
323.469	9.53
323.843	9.95
324.216	9.87
324.589	9.94
324.962	9.48
325.335	9.61
325.708	9.87
326.081	10.24
326.454	9.96
326.827	10.23
327.2	10.52
327.573	10.37
327.945	10.05
328.318	10.97
328.691	10.96
329.063	10.59
329.436	10.6
329.809	10.9
330.181	10.75
330.553	10.48
330.926	11.26
331.298	11.26
331.671	11.33
332.043	10.49
332.415	11.49
332.787	11.3
333.159	11.33
333.532	11.1
333.904	11.54
334.276	11.21
334.648	11.03
335.02	10.9
335.391	11.87
335.763	11.88
336.135	11.67
336.507	12.02
336.879	11.66
337.25	12.25
337.622	12.57
337.993	12.26
338.365	12.57
338.736	12.36
339.108	12.27
339.479	12.57
339.851	11.95
340.222	12.38
340.593	12.54
340.964	12.14
341.336	12.31
341.707	12.76
342.078	12.81
342.449	12.89
342.82	12.92
343.191	12.84
343.562	12.76
343.933	13.21
344.303	13.22
344.674	12.97
345.045	13.61
345.416	13.91
345.786	13.38
346.157	13.44
346.527	13.37
346.898	13.54
347.268	13.7
347.639	13.88
348.009	13.63
348.38	13.97
348.75	13.96
349.12	13.91
349.49	14.29
349.861	14.07
350.231	14.38
350.601	14.2
350.971	14.45
351.341	14.08
351.711	14.39
352.081	14.43
352.45	14.32
352.82	14.71
353.19	14.89
353.56	14.06
353.929	14.56
354.299	14.63
354.669	14.66
355.038	14.62
355.408	15.05
355.777	15.27
356.147	14.94
356.516	15.48
356.885	15.15
357.254	15.52
357.624	14.97
357.993	15.7
358.362	15.61
358.731	15.6
359.1	15.14
359.469	15.78
359.838	15.41
360.207	15.71
360.576	15.94
360.945	15.93
361.314	15.82
361.682	16.54
362.051	16.23
362.42	16.15
362.788	16.16
363.157	16.14
363.525	16.29
363.894	16.03
364.262	16.23
364.631	16.44
364.999	16.26
365.367	16.8
365.735	17.1
366.104	16.63
366.472	17.33
366.84	16.61
367.208	17
367.576	17.12
367.944	17.23
368.312	17.32
368.68	17.45
369.048	17.44
369.416	17.55
369.783	17.2
370.151	17.29
370.519	17.69
370.886	17.66
371.254	18.02
371.621	17.78
371.989	17.99
372.356	18.38
372.724	18.38
373.091	18.36
373.458	18.23
373.826	18.46
374.193	18.65
374.56	18.62
374.927	18.36
375.294	18.2
375.661	18.44
376.028	19.08
376.395	19.1
376.762	18.84
377.129	19.34
377.496	19.3
377.863	19.21
378.229	19.49
378.596	19.28
378.963	19.4
379.329	19.04
379.696	19.54
380.062	19.12
380.429	19.48
380.795	19.48
381.161	19.34
381.528	19.66
381.894	19.57
382.26	19.8
382.626	19.72
382.993	20.14
383.359	19.94
383.725	20.21
384.091	20.51
384.457	20.26
384.823	20.25
385.188	20.43
385.554	20.51
385.92	20.84
386.286	20.42
386.651	20.52
387.017	20.88
387.383	20.53
387.748	20.79
388.114	21.11
388.479	20.92
388.845	20.52
389.21	21.16
389.575	21.07
389.94	21.27
390.306	21.43
390.671	21.75
391.036	21.27
391.401	21.61
391.766	21.6
392.131	21.81
392.496	22.18
392.861	21.68
393.226	21.98
393.591	21.84
393.956	21.79
394.32	22.13
394.685	21.8
395.05	22.18
395.414	22.19
395.779	22.13
396.143	22.18
396.508	22.38
396.872	22.15
397.236	22.37
397.601	22.49
397.965	23.01
398.329	22.79
398.694	23.08
399.058	22.57
399.422	23.1
399.786	22.92
400.15	22.99
400.514	23.11
400.878	22.77
401.242	23.34
401.605	23.25
401.969	23.16
402.333	23.53
402.697	23.06
403.06	23.45
403.424	23.89
403.787	23.81
404.151	23.84
404.514	23.89
404.878	23.6
405.241	24.02
405.604	24.12
405.968	23.99
406.331	23.99
406.694	24.05
407.057	23.9
407.42	24.33
407.783	24.06
408.146	24.37
408.509	24.38
408.872	24.43
409.235	24.79
409.598	24.47
409.961	24.79
410.323	24.78
410.686	24.71
411.049	25.09
411.411	25
411.774	24.82
412.136	25.08
412.499	25.06
412.861	25.03
413.223	25.11
413.586	25.08
413.948	25.5
414.31	25.36
414.672	25.52
415.035	25.4
415.397	25.87
415.759	25.8
416.121	25.67
416.483	25.94
416.845	25.86
417.206	25.78
417.568	26.09
417.93	26.16
418.292	25.94
418.653	25.86
419.015	26.03
419.377	25.64
419.738	26.1
420.1	26.01
420.461	26.06
420.822	26.03
421.184	26.02
421.545	26.04
421.906	26.28
422.267	26.05
422.629	26.25
422.99	26.22
423.351	26.31
423.712	26.29
424.073	26.29
424.434	26.54
424.795	26.47
425.155	26.38
425.516	26.71
425.877	26.71
426.238	26.74
426.598	26.73
426.959	26.71
427.32	26.9
427.68	27.03
428.041	26.9
428.401	27.31
428.761	27.35
429.122	27.55
429.482	27.74
429.842	27.66
430.202	27.89
430.563	27.92
430.923	28.26
431.283	28.35
431.643	28.21
432.003	28.29
432.363	28.31
432.722	28.34
433.082	28.39
433.442	28.58
433.802	28.59
434.161	28.69
434.521	28.66
434.881	28.78
435.24	28.57
435.6	28.55
435.959	28.56
436.319	28.96
436.678	28.79
437.037	29.03
437.396	28.97
437.756	29.18
438.115	29.15
438.474	29.49
438.833	29.41
439.192	29.39
439.551	29.49
439.91	29.8
440.269	29.71
440.628	29.59
440.987	29.47
441.345	29.6
441.704	29.7
442.063	29.76
442.421	29.68
442.78	29.73
443.138	29.8
443.497	29.77
443.855	29.81
444.214	29.91
444.572	30.16
444.93	30.31
445.288	30.36
445.647	30.54
446.005	30.46
446.363	30.52
446.721	30.51
447.079	30.32
447.437	30.58
447.795	30.54
448.153	30.41
448.51	30.52
448.868	30.59
449.226	30.39
449.584	30.58
449.941	30.61
450.299	30.81
450.656	31.06
451.014	31.26
451.371	31.14
451.729	31.27
452.086	31.36
452.443	31.48
452.801	31.63
453.158	31.52
453.515	32.06
453.872	31.69
454.229	31.64
454.586	31.98
454.943	31.67
455.3	31.87
455.657	32.18
456.014	32.14
456.371	32.23
456.727	32.43
457.084	32.17
457.441	32.6
457.797	32.41
458.154	32.36
458.51	32.35
458.867	32.73
459.223	32.82
459.58	32.86
459.936	33.06
460.292	32.95
460.648	33.07
461.005	32.77
461.361	32.97
461.717	32.54
462.073	32.52
462.429	32.55
462.785	32.62
463.141	32.79
463.496	33.13
463.852	33.14
464.208	33.23
464.564	33.51
464.919	33.55
465.275	33.93
465.631	33.85
465.986	33.93
466.342	33.94
466.697	33.98
467.052	33.93
467.408	34.08
467.763	34.18
468.118	34.19
468.473	34.4
468.829	33.96
469.184	34.03
469.539	34.15
469.894	34.37
470.249	34.38
470.603	34.27
470.958	34.51
471.313	34.57
471.668	34.56
472.023	34.6
472.377	34.83
472.732	34.73
473.086	34.95
473.441	34.52
473.795	35.11
474.15	35.04
474.504	35.18
474.859	35.35
475.213	35.02
475.567	34.81
475.921	35.07
476.275	35.14
476.63	35.46
476.984	35.46
477.338	35.48
477.692	35.53
478.045	35.64
478.399	35.77
478.753	35.58
479.107	35.45
479.461	35.6
479.814	35.77
480.168	35.72
480.521	35.79
480.875	36
481.228	35.88
481.582	35.75
481.935	35.81
482.289	36.02
482.642	36.07
482.995	36.28
483.348	36.2
483.701	35.87
484.055	36
484.408	36.08
484.761	35.77
485.114	35.72
485.466	35.4
485.819	35.06
486.172	35.16
486.525	35.34
486.878	35.37
487.23	35.35
487.583	35.53
487.936	35.96
488.288	36.07
488.641	36.22
488.993	36.05
489.345	35.94
489.698	35.83
490.05	35.83
490.402	35.88
490.754	35.92
491.107	36.13
491.459	36.39
491.811	36.51
492.163	36.56
492.515	36.84
492.866	36.98
493.218	36.84
493.57	36.73
493.922	36.43
494.274	36.47
494.625	36.56
494.977	36.86
495.328	37.21
495.68	37.36
496.031	37.46
496.383	37.82
496.734	38.07
497.086	38.04
497.437	38.05
497.788	37.97
498.139	38.39
498.49	38.21
498.842	38.21
499.193	38.07
499.544	38.13
499.894	38.09
500.245	38.41
500.596	38.28
500.947	38.43
501.298	38.56
501.648	38.72
501.999	38.69
502.35	38.74
502.7	38.84
503.051	39.03
503.401	38.97
503.752	38.98
504.102	39.16
504.452	39
504.803	39.37
505.153	39.23
505.503	39.34
505.853	39.31
506.203	39.19
506.553	39.28
506.903	39.3
507.253	39.24
507.603	39.55
507.953	39.58
508.303	39.7
508.652	39.86
509.002	39.86
509.352	39.7
509.701	39.85
510.051	39.72
510.4	39.85
510.75	39.87
511.099	39.75
511.449	39.63
511.798	39.85
512.147	39.75
512.496	39.99
512.846	39.88
513.195	39.95
513.544	39.93
513.893	40.15
514.242	40.13
514.591	40.12
514.939	40.01
515.288	40
515.637	40.39
515.986	40.28
516.334	40.54
516.683	40.52
517.032	40.63
517.38	40.42
517.729	40.62
518.077	40.85
518.426	40.9
518.774	41.05
519.122	41
519.47	40.83
519.819	40.76
520.167	40.7
520.515	40.47
520.863	40.52
521.211	40.34
521.559	40.55
521.907	40.74
522.255	40.71
522.602	40.94
522.95	40.8
523.298	41.16
523.645	41.33
523.993	41.25
524.341	41.3
524.688	41.56
525.036	41.6
525.383	41.74
525.73	41.6
526.078	41.6
526.425	41.69
526.772	41.69
527.119	41.6
527.466	41.45
527.814	41.05
528.161	41.2
528.508	41.11
528.854	41.19
529.201	41.3
529.548	41.43
529.895	41.49
530.242	41.17
530.588	40.83
530.935	40.84
531.282	40.98
531.628	41.05
531.975	41.03
532.321	41.14
532.667	41.42
533.014	41.6
533.36	41.76
533.706	41.87
534.052	42.08
534.399	41.75
534.745	41.92
535.091	41.9
535.437	41.77
535.783	41.47
536.129	41.74
536.474	41.86
536.82	42.14
537.166	42.38
537.512	42.32
537.857	42.42
538.203	42.85
538.549	42.37
538.894	42.27
539.239	42.53
539.585	42.43
539.93	42.8
540.276	42.94
540.621	43.06
540.966	42.84
541.311	43.35
541.656	43.42
542.001	43.32
542.346	43.17
542.691	43.12
543.036	42.87
543.381	42.57
543.726	42.34
544.071	42.35
544.415	42.59
544.76	42.55
545.105	42.83
545.449	42.98
545.794	43.08
546.138	43.43
546.483	43.34
546.827	43.55
547.171	43.64
547.516	43.85
547.86	43.76
548.204	43.94
548.548	43.86
548.892	43.94
549.236	43.8
549.58	44.06
549.924	44
550.268	44.28
550.612	44.23
550.956	44.74
551.3	44.46
551.643	44.44
551.987	44.56
552.33	44.75
552.674	45.01
553.017	45.03
553.361	45.02
553.704	45.15
554.048	44.95
554.391	45.09
554.734	45.15
555.077	45.13
555.42	44.79
555.764	45.03
556.107	45.1
556.45	45.21
556.793	45.39
557.135	45.5
557.478	45.22
557.821	45.62
558.164	45.64
558.507	45.84
558.849	45.79
559.192	45.56
559.534	45.88
559.877	45.91
560.219	46.07
560.562	45.7
560.904	45.98
561.246	45.72
561.589	46.1
561.931	46.27
562.273	46.07
562.615	45.86
562.957	46.19
563.299	46.1
563.641	46.15
563.983	45.69
564.325	46.18
564.667	46.31
565.008	46.05
565.35	46.13
565.692	46.37
566.033	46.58
566.375	46.62
566.716	46.36
567.058	46.32
567.399	46.37
567.741	46.59
568.082	46.4
568.423	46.62
568.764	46.41
569.105	46.53
569.447	46.27
569.788	46.48
570.129	46.71
570.47	46.66
570.811	46.95
571.151	47.1
571.492	46.98
571.833	46.79
572.174	46.82
572.514	46.68
572.855	46.93
573.195	47.06
573.536	46.97
573.876	46.99
574.217	46.88
574.557	47.09
574.898	47.03
575.238	46.85
575.578	46.94
575.918	47.26
576.258	47.03
576.598	47.3
576.938	47.5
577.278	47.48
577.618	47.33
577.958	47.35
578.298	47.46
578.638	47.25
578.977	47.65
579.317	47.39
579.657	47.76
579.996	47.68
580.336	47.91
580.675	48.09
581.014	47.81
581.354	47.61
581.693	48.34
582.032	48.09
582.372	48.19
582.711	48.25
583.05	48.63
583.389	48.63
583.728	48.36
584.067	48.77
584.406	48.5
584.745	48.54
585.083	48.7
585.422	48.51
585.761	48.71
586.1	48.67
586.438	48.64
586.777	48.69
587.115	48.62
587.454	48.55
587.792	48.96
588.13	48.9
588.469	48.92
588.807	48.77
589.145	48.72
589.483	49.33
589.821	49.07
590.159	49.09
590.497	49.19
590.835	49.14
591.173	48.82
591.511	49.29
591.849	49.14
592.187	48.93
592.524	49.23
592.862	49.07
593.2	49.15
593.537	49.32
593.875	49.14
594.212	48.82
594.55	49.71
594.887	49.25
595.224	49.2
595.561	49.41
595.899	49.64
596.236	49.64
596.573	49.54
596.91	49.49
597.247	49.64
597.584	49.8
597.921	49.47
598.258	49.86
598.594	49.92
598.931	49.55
599.268	49.49
599.604	49.55
599.941	49.55
600.277	49.44
600.614	49.63
600.95	50.01
601.287	49.83
601.623	50.03
601.959	50.25
602.296	49.89
602.632	50.06
602.968	50.1
603.304	50.31
603.64	49.77
603.976	50.71
604.312	50.48
604.648	50.48
604.984	50.4
605.319	50.31
605.655	50.24
605.991	50.29
606.326	50.48
606.662	50
606.998	50.19
607.333	49.8
607.668	49.92
608.004	50.59
608.339	50.44
608.674	50.66
609.01	50.57
609.345	50.74
609.68	50.68
610.015	50.42
610.35	50.75
610.685	51.09
611.02	50.73
611.355	50.82
611.689	50.69
612.024	50.55
612.359	50.54
612.694	50.81
613.028	50.77
613.363	51
613.697	51.13
614.032	50.96
614.366	51
614.7	51.23
615.035	50.89
615.369	51.63
615.703	51.57
616.037	51.47
616.371	51.58
616.705	51.86
617.039	51.68
617.373	51.95
617.707	51.59
618.041	51.81
618.375	51.6
618.709	51.97
619.042	51.84
619.376	52.22
619.71	52.08
620.043	51.9
620.377	52.09
620.71	52.34
621.043	51.75
621.377	51.72
621.71	52.02
622.043	52.04
622.376	52.43
622.709	51.68
623.043	52.02
623.376	52.19
623.709	52.51
624.041	52.31
624.374	52.66
624.707	51.76
625.04	52.32
625.373	52.36
625.705	52.25
626.038	52.08
626.37	52.66
626.703	52.59
627.035	52.16
627.368	52.74
627.7	52.48
628.032	52.61
628.365	52.38
628.697	52.25
629.029	52.38
629.361	52.54
629.693	52.86
630.025	52.71
630.357	52.75
630.689	52.81
631.021	52.73
631.353	52.45
631.684	52.71
632.016	53.04
632.348	53.37
632.679	52.92
633.011	53.34
633.342	53.01
633.674	53.54
634.005	53.29
634.336	53.42
634.668	53.42
634.999	53.14
635.33	53.09
635.661	53.2
635.992	53.41
636.323	53.37
636.654	53.12
636.985	53.16
637.316	53.34
637.647	53.29
637.977	52.79
638.308	53.32
638.639	53.29
638.969	54.03
639.3	53.28
639.63	53.46
639.961	53.31
640.291	53.29
640.622	53.76
640.952	53.41
641.282	53.37
641.612	54.01
641.943	53.49
642.273	54.17
642.603	53.67
642.933	53.96
643.263	53.91
643.592	53.83
643.922	53.85
644.252	53.67
644.582	53.71
644.911	54.22
645.241	53.96
645.571	54.24
645.9	54.43
646.23	54.13
646.559	53.66
646.888	54.1
647.218	54.58
647.547	53.82
647.876	54.06
648.205	54.01
648.534	54.33
648.863	54.65
649.192	54.74
649.521	54.88
649.85	54.95
650.179	54.73
650.508	54.45
650.837	54.33
651.165	54.2
651.494	55.11
651.822	54.56
652.151	54.17
652.479	54.49
652.808	54.77
653.136	55.57
653.465	54.37
653.793	54.7
654.121	55.08
654.449	54.49
654.777	54.59
655.105	55.17
655.433	54.96
655.761	55.17
656.089	54.51
656.417	54.67
656.745	55.33
657.073	54.97
657.4	55.38
657.728	54.47
658.056	55.27
658.383	54.58
658.711	54.7
659.038	54.59
659.365	54.89
659.693	54.62
660.02	54.88
660.347	55.36
660.674	55.28
661.001	55.08
661.329	55.15
661.656	55.25
661.982	54.95
662.309	55.4
662.636	55
662.963	55.34
663.29	55.74
663.616	55.61
663.943	55.45
664.27	55.1
664.596	55.75
664.923	55.09
665.249	55.12
665.576	55.58
665.902	55.25
666.228	55.9
666.554	55.24
666.881	55.58
667.207	55.59
667.533	56.02
667.859	55.58
668.185	55.46
668.511	55.49
668.837	55.56
669.162	55.98
669.488	55.03
669.814	55.84
