Data from 0220_forehead_Reflection__2__232.txt Node

Date: Fri Sep 22 22:40:14 CDT 2023
User: ToomeyLab
Spectrometer: FLMS14357
Trigger mode: 0
Integration Time (sec): 1.000000E-2
Scans to average: 100
Electric dark correction enabled: true
Nonlinearity correction enabled: false
Boxcar width: 0
XAxis mode: Wavelengths
Number of Pixels in Spectrum: 2048
>>>>>Begin Spectral Data<<<<<
189.047	10.63
189.435	10.63
189.823	10.63
190.211	-1313.47
190.599	69.51
190.987	122.78
191.375	214.57
191.763	189.84
192.151	138.23
192.538	-89.81
192.926	11.84
193.314	5056.1
193.702	62.6
194.089	207.97
194.477	-35.64
194.864	446.59
195.252	250.13
195.639	-12.3
196.027	-55.42
196.414	-123.41
196.801	-106.85
197.189	-60.83
197.576	95.12
197.963	40.54
198.351	17.06
198.738	31.74
199.125	63.17
199.512	20.35
199.899	74.51
200.286	32.64
200.673	42.79
201.06	53.36
201.447	91.6
201.833	-24.4
202.22	90.43
202.607	59.15
202.994	56.64
203.38	51.42
203.767	33.71
204.154	68.82
204.54	53.55
204.927	46.36
205.313	104.23
205.699	52.24
206.086	51.55
206.472	56.07
206.858	73.52
207.245	29.63
207.631	38.07
208.017	65.76
208.403	45.88
208.789	68.19
209.175	76.86
209.561	41.34
209.947	61.05
210.333	45.05
210.719	10
211.105	38.04
211.491	34.34
211.876	61.29
212.262	12.51
212.648	41.07
213.034	56.5
213.419	44.72
213.805	9.71
214.19	27.03
214.576	14.55
214.961	23.39
215.346	32.24
215.732	41.63
216.117	12.53
216.502	31.7
216.888	33.73
217.273	43.87
217.658	18.74
218.043	35.77
218.428	23.24
218.813	18.6
219.198	-2.92
219.583	20.01
219.968	15.31
220.353	52.45
220.738	23.42
221.122	27.13
221.507	20.22
221.892	18.12
222.276	14.77
222.661	4.99
223.046	37.22
223.43	37.95
223.815	20.46
224.199	4.34
224.583	20.72
224.968	22.96
225.352	14.56
225.736	9.72
226.121	22.21
226.505	5.4
226.889	2.35
227.273	11
227.657	10.17
228.041	8.83
228.425	15.97
228.809	6.43
229.193	8.51
229.577	9.48
229.961	6.02
230.344	6.92
230.728	3.07
231.112	5.66
231.495	4.4
231.879	4.96
232.263	4.32
232.646	5.2
233.03	4.81
233.413	4.67
233.797	6.56
234.18	5.83
234.563	8.6
234.946	8.26
235.33	1.25
235.713	3.39
236.096	6.74
236.479	4.8
236.862	6.16
237.245	6.91
237.628	6.15
238.011	5.59
238.394	5.63
238.777	8.29
239.16	4.63
239.543	4.96
239.925	5.92
240.308	5.87
240.691	6.53
241.073	7.51
241.456	4.97
241.838	4.05
242.221	3.64
242.603	5.34
242.986	5.37
243.368	4.56
243.75	4.71
244.133	5.04
244.515	4.63
244.897	3.88
245.279	4.24
245.661	4.29
246.043	4.49
246.425	3.85
246.807	3.99
247.189	3.63
247.571	5.68
247.953	4.93
248.335	4.53
248.717	4.65
249.098	4.29
249.48	4.27
249.862	4.3
250.243	4.29
250.625	4.45
251.006	4.08
251.388	4.87
251.769	5.28
252.151	4.77
252.532	5.03
252.913	5.15
253.295	6.02
253.676	4.56
254.057	4.81
254.438	4.89
254.819	4.1
255.2	4.55
255.581	5.36
255.962	7.11
256.343	5.58
256.724	4.61
257.105	5.3
257.486	3.98
257.867	5.93
258.247	6.18
258.628	5.39
259.009	5.28
259.389	4.82
259.77	5.08
260.15	4.71
260.531	4.8
260.911	4.83
261.292	4.93
261.672	4.07
262.052	4.4
262.432	4.44
262.813	4.68
263.193	4.25
263.573	5.34
263.953	5.23
264.333	5.5
264.713	4.73
265.093	4.17
265.473	4.4
265.853	4.71
266.233	4.98
266.612	4.8
266.992	4.97
267.372	5.36
267.752	5.57
268.131	4.93
268.511	4.85
268.89	5.05
269.27	4.43
269.649	5.11
270.029	4.56
270.408	4.35
270.787	4.89
271.167	4.27
271.546	4.72
271.925	4.82
272.304	4.2
272.683	4.5
273.062	4.84
273.441	4.73
273.82	5.13
274.199	5.06
274.578	4.68
274.957	4.55
275.336	4.54
275.715	4.43
276.093	4.45
276.472	4.82
276.851	5.03
277.229	4.37
277.608	5.23
277.986	4.51
278.365	5.28
278.743	5
279.122	4.31
279.5	5.12
279.878	4.49
280.257	5.45
280.635	4.79
281.013	5.09
281.391	3.65
281.769	4.62
282.147	5.23
282.525	4.94
282.903	4.98
283.281	5.13
283.659	4.83
284.037	4.53
284.415	4.96
284.792	4.45
285.17	4.52
285.548	4.94
285.925	5.1
286.303	4.81
286.68	4.46
287.058	4.49
287.435	4.64
287.813	4.68
288.19	4.42
288.567	4.82
288.945	4.32
289.322	4.83
289.699	5.04
290.076	4.66
290.453	4.08
290.83	4.51
291.207	5.12
291.584	5.05
291.961	4.54
292.338	5.01
292.715	5.07
293.092	5.08
293.469	4.78
293.845	5.32
294.222	5.49
294.599	5.7
294.975	5.58
295.352	5.48
295.728	5.57
296.105	5.53
296.481	5.3
296.858	5.65
297.234	5.5
297.61	5.45
297.986	5.34
298.363	5.84
298.739	5.66
299.115	5.61
299.491	5.81
299.867	5.95
300.243	5.8
300.619	5.89
300.995	6.15
301.371	6.37
301.746	6.15
302.122	6.29
302.498	6.06
302.874	5.92
303.249	6.31
303.625	5.77
304	6.66
304.376	6.37
304.751	6.5
305.127	7.05
305.502	7.23
305.878	6.64
306.253	7.09
306.628	6.36
307.003	7.07
307.378	7.02
307.754	6.74
308.129	6.44
308.504	7.22
308.879	7.18
309.254	7.17
309.629	7.45
310.003	7.68
310.378	8.01
310.753	7.34
311.128	7.49
311.502	7.76
311.877	7.39
312.252	7.73
312.626	7.59
313.001	7.84
313.375	8.25
313.75	8.21
314.124	8.7
314.498	7.79
314.873	7.95
315.247	8.91
315.621	8.15
315.995	8.29
316.369	8.4
316.743	8.61
317.117	8.8
317.491	9.21
317.865	8.33
318.239	8.69
318.613	9.54
318.987	9.02
319.361	9.12
319.734	8.53
320.108	9.18
320.482	9.19
320.855	9.45
321.229	9.8
321.602	9.93
321.976	9.42
322.349	9.72
322.723	9.4
323.096	9.37
323.469	9.55
323.843	10.17
324.216	10.6
324.589	10.19
324.962	9.81
325.335	10.24
325.708	10.08
326.081	10.14
326.454	10.21
326.827	9.69
327.2	10.6
327.573	10.94
327.945	10.98
328.318	11.17
328.691	11.33
329.063	10.74
329.436	10.48
329.809	11.19
330.181	10.76
330.553	11.09
330.926	11.13
331.298	11.33
331.671	11.42
332.043	11.09
332.415	11.02
332.787	11.76
333.159	11.39
333.532	11.16
333.904	11.75
334.276	11.85
334.648	11.33
335.02	11.82
335.391	12.62
335.763	12.07
336.135	12.09
336.507	12.82
336.879	11.51
337.25	12.49
337.622	12
337.993	12.3
338.365	12.5
338.736	12.4
339.108	12.27
339.479	12.28
339.851	12.23
340.222	12.27
340.593	12.31
340.964	11.93
341.336	12.93
341.707	12.05
342.078	12.83
342.449	13.45
342.82	12.75
343.191	12.79
343.562	13.01
343.933	13.67
344.303	13.27
344.674	13.09
345.045	13.84
345.416	13.78
345.786	13.52
346.157	13.11
346.527	14.04
346.898	13.43
347.268	13.46
347.639	13.69
348.009	13.73
348.38	13.92
348.75	14.39
349.12	14.04
349.49	14.34
349.861	14.11
350.231	14.52
350.601	14.24
350.971	14.64
351.341	14.47
351.711	14.71
352.081	14.5
352.45	14.53
352.82	15.22
353.19	15.06
353.56	14.68
353.929	15.12
354.299	15.11
354.669	14.57
355.038	14.69
355.408	14.4
355.777	15.77
356.147	15.51
356.516	15.57
356.885	15.64
357.254	15.35
357.624	15.2
357.993	15.86
358.362	15.89
358.731	15.84
359.1	15.28
359.469	15.81
359.838	15.63
360.207	15.62
360.576	15.97
360.945	15.99
361.314	16.44
361.682	16.8
362.051	16.09
362.42	16.19
362.788	16.23
363.157	16.23
363.525	16.11
363.894	16.45
364.262	16.17
364.631	16.52
364.999	16.46
365.367	16.9
365.735	16.74
366.104	16.7
366.472	17.58
366.84	17.09
367.208	17.33
367.576	17.49
367.944	17.4
368.312	17.7
368.68	17.82
369.048	17.79
369.416	17.36
369.783	17.45
370.151	17.48
370.519	17.81
370.886	17.68
371.254	17.99
371.621	18.05
371.989	18.35
372.356	17.83
372.724	18.66
373.091	18.44
373.458	18.32
373.826	18.1
374.193	18.79
374.56	19.1
374.927	18.44
375.294	18.5
375.661	18.9
376.028	19.03
376.395	18.78
376.762	18.84
377.129	19.33
377.496	19.27
377.863	19.35
378.229	19.46
378.596	19.4
378.963	19.51
379.329	19.48
379.696	19.7
380.062	19.32
380.429	19.71
380.795	19.47
381.161	20.06
381.528	19.92
381.894	19.64
382.26	19.71
382.626	20.17
382.993	20.2
383.359	19.98
383.725	20.2
384.091	20.64
384.457	20.53
384.823	20.37
385.188	20.45
385.554	20.74
385.92	20.87
386.286	20.55
386.651	20.81
387.017	21.01
387.383	20.64
387.748	20.87
388.114	20.79
388.479	21.09
388.845	20.93
389.21	20.94
389.575	21.29
389.94	21.5
390.306	21.34
390.671	21.4
391.036	21.24
391.401	21.47
391.766	21.64
392.131	22.01
392.496	22.05
392.861	21.96
393.226	22.1
393.591	22.42
393.956	21.83
394.32	22.08
394.685	22.12
395.05	22.56
395.414	22.57
395.779	22.56
396.143	22.07
396.508	22.47
396.872	22.44
397.236	22.56
397.601	22.46
397.965	22.93
398.329	22.52
398.694	22.85
399.058	22.85
399.422	23.27
399.786	23.31
400.15	23.35
400.514	23.04
400.878	23.4
401.242	23.2
401.605	23.33
401.969	22.97
402.333	23.52
402.697	23.51
403.06	23.76
403.424	23.84
403.787	23.94
404.151	23.77
404.514	23.62
404.878	24.28
405.241	24.33
405.604	24.34
405.968	24.31
406.331	24.01
406.694	23.96
407.057	24.4
407.42	24.35
407.783	24.11
408.146	24.41
408.509	24.36
408.872	24.49
409.235	24.59
409.598	24.4
409.961	24.7
410.323	24.7
410.686	24.92
411.049	25.21
411.411	25.41
411.774	24.9
412.136	24.95
412.499	25.03
412.861	25.1
413.223	25.15
413.586	25.06
413.948	25.46
414.31	25.39
414.672	25.59
415.035	25.43
415.397	25.94
415.759	25.91
416.121	25.59
416.483	25.54
416.845	26.01
417.206	25.61
417.568	25.96
417.93	25.75
418.292	25.69
418.653	25.72
419.015	25.87
419.377	25.97
419.738	25.9
420.1	25.93
420.461	25.94
420.822	26
421.184	25.92
421.545	26.13
421.906	26.18
422.267	26.02
422.629	26.2
422.99	26.11
423.351	25.96
423.712	26.18
424.073	26.29
424.434	26.51
424.795	26.64
425.155	26.57
425.516	26.82
425.877	26.75
426.238	26.58
426.598	26.76
426.959	26.76
427.32	26.95
427.68	26.95
428.041	27.1
428.401	27.35
428.761	27.41
429.122	27.79
429.482	27.79
429.842	27.83
430.202	27.87
430.563	28.16
430.923	28.33
431.283	28.18
431.643	28.71
432.003	28.7
432.363	28.65
432.722	28.66
433.082	28.74
433.442	28.76
433.802	28.98
434.161	28.81
434.521	29.04
434.881	29.08
435.24	28.87
435.6	29.22
435.959	29.07
436.319	29.13
436.678	29.19
437.037	29.36
437.396	29.23
437.756	29.4
438.115	29.61
438.474	29.59
438.833	29.73
439.192	29.84
439.551	29.98
439.91	30.16
440.269	29.96
440.628	30.07
440.987	30.03
441.345	30.15
441.704	30.02
442.063	30.05
442.421	30.07
442.78	30.15
443.138	30.04
443.497	30.14
443.855	30.29
444.214	30.28
444.572	30.85
444.93	30.82
445.288	31
445.647	30.9
446.005	31.09
446.363	30.9
446.721	31.05
447.079	30.87
447.437	31.08
447.795	31.13
448.153	30.91
448.51	31.02
448.868	31
449.226	30.91
449.584	31.14
449.941	31.34
450.299	31.52
450.656	31.74
451.014	31.74
451.371	31.75
451.729	32.15
452.086	32.19
452.443	32.2
452.801	32.43
453.158	32.41
453.515	32.7
453.872	32.47
454.229	32.61
454.586	32.52
454.943	32.51
455.3	32.65
455.657	32.78
456.014	32.81
456.371	33.06
456.727	33.12
457.084	33.14
457.441	32.94
457.797	33.34
458.154	33.43
458.51	33.32
458.867	33.38
459.223	33.67
459.58	33.45
459.936	33.83
460.292	33.76
460.648	33.96
461.005	33.63
461.361	33.71
461.717	33.38
462.073	33.2
462.429	33.22
462.785	33.46
463.141	33.8
463.496	33.95
463.852	34.3
464.208	34.33
464.564	34.65
464.919	34.63
465.275	34.67
465.631	34.95
465.986	34.7
466.342	34.88
466.697	35
467.052	34.87
467.408	34.93
467.763	35.09
468.118	35.36
468.473	35.35
468.829	35.13
469.184	35.34
469.539	35.28
469.894	35.42
470.249	35.42
470.603	35.55
470.958	35.71
471.313	35.62
471.668	35.78
472.023	35.84
472.377	35.96
472.732	35.77
473.086	36.09
473.441	36.13
473.795	36.45
474.15	36.2
474.504	36.3
474.859	36.73
475.213	36.3
475.567	36.21
475.921	36.27
476.275	36.57
476.63	36.64
476.984	36.55
477.338	36.96
477.692	36.73
478.045	37.01
478.399	36.78
478.753	36.75
479.107	36.64
479.461	36.93
479.814	37.12
480.168	36.88
480.521	36.97
480.875	37.27
481.228	37.29
481.582	37.2
481.935	37.28
482.289	37.2
482.642	37.11
482.995	37.69
483.348	37.35
483.701	37.38
484.055	37.21
484.408	37.38
484.761	37.14
485.114	36.92
485.466	36.68
485.819	36.29
486.172	36.26
486.525	36.44
486.878	36.67
487.23	36.84
487.583	37.02
487.936	37.26
488.288	37.41
488.641	37.54
488.993	37.38
489.345	37.19
489.698	36.99
490.05	37.12
490.402	37.13
490.754	37.32
491.107	37.56
491.459	37.83
491.811	37.96
492.163	38.22
492.515	38.18
492.866	38.34
493.218	38.12
493.57	38.08
493.922	37.72
494.274	37.78
494.625	38.13
494.977	38.44
495.328	38.73
495.68	39.04
496.031	39.26
496.383	39.33
496.734	39.59
497.086	39.76
497.437	39.83
497.788	39.64
498.139	39.94
498.49	39.86
498.842	39.59
499.193	39.62
499.544	39.62
499.894	39.68
500.245	39.73
500.596	40.02
500.947	40.02
501.298	40.26
501.648	40.49
501.999	40.42
502.35	40.37
502.7	40.6
503.051	40.64
503.401	40.52
503.752	40.69
504.102	40.71
504.452	40.89
504.803	41.01
505.153	40.96
505.503	41.21
505.853	40.95
506.203	41.25
506.553	41.16
506.903	41.06
507.253	41.04
507.603	41.35
507.953	41.46
508.303	41.55
508.652	41.47
509.002	41.73
509.352	41.72
509.701	41.47
510.051	41.21
510.4	41.7
510.75	41.56
511.099	41.46
511.449	41.31
511.798	41.52
512.147	41.49
512.496	41.81
512.846	41.55
513.195	41.73
513.544	41.69
513.893	41.83
514.242	42.01
514.591	41.89
514.939	41.88
515.288	42.03
515.637	42.31
515.986	42.21
516.334	42.28
516.683	42.45
517.032	42.42
517.38	42.41
517.729	42.43
518.077	42.68
518.426	42.72
518.774	43
519.122	42.61
519.47	42.61
519.819	42.44
520.167	42.38
520.515	42.41
520.863	42.32
521.211	42.27
521.559	42.47
521.907	42.53
522.255	42.5
522.602	42.82
522.95	42.95
523.298	43.03
523.645	43.31
523.993	43.07
524.341	43.39
524.688	43.46
525.036	43.58
525.383	43.76
525.73	43.58
526.078	43.35
526.425	43.65
526.772	43.61
527.119	43.45
527.466	43.22
527.814	42.93
528.161	42.99
528.508	43.04
528.854	43.19
529.201	43.43
529.548	43.25
529.895	43.32
530.242	42.93
530.588	42.47
530.935	42.46
531.282	42.84
531.628	42.98
531.975	42.98
532.321	43.13
532.667	43.31
533.014	43.58
533.36	43.92
533.706	43.96
534.052	43.99
534.399	43.88
534.745	43.91
535.091	43.78
535.437	43.56
535.783	43.3
536.129	43.73
536.474	43.88
536.82	44.06
537.166	44.29
537.512	44.41
537.857	44.54
538.203	44.7
538.549	44.25
538.894	44.27
539.239	44.43
539.585	44.62
539.93	44.71
540.276	44.93
540.621	45.21
540.966	45.04
541.311	45.2
541.656	45.42
542.001	45.29
542.346	45.28
542.691	45.07
543.036	44.84
543.381	44.5
543.726	44.25
544.071	44.26
544.415	44.6
544.76	44.72
545.105	44.96
545.449	44.92
545.794	45.11
546.138	45.32
546.483	45.35
546.827	45.63
547.171	45.64
547.516	45.81
547.86	45.82
548.204	45.86
548.548	45.79
548.892	45.94
549.236	45.8
549.58	45.88
549.924	46.33
550.268	46.5
550.612	46.4
550.956	46.53
551.3	46.7
551.643	46.5
551.987	46.9
552.33	47.06
552.674	46.89
553.017	47.16
553.361	47.34
553.704	47.31
554.048	47.24
554.391	47.2
554.734	47.32
555.077	47.28
555.42	47.09
555.764	47.05
556.107	47.41
556.45	47.36
556.793	47.66
557.135	47.47
557.478	47.51
557.821	47.89
558.164	47.86
558.507	47.9
558.849	47.86
559.192	48.09
559.534	48.06
559.877	48.34
560.219	48.08
560.562	48.05
560.904	48.18
561.246	48.34
561.589	48.39
561.931	48.54
562.273	48.38
562.615	48.22
562.957	48.47
563.299	48.47
563.641	48.24
563.983	48.31
564.325	48.48
564.667	48.46
565.008	48.4
565.35	48.56
565.692	48.54
566.033	48.84
566.375	48.57
566.716	48.82
567.058	49.03
567.399	48.68
567.741	48.79
568.082	48.78
568.423	48.68
568.764	48.55
569.105	48.65
569.447	48.62
569.788	48.63
570.129	48.95
570.47	49.02
570.811	49.24
571.151	49.15
571.492	49.2
571.833	49.3
572.174	49.17
572.514	49.08
572.855	49.35
573.195	48.99
573.536	49.25
573.876	49.02
574.217	49.16
574.557	49.05
574.898	49.24
575.238	49.24
575.578	49.43
575.918	49.68
576.258	49.45
576.598	49.61
576.938	49.73
577.278	49.57
577.618	49.4
577.958	49.68
578.298	49.71
578.638	49.63
578.977	49.76
579.317	49.88
579.657	50.12
579.996	50.33
580.336	50.12
580.675	50.45
581.014	50.36
581.354	50.31
581.693	50.64
582.032	50.29
582.372	50.58
582.711	50.56
583.05	50.78
583.389	50.8
583.728	50.51
584.067	51.17
584.406	51.06
584.745	51.16
585.083	51.06
585.422	51.26
585.761	51.15
586.1	51.09
586.438	51.28
586.777	51.09
587.115	51.3
587.454	51.18
587.792	51.65
588.13	51.4
588.469	51.23
588.807	51.42
589.145	51.15
589.483	51.65
589.821	51.34
590.159	51.35
590.497	51.71
590.835	51.51
591.173	51.42
591.511	51.18
591.849	51.56
592.187	51.44
592.524	51.58
592.862	51.83
593.2	51.68
593.537	52.08
593.875	51.64
594.212	51.48
594.55	52.39
594.887	52.07
595.224	52.24
595.561	52
595.899	52.1
596.236	52.01
596.573	51.91
596.91	52.12
597.247	51.78
597.584	52.25
597.921	52.35
598.258	52.42
598.594	52.01
598.931	52.02
599.268	51.95
599.604	51.97
599.941	51.84
600.277	52.02
600.614	51.92
600.95	52.63
601.287	52.49
601.623	52.42
601.959	52.96
602.296	53.05
602.632	52.49
602.968	53.21
603.304	53.09
603.64	52.95
603.976	53.15
604.312	52.85
604.648	52.87
604.984	53.27
605.319	52.45
605.655	52.52
605.991	52.61
606.326	52.82
606.662	52.62
606.998	52.59
607.333	52.21
607.668	52.53
608.004	52.87
608.339	52.86
608.674	53.19
609.01	53.43
609.345	53.33
609.68	53.26
610.015	53.23
610.35	53.07
610.685	53.79
611.02	53.47
611.355	53.57
611.689	53.15
612.024	53.14
612.359	53
612.694	53.34
613.028	53.35
613.363	53.27
613.697	53.79
614.032	53.88
614.366	53.84
614.7	53.73
615.035	53.74
615.369	53.58
615.703	54.02
616.037	54.18
616.371	54.49
616.705	54.61
617.039	54.51
617.373	54.49
617.707	54.46
618.041	54.26
618.375	54.64
618.709	54.37
619.042	54.76
619.376	54.73
619.71	54.41
620.043	54.65
620.377	54.78
620.71	54.42
621.043	54.52
621.377	54.41
621.71	54.75
622.043	54.59
622.376	54.85
622.709	54.81
623.043	55.14
623.376	55.39
623.709	55.02
624.041	55.12
624.374	55.57
624.707	55.24
625.04	54.78
625.373	54.38
625.705	54.99
626.038	55.25
626.37	55.5
626.703	55.17
627.035	55.32
627.368	55.06
627.7	55.06
628.032	55.46
628.365	55.34
628.697	54.84
629.029	55.03
629.361	54.84
629.693	55.3
630.025	55.18
630.357	54.92
630.689	55.76
631.021	55.29
631.353	55.23
631.684	55.41
632.016	55.69
632.348	55.59
632.679	55.82
633.011	56.02
633.342	55.74
633.674	56.18
634.005	55.4
634.336	55.67
634.668	55.99
634.999	56.24
635.33	55.51
635.661	55.39
635.992	55.74
636.323	55.88
636.654	55.89
636.985	55.93
637.316	56.57
637.647	55.96
637.977	55.59
638.308	56.42
638.639	55.92
638.969	56.5
639.3	56.46
639.63	55.97
639.961	56.17
640.291	56.18
640.622	56.53
640.952	56.54
641.282	56.73
641.612	56.19
641.943	56.31
642.273	56.78
642.603	56.7
642.933	57.16
643.263	55.74
643.592	56.37
643.922	56.75
644.252	57.02
644.582	56.47
644.911	56.6
645.241	56.8
645.571	57.17
645.9	57.15
646.23	57.16
646.559	56.8
646.888	57.32
647.218	57.58
647.547	56.53
647.876	56.59
648.205	56.99
648.534	57.36
648.863	56.5
649.192	57.04
649.521	57.12
649.85	57.91
650.179	57.09
650.508	57.16
650.837	57.27
651.165	57.16
651.494	57.94
651.822	57.26
652.151	57.15
652.479	57.54
652.808	56.93
653.136	57.45
653.465	57.57
653.793	57.57
654.121	57.59
654.449	57.44
654.777	57.87
655.105	58.29
655.433	57.32
655.761	57.75
656.089	56.9
656.417	57.27
656.745	57.43
657.073	57.84
657.4	58.46
657.728	57.35
658.056	58.17
658.383	57.79
658.711	57.45
659.038	57.59
659.365	57.5
659.693	57.39
660.02	57.64
660.347	57.79
660.674	57.65
661.001	57.59
661.329	57.92
661.656	58.11
661.982	57.43
662.309	57.77
662.636	58.26
662.963	58.52
663.29	58.83
663.616	58.21
663.943	58.9
664.27	57.93
664.596	58.31
664.923	58.03
665.249	58.72
665.576	57.85
665.902	58.88
666.228	58.77
666.554	58.56
666.881	58.97
667.207	58.18
667.533	58.49
667.859	58.29
668.185	58.98
668.511	58.42
668.837	58.78
669.162	59.05
669.488	58.66
