Data from 0220_chest_Reflection__2__222.txt Node

Date: Fri Sep 22 22:37:14 CDT 2023
User: ToomeyLab
Spectrometer: FLMS14357
Trigger mode: 0
Integration Time (sec): 1.000000E-2
Scans to average: 100
Electric dark correction enabled: true
Nonlinearity correction enabled: false
Boxcar width: 0
XAxis mode: Wavelengths
Number of Pixels in Spectrum: 2048
>>>>>Begin Spectral Data<<<<<
189.047	203.81
189.435	203.81
189.823	203.81
190.211	84.97
190.599	-48.84
190.987	94.19
191.375	117.01
191.763	27.49
192.151	234.34
192.538	-43.67
192.926	85.02
193.314	1160.98
193.702	56.73
194.089	108.76
194.477	-17.87
194.864	943.62
195.252	170.93
195.639	72.6
196.027	64.01
196.414	-240.66
196.801	-86.19
197.189	-6.8
197.576	35.09
197.963	-14.22
198.351	16.19
198.738	-2.46
199.125	31.41
199.512	29.52
199.899	28.81
200.286	24.96
200.673	17.47
201.06	4.71
201.447	40.27
201.833	-42.56
202.22	31.53
202.607	14.22
202.994	41.38
203.38	35
203.767	20.34
204.154	28
204.54	6.64
204.927	13.8
205.313	40.97
205.699	30.06
206.086	58.81
206.472	50.3
206.858	0.62
207.245	-45.17
207.631	36.04
208.017	30.94
208.403	17.9
208.789	8.62
209.175	53.49
209.561	17.37
209.947	17.22
210.333	23.64
210.719	-19.42
211.105	47.26
211.491	30.06
211.876	38.75
212.262	15.95
212.648	25.91
213.034	54.96
213.419	8.12
213.805	33.43
214.19	-9.86
214.576	23.21
214.961	23.9
215.346	-25.58
215.732	18.8
216.117	-11.89
216.502	34.79
216.888	41.98
217.273	12.51
217.658	1.09
218.043	13.81
218.428	19.92
218.813	-24.01
219.198	26.82
219.583	1.5
219.968	-32.96
220.353	20.93
220.738	-3.99
221.122	-1.43
221.507	2.96
221.892	7.96
222.276	-1.68
222.661	-10.22
223.046	17.65
223.43	21.01
223.815	14.05
224.199	-2.65
224.583	11.07
224.968	19.05
225.352	2.07
225.736	2.46
226.121	3.97
226.505	5.29
226.889	6.27
227.273	9.61
227.657	4.2
228.041	5.68
228.425	9.43
228.809	0.11
229.193	4.4
229.577	9.01
229.961	6.3
230.344	5.41
230.728	3.71
231.112	4.27
231.495	4.13
231.879	5.51
232.263	3.08
232.646	6.1
233.03	6.08
233.413	4.59
233.797	5.16
234.18	4.12
234.563	6.88
234.946	6.41
235.33	3.03
235.713	2.6
236.096	1.99
236.479	4.46
236.862	5.11
237.245	3.85
237.628	5.26
238.011	5.41
238.394	4.18
238.777	4.81
239.16	6.34
239.543	7.57
239.925	5.72
240.308	5.66
240.691	3.71
241.073	5.36
241.456	4.82
241.838	1.74
242.221	3.52
242.603	4.66
242.986	4.94
243.368	4.31
243.75	5.59
244.133	5.3
244.515	4.8
244.897	4.28
245.279	4.35
245.661	4.56
246.043	4.31
246.425	4.25
246.807	5.42
247.189	4.09
247.571	4.76
247.953	5.11
248.335	4.49
248.717	4.75
249.098	4.75
249.48	4.34
249.862	4.27
250.243	4.4
250.625	4.71
251.006	4.14
251.388	4.2
251.769	5.08
252.151	4.29
252.532	4.18
252.913	4.83
253.295	5.36
253.676	4.5
254.057	4.74
254.438	4.71
254.819	4.21
255.2	4.66
255.581	4.69
255.962	5.41
256.343	5.42
256.724	3.52
257.105	4.38
257.486	4.75
257.867	4.66
258.247	5.07
258.628	4.45
259.009	4.87
259.389	3.91
259.77	4.54
260.15	5.13
260.531	4.07
260.911	4.46
261.292	4.65
261.672	3.96
262.052	4.55
262.432	4.06
262.813	4.36
263.193	4.34
263.573	4.39
263.953	4.24
264.333	4.04
264.713	3.76
265.093	4.15
265.473	4.42
265.853	3.56
266.233	3.65
266.612	4.69
266.992	5.21
267.372	4.05
267.752	5.6
268.131	3.43
268.511	3.8
268.89	4.84
269.27	4.26
269.649	3.76
270.029	3.8
270.408	4.61
270.787	3.78
271.167	4.14
271.546	4.21
271.925	3.94
272.304	4.02
272.683	4.56
273.062	4.56
273.441	4.33
273.82	4.53
274.199	4.44
274.578	4.63
274.957	4.2
275.336	3.87
275.715	3.91
276.093	3.49
276.472	4.43
276.851	4.19
277.229	3.88
277.608	4.72
277.986	3.74
278.365	4.35
278.743	3.72
279.122	4.28
279.5	4.47
279.878	4.03
280.257	4.85
280.635	3.67
281.013	3.56
281.391	3.92
281.769	3.71
282.147	4.4
282.525	3.82
282.903	4.4
283.281	4.19
283.659	4.51
284.037	4.19
284.415	4.17
284.792	4.03
285.17	4.58
285.548	4.47
285.925	3.97
286.303	4.55
286.68	3.98
287.058	3.94
287.435	3.92
287.813	3.73
288.19	3.51
288.567	4.51
288.945	3.91
289.322	4.27
289.699	4.14
290.076	4.43
290.453	3.82
290.83	3.98
291.207	4.21
291.584	3.8
291.961	3.6
292.338	4.32
292.715	4.26
293.092	4.12
293.469	3.98
293.845	3.69
294.222	4.52
294.599	4.23
294.975	5.09
295.352	3.99
295.728	4.26
296.105	4.88
296.481	4.4
296.858	4.31
297.234	4.46
297.61	4.24
297.986	4.42
298.363	3.97
298.739	4.46
299.115	4.87
299.491	4.4
299.867	4.26
300.243	4.13
300.619	4.29
300.995	3.82
301.371	4.5
301.746	4.62
302.122	4.05
302.498	4.38
302.874	3.82
303.249	4.05
303.625	4.4
304	4.63
304.376	4.78
304.751	4.53
305.127	4.99
305.502	4.88
305.878	4.85
306.253	4.71
306.628	4.26
307.003	4.54
307.378	4.26
307.754	4.61
308.129	4.67
308.504	4.74
308.879	4.21
309.254	4.74
309.629	5.14
310.003	5.04
310.378	5.16
310.753	3.89
311.128	4.14
311.502	4.89
311.877	4.17
312.252	4.52
312.626	4.27
313.001	4.56
313.375	4.8
313.75	4.86
314.124	4.85
314.498	4.17
314.873	4.7
315.247	4.6
315.621	4.35
315.995	4.56
316.369	4.44
316.743	4.52
317.117	4.25
317.491	4.72
317.865	4.09
318.239	3.96
318.613	4.55
318.987	4.24
319.361	3.96
319.734	4.25
320.108	4.6
320.482	4.09
320.855	4.6
321.229	5.6
321.602	4.31
321.976	4.26
322.349	4.4
322.723	4.53
323.096	5.12
323.469	4.4
323.843	4.53
324.216	4.62
324.589	4.68
324.962	4.58
325.335	4.05
325.708	4.26
326.081	5.08
326.454	4.24
326.827	4.34
327.2	4.29
327.573	4.83
327.945	4.79
328.318	4.88
328.691	4.63
329.063	4.24
329.436	5.04
329.809	4.66
330.181	4.26
330.553	4.43
330.926	3.82
331.298	4.61
331.671	4.59
332.043	4.08
332.415	4.51
332.787	5.22
333.159	4.06
333.532	4.35
333.904	4.65
334.276	4.4
334.648	3.53
335.02	4.64
335.391	4.41
335.763	4.57
336.135	4.5
336.507	4.53
336.879	4.58
337.25	4.58
337.622	4.99
337.993	5.04
338.365	5.02
338.736	4.59
339.108	4.88
339.479	4.37
339.851	3.96
340.222	4.58
340.593	4.17
340.964	4.33
341.336	4.32
341.707	4.2
342.078	4.98
342.449	4.3
342.82	3.9
343.191	4.51
343.562	4.55
343.933	4.4
344.303	4.46
344.674	4.63
345.045	4.38
345.416	4.58
345.786	3.89
346.157	4.37
346.527	4.49
346.898	4.39
347.268	4.26
347.639	4.95
348.009	4.45
348.38	4.54
348.75	5.03
349.12	4.63
349.49	4.88
349.861	4.45
350.231	5.01
350.601	4.69
350.971	4.27
351.341	4.25
351.711	4.37
352.081	4.57
352.45	4.6
352.82	4.83
353.19	4.55
353.56	4.26
353.929	4.78
354.299	4.42
354.669	4.6
355.038	4.63
355.408	4.31
355.777	4.46
356.147	4.5
356.516	4.61
356.885	4.49
357.254	5.09
357.624	4.61
357.993	4.73
358.362	4.62
358.731	4.43
359.1	4.19
359.469	4.84
359.838	4.15
360.207	4.4
360.576	4.74
360.945	4.49
361.314	4.45
361.682	4.56
362.051	4.71
362.42	4.69
362.788	4.14
363.157	4.8
363.525	4.27
363.894	4.58
364.262	4.61
364.631	4.5
364.999	4.32
365.367	4.54
365.735	4.39
366.104	4.3
366.472	4.75
366.84	4.32
367.208	4.98
367.576	4.62
367.944	4.63
368.312	4.58
368.68	4.46
369.048	4.71
369.416	4.58
369.783	4.5
370.151	4.51
370.519	4.79
370.886	4.35
371.254	4.5
371.621	4.26
371.989	4.54
372.356	4.4
372.724	4.72
373.091	4.58
373.458	4.67
373.826	4.52
374.193	4.58
374.56	4.55
374.927	4.47
375.294	4.61
375.661	4.38
376.028	4.45
376.395	4.83
376.762	4.45
377.129	4.82
377.496	4.84
377.863	4.82
378.229	4.57
378.596	4.52
378.963	4.9
379.329	4.89
379.696	4.83
380.062	4.54
380.429	4.88
380.795	4.66
381.161	4.46
381.528	4.45
381.894	4.39
382.26	4.51
382.626	4.72
382.993	4.68
383.359	4.51
383.725	4.68
384.091	4.76
384.457	4.5
384.823	4.55
385.188	4.74
385.554	4.87
385.92	5.03
386.286	4.59
386.651	4.84
387.017	4.72
387.383	4.77
387.748	4.65
388.114	4.69
388.479	4.78
388.845	4.29
389.21	4.75
389.575	4.82
389.94	4.26
390.306	4.83
390.671	4.89
391.036	4.53
391.401	4.61
391.766	4.5
392.131	4.67
392.496	4.7
392.861	4.74
393.226	4.67
393.591	4.7
393.956	4.54
394.32	4.55
394.685	4.72
395.05	4.78
395.414	4.85
395.779	4.7
396.143	4.62
396.508	4.59
396.872	4.58
397.236	4.55
397.601	4.66
397.965	5.01
398.329	4.91
398.694	4.65
399.058	4.53
399.422	4.55
399.786	4.87
400.15	4.55
400.514	4.96
400.878	4.79
401.242	4.65
401.605	4.61
401.969	4.33
402.333	4.66
402.697	4.61
403.06	4.6
403.424	4.7
403.787	4.83
404.151	4.91
404.514	4.92
404.878	5.01
405.241	5.06
405.604	4.68
405.968	4.86
406.331	4.97
406.694	4.92
407.057	4.61
407.42	4.84
407.783	4.74
408.146	4.66
408.509	4.69
408.872	4.72
409.235	4.74
409.598	4.62
409.961	4.83
410.323	4.76
410.686	4.83
411.049	5
411.411	4.9
411.774	4.62
412.136	4.52
412.499	4.78
412.861	4.76
413.223	4.77
413.586	4.53
413.948	4.83
414.31	4.63
414.672	4.72
415.035	4.78
415.397	5.01
415.759	4.93
416.121	4.67
416.483	4.8
416.845	4.6
417.206	4.75
417.568	4.81
417.93	4.79
418.292	4.93
418.653	4.67
419.015	4.76
419.377	4.63
419.738	4.87
420.1	4.63
420.461	4.76
420.822	4.71
421.184	4.77
421.545	4.63
421.906	4.6
422.267	4.71
422.629	4.79
422.99	4.66
423.351	4.64
423.712	4.64
424.073	4.76
424.434	4.74
424.795	4.71
425.155	4.76
425.516	4.7
425.877	4.65
426.238	4.63
426.598	4.75
426.959	4.64
427.32	4.76
427.68	4.66
428.041	4.69
428.401	4.94
428.761	4.83
429.122	4.76
429.482	4.75
429.842	4.77
430.202	4.75
430.563	4.84
430.923	4.93
431.283	4.95
431.643	4.88
432.003	4.89
432.363	4.93
432.722	4.88
433.082	4.79
433.442	4.94
433.802	5.03
434.161	4.63
434.521	4.81
434.881	4.74
435.24	4.84
435.6	4.72
435.959	4.73
436.319	4.88
436.678	4.85
437.037	4.99
437.396	4.75
437.756	4.84
438.115	4.93
438.474	4.87
438.833	4.94
439.192	4.9
439.551	4.84
439.91	5.15
440.269	4.91
440.628	4.81
440.987	4.87
441.345	4.99
441.704	5.02
442.063	4.87
442.421	4.89
442.78	4.85
443.138	4.94
443.497	4.83
443.855	4.98
444.214	4.72
444.572	4.97
444.93	4.96
445.288	4.98
445.647	5.14
446.005	4.8
446.363	4.7
446.721	5.06
447.079	4.78
447.437	4.93
447.795	4.86
448.153	4.74
448.51	4.85
448.868	4.84
449.226	4.91
449.584	4.78
449.941	4.81
450.299	4.93
450.656	4.99
451.014	4.98
451.371	4.92
451.729	4.98
452.086	5
452.443	4.9
452.801	5.01
453.158	4.9
453.515	5.07
453.872	5.07
454.229	4.99
454.586	5.14
454.943	4.93
455.3	5.13
455.657	4.97
456.014	4.92
456.371	5
456.727	5.09
457.084	5.05
457.441	5.07
457.797	5.11
458.154	5.13
458.51	4.98
458.867	4.97
459.223	5.02
459.58	5.09
459.936	5.16
460.292	5.18
460.648	5.26
461.005	5.03
461.361	4.98
461.717	4.88
462.073	4.91
462.429	4.85
462.785	4.88
463.141	4.93
463.496	5.07
463.852	4.95
464.208	5.12
464.564	5.25
464.919	5.09
465.275	5.12
465.631	5.37
465.986	5.11
466.342	5.06
466.697	5.34
467.052	4.92
467.408	5.25
467.763	5.17
468.118	5.23
468.473	5.09
468.829	5
469.184	5.1
469.539	5.15
469.894	5.08
470.249	5.1
470.603	5.09
470.958	5.13
471.313	5.16
471.668	5.17
472.023	5.12
472.377	5.15
472.732	5.03
473.086	5.29
473.441	4.95
473.795	5.39
474.15	4.96
474.504	5.11
474.859	5.28
475.213	4.95
475.567	5.1
475.921	5.11
476.275	5.27
476.63	5.08
476.984	5.15
477.338	5.46
477.692	5.29
478.045	5.36
478.399	5.32
478.753	5.25
479.107	5.18
479.461	5.2
479.814	5.23
480.168	5.32
480.521	5.28
480.875	5.28
481.228	5.22
481.582	5.16
481.935	5.31
482.289	5.18
482.642	5.18
482.995	5.22
483.348	5.21
483.701	5.15
484.055	5.22
484.408	5.17
484.761	5.17
485.114	4.99
485.466	5.02
485.819	4.96
486.172	4.88
486.525	4.9
486.878	4.96
487.23	4.99
487.583	5.07
487.936	5.15
488.288	5.14
488.641	5.15
488.993	5.06
489.345	5.02
489.698	5.02
490.05	5.09
490.402	5.06
490.754	5.03
491.107	5.08
491.459	5.15
491.811	5.18
492.163	5.18
492.515	5.25
492.866	5.23
493.218	5.15
493.57	5.2
493.922	5.08
494.274	5.1
494.625	5.16
494.977	5.21
495.328	5.34
495.68	5.36
496.031	5.24
496.383	5.34
496.734	5.5
497.086	5.43
497.437	5.43
497.788	5.27
498.139	5.38
498.49	5.54
498.842	5.34
499.193	5.36
499.544	5.42
499.894	5.33
500.245	5.47
500.596	5.41
500.947	5.45
501.298	5.49
501.648	5.43
501.999	5.47
502.35	5.43
502.7	5.59
503.051	5.5
503.401	5.49
503.752	5.51
504.102	5.5
504.452	5.59
504.803	5.49
505.153	5.54
505.503	5.58
505.853	5.72
506.203	5.5
506.553	5.67
506.903	5.51
507.253	5.51
507.603	5.55
507.953	5.57
508.303	5.55
508.652	5.46
509.002	5.75
509.352	5.49
509.701	5.7
510.051	5.71
510.4	5.59
510.75	5.6
511.099	5.49
511.449	5.54
511.798	5.63
512.147	5.65
512.496	5.68
512.846	5.67
513.195	5.71
513.544	5.66
513.893	5.81
514.242	5.61
514.591	5.68
514.939	5.77
515.288	5.59
515.637	5.7
515.986	5.64
516.334	5.74
516.683	5.71
517.032	5.83
517.38	5.68
517.729	5.87
518.077	5.78
518.426	5.73
518.774	5.82
519.122	5.82
519.47	5.69
519.819	5.71
520.167	5.79
520.515	5.74
520.863	5.67
521.211	5.59
521.559	5.78
521.907	5.7
522.255	5.89
522.602	5.76
522.95	5.8
523.298	5.81
523.645	5.88
523.993	5.78
524.341	5.83
524.688	5.91
525.036	5.92
525.383	5.92
525.73	5.99
526.078	5.98
526.425	5.88
526.772	6.02
527.119	5.9
527.466	5.72
527.814	5.77
528.161	5.78
528.508	5.81
528.854	5.93
529.201	5.92
529.548	5.85
529.895	5.88
530.242	5.83
530.588	5.75
530.935	5.65
531.282	5.69
531.628	5.81
531.975	5.76
532.321	5.85
532.667	5.9
533.014	5.99
533.36	6.08
533.706	6.01
534.052	6.12
534.399	6.12
534.745	5.99
535.091	5.96
535.437	5.91
535.783	5.84
536.129	5.98
536.474	6.02
536.82	5.98
537.166	6.26
537.512	6.22
537.857	6.2
538.203	6.29
538.549	6.12
538.894	6.1
539.239	6.14
539.585	6.1
539.93	6.27
540.276	6.27
540.621	6.31
540.966	6.3
541.311	6.42
541.656	6.29
542.001	6.37
542.346	6.3
542.691	6.36
543.036	6.26
543.381	6.16
543.726	6.16
544.071	6.18
544.415	6.21
544.76	6.27
545.105	6.21
545.449	6.23
545.794	6.28
546.138	6.4
546.483	6.45
546.827	6.4
547.171	6.47
547.516	6.53
547.86	6.65
548.204	6.53
548.548	6.51
548.892	6.53
549.236	6.55
549.58	6.67
549.924	6.73
550.268	6.83
550.612	6.68
550.956	6.77
551.3	6.65
551.643	6.73
551.987	6.81
552.33	7.03
552.674	6.82
553.017	6.82
553.361	6.67
553.704	6.94
554.048	6.95
554.391	6.82
554.734	7.07
555.077	6.9
555.42	6.79
555.764	6.9
556.107	6.99
556.45	6.96
556.793	6.88
557.135	7.17
557.478	6.97
557.821	7.09
558.164	7.24
558.507	7.34
558.849	7.05
559.192	7.23
559.534	7.23
559.877	7.26
560.219	7.13
560.562	7.26
560.904	7.35
561.246	7.42
561.589	7.16
561.931	7.26
562.273	7.08
562.615	7.14
562.957	7.32
563.299	7.37
563.641	7.43
563.983	7.58
564.325	7.39
564.667	7.46
565.008	7.29
565.35	7.47
565.692	7.57
566.033	7.67
566.375	7.54
566.716	7.45
567.058	7.24
567.399	7.51
567.741	7.69
568.082	7.56
568.423	7.58
568.764	7.77
569.105	7.42
569.447	7.52
569.788	7.57
570.129	7.7
570.47	7.67
570.811	7.75
571.151	7.87
571.492	7.71
571.833	7.55
572.174	7.81
572.514	7.82
572.855	7.67
573.195	7.74
573.536	7.78
573.876	7.89
574.217	7.74
574.557	7.88
574.898	7.85
575.238	7.95
575.578	8.17
575.918	8.03
576.258	7.92
576.598	8.1
576.938	8.22
577.278	8.18
577.618	7.99
577.958	8.24
578.298	8.26
578.638	8.08
578.977	8.23
579.317	8.13
579.657	8.42
579.996	8.19
580.336	8.38
580.675	8.42
581.014	8.22
581.354	8.26
581.693	8.42
582.032	8.58
582.372	8.42
582.711	8.35
583.05	8.67
583.389	8.48
583.728	8.49
584.067	8.47
584.406	8.56
584.745	8.49
585.083	8.79
585.422	9.08
585.761	8.62
586.1	8.86
586.438	8.67
586.777	8.89
587.115	9.02
587.454	8.58
587.792	9.03
588.13	8.89
588.469	8.75
588.807	8.86
589.145	8.99
589.483	8.96
589.821	8.75
590.159	8.96
590.497	9.25
590.835	8.83
591.173	9.09
591.511	8.86
591.849	9.3
592.187	8.91
592.524	9.37
592.862	9.11
593.2	8.97
593.537	9.11
593.875	9.29
594.212	9.18
594.55	9.34
594.887	9.07
595.224	9.32
595.561	9.65
595.899	9.36
596.236	9.63
596.573	9.46
596.91	9.4
597.247	9.41
597.584	9.59
597.921	9.81
598.258	9.7
598.594	9.41
598.931	9.46
599.268	9.63
599.604	9.7
599.941	9.59
600.277	9.65
600.614	9.64
600.95	9.72
601.287	9.47
601.623	9.83
601.959	10.4
602.296	9.9
602.632	9.7
602.968	9.79
603.304	10.02
603.64	9.7
603.976	10.01
604.312	10.17
604.648	9.88
604.984	9.97
605.319	9.9
605.655	10.18
605.991	9.98
606.326	10.31
606.662	9.98
606.998	10.06
607.333	10.11
607.668	10.14
608.004	10.17
608.339	10.32
608.674	10.32
609.01	10.45
609.345	10.21
609.68	10.65
610.015	10.25
610.35	10.48
610.685	10.59
611.02	10.4
611.355	10.66
611.689	10.64
612.024	10.74
612.359	10.57
612.694	10.52
613.028	10.57
613.363	10.55
613.697	10.63
614.032	10.73
614.366	10.95
614.7	10.91
615.035	10.64
615.369	10.74
615.703	10.62
616.037	10.82
616.371	11.12
616.705	10.94
617.039	11.19
617.373	11.05
617.707	10.76
618.041	11.04
618.375	11.06
618.709	11.53
619.042	11.52
619.376	11.49
619.71	11.12
620.043	10.95
620.377	11.43
620.71	11.19
621.043	11.47
621.377	11.26
621.71	11.6
622.043	11.28
622.376	11.12
622.709	11.6
623.043	11.43
623.376	11.58
623.709	11.74
624.041	11.52
624.374	11.77
624.707	11.96
625.04	11.54
625.373	11.13
625.705	11.77
626.038	11.35
626.37	11.91
626.703	11.67
627.035	12.09
627.368	11.82
627.7	12.15
628.032	11.97
628.365	12.35
628.697	11.83
629.029	11.88
629.361	12.11
629.693	12.16
630.025	12.08
630.357	11.91
630.689	12.09
631.021	11.99
631.353	11.89
631.684	12.18
632.016	12.5
632.348	12.31
632.679	12.09
633.011	12.3
633.342	12.12
633.674	12.76
634.005	12.29
634.336	12.61
634.668	12.88
634.999	12.48
635.33	12.83
635.661	12.62
635.992	12.36
636.323	12.86
636.654	12.6
636.985	12.52
637.316	12.71
637.647	12.93
637.977	12.67
638.308	13.01
638.639	12.83
638.969	13.35
639.3	12.68
639.63	13.11
639.961	12.76
640.291	13.21
640.622	13.47
640.952	13.44
641.282	13.38
641.612	13.22
641.943	13.04
642.273	13.39
642.603	13.15
642.933	13.55
643.263	13.05
643.592	13.34
643.922	13.27
644.252	13.18
644.582	13.51
644.911	13.73
645.241	13.59
645.571	13.43
645.9	13.83
646.23	14
646.559	14.02
646.888	13.91
647.218	13.43
647.547	13.53
647.876	13.74
648.205	13.16
648.534	14.15
648.863	13.81
649.192	13.38
649.521	13.7
649.85	14.27
650.179	13.76
650.508	13.49
650.837	13.92
651.165	14.18
651.494	13.94
651.822	14.05
652.151	13.6
652.479	14.08
652.808	13.7
653.136	14.33
653.465	14.24
653.793	14.01
654.121	14.04
654.449	14.12
654.777	14.46
655.105	14.55
655.433	14.99
655.761	14.84
656.089	14.53
656.417	14.38
656.745	14.4
657.073	14.51
657.4	15.2
657.728	15.02
658.056	15.49
658.383	15.06
658.711	14.83
659.038	14.22
659.365	14.87
659.693	14.32
660.02	15.07
660.347	15.32
660.674	14.53
661.001	14.81
661.329	14.94
661.656	15.25
661.982	14.48
662.309	15.06
662.636	15.12
662.963	15.3
663.29	15.11
663.616	14.82
663.943	15.54
664.27	15
664.596	15.65
664.923	15.49
665.249	14.95
665.576	14.8
665.902	15.6
666.228	15.12
666.554	14.63
666.881	15.58
667.207	15.65
667.533	15.54
667.859	15.63
668.185	16
668.511	16.72
668.837	15.31
669.162	15.59
669.488	15.32
669.814	15.62
670.139	16.17
670.465	16.36
670.791	16.32
671.116	15.85
671.442	16.49
671.767	15.27
672.092	16.63
672.418	16.41
672.743	15.89
673.068	16.02
673.393	16.05
673.718	16.23
674.043	16.28
674.368	16.25
674.693	15.92
675.018	16.62
675.343	16.89
675.667	16.52
675.992	16.04
676.317	16.92
676.641	16.04
676.966	16.62
677.29	15.89
677.615	16.61
677.939	16.63
678.264	16.75
678.588	16.48
678.912	16.59
679.236	16.71
679.56	16.96
679.885	16.96
680.209	17.19
680.532	16.34
680.856	16.64
681.18	17.4
681.504	17.01
681.828	17.14
682.152	17.05
682.475	17.54
682.799	17.72
683.122	17.11
683.446	17.31
683.769	16.66
684.093	17.48
684.416	16.72
684.739	17.61
685.062	17.97
685.386	17.69
685.709	17.21
686.032	16.94
686.355	16.7
686.678	17.51
