Data from 0220_forehead_Reflection__4__234.txt Node

Date: Fri Sep 22 22:40:58 CDT 2023
User: ToomeyLab
Spectrometer: FLMS14357
Trigger mode: 0
Integration Time (sec): 1.000000E-2
Scans to average: 100
Electric dark correction enabled: true
Nonlinearity correction enabled: false
Boxcar width: 0
XAxis mode: Wavelengths
Number of Pixels in Spectrum: 2048
>>>>>Begin Spectral Data<<<<<
189.047	29.84
189.435	29.84
189.823	29.84
190.211	-612.18
190.599	98.48
190.987	-11.12
191.375	91.37
191.763	136.54
192.151	41.39
192.538	-100.51
192.926	71.16
193.314	1820.73
193.702	119.44
194.089	179.43
194.477	-32.59
194.864	318.84
195.252	233.08
195.639	92.78
196.027	58.69
196.414	-118.79
196.801	146.13
197.189	-173.65
197.576	69.26
197.963	5.83
198.351	52.53
198.738	38.73
199.125	37.38
199.512	25.83
199.899	48.5
200.286	31.76
200.673	17.86
201.06	40.78
201.447	55.64
201.833	6.6
202.22	38.61
202.607	51.14
202.994	48.89
203.38	37.01
203.767	55.24
204.154	66.09
204.54	60.65
204.927	23.93
205.313	36.14
205.699	58.55
206.086	40.13
206.472	76.54
206.858	71.41
207.245	2.08
207.631	46.52
208.017	46.16
208.403	48.68
208.789	31.99
209.175	28.78
209.561	43.13
209.947	47.76
210.333	46.2
210.719	-0.08
211.105	49.61
211.491	14.54
211.876	49.37
212.262	19.35
212.648	25.27
213.034	35.07
213.419	25.66
213.805	17.79
214.19	0.03
214.576	-0.27
214.961	51.3
215.346	27.21
215.732	31.14
216.117	-8.5
216.502	44.11
216.888	13.62
217.273	24.66
217.658	22.41
218.043	33.43
218.428	36.24
218.813	31.13
219.198	19.42
219.583	29.69
219.968	14.69
220.353	22.43
220.738	-20.45
221.122	29.07
221.507	7.71
221.892	14.44
222.276	38.87
222.661	-10.98
223.046	32.1
223.43	33.36
223.815	10.6
224.199	-9.83
224.583	13.82
224.968	19.07
225.352	1.02
225.736	10.12
226.121	12.48
226.505	5.26
226.889	8.45
227.273	7.55
227.657	2.85
228.041	8.2
228.425	6.83
228.809	10.85
229.193	8.41
229.577	6.85
229.961	7.63
230.344	6.23
230.728	2.53
231.112	2.67
231.495	2.4
231.879	3.9
232.263	2.28
232.646	3.76
233.03	1.91
233.413	5.27
233.797	4.62
234.18	4.31
234.563	5.26
234.946	5.58
235.33	2.49
235.713	4.32
236.096	4.33
236.479	3.75
236.862	5.77
237.245	4.11
237.628	6.04
238.011	6.17
238.394	4.33
238.777	5.36
239.16	5.02
239.543	6.18
239.925	6.74
240.308	3.47
240.691	4.74
241.073	5.86
241.456	4.97
241.838	4.02
242.221	4.17
242.603	3.93
242.986	3.64
243.368	3.88
243.75	3.7
244.133	3.63
244.515	3.6
244.897	3.14
245.279	3.31
245.661	3.28
246.043	4.33
246.425	3.54
246.807	4.5
247.189	2.47
247.571	3.53
247.953	3.64
248.335	3.94
248.717	3.37
249.098	3.49
249.48	3.18
249.862	3.35
250.243	3.44
250.625	3.74
251.006	3.35
251.388	3.98
251.769	4.53
252.151	4.11
252.532	3.51
252.913	4.85
253.295	3.97
253.676	4.06
254.057	4.07
254.438	4.24
254.819	3.55
255.2	4.03
255.581	4.15
255.962	4.43
256.343	3.82
256.724	3.02
257.105	4.47
257.486	5.04
257.867	4.05
258.247	4.45
258.628	4.67
259.009	3.66
259.389	3.43
259.77	4.63
260.15	4.71
260.531	3.48
260.911	3.74
261.292	3.65
261.672	3.21
262.052	3.77
262.432	3.59
262.813	3.69
263.193	3.42
263.573	4.42
263.953	4.12
264.333	3.61
264.713	4.05
265.093	3.99
265.473	3.6
265.853	3.28
266.233	3.87
266.612	3.29
266.992	4.54
267.372	3.55
267.752	3.76
268.131	3.54
268.511	3.49
268.89	4.07
269.27	3.59
269.649	4
270.029	3.48
270.408	3.9
270.787	3.79
271.167	3.84
271.546	3.58
271.925	3.96
272.304	3.29
272.683	4.61
273.062	4.24
273.441	3.75
273.82	3.86
274.199	3.81
274.578	4.11
274.957	3.63
275.336	3.57
275.715	4.08
276.093	3.3
276.472	3.13
276.851	3.37
277.229	2.92
277.608	3.92
277.986	3.57
278.365	3.39
278.743	3.37
279.122	3.75
279.5	4.11
279.878	3.84
280.257	4.14
280.635	3.52
281.013	4.24
281.391	3.99
281.769	3.78
282.147	3.75
282.525	4.19
282.903	4.18
283.281	4.44
283.659	3.84
284.037	3.37
284.415	3.57
284.792	3.47
285.17	4.17
285.548	4.13
285.925	3.88
286.303	3.83
286.68	3.25
287.058	3.46
287.435	3.77
287.813	3.98
288.19	3.56
288.567	3.59
288.945	3.88
289.322	3.7
289.699	4.11
290.076	3.91
290.453	3.75
290.83	3.54
291.207	3.71
291.584	4.05
291.961	4.08
292.338	4
292.715	4.31
293.092	4
293.469	3.93
293.845	4.51
294.222	4.59
294.599	4.73
294.975	4.94
295.352	3.84
295.728	5.15
296.105	4.67
296.481	4.8
296.858	4.48
297.234	4.48
297.61	4.46
297.986	4.52
298.363	4.66
298.739	4.43
299.115	4.79
299.491	4.84
299.867	4.93
300.243	4.55
300.619	4.85
300.995	4.52
301.371	5.31
301.746	5.31
302.122	5.2
302.498	4.78
302.874	4.97
303.249	4.9
303.625	5.03
304	5.21
304.376	5.74
304.751	5.87
305.127	5.62
305.502	5.9
305.878	5.38
306.253	5.58
306.628	5.34
307.003	5.75
307.378	5.38
307.754	5.67
308.129	5.83
308.504	5.68
308.879	5.94
309.254	6.32
309.629	5.83
310.003	6.42
310.378	6.13
310.753	5.85
311.128	6.24
311.502	6.24
311.877	5.99
312.252	5.91
312.626	6.38
313.001	6.67
313.375	6.39
313.75	6.57
314.124	6.82
314.498	5.9
314.873	6.89
315.247	7.22
315.621	6.85
315.995	6.89
316.369	6.71
316.743	6.4
317.117	6.99
317.491	7.66
317.865	6.46
318.239	7
318.613	7.23
318.987	7.03
319.361	6.78
319.734	6.98
320.108	7.18
320.482	6.94
320.855	6.76
321.229	7.77
321.602	7.8
321.976	7.57
322.349	7.52
322.723	8.29
323.096	7.85
323.469	7.74
323.843	7.78
324.216	8.28
324.589	8.51
324.962	7.09
325.335	8.47
325.708	7.86
326.081	8.79
326.454	7.96
326.827	8.5
327.2	8.24
327.573	8.83
327.945	8.4
328.318	8.47
328.691	8.55
329.063	8.29
329.436	8.12
329.809	8.4
330.181	8.69
330.553	8.77
330.926	8.63
331.298	8.99
331.671	8.89
332.043	8.18
332.415	8.95
332.787	9.06
333.159	9.02
333.532	8.75
333.904	9.02
334.276	9.22
334.648	8.09
335.02	9.28
335.391	9.27
335.763	9.71
336.135	9.04
336.507	9.5
336.879	8.8
337.25	9.63
337.622	9.87
337.993	9.61
338.365	9.82
338.736	9.62
339.108	9.73
339.479	9.75
339.851	9.56
340.222	9.73
340.593	9.02
340.964	9.61
341.336	10.02
341.707	9.61
342.078	9.89
342.449	10.05
342.82	9.7
343.191	9.79
343.562	9.99
343.933	10.42
344.303	10.02
344.674	10.84
345.045	10.38
345.416	10.18
345.786	10.59
346.157	10.35
346.527	10.46
346.898	10.04
347.268	10.5
347.639	10.7
348.009	10.26
348.38	11.15
348.75	10.87
349.12	10.8
349.49	11.37
349.861	10.99
350.231	11.58
350.601	11.49
350.971	11.53
351.341	11.21
351.711	10.99
352.081	10.93
352.45	10.93
352.82	11.29
353.19	11.83
353.56	11.13
353.929	11.73
354.299	11.52
354.669	11.61
355.038	11.87
355.408	11.53
355.777	11.87
356.147	11.8
356.516	12.06
356.885	12.06
357.254	12.21
357.624	11.53
357.993	11.78
358.362	12.17
358.731	11.65
359.1	12.02
359.469	12.19
359.838	11.64
360.207	11.82
360.576	12.22
360.945	12.32
361.314	12.4
361.682	12.57
362.051	12.65
362.42	12.23
362.788	12.08
363.157	12.92
363.525	12.47
363.894	12.43
364.262	12.35
364.631	12.8
364.999	12.63
365.367	12.67
365.735	12.77
366.104	12.89
366.472	13.43
366.84	12.93
367.208	13.11
367.576	13.08
367.944	13.32
368.312	13.08
368.68	13.37
369.048	13.41
369.416	13.3
369.783	13.22
370.151	13.15
370.519	13.98
370.886	13.91
371.254	13.99
371.621	13.66
371.989	13.62
372.356	13.62
372.724	14.06
373.091	14
373.458	14.04
373.826	13.77
374.193	14.15
374.56	14.37
374.927	13.93
375.294	14.21
375.661	13.96
376.028	14.5
376.395	14.47
376.762	14.17
377.129	14.89
377.496	14.7
377.863	14.89
378.229	14.66
378.596	14.66
378.963	14.87
379.329	14.45
379.696	14.67
380.062	14.54
380.429	15
380.795	14.99
381.161	14.52
381.528	14.7
381.894	14.87
382.26	15.07
382.626	15.15
382.993	15.15
383.359	14.99
383.725	15.23
384.091	15.25
384.457	15.46
384.823	15.36
385.188	15.76
385.554	15.41
385.92	15.96
386.286	15.67
386.651	15.34
387.017	15.35
387.383	15.6
387.748	15.81
388.114	15.72
388.479	15.8
388.845	15.53
389.21	15.65
389.575	16.22
389.94	15.72
390.306	15.93
390.671	16.32
391.036	15.77
391.401	16.22
391.766	16.29
392.131	16.33
392.496	16.44
392.861	16.61
393.226	16.71
393.591	16.71
393.956	16.33
394.32	16.37
394.685	16.5
395.05	16.7
395.414	16.69
395.779	16.52
396.143	16.78
396.508	16.6
396.872	16.84
397.236	16.91
397.601	17.05
397.965	17.09
398.329	17
398.694	17.22
399.058	17.06
399.422	17.29
399.786	17.37
400.15	17.38
400.514	17.67
400.878	17.35
401.242	17.24
401.605	17.3
401.969	17.2
402.333	17.89
402.697	17.5
403.06	17.67
403.424	17.68
403.787	17.84
404.151	17.95
404.514	17.77
404.878	17.87
405.241	17.9
405.604	18.28
405.968	17.73
406.331	18.12
406.694	17.73
407.057	17.79
407.42	18.2
407.783	17.9
408.146	18.2
408.509	18.12
408.872	18.25
409.235	18.49
409.598	18.5
409.961	18.48
410.323	18.51
410.686	18.79
411.049	18.86
411.411	18.93
411.774	18.39
412.136	18.35
412.499	18.83
412.861	19.03
413.223	18.8
413.586	18.68
413.948	18.87
414.31	18.84
414.672	18.8
415.035	18.96
415.397	19.26
415.759	19.56
416.121	19.32
416.483	19.21
416.845	19.21
417.206	19.25
417.568	19.28
417.93	19.54
418.292	19.2
418.653	19.18
419.015	19.37
419.377	19.34
419.738	19.6
420.1	19.34
420.461	19.4
420.822	19.37
421.184	19.52
421.545	19.32
421.906	19.37
422.267	19.33
422.629	19.55
422.99	19.42
423.351	19.44
423.712	19.34
424.073	19.52
424.434	19.72
424.795	19.64
425.155	19.65
425.516	19.8
425.877	19.75
426.238	19.65
426.598	19.71
426.959	19.85
427.32	19.84
427.68	19.93
428.041	19.97
428.401	20.32
428.761	20.34
429.122	20.35
429.482	20.36
429.842	20.4
430.202	20.41
430.563	20.94
430.923	20.82
431.283	20.95
431.643	20.74
432.003	20.97
432.363	20.97
432.722	21.16
433.082	21.06
433.442	21
433.802	21.12
434.161	21.24
434.521	21.3
434.881	21.32
435.24	21.02
435.6	21.03
435.959	21.03
436.319	21.37
436.678	21.41
437.037	21.46
437.396	21.43
437.756	21.46
438.115	21.53
438.474	21.53
438.833	21.73
439.192	21.58
439.551	21.74
439.91	21.98
440.269	21.88
440.628	21.64
440.987	21.89
441.345	21.78
441.704	21.75
442.063	21.8
442.421	21.67
442.78	21.78
443.138	21.7
443.497	21.73
443.855	22.11
444.214	21.89
444.572	22.3
444.93	22.17
445.288	22.39
445.647	22.45
446.005	22.39
446.363	22.37
446.721	22.34
447.079	22.27
447.437	22.39
447.795	22.39
448.153	22.28
448.51	22.45
448.868	22.37
449.226	22.33
449.584	22.49
449.941	22.38
450.299	22.66
450.656	22.78
451.014	22.8
451.371	22.92
451.729	23.06
452.086	23.11
452.443	23.23
452.801	23.46
453.158	23.29
453.515	23.42
453.872	23.17
454.229	23.14
454.586	23.44
454.943	23.59
455.3	23.44
455.657	23.45
456.014	23.55
456.371	23.64
456.727	23.74
457.084	23.74
457.441	23.84
457.797	23.8
458.154	23.79
458.51	23.74
458.867	24.06
459.223	23.96
459.58	23.93
459.936	24.14
460.292	24.3
460.648	24.07
461.005	24.07
461.361	24
461.717	23.78
462.073	23.82
462.429	23.63
462.785	23.92
463.141	24.22
463.496	24.33
463.852	24.29
464.208	24.36
464.564	24.62
464.919	24.58
465.275	24.87
465.631	25.06
465.986	24.8
466.342	24.93
466.697	24.87
467.052	25.03
467.408	24.87
467.763	25.08
468.118	25.36
468.473	25.25
468.829	25.23
469.184	25.05
469.539	25.14
469.894	25.35
470.249	25.23
470.603	25.16
470.958	25.72
471.313	25.4
471.668	25.68
472.023	25.51
472.377	25.57
472.732	25.61
473.086	25.79
473.441	25.46
473.795	25.72
474.15	25.73
474.504	25.72
474.859	25.96
475.213	25.73
475.567	25.69
475.921	25.78
476.275	26.08
476.63	26.01
476.984	25.91
477.338	26.42
477.692	26.26
478.045	26.25
478.399	26.01
478.753	26.01
479.107	26.12
479.461	26.21
479.814	26.29
480.168	26.13
480.521	26.36
480.875	26.33
481.228	26.3
481.582	26.42
481.935	26.29
482.289	26.47
482.642	26.33
482.995	26.46
483.348	26.48
483.701	26.41
484.055	26.37
484.408	26.35
484.761	26.23
485.114	25.99
485.466	25.78
485.819	25.34
486.172	25.3
486.525	25.41
486.878	25.7
487.23	26.09
487.583	26.23
487.936	26.23
488.288	26.35
488.641	26.31
488.993	26.24
489.345	26.07
489.698	25.85
490.05	25.99
490.402	26.11
490.754	26.24
491.107	26.43
491.459	26.66
491.811	26.84
492.163	26.84
492.515	27.05
492.866	27.16
493.218	26.87
493.57	26.67
493.922	26.35
494.274	26.62
494.625	26.79
494.977	27.12
495.328	27.42
495.68	27.5
496.031	27.66
496.383	27.91
496.734	28.03
497.086	28.06
497.437	28.22
497.788	27.98
498.139	28.16
498.49	28.14
498.842	28.03
499.193	27.89
499.544	27.95
499.894	28
500.245	28.14
500.596	28.21
500.947	28.33
501.298	28.3
501.648	28.4
501.999	28.55
502.35	28.6
502.7	28.8
503.051	28.81
503.401	28.78
503.752	28.8
504.102	28.92
504.452	28.98
504.803	28.96
505.153	28.96
505.503	29.04
505.853	29.22
506.203	29.05
506.553	29.24
506.903	29.02
507.253	29.07
507.603	29.25
507.953	29.32
508.303	29.2
508.652	29.3
509.002	29.34
509.352	29.31
509.701	29.51
510.051	29.35
510.4	29.35
510.75	29.52
511.099	29.33
511.449	29.49
511.798	29.46
512.147	29.45
512.496	29.56
512.846	29.54
513.195	29.56
513.544	29.64
513.893	29.65
514.242	29.67
514.591	29.64
514.939	29.7
515.288	29.63
515.637	29.86
515.986	29.78
516.334	30.02
516.683	30.25
517.032	30.23
517.38	30.12
517.729	30.12
518.077	30.3
518.426	30.24
518.774	30.49
519.122	30.3
519.47	30.2
519.819	30.05
520.167	30.18
520.515	30.11
520.863	29.98
521.211	29.89
521.559	30.18
521.907	30.28
522.255	30.24
522.602	30.4
522.95	30.52
523.298	30.62
523.645	30.76
523.993	30.62
524.341	30.85
524.688	30.89
525.036	30.97
525.383	30.97
525.73	30.96
526.078	30.8
526.425	30.98
526.772	31.02
527.119	30.85
527.466	30.61
527.814	30.47
528.161	30.43
528.508	30.51
528.854	30.62
529.201	30.69
529.548	30.77
529.895	30.72
530.242	30.39
530.588	29.97
530.935	29.82
531.282	30
531.628	30.4
531.975	30.61
532.321	30.69
532.667	30.88
533.014	31.03
533.36	31.29
533.706	31.25
534.052	31.39
534.399	31.15
534.745	31.3
535.091	30.99
535.437	30.78
535.783	30.69
536.129	30.94
536.474	31.26
536.82	31.52
537.166	31.64
537.512	31.74
537.857	31.76
538.203	31.93
538.549	31.52
538.894	31.6
539.239	31.74
539.585	31.83
539.93	32.24
540.276	32.15
540.621	32.38
540.966	32.15
541.311	32.33
541.656	32.46
542.001	32.48
542.346	32.27
542.691	32.29
543.036	31.93
543.381	31.74
543.726	31.48
544.071	31.56
544.415	31.92
544.76	32.04
545.105	32.11
545.449	32.21
545.794	32.27
546.138	32.36
546.483	32.49
546.827	32.69
547.171	32.86
547.516	32.93
547.86	32.8
548.204	33.04
548.548	32.95
548.892	33.03
549.236	32.84
549.58	33.12
549.924	32.98
550.268	33.34
550.612	33.48
550.956	33.64
551.3	33.61
551.643	33.59
551.987	33.86
552.33	34.05
552.674	33.78
553.017	34.02
553.361	33.85
553.704	34.15
554.048	34.1
554.391	34.05
554.734	34.11
555.077	33.92
555.42	34
555.764	33.93
556.107	34.21
556.45	34.17
556.793	34.38
557.135	34.51
557.478	34.23
557.821	34.51
558.164	34.72
558.507	34.64
558.849	34.56
559.192	34.67
559.534	34.8
559.877	34.94
560.219	34.91
560.562	34.76
560.904	34.88
561.246	35.05
561.589	35.12
561.931	35.43
562.273	35.09
562.615	34.84
562.957	35.16
563.299	35.02
563.641	34.94
563.983	35.01
564.325	35.15
564.667	35.39
565.008	35.45
565.35	35.56
565.692	35.59
566.033	35.49
566.375	35.57
566.716	35.33
567.058	35.35
567.399	35.39
567.741	35.63
568.082	35.29
568.423	35.4
568.764	35.32
569.105	35.17
569.447	35.39
569.788	35.62
570.129	35.79
570.47	35.75
570.811	35.65
571.151	35.78
571.492	35.83
571.833	35.65
572.174	35.71
572.514	35.82
572.855	35.83
573.195	35.95
573.536	35.82
573.876	35.9
574.217	35.6
574.557	35.77
574.898	35.88
575.238	35.8
575.578	36.21
575.918	36.27
576.258	36.04
576.598	36.4
576.938	36.07
577.278	36.26
577.618	36.09
577.958	36.39
578.298	36.34
578.638	36.44
578.977	36.55
579.317	36.41
579.657	36.71
579.996	36.67
580.336	36.61
580.675	36.93
581.014	36.65
581.354	36.95
581.693	37.19
582.032	36.9
582.372	37.36
582.711	37.23
583.05	37.25
583.389	37.27
583.728	37.26
584.067	37.4
584.406	37.42
584.745	37.16
585.083	37.58
585.422	37.44
585.761	37.35
586.1	37.25
586.438	37.74
586.777	37.76
587.115	37.61
587.454	37.42
587.792	37.86
588.13	37.78
588.469	37.73
588.807	37.8
589.145	37.74
589.483	38.2
589.821	38.07
590.159	37.7
590.497	38.28
590.835	37.84
591.173	37.82
591.511	37.99
591.849	38.01
592.187	37.63
592.524	38.13
592.862	38.09
593.2	37.97
593.537	38.21
593.875	38.22
594.212	37.97
594.55	38.48
594.887	38.35
595.224	38.32
595.561	38.32
595.899	38.55
596.236	38.51
596.573	38.29
596.91	38.07
597.247	38.33
597.584	38.71
597.921	38.45
598.258	38.47
598.594	38.62
598.931	38.13
599.268	38.15
599.604	38.14
599.941	38.3
600.277	38.3
600.614	38.57
600.95	38.82
601.287	38.88
601.623	38.84
601.959	39.21
602.296	38.95
602.632	38.67
602.968	38.94
603.304	39.13
603.64	38.86
603.976	39.08
604.312	38.84
604.648	38.92
604.984	39.05
605.319	39.1
605.655	38.94
605.991	38.92
606.326	39.05
606.662	38.81
606.998	38.53
607.333	38.84
607.668	38.81
608.004	39.03
608.339	39.02
608.674	39.69
609.01	39.37
609.345	39.54
609.68	39.96
610.015	39.57
610.35	39.62
610.685	39.79
611.02	39.32
611.355	39.73
611.689	39.41
612.024	39.21
612.359	39.53
612.694	39.34
613.028	39.75
613.363	39.71
613.697	39.84
614.032	40.34
614.366	40.03
614.7	40.05
615.035	40.01
615.369	40.09
615.703	39.85
616.037	40.4
616.371	40.78
616.705	40.39
617.039	40.19
617.373	40.09
617.707	40.46
618.041	40.34
618.375	40.42
618.709	40.46
619.042	40.51
619.376	41.02
619.71	40.83
620.043	40.09
620.377	41
620.71	40.87
621.043	40.17
621.377	40.66
621.71	40.61
622.043	40.67
622.376	40.78
622.709	40.5
623.043	40.63
623.376	40.59
623.709	41.08
624.041	41.13
624.374	41.18
624.707	40.99
625.04	40.94
625.373	40.98
625.705	40.91
626.038	40.8
626.37	41.42
626.703	41.04
627.035	40.99
627.368	41.55
627.7	41.22
628.032	41.41
628.365	41.16
628.697	40.82
629.029	40.89
629.361	41.08
629.693	41.46
630.025	41.23
630.357	41.23
630.689	41.26
631.021	41.56
631.353	41.42
631.684	41.59
632.016	41.73
632.348	41.78
632.679	41.64
633.011	41.68
633.342	41.64
633.674	42.3
634.005	41.46
634.336	41.79
634.668	41.91
634.999	41.88
635.33	41.59
635.661	41.88
635.992	41.58
636.323	41.94
636.654	41.52
636.985	41.5
637.316	41.98
637.647	42.17
637.977	41.55
638.308	42.09
638.639	42.54
638.969	42.56
639.3	42.46
639.63	42.12
639.961	42.09
640.291	42.41
640.622	42.21
640.952	42.17
641.282	42.45
641.612	42.87
641.943	42.44
642.273	42.48
642.603	42.57
642.933	42.66
643.263	42.16
643.592	42.43
643.922	43.04
644.252	42.61
644.582	42.38
644.911	42.7
645.241	42.41
645.571	42.74
645.9	42.62
646.23	42.87
646.559	42.22
646.888	42.64
647.218	42.57
647.547	42.66
647.876	42.68
648.205	42.83
648.534	42.78
648.863	42.87
649.192	42.57
649.521	42.96
649.85	42.73
650.179	42.97
650.508	42.77
650.837	42.7
651.165	43.08
651.494	43.29
651.822	43
652.151	43.37
652.479	43.33
652.808	43.65
653.136	43.79
653.465	43.31
653.793	42.79
654.121	43.03
654.449	43.47
654.777	43.58
655.105	43.88
655.433	43.2
655.761	43.53
656.089	43.09
656.417	42.8
656.745	43.48
657.073	43.7
657.4	43.71
657.728	43.61
658.056	43.8
658.383	43.64
658.711	43.74
659.038	43.2
659.365	43.47
659.693	43.35
660.02	43.97
660.347	44.14
660.674	43.19
661.001	43.02
661.329	43.96
661.656	43.47
661.982	43.63
662.309	43.98
662.636	43.71
662.963	43.48
663.29	44.03
663.616	43.82
663.943	44.67
664.27	44.08
664.596	44.27
664.923	43.57
665.249	44.07
665.576	43.39
665.902	43.99
666.228	44.19
666.554	44.1
666.881	44.72
667.207	44.55
667.533	44.74
667.859	44.45
668.185	43.7
668.511	44.86
668.837	44.12
669.162	44.37
669.488	43.89
669.814	44.43
670.139	44.1
670.465	44.95
670.791	44.41
