Data from 0220_chest_Reflection__1__221.txt Node

Date: Fri Sep 22 22:37:05 CDT 2023
User: ToomeyLab
Spectrometer: FLMS14357
Trigger mode: 0
Integration Time (sec): 1.000000E-2
Scans to average: 100
Electric dark correction enabled: true
Nonlinearity correction enabled: false
Boxcar width: 0
XAxis mode: Wavelengths
Number of Pixels in Spectrum: 2048
>>>>>Begin Spectral Data<<<<<
189.047	-126.7
189.435	-126.7
189.823	-126.7
190.211	282.38
190.599	4.23
190.987	139.43
191.375	115.67
191.763	31.07
192.151	159
192.538	77.87
192.926	53.28
193.314	-329.27
193.702	0.92
194.089	115.8
194.477	112.4
194.864	883.38
195.252	288.19
195.639	41.16
196.027	117.24
196.414	-195.69
196.801	143.31
197.189	-156.61
197.576	35.68
197.963	-92.17
198.351	10.47
198.738	16.48
199.125	-0.31
199.512	12.64
199.899	57.85
200.286	27.33
200.673	30.63
201.06	86.58
201.447	38.25
201.833	-39.08
202.22	76.47
202.607	4.4
202.994	40.94
203.38	20.3
203.767	-9.3
204.154	40.38
204.54	8.67
204.927	18.18
205.313	18.25
205.699	48
206.086	16.45
206.472	66.1
206.858	24.93
207.245	12.11
207.631	28.19
208.017	38.63
208.403	5.1
208.789	8.59
209.175	41.37
209.561	24.3
209.947	43.72
210.333	3.59
210.719	-10.09
211.105	52.51
211.491	27.7
211.876	22.25
212.262	22.93
212.648	40.01
213.034	41.07
213.419	14.41
213.805	10.62
214.19	5.92
214.576	24.35
214.961	8.35
215.346	15.74
215.732	23.76
216.117	18.56
216.502	28.31
216.888	37.17
217.273	21.27
217.658	-9.92
218.043	33.49
218.428	29.87
218.813	-6.07
219.198	-0.65
219.583	15.86
219.968	-14.96
220.353	36.44
220.738	7.08
221.122	5.63
221.507	12.61
221.892	-1.58
222.276	-4.72
222.661	0.23
223.046	12.16
223.43	26.3
223.815	8.24
224.199	-0.95
224.583	14.62
224.968	10.12
225.352	3.13
225.736	6.1
226.121	7.17
226.505	6.05
226.889	7.37
227.273	6.61
227.657	3.73
228.041	4.83
228.425	10.1
228.809	1.93
229.193	2.24
229.577	6.25
229.961	4.95
230.344	5.9
230.728	4.1
231.112	4.41
231.495	4.41
231.879	3.78
232.263	2.74
232.646	6.52
233.03	3.81
233.413	3.25
233.797	4.09
234.18	3.94
234.563	3.61
234.946	4.68
235.33	0.83
235.713	1.75
236.096	4.2
236.479	2.81
236.862	5.2
237.245	4.98
237.628	2.95
238.011	3.63
238.394	3.87
238.777	4.57
239.16	4.31
239.543	5.02
239.925	5.15
240.308	5.11
240.691	4.32
241.073	5.36
241.456	4.05
241.838	4.51
242.221	4.86
242.603	3.47
242.986	3.45
243.368	3.92
243.75	4.54
244.133	4.15
244.515	4.05
244.897	3.67
245.279	3.71
245.661	3.88
246.043	3.61
246.425	3.7
246.807	4.36
247.189	2.24
247.571	4.8
247.953	3.16
248.335	3.84
248.717	4.12
249.098	3.93
249.48	3.6
249.862	3.59
250.243	3.86
250.625	3.96
251.006	3.81
251.388	3.71
251.769	4.09
252.151	3.38
252.532	3.71
252.913	4.41
253.295	4.95
253.676	3.31
254.057	3.43
254.438	4.42
254.819	3.12
255.2	3.69
255.581	3.33
255.962	4.18
256.343	5.16
256.724	2.41
257.105	4.01
257.486	3.93
257.867	3.79
258.247	4.96
258.628	4.11
259.009	3.81
259.389	3.91
259.77	4.34
260.15	5.06
260.531	3.66
260.911	3.79
261.292	3.53
261.672	3.37
262.052	3.51
262.432	3.55
262.813	3.7
263.193	3.16
263.573	3.95
263.953	3.96
264.333	3.48
264.713	3.51
265.093	3.77
265.473	2.79
265.853	3.04
266.233	3.84
266.612	3.98
266.992	4.34
267.372	3.59
267.752	4.31
268.131	3.54
268.511	3.13
268.89	3.93
269.27	3.38
269.649	3.92
270.029	3.45
270.408	3.59
270.787	3.19
271.167	3.47
271.546	3.43
271.925	3.7
272.304	3.6
272.683	3.87
273.062	4.05
273.441	3.89
273.82	3.77
274.199	3.83
274.578	3.88
274.957	3.13
275.336	3.22
275.715	3.33
276.093	3.36
276.472	2.86
276.851	3.83
277.229	3.29
277.608	3.88
277.986	3.03
278.365	4.17
278.743	3.53
279.122	3.75
279.5	3.93
279.878	3.56
280.257	4.1
280.635	3.48
281.013	4.06
281.391	3.95
281.769	3.75
282.147	3.62
282.525	3.84
282.903	3.54
283.281	3.1
283.659	3.5
284.037	2.9
284.415	3.28
284.792	2.89
285.17	3.4
285.548	3.58
285.925	3.06
286.303	3.22
286.68	3.35
287.058	3.14
287.435	3.42
287.813	3.36
288.19	3.22
288.567	3.52
288.945	3.35
289.322	3.28
289.699	3.62
290.076	3.58
290.453	3.08
290.83	3.09
291.207	3.14
291.584	3.22
291.961	3.34
292.338	3.73
292.715	3.69
293.092	3.31
293.469	3.5
293.845	3.43
294.222	3.57
294.599	3.95
294.975	3.74
295.352	3.75
295.728	3.3
296.105	3.96
296.481	3.71
296.858	3.52
297.234	3.73
297.61	3.57
297.986	3.59
298.363	3.52
298.739	3.28
299.115	3.66
299.491	3.62
299.867	3.37
300.243	3.3
300.619	3.56
300.995	3.25
301.371	3.64
301.746	3.76
302.122	3.57
302.498	3.52
302.874	3.67
303.249	3.46
303.625	3.58
304	3.59
304.376	4.03
304.751	3.58
305.127	4.01
305.502	4.32
305.878	3.46
306.253	3.6
306.628	3.29
307.003	3.69
307.378	3.65
307.754	3.62
308.129	3.71
308.504	3.58
308.879	3.85
309.254	3.81
309.629	3.42
310.003	4.05
310.378	3.87
310.753	3.37
311.128	3.68
311.502	4.15
311.877	3.13
312.252	3.54
312.626	3.47
313.001	4.24
313.375	3.81
313.75	3.49
314.124	4.2
314.498	3.42
314.873	3.62
315.247	4.22
315.621	3.91
315.995	4.03
316.369	3.62
316.743	3.86
317.117	3.68
317.491	4.25
317.865	3.53
318.239	3.97
318.613	3.2
318.987	3.51
319.361	3.52
319.734	3.53
320.108	4.15
320.482	3.54
320.855	3.42
321.229	4.38
321.602	4.14
321.976	3.22
322.349	3.53
322.723	3.66
323.096	3.46
323.469	3.81
323.843	3.61
324.216	3.84
324.589	4.04
324.962	3.05
325.335	3.63
325.708	3.43
326.081	4
326.454	3.36
326.827	3.39
327.2	3.57
327.573	4.11
327.945	4.01
328.318	4.08
328.691	3.77
329.063	3.51
329.436	3.59
329.809	3.85
330.181	3.95
330.553	3.54
330.926	3.44
331.298	3.7
331.671	4
332.043	3.54
332.415	3.85
332.787	3.83
333.159	3.24
333.532	3.14
333.904	3.66
334.276	2.82
334.648	3.23
335.02	3.44
335.391	3.96
335.763	4.34
336.135	3.76
336.507	4.27
336.879	3.49
337.25	3.72
337.622	4.24
337.993	3.39
338.365	3.72
338.736	3.74
339.108	3.97
339.479	3.56
339.851	3.43
340.222	3.61
340.593	3.43
340.964	3.53
341.336	3.6
341.707	3.17
342.078	3.57
342.449	3.79
342.82	3.48
343.191	3.27
343.562	3.2
343.933	3.58
344.303	3.51
344.674	4.07
345.045	4
345.416	4.07
345.786	3.63
346.157	3.58
346.527	3.51
346.898	3.58
347.268	3.38
347.639	3.27
348.009	3.85
348.38	3.73
348.75	3.8
349.12	3.78
349.49	4.26
349.861	3.36
350.231	4
350.601	4.27
350.971	4.05
351.341	3.38
351.711	3.47
352.081	3.66
352.45	3.43
352.82	3.83
353.19	3.98
353.56	3.59
353.929	3.89
354.299	4.02
354.669	3.3
355.038	3.52
355.408	3.64
355.777	3.9
356.147	3.64
356.516	3.92
356.885	3.89
357.254	3.69
357.624	3.47
357.993	3.52
358.362	3.82
358.731	3.26
359.1	3.79
359.469	3.74
359.838	3.51
360.207	3.76
360.576	3.67
360.945	3.59
361.314	3.67
361.682	3.95
362.051	3.96
362.42	3.66
362.788	3.35
363.157	3.59
363.525	3.69
363.894	3.73
364.262	3.43
364.631	3.63
364.999	3.57
365.367	3.8
365.735	3.55
366.104	3.66
366.472	3.67
366.84	3.52
367.208	4.04
367.576	4.08
367.944	3.62
368.312	4.22
368.68	3.73
369.048	3.96
369.416	3.6
369.783	3.47
370.151	3.58
370.519	3.7
370.886	3.57
371.254	4.07
371.621	3.64
371.989	3.5
372.356	3.55
372.724	3.95
373.091	3.92
373.458	3.86
373.826	4.17
374.193	3.77
374.56	3.92
374.927	3.74
375.294	3.73
375.661	3.39
376.028	3.75
376.395	3.93
376.762	3.47
377.129	3.63
377.496	4.13
377.863	3.9
378.229	3.81
378.596	4.1
378.963	3.87
379.329	3.83
379.696	3.9
380.062	3.59
380.429	3.89
380.795	3.81
381.161	3.7
381.528	3.79
381.894	3.53
382.26	3.48
382.626	3.35
382.993	3.99
383.359	3.62
383.725	3.75
384.091	3.95
384.457	3.71
384.823	3.7
385.188	3.72
385.554	3.91
385.92	4.03
386.286	3.8
386.651	3.62
387.017	3.87
387.383	3.42
387.748	3.72
388.114	3.67
388.479	3.85
388.845	3.49
389.21	3.53
389.575	4.09
389.94	3.43
390.306	3.89
390.671	3.79
391.036	3.34
391.401	4.08
391.766	3.49
392.131	3.6
392.496	3.91
392.861	3.73
393.226	4.06
393.591	4.05
393.956	3.86
394.32	3.69
394.685	3.75
395.05	3.9
395.414	3.93
395.779	3.93
396.143	3.68
396.508	3.72
396.872	3.65
397.236	3.87
397.601	3.56
397.965	3.9
398.329	3.72
398.694	3.86
399.058	3.89
399.422	3.71
399.786	3.92
400.15	3.9
400.514	3.84
400.878	3.64
401.242	3.99
401.605	3.66
401.969	3.67
402.333	3.77
402.697	3.58
403.06	3.74
403.424	3.91
403.787	4.03
404.151	3.86
404.514	4.18
404.878	4.1
405.241	4.15
405.604	4.03
405.968	3.93
406.331	3.84
406.694	3.98
407.057	3.75
407.42	3.9
407.783	3.85
408.146	3.97
408.509	3.91
408.872	3.76
409.235	3.87
409.598	3.77
409.961	4.02
410.323	4.04
410.686	3.99
411.049	4.05
411.411	3.9
411.774	3.89
412.136	3.77
412.499	3.96
412.861	4
413.223	4.03
413.586	3.9
413.948	3.78
414.31	3.79
414.672	3.78
415.035	3.81
415.397	4.35
415.759	4.22
416.121	3.79
416.483	3.91
416.845	3.89
417.206	3.75
417.568	4.08
417.93	3.73
418.292	3.92
418.653	3.77
419.015	3.99
419.377	3.77
419.738	3.85
420.1	3.55
420.461	3.85
420.822	3.87
421.184	3.74
421.545	3.85
421.906	3.77
422.267	3.74
422.629	3.91
422.99	3.78
423.351	3.72
423.712	3.8
424.073	3.81
424.434	3.83
424.795	3.75
425.155	3.91
425.516	3.71
425.877	3.78
426.238	3.73
426.598	3.82
426.959	3.82
427.32	3.8
427.68	3.69
428.041	3.68
428.401	3.84
428.761	4.01
429.122	3.83
429.482	3.97
429.842	3.79
430.202	3.9
430.563	3.89
430.923	3.91
431.283	3.96
431.643	3.92
432.003	3.99
432.363	4.02
432.722	3.99
433.082	3.95
433.442	3.92
433.802	4
434.161	3.88
434.521	3.98
434.881	4.09
435.24	3.91
435.6	3.89
435.959	3.96
436.319	4.01
436.678	4.09
437.037	4.11
437.396	3.94
437.756	3.99
438.115	4.07
438.474	3.93
438.833	4.11
439.192	4.01
439.551	3.96
439.91	3.92
440.269	3.97
440.628	3.94
440.987	3.96
441.345	3.88
441.704	4.12
442.063	4
442.421	4.02
442.78	4.12
443.138	3.93
443.497	3.98
443.855	3.93
444.214	3.76
444.572	4.06
444.93	4.01
445.288	4.01
445.647	4.22
446.005	4.13
446.363	3.95
446.721	3.94
447.079	3.96
447.437	4.02
447.795	4.05
448.153	3.82
448.51	3.97
448.868	4.02
449.226	4.06
449.584	3.96
449.941	3.92
450.299	4.07
450.656	4.17
451.014	4.09
451.371	4.03
451.729	4.1
452.086	3.93
452.443	4.1
452.801	4.01
453.158	4.12
453.515	4.14
453.872	3.98
454.229	4.24
454.586	4.13
454.943	4.09
455.3	4.05
455.657	4.12
456.014	4.13
456.371	4.07
456.727	4.34
457.084	4.08
457.441	4.16
457.797	4.1
458.154	4.15
458.51	3.98
458.867	3.99
459.223	4.23
459.58	4.25
459.936	4.25
460.292	4.21
460.648	4.26
461.005	4.06
461.361	4.09
461.717	3.99
462.073	4.02
462.429	3.93
462.785	4.07
463.141	4.02
463.496	4.15
463.852	4.1
464.208	4.22
464.564	4.24
464.919	4.14
465.275	4.37
465.631	4.31
465.986	4.36
466.342	4.14
466.697	4.29
467.052	4.21
467.408	4.26
467.763	4.05
468.118	4.34
468.473	4.12
468.829	4.31
469.184	4.3
469.539	4.24
469.894	4.22
470.249	4.38
470.603	4.25
470.958	4.27
471.313	4.27
471.668	4.34
472.023	4.29
472.377	4.17
472.732	4.31
473.086	4.45
473.441	4.05
473.795	4.45
474.15	4.09
474.504	4.16
474.859	4.41
475.213	4.26
475.567	4.22
475.921	4.35
476.275	4.32
476.63	4.26
476.984	4.24
477.338	4.48
477.692	4.24
478.045	4.47
478.399	4.29
478.753	4.37
479.107	4.25
479.461	4.11
479.814	4.39
480.168	4.32
480.521	4.5
480.875	4.55
481.228	4.31
481.582	4.28
481.935	4.35
482.289	4.26
482.642	4.28
482.995	4.38
483.348	4.24
483.701	4.28
484.055	4.23
484.408	4.29
484.761	4.36
485.114	4.17
485.466	4.11
485.819	4.08
486.172	4.05
486.525	4.04
486.878	4.08
487.23	4.14
487.583	4.19
487.936	4.3
488.288	4.29
488.641	4.24
488.993	4.2
489.345	4.15
489.698	4.18
490.05	4.17
490.402	4.16
490.754	4.11
491.107	4.19
491.459	4.3
491.811	4.3
492.163	4.34
492.515	4.39
492.866	4.36
493.218	4.35
493.57	4.37
493.922	4.23
494.274	4.23
494.625	4.25
494.977	4.39
495.328	4.4
495.68	4.42
496.031	4.48
496.383	4.42
496.734	4.46
497.086	4.45
497.437	4.42
497.788	4.5
498.139	4.62
498.49	4.65
498.842	4.39
499.193	4.42
499.544	4.52
499.894	4.55
500.245	4.52
500.596	4.55
500.947	4.58
501.298	4.54
501.648	4.5
501.999	4.73
502.35	4.58
502.7	4.7
503.051	4.66
503.401	4.6
503.752	4.73
504.102	4.73
504.452	4.48
504.803	4.53
505.153	4.61
505.503	4.62
505.853	4.79
506.203	4.6
506.553	4.77
506.903	4.71
507.253	4.67
507.603	4.72
507.953	4.73
508.303	4.7
508.652	4.65
509.002	4.79
509.352	4.69
509.701	4.73
510.051	4.7
510.4	4.72
510.75	4.73
511.099	4.59
511.449	4.7
511.798	4.65
512.147	4.85
512.496	4.75
512.846	4.73
513.195	4.73
513.544	4.69
513.893	4.87
514.242	4.71
514.591	4.85
514.939	4.8
515.288	4.72
515.637	4.8
515.986	4.66
516.334	4.87
516.683	4.82
517.032	4.94
517.38	4.98
517.729	4.84
518.077	4.92
518.426	4.93
518.774	4.81
519.122	4.81
519.47	4.78
519.819	4.78
520.167	4.86
520.515	4.86
520.863	4.74
521.211	4.85
521.559	4.87
521.907	4.85
522.255	4.93
522.602	4.9
522.95	4.96
523.298	5.01
523.645	5.01
523.993	5.02
524.341	4.85
524.688	4.95
525.036	5.01
525.383	4.96
525.73	5.1
526.078	4.87
526.425	4.96
526.772	5.15
527.119	5
527.466	4.89
527.814	4.86
528.161	4.89
528.508	4.94
528.854	4.98
529.201	5.1
529.548	5.04
529.895	4.93
530.242	4.88
530.588	4.86
530.935	4.75
531.282	4.8
531.628	4.92
531.975	4.91
532.321	4.96
532.667	4.98
533.014	5.03
533.36	5.12
533.706	5.1
534.052	5.14
534.399	5.23
534.745	5.24
535.091	5
535.437	5.03
535.783	4.99
536.129	5.1
536.474	5.18
536.82	5.09
537.166	5.31
537.512	5.25
537.857	5.24
538.203	5.36
538.549	5.2
538.894	5.16
539.239	5.16
539.585	5.19
539.93	5.37
540.276	5.32
540.621	5.35
540.966	5.39
541.311	5.43
541.656	5.29
542.001	5.35
542.346	5.39
542.691	5.43
543.036	5.3
543.381	5.28
543.726	5.17
544.071	5.24
544.415	5.29
544.76	5.32
545.105	5.32
545.449	5.31
545.794	5.36
546.138	5.4
546.483	5.48
546.827	5.43
547.171	5.53
547.516	5.61
547.86	5.62
548.204	5.55
548.548	5.56
548.892	5.65
549.236	5.61
549.58	5.59
549.924	5.8
550.268	5.8
550.612	5.8
550.956	5.85
551.3	5.72
551.643	5.77
551.987	5.79
552.33	5.96
552.674	5.7
553.017	5.64
553.361	5.67
553.704	6.08
554.048	6.01
554.391	5.89
554.734	6.01
555.077	5.89
555.42	5.88
555.764	6.09
556.107	5.86
556.45	5.97
556.793	6.09
557.135	6.1
557.478	6.07
557.821	6.11
558.164	6.28
558.507	6.29
558.849	6.17
559.192	6.01
559.534	6.07
559.877	6.2
560.219	6.17
560.562	6.27
560.904	6.38
561.246	6.21
561.589	6.23
561.931	6.27
562.273	6.25
562.615	6.13
562.957	6.15
563.299	6.33
563.641	6.35
563.983	6.59
564.325	6.45
564.667	6.47
565.008	6.3
565.35	6.42
565.692	6.38
566.033	6.51
566.375	6.47
566.716	6.6
567.058	6.55
567.399	6.48
567.741	6.75
568.082	6.42
568.423	6.39
568.764	6.64
569.105	6.43
569.447	6.6
569.788	6.45
570.129	6.55
570.47	6.75
570.811	6.57
571.151	6.76
571.492	6.56
571.833	6.49
572.174	6.69
572.514	6.62
572.855	6.62
573.195	6.68
573.536	6.76
573.876	6.61
574.217	6.72
574.557	6.76
574.898	6.97
575.238	6.88
575.578	6.95
575.918	6.88
576.258	6.81
576.598	7
576.938	6.94
577.278	7.11
577.618	6.7
577.958	6.99
578.298	7.08
578.638	6.93
578.977	6.99
579.317	7.01
579.657	7.1
579.996	7.18
580.336	7.3
580.675	7.24
581.014	7.11
581.354	7.08
581.693	7.4
582.032	6.85
582.372	7.29
582.711	7.08
583.05	7.22
583.389	7.35
583.728	7.27
584.067	7.38
584.406	7.46
584.745	7.18
585.083	7.42
585.422	7.84
585.761	7.42
586.1	7.52
586.438	7.49
586.777	7.49
587.115	7.62
587.454	7.44
587.792	7.61
588.13	7.73
588.469	7.65
588.807	7.71
589.145	7.76
589.483	7.66
589.821	7.63
590.159	7.52
590.497	7.97
590.835	7.88
591.173	7.92
591.511	7.75
591.849	7.89
592.187	7.74
592.524	7.87
592.862	7.98
593.2	7.82
593.537	7.78
593.875	7.97
594.212	8.09
594.55	8.25
594.887	7.99
595.224	8.21
595.561	8.18
595.899	8.18
596.236	8.38
596.573	8.09
596.91	8.32
597.247	8.11
597.584	8.33
597.921	8.24
598.258	8.39
598.594	8.5
598.931	8.22
599.268	8.15
599.604	8.2
599.941	8.34
600.277	8.13
600.614	8.46
600.95	8.35
601.287	8.38
601.623	8.49
601.959	8.67
602.296	8.35
602.632	8.43
602.968	8.63
603.304	8.68
603.64	8.36
603.976	8.62
604.312	8.56
604.648	8.85
604.984	8.77
605.319	8.64
605.655	8.7
605.991	8.85
606.326	8.82
606.662	8.74
606.998	8.69
607.333	8.86
607.668	8.56
608.004	8.95
608.339	8.87
608.674	9.02
609.01	8.98
609.345	8.9
609.68	9.41
610.015	9.01
610.35	8.91
610.685	9.46
611.02	9.09
611.355	9.25
611.689	9.12
612.024	9.01
612.359	9.1
612.694	9.24
613.028	9.15
613.363	9.06
613.697	9.28
614.032	9.12
614.366	8.96
614.7	9.08
615.035	9.21
615.369	9.37
615.703	9.15
616.037	9.72
616.371	9.8
616.705	9.84
617.039	9.35
617.373	9.56
617.707	9.51
618.041	9.77
618.375	9.5
618.709	9.58
619.042	10.29
619.376	10.04
619.71	10.01
620.043	9.86
620.377	9.36
620.71	9.75
621.043	10
621.377	9.61
621.71	9.85
622.043	9.78
622.376	10.02
622.709	9.9
623.043	9.83
623.376	9.91
623.709	10.06
624.041	10.1
624.374	10.37
624.707	9.87
625.04	10.11
625.373	9.82
625.705	10.49
626.038	10.02
626.37	10.12
626.703	10.49
627.035	10.05
627.368	10.27
627.7	10.41
628.032	10.59
628.365	10.34
628.697	10.34
629.029	10.19
629.361	10.46
629.693	10.92
630.025	10.33
630.357	10.23
630.689	10.63
631.021	10.62
631.353	10.74
631.684	10.44
632.016	10.76
632.348	10.81
632.679	10.36
633.011	10.86
633.342	10.74
633.674	11.03
634.005	10.58
634.336	11.01
634.668	10.71
634.999	11.15
635.33	11.1
635.661	11.02
635.992	11.11
636.323	10.86
636.654	11.01
636.985	10.89
637.316	10.99
637.647	11.14
637.977	10.38
638.308	11.48
638.639	11.19
638.969	11.33
639.3	11.18
639.63	11.47
639.961	10.99
640.291	11.37
640.622	11.17
640.952	11.57
641.282	11.55
641.612	11.34
641.943	11.55
642.273	11.56
642.603	11.49
642.933	11.55
643.263	11.2
643.592	11.69
643.922	11.73
644.252	11.23
644.582	11.95
644.911	12.13
645.241	11.89
645.571	11.56
645.9	12.16
646.23	11.96
646.559	11.8
646.888	11.88
647.218	12.24
647.547	11.8
647.876	11.78
648.205	11.44
648.534	12.63
648.863	12.34
649.192	11.67
649.521	12.17
649.85	12.49
650.179	12.28
650.508	11.94
650.837	12.27
651.165	12.05
651.494	12.01
651.822	12.21
652.151	11.81
652.479	11.9
652.808	12.07
653.136	12.77
653.465	12.52
653.793	12.07
654.121	12.86
654.449	12.42
654.777	12.59
655.105	12.66
655.433	12.33
655.761	12.95
656.089	12.09
656.417	12.38
656.745	12.5
657.073	12.72
657.4	12.75
657.728	12.82
658.056	12.94
658.383	12.42
658.711	12.56
659.038	12.68
659.365	12.96
659.693	12.42
660.02	12.82
660.347	13.06
660.674	12.64
661.001	12.84
661.329	12.7
661.656	13.41
661.982	12.93
662.309	13.18
662.636	13.16
662.963	12.98
663.29	13.54
663.616	13.09
663.943	13.38
664.27	13.2
664.596	13.02
664.923	12.72
665.249	13.51
665.576	12.93
665.902	12.94
666.228	12.85
666.554	12.87
666.881	13.62
667.207	13.06
667.533	13.27
667.859	13.6
668.185	13.77
668.511	13.69
668.837	13.44
669.162	13.79
669.488	13.86
669.814	13.57
670.139	13.08
670.465	13.71
670.791	13.35
671.116	13.67
671.442	14.41
671.767	13.36
672.092	14.63
672.418	14.09
672.743	14.08
673.068	14.38
673.393	13.87
673.718	14.04
674.043	14.23
674.368	13.54
674.693	13.75
675.018	14.41
675.343	13.89
675.667	14.14
675.992	13.91
676.317	14.72
676.641	13.86
676.966	13.95
677.29	13.91
677.615	14.18
677.939	14.03
678.264	14.54
678.588	14.92
678.912	14.69
679.236	14.6
679.56	14.99
679.885	14.23
680.209	15.24
680.532	14.56
680.856	13.95
681.18	14.62
681.504	14.33
681.828	14.44
682.152	14.11
682.475	15.84
682.799	14.9
683.122	14.57
683.446	15.13
683.769	14.75
684.093	15.02
684.416	14.58
684.739	15.11
685.062	15.07
685.386	15.13
685.709	14.97
686.032	14.54
686.355	15.08
686.678	15.3
687.001	15.04
687.324	15.35
687.646	15.01
687.969	15.52
688.292	15.73
