Data from 0220_crown_Reflection__0__225.txt Node

Date: Fri Sep 22 22:38:37 CDT 2023
User: ToomeyLab
Spectrometer: FLMS14357
Trigger mode: 0
Integration Time (sec): 1.000000E-2
Scans to average: 100
Electric dark correction enabled: true
Nonlinearity correction enabled: false
Boxcar width: 0
XAxis mode: Wavelengths
Number of Pixels in Spectrum: 2048
>>>>>Begin Spectral Data<<<<<
189.047	-120.03
189.435	-120.03
189.823	-120.03
190.211	526.68
190.599	71.44
190.987	132.37
191.375	179.25
191.763	19.41
192.151	131.65
192.538	-87.41
192.926	121.08
193.314	4976.83
193.702	11.49
194.089	153.75
194.477	-83.09
194.864	294.51
195.252	232.56
195.639	-9.15
196.027	40.96
196.414	-42.81
196.801	-85.69
197.189	68.63
197.576	12.55
197.963	-36.75
198.351	-2.83
198.738	17.79
199.125	-16.99
199.512	-12.45
199.899	63.18
200.286	30.5
200.673	-15.46
201.06	42.17
201.447	45.42
201.833	-17.68
202.22	42.82
202.607	12.32
202.994	55.1
203.38	47.13
203.767	29.27
204.154	28.29
204.54	36.12
204.927	13.74
205.313	42.73
205.699	36.47
206.086	33.12
206.472	36.37
206.858	-5.72
207.245	18.35
207.631	18.32
208.017	28.66
208.403	36.28
208.789	9.65
209.175	31.87
209.561	26.37
209.947	16.29
210.333	58.02
210.719	-16.14
211.105	44.31
211.491	39.31
211.876	32.55
212.262	16.67
212.648	36.98
213.034	34.27
213.419	10.69
213.805	14.4
214.19	-21.02
214.576	6.51
214.961	7.53
215.346	-8.34
215.732	17.28
216.117	13.09
216.502	32.53
216.888	14.68
217.273	31.6
217.658	-13.67
218.043	19.33
218.428	26.31
218.813	-9.6
219.198	32.45
219.583	17.3
219.968	-4.11
220.353	35.65
220.738	-3.73
221.122	-7.16
221.507	-0.3
221.892	9.97
222.276	-16.12
222.661	-35.69
223.046	23.23
223.43	22.96
223.815	14.84
224.199	-6.05
224.583	13.02
224.968	7.35
225.352	-5.35
225.736	16.21
226.121	-0.34
226.505	1.75
226.889	7.39
227.273	3.86
227.657	6.2
228.041	-0.08
228.425	5.21
228.809	3.19
229.193	3.93
229.577	7.08
229.961	8.96
230.344	5.62
230.728	3.67
231.112	5.03
231.495	4.34
231.879	4.88
232.263	2.96
232.646	4.43
233.03	3.6
233.413	4.31
233.797	5.97
234.18	4.1
234.563	4.25
234.946	4.85
235.33	0.65
235.713	1.55
236.096	5.16
236.479	4.86
236.862	6.23
237.245	3.91
237.628	6.06
238.011	6.68
238.394	5.26
238.777	6.31
239.16	3.52
239.543	7
239.925	6.38
240.308	4.83
240.691	5.33
241.073	3.05
241.456	3.71
241.838	2.95
242.221	4.63
242.603	4.88
242.986	3.69
243.368	3.87
243.75	3.85
244.133	4.68
244.515	4.24
244.897	4.1
245.279	4
245.661	3.46
246.043	4.26
246.425	4.55
246.807	5.17
247.189	3.38
247.571	3.99
247.953	4.32
248.335	4.52
248.717	4.14
249.098	4.03
249.48	3.51
249.862	3.86
250.243	3.43
250.625	4.16
251.006	3.94
251.388	4.13
251.769	3.9
252.151	3.01
252.532	3.78
252.913	4.51
253.295	4.24
253.676	3.16
254.057	3.51
254.438	3.83
254.819	3.51
255.2	4.22
255.581	4.1
255.962	5.25
256.343	2.92
256.724	3.28
257.105	4.39
257.486	3.44
257.867	4.33
258.247	4.92
258.628	4.46
259.009	3.24
259.389	4.03
259.77	4.34
260.15	4.45
260.531	3.51
260.911	3.26
261.292	3.16
261.672	3.35
262.052	3.93
262.432	3.55
262.813	3.65
263.193	2.95
263.573	4.27
263.953	3.72
264.333	3.61
264.713	3.13
265.093	3.45
265.473	3.67
265.853	2.99
266.233	3.67
266.612	3.65
266.992	3.97
267.372	3.43
267.752	3.73
268.131	3.87
268.511	2.88
268.89	3.69
269.27	3.47
269.649	3.18
270.029	2.87
270.408	3.64
270.787	3.24
271.167	3.22
271.546	3.41
271.925	3.32
272.304	3.34
272.683	3.72
273.062	3.51
273.441	3.52
273.82	3.8
274.199	3.59
274.578	3.9
274.957	3.03
275.336	2.95
275.715	3.37
276.093	2.95
276.472	3.07
276.851	3.31
277.229	3.2
277.608	3.6
277.986	3.16
278.365	2.96
278.743	3.1
279.122	3.06
279.5	4.1
279.878	2.59
280.257	3.81
280.635	2.93
281.013	3.92
281.391	2.94
281.769	3.35
282.147	3.57
282.525	2.26
282.903	2.99
283.281	3.09
283.659	3.42
284.037	3.18
284.415	3.49
284.792	3.27
285.17	3.47
285.548	3.78
285.925	3.27
286.303	3.1
286.68	2.93
287.058	3
287.435	3.36
287.813	2.89
288.19	2.81
288.567	3.4
288.945	3.18
289.322	3.23
289.699	3.13
290.076	3.07
290.453	3.01
290.83	2.67
291.207	3.04
291.584	2.8
291.961	2.95
292.338	2.99
292.715	3.03
293.092	3.25
293.469	3.17
293.845	2.83
294.222	3.16
294.599	3.8
294.975	3.59
295.352	2.93
295.728	3.05
296.105	3.39
296.481	3.19
296.858	3.02
297.234	2.6
297.61	3.1
297.986	3.56
298.363	2.8
298.739	2.88
299.115	2.92
299.491	3.18
299.867	3.27
300.243	2.59
300.619	2.86
300.995	3.09
301.371	3.46
301.746	3.13
302.122	3.09
302.498	2.88
302.874	2.81
303.249	2.87
303.625	3.09
304	3.43
304.376	3.52
304.751	3.18
305.127	3.05
305.502	2.96
305.878	3.07
306.253	2.9
306.628	3.36
307.003	2.93
307.378	3.07
307.754	2.75
308.129	2.88
308.504	2.74
308.879	2.72
309.254	3.5
309.629	3.18
310.003	3.03
310.378	3.68
310.753	3.23
311.128	3.11
311.502	3.28
311.877	2.72
312.252	2.83
312.626	3.12
313.001	3.19
313.375	3.37
313.75	3.37
314.124	3.56
314.498	2.93
314.873	3.15
315.247	3.35
315.621	3.36
315.995	3.69
316.369	2.88
316.743	3.23
317.117	3.39
317.491	3.22
317.865	3.05
318.239	2.68
318.613	3.53
318.987	3.35
319.361	3
319.734	2.95
320.108	3.71
320.482	2.86
320.855	2.59
321.229	3.38
321.602	3.06
321.976	2.55
322.349	3.42
322.723	3.55
323.096	3.26
323.469	2.95
323.843	3.24
324.216	3.38
324.589	3.33
324.962	3.08
325.335	3.64
325.708	2.87
326.081	3.19
326.454	2.81
326.827	3.47
327.2	3.25
327.573	3.14
327.945	2.96
328.318	3.19
328.691	3.37
329.063	2.98
329.436	3.81
329.809	3.48
330.181	3.44
330.553	3.31
330.926	3.23
331.298	3.3
331.671	3.38
332.043	2.21
332.415	3.26
332.787	3.18
333.159	3.57
333.532	2.77
333.904	2.67
334.276	3.22
334.648	2.77
335.02	3.12
335.391	3.36
335.763	3.21
336.135	3.47
336.507	3.6
336.879	2.79
337.25	3.36
337.622	3.29
337.993	3.55
338.365	3.4
338.736	3.98
339.108	3.21
339.479	3.16
339.851	2.95
340.222	2.83
340.593	3.23
340.964	2.68
341.336	3.18
341.707	2.97
342.078	3.13
342.449	2.71
342.82	2.87
343.191	2.73
343.562	3.1
343.933	3.06
344.303	2.85
344.674	3.53
345.045	3.35
345.416	2.89
345.786	3.02
346.157	3.34
346.527	2.99
346.898	3.07
347.268	3.1
347.639	3.18
348.009	2.81
348.38	3.28
348.75	3.62
349.12	2.65
349.49	3.25
349.861	3.18
350.231	3.32
350.601	3.28
350.971	3.15
351.341	2.97
351.711	3.17
352.081	3.14
352.45	3.09
352.82	3.38
353.19	3.31
353.56	2.71
353.929	3.35
354.299	3.43
354.669	2.68
355.038	3.19
355.408	2.96
355.777	3.13
356.147	3.4
356.516	3.69
356.885	3.26
357.254	3.35
357.624	2.93
357.993	3.12
358.362	3.3
358.731	3.26
359.1	2.96
359.469	3.19
359.838	3.3
360.207	3.17
360.576	3.54
360.945	3.32
361.314	3.6
361.682	3.22
362.051	3.96
362.42	3.17
362.788	3.13
363.157	3.2
363.525	3.25
363.894	3.1
364.262	3.28
364.631	3.26
364.999	3.15
365.367	3.49
365.735	3.48
366.104	3.22
366.472	3.7
366.84	3.13
367.208	3.59
367.576	3.75
367.944	3.57
368.312	3.59
368.68	3.22
369.048	3.2
369.416	3.1
369.783	3.46
370.151	3.3
370.519	3.35
370.886	3.4
371.254	3.83
371.621	3.4
371.989	3.31
372.356	3.21
372.724	3.47
373.091	3.38
373.458	3.44
373.826	3.62
374.193	3.68
374.56	3.78
374.927	3.35
375.294	3.26
375.661	3.09
376.028	3.4
376.395	3.54
376.762	3.5
377.129	3.8
377.496	3.53
377.863	3.55
378.229	3.29
378.596	3.41
378.963	3.97
379.329	3.28
379.696	3.67
380.062	3.12
380.429	3.41
380.795	3.29
381.161	3.28
381.528	3.48
381.894	3.11
382.26	3.25
382.626	3.18
382.993	3.2
383.359	3.29
383.725	3.16
384.091	3.42
384.457	3.28
384.823	3.29
385.188	3.74
385.554	3.4
385.92	3.94
386.286	3.41
386.651	3.47
387.017	3.59
387.383	2.97
387.748	3.37
388.114	3.48
388.479	3.51
388.845	3.34
389.21	3.31
389.575	3.32
389.94	3.12
390.306	3.39
390.671	3.76
391.036	3.35
391.401	3.43
391.766	3.26
392.131	3.46
392.496	3.58
392.861	3.2
393.226	3.62
393.591	3.53
393.956	3.43
394.32	3.31
394.685	3.25
395.05	3.88
395.414	3.73
395.779	3.66
396.143	3.54
396.508	3.7
396.872	3.41
397.236	3.56
397.601	3.41
397.965	3.95
398.329	3.73
398.694	3.53
399.058	3.4
399.422	3.7
399.786	3.75
400.15	3.56
400.514	3.73
400.878	3.47
401.242	3.56
401.605	3.4
401.969	3.19
402.333	3.57
402.697	3.21
403.06	3.74
403.424	3.44
403.787	3.73
404.151	3.65
404.514	3.57
404.878	3.46
405.241	3.49
405.604	3.58
405.968	3.73
406.331	3.73
406.694	3.53
407.057	3.49
407.42	3.58
407.783	3.61
408.146	3.49
408.509	3.33
408.872	3.52
409.235	3.42
409.598	3.38
409.961	3.61
410.323	3.42
410.686	3.55
411.049	3.75
411.411	3.7
411.774	3.35
412.136	3.78
412.499	3.52
412.861	3.46
413.223	3.68
413.586	3.49
413.948	3.66
414.31	3.41
414.672	3.57
415.035	3.45
415.397	3.75
415.759	3.69
416.121	3.41
416.483	3.48
416.845	3.46
417.206	3.43
417.568	3.5
417.93	3.41
418.292	3.58
418.653	3.33
419.015	3.69
419.377	3.36
419.738	3.43
420.1	3.34
420.461	3.41
420.822	3.55
421.184	3.5
421.545	3.38
421.906	3.42
422.267	3.43
422.629	3.52
422.99	3.46
423.351	3.37
423.712	3.39
424.073	3.39
424.434	3.43
424.795	3.44
425.155	3.49
425.516	3.45
425.877	3.37
426.238	3.3
426.598	3.41
426.959	3.4
427.32	3.44
427.68	3.41
428.041	3.43
428.401	3.47
428.761	3.55
429.122	3.47
429.482	3.47
429.842	3.36
430.202	3.45
430.563	3.46
430.923	3.66
431.283	3.57
431.643	3.67
432.003	3.47
432.363	3.76
432.722	3.62
433.082	3.48
433.442	3.36
433.802	3.69
434.161	3.29
434.521	3.54
434.881	3.59
435.24	3.62
435.6	3.39
435.959	3.34
436.319	3.49
436.678	3.62
437.037	3.48
437.396	3.35
437.756	3.59
438.115	3.61
438.474	3.59
438.833	3.56
439.192	3.56
439.551	3.49
439.91	3.57
440.269	3.49
440.628	3.41
440.987	3.33
441.345	3.44
441.704	3.61
442.063	3.58
442.421	3.32
442.78	3.45
443.138	3.54
443.497	3.51
443.855	3.55
444.214	3.29
444.572	3.56
444.93	3.47
445.288	3.45
445.647	3.51
446.005	3.56
446.363	3.43
446.721	3.64
447.079	3.39
447.437	3.34
447.795	3.56
448.153	3.41
448.51	3.46
448.868	3.46
449.226	3.42
449.584	3.43
449.941	3.29
450.299	3.49
450.656	3.51
451.014	3.58
451.371	3.4
451.729	3.58
452.086	3.44
452.443	3.52
452.801	3.53
453.158	3.47
453.515	3.53
453.872	3.58
454.229	3.52
454.586	3.49
454.943	3.39
455.3	3.46
455.657	3.49
456.014	3.6
456.371	3.47
456.727	3.77
457.084	3.49
457.441	3.36
457.797	3.53
458.154	3.54
458.51	3.42
458.867	3.54
459.223	3.53
459.58	3.41
459.936	3.52
460.292	3.56
460.648	3.67
461.005	3.53
461.361	3.56
461.717	3.39
462.073	3.39
462.429	3.35
462.785	3.46
463.141	3.59
463.496	3.54
463.852	3.46
464.208	3.46
464.564	3.69
464.919	3.42
465.275	3.49
465.631	3.75
465.986	3.67
466.342	3.66
466.697	3.74
467.052	3.55
467.408	3.61
467.763	3.58
468.118	3.71
468.473	3.61
468.829	3.45
469.184	3.64
469.539	3.65
469.894	3.55
470.249	3.58
470.603	3.45
470.958	3.63
471.313	3.6
471.668	3.46
472.023	3.48
472.377	3.35
472.732	3.39
473.086	3.8
473.441	3.28
473.795	3.72
474.15	3.37
474.504	3.35
474.859	3.64
475.213	3.41
475.567	3.48
475.921	3.52
476.275	3.44
476.63	3.39
476.984	3.34
477.338	3.5
477.692	3.72
478.045	3.59
478.399	3.65
478.753	3.42
479.107	3.43
479.461	3.37
479.814	3.47
480.168	3.51
480.521	3.5
480.875	3.65
481.228	3.48
481.582	3.36
481.935	3.48
482.289	3.41
482.642	3.37
482.995	3.42
483.348	3.51
483.701	3.4
484.055	3.37
484.408	3.45
484.761	3.43
485.114	3.32
485.466	3.28
485.819	3.21
486.172	3.18
486.525	3.14
486.878	3.21
487.23	3.28
487.583	3.32
487.936	3.35
488.288	3.35
488.641	3.34
488.993	3.24
489.345	3.27
489.698	3.24
490.05	3.26
490.402	3.29
490.754	3.23
491.107	3.23
491.459	3.32
491.811	3.32
492.163	3.39
492.515	3.44
492.866	3.43
493.218	3.34
493.57	3.33
493.922	3.2
494.274	3.25
494.625	3.32
494.977	3.33
495.328	3.46
495.68	3.39
496.031	3.44
496.383	3.53
496.734	3.45
497.086	3.43
497.437	3.38
497.788	3.44
498.139	3.52
498.49	3.6
498.842	3.42
499.193	3.35
499.544	3.5
499.894	3.38
500.245	3.4
500.596	3.42
500.947	3.45
501.298	3.45
501.648	3.49
501.999	3.49
502.35	3.43
502.7	3.46
503.051	3.59
503.401	3.58
503.752	3.34
504.102	3.43
504.452	3.37
504.803	3.49
505.153	3.42
505.503	3.35
505.853	3.5
506.203	3.38
506.553	3.47
506.903	3.3
507.253	3.38
507.603	3.4
507.953	3.39
508.303	3.38
508.652	3.62
509.002	3.49
509.352	3.45
509.701	3.45
510.051	3.36
510.4	3.47
510.75	3.32
511.099	3.26
511.449	3.43
511.798	3.42
512.147	3.34
512.496	3.37
512.846	3.39
513.195	3.32
513.544	3.38
513.893	3.43
514.242	3.3
514.591	3.36
514.939	3.46
515.288	3.3
515.637	3.38
515.986	3.32
516.334	3.32
516.683	3.39
517.032	3.49
517.38	3.44
517.729	3.36
518.077	3.46
518.426	3.39
518.774	3.48
519.122	3.36
519.47	3.27
519.819	3.34
520.167	3.45
520.515	3.37
520.863	3.23
521.211	3.25
521.559	3.28
521.907	3.34
522.255	3.37
522.602	3.34
522.95	3.29
523.298	3.43
523.645	3.39
523.993	3.52
524.341	3.35
524.688	3.36
525.036	3.41
525.383	3.39
525.73	3.42
526.078	3.29
526.425	3.29
526.772	3.41
527.119	3.25
527.466	3.19
527.814	3.1
528.161	3.17
528.508	3.24
528.854	3.22
529.201	3.31
529.548	3.36
529.895	3.24
530.242	3.15
530.588	3.13
530.935	3.02
531.282	3.05
531.628	3.17
531.975	3.14
532.321	3.15
532.667	3.22
533.014	3.21
533.36	3.24
533.706	3.25
534.052	3.31
534.399	3.39
534.745	3.22
535.091	3.13
535.437	3.18
535.783	3.08
536.129	3.17
536.474	3.29
536.82	3.22
537.166	3.33
537.512	3.39
537.857	3.28
538.203	3.27
538.549	3.17
538.894	3.11
539.239	3.14
539.585	3.18
539.93	3.36
540.276	3.27
540.621	3.21
540.966	3.29
541.311	3.38
541.656	3.26
542.001	3.14
542.346	3.21
542.691	3.31
543.036	3.25
543.381	3.1
543.726	3.08
544.071	3.08
544.415	3.15
544.76	3.11
545.105	3.07
545.449	3.09
545.794	3.19
546.138	3.16
546.483	3.23
546.827	3.15
547.171	3.22
547.516	3.29
547.86	3.27
548.204	3.23
548.548	3.22
548.892	3.22
549.236	3.2
549.58	3.21
549.924	3.24
550.268	3.32
550.612	3.23
550.956	3.35
551.3	3.28
551.643	3.34
551.987	3.32
552.33	3.35
552.674	3.31
553.017	3.3
553.361	3.22
553.704	3.39
554.048	3.44
554.391	3.37
554.734	3.34
555.077	3.2
555.42	3.18
555.764	3.27
556.107	3.35
556.45	3.31
556.793	3.24
557.135	3.25
557.478	3.21
557.821	3.35
558.164	3.37
558.507	3.43
558.849	3.14
559.192	3.22
559.534	3.39
559.877	3.35
560.219	3.35
560.562	3.42
560.904	3.35
561.246	3.35
561.589	3.26
561.931	3.24
562.273	3.29
562.615	3.19
562.957	3.22
563.299	3.27
563.641	3.37
563.983	3.3
564.325	3.37
564.667	3.47
565.008	3.24
565.35	3.17
565.692	3.31
566.033	3.24
566.375	3.28
566.716	3.28
567.058	3.31
567.399	3.29
567.741	3.54
568.082	3.16
568.423	3.27
568.764	3.44
569.105	3.05
569.447	3.22
569.788	3.17
570.129	3.3
570.47	3.26
570.811	3.35
571.151	3.19
571.492	3.17
571.833	3
572.174	3.2
572.514	3.26
572.855	3.25
573.195	3.16
573.536	3.19
573.876	3.15
574.217	3.07
574.557	3.04
574.898	3.2
575.238	3.21
575.578	3.28
575.918	3.09
576.258	3.13
576.598	3.21
576.938	3.27
577.278	3.27
577.618	3.13
577.958	3.23
578.298	3.36
578.638	3.13
578.977	3.22
579.317	3.3
579.657	3.25
579.996	3.24
580.336	3.5
580.675	3.34
581.014	3.14
581.354	3.16
581.693	3.35
582.032	3.08
582.372	3.34
582.711	3.25
583.05	3.22
583.389	3.15
583.728	3.27
584.067	3.28
584.406	3.4
584.745	3.08
585.083	3.26
585.422	3.3
585.761	3.08
586.1	3.31
586.438	3.47
586.777	3.41
587.115	3.2
587.454	2.97
587.792	3.39
588.13	3.42
588.469	3.22
588.807	3.28
589.145	3.06
589.483	3.2
589.821	2.93
590.159	3.24
590.497	3.21
590.835	3.13
591.173	3.12
591.511	3.2
591.849	3.4
592.187	3.08
592.524	3.26
592.862	3.08
593.2	3.3
593.537	3.18
593.875	3.33
594.212	3.2
594.55	3.29
594.887	3.06
595.224	3.39
595.561	3.36
595.899	3.52
596.236	3.59
596.573	3.26
596.91	3.38
597.247	3.14
597.584	3.2
597.921	3.41
598.258	3.15
598.594	3.36
598.931	3.18
599.268	3.28
599.604	3.28
599.941	3.23
600.277	3.04
600.614	3.04
600.95	3.34
601.287	3.06
601.623	3.23
601.959	3.37
602.296	3.21
602.632	3.27
602.968	3.45
603.304	3.08
603.64	3.06
603.976	3.11
604.312	3.41
604.648	3.4
604.984	3.38
605.319	2.87
605.655	3.03
605.991	3.2
606.326	3.29
606.662	3.07
606.998	3.05
607.333	3.35
607.668	3.24
608.004	3.37
608.339	3.27
608.674	3.41
609.01	3.42
609.345	3.29
609.68	3.48
610.015	3.25
610.35	3.29
610.685	3.36
611.02	3.13
611.355	3.34
611.689	3.02
612.024	3.24
612.359	3.09
612.694	3.33
613.028	3.21
613.363	3.11
613.697	3.09
614.032	3.26
614.366	3.1
614.7	3.38
615.035	3.1
615.369	3.29
615.703	3.29
616.037	3.44
616.371	3.38
616.705	3.68
617.039	3.29
617.373	3.06
617.707	3.22
618.041	3.32
618.375	3.27
618.709	2.92
619.042	3.23
619.376	3.67
619.71	3.34
620.043	3.17
620.377	3.05
620.71	3.4
621.043	3.35
621.377	3.06
621.71	3.33
622.043	3.55
622.376	3.56
622.709	3.22
623.043	3.39
623.376	3.38
623.709	3.23
624.041	3.07
624.374	3.24
624.707	3.59
625.04	3.65
625.373	2.88
625.705	3.45
626.038	3.15
626.37	3.48
626.703	3.14
627.035	3.07
627.368	3.26
627.7	3.57
628.032	3.52
628.365	3.46
628.697	3.31
629.029	3.07
629.361	3.06
629.693	3.52
630.025	3.34
630.357	3.24
630.689	3.43
631.021	3.25
631.353	3.25
631.684	3.47
632.016	3.58
632.348	3.44
632.679	3.22
633.011	3.08
633.342	3.36
633.674	3.67
634.005	3.04
634.336	3.39
634.668	3.59
634.999	3.4
635.33	3.61
635.661	3.29
635.992	3.48
636.323	3.3
636.654	2.89
636.985	3.25
637.316	2.75
637.647	3.17
637.977	2.82
638.308	3.63
638.639	3.27
638.969	3.6
639.3	3.37
639.63	3.75
639.961	2.74
640.291	3.06
640.622	3.55
640.952	3.56
641.282	3.13
641.612	3.11
641.943	3.27
642.273	3.43
642.603	3.14
642.933	3.05
643.263	2.6
643.592	3.48
643.922	3.17
644.252	3.27
644.582	3.82
644.911	3.49
645.241	3.51
645.571	3.03
645.9	3.35
646.23	3.54
646.559	3.44
646.888	3.28
647.218	3.4
647.547	2.99
647.876	3.65
648.205	3.39
648.534	4.01
648.863	3.46
649.192	3.33
649.521	3.54
649.85	3.73
650.179	3.54
650.508	3.03
650.837	3.63
651.165	3.57
651.494	3.42
651.822	3.4
652.151	3.07
652.479	3.52
652.808	3.27
653.136	3.62
653.465	3.14
653.793	3.12
654.121	3.92
654.449	3.45
654.777	3.58
655.105	3.13
655.433	3.78
655.761	3.51
656.089	3.11
656.417	3.76
656.745	3.14
657.073	3.13
657.4	4.15
657.728	3.7
658.056	3.25
658.383	3.88
658.711	3.31
659.038	3.21
659.365	3.54
659.693	3.24
660.02	3.42
660.347	3.48
660.674	3.37
661.001	3.18
661.329	3.24
661.656	3.43
661.982	2.87
662.309	3.29
662.636	3.37
662.963	3.16
663.29	3.73
663.616	3.33
663.943	3.88
664.27	3.37
664.596	3.25
664.923	3.52
665.249	3.56
665.576	2.98
665.902	3.52
666.228	3.23
666.554	3.24
666.881	4.31
667.207	3.37
667.533	2.79
667.859	3.24
668.185	2.99
668.511	3.67
668.837	3.05
669.162	3.47
669.488	4.01
669.814	3.33
670.139	3.56
670.465	4
670.791	3.48
671.116	3.49
671.442	4.26
671.767	3.09
672.092	3.98
672.418	3.83
672.743	3.33
673.068	3.46
673.393	2.88
673.718	3.96
674.043	3.57
674.368	3.4
674.693	3.77
675.018	3.49
675.343	4.15
675.667	3.44
675.992	3.31
676.317	4.01
676.641	3.31
676.966	3.56
677.29	3.52
677.615	3.77
677.939	3.45
678.264	3.75
678.588	4.05
678.912	3.77
679.236	3.59
679.56	3.66
679.885	3.02
680.209	4.1
680.532	3.27
680.856	2.96
681.18	3.57
681.504	3.68
681.828	3.71
682.152	3.85
682.475	3.99
682.799	3.6
683.122	3.74
683.446	3.26
683.769	4.1
684.093	3.75
684.416	3.45
684.739	3.49
685.062	4.23
685.386	3.46
685.709	3.58
686.032	3.75
686.355	3.27
686.678	4.03
687.001	4.22
687.324	4.27
687.646	3.33
687.969	3.98
688.292	3.84
688.614	3.88
688.937	3.84
689.26	3.29
689.582	3.73
689.904	3.65
690.227	3.56
690.549	3.61
690.871	3.61
691.194	3.71
691.516	4.13
691.838	4.14
