Data from 0220_crown_Reflection__1__226.txt Node

Date: Fri Sep 22 22:38:46 CDT 2023
User: ToomeyLab
Spectrometer: FLMS14357
Trigger mode: 0
Integration Time (sec): 1.000000E-2
Scans to average: 100
Electric dark correction enabled: true
Nonlinearity correction enabled: false
Boxcar width: 0
XAxis mode: Wavelengths
Number of Pixels in Spectrum: 2048
>>>>>Begin Spectral Data<<<<<
189.047	54.36
189.435	54.36
189.823	54.36
190.211	157.77
190.599	119.57
190.987	52.63
191.375	129.31
191.763	71.3
192.151	119.85
192.538	253.78
192.926	89.94
193.314	-896.34
193.702	106.73
194.089	26.3
194.477	13.9
194.864	1099.26
195.252	45.07
195.639	0.97
196.027	77.98
196.414	-52.67
196.801	72.54
197.189	99.96
197.576	82.89
197.963	-4.58
198.351	-17.83
198.738	27.41
199.125	-15.15
199.512	3.14
199.899	43.03
200.286	9.72
200.673	17.22
201.06	22.21
201.447	45.99
201.833	-10.43
202.22	86.86
202.607	30.88
202.994	44.98
203.38	27.74
203.767	-8.97
204.154	25.71
204.54	31.5
204.927	-8.14
205.313	33.89
205.699	31.54
206.086	32.88
206.472	47.03
206.858	54.43
207.245	-7.6
207.631	41.47
208.017	-19.81
208.403	9.03
208.789	36.45
209.175	41.37
209.561	43.63
209.947	51.13
210.333	42.6
210.719	14.43
211.105	31.03
211.491	6.87
211.876	28.41
212.262	24.34
212.648	13.87
213.034	37.23
213.419	27.16
213.805	23.52
214.19	20.25
214.576	30.85
214.961	26.39
215.346	1.17
215.732	32.84
216.117	38.45
216.502	48.75
216.888	16.53
217.273	44.54
217.658	31.27
218.043	-0.6
218.428	11.52
218.813	14.72
219.198	-2.55
219.583	-11.97
219.968	28.06
220.353	36.98
220.738	18.07
221.122	32.9
221.507	5.23
221.892	1.59
222.276	-13.11
222.661	-34.63
223.046	13.81
223.43	17.84
223.815	0.22
224.199	-6.25
224.583	9.27
224.968	11.28
225.352	1.83
225.736	3.82
226.121	6.59
226.505	7.77
226.889	10.56
227.273	8.22
227.657	11.27
228.041	8.87
228.425	12.34
228.809	5.38
229.193	6.62
229.577	10.43
229.961	8.45
230.344	8.8
230.728	8.19
231.112	7.69
231.495	7.15
231.879	7.57
232.263	6.69
232.646	8.79
233.03	8.3
233.413	7.86
233.797	7.27
234.18	6.96
234.563	10.36
234.946	9.2
235.33	4.54
235.713	7.49
236.096	6.24
236.479	6.5
236.862	8.78
237.245	7.28
237.628	8.04
238.011	7.4
238.394	6.91
238.777	9.34
239.16	8.9
239.543	8.78
239.925	9.5
240.308	7.02
240.691	8.72
241.073	8.4
241.456	7.5
241.838	6.01
242.221	8.17
242.603	7.13
242.986	6.72
243.368	7.33
243.75	7.28
244.133	7.71
244.515	7.14
244.897	6.82
245.279	6.83
245.661	6.68
246.043	7.51
246.425	6.11
246.807	7.19
247.189	5
247.571	6.99
247.953	6.83
248.335	6.58
248.717	6.84
249.098	6.97
249.48	6.52
249.862	6.61
250.243	6.67
250.625	6.51
251.006	6.24
251.388	6.25
251.769	6.71
252.151	6.68
252.532	6.64
252.913	6.84
253.295	7
253.676	6.44
254.057	6.87
254.438	6.68
254.819	6.11
255.2	6.9
255.581	6.81
255.962	6.92
256.343	5.11
256.724	5.4
257.105	7.01
257.486	5.96
257.867	6.54
258.247	5.78
258.628	5.58
259.009	6.74
259.389	6.01
259.77	6.74
260.15	6.82
260.531	5.55
260.911	5.54
261.292	6.11
261.672	5.92
262.052	6.04
262.432	6.1
262.813	6.3
263.193	5.87
263.573	6.53
263.953	5.99
264.333	6.08
264.713	5.65
265.093	6.21
265.473	6.33
265.853	5.91
266.233	6.49
266.612	5.81
266.992	5.92
267.372	6.06
267.752	6.22
268.131	5.44
268.511	5.5
268.89	5.8
269.27	5.73
269.649	5.84
270.029	5.41
270.408	5.67
270.787	5.87
271.167	6.28
271.546	5.7
271.925	6.35
272.304	5.08
272.683	5.49
273.062	5.93
273.441	5.6
273.82	6.1
274.199	5.76
274.578	5.63
274.957	5.81
275.336	5.5
275.715	6.08
276.093	5.48
276.472	5.07
276.851	5.53
277.229	4.88
277.608	6.03
277.986	5.27
278.365	5.68
278.743	5.47
279.122	5.79
279.5	5.89
279.878	5.67
280.257	6.14
280.635	6.03
281.013	5.26
281.391	5.26
281.769	5.21
282.147	5.35
282.525	5.04
282.903	5.56
283.281	5.75
283.659	5.34
284.037	5.19
284.415	5.31
284.792	5.12
285.17	5.08
285.548	5.61
285.925	5.34
286.303	5.18
286.68	4.88
287.058	4.96
287.435	5.24
287.813	4.99
288.19	4.66
288.567	5.33
288.945	5
289.322	4.92
289.699	5.07
290.076	4.98
290.453	4.94
290.83	4.89
291.207	5.03
291.584	4.61
291.961	4.9
292.338	5.12
292.715	4.96
293.092	4.97
293.469	4.95
293.845	4.78
294.222	5.2
294.599	5.51
294.975	5.01
295.352	5.41
295.728	4.53
296.105	4.59
296.481	4.68
296.858	5.14
297.234	4.85
297.61	4.78
297.986	4.82
298.363	4.69
298.739	4.69
299.115	4.96
299.491	4.95
299.867	4.77
300.243	4.61
300.619	4.68
300.995	4.68
301.371	5.22
301.746	5.15
302.122	4.66
302.498	4.81
302.874	4.44
303.249	4.74
303.625	4.7
304	5.15
304.376	5.24
304.751	4.41
305.127	5.03
305.502	4.96
305.878	4.47
306.253	5.1
306.628	4.23
307.003	4.99
307.378	4.5
307.754	4.73
308.129	5.15
308.504	4.48
308.879	5.01
309.254	4.39
309.629	4.53
310.003	5.29
310.378	5.19
310.753	4.79
311.128	4.79
311.502	4.91
311.877	4.16
312.252	4.49
312.626	4.4
313.001	4.8
313.375	4.63
313.75	4.97
314.124	5.11
314.498	4.25
314.873	4.63
315.247	5.2
315.621	4.88
315.995	4.51
316.369	4.35
316.743	4.77
317.117	4.78
317.491	5.11
317.865	4.25
318.239	4.65
318.613	4.76
318.987	4.42
319.361	4.34
319.734	4.64
320.108	4.98
320.482	4.6
320.855	4.57
321.229	4.45
321.602	5.01
321.976	4.26
322.349	4.71
322.723	5.04
323.096	4.64
323.469	4.42
323.843	4.12
324.216	4.7
324.589	4.57
324.962	4.25
325.335	4.15
325.708	4.41
326.081	4.95
326.454	4.13
326.827	4.62
327.2	4.3
327.573	5
327.945	4.56
328.318	4.91
328.691	4.78
329.063	4.09
329.436	4.81
329.809	4.59
330.181	4.21
330.553	4.38
330.926	4.35
331.298	4.39
331.671	4.58
332.043	3.94
332.415	4.74
332.787	4.87
333.159	4.41
333.532	4.7
333.904	4.29
334.276	4.14
334.648	4.25
335.02	3.74
335.391	4.77
335.763	5.11
336.135	4.73
336.507	4.42
336.879	3.6
337.25	4.7
337.622	4.87
337.993	4.54
338.365	4.83
338.736	4.38
339.108	5.06
339.479	4.54
339.851	4.4
340.222	4.23
340.593	4.23
340.964	4.46
341.336	4.72
341.707	4.62
342.078	4.5
342.449	4.89
342.82	4.74
343.191	4.08
343.562	4.17
343.933	4.62
344.303	4.43
344.674	5
345.045	4.42
345.416	4.73
345.786	4.45
346.157	4.35
346.527	4.55
346.898	4.69
347.268	4.46
347.639	4.66
348.009	4.37
348.38	4.85
348.75	5.25
349.12	5.02
349.49	4.96
349.861	4.57
350.231	4.95
350.601	4.71
350.971	5.01
351.341	4.7
351.711	4.84
352.081	4.58
352.45	4.7
352.82	4.83
353.19	5.02
353.56	4.74
353.929	4.9
354.299	4.77
354.669	4.58
355.038	4.71
355.408	4.74
355.777	4.72
356.147	5.03
356.516	5.11
356.885	4.66
357.254	5.1
357.624	4.66
357.993	4.75
358.362	4.48
358.731	4.52
359.1	4.67
359.469	4.62
359.838	4.5
360.207	4.5
360.576	4.9
360.945	4.79
361.314	4.92
361.682	5.09
362.051	4.83
362.42	4.74
362.788	4.64
363.157	5.11
363.525	4.79
363.894	4.66
364.262	4.63
364.631	4.67
364.999	4.79
365.367	4.88
365.735	4.86
366.104	4.91
366.472	5.17
366.84	4.56
367.208	5.52
367.576	4.92
367.944	4.79
368.312	5.17
368.68	4.82
369.048	4.94
369.416	4.97
369.783	4.89
370.151	4.77
370.519	5.04
370.886	5.17
371.254	4.67
371.621	4.55
371.989	4.88
372.356	5.01
372.724	4.86
373.091	5.4
373.458	5.15
373.826	5.12
374.193	5.16
374.56	5.29
374.927	5.08
375.294	4.74
375.661	4.77
376.028	4.81
376.395	5.3
376.762	5.28
377.129	5.52
377.496	5.35
377.863	5.11
378.229	5
378.596	5.35
378.963	5.3
379.329	5.36
379.696	5.2
380.062	5.04
380.429	4.95
380.795	5
381.161	5.07
381.528	4.82
381.894	4.78
382.26	4.99
382.626	5.46
382.993	5.13
383.359	4.99
383.725	5.01
384.091	5.37
384.457	5.12
384.823	5.25
385.188	5.46
385.554	5.32
385.92	5.53
386.286	4.88
386.651	5.23
387.017	5.15
387.383	5.14
387.748	5.17
388.114	5.07
388.479	5.18
388.845	4.81
389.21	4.85
389.575	5.32
389.94	5.11
390.306	5.17
390.671	5.26
391.036	4.92
391.401	5.2
391.766	5.09
392.131	5.28
392.496	5.31
392.861	5.05
393.226	5.51
393.591	5.5
393.956	5.26
394.32	5.12
394.685	5.29
395.05	5.48
395.414	5.18
395.779	5.37
396.143	5.25
396.508	5.39
396.872	5.28
397.236	5.32
397.601	5.04
397.965	5.39
398.329	5.32
398.694	5.14
399.058	5.48
399.422	5.27
399.786	5.26
400.15	5.3
400.514	5.32
400.878	5.2
401.242	5.69
401.605	5.11
401.969	4.98
402.333	5.24
402.697	5.22
403.06	5.3
403.424	5.32
403.787	5.38
404.151	5.19
404.514	5.54
404.878	5.24
405.241	5.64
405.604	5.5
405.968	5.54
406.331	5.3
406.694	5.41
407.057	5.14
407.42	5.48
407.783	5.41
408.146	5.48
408.509	5.19
408.872	5.27
409.235	5.58
409.598	5.31
409.961	5.56
410.323	5.27
410.686	5.41
411.049	5.35
411.411	5.61
411.774	5.43
412.136	5.35
412.499	5.28
412.861	5.49
413.223	5.58
413.586	5.35
413.948	5.5
414.31	5.51
414.672	5.37
415.035	5.4
415.397	5.56
415.759	5.68
416.121	5.38
416.483	5.39
416.845	5.33
417.206	5.35
417.568	5.31
417.93	5.45
418.292	5.37
418.653	5.45
419.015	5.37
419.377	5.5
419.738	5.36
420.1	5.3
420.461	5.3
420.822	5.3
421.184	5.2
421.545	5.23
421.906	5.28
422.267	5.23
422.629	5.33
422.99	5.29
423.351	5.26
423.712	5.26
424.073	5.35
424.434	5.37
424.795	5.29
425.155	5.26
425.516	5.35
425.877	5.21
426.238	5.22
426.598	5.3
426.959	5.29
427.32	5.41
427.68	5.2
428.041	5.3
428.401	5.47
428.761	5.47
429.122	5.38
429.482	5.33
429.842	5.34
430.202	5.34
430.563	5.5
430.923	5.61
431.283	5.65
431.643	5.54
432.003	5.5
432.363	5.65
432.722	5.67
433.082	5.63
433.442	5.59
433.802	5.56
434.161	5.4
434.521	5.5
434.881	5.72
435.24	5.42
435.6	5.41
435.959	5.41
436.319	5.51
436.678	5.54
437.037	5.38
437.396	5.45
437.756	5.5
438.115	5.61
438.474	5.5
438.833	5.7
439.192	5.74
439.551	5.42
439.91	5.57
440.269	5.46
440.628	5.25
440.987	5.47
441.345	5.61
441.704	5.44
442.063	5.33
442.421	5.3
442.78	5.5
443.138	5.39
443.497	5.44
443.855	5.48
444.214	5.39
444.572	5.51
444.93	5.38
445.288	5.52
445.647	5.53
446.005	5.48
446.363	5.51
446.721	5.56
447.079	5.39
447.437	5.47
447.795	5.52
448.153	5.34
448.51	5.4
448.868	5.38
449.226	5.44
449.584	5.38
449.941	5.33
450.299	5.45
450.656	5.51
451.014	5.39
451.371	5.41
451.729	5.54
452.086	5.41
452.443	5.57
452.801	5.56
453.158	5.42
453.515	5.72
453.872	5.48
454.229	5.52
454.586	5.53
454.943	5.61
455.3	5.57
455.657	5.51
456.014	5.4
456.371	5.61
456.727	5.64
457.084	5.51
457.441	5.59
457.797	5.65
458.154	5.56
458.51	5.57
458.867	5.56
459.223	5.66
459.58	5.68
459.936	5.67
460.292	5.58
460.648	5.75
461.005	5.54
461.361	5.74
461.717	5.45
462.073	5.4
462.429	5.31
462.785	5.5
463.141	5.54
463.496	5.69
463.852	5.46
464.208	5.57
464.564	5.69
464.919	5.54
465.275	5.74
465.631	5.73
465.986	5.6
466.342	5.59
466.697	5.65
467.052	5.42
467.408	5.57
467.763	5.66
468.118	5.74
468.473	5.71
468.829	5.64
469.184	5.69
469.539	5.66
469.894	5.65
470.249	5.66
470.603	5.65
470.958	5.61
471.313	5.58
471.668	5.71
472.023	5.63
472.377	5.6
472.732	5.5
473.086	5.61
473.441	5.49
473.795	5.76
474.15	5.48
474.504	5.71
474.859	5.78
475.213	5.4
475.567	5.45
475.921	5.52
476.275	5.62
476.63	5.66
476.984	5.44
477.338	5.61
477.692	5.57
478.045	5.71
478.399	5.7
478.753	5.55
479.107	5.48
479.461	5.41
479.814	5.59
480.168	5.66
480.521	5.54
480.875	5.65
481.228	5.69
481.582	5.56
481.935	5.52
482.289	5.51
482.642	5.57
482.995	5.58
483.348	5.5
483.701	5.45
484.055	5.52
484.408	5.48
484.761	5.51
485.114	5.26
485.466	5.22
485.819	5.17
486.172	5.12
486.525	5.17
486.878	5.19
487.23	5.29
487.583	5.32
487.936	5.37
488.288	5.39
488.641	5.38
488.993	5.35
489.345	5.24
489.698	5.21
490.05	5.23
490.402	5.27
490.754	5.25
491.107	5.26
491.459	5.43
491.811	5.41
492.163	5.43
492.515	5.44
492.866	5.43
493.218	5.45
493.57	5.39
493.922	5.19
494.274	5.27
494.625	5.34
494.977	5.46
495.328	5.59
495.68	5.41
496.031	5.54
496.383	5.53
496.734	5.6
497.086	5.59
497.437	5.57
497.788	5.45
498.139	5.48
498.49	5.67
498.842	5.45
499.193	5.46
499.544	5.47
499.894	5.5
500.245	5.52
500.596	5.44
500.947	5.52
501.298	5.55
501.648	5.6
501.999	5.62
502.35	5.49
502.7	5.6
503.051	5.59
503.401	5.66
503.752	5.66
504.102	5.54
504.452	5.65
504.803	5.52
505.153	5.6
505.503	5.5
505.853	5.61
506.203	5.4
506.553	5.56
506.903	5.55
507.253	5.46
507.603	5.68
507.953	5.58
508.303	5.56
508.652	5.51
509.002	5.67
509.352	5.43
509.701	5.45
510.051	5.59
510.4	5.45
510.75	5.48
511.099	5.37
511.449	5.46
511.798	5.58
512.147	5.5
512.496	5.41
512.846	5.52
513.195	5.34
513.544	5.45
513.893	5.57
514.242	5.4
514.591	5.46
514.939	5.48
515.288	5.36
515.637	5.41
515.986	5.37
516.334	5.5
516.683	5.39
517.032	5.57
517.38	5.46
517.729	5.5
518.077	5.52
518.426	5.41
518.774	5.49
519.122	5.56
519.47	5.41
519.819	5.46
520.167	5.39
520.515	5.36
520.863	5.24
521.211	5.29
521.559	5.37
521.907	5.43
522.255	5.39
522.602	5.43
522.95	5.39
523.298	5.45
523.645	5.46
523.993	5.4
524.341	5.38
524.688	5.45
525.036	5.39
525.383	5.37
525.73	5.51
526.078	5.53
526.425	5.33
526.772	5.54
527.119	5.33
527.466	5.23
527.814	5.25
528.161	5.13
528.508	5.24
528.854	5.28
529.201	5.33
529.548	5.26
529.895	5.18
530.242	5.09
530.588	5.06
530.935	4.97
531.282	4.98
531.628	5.1
531.975	5.07
532.321	5.17
532.667	5.24
533.014	5.2
533.36	5.28
533.706	5.27
534.052	5.29
534.399	5.24
534.745	5.26
535.091	5.07
535.437	5.18
535.783	4.97
536.129	5.1
536.474	5.3
536.82	5.15
537.166	5.32
537.512	5.31
537.857	5.18
538.203	5.24
538.549	5.18
538.894	5.14
539.239	5.12
539.585	5.18
539.93	5.31
540.276	5.16
540.621	5.27
540.966	5.18
541.311	5.35
541.656	5.25
542.001	5.35
542.346	5.2
542.691	5.26
543.036	5.15
543.381	5.1
543.726	4.99
544.071	5.03
544.415	5.05
544.76	5.06
545.105	5.06
545.449	5.01
545.794	5.09
546.138	5.07
546.483	5.17
546.827	5.09
547.171	5.16
547.516	5.22
547.86	5.2
548.204	5.16
548.548	5.2
548.892	5.19
549.236	5.24
549.58	5.17
549.924	5.19
550.268	5.28
550.612	5.17
550.956	5.1
551.3	5.31
551.643	5.3
551.987	5.23
552.33	5.32
552.674	5.16
553.017	5.15
553.361	5.2
553.704	5.31
554.048	5.16
554.391	5.22
554.734	5.23
555.077	5.22
555.42	5.03
555.764	5.12
556.107	5.26
556.45	5.2
556.793	5.23
557.135	5.21
557.478	5.12
557.821	5.25
558.164	5.34
558.507	5.43
558.849	5.03
559.192	5.29
559.534	5.36
559.877	5.24
560.219	5.12
560.562	5.31
560.904	5.09
561.246	5.27
561.589	5.11
561.931	5.19
562.273	5.13
562.615	5.1
562.957	5.27
563.299	5.36
563.641	5.11
563.983	5.15
564.325	5.12
564.667	5.31
565.008	4.96
565.35	5.06
565.692	5.17
566.033	5.24
566.375	5.23
566.716	5.27
567.058	5.25
567.399	5.02
567.741	5.29
568.082	5.1
568.423	5.17
568.764	5.24
569.105	4.86
569.447	5.11
569.788	4.91
570.129	5.14
570.47	5.19
570.811	5.04
571.151	5.31
571.492	4.94
571.833	5.2
572.174	5.04
572.514	5.11
572.855	5.12
573.195	4.99
573.536	5.09
573.876	5.03
574.217	5.14
574.557	4.94
574.898	4.94
575.238	5.03
575.578	5.16
575.918	4.93
576.258	4.97
576.598	4.8
576.938	4.96
577.278	5.18
577.618	4.87
577.958	5.11
578.298	5.12
578.638	4.84
578.977	5.16
579.317	5.01
579.657	5.09
579.996	5.21
580.336	5.11
580.675	5.13
581.014	4.91
581.354	4.93
581.693	5.14
582.032	5.05
582.372	5.22
582.711	5.09
583.05	5.01
583.389	5.26
583.728	4.9
584.067	5.03
584.406	5.12
584.745	4.97
585.083	5.25
585.422	5.2
585.761	5.14
586.1	5.04
586.438	4.94
586.777	5.17
587.115	5.08
587.454	4.83
587.792	5.11
588.13	5.08
588.469	4.97
588.807	5.12
589.145	4.93
589.483	5.02
589.821	5.2
590.159	4.8
590.497	5
590.835	5.16
591.173	4.97
591.511	5.02
591.849	5.11
592.187	4.93
592.524	4.91
592.862	4.93
593.2	5.06
593.537	4.87
593.875	4.92
594.212	5
594.55	5.01
594.887	5.05
595.224	4.83
595.561	5.17
595.899	5.12
596.236	5.34
596.573	5.06
596.91	4.99
597.247	5.01
597.584	5.13
597.921	5.18
598.258	5.04
598.594	4.9
598.931	4.75
599.268	4.69
599.604	4.83
599.941	4.89
600.277	4.72
600.614	4.84
600.95	4.83
601.287	4.76
601.623	4.85
601.959	5.12
602.296	4.96
602.632	4.78
602.968	5.01
603.304	4.93
603.64	4.81
603.976	5.18
604.312	5.04
604.648	5.01
604.984	5.21
605.319	4.71
605.655	4.76
605.991	4.83
606.326	4.93
606.662	5.05
606.998	4.76
607.333	4.85
607.668	4.76
608.004	4.81
608.339	4.76
608.674	4.93
609.01	5.03
609.345	4.89
609.68	5.08
610.015	4.86
610.35	4.98
610.685	4.75
611.02	4.93
611.355	4.99
611.689	4.59
612.024	4.8
612.359	4.62
612.694	4.76
613.028	4.64
613.363	4.72
613.697	4.79
614.032	4.86
614.366	4.89
614.7	4.76
615.035	4.94
615.369	4.87
615.703	4.89
616.037	4.7
616.371	5.02
616.705	5.38
617.039	5.03
617.373	4.81
617.707	5.01
618.041	4.95
618.375	4.93
618.709	4.89
619.042	4.92
619.376	4.93
619.71	4.85
620.043	4.96
620.377	4.75
620.71	4.56
621.043	5.22
621.377	4.59
621.71	4.95
622.043	5.11
622.376	5
622.709	5.1
623.043	5.03
623.376	4.76
623.709	5.14
624.041	4.65
624.374	4.7
624.707	5.23
625.04	4.85
625.373	4.54
625.705	4.95
626.038	4.76
626.37	4.94
626.703	5.2
627.035	4.93
627.368	4.75
627.7	5.1
628.032	5.04
628.365	5.01
628.697	4.65
629.029	4.82
629.361	4.95
629.693	5.2
630.025	4.72
630.357	4.69
630.689	4.91
631.021	4.8
631.353	4.64
631.684	4.76
632.016	5.05
632.348	4.76
632.679	4.71
633.011	4.88
633.342	5.02
633.674	5.19
634.005	4.79
634.336	4.98
634.668	4.96
634.999	5.37
635.33	4.89
635.661	4.91
635.992	4.69
636.323	4.59
636.654	4.79
636.985	4.8
637.316	4.82
637.647	5.25
637.977	4.26
638.308	5.4
638.639	4.95
638.969	4.98
639.3	5.08
639.63	5.22
639.961	4.78
640.291	4.7
640.622	5.14
640.952	5.12
641.282	4.98
641.612	4.65
641.943	5.19
642.273	5.17
642.603	5.01
642.933	4.68
643.263	4.23
643.592	4.79
643.922	4.67
644.252	4.8
644.582	5.07
644.911	4.77
645.241	5.44
645.571	5.1
645.9	5.2
646.23	5.17
646.559	5.11
646.888	5.01
647.218	4.88
647.547	4.81
647.876	4.83
648.205	4.23
648.534	5.19
648.863	4.8
649.192	4.84
649.521	4.94
649.85	5.15
650.179	5.42
650.508	4.43
650.837	5.12
651.165	4.93
651.494	4.85
651.822	4.7
652.151	4.87
652.479	4.8
652.808	4.75
653.136	5.02
653.465	5.12
653.793	4.96
654.121	5.17
654.449	4.62
654.777	4.53
655.105	5.27
655.433	4.97
655.761	5.72
656.089	4.91
656.417	4.61
656.745	4.97
657.073	4.8
657.4	5.44
657.728	5.34
658.056	4.69
658.383	5.03
658.711	4.9
659.038	4.56
659.365	4.83
659.693	4.31
660.02	4.94
660.347	4.85
660.674	4.73
661.001	4.29
661.329	4.48
661.656	4.96
661.982	4.83
662.309	5.05
662.636	4.84
662.963	4.89
663.29	4.85
663.616	4.6
663.943	5.3
664.27	5.32
664.596	4.31
664.923	4.71
665.249	4.92
665.576	4.31
665.902	4.75
666.228	4.89
666.554	4.41
666.881	4.97
667.207	4.73
667.533	4.71
667.859	5.37
668.185	4.92
668.511	5.69
668.837	4.24
669.162	5.42
669.488	5.07
669.814	4.57
670.139	5.41
670.465	5.63
670.791	4.63
671.116	4.9
671.442	5.27
671.767	4.27
672.092	5.28
672.418	5.39
672.743	5.22
673.068	5.27
673.393	4.77
673.718	5.31
674.043	5.38
674.368	5.24
674.693	4.54
675.018	5.15
675.343	4.87
675.667	5
675.992	4.78
676.317	5.46
676.641	5.14
676.966	5.83
677.29	4.83
677.615	5.3
677.939	5.09
678.264	4.43
678.588	5.85
678.912	5.04
679.236	5.74
679.56	5.45
679.885	4.89
680.209	5.49
680.532	4.97
680.856	4.93
681.18	5.36
681.504	5.33
681.828	5.54
682.152	5.07
682.475	5.68
682.799	5.31
683.122	5.62
683.446	4.82
683.769	4.96
684.093	5.35
684.416	5.05
684.739	4.88
685.062	5.76
685.386	5.05
685.709	5.12
686.032	5.14
686.355	5.15
686.678	5.2
687.001	5.56
687.324	6.07
687.646	4.88
687.969	5.04
688.292	4.67
688.614	5.47
688.937	4.99
689.26	5.34
689.582	5.62
689.904	5.13
690.227	5.76
690.549	5.45
690.871	5.24
691.194	5.38
691.516	4.42
691.838	5.55
692.16	5.02
692.482	4.67
692.804	4.75
693.126	4.06
693.448	6
