Data from 0220_chest_Reflection__4__224.txt Node

Date: Fri Sep 22 22:37:36 CDT 2023
User: ToomeyLab
Spectrometer: FLMS14357
Trigger mode: 0
Integration Time (sec): 1.000000E-2
Scans to average: 100
Electric dark correction enabled: true
Nonlinearity correction enabled: false
Boxcar width: 0
XAxis mode: Wavelengths
Number of Pixels in Spectrum: 2048
>>>>>Begin Spectral Data<<<<<
189.047	34.88
189.435	34.88
189.823	34.88
190.211	874.61
190.599	-40.98
190.987	432.86
191.375	232.07
191.763	17.81
192.151	152.45
192.538	193.3
192.926	62.29
193.314	-682.93
193.702	79.9
194.089	174.85
194.477	107.2
194.864	921.07
195.252	283.35
195.639	-46.82
196.027	41.26
196.414	-39.43
196.801	213.04
197.189	-53.22
197.576	50.48
197.963	-62.33
198.351	27.04
198.738	22.71
199.125	-14.66
199.512	18.37
199.899	38.12
200.286	18.66
200.673	-22.99
201.06	1.12
201.447	55.99
201.833	9.2
202.22	28.18
202.607	27.42
202.994	48.86
203.38	18.94
203.767	10.86
204.154	31.66
204.54	39.17
204.927	-22.89
205.313	76.04
205.699	12.43
206.086	36.37
206.472	34.59
206.858	24.24
207.245	6.93
207.631	53.41
208.017	19
208.403	30.23
208.789	36.06
209.175	46.28
209.561	29.7
209.947	29.19
210.333	23.59
210.719	-12.94
211.105	37.03
211.491	11.96
211.876	17.21
212.262	32.19
212.648	15.2
213.034	23.54
213.419	28.35
213.805	4.77
214.19	26.58
214.576	24.27
214.961	-2.89
215.346	11.84
215.732	38.64
216.117	-17.63
216.502	39.68
216.888	39.93
217.273	29.37
217.658	11.24
218.043	20.09
218.428	40.54
218.813	-2.73
219.198	3.41
219.583	10.72
219.968	8.97
220.353	44.89
220.738	-0.5
221.122	20.41
221.507	22.13
221.892	-0.45
222.276	19.28
222.661	-51.9
223.046	13.55
223.43	18.71
223.815	11.67
224.199	-10.47
224.583	15.48
224.968	13.63
225.352	-2.84
225.736	12.83
226.121	2.84
226.505	9.9
226.889	12.88
227.273	10.18
227.657	7.89
228.041	11.88
228.425	12.37
228.809	7.04
229.193	4.63
229.577	7.45
229.961	7.45
230.344	7.51
230.728	3.9
231.112	5.4
231.495	4.4
231.879	5.59
232.263	4.6
232.646	5.07
233.03	4.94
233.413	6.53
233.797	5.89
234.18	5.34
234.563	7.39
234.946	5.23
235.33	2.05
235.713	3.65
236.096	5.2
236.479	5.26
236.862	7.34
237.245	6.26
237.628	7.78
238.011	5.63
238.394	3.88
238.777	5.34
239.16	6.74
239.543	7.05
239.925	5.65
240.308	5.7
240.691	8.66
241.073	6.71
241.456	5.66
241.838	5.52
242.221	4.91
242.603	5.03
242.986	5.56
243.368	5.45
243.75	5.77
244.133	6.17
244.515	4.84
244.897	5.2
245.279	5.62
245.661	4.86
246.043	4.75
246.425	4.27
246.807	5.13
247.189	4.67
247.571	5.15
247.953	4.77
248.335	5.22
248.717	5.26
249.098	5.09
249.48	4.9
249.862	4.86
250.243	4.66
250.625	5.48
251.006	4.64
251.388	5.64
251.769	5.74
252.151	4.97
252.532	5.6
252.913	5.79
253.295	6.43
253.676	5.12
254.057	5.87
254.438	5.75
254.819	4.58
255.2	5.67
255.581	4.52
255.962	5.61
256.343	4.97
256.724	4.11
257.105	4.84
257.486	6.04
257.867	4.74
258.247	6.49
258.628	4.96
259.009	4.74
259.389	5.29
259.77	5.88
260.15	5.78
260.531	4.65
260.911	4.84
261.292	4.75
261.672	4.46
262.052	4.89
262.432	4.74
262.813	4.86
263.193	4.52
263.573	5.4
263.953	4.73
264.333	4.47
264.713	5.11
265.093	4.63
265.473	5.27
265.853	4.74
266.233	4.87
266.612	4.07
266.992	4.76
267.372	4.11
267.752	4.89
268.131	3.93
268.511	4.85
268.89	4.98
269.27	4.3
269.649	4.58
270.029	4.75
270.408	5.3
270.787	4.6
271.167	4.63
271.546	4.37
271.925	4.45
272.304	4.16
272.683	4.92
273.062	4.71
273.441	4.44
273.82	4.97
274.199	4.45
274.578	5.12
274.957	4.55
275.336	4.64
275.715	4.44
276.093	4.66
276.472	4.53
276.851	4.42
277.229	3.7
277.608	4.54
277.986	4.13
278.365	4.86
278.743	4.5
279.122	5.09
279.5	4.89
279.878	3.66
280.257	5.4
280.635	3.64
281.013	4.99
281.391	4.89
281.769	4.51
282.147	5.06
282.525	4.54
282.903	4.68
283.281	4.95
283.659	4.61
284.037	4.59
284.415	5.05
284.792	4.44
285.17	4.83
285.548	5.09
285.925	5.02
286.303	4.17
286.68	4.54
287.058	4.66
287.435	4.59
287.813	4.43
288.19	4.3
288.567	4.6
288.945	4.25
289.322	4.55
289.699	4.3
290.076	4.46
290.453	4.24
290.83	4.04
291.207	4.84
291.584	4.15
291.961	4.57
292.338	4.34
292.715	4.96
293.092	4.62
293.469	4.72
293.845	4.2
294.222	4.63
294.599	5.17
294.975	4.95
295.352	5.16
295.728	4.61
296.105	4.81
296.481	4.48
296.858	4.91
297.234	4.37
297.61	4.53
297.986	5.06
298.363	4.62
298.739	4.88
299.115	4.99
299.491	4.84
299.867	4.69
300.243	4.65
300.619	4.77
300.995	4.68
301.371	4.8
301.746	4.95
302.122	4.26
302.498	3.86
302.874	4.72
303.249	4.25
303.625	4.36
304	4.83
304.376	5.03
304.751	4.92
305.127	4.74
305.502	4.72
305.878	5.01
306.253	4.95
306.628	4.64
307.003	4.66
307.378	4.8
307.754	5.08
308.129	5.08
308.504	4.63
308.879	4.79
309.254	4.51
309.629	4.79
310.003	5.41
310.378	5.39
310.753	4.58
311.128	4.92
311.502	5.06
311.877	4.19
312.252	5.01
312.626	4.81
313.001	5.23
313.375	4.87
313.75	5.18
314.124	5.58
314.498	4.04
314.873	4.84
315.247	4.8
315.621	4.46
315.995	5.14
316.369	4.67
316.743	4.6
317.117	4.83
317.491	5.41
317.865	4.22
318.239	4.68
318.613	4.94
318.987	4.49
319.361	4.79
319.734	4.7
320.108	5.57
320.482	4.44
320.855	4.54
321.229	5.58
321.602	5.05
321.976	4.97
322.349	4.89
322.723	4.9
323.096	4.98
323.469	4.98
323.843	4.54
324.216	5.22
324.589	4.76
324.962	4.93
325.335	4.94
325.708	4.94
326.081	4.66
326.454	4.4
326.827	4.65
327.2	4.78
327.573	5.81
327.945	5.26
328.318	5.03
328.691	4.63
329.063	4.64
329.436	4.95
329.809	5.64
330.181	4.77
330.553	4.47
330.926	4.95
331.298	4.86
331.671	4.58
332.043	4.02
332.415	4.26
332.787	4.87
333.159	4.15
333.532	4.43
333.904	4.84
334.276	4.62
334.648	3.88
335.02	4.82
335.391	4.94
335.763	5.23
336.135	4.73
336.507	5.28
336.879	4.67
337.25	5.05
337.622	5.27
337.993	4.65
338.365	5.17
338.736	4.85
339.108	5.09
339.479	4.04
339.851	4.74
340.222	4.74
340.593	5.25
340.964	4.46
341.336	4.78
341.707	4.63
342.078	4.92
342.449	5.1
342.82	4.21
343.191	4.49
343.562	4.71
343.933	4.68
344.303	4.38
344.674	4.96
345.045	5.08
345.416	4.78
345.786	4.61
346.157	4.81
346.527	4.65
346.898	4.89
347.268	4.84
347.639	4.92
348.009	4.82
348.38	5.25
348.75	4.88
349.12	4.68
349.49	5.16
349.861	4.6
350.231	5.17
350.601	4.96
350.971	5.12
351.341	4.57
351.711	4.57
352.081	4.1
352.45	4.37
352.82	4.77
353.19	4.78
353.56	5.11
353.929	5.17
354.299	4.82
354.669	4.6
355.038	4.74
355.408	4.89
355.777	4.73
356.147	4.52
356.516	5.4
356.885	5.08
357.254	5.02
357.624	4.46
357.993	4.56
358.362	5.07
358.731	4.63
359.1	4.83
359.469	4.99
359.838	4.47
360.207	4.54
360.576	4.86
360.945	4.59
361.314	5.07
361.682	4.88
362.051	5.17
362.42	4.62
362.788	4.61
363.157	4.73
363.525	4.71
363.894	4.69
364.262	4.91
364.631	4.74
364.999	4.62
365.367	4.92
365.735	4.66
366.104	5.01
366.472	5
366.84	4.93
367.208	5.15
367.576	4.9
367.944	4.8
368.312	4.58
368.68	4.75
369.048	4.76
369.416	5.19
369.783	4.65
370.151	4.63
370.519	4.69
370.886	4.8
371.254	5.22
371.621	4.84
371.989	5.1
372.356	4.56
372.724	4.88
373.091	4.97
373.458	4.84
373.826	4.91
374.193	5
374.56	5.08
374.927	5.04
375.294	4.97
375.661	4.81
376.028	5.06
376.395	4.9
376.762	4.73
377.129	4.93
377.496	5.13
377.863	5.02
378.229	4.94
378.596	4.78
378.963	5.48
379.329	4.99
379.696	5.08
380.062	4.54
380.429	4.83
380.795	4.87
381.161	4.85
381.528	4.92
381.894	4.42
382.26	4.72
382.626	5.16
382.993	5.06
383.359	4.72
383.725	4.81
384.091	5.1
384.457	4.75
384.823	4.79
385.188	5.09
385.554	4.94
385.92	5.08
386.286	4.79
386.651	5
387.017	4.99
387.383	4.73
387.748	5.03
388.114	4.86
388.479	5.2
388.845	4.8
389.21	4.76
389.575	5.24
389.94	4.91
390.306	4.94
390.671	5.28
391.036	4.57
391.401	4.88
391.766	4.81
392.131	4.86
392.496	4.99
392.861	4.88
393.226	5.06
393.591	5.2
393.956	4.93
394.32	5.06
394.685	4.87
395.05	5.24
395.414	5.11
395.779	4.97
396.143	5.04
396.508	4.92
396.872	4.91
397.236	4.85
397.601	5.01
397.965	5.42
398.329	4.79
398.694	4.78
399.058	5.33
399.422	5.02
399.786	5.13
400.15	5.02
400.514	4.94
400.878	4.98
401.242	5.04
401.605	4.92
401.969	4.66
402.333	5.17
402.697	4.97
403.06	4.93
403.424	5.04
403.787	5.06
404.151	5.14
404.514	5.11
404.878	5.18
405.241	5.1
405.604	5
405.968	5.14
406.331	5
406.694	4.93
407.057	4.86
407.42	5.13
407.783	5.03
408.146	5.02
408.509	5.04
408.872	5.01
409.235	4.94
409.598	5.01
409.961	5.26
410.323	5.11
410.686	5.03
411.049	5.4
411.411	5.24
411.774	5.08
412.136	5.07
412.499	4.87
412.861	4.99
413.223	5.02
413.586	5.03
413.948	5.16
414.31	5.08
414.672	5.23
415.035	4.97
415.397	5.22
415.759	5.35
416.121	4.95
416.483	4.95
416.845	5.11
417.206	4.88
417.568	5.08
417.93	5.11
418.292	5.15
418.653	4.94
419.015	5.03
419.377	5.03
419.738	5.1
420.1	4.91
420.461	5.21
420.822	4.93
421.184	4.99
421.545	4.98
421.906	4.97
422.267	4.95
422.629	5.05
422.99	4.96
423.351	4.88
423.712	5.09
424.073	4.93
424.434	5.1
424.795	5.04
425.155	5.07
425.516	5.01
425.877	4.97
426.238	4.94
426.598	4.92
426.959	4.94
427.32	4.96
427.68	4.97
428.041	4.91
428.401	5.15
428.761	5.07
429.122	5.1
429.482	5.07
429.842	4.94
430.202	5.02
430.563	5.29
430.923	5.42
431.283	5
431.643	5.23
432.003	5.09
432.363	5.32
432.722	5.27
433.082	5.26
433.442	5.02
433.802	5.23
434.161	5.12
434.521	4.95
434.881	5.12
435.24	5.05
435.6	4.96
435.959	5.03
436.319	5.16
436.678	5.21
437.037	5.17
437.396	4.96
437.756	5.1
438.115	5.16
438.474	5.12
438.833	5.04
439.192	5.31
439.551	5.21
439.91	5.31
440.269	5.17
440.628	5.05
440.987	5.13
441.345	5.18
441.704	5.24
442.063	5.06
442.421	5.11
442.78	5.18
443.138	5.08
443.497	5.04
443.855	5.13
444.214	4.95
444.572	5.3
444.93	5.28
445.288	5.15
445.647	5.29
446.005	5.08
446.363	5.1
446.721	5.22
447.079	5.09
447.437	5.25
447.795	5.16
448.153	5.04
448.51	5.16
448.868	5.03
449.226	5.15
449.584	5.15
449.941	5.1
450.299	5.25
450.656	5.24
451.014	5.28
451.371	5.27
451.729	5.16
452.086	5.16
452.443	5.43
452.801	5.32
453.158	5.18
453.515	5.51
453.872	5.3
454.229	5.27
454.586	5.32
454.943	5.16
455.3	5.33
455.657	5.18
456.014	5.28
456.371	5.26
456.727	5.41
457.084	5.32
457.441	5.2
457.797	5.35
458.154	5.25
458.51	5.3
458.867	5.38
459.223	5.37
459.58	5.33
459.936	5.3
460.292	5.34
460.648	5.27
461.005	5.23
461.361	5.39
461.717	5.08
462.073	5.18
462.429	5.08
462.785	5.18
463.141	5.24
463.496	5.26
463.852	5.37
464.208	5.19
464.564	5.44
464.919	5.35
465.275	5.42
465.631	5.52
465.986	5.58
466.342	5.4
466.697	5.46
467.052	5.26
467.408	5.37
467.763	5.24
468.118	5.39
468.473	5.4
468.829	5.31
469.184	5.39
469.539	5.52
469.894	5.24
470.249	5.28
470.603	5.39
470.958	5.46
471.313	5.55
471.668	5.4
472.023	5.4
472.377	5.4
472.732	5.38
473.086	5.49
473.441	5.13
473.795	5.55
474.15	5.33
474.504	5.46
474.859	5.56
475.213	5.32
475.567	5.28
475.921	5.26
476.275	5.45
476.63	5.41
476.984	5.3
477.338	5.6
477.692	5.54
478.045	5.56
478.399	5.57
478.753	5.37
479.107	5.46
479.461	5.37
479.814	5.48
480.168	5.47
480.521	5.56
480.875	5.68
481.228	5.45
481.582	5.26
481.935	5.48
482.289	5.39
482.642	5.26
482.995	5.43
483.348	5.53
483.701	5.35
484.055	5.47
484.408	5.4
484.761	5.35
485.114	5.25
485.466	5.16
485.819	5.18
486.172	5.15
486.525	5.2
486.878	5.12
487.23	5.16
487.583	5.27
487.936	5.34
488.288	5.4
488.641	5.34
488.993	5.36
489.345	5.29
489.698	5.24
490.05	5.26
490.402	5.31
490.754	5.2
491.107	5.29
491.459	5.38
491.811	5.4
492.163	5.44
492.515	5.44
492.866	5.44
493.218	5.44
493.57	5.48
493.922	5.33
494.274	5.35
494.625	5.35
494.977	5.53
495.328	5.53
495.68	5.52
496.031	5.5
496.383	5.55
496.734	5.7
497.086	5.65
497.437	5.7
497.788	5.56
498.139	5.69
498.49	5.74
498.842	5.59
499.193	5.52
499.544	5.7
499.894	5.59
500.245	5.62
500.596	5.67
500.947	5.64
501.298	5.61
501.648	5.59
501.999	5.67
502.35	5.71
502.7	5.67
503.051	5.75
503.401	5.76
503.752	5.88
504.102	5.75
504.452	5.69
504.803	5.74
505.153	5.72
505.503	5.89
505.853	5.8
506.203	5.7
506.553	5.82
506.903	5.64
507.253	5.83
507.603	5.97
507.953	5.81
508.303	5.76
508.652	5.63
509.002	5.94
509.352	5.8
509.701	6.01
510.051	5.86
510.4	5.83
510.75	5.8
511.099	5.78
511.449	5.85
511.798	5.8
512.147	5.81
512.496	5.73
512.846	5.85
513.195	5.89
513.544	5.76
513.893	5.97
514.242	5.74
514.591	5.91
514.939	5.89
515.288	5.76
515.637	5.97
515.986	5.85
516.334	5.92
516.683	5.85
517.032	5.98
517.38	5.96
517.729	5.93
518.077	6.04
518.426	6
518.774	6.04
519.122	5.93
519.47	5.95
519.819	5.94
520.167	5.97
520.515	6.03
520.863	5.89
521.211	5.99
521.559	5.99
521.907	6.06
522.255	5.96
522.602	6.01
522.95	6.07
523.298	6.07
523.645	6.13
523.993	6.1
524.341	6.09
524.688	6.14
525.036	6.16
525.383	6.02
525.73	6.2
526.078	6.18
526.425	6.15
526.772	6.27
527.119	6.04
527.466	6.04
527.814	6.09
528.161	6.07
528.508	6.13
528.854	6.04
529.201	6.18
529.548	6.09
529.895	6.09
530.242	6.06
530.588	6.05
530.935	5.95
531.282	5.94
531.628	6
531.975	5.91
532.321	6.06
532.667	6.1
533.014	6.16
533.36	6.23
533.706	6.3
534.052	6.37
534.399	6.3
534.745	6.24
535.091	6.24
535.437	6.27
535.783	6.16
536.129	6.28
536.474	6.31
536.82	6.18
537.166	6.4
537.512	6.38
537.857	6.29
538.203	6.52
538.549	6.45
538.894	6.42
539.239	6.36
539.585	6.37
539.93	6.6
540.276	6.49
540.621	6.51
540.966	6.54
541.311	6.66
541.656	6.5
542.001	6.66
542.346	6.59
542.691	6.64
543.036	6.55
543.381	6.44
543.726	6.37
544.071	6.4
544.415	6.41
544.76	6.43
545.105	6.43
545.449	6.56
545.794	6.57
546.138	6.67
546.483	6.57
546.827	6.74
547.171	6.73
547.516	6.73
547.86	6.85
548.204	6.86
548.548	6.79
548.892	6.85
549.236	6.83
549.58	6.83
549.924	6.96
550.268	6.87
550.612	6.91
550.956	6.96
551.3	6.96
551.643	7.09
551.987	7.03
552.33	7.16
552.674	7
553.017	7.01
553.361	7.05
553.704	7.16
554.048	7.27
554.391	7.33
554.734	7.25
555.077	7.16
555.42	7.17
555.764	7.16
556.107	7.24
556.45	7.26
556.793	7.03
557.135	7.38
557.478	7.18
557.821	7.35
558.164	7.6
558.507	7.42
558.849	7.17
559.192	7.29
559.534	7.46
559.877	7.56
560.219	7.59
560.562	7.4
560.904	7.68
561.246	7.79
561.589	7.65
561.931	7.77
562.273	7.34
562.615	7.43
562.957	7.59
563.299	7.55
563.641	7.57
563.983	7.63
564.325	7.75
564.667	7.61
565.008	7.5
565.35	7.75
565.692	7.83
566.033	7.8
566.375	7.86
566.716	7.73
567.058	7.83
567.399	7.83
567.741	8.04
568.082	7.63
568.423	7.79
568.764	7.97
569.105	7.68
569.447	7.84
569.788	7.75
570.129	7.95
570.47	8.1
570.811	8.04
571.151	8.16
571.492	7.97
571.833	7.78
572.174	7.98
572.514	8.06
572.855	7.9
573.195	8.01
573.536	8.1
573.876	7.98
574.217	8.16
574.557	7.99
574.898	8.24
575.238	8.09
575.578	8.21
575.918	8.29
576.258	8.31
576.598	8.31
576.938	8.34
577.278	8.55
577.618	8.15
577.958	8.46
578.298	8.62
578.638	8.23
578.977	8.39
579.317	8.53
579.657	8.73
579.996	8.61
580.336	8.75
580.675	8.85
581.014	8.5
581.354	8.62
581.693	8.76
582.032	8.85
582.372	8.61
582.711	8.69
583.05	8.85
583.389	8.82
583.728	9.05
584.067	8.95
584.406	8.96
584.745	8.67
585.083	9.18
585.422	9.1
585.761	8.88
586.1	9.25
586.438	9.12
586.777	9.02
587.115	9.12
587.454	8.96
587.792	9.27
588.13	9.16
588.469	9.36
588.807	9.32
589.145	9.44
589.483	9.26
589.821	9.35
590.159	9.28
590.497	9.59
590.835	9.43
591.173	9.31
591.511	9.54
591.849	9.44
592.187	9.38
592.524	9.56
592.862	9.46
593.2	9.54
593.537	9.62
593.875	9.46
594.212	9.23
594.55	9.76
594.887	9.69
595.224	9.58
595.561	9.84
595.899	9.99
596.236	10.05
596.573	9.87
596.91	10.13
597.247	9.88
597.584	9.97
597.921	10.16
598.258	10.1
598.594	10.13
598.931	10.04
599.268	10.15
599.604	10.28
599.941	10.15
600.277	9.89
600.614	10.1
600.95	10.22
601.287	10.19
601.623	9.91
601.959	10.2
602.296	10.62
602.632	10.23
602.968	10.46
603.304	10.73
603.64	10.45
603.976	10.61
604.312	10.68
604.648	10.58
604.984	10.4
605.319	10.56
605.655	10.61
605.991	10.68
606.326	10.84
606.662	10.65
606.998	10.5
607.333	10.71
607.668	10.69
608.004	10.78
608.339	10.65
608.674	10.68
609.01	10.71
609.345	10.8
609.68	10.83
610.015	10.65
610.35	10.75
610.685	11.04
611.02	10.9
611.355	11.14
611.689	10.96
612.024	11.05
612.359	10.95
612.694	11.07
613.028	10.98
613.363	10.9
613.697	11.27
614.032	11.28
614.366	11.12
614.7	11.28
615.035	11.5
615.369	10.97
615.703	11.37
616.037	11.54
616.371	11.75
616.705	11.81
617.039	11.47
617.373	11.54
617.707	11.71
618.041	11.72
618.375	11.6
618.709	11.73
619.042	11.87
619.376	12.1
619.71	11.74
620.043	11.66
620.377	11.46
620.71	11.89
621.043	11.93
621.377	11.88
621.71	11.8
622.043	11.75
622.376	11.72
622.709	11.74
623.043	12.34
623.376	11.89
623.709	12.28
624.041	12.01
624.374	12.46
624.707	12.5
625.04	12.18
625.373	11.84
625.705	11.87
626.038	12.21
626.37	12.49
626.703	12.42
627.035	12.48
627.368	12.44
627.7	12.54
628.032	12.42
628.365	12.49
628.697	12.38
629.029	12.66
629.361	12.67
629.693	12.57
630.025	12.62
630.357	12.45
630.689	12.84
631.021	12.7
631.353	12.94
631.684	12.8
632.016	12.96
632.348	12.57
632.679	12.61
633.011	12.88
633.342	13.08
633.674	13.35
634.005	12.85
634.336	13.38
634.668	13.13
634.999	12.93
635.33	13.46
635.661	13.42
635.992	13.45
636.323	13.16
636.654	12.75
636.985	12.9
637.316	12.98
637.647	13.49
637.977	12.85
638.308	13.39
638.639	13.17
638.969	13.68
639.3	13.58
639.63	13.39
639.961	13.06
640.291	13.23
640.622	13.55
640.952	13.96
641.282	13.83
641.612	13.54
641.943	13.94
642.273	13.97
642.603	13.6
642.933	14.08
643.263	13.56
643.592	13.62
643.922	14.22
644.252	13.53
644.582	14.27
644.911	13.88
645.241	13.5
645.571	13.97
645.9	14.02
646.23	14.13
646.559	14.14
646.888	14.63
647.218	14.3
647.547	13.55
647.876	14.35
648.205	13.66
648.534	14.82
648.863	13.91
649.192	14.05
649.521	14.55
649.85	14.16
650.179	14.25
650.508	14.25
650.837	14.77
651.165	14.83
651.494	14.75
651.822	14.84
652.151	15.01
652.479	14.66
652.808	14.77
653.136	15
653.465	14.98
653.793	14.38
654.121	15.05
654.449	14.63
654.777	15.1
655.105	14.91
655.433	15.02
655.761	15.21
656.089	14.53
656.417	14.84
656.745	15.21
657.073	15.74
657.4	15.65
657.728	15.28
658.056	15.56
658.383	15.27
658.711	15.01
659.038	15.61
659.365	15.57
659.693	15.07
660.02	15.83
660.347	15.65
660.674	15.28
661.001	15.43
661.329	15.3
661.656	15.4
661.982	15.4
662.309	15.95
662.636	15.79
662.963	15.61
663.29	15.77
663.616	15.47
663.943	15.29
664.27	15.73
664.596	15.82
664.923	15.56
665.249	15.69
665.576	15.09
665.902	15.47
666.228	15.94
666.554	15.43
666.881	16.43
667.207	16.09
667.533	16.36
667.859	16.3
668.185	16.31
668.511	16.79
668.837	15.97
669.162	16.37
669.488	15.76
669.814	16.56
670.139	16.5
670.465	17.2
670.791	16.38
671.116	16
671.442	17.24
671.767	15.67
672.092	16.81
672.418	17.01
672.743	16.69
673.068	16.68
673.393	16.18
673.718	16.75
674.043	17.13
674.368	16.83
674.693	16.49
675.018	16.65
675.343	17.57
675.667	17.29
675.992	16.95
676.317	16.94
676.641	16.61
676.966	16.7
677.29	16.6
677.615	17.33
677.939	16.95
678.264	17.14
678.588	17.52
678.912	17.19
679.236	17.55
679.56	17.65
679.885	17.37
680.209	17.87
680.532	17.18
680.856	17.93
681.18	17.44
681.504	17.47
681.828	17.69
682.152	17.29
682.475	18.02
682.799	17.74
683.122	17.16
683.446	17.56
683.769	17.62
684.093	17.75
684.416	18.06
684.739	18.06
685.062	18.01
685.386	17.9
685.709	18.06
686.032	18.76
686.355	17.61
