Data from 97280_chest_Reflection__3__19.txt Node

Date: Fri Sep 23 19:38:48 CDT 2022
User: ToomeyLab
Spectrometer: FLMS14357
Trigger mode: 0
Integration Time (sec): 1.000000E-2
Scans to average: 100
Electric dark correction enabled: true
Nonlinearity correction enabled: false
Boxcar width: 0
XAxis mode: Wavelengths
Number of Pixels in Spectrum: 2048
>>>>>Begin Spectral Data<<<<<
189.047	-33.14
189.435	-33.14
189.823	-33.14
190.211	-717.05
190.599	1100
190.987	68.61
191.375	65.83
191.763	63.59
192.151	-822.3
192.538	433.33
192.926	816.57
193.314	300
193.702	-25.19
194.089	-100.55
194.477	79.84
194.864	81.82
195.252	-32.5
195.639	-90.04
196.027	-2.03
196.414	14.89
196.801	385.82
197.189	801.49
197.576	-32.98
197.963	58.09
198.351	47.7
198.738	30.01
199.125	15.67
199.512	59.89
199.899	-34.64
200.286	7.51
200.673	-2.48
201.06	12.62
201.447	31.64
201.833	17.87
202.22	4.91
202.607	4.53
202.994	9.92
203.38	-12.63
203.767	16.36
204.154	10.99
204.54	20.36
204.927	19.12
205.313	36.69
205.699	-24.12
206.086	-5.89
206.472	29.76
206.858	30.14
207.245	16.47
207.631	-13.55
208.017	3.78
208.403	-0.08
208.789	24.77
209.175	43.16
209.561	21.42
209.947	10.82
210.333	7.27
210.719	-10.8
211.105	27.35
211.491	11.12
211.876	5.5
212.262	-14.19
212.648	-19.27
213.034	-7.94
213.419	2.59
213.805	24.72
214.19	-12.88
214.576	28.06
214.961	14.95
215.346	10.87
215.732	24.1
216.117	20.04
216.502	14.85
216.888	2.5
217.273	25.17
217.658	-10.17
218.043	19.3
218.428	17.88
218.813	33.57
219.198	11.65
219.583	-4.28
219.968	21.6
220.353	0.82
220.738	2.3
221.122	12.35
221.507	2.23
221.892	8.52
222.276	-13.87
222.661	2.62
223.046	-0.53
223.43	-0.1
223.815	13.64
224.199	2
224.583	16.08
224.968	2.79
225.352	4.63
225.736	1.39
226.121	8.23
226.505	5.2
226.889	10.8
227.273	8.66
227.657	3.85
228.041	8.43
228.425	9.9
228.809	4.65
229.193	6.24
229.577	7.55
229.961	6.76
230.344	6.09
230.728	5.23
231.112	5.48
231.495	4.82
231.879	4.66
232.263	6.78
232.646	6.74
233.03	5.62
233.413	6.42
233.797	5.19
234.18	8.1
234.563	4.83
234.946	7.26
235.33	5.57
235.713	7.02
236.096	3.67
236.479	5.08
236.862	7.48
237.245	6.87
237.628	7.04
238.011	7.05
238.394	6.65
238.777	4.73
239.16	6.01
239.543	5.87
239.925	5.7
240.308	6.75
240.691	6.74
241.073	4.97
241.456	6.14
241.838	6.61
242.221	7.17
242.603	7.43
242.986	5.62
243.368	5.86
243.75	6.53
244.133	6.09
244.515	5.81
244.897	6.53
245.279	6.48
245.661	6.54
246.043	6.67
246.425	5.98
246.807	5.41
247.189	7.16
247.571	6.03
247.953	6.68
248.335	6.65
248.717	6.41
249.098	6.07
249.48	5.95
249.862	6.13
250.243	6.6
250.625	6.36
251.006	6.28
251.388	5.79
251.769	6.28
252.151	5.17
252.532	6.12
252.913	7
253.295	6.4
253.676	6.69
254.057	6.28
254.438	5.89
254.819	6.44
255.2	6.39
255.581	7.05
255.962	5.91
256.343	6.53
256.724	5.7
257.105	5.88
257.486	5.74
257.867	5.19
258.247	6.76
258.628	5.7
259.009	5.46
259.389	6.05
259.77	5.29
260.15	5.32
260.531	5.95
260.911	6.24
261.292	6.08
261.672	6.03
262.052	5.64
262.432	5.58
262.813	5.67
263.193	5.97
263.573	5.95
263.953	5.89
264.333	5.76
264.713	6.34
265.093	6.28
265.473	6.42
265.853	5.7
266.233	5.54
266.612	5.79
266.992	6.76
267.372	6.39
267.752	5.97
268.131	6.23
268.511	5.62
268.89	5.53
269.27	5.94
269.649	5.83
270.029	5.4
270.408	5.45
270.787	5.32
271.167	5.61
271.546	6.06
271.925	5.58
272.304	5.89
272.683	5.97
273.062	5.71
273.441	5.66
273.82	5.17
274.199	5.58
274.578	5.48
274.957	5.29
275.336	5.51
275.715	5.79
276.093	6
276.472	6.46
276.851	6.35
277.229	5.9
277.608	5.43
277.986	5.29
278.365	5.79
278.743	6.07
279.122	5.1
279.5	5.31
279.878	5.55
280.257	5.54
280.635	5.53
281.013	5.82
281.391	5.57
281.769	6.14
282.147	5.58
282.525	5.64
282.903	5.61
283.281	5.9
283.659	5.5
284.037	5.68
284.415	5.76
284.792	5.58
285.17	5.56
285.548	5.74
285.925	5.98
286.303	5.95
286.68	5.71
287.058	5.82
287.435	5.57
287.813	5.71
288.19	5.76
288.567	5.77
288.945	5.91
289.322	5.85
289.699	5.96
290.076	5.67
290.453	5.73
290.83	6.15
291.207	5.77
291.584	5.81
291.961	5.98
292.338	6.2
292.715	5.59
293.092	5.93
293.469	6.28
293.845	6.14
294.222	6.12
294.599	5.87
294.975	6.42
295.352	6.36
295.728	6.44
296.105	5.93
296.481	6.37
296.858	6.22
297.234	6.34
297.61	6.14
297.986	6.56
298.363	6.52
298.739	6.62
299.115	6.19
299.491	6.19
299.867	6
300.243	6.48
300.619	6.87
300.995	6.66
301.371	6.42
301.746	6.81
302.122	6.32
302.498	6.66
302.874	6.41
303.249	6.7
303.625	6.38
304	5.96
304.376	6.34
304.751	6.6
305.127	7.06
305.502	6.67
305.878	6.81
306.253	6.97
306.628	6.84
307.003	6.01
307.378	6.76
307.754	6.83
308.129	6.69
308.504	6.67
308.879	7.01
309.254	7.19
309.629	6.85
310.003	7.25
310.378	6.71
310.753	6.85
311.128	6.19
311.502	6.51
311.877	6.87
312.252	6.91
312.626	6.76
313.001	6.91
313.375	6.79
313.75	6.7
314.124	6.15
314.498	6.48
314.873	6.82
315.247	6.94
315.621	6.63
315.995	7.29
316.369	7.24
316.743	6.64
317.117	6.41
317.491	6.84
317.865	7.08
318.239	7.8
318.613	6.6
318.987	6.11
319.361	6.54
319.734	6.96
320.108	7.27
320.482	7
320.855	6.27
321.229	7.15
321.602	6.89
321.976	7.09
322.349	7
322.723	6.9
323.096	6.82
323.469	6.64
323.843	6.46
324.216	7.19
324.589	7.24
324.962	7.1
325.335	7.18
325.708	7.35
326.081	7.02
326.454	7.12
326.827	6.99
327.2	6.88
327.573	7.5
327.945	7.64
328.318	6.76
328.691	7.4
329.063	6.68
329.436	7.06
329.809	7.32
330.181	7.16
330.553	6.48
330.926	7
331.298	7.55
331.671	7.06
332.043	7.01
332.415	7
332.787	6.78
333.159	7.29
333.532	6.5
333.904	6.94
334.276	6.91
334.648	6.84
335.02	6.89
335.391	7.31
335.763	6.69
336.135	7.09
336.507	7.79
336.879	6.64
337.25	7.42
337.622	7.03
337.993	7.69
338.365	7.11
338.736	7.79
339.108	7.77
339.479	6.82
339.851	7.56
340.222	7.24
340.593	7
340.964	7.28
341.336	7.45
341.707	7.96
342.078	6.98
342.449	7.06
342.82	7.29
343.191	6.87
343.562	6.71
343.933	8
344.303	7.11
344.674	7.16
345.045	7.69
345.416	7.12
345.786	7.68
346.157	7.1
346.527	7.08
346.898	7.33
347.268	7.24
347.639	7.14
348.009	7.34
348.38	7.06
348.75	7.08
349.12	7.15
349.49	7.28
349.861	7.4
350.231	7.5
350.601	7.05
350.971	7.63
351.341	7.32
351.711	7.4
352.081	7.39
352.45	7.08
352.82	7.27
353.19	7.7
353.56	7.38
353.929	6.91
354.299	7.19
354.669	7.6
355.038	7.54
355.408	7
355.777	7.48
356.147	6.97
356.516	7.37
356.885	7.21
357.254	7.24
357.624	7.25
357.993	7.34
358.362	7.06
358.731	7.11
359.1	7.61
359.469	7.31
359.838	7.34
360.207	7.14
360.576	7.67
360.945	7.5
361.314	7.11
361.682	7.23
362.051	7.43
362.42	7.43
362.788	7.26
363.157	7.65
363.525	7.72
363.894	7.4
364.262	7.22
364.631	7.19
364.999	7.18
365.367	7.27
365.735	7.58
366.104	7.42
366.472	7.53
366.84	7.53
367.208	7.43
367.576	7.7
367.944	7.58
368.312	7.73
368.68	7.5
369.048	7.47
369.416	7.56
369.783	7.47
370.151	7.49
370.519	7.32
370.886	7.77
371.254	7.53
371.621	7.62
371.989	7.59
372.356	7.99
372.724	7.32
373.091	7.47
373.458	7.37
373.826	7.42
374.193	7.39
374.56	7.27
374.927	7.51
375.294	7.38
375.661	7.39
376.028	7.56
376.395	7.33
376.762	7.56
377.129	7.36
377.496	7.75
377.863	7.7
378.229	7.56
378.596	7.46
378.963	7.94
379.329	7.76
379.696	7.39
380.062	7.48
380.429	7.27
380.795	7.18
381.161	7.57
381.528	7.8
381.894	7.62
382.26	7.77
382.626	7.72
382.993	7.77
383.359	7.7
383.725	7.86
384.091	7.79
384.457	7.37
384.823	7.41
385.188	7.65
385.554	7.69
385.92	7.99
386.286	7.7
386.651	7.89
387.017	7.85
387.383	7.42
387.748	7.85
388.114	7.87
388.479	7.58
388.845	7.73
389.21	7.85
389.575	7.64
389.94	7.67
390.306	7.55
390.671	7.53
391.036	7.65
391.401	7.87
391.766	7.74
392.131	7.98
392.496	7.78
392.861	8.09
393.226	7.83
393.591	7.62
393.956	7.77
394.32	7.72
394.685	7.69
395.05	7.88
395.414	7.78
395.779	7.77
396.143	7.71
396.508	7.74
396.872	7.93
397.236	7.87
397.601	7.93
397.965	7.91
398.329	7.78
398.694	7.66
399.058	7.74
399.422	8.12
399.786	8.08
400.15	7.78
400.514	7.83
400.878	7.66
401.242	7.54
401.605	8.08
401.969	7.83
402.333	7.73
402.697	7.64
403.06	7.99
403.424	7.95
403.787	7.79
404.151	7.74
404.514	7.68
404.878	7.73
405.241	8.01
405.604	7.8
405.968	7.83
406.331	7.74
406.694	7.85
407.057	7.85
407.42	7.82
407.783	7.74
408.146	7.84
408.509	8.04
408.872	7.79
409.235	8.04
409.598	7.94
409.961	7.67
410.323	8.12
410.686	7.95
411.049	7.8
411.411	7.93
411.774	7.7
412.136	7.82
412.499	7.81
412.861	7.81
413.223	7.86
413.586	7.95
413.948	7.93
414.31	7.71
414.672	8.01
415.035	8
415.397	8.05
415.759	8.06
416.121	8.15
416.483	8
416.845	7.84
417.206	7.94
417.568	8.07
417.93	7.81
418.292	7.92
418.653	8.18
419.015	8.07
419.377	7.92
419.738	7.85
420.1	8
420.461	7.98
420.822	8.05
421.184	7.95
421.545	7.95
421.906	7.96
422.267	7.9
422.629	7.93
422.99	8
423.351	7.91
423.712	7.69
424.073	7.82
424.434	7.95
424.795	8.01
425.155	7.92
425.516	8.08
425.877	7.89
426.238	7.91
426.598	7.87
426.959	7.87
427.32	7.84
427.68	7.93
428.041	7.97
428.401	8.01
428.761	8.13
429.122	8.01
429.482	7.92
429.842	8.19
430.202	8.21
430.563	8.06
430.923	8.34
431.283	8.11
431.643	8.02
432.003	8.2
432.363	8.27
432.722	8.28
433.082	8.16
433.442	8.19
433.802	8.21
434.161	8.21
434.521	8.37
434.881	8.09
435.24	8.27
435.6	8.16
435.959	8.2
436.319	8.08
436.678	8.13
437.037	8.27
437.396	8.23
437.756	8.3
438.115	8.26
438.474	8.39
438.833	8.39
439.192	8.51
439.551	8.35
439.91	8.29
440.269	8.34
440.628	8.36
440.987	8.42
441.345	8.36
441.704	8.36
442.063	8.27
442.421	8.28
442.78	8.33
443.138	8.29
443.497	8.22
443.855	8.14
444.214	8.39
444.572	8.36
444.93	8.54
445.288	8.5
445.647	8.46
446.005	8.5
446.363	8.49
446.721	8.4
447.079	8.38
447.437	8.49
447.795	8.39
448.153	8.25
448.51	8.33
448.868	8.31
449.226	8.38
449.584	8.32
449.941	8.32
450.299	8.45
450.656	8.47
451.014	8.46
451.371	8.34
451.729	8.38
452.086	8.54
452.443	8.47
452.801	8.55
453.158	8.67
453.515	8.63
453.872	8.64
454.229	8.62
454.586	8.51
454.943	8.61
455.3	8.45
455.657	8.51
456.014	8.5
456.371	8.51
456.727	8.62
457.084	8.55
457.441	8.62
457.797	8.64
458.154	8.61
458.51	8.53
458.867	8.91
459.223	8.67
459.58	8.79
459.936	8.84
460.292	8.61
460.648	8.78
461.005	8.84
461.361	8.72
461.717	8.65
462.073	8.61
462.429	8.36
462.785	8.63
463.141	8.5
463.496	8.68
463.852	8.81
464.208	8.65
464.564	8.9
464.919	8.77
465.275	8.84
465.631	8.67
465.986	8.75
466.342	9.04
466.697	9.02
467.052	8.98
467.408	8.97
467.763	8.81
468.118	8.76
468.473	8.84
468.829	8.98
469.184	8.94
469.539	8.77
469.894	8.95
470.249	8.92
470.603	8.97
470.958	8.87
471.313	8.95
471.668	8.96
472.023	8.96
472.377	8.89
472.732	8.91
473.086	9
473.441	9.13
473.795	9.04
474.15	9
474.504	9.08
474.859	8.97
475.213	9.16
475.567	8.82
475.921	9.04
476.275	8.92
476.63	9.08
476.984	9.18
477.338	9.12
477.692	9.02
478.045	9.03
478.399	8.94
478.753	9.08
479.107	8.99
479.461	9.13
479.814	8.99
480.168	9.07
480.521	9.12
480.875	9.14
481.228	9.12
481.582	8.98
481.935	9.13
482.289	9.14
482.642	9.11
482.995	9.22
483.348	9.01
483.701	9.13
484.055	9.11
484.408	9.1
484.761	9.06
485.114	8.99
485.466	9
485.819	8.82
486.172	8.62
486.525	8.53
486.878	8.47
487.23	8.53
487.583	8.64
487.936	8.89
488.288	9
488.641	9.04
488.993	9.05
489.345	8.99
489.698	8.84
490.05	8.89
490.402	8.73
490.754	8.76
491.107	8.84
491.459	8.84
491.811	8.99
492.163	9.18
492.515	9.23
492.866	9.25
493.218	9.19
493.57	9.03
493.922	9
494.274	8.89
494.625	8.84
494.977	8.96
495.328	9.15
495.68	9.24
496.031	9.23
496.383	9.37
496.734	9.44
497.086	9.45
497.437	9.55
497.788	9.5
498.139	9.51
498.49	9.37
498.842	9.43
499.193	9.36
499.544	9.3
499.894	9.37
500.245	9.35
500.596	9.46
500.947	9.32
501.298	9.52
501.648	9.57
501.999	9.43
502.35	9.57
502.7	9.45
503.051	9.36
503.401	9.57
503.752	9.48
504.102	9.47
504.452	9.61
504.803	9.64
505.153	9.71
505.503	9.53
505.853	9.61
506.203	9.68
506.553	9.7
506.903	9.71
507.253	9.56
507.603	9.5
507.953	9.6
508.303	9.66
508.652	9.58
509.002	9.77
509.352	9.77
509.701	9.76
510.051	9.66
510.4	9.66
510.75	9.66
511.099	9.77
511.449	9.59
511.798	9.77
512.147	9.59
512.496	9.66
512.846	9.56
513.195	9.62
513.544	9.89
513.893	9.64
514.242	9.71
514.591	9.68
514.939	9.78
515.288	9.74
515.637	9.71
515.986	9.89
516.334	9.7
516.683	9.87
517.032	9.85
517.38	10.02
517.729	9.93
518.077	9.84
518.426	9.91
518.774	9.99
519.122	9.94
519.47	9.98
519.819	9.88
520.167	9.99
520.515	9.92
520.863	9.82
521.211	9.78
521.559	9.76
521.907	9.79
522.255	9.94
522.602	9.86
522.95	9.94
523.298	10.01
523.645	9.96
523.993	10.06
524.341	10.15
524.688	10.05
525.036	10.13
525.383	10.04
525.73	10.21
526.078	10.15
526.425	10.17
526.772	10.07
527.119	10.06
527.466	10.06
527.814	10.05
528.161	10.04
528.508	10.05
528.854	10.13
529.201	10.04
529.548	10.15
529.895	10.06
530.242	10.04
530.588	9.96
530.935	9.79
531.282	9.68
531.628	9.64
531.975	9.66
532.321	9.8
532.667	9.98
533.014	9.95
533.36	10.15
533.706	10.19
534.052	10.27
534.399	10.17
534.745	10.28
535.091	10.24
535.437	10.13
535.783	10.03
536.129	9.96
536.474	9.97
536.82	10.05
537.166	10.28
537.512	10.23
537.857	10.37
538.203	10.36
538.549	10.35
538.894	10.39
539.239	10.3
539.585	10.17
539.93	10.35
540.276	10.37
540.621	10.38
540.966	10.66
541.311	10.66
541.656	10.53
542.001	10.7
542.346	10.63
542.691	10.69
543.036	10.54
543.381	10.43
543.726	10.31
544.071	10.24
544.415	10.24
544.76	10.25
545.105	10.52
545.449	10.46
545.794	10.5
546.138	10.55
546.483	10.56
546.827	10.62
547.171	10.65
547.516	10.77
547.86	10.69
548.204	10.9
548.548	10.78
548.892	10.73
549.236	10.71
549.58	10.73
549.924	10.75
550.268	10.91
550.612	10.8
550.956	11.02
551.3	10.8
551.643	10.87
551.987	11.14
552.33	11.06
552.674	10.99
553.017	11.14
553.361	11.12
553.704	10.99
554.048	11.15
554.391	11.14
554.734	11.11
555.077	10.97
555.42	10.88
555.764	10.97
556.107	11.08
556.45	11.23
556.793	11.2
557.135	11.3
557.478	11.24
557.821	11.23
558.164	11.24
558.507	11.21
558.849	11.31
559.192	11.52
559.534	11.4
559.877	11.36
560.219	11.34
560.562	11.41
560.904	11.23
561.246	11.2
561.589	11.48
561.931	11.62
562.273	11.67
562.615	11.47
562.957	11.55
563.299	11.47
563.641	11.6
563.983	11.51
564.325	11.61
564.667	11.55
565.008	11.71
565.35	11.8
565.692	11.58
566.033	11.55
566.375	11.76
566.716	11.59
567.058	11.79
567.399	11.54
567.741	11.7
568.082	11.61
568.423	11.47
568.764	11.75
569.105	11.53
569.447	11.6
569.788	11.63
570.129	11.7
570.47	11.77
570.811	11.79
571.151	11.8
571.492	11.77
571.833	11.84
572.174	11.86
572.514	12.02
572.855	11.85
573.195	11.99
573.536	11.87
573.876	11.72
574.217	11.9
574.557	11.87
574.898	12
575.238	11.94
575.578	11.87
575.918	11.89
576.258	12.07
576.598	11.96
576.938	12.18
577.278	11.98
577.618	12.07
577.958	12.11
578.298	11.97
578.638	11.98
578.977	12.27
579.317	12.41
579.657	12.2
579.996	12.17
580.336	12.34
580.675	12.04
581.014	12.12
581.354	12.25
581.693	12.35
582.032	12.26
582.372	12.55
582.711	12.57
583.05	12.43
583.389	12.44
583.728	12.56
584.067	12.39
584.406	12.58
584.745	12.38
585.083	12.46
585.422	12.5
585.761	12.49
586.1	12.53
586.438	12.45
586.777	12.63
587.115	12.67
587.454	12.64
587.792	13.08
588.13	12.88
588.469	12.72
588.807	12.78
589.145	12.69
589.483	12.81
589.821	12.75
590.159	13.04
590.497	12.74
590.835	12.62
591.173	12.79
591.511	12.78
591.849	12.87
592.187	12.81
592.524	13.04
592.862	12.98
593.2	12.96
593.537	12.85
593.875	13
594.212	13.07
594.55	13.1
594.887	13.07
595.224	12.86
595.561	13.1
595.899	12.87
596.236	12.93
596.573	13.27
596.91	13.08
597.247	13.05
597.584	13.04
597.921	12.92
598.258	12.89
598.594	13.16
598.931	13.17
599.268	13
599.604	13
599.941	13.09
600.277	13.06
600.614	13.06
600.95	13.24
601.287	13.14
601.623	13.14
601.959	13.36
602.296	13.16
602.632	13.49
602.968	13.14
603.304	13.65
603.64	13.56
603.976	13.41
604.312	13.52
604.648	13.57
604.984	13.47
605.319	13.79
605.655	13.63
605.991	13.38
606.326	13.62
606.662	13.69
606.998	13.61
607.333	13.44
607.668	13.4
608.004	13.46
608.339	13.5
608.674	13.76
609.01	13.74
609.345	13.88
609.68	13.9
610.015	13.82
610.35	13.66
610.685	13.82
611.02	13.94
611.355	14.01
611.689	13.9
612.024	13.68
612.359	13.88
612.694	14.05
613.028	14.01
613.363	13.64
613.697	13.66
614.032	14.08
614.366	14.01
614.7	13.95
615.035	14.11
615.369	14.3
615.703	14.17
616.037	14.09
616.371	14.18
616.705	13.92
617.039	14.33
617.373	14.3
617.707	14.44
618.041	14.52
618.375	14.35
618.709	14.03
619.042	14.34
619.376	14.62
619.71	14.55
620.043	14.27
620.377	13.87
620.71	14.54
621.043	14.46
621.377	14.31
621.71	14.62
622.043	14.51
622.376	14.27
622.709	14.22
623.043	13.74
623.376	14.77
623.709	14.85
624.041	14.43
624.374	14.31
624.707	14.46
625.04	14.71
625.373	14.78
625.705	14.57
626.038	14.61
626.37	14.7
626.703	14.64
627.035	14.93
627.368	15
627.7	14.73
628.032	14.47
628.365	14.79
628.697	14.58
629.029	14.87
629.361	14.91
629.693	14.85
630.025	14.91
630.357	15.19
630.689	14.72
631.021	14.6
631.353	15.17
631.684	15.02
632.016	15.01
632.348	14.93
632.679	14.91
633.011	15.06
633.342	15.22
633.674	15.05
634.005	15.11
634.336	15.5
634.668	15.47
634.999	15.18
635.33	15.47
635.661	15.4
635.992	15.55
636.323	15.53
636.654	15.52
636.985	15.5
637.316	15.15
637.647	15.54
637.977	15.23
638.308	15.23
638.639	15.24
638.969	15.32
639.3	15.26
639.63	14.85
639.961	15.54
640.291	15.91
640.622	15.21
640.952	15.36
641.282	15.59
641.612	15.24
641.943	15.89
642.273	15.67
642.603	15.57
642.933	15.97
643.263	15.66
643.592	15.59
643.922	15.76
644.252	16.19
644.582	16.19
644.911	15.71
645.241	15.72
645.571	16.54
645.9	15.96
646.23	15.99
646.559	15.99
646.888	15.75
647.218	15.8
647.547	15.79
647.876	15.84
648.205	15.94
648.534	16.12
648.863	16.21
649.192	16.14
649.521	16.05
649.85	15.96
650.179	15.55
650.508	15.88
650.837	16.23
651.165	16.56
651.494	16.03
651.822	16.12
652.151	16.28
652.479	16.03
652.808	16.32
653.136	16.39
653.465	15.99
653.793	16.41
654.121	15.8
654.449	16.63
654.777	16.39
655.105	16.11
655.433	16.35
655.761	16.54
656.089	16.51
656.417	16.38
656.745	16.23
657.073	16.15
657.4	17.05
657.728	16.21
658.056	17.03
658.383	16.71
658.711	16.54
659.038	16.68
659.365	16.4
659.693	16.81
660.02	16.97
660.347	16.81
660.674	16.64
661.001	16.78
661.329	16.78
661.656	16.73
661.982	16.53
662.309	16.77
662.636	16.67
662.963	17.06
663.29	16.51
663.616	17.04
663.943	16.96
664.27	16.85
664.596	16.84
664.923	16.92
665.249	17.91
665.576	17.45
665.902	17
666.228	16.93
666.554	17.2
666.881	17.32
667.207	16.8
667.533	16.73
667.859	17.26
668.185	17.34
668.511	17.36
668.837	17.2
669.162	17.22
669.488	17.21
669.814	17.42
670.139	17.28
670.465	17.18
670.791	17.57
671.116	17.84
671.442	17.51
671.767	17.11
672.092	16.86
672.418	17.58
672.743	17.68
673.068	16.98
673.393	17.56
673.718	17.44
674.043	17.63
674.368	17.54
674.693	17.05
675.018	17.99
675.343	18.22
675.667	17.47
675.992	17.65
676.317	17.57
676.641	17.52
676.966	17.76
677.29	17.62
677.615	17.89
677.939	17.59
678.264	18.08
678.588	17.17
678.912	17.25
679.236	17.35
679.56	17.96
679.885	17.96
680.209	17.83
680.532	18.07
680.856	17.71
681.18	18.2
681.504	18.06
681.828	18.17
682.152	18.63
682.475	18.06
682.799	18.15
