Data from 97280_chest_Reflection__2__18.txt Node

Date: Fri Sep 23 19:38:16 CDT 2022
User: ToomeyLab
Spectrometer: FLMS14357
Trigger mode: 0
Integration Time (sec): 1.000000E-2
Scans to average: 100
Electric dark correction enabled: true
Nonlinearity correction enabled: false
Boxcar width: 0
XAxis mode: Wavelengths
Number of Pixels in Spectrum: 2048
>>>>>Begin Spectral Data<<<<<
189.047	-24.72
189.435	-24.72
189.823	-24.72
190.211	416.09
190.599	5675
190.987	661.55
191.375	140.59
191.763	105.85
192.151	638.31
192.538	-13.03
192.926	507
193.314	147.11
193.702	-33.01
194.089	-82.84
194.477	71.6
194.864	56.2
195.252	160.18
195.639	-115.39
196.027	39.42
196.414	6.73
196.801	453.93
197.189	16.79
197.576	90.87
197.963	-24.82
198.351	38.76
198.738	-52.45
199.125	-11.72
199.512	46.71
199.899	31.03
200.286	3.42
200.673	41.45
201.06	-3.57
201.447	27.82
201.833	14.7
202.22	4.26
202.607	30.43
202.994	-6.78
203.38	-0.55
203.767	-26.01
204.154	15.53
204.54	22.07
204.927	12.8
205.313	22.71
205.699	22.34
206.086	-12.02
206.472	49.84
206.858	23.67
207.245	-2.74
207.631	5.59
208.017	0.43
208.403	19.74
208.789	5.23
209.175	-15.58
209.561	33.1
209.947	14.33
210.333	-5.98
210.719	39.36
211.105	28.66
211.491	29.65
211.876	15.12
212.262	0.17
212.648	0.27
213.034	-11.73
213.419	-11.81
213.805	29.3
214.19	0.98
214.576	17.78
214.961	23.35
215.346	-12.03
215.732	23.93
216.117	-2.99
216.502	18.59
216.888	22.52
217.273	31.11
217.658	1.57
218.043	9.24
218.428	9.78
218.813	16
219.198	-6.81
219.583	10.15
219.968	6.57
220.353	6.35
220.738	11.04
221.122	13.51
221.507	8.9
221.892	-5.77
222.276	-13.37
222.661	-0.57
223.046	-1.45
223.43	-5.39
223.815	4.27
224.199	8.13
224.583	9.88
224.968	-0.67
225.352	5.84
225.736	6
226.121	1.99
226.505	1.77
226.889	4.18
227.273	-2.34
227.657	-0.76
228.041	2.14
228.425	3.53
228.809	0.1
229.193	4.47
229.577	3.08
229.961	2.72
230.344	2.5
230.728	1.4
231.112	2.25
231.495	1.76
231.879	1.45
232.263	3.61
232.646	2.99
233.03	0.57
233.413	3.75
233.797	2.99
234.18	6.26
234.563	1.81
234.946	4.16
235.33	1.92
235.713	3.46
236.096	0.59
236.479	2.02
236.862	1.31
237.245	3.94
237.628	2.31
238.011	3.47
238.394	2.3
238.777	2.63
239.16	1.68
239.543	3.19
239.925	2.38
240.308	2.52
240.691	3.63
241.073	2.48
241.456	2.91
241.838	3.94
242.221	2.59
242.603	3.39
242.986	1.62
243.368	2.21
243.75	2.53
244.133	2.94
244.515	2.52
244.897	3.21
245.279	2.68
245.661	3.56
246.043	3.57
246.425	2.76
246.807	1.76
247.189	2.98
247.571	3.17
247.953	2.67
248.335	2.58
248.717	3.05
249.098	2.68
249.48	2.78
249.862	2.59
250.243	2.9
250.625	2.9
251.006	3.31
251.388	2.67
251.769	2.69
252.151	1.8
252.532	2.8
252.913	3.44
253.295	2.79
253.676	3.02
254.057	2.47
254.438	2.58
254.819	2.78
255.2	3.11
255.581	3.53
255.962	3.07
256.343	3.29
256.724	2.7
257.105	3.55
257.486	3.42
257.867	3.07
258.247	3.95
258.628	3.01
259.009	2.4
259.389	3.11
259.77	1.72
260.15	2.6
260.531	2.95
260.911	2.95
261.292	2.67
261.672	2.54
262.052	2.5
262.432	2.73
262.813	3.03
263.193	2.66
263.573	2.93
263.953	2.16
264.333	2.77
264.713	2.46
265.093	3.24
265.473	2.76
265.853	2.24
266.233	1.97
266.612	3.02
266.992	3.96
267.372	2.77
267.752	2.74
268.131	3.22
268.511	2.17
268.89	2.61
269.27	1.98
269.649	2.42
270.029	2.73
270.408	2.88
270.787	2.4
271.167	2.93
271.546	2.39
271.925	2.41
272.304	2.66
272.683	2.47
273.062	1.98
273.441	2.84
273.82	2.88
274.199	2.62
274.578	2.14
274.957	2.58
275.336	2.59
275.715	2.84
276.093	2.95
276.472	3.04
276.851	3.04
277.229	2.6
277.608	2.48
277.986	2.3
278.365	2.84
278.743	3.08
279.122	2.2
279.5	2.46
279.878	2.41
280.257	2.62
280.635	2.51
281.013	2.14
281.391	2.2
281.769	2.35
282.147	2.79
282.525	2.66
282.903	2.12
283.281	2.51
283.659	2.4
284.037	2.54
284.415	2.37
284.792	2.44
285.17	2.8
285.548	2.76
285.925	2.62
286.303	2.63
286.68	2.72
287.058	2.83
287.435	2.38
287.813	2.6
288.19	2.34
288.567	2.57
288.945	2.76
289.322	2.94
289.699	2.68
290.076	2.89
290.453	2.58
290.83	2.79
291.207	3.05
291.584	2.98
291.961	2.67
292.338	3.05
292.715	2.41
293.092	2.48
293.469	3.1
293.845	3.26
294.222	3.18
294.599	2.33
294.975	3.32
295.352	3.12
295.728	2.95
296.105	2.77
296.481	2.91
296.858	3.32
297.234	3.38
297.61	3.01
297.986	2.96
298.363	3.1
298.739	3.24
299.115	3.19
299.491	3.29
299.867	3.23
300.243	3.4
300.619	3.77
300.995	3.58
301.371	3.13
301.746	3.55
302.122	3.43
302.498	3.29
302.874	3.06
303.249	3.8
303.625	3.2
304	3.31
304.376	3.12
304.751	3.19
305.127	3.31
305.502	3.46
305.878	3.47
306.253	3.51
306.628	3.35
307.003	2.85
307.378	3.54
307.754	3.8
308.129	3.49
308.504	3.14
308.879	3.55
309.254	3.8
309.629	3.98
310.003	3.59
310.378	3.29
310.753	3.63
311.128	3.47
311.502	3.65
311.877	3.34
312.252	3.63
312.626	3.63
313.001	3.63
313.375	3.56
313.75	3.52
314.124	3.4
314.498	4.03
314.873	3.69
315.247	3.99
315.621	3.97
315.995	4
316.369	3.74
316.743	3.12
317.117	3.28
317.491	3.42
317.865	3.86
318.239	4.34
318.613	3.41
318.987	3.51
319.361	3.5
319.734	3.53
320.108	3.57
320.482	4.14
320.855	4.15
321.229	4.23
321.602	4.21
321.976	4.06
322.349	3.83
322.723	3.99
323.096	4.03
323.469	3.62
323.843	3.79
324.216	4.38
324.589	3.95
324.962	4.11
325.335	3.68
325.708	4.14
326.081	4.02
326.454	3.95
326.827	3.94
327.2	3.56
327.573	3.95
327.945	4.48
328.318	3.75
328.691	4.16
329.063	4.01
329.436	4.4
329.809	4.77
330.181	3.95
330.553	3.22
330.926	4.35
331.298	4.27
331.671	4.05
332.043	4.46
332.415	3.61
332.787	4.28
333.159	4.32
333.532	3.93
333.904	3.78
334.276	3.72
334.648	4.21
335.02	4.01
335.391	4.05
335.763	3.7
336.135	4.23
336.507	4.27
336.879	4
337.25	4.28
337.622	4.18
337.993	4.11
338.365	4.14
338.736	4.42
339.108	4.73
339.479	3.95
339.851	4.17
340.222	4.72
340.593	4.4
340.964	4.36
341.336	4.22
341.707	4.57
342.078	3.93
342.449	4.15
342.82	4.19
343.191	4.18
343.562	4.04
343.933	4.53
344.303	4.3
344.674	4.51
345.045	4.56
345.416	3.9
345.786	4.57
346.157	3.84
346.527	3.96
346.898	4.52
347.268	3.88
347.639	4.35
348.009	4.65
348.38	4.1
348.75	4.37
349.12	4.18
349.49	4.46
349.861	4.33
350.231	3.98
350.601	4.15
350.971	4.43
351.341	4.66
351.711	4.43
352.081	3.7
352.45	3.92
352.82	3.95
353.19	4.81
353.56	4.33
353.929	4.11
354.299	4.32
354.669	4.55
355.038	4.33
355.408	4.08
355.777	3.88
356.147	4.18
356.516	4.28
356.885	4.22
357.254	4.14
357.624	4.21
357.993	4.4
358.362	4.17
358.731	4.3
359.1	4.4
359.469	4.02
359.838	4.38
360.207	4.44
360.576	4.45
360.945	4.34
361.314	4.51
361.682	4.12
362.051	4.59
362.42	4.45
362.788	4.24
363.157	4.52
363.525	4.64
363.894	4.51
364.262	4.29
364.631	4.29
364.999	4.45
365.367	4.47
365.735	4.27
366.104	4.22
366.472	4.6
366.84	4.46
367.208	4.75
367.576	4.41
367.944	4.31
368.312	4.78
368.68	4.25
369.048	4.37
369.416	4.55
369.783	4.43
370.151	4.55
370.519	4.28
370.886	4.41
371.254	4.69
371.621	4.65
371.989	4.44
372.356	4.74
372.724	4.22
373.091	4.32
373.458	4.63
373.826	4.35
374.193	4.53
374.56	4.55
374.927	4.49
375.294	4.8
375.661	4.33
376.028	4.48
376.395	4.39
376.762	4.42
377.129	4.21
377.496	4.5
377.863	4.76
378.229	4.55
378.596	4.46
378.963	4.57
379.329	4.84
379.696	4.42
380.062	4.64
380.429	4.52
380.795	4.32
381.161	4.59
381.528	4.7
381.894	4.46
382.26	4.65
382.626	4.24
382.993	4.75
383.359	4.71
383.725	4.96
384.091	4.64
384.457	4.91
384.823	4.44
385.188	4.74
385.554	4.79
385.92	4.79
386.286	4.9
386.651	4.75
387.017	4.79
387.383	4.57
387.748	5.12
388.114	4.82
388.479	4.68
388.845	4.52
389.21	4.76
389.575	4.58
389.94	4.51
390.306	4.86
390.671	4.57
391.036	4.7
391.401	4.83
391.766	4.85
392.131	4.92
392.496	5.02
392.861	4.78
393.226	4.59
393.591	4.84
393.956	4.72
394.32	4.9
394.685	4.59
395.05	4.8
395.414	4.93
395.779	4.72
396.143	4.66
396.508	4.91
396.872	4.7
397.236	4.84
397.601	4.68
397.965	5.13
398.329	5.06
398.694	4.63
399.058	4.71
399.422	4.94
399.786	5.08
400.15	5.06
400.514	4.68
400.878	4.94
401.242	4.9
401.605	5.18
401.969	5.18
402.333	5.07
402.697	4.49
403.06	5.06
403.424	4.81
403.787	5.01
404.151	4.98
404.514	4.77
404.878	4.83
405.241	5.02
405.604	4.89
405.968	4.82
406.331	4.74
406.694	5.06
407.057	4.9
407.42	5
407.783	4.92
408.146	4.74
408.509	5.06
408.872	4.77
409.235	4.9
409.598	5.21
409.961	4.94
410.323	4.93
410.686	4.98
411.049	4.96
411.411	5.02
411.774	4.79
412.136	4.95
412.499	4.92
412.861	5.06
413.223	4.92
413.586	5.08
413.948	5.21
414.31	5.02
414.672	5.13
415.035	5
415.397	5.3
415.759	5.07
416.121	5.22
416.483	5.01
416.845	4.8
417.206	5.01
417.568	5.13
417.93	4.98
418.292	5.24
418.653	5.04
419.015	5.09
419.377	4.98
419.738	4.95
420.1	4.94
420.461	5.08
420.822	5.15
421.184	5.01
421.545	5
421.906	4.99
422.267	5.13
422.629	4.97
422.99	4.89
423.351	5.03
423.712	4.98
424.073	5.05
424.434	5.07
424.795	5.13
425.155	4.99
425.516	5.11
425.877	5.08
426.238	5.14
426.598	5.02
426.959	5.09
427.32	5.14
427.68	5.08
428.041	5.16
428.401	5.2
428.761	5.18
429.122	5.26
429.482	5.3
429.842	5.4
430.202	5.27
430.563	5.23
430.923	5.47
431.283	5.53
431.643	5.33
432.003	5.4
432.363	5.26
432.722	5.49
433.082	5.37
433.442	5.19
433.802	5.29
434.161	5.21
434.521	5.42
434.881	5.22
435.24	5.25
435.6	5.27
435.959	5.26
436.319	5.25
436.678	5.35
437.037	5.41
437.396	5.22
437.756	5.41
438.115	5.38
438.474	5.18
438.833	5.36
439.192	5.49
439.551	5.31
439.91	5.5
440.269	5.48
440.628	5.46
440.987	5.4
441.345	5.34
441.704	5.35
442.063	5.46
442.421	5.31
442.78	5.31
443.138	5.36
443.497	5.44
443.855	5.26
444.214	5.49
444.572	5.44
444.93	5.34
445.288	5.59
445.647	5.66
446.005	5.48
446.363	5.52
446.721	5.41
447.079	5.38
447.437	5.51
447.795	5.5
448.153	5.36
448.51	5.33
448.868	5.37
449.226	5.51
449.584	5.33
449.941	5.52
450.299	5.53
450.656	5.72
451.014	5.5
451.371	5.43
451.729	5.5
452.086	5.72
452.443	5.6
452.801	5.47
453.158	5.57
453.515	5.7
453.872	5.64
454.229	5.69
454.586	5.54
454.943	5.64
455.3	5.51
455.657	5.61
456.014	5.87
456.371	5.69
456.727	5.76
457.084	5.56
457.441	5.83
457.797	5.57
458.154	5.62
458.51	5.68
458.867	5.89
459.223	5.77
459.58	5.79
459.936	5.75
460.292	5.65
460.648	5.93
461.005	5.73
461.361	5.71
461.717	5.73
462.073	5.75
462.429	5.63
462.785	5.76
463.141	5.73
463.496	5.79
463.852	5.92
464.208	5.73
464.564	5.91
464.919	6
465.275	5.96
465.631	5.76
465.986	5.69
466.342	5.81
466.697	5.88
467.052	5.84
467.408	5.86
467.763	5.91
468.118	5.89
468.473	5.92
468.829	5.9
469.184	6.04
469.539	5.96
469.894	6.02
470.249	5.9
470.603	5.97
470.958	6.07
471.313	5.94
471.668	6.09
472.023	5.9
472.377	6
472.732	5.99
473.086	6.1
473.441	6.07
473.795	6.1
474.15	6.05
474.504	6.14
474.859	6.21
475.213	6.2
475.567	6.01
475.921	6.18
476.275	6.02
476.63	6.07
476.984	6.31
477.338	6.07
477.692	6.19
478.045	5.92
478.399	6.03
478.753	6.24
479.107	5.95
479.461	6.19
479.814	6.13
480.168	6.06
480.521	6
480.875	6.03
481.228	6.24
481.582	6.25
481.935	6.15
482.289	6.23
482.642	6.08
482.995	6.22
483.348	6.05
483.701	6.15
484.055	6.16
484.408	6.06
484.761	6
485.114	5.88
485.466	5.77
485.819	5.78
486.172	5.86
486.525	5.94
486.878	5.94
487.23	5.97
487.583	6.06
487.936	6.14
488.288	6.11
488.641	6.02
488.993	6.02
489.345	6.03
489.698	6.01
490.05	6.05
490.402	6.01
490.754	6.15
491.107	6.15
491.459	6.14
491.811	6.22
492.163	6.24
492.515	6.26
492.866	6.18
493.218	6.01
493.57	6.03
493.922	6.06
494.274	6.26
494.625	6.26
494.977	6.28
495.328	6.39
495.68	6.44
496.031	6.45
496.383	6.43
496.734	6.54
497.086	6.51
497.437	6.49
497.788	6.49
498.139	6.59
498.49	6.47
498.842	6.46
499.193	6.5
499.544	6.43
499.894	6.46
500.245	6.48
500.596	6.49
500.947	6.61
501.298	6.52
501.648	6.65
501.999	6.53
502.35	6.75
502.7	6.66
503.051	6.65
503.401	6.61
503.752	6.53
504.102	6.73
504.452	6.67
504.803	6.7
505.153	6.72
505.503	6.6
505.853	6.87
506.203	6.76
506.553	6.76
506.903	6.75
507.253	6.72
507.603	6.68
507.953	6.69
508.303	6.84
508.652	6.71
509.002	6.87
509.352	6.85
509.701	6.64
510.051	6.75
510.4	6.69
510.75	6.74
511.099	6.73
511.449	6.75
511.798	6.82
512.147	6.82
512.496	6.77
512.846	6.84
513.195	6.74
513.544	6.94
513.893	6.81
514.242	6.83
514.591	6.76
514.939	6.92
515.288	6.88
515.637	6.89
515.986	6.98
516.334	6.8
516.683	6.91
517.032	7.04
517.38	6.99
517.729	7.03
518.077	6.83
518.426	7.04
518.774	6.95
519.122	6.88
519.47	7.02
519.819	6.94
520.167	6.95
520.515	6.89
520.863	6.99
521.211	6.91
521.559	6.92
521.907	7
522.255	7.06
522.602	7.03
522.95	7.05
523.298	6.97
523.645	7.17
523.993	7.08
524.341	7.27
524.688	7.22
525.036	7.09
525.383	7.03
525.73	7.24
526.078	7.22
526.425	7.14
526.772	7.17
527.119	7.1
527.466	6.98
527.814	7.05
528.161	7.14
528.508	7.18
528.854	7.27
529.201	7.11
529.548	7.07
529.895	6.96
530.242	6.86
530.588	6.86
530.935	6.99
531.282	7
531.628	7.07
531.975	7.1
532.321	7.1
532.667	7.22
533.014	7.17
533.36	7.17
533.706	7.26
534.052	7.28
534.399	7.22
534.745	7.28
535.091	7.14
535.437	7.15
535.783	7.21
536.129	7.3
536.474	7.33
536.82	7.32
537.166	7.38
537.512	7.43
537.857	7.43
538.203	7.37
538.549	7.29
538.894	7.36
539.239	7.46
539.585	7.5
539.93	7.57
540.276	7.68
540.621	7.61
540.966	7.74
541.311	7.65
541.656	7.57
542.001	7.68
542.346	7.41
542.691	7.42
543.036	7.36
543.381	7.37
543.726	7.41
544.071	7.48
544.415	7.58
544.76	7.53
545.105	7.6
545.449	7.57
545.794	7.67
546.138	7.7
546.483	7.73
546.827	7.76
547.171	7.75
547.516	7.77
547.86	7.68
548.204	7.76
548.548	7.8
548.892	7.72
549.236	7.89
549.58	7.9
549.924	7.85
550.268	8.07
550.612	8.08
550.956	7.99
551.3	8.05
551.643	8.01
551.987	8.03
552.33	7.99
552.674	7.99
553.017	8.14
553.361	8.08
553.704	7.87
554.048	8.05
554.391	8.08
554.734	8.12
555.077	8.04
555.42	8.1
555.764	8.09
556.107	8.33
556.45	8.23
556.793	8.21
557.135	8.35
557.478	8.41
557.821	8.22
558.164	8.32
558.507	8.25
558.849	8.56
559.192	8.43
559.534	8.47
559.877	8.48
560.219	8.29
560.562	8.45
560.904	8.44
561.246	8.4
561.589	8.32
561.931	8.42
562.273	8.53
562.615	8.4
562.957	8.43
563.299	8.53
563.641	8.49
563.983	8.54
564.325	8.43
564.667	8.7
565.008	8.48
565.35	8.69
565.692	8.56
566.033	8.58
566.375	8.76
566.716	8.49
567.058	8.65
567.399	8.55
567.741	8.68
568.082	8.56
568.423	8.53
568.764	8.62
569.105	8.62
569.447	8.6
569.788	8.82
570.129	8.65
570.47	8.76
570.811	8.78
571.151	8.84
571.492	8.78
571.833	8.86
572.174	8.73
572.514	8.82
572.855	8.81
573.195	8.78
573.536	8.81
573.876	8.67
574.217	8.75
574.557	8.83
574.898	8.84
575.238	8.83
575.578	9.02
575.918	8.85
576.258	8.86
576.598	8.9
576.938	8.98
577.278	8.86
577.618	8.9
577.958	9.04
578.298	8.99
578.638	8.96
578.977	9.05
579.317	9.14
579.657	9.3
579.996	9.04
580.336	9.17
580.675	9.06
581.014	9.39
581.354	9.52
581.693	9.08
582.032	9.2
582.372	9.4
582.711	9.12
583.05	9.27
583.389	9.38
583.728	9.5
584.067	9.2
584.406	9.22
584.745	9.33
585.083	9.25
585.422	9.2
585.761	9.31
586.1	9.34
586.438	9.18
586.777	9.45
587.115	9.35
587.454	9.41
587.792	9.87
588.13	9.63
588.469	9.59
588.807	9.5
589.145	9.36
589.483	9.57
589.821	9.58
590.159	9.6
590.497	9.48
590.835	9.39
591.173	9.41
591.511	9.5
591.849	9.47
592.187	9.67
592.524	9.93
592.862	9.76
593.2	9.81
593.537	9.65
593.875	9.78
594.212	10.06
594.55	9.53
594.887	10.04
595.224	9.81
595.561	9.77
595.899	9.62
596.236	9.84
596.573	10
596.91	9.92
597.247	9.79
597.584	10.08
597.921	9.86
598.258	9.74
598.594	9.79
598.931	9.77
599.268	9.93
599.604	9.81
599.941	10.1
600.277	10.1
600.614	10.09
600.95	10.2
601.287	9.89
601.623	9.87
601.959	9.87
602.296	9.93
602.632	9.98
602.968	9.68
603.304	10.19
603.64	10.07
603.976	9.95
604.312	10.07
604.648	10.31
604.984	9.97
605.319	10.1
605.655	10.36
605.991	9.98
606.326	10.13
606.662	10.13
606.998	10.54
607.333	10.23
607.668	10.1
608.004	10.21
608.339	10.1
608.674	10.33
609.01	10.35
609.345	10.47
609.68	10.42
610.015	10.58
610.35	10.53
610.685	10.01
611.02	10.28
611.355	10.14
611.689	10.45
612.024	10.43
612.359	10.5
612.694	10.69
613.028	10.57
613.363	10.59
613.697	10.41
614.032	10.37
614.366	10.46
614.7	10.67
615.035	10.66
615.369	10.83
615.703	10.61
616.037	10.56
616.371	10.74
616.705	10.75
617.039	11.07
617.373	10.75
617.707	11.09
618.041	11.04
618.375	11
618.709	10.62
619.042	10.82
619.376	10.99
619.71	10.92
620.043	10.61
620.377	10.7
620.71	11.05
621.043	11.11
621.377	10.42
621.71	10.84
622.043	10.65
622.376	10.87
622.709	11.16
623.043	10.99
623.376	11.25
623.709	11.34
624.041	11.31
624.374	11.03
624.707	11.02
625.04	11.53
625.373	11.35
625.705	11.03
626.038	11.16
626.37	11.04
626.703	11.06
627.035	11.25
627.368	11.22
627.7	11.43
628.032	11.1
628.365	11.21
628.697	10.99
629.029	11.39
629.361	11.39
629.693	11.24
630.025	11.61
630.357	11.33
630.689	11.18
631.021	11.12
631.353	11.54
631.684	11.42
632.016	11.35
632.348	11.22
632.679	11.19
633.011	11.36
633.342	11.44
633.674	11.59
634.005	11.35
634.336	11.81
634.668	11.68
634.999	11.34
635.33	11.51
635.661	11.6
635.992	11.77
636.323	11.65
636.654	11.65
636.985	11.68
637.316	11.63
637.647	11.82
637.977	11.5
638.308	11.4
638.639	11.29
638.969	11.82
639.3	11.62
639.63	11.59
639.961	12.05
640.291	11.88
640.622	11.63
640.952	11.93
641.282	12.17
641.612	12.12
641.943	12.19
642.273	12.38
642.603	12.12
642.933	11.99
643.263	11.42
643.592	12.33
643.922	11.95
644.252	12.68
644.582	12.47
644.911	11.99
645.241	11.81
645.571	12.75
645.9	11.93
646.23	12.53
646.559	12.01
646.888	12.49
647.218	12.59
647.547	12.5
647.876	12
648.205	12.23
648.534	12.37
648.863	12.39
649.192	12.45
649.521	11.98
649.85	12.41
650.179	12.02
650.508	12.12
650.837	12.51
651.165	12.61
651.494	12.25
651.822	12.34
652.151	12.82
652.479	12.1
652.808	12.34
653.136	12.69
653.465	12.19
653.793	12.49
654.121	12.33
654.449	12.11
654.777	12.73
655.105	12.74
655.433	12.68
655.761	12.48
656.089	12.96
656.417	12.68
656.745	12.61
657.073	11.7
657.4	12.66
657.728	12.56
658.056	12.41
658.383	12.72
658.711	12.38
659.038	12.51
659.365	12.39
659.693	12.72
660.02	13.16
660.347	12.68
660.674	12.23
661.001	12.91
661.329	12.35
661.656	12.75
661.982	13
662.309	12.96
662.636	12.7
662.963	12.78
663.29	12.83
663.616	13.05
663.943	13.17
664.27	12.78
664.596	12.82
664.923	12.94
665.249	13.4
665.576	13.27
665.902	12.74
666.228	13.12
666.554	13.25
666.881	13.18
667.207	13.29
667.533	12.99
667.859	12.71
668.185	13.06
668.511	12.9
668.837	13.17
669.162	13.35
669.488	13.39
669.814	12.96
670.139	12.93
670.465	13.5
670.791	13.19
671.116	13.42
671.442	13.47
671.767	12.9
672.092	12.9
672.418	13.33
672.743	13.24
673.068	13.09
673.393	13.52
673.718	13.69
674.043	13.71
674.368	13.5
674.693	13.53
675.018	13.92
675.343	14.02
675.667	13.82
675.992	13.47
676.317	13.37
676.641	13.08
676.966	13.73
677.29	13.81
677.615	13.93
677.939	13.55
678.264	13.68
678.588	13.57
678.912	13.44
679.236	13.54
679.56	13.18
679.885	14.01
680.209	14.03
680.532	13.04
680.856	13.81
681.18	13.54
681.504	14.08
681.828	14.04
682.152	13.63
682.475	13.23
682.799	14.01
683.122	14.09
683.446	14.08
683.769	13.52
684.093	14.24
684.416	14.29
684.739	13.72
685.062	13.78
685.386	13.51
685.709	13.93
686.032	13.48
686.355	13.78
686.678	14.15
687.001	14.08
687.324	14.7
