Data from 97280_chest_Reflection__4__20.txt Node

Date: Fri Sep 23 19:39:09 CDT 2022
User: ToomeyLab
Spectrometer: FLMS14357
Trigger mode: 0
Integration Time (sec): 1.000000E-2
Scans to average: 100
Electric dark correction enabled: true
Nonlinearity correction enabled: false
Boxcar width: 0
XAxis mode: Wavelengths
Number of Pixels in Spectrum: 2048
>>>>>Begin Spectral Data<<<<<
189.047	-79.75
189.435	-79.75
189.823	-79.75
190.211	-791.86
190.599	85850
190.987	16.82
191.375	44.27
191.763	99.49
192.151	-165.83
192.538	1554.27
192.926	965.43
193.314	205.99
193.702	41.23
194.089	-69.51
194.477	21.14
194.864	32.07
195.252	89.68
195.639	-135.05
196.027	46.14
196.414	-15.86
196.801	350.38
197.189	2336.57
197.576	82.1
197.963	21
198.351	31.27
198.738	-44.84
199.125	17.66
199.512	42.19
199.899	-11.91
200.286	-21.1
200.673	-14.03
201.06	42.36
201.447	41.99
201.833	13.53
202.22	16.24
202.607	46.43
202.994	6.56
203.38	-30.94
203.767	-8.18
204.154	28.2
204.54	27.6
204.927	18.4
205.313	-9.93
205.699	-44.04
206.086	1.6
206.472	12.68
206.858	28.69
207.245	-1.75
207.631	-0.41
208.017	4.59
208.403	27.36
208.789	11.46
209.175	15.87
209.561	27.72
209.947	-17.44
210.333	15.7
210.719	16.08
211.105	25.7
211.491	6.22
211.876	9.61
212.262	-6.42
212.648	-37.8
213.034	-27.13
213.419	-21.07
213.805	35.43
214.19	-1.81
214.576	9.21
214.961	9.85
215.346	5.45
215.732	24.11
216.117	-6.3
216.502	4.75
216.888	10.08
217.273	2.54
217.658	5.8
218.043	21.52
218.428	6.53
218.813	21.01
219.198	-1.48
219.583	3.75
219.968	19.26
220.353	-5.1
220.738	4.41
221.122	16.64
221.507	-2.08
221.892	-7.96
222.276	6.2
222.661	13.61
223.046	4.67
223.43	-0.46
223.815	6.24
224.199	9.91
224.583	3.33
224.968	3
225.352	8.89
225.736	5.22
226.121	7.5
226.505	2.5
226.889	2.24
227.273	3.39
227.657	3.86
228.041	1.42
228.425	2.59
228.809	7.1
229.193	4.57
229.577	3.24
229.961	3.48
230.344	3.39
230.728	2.56
231.112	2.98
231.495	2.26
231.879	1.06
232.263	4.08
232.646	3.42
233.03	3.03
233.413	4.03
233.797	3.23
234.18	5.54
234.563	3.67
234.946	4.07
235.33	2.61
235.713	4.37
236.096	0.92
236.479	2.54
236.862	3.17
237.245	4.82
237.628	3.57
238.011	4.07
238.394	1.99
238.777	3.4
239.16	3.27
239.543	2.26
239.925	4.22
240.308	4.01
240.691	2.75
241.073	1.5
241.456	2.58
241.838	5.15
242.221	4.1
242.603	3.34
242.986	2.39
243.368	2.77
243.75	3.22
244.133	3.23
244.515	2.81
244.897	3.37
245.279	3.86
245.661	3.47
246.043	4.77
246.425	2.95
246.807	2.21
247.189	3.73
247.571	3.12
247.953	2.72
248.335	3.15
248.717	3.02
249.098	2.89
249.48	2.87
249.862	3.03
250.243	3.32
250.625	2.64
251.006	3.27
251.388	3.73
251.769	3.13
252.151	2.64
252.532	3.95
252.913	3.42
253.295	3.16
253.676	2.98
254.057	2.65
254.438	2.61
254.819	3.42
255.2	3.12
255.581	4.17
255.962	3.34
256.343	3.55
256.724	3.02
257.105	3.69
257.486	2.5
257.867	3.34
258.247	3.82
258.628	3.43
259.009	2.35
259.389	2.92
259.77	2.45
260.15	2.67
260.531	2.92
260.911	2.74
261.292	2.71
261.672	2.75
262.052	2.64
262.432	2.68
262.813	2.78
263.193	3.25
263.573	3.38
263.953	2.56
264.333	2.5
264.713	3.31
265.093	3.26
265.473	3.31
265.853	2.2
266.233	2.81
266.612	2.64
266.992	3.13
267.372	2.62
267.752	2.51
268.131	2.8
268.511	2.34
268.89	2.37
269.27	2.9
269.649	2.79
270.029	3.05
270.408	3.14
270.787	2.58
271.167	3.11
271.546	2.43
271.925	2.29
272.304	2.93
272.683	2.51
273.062	2.9
273.441	2.85
273.82	2.91
274.199	2.76
274.578	2.56
274.957	2.62
275.336	2.67
275.715	2.83
276.093	3.36
276.472	3.9
276.851	2.87
277.229	2.86
277.608	2.89
277.986	3.1
278.365	2.73
278.743	3.49
279.122	2.58
279.5	2.58
279.878	2.6
280.257	2.35
280.635	2.38
281.013	2.69
281.391	2.9
281.769	2.64
282.147	2.87
282.525	2.99
282.903	2.93
283.281	2.82
283.659	2.41
284.037	2.84
284.415	2.67
284.792	2.89
285.17	3.27
285.548	2.53
285.925	3.26
286.303	3.1
286.68	2.49
287.058	3.12
287.435	2.34
287.813	2.72
288.19	2.48
288.567	2.89
288.945	2.83
289.322	3.02
289.699	3.39
290.076	2.32
290.453	2.63
290.83	2.31
291.207	2.86
291.584	3.14
291.961	2.41
292.338	2.88
292.715	2.59
293.092	2.54
293.469	3
293.845	3.22
294.222	3.13
294.599	2.38
294.975	3.35
295.352	2.98
295.728	2.79
296.105	2.44
296.481	2.73
296.858	2.96
297.234	2.82
297.61	2.36
297.986	2.81
298.363	2.58
298.739	2.97
299.115	2.71
299.491	2.99
299.867	2.79
300.243	2.92
300.619	3.24
300.995	3.24
301.371	2.51
301.746	3.36
302.122	2.7
302.498	3.04
302.874	2.67
303.249	2.76
303.625	2.62
304	3.24
304.376	2.94
304.751	2.22
305.127	3.12
305.502	3.03
305.878	2.76
306.253	2.78
306.628	2.94
307.003	2.47
307.378	3.04
307.754	3.8
308.129	2.97
308.504	2.45
308.879	2.92
309.254	2.96
309.629	3.43
310.003	3.53
310.378	3.15
310.753	3.01
311.128	2.67
311.502	2.8
311.877	2.73
312.252	2.55
312.626	2.67
313.001	2.84
313.375	2.9
313.75	2.82
314.124	2.71
314.498	3.33
314.873	3.14
315.247	2.95
315.621	2.68
315.995	3.23
316.369	2.92
316.743	2.67
317.117	2.39
317.491	2.56
317.865	2.95
318.239	3.17
318.613	2.91
318.987	2.33
319.361	2.8
319.734	3.39
320.108	2.44
320.482	3.29
320.855	3.16
321.229	3.36
321.602	3.2
321.976	3.57
322.349	3.43
322.723	3.17
323.096	3.12
323.469	2.39
323.843	3.13
324.216	3.83
324.589	3.31
324.962	3.23
325.335	2.91
325.708	3.15
326.081	2.68
326.454	3.06
326.827	2.68
327.2	3.07
327.573	3.32
327.945	3.5
328.318	2.72
328.691	2.98
329.063	3.21
329.436	2.99
329.809	3.52
330.181	3.4
330.553	2.62
330.926	3.41
331.298	3.14
331.671	3.25
332.043	2.98
332.415	3.07
332.787	2.56
333.159	3.46
333.532	2.69
333.904	3.02
334.276	3.06
334.648	2.92
335.02	2.81
335.391	3.01
335.763	3.02
336.135	3.28
336.507	3.37
336.879	3.31
337.25	3.23
337.622	3.12
337.993	2.94
338.365	3.17
338.736	3.16
339.108	3.3
339.479	3.34
339.851	3.24
340.222	3.11
340.593	3.08
340.964	3.19
341.336	2.86
341.707	3.55
342.078	2.78
342.449	3.62
342.82	3.02
343.191	3.04
343.562	3.01
343.933	3.47
344.303	2.87
344.674	3.31
345.045	3.4
345.416	3.43
345.786	3.71
346.157	2.68
346.527	3.1
346.898	3.24
347.268	3.19
347.639	3.19
348.009	2.75
348.38	3.21
348.75	3.24
349.12	3.15
349.49	3.58
349.861	3.38
350.231	2.98
350.601	3.32
350.971	3.16
351.341	3.22
351.711	3.11
352.081	3.21
352.45	3.02
352.82	2.72
353.19	3.07
353.56	3.05
353.929	3.25
354.299	3.17
354.669	3.38
355.038	3.23
355.408	2.86
355.777	3.06
356.147	3.06
356.516	3.25
356.885	3.03
357.254	2.93
357.624	3
357.993	3.37
358.362	3.14
358.731	3.24
359.1	3.16
359.469	2.8
359.838	2.79
360.207	3.05
360.576	3.14
360.945	2.88
361.314	2.74
361.682	3.15
362.051	3.09
362.42	3.33
362.788	3.11
363.157	3.33
363.525	3.39
363.894	3.15
364.262	3.13
364.631	3.17
364.999	3.31
365.367	3.22
365.735	3.22
366.104	3.22
366.472	3.05
366.84	2.97
367.208	3.34
367.576	3.19
367.944	3
368.312	3.57
368.68	3.23
369.048	3.08
369.416	3.16
369.783	2.89
370.151	3.41
370.519	2.92
370.886	3.34
371.254	3.61
371.621	3.22
371.989	3.33
372.356	3.65
372.724	3.14
373.091	3.14
373.458	3.08
373.826	3.15
374.193	3.18
374.56	3.22
374.927	3.08
375.294	3.53
375.661	3.21
376.028	3.21
376.395	3.32
376.762	3.01
377.129	3.08
377.496	3.49
377.863	3.44
378.229	3.26
378.596	2.86
378.963	3.42
379.329	3.45
379.696	3.18
380.062	3.28
380.429	3.23
380.795	3.14
381.161	3.19
381.528	3.46
381.894	3
382.26	3.22
382.626	3.09
382.993	3.46
383.359	3.26
383.725	3.37
384.091	3.36
384.457	3.58
384.823	3.16
385.188	3.41
385.554	3.32
385.92	3.71
386.286	3.56
386.651	3.48
387.017	3.53
387.383	3.23
387.748	3.26
388.114	3.24
388.479	3.31
388.845	3.27
389.21	3.26
389.575	3.24
389.94	3.2
390.306	3.05
390.671	3.38
391.036	3.12
391.401	3.44
391.766	3.46
392.131	3.4
392.496	3.32
392.861	3.48
393.226	3.21
393.591	3.18
393.956	3.31
394.32	3.41
394.685	3.34
395.05	3.46
395.414	3.35
395.779	3.25
396.143	3.13
396.508	3.26
396.872	3.53
397.236	3.52
397.601	3.29
397.965	3.54
398.329	3.44
398.694	3.32
399.058	3.12
399.422	3.65
399.786	3.75
400.15	3.42
400.514	3.48
400.878	3.39
401.242	3.36
401.605	3.55
401.969	3.35
402.333	3.16
402.697	3.15
403.06	3.24
403.424	3.37
403.787	3.38
404.151	3.55
404.514	3.2
404.878	3.27
405.241	3.49
405.604	3.27
405.968	3.38
406.331	3.28
406.694	3.54
407.057	3.4
407.42	3.37
407.783	3.52
408.146	3.49
408.509	3.37
408.872	3.24
409.235	3.47
409.598	3.68
409.961	3.53
410.323	3.49
410.686	3.52
411.049	3.62
411.411	3.46
411.774	3.37
412.136	3.28
412.499	3.48
412.861	3.29
413.223	3.32
413.586	3.41
413.948	3.36
414.31	3.27
414.672	3.57
415.035	3.38
415.397	3.6
415.759	3.57
416.121	3.68
416.483	3.43
416.845	3.34
417.206	3.37
417.568	3.5
417.93	3.66
418.292	3.6
418.653	3.43
419.015	3.48
419.377	3.34
419.738	3.52
420.1	3.41
420.461	3.48
420.822	3.45
421.184	3.46
421.545	3.5
421.906	3.4
422.267	3.44
422.629	3.34
422.99	3.37
423.351	3.42
423.712	3.37
424.073	3.29
424.434	3.4
424.795	3.47
425.155	3.46
425.516	3.46
425.877	3.34
426.238	3.37
426.598	3.52
426.959	3.44
427.32	3.49
427.68	3.45
428.041	3.41
428.401	3.47
428.761	3.65
429.122	3.54
429.482	3.54
429.842	3.67
430.202	3.71
430.563	3.49
430.923	3.71
431.283	3.79
431.643	3.42
432.003	3.52
432.363	3.61
432.722	3.7
433.082	3.46
433.442	3.57
433.802	3.52
434.161	3.64
434.521	3.63
434.881	3.54
435.24	3.71
435.6	3.42
435.959	3.52
436.319	3.5
436.678	3.59
437.037	3.57
437.396	3.61
437.756	3.7
438.115	3.6
438.474	3.67
438.833	3.76
439.192	3.67
439.551	3.62
439.91	3.63
440.269	3.71
440.628	3.55
440.987	3.5
441.345	3.53
441.704	3.54
442.063	3.57
442.421	3.47
442.78	3.56
443.138	3.47
443.497	3.63
443.855	3.5
444.214	3.75
444.572	3.71
444.93	3.54
445.288	3.75
445.647	3.77
446.005	3.69
446.363	3.66
446.721	3.45
447.079	3.53
447.437	3.59
447.795	3.61
448.153	3.51
448.51	3.5
448.868	3.54
449.226	3.61
449.584	3.64
449.941	3.67
450.299	3.72
450.656	3.64
451.014	3.76
451.371	3.51
451.729	3.74
452.086	3.71
452.443	3.75
452.801	3.67
453.158	3.69
453.515	3.8
453.872	3.72
454.229	3.82
454.586	3.74
454.943	3.76
455.3	3.66
455.657	3.76
456.014	3.85
456.371	3.79
456.727	3.87
457.084	3.68
457.441	3.91
457.797	3.67
458.154	3.54
458.51	3.72
458.867	3.95
459.223	3.76
459.58	3.78
459.936	3.87
460.292	3.6
460.648	3.89
461.005	3.82
461.361	3.66
461.717	3.69
462.073	3.73
462.429	3.64
462.785	3.82
463.141	3.71
463.496	3.78
463.852	3.89
464.208	3.82
464.564	3.9
464.919	3.81
465.275	3.88
465.631	3.73
465.986	3.65
466.342	3.94
466.697	3.85
467.052	3.88
467.408	3.91
467.763	3.66
468.118	3.95
468.473	3.93
468.829	3.79
469.184	3.86
469.539	3.8
469.894	3.88
470.249	3.87
470.603	3.99
470.958	3.88
471.313	3.96
471.668	3.93
472.023	3.92
472.377	3.87
472.732	3.91
473.086	3.91
473.441	3.91
473.795	4.13
474.15	3.92
474.504	3.96
474.859	3.96
475.213	4.06
475.567	3.95
475.921	3.98
476.275	3.88
476.63	3.78
476.984	4.01
477.338	3.96
477.692	3.91
478.045	3.68
478.399	3.92
478.753	4
479.107	3.76
479.461	3.94
479.814	3.87
480.168	3.9
480.521	3.91
480.875	3.95
481.228	4.02
481.582	3.89
481.935	3.88
482.289	4.01
482.642	3.88
482.995	4.06
483.348	3.79
483.701	3.8
484.055	3.9
484.408	3.82
484.761	3.82
485.114	3.64
485.466	3.6
485.819	3.62
486.172	3.7
486.525	3.81
486.878	3.81
487.23	3.84
487.583	3.9
487.936	3.92
488.288	3.87
488.641	3.76
488.993	3.79
489.345	3.81
489.698	3.77
490.05	3.83
490.402	3.84
490.754	3.94
491.107	3.98
491.459	3.91
491.811	3.91
492.163	3.99
492.515	3.93
492.866	3.9
493.218	3.73
493.57	3.75
493.922	3.87
494.274	3.93
494.625	4
494.977	4.06
495.328	4.2
495.68	4.13
496.031	4.1
496.383	4.16
496.734	4.07
497.086	4.12
497.437	4.14
497.788	4.08
498.139	4.14
498.49	4
498.842	4.03
499.193	4.15
499.544	3.99
499.894	4.12
500.245	4.11
500.596	4.17
500.947	4.09
501.298	4.22
501.648	4.37
501.999	4.24
502.35	4.24
502.7	4.21
503.051	4.23
503.401	4.22
503.752	4.12
504.102	4.34
504.452	4.19
504.803	4.16
505.153	4.22
505.503	4.09
505.853	4.41
506.203	4.26
506.553	4.24
506.903	4.18
507.253	4.26
507.603	4.31
507.953	4.24
508.303	4.25
508.652	4.27
509.002	4.3
509.352	4.31
509.701	4.24
510.051	4.2
510.4	4.2
510.75	4.19
511.099	4.22
511.449	4.21
511.798	4.35
512.147	4.27
512.496	4.22
512.846	4.29
513.195	4.19
513.544	4.43
513.893	4.27
514.242	4.33
514.591	4.26
514.939	4.43
515.288	4.34
515.637	4.26
515.986	4.34
516.334	4.27
516.683	4.47
517.032	4.43
517.38	4.43
517.729	4.41
518.077	4.32
518.426	4.48
518.774	4.44
519.122	4.34
519.47	4.39
519.819	4.37
520.167	4.35
520.515	4.3
520.863	4.41
521.211	4.38
521.559	4.43
521.907	4.48
522.255	4.49
522.602	4.45
522.95	4.45
523.298	4.51
523.645	4.43
523.993	4.59
524.341	4.7
524.688	4.56
525.036	4.51
525.383	4.4
525.73	4.59
526.078	4.53
526.425	4.61
526.772	4.53
527.119	4.46
527.466	4.37
527.814	4.46
528.161	4.57
528.508	4.54
528.854	4.6
529.201	4.46
529.548	4.4
529.895	4.35
530.242	4.27
530.588	4.3
530.935	4.39
531.282	4.38
531.628	4.51
531.975	4.51
532.321	4.53
532.667	4.57
533.014	4.66
533.36	4.67
533.706	4.62
534.052	4.62
534.399	4.51
534.745	4.54
535.091	4.44
535.437	4.54
535.783	4.59
536.129	4.61
536.474	4.69
536.82	4.62
537.166	4.74
537.512	4.7
537.857	4.76
538.203	4.58
538.549	4.58
538.894	4.73
539.239	4.72
539.585	4.82
539.93	4.87
540.276	4.88
540.621	4.81
540.966	4.86
541.311	4.82
541.656	4.69
542.001	4.91
542.346	4.74
542.691	4.76
543.036	4.71
543.381	4.68
543.726	4.71
544.071	4.76
544.415	4.87
544.76	4.81
545.105	4.9
545.449	4.9
545.794	4.92
546.138	4.99
546.483	5
546.827	5.01
547.171	5.1
547.516	4.98
547.86	4.99
548.204	5.1
548.548	4.87
548.892	4.98
549.236	5.08
549.58	5.12
549.924	5.2
550.268	5.39
550.612	5.15
550.956	5.26
551.3	5.21
551.643	5.26
551.987	5.3
552.33	5.17
552.674	5.17
553.017	5.12
553.361	5.26
553.704	5.19
554.048	5.19
554.391	5.19
554.734	5.26
555.077	5.2
555.42	5.22
555.764	5.26
556.107	5.46
556.45	5.52
556.793	5.38
557.135	5.46
557.478	5.44
557.821	5.51
558.164	5.41
558.507	5.49
558.849	5.65
559.192	5.45
559.534	5.62
559.877	5.76
560.219	5.53
560.562	5.71
560.904	5.42
561.246	5.6
561.589	5.48
561.931	5.64
562.273	5.7
562.615	5.65
562.957	5.59
563.299	5.7
563.641	5.79
563.983	5.7
564.325	5.64
564.667	5.81
565.008	5.87
565.35	5.82
565.692	5.77
566.033	5.79
566.375	5.86
566.716	5.8
567.058	5.75
567.399	5.49
567.741	5.74
568.082	5.76
568.423	5.68
568.764	5.82
569.105	5.96
569.447	5.76
569.788	5.81
570.129	5.86
570.47	6.07
570.811	5.77
571.151	6.07
571.492	6.09
571.833	5.91
572.174	5.93
572.514	6.12
572.855	6.15
573.195	6.1
573.536	6.1
573.876	5.86
574.217	6.09
574.557	6.03
574.898	6.1
575.238	6.27
575.578	6.3
575.918	6.08
576.258	6.18
576.598	6.17
576.938	6.28
577.278	6.2
577.618	6.12
577.958	6.4
578.298	6.23
578.638	6.32
578.977	6.26
579.317	6.55
579.657	6.58
579.996	6.25
580.336	6.4
580.675	6.39
581.014	6.59
581.354	6.72
581.693	6.64
582.032	6.59
582.372	6.66
582.711	6.72
583.05	6.52
583.389	6.53
583.728	6.67
584.067	6.6
584.406	6.63
584.745	6.86
585.083	6.69
585.422	6.88
585.761	6.66
586.1	6.53
586.438	6.72
586.777	6.58
587.115	6.85
587.454	7.2
587.792	6.95
588.13	6.8
588.469	6.78
588.807	6.81
589.145	7.01
589.483	6.8
589.821	6.89
590.159	6.79
590.497	6.87
590.835	6.75
591.173	6.95
591.511	6.93
591.849	6.8
592.187	7.14
592.524	7.42
592.862	7.19
593.2	7.27
593.537	7.15
593.875	7.24
594.212	7.31
594.55	7.04
594.887	7.27
595.224	7.21
595.561	7.11
595.899	7.22
596.236	7.13
596.573	7.27
596.91	7.26
597.247	7.42
597.584	7.29
597.921	7.26
598.258	7.28
598.594	7.24
598.931	7.21
599.268	7.15
599.604	7.38
599.941	7.62
600.277	7.52
600.614	7.47
600.95	7.43
601.287	7.56
601.623	7.42
601.959	7.49
602.296	7.45
602.632	7.77
602.968	7.49
603.304	7.46
603.64	7.72
603.976	7.56
604.312	7.73
604.648	7.66
604.984	7.55
605.319	7.81
605.655	7.62
605.991	7.58
606.326	7.7
606.662	7.84
606.998	7.79
607.333	7.78
607.668	7.68
608.004	7.89
608.339	7.73
608.674	8.12
609.01	7.91
609.345	8
609.68	7.99
610.015	8.17
610.35	7.99
610.685	7.67
611.02	7.93
611.355	7.97
611.689	8.02
612.024	7.99
612.359	8.15
612.694	8.16
613.028	8.32
613.363	8.35
613.697	8.25
614.032	8.25
614.366	8.51
614.7	8.36
615.035	8.59
615.369	8.17
615.703	8.59
616.037	8.1
616.371	8.61
616.705	8.26
617.039	8.26
617.373	8.67
617.707	8.82
618.041	8.83
618.375	8.78
618.709	8.26
619.042	8.7
619.376	9.06
619.71	8.63
620.043	8.53
620.377	8.75
620.71	8.93
621.043	8.89
621.377	8.26
621.71	8.88
622.043	8.77
622.376	8.8
622.709	8.62
623.043	8.42
623.376	8.98
623.709	9.14
624.041	8.81
624.374	8.51
624.707	8.88
625.04	9.24
625.373	9.02
625.705	9.1
626.038	8.96
626.37	8.92
626.703	8.71
627.035	9.14
627.368	9.08
627.7	9.03
628.032	8.87
628.365	8.84
628.697	8.95
629.029	9.29
629.361	9.15
629.693	9.12
630.025	9.42
630.357	9.26
630.689	9.51
631.021	9.25
631.353	9.5
631.684	9.41
632.016	9.6
632.348	9.53
632.679	9.28
633.011	9.82
633.342	9.62
633.674	9.16
634.005	9.33
634.336	9.93
634.668	9.94
634.999	9.5
635.33	9.65
635.661	9.69
635.992	9.81
636.323	9.91
636.654	9.65
636.985	9.83
637.316	9.86
637.647	9.94
637.977	9.64
638.308	9.64
638.639	9.25
638.969	9.73
639.3	9.88
639.63	9.46
639.961	9.93
640.291	9.86
640.622	10.27
640.952	9.92
641.282	9.77
641.612	9.56
641.943	10.14
642.273	10.3
642.603	10.42
642.933	10.37
643.263	10.27
643.592	10.01
643.922	9.83
644.252	10.67
644.582	10.56
644.911	9.75
645.241	10.47
645.571	10.61
645.9	10.13
646.23	10.74
646.559	10.52
646.888	10.42
647.218	10.6
647.547	10.5
647.876	10.14
648.205	10.61
648.534	10.61
648.863	10.52
649.192	10.78
649.521	10.33
649.85	10.34
650.179	10.38
650.508	10.83
650.837	10.86
651.165	11.06
651.494	10.8
651.822	10.73
652.151	10.37
652.479	10.75
652.808	10.5
653.136	10.84
653.465	10.77
653.793	10.57
654.121	10.42
654.449	10.76
654.777	10.65
655.105	11.3
655.433	10.99
655.761	11.23
656.089	11.47
656.417	11.05
656.745	10.94
657.073	10
657.4	11.01
657.728	10.88
658.056	11.5
658.383	11.03
658.711	11.16
659.038	11.01
659.365	10.9
659.693	11.42
660.02	11.44
660.347	11.01
660.674	10.86
661.001	11.32
661.329	10.94
661.656	11.68
661.982	11.61
662.309	11.17
662.636	11.58
662.963	11.34
663.29	11.61
663.616	11.66
663.943	11.23
664.27	11.26
664.596	11.66
664.923	12.17
665.249	11.97
665.576	11.84
665.902	11.7
666.228	11.73
666.554	11.45
666.881	11.89
667.207	11.71
667.533	11.55
667.859	11.74
668.185	11.62
668.511	11.58
668.837	11.94
669.162	11.93
669.488	11.55
669.814	11.97
670.139	11.64
670.465	11.99
670.791	12.08
671.116	11.73
671.442	12.54
671.767	12.07
672.092	12
672.418	12.83
672.743	12.47
673.068	11.72
673.393	12.43
673.718	11.81
674.043	12.61
674.368	12.39
674.693	11.76
675.018	12.66
675.343	13.07
675.667	12.09
675.992	12.78
676.317	12.48
676.641	12.53
676.966	12.78
677.29	12.46
677.615	12.71
677.939	12.56
678.264	12.07
678.588	12.35
678.912	12.97
679.236	12.53
679.56	12.29
679.885	12.43
680.209	12.72
680.532	12.66
680.856	12.91
681.18	12.26
681.504	12.91
681.828	12.43
682.152	12.71
682.475	12.17
682.799	13.18
683.122	12.65
683.446	13.53
683.769	12.72
684.093	12.87
684.416	13.55
684.739	12.81
685.062	13.07
685.386	12.6
685.709	12.99
686.032	12.8
686.355	13.32
686.678	13.48
687.001	13.26
687.324	13.89
687.646	13.15
687.969	12.51
688.292	13.07
688.614	13.84
688.937	13.66
689.26	12.88
689.582	12.66
