Data from 97280_crown_Reflection__3__29.txt Node

Date: Fri Sep 23 19:46:01 CDT 2022
User: ToomeyLab
Spectrometer: FLMS14357
Trigger mode: 0
Integration Time (sec): 1.000000E-2
Scans to average: 100
Electric dark correction enabled: true
Nonlinearity correction enabled: false
Boxcar width: 0
XAxis mode: Wavelengths
Number of Pixels in Spectrum: 2048
>>>>>Begin Spectral Data<<<<<
189.047	49.08
189.435	49.08
189.823	49.08
190.211	-234.69
190.599	7725
190.987	537.56
191.375	36.47
191.763	74.49
192.151	-464.21
192.538	1019.87
192.926	246.14
193.314	234.15
193.702	18.4
194.089	-33.12
194.477	116.47
194.864	111.43
195.252	207.21
195.639	82.89
196.027	-65.07
196.414	123.5
196.801	66.38
197.189	-151.12
197.576	23.06
197.963	-16.73
198.351	29.5
198.738	-30.47
199.125	38.28
199.512	23.72
199.899	12.16
200.286	-6.33
200.673	32.38
201.06	16.01
201.447	21.98
201.833	38.44
202.22	5.2
202.607	1.06
202.994	8.72
203.38	-39.11
203.767	-22.45
204.154	15.99
204.54	-12.21
204.927	1.97
205.313	51.75
205.699	3.68
206.086	-24.74
206.472	34.46
206.858	16.53
207.245	-9.99
207.631	12.94
208.017	-2.08
208.403	5.38
208.789	9.06
209.175	22.72
209.561	36.47
209.947	-19.46
210.333	-3.31
210.719	20.68
211.105	-0.35
211.491	17.17
211.876	7.62
212.262	10.95
212.648	-0.32
213.034	-11.65
213.419	-29.41
213.805	24.97
214.19	0.59
214.576	-11.34
214.961	14.82
215.346	-14.54
215.732	18.73
216.117	10.69
216.502	-3.44
216.888	11.47
217.273	27.34
217.658	5.43
218.043	3.8
218.428	-18.12
218.813	4
219.198	4.82
219.583	8.56
219.968	9.69
220.353	-10.14
220.738	10.59
221.122	15.95
221.507	15.97
221.892	24.55
222.276	-2.43
222.661	0.15
223.046	4.53
223.43	-0.45
223.815	6.25
224.199	5.86
224.583	6.01
224.968	11.88
225.352	6.66
225.736	-3.28
226.121	5.9
226.505	3.19
226.889	4.81
227.273	3.3
227.657	1.2
228.041	5.52
228.425	7.34
228.809	4.16
229.193	5.01
229.577	5.9
229.961	5.5
230.344	5.44
230.728	4.79
231.112	5.32
231.495	5.2
231.879	3.52
232.263	6.76
232.646	5.78
233.03	5.42
233.413	5.12
233.797	6.1
234.18	9.48
234.563	2.17
234.946	8.14
235.33	4.26
235.713	5.81
236.096	4.24
236.479	3.51
236.862	5.06
237.245	5.54
237.628	6.15
238.011	6.22
238.394	6.78
238.777	6.42
239.16	6.4
239.543	4.94
239.925	4.69
240.308	6.04
240.691	6.16
241.073	4.05
241.456	3.69
241.838	6.01
242.221	5.82
242.603	5.73
242.986	4.84
243.368	5.19
243.75	5.47
244.133	5.21
244.515	4.98
244.897	5.03
245.279	5.29
245.661	5.71
246.043	5.87
246.425	5.12
246.807	4.31
247.189	5.49
247.571	5.36
247.953	5.06
248.335	5.44
248.717	5.23
249.098	5.1
249.48	4.86
249.862	5.01
250.243	5.39
250.625	5.1
251.006	5.28
251.388	4.95
251.769	4.59
252.151	3.18
252.532	4.89
252.913	5.54
253.295	5.23
253.676	5.08
254.057	5.14
254.438	4.42
254.819	5.19
255.2	5.23
255.581	4.53
255.962	4.1
256.343	4.9
256.724	4.8
257.105	4.75
257.486	3.94
257.867	4.78
258.247	5.51
258.628	4.39
259.009	4.89
259.389	4.6
259.77	4.14
260.15	5.47
260.531	5.1
260.911	4.58
261.292	4.84
261.672	4.66
262.052	4.51
262.432	4.54
262.813	4.62
263.193	4.57
263.573	4.87
263.953	4.6
264.333	4.24
264.713	4.93
265.093	4.85
265.473	5.2
265.853	3.84
266.233	4.53
266.612	4.06
266.992	5.3
267.372	4.66
267.752	4.81
268.131	4.74
268.511	4.81
268.89	4.48
269.27	4.57
269.649	4.42
270.029	4.61
270.408	4.69
270.787	3.63
271.167	4.69
271.546	4.33
271.925	3.97
272.304	4.55
272.683	4.58
273.062	3.93
273.441	4.38
273.82	4.36
274.199	4.46
274.578	4.11
274.957	4.47
275.336	4.21
275.715	4.16
276.093	4.87
276.472	4.93
276.851	4.89
277.229	4.17
277.608	4.32
277.986	4.57
278.365	4.54
278.743	4.53
279.122	3.5
279.5	4.27
279.878	3.91
280.257	4.27
280.635	4.04
281.013	3.92
281.391	4.06
281.769	4.45
282.147	4.48
282.525	4.51
282.903	4.27
283.281	4.29
283.659	3.98
284.037	3.82
284.415	4.21
284.792	4.19
285.17	4.2
285.548	4.33
285.925	4.43
286.303	4.96
286.68	4.05
287.058	4.12
287.435	4.17
287.813	4.31
288.19	4.2
288.567	4.12
288.945	4.03
289.322	4.1
289.699	4.41
290.076	4.36
290.453	4.13
290.83	4.02
291.207	4.18
291.584	4.31
291.961	4.29
292.338	4.27
292.715	4
293.092	3.77
293.469	4.31
293.845	4.5
294.222	3.77
294.599	3.79
294.975	4.46
295.352	4.3
295.728	4.02
296.105	3.82
296.481	4.28
296.858	4.26
297.234	4.15
297.61	4.01
297.986	4.37
298.363	3.91
298.739	4.16
299.115	4.02
299.491	3.93
299.867	3.75
300.243	4.29
300.619	4.58
300.995	4.12
301.371	4.03
301.746	4.56
302.122	3.96
302.498	3.84
302.874	4.14
303.249	3.88
303.625	4.07
304	4.04
304.376	4.16
304.751	3.37
305.127	4.13
305.502	4.14
305.878	3.92
306.253	3.92
306.628	4.03
307.003	3.69
307.378	4.33
307.754	4.1
308.129	3.71
308.504	4.07
308.879	4.05
309.254	4.43
309.629	4.12
310.003	4.36
310.378	4.26
310.753	4.22
311.128	4
311.502	3.88
311.877	3.94
312.252	3.76
312.626	4.22
313.001	4.18
313.375	4.11
313.75	3.78
314.124	3.91
314.498	4.15
314.873	4.32
315.247	4.25
315.621	4.05
315.995	4.09
316.369	4.22
316.743	3.75
317.117	3.35
317.491	3.72
317.865	4.08
318.239	4.29
318.613	3.58
318.987	3.51
319.361	3.62
319.734	4.24
320.108	3.72
320.482	3.96
320.855	3.88
321.229	4.32
321.602	4.01
321.976	4.48
322.349	3.96
322.723	4.23
323.096	4.18
323.469	4
323.843	3.74
324.216	4.29
324.589	4.35
324.962	4.18
325.335	3.82
325.708	4.31
326.081	4.03
326.454	4.37
326.827	3.93
327.2	3.77
327.573	4.18
327.945	4.07
328.318	3.81
328.691	4.37
329.063	3.91
329.436	4.01
329.809	4.28
330.181	4.15
330.553	4
330.926	3.86
331.298	3.91
331.671	4.31
332.043	4.48
332.415	3.94
332.787	3.4
333.159	3.75
333.532	4.06
333.904	3.82
334.276	3.45
334.648	3.8
335.02	3.93
335.391	3.74
335.763	3.67
336.135	4.17
336.507	4.5
336.879	4.42
337.25	4.35
337.622	4.13
337.993	4.01
338.365	3.93
338.736	4.49
339.108	4.58
339.479	3.79
339.851	4.18
340.222	4.23
340.593	3.67
340.964	4.59
341.336	4.07
341.707	4.58
342.078	3.7
342.449	4.2
342.82	4.06
343.191	3.59
343.562	4.23
343.933	4.46
344.303	4.11
344.674	3.98
345.045	4.38
345.416	4.21
345.786	4.86
346.157	4.11
346.527	3.84
346.898	4.1
347.268	4.16
347.639	4.14
348.009	4.23
348.38	4.11
348.75	4.21
349.12	4.06
349.49	4.07
349.861	4.07
350.231	4.15
350.601	4.14
350.971	4.56
351.341	4.22
351.711	4.49
352.081	3.82
352.45	3.7
352.82	3.96
353.19	4.89
353.56	4.56
353.929	4.05
354.299	4.66
354.669	4.52
355.038	4.18
355.408	3.93
355.777	4.19
356.147	3.8
356.516	4.19
356.885	4.1
357.254	3.89
357.624	3.89
357.993	4.62
358.362	4.32
358.731	4.4
359.1	4.75
359.469	4.06
359.838	4.11
360.207	4.41
360.576	4.24
360.945	4.15
361.314	3.99
361.682	4.13
362.051	4.46
362.42	4.66
362.788	4.42
363.157	4.47
363.525	4.66
363.894	4.39
364.262	4.12
364.631	4.39
364.999	4.41
365.367	4.16
365.735	4.42
366.104	4.38
366.472	4.48
366.84	4.18
367.208	4.66
367.576	4.57
367.944	4.29
368.312	4.58
368.68	4.32
369.048	4.11
369.416	4.53
369.783	4.44
370.151	4.45
370.519	4.46
370.886	4.51
371.254	4.44
371.621	4.54
371.989	4.34
372.356	4.91
372.724	4.17
373.091	4.6
373.458	4.48
373.826	4.25
374.193	4.57
374.56	4.32
374.927	4.75
375.294	4.68
375.661	4.38
376.028	4.59
376.395	4.43
376.762	4.37
377.129	4.35
377.496	4.74
377.863	4.78
378.229	4.29
378.596	4.57
378.963	4.6
379.329	4.64
379.696	4.42
380.062	4.44
380.429	4.41
380.795	4.43
381.161	4.46
381.528	4.65
381.894	4.17
382.26	4.33
382.626	4.17
382.993	4.58
383.359	4.63
383.725	4.77
384.091	4.33
384.457	4.18
384.823	4.33
385.188	4.4
385.554	4.7
385.92	4.92
386.286	4.39
386.651	4.64
387.017	4.79
387.383	4.67
387.748	4.77
388.114	4.49
388.479	4.65
388.845	4.6
389.21	4.63
389.575	4.59
389.94	4.39
390.306	4.39
390.671	4.38
391.036	4.61
391.401	4.48
391.766	4.4
392.131	4.85
392.496	4.69
392.861	4.51
393.226	4.43
393.591	4.5
393.956	4.49
394.32	4.73
394.685	4.4
395.05	4.64
395.414	4.48
395.779	4.44
396.143	4.44
396.508	4.71
396.872	4.72
397.236	4.56
397.601	4.55
397.965	4.61
398.329	4.71
398.694	4.58
399.058	4.45
399.422	4.76
399.786	4.73
400.15	4.63
400.514	4.53
400.878	4.67
401.242	4.37
401.605	4.93
401.969	4.82
402.333	4.56
402.697	4.47
403.06	4.79
403.424	4.69
403.787	4.82
404.151	4.61
404.514	4.53
404.878	4.6
405.241	4.83
405.604	4.65
405.968	4.6
406.331	4.54
406.694	4.8
407.057	4.64
407.42	4.75
407.783	4.61
408.146	4.64
408.509	4.65
408.872	4.66
409.235	4.78
409.598	4.89
409.961	4.99
410.323	4.68
410.686	4.91
411.049	4.73
411.411	4.73
411.774	4.68
412.136	4.78
412.499	4.58
412.861	4.66
413.223	4.71
413.586	4.65
413.948	4.76
414.31	4.69
414.672	4.93
415.035	4.61
415.397	4.84
415.759	4.82
416.121	4.71
416.483	4.74
416.845	4.35
417.206	4.67
417.568	4.76
417.93	4.77
418.292	4.73
418.653	4.75
419.015	4.86
419.377	4.71
419.738	4.82
420.1	4.65
420.461	4.68
420.822	4.74
421.184	4.76
421.545	4.81
421.906	4.78
422.267	4.73
422.629	4.62
422.99	4.6
423.351	4.65
423.712	4.62
424.073	4.67
424.434	4.68
424.795	4.77
425.155	4.72
425.516	4.78
425.877	4.61
426.238	4.73
426.598	4.66
426.959	4.62
427.32	4.72
427.68	4.73
428.041	4.79
428.401	4.89
428.761	4.73
429.122	4.8
429.482	4.8
429.842	4.97
430.202	4.66
430.563	4.73
430.923	4.89
431.283	5.02
431.643	4.75
432.003	4.77
432.363	4.85
432.722	4.87
433.082	4.66
433.442	4.77
433.802	4.87
434.161	4.77
434.521	4.78
434.881	4.7
435.24	4.75
435.6	4.73
435.959	4.8
436.319	4.81
436.678	4.85
437.037	4.84
437.396	4.84
437.756	4.73
438.115	4.85
438.474	4.78
438.833	4.98
439.192	4.94
439.551	4.76
439.91	4.8
440.269	4.96
440.628	4.82
440.987	4.71
441.345	4.72
441.704	4.79
442.063	4.85
442.421	4.72
442.78	4.72
443.138	4.72
443.497	4.8
443.855	4.75
444.214	4.96
444.572	4.84
444.93	4.66
445.288	4.9
445.647	4.95
446.005	4.94
446.363	4.83
446.721	4.81
447.079	4.85
447.437	4.82
447.795	4.81
448.153	4.61
448.51	4.71
448.868	4.76
449.226	4.84
449.584	4.69
449.941	4.84
450.299	4.87
450.656	4.86
451.014	5.02
451.371	4.77
451.729	4.79
452.086	5
452.443	4.85
452.801	4.74
453.158	4.93
453.515	4.84
453.872	4.86
454.229	5
454.586	4.85
454.943	4.87
455.3	4.76
455.657	4.91
456.014	5.07
456.371	4.8
456.727	4.99
457.084	4.88
457.441	4.91
457.797	4.75
458.154	4.78
458.51	4.82
458.867	4.89
459.223	5.14
459.58	4.8
459.936	5
460.292	4.82
460.648	4.86
461.005	4.94
461.361	4.9
461.717	4.79
462.073	4.89
462.429	4.75
462.785	4.74
463.141	4.8
463.496	4.89
463.852	5.03
464.208	5
464.564	5.1
464.919	4.97
465.275	4.98
465.631	4.86
465.986	4.73
466.342	4.87
466.697	4.85
467.052	5.02
467.408	4.97
467.763	4.96
468.118	4.88
468.473	4.95
468.829	4.91
469.184	4.85
469.539	5.03
469.894	4.96
470.249	4.91
470.603	5.03
470.958	5.12
471.313	5.04
471.668	5.01
472.023	4.93
472.377	4.89
472.732	5
473.086	4.98
473.441	5
473.795	5.01
474.15	5.01
474.504	5.15
474.859	5.07
475.213	5.24
475.567	4.84
475.921	4.98
476.275	4.82
476.63	4.88
476.984	5.19
477.338	4.98
477.692	4.93
478.045	4.94
478.399	5.07
478.753	5.04
479.107	4.84
479.461	4.98
479.814	5.01
480.168	4.83
480.521	5.02
480.875	4.99
481.228	5.11
481.582	4.93
481.935	4.9
482.289	4.96
482.642	4.77
482.995	5.09
483.348	4.84
483.701	5
484.055	4.95
484.408	4.94
484.761	4.88
485.114	4.71
485.466	4.71
485.819	4.7
486.172	4.69
486.525	4.74
486.878	4.74
487.23	4.73
487.583	4.85
487.936	4.88
488.288	4.9
488.641	4.82
488.993	4.82
489.345	4.85
489.698	4.8
490.05	4.79
490.402	4.78
490.754	4.84
491.107	4.92
491.459	4.84
491.811	4.89
492.163	4.99
492.515	4.97
492.866	4.86
493.218	4.75
493.57	4.75
493.922	4.81
494.274	4.82
494.625	4.89
494.977	4.87
495.328	5.03
495.68	5.08
496.031	5
496.383	5.06
496.734	5.04
497.086	4.99
497.437	5.06
497.788	5.06
498.139	5.05
498.49	5.06
498.842	5.01
499.193	5.02
499.544	4.88
499.894	4.97
500.245	4.94
500.596	5.08
500.947	4.93
501.298	5.11
501.648	5.14
501.999	5.09
502.35	5.19
502.7	5.07
503.051	5.05
503.401	5.06
503.752	5
504.102	5.09
504.452	5.05
504.803	5.09
505.153	5.12
505.503	5.08
505.853	5.19
506.203	5.05
506.553	5.19
506.903	5.01
507.253	5.03
507.603	5.06
507.953	4.97
508.303	5.08
508.652	4.97
509.002	5.18
509.352	5.07
509.701	4.98
510.051	5.09
510.4	5.09
510.75	4.88
511.099	5.02
511.449	5.05
511.798	5.1
512.147	5.01
512.496	4.96
512.846	5.05
513.195	5.04
513.544	5.12
513.893	5.04
514.242	5.05
514.591	4.99
514.939	5.08
515.288	5.03
515.637	5.06
515.986	5.01
516.334	5.04
516.683	5.06
517.032	5.07
517.38	5.13
517.729	5.02
518.077	5.01
518.426	5.15
518.774	5.12
519.122	5.02
519.47	5.12
519.819	5.08
520.167	4.98
520.515	5.01
520.863	4.97
521.211	5.01
521.559	5.11
521.907	5.01
522.255	5.15
522.602	5.1
522.95	5.06
523.298	5.11
523.645	5.06
523.993	5.01
524.341	5.24
524.688	5.09
525.036	5.06
525.383	4.99
525.73	5.16
526.078	5.14
526.425	5.2
526.772	5.07
527.119	5.13
527.466	4.88
527.814	5
528.161	5.05
528.508	5.14
528.854	5.05
529.201	4.95
529.548	5.04
529.895	4.95
530.242	4.88
530.588	4.9
530.935	4.92
531.282	4.92
531.628	4.93
531.975	4.93
532.321	5.02
532.667	5.04
533.014	4.98
533.36	5.13
533.706	5.04
534.052	5.12
534.399	5.03
534.745	4.96
535.091	5.04
535.437	4.94
535.783	5.03
536.129	5.02
536.474	5.05
536.82	4.95
537.166	5.08
537.512	5.04
537.857	5.11
538.203	5.08
538.549	5
538.894	5.07
539.239	5.12
539.585	5.16
539.93	5.13
540.276	5.17
540.621	5.13
540.966	5.11
541.311	5.15
541.656	5.16
542.001	5.18
542.346	4.97
542.691	4.98
543.036	5
543.381	4.97
543.726	4.96
544.071	4.99
544.415	5.03
544.76	5
545.105	5.06
545.449	5.08
545.794	5.13
546.138	5.13
546.483	5.06
546.827	5.22
547.171	5.14
547.516	5.2
547.86	5.14
548.204	5.07
548.548	5.01
548.892	5.04
549.236	5.08
549.58	5.19
549.924	5.28
550.268	5.18
550.612	5.26
550.956	5.18
551.3	5.06
551.643	5.19
551.987	5.27
552.33	5.23
552.674	5.1
553.017	5.26
553.361	5.08
553.704	5.24
554.048	5.33
554.391	5.1
554.734	5.23
555.077	5.21
555.42	5.17
555.764	5.09
556.107	5.15
556.45	5.15
556.793	5.11
557.135	5.34
557.478	5.27
557.821	5.12
558.164	5.11
558.507	5.21
558.849	5.4
559.192	5.33
559.534	5.32
559.877	5.41
560.219	5.26
560.562	5.47
560.904	5.21
561.246	5.18
561.589	5.36
561.931	5.33
562.273	5.32
562.615	5.25
562.957	5.3
563.299	5.31
563.641	5.38
563.983	5.34
564.325	5.08
564.667	5.31
565.008	5.23
565.35	5.31
565.692	5.27
566.033	5.15
566.375	5.42
566.716	5.25
567.058	5.32
567.399	5.11
567.741	5.29
568.082	5.29
568.423	5.21
568.764	5.24
569.105	5.17
569.447	5.19
569.788	5.13
570.129	5.24
570.47	5.22
570.811	5.22
571.151	5.31
571.492	5.19
571.833	5.07
572.174	5.33
572.514	5.28
572.855	5.21
573.195	5.21
573.536	5.24
573.876	5.06
574.217	5.12
574.557	5.3
574.898	5.23
575.238	5.42
575.578	5.2
575.918	5.21
576.258	5.18
576.598	5.33
576.938	5.38
577.278	5.28
577.618	5.21
577.958	5.51
578.298	5.22
578.638	5.29
578.977	5.46
579.317	5.31
579.657	5.42
579.996	5.28
580.336	5.23
580.675	5.29
581.014	5.32
581.354	5.34
581.693	5.26
582.032	5.46
582.372	5.5
582.711	5.36
583.05	5.31
583.389	5.33
583.728	5.43
584.067	5.58
584.406	5.08
584.745	5.34
585.083	5.31
585.422	5.37
585.761	5.19
586.1	5.38
586.438	5.16
586.777	5.27
587.115	5.27
587.454	5.39
587.792	5.53
588.13	5.37
588.469	5.34
588.807	5.26
589.145	5.46
589.483	5.45
589.821	5.57
590.159	5.47
590.497	5.27
590.835	5.11
591.173	5.3
591.511	5.32
591.849	5.12
592.187	5.28
592.524	5.58
592.862	5.61
593.2	5.45
593.537	5.3
593.875	5.49
594.212	5.49
594.55	5.25
594.887	5.32
595.224	5.14
595.561	5.33
595.899	5.27
596.236	5.24
596.573	5.4
596.91	5.41
597.247	5.5
597.584	5.29
597.921	5.34
598.258	5.17
598.594	5.24
598.931	5.34
599.268	5.23
599.604	5.23
599.941	5.34
600.277	5.45
600.614	5.33
600.95	5.13
601.287	5.28
601.623	5.41
601.959	5.33
602.296	5.44
602.632	5.35
602.968	5.27
603.304	5.27
603.64	5.33
603.976	5.24
604.312	5.65
604.648	5.69
604.984	5.2
605.319	5.55
605.655	5.25
605.991	5.34
606.326	5.43
606.662	5.23
606.998	5.62
607.333	5.23
607.668	5.19
608.004	5.25
608.339	5.28
608.674	5.44
609.01	5.67
609.345	5.46
609.68	5.43
610.015	5.56
610.35	5.48
610.685	4.92
611.02	5.31
611.355	5.27
611.689	5.41
612.024	5.22
612.359	5.32
612.694	5.44
613.028	5.26
613.363	5.54
613.697	5.32
614.032	5.23
614.366	5.59
614.7	5.27
615.035	5.75
615.369	5.55
615.703	5.38
616.037	5.21
616.371	5.67
616.705	5.34
617.039	5.25
617.373	5.37
617.707	5.56
618.041	5.57
618.375	5.58
618.709	5.15
619.042	5.64
619.376	5.89
619.71	5.5
620.043	5.17
620.377	5.25
620.71	5.22
621.043	5.3
621.377	4.83
621.71	5.37
622.043	5.38
622.376	5.24
622.709	5.38
623.043	5.22
623.376	5.6
623.709	5.49
624.041	5.44
624.374	5.1
624.707	5.54
625.04	5.9
625.373	5.46
625.705	5.37
626.038	5.39
626.37	5.3
626.703	5.41
627.035	5.79
627.368	5.61
627.7	5.45
628.032	5.47
628.365	5.26
628.697	5.34
629.029	5.7
629.361	5.46
629.693	5.52
630.025	5.51
630.357	5.38
630.689	5.46
631.021	5.13
631.353	5.62
631.684	5.27
632.016	5.8
632.348	5.4
632.679	5.67
633.011	5.75
633.342	5.63
633.674	5.62
634.005	5.37
634.336	5.97
634.668	5.23
634.999	5.72
635.33	5.25
635.661	5.37
635.992	5.79
636.323	5.49
636.654	5.61
636.985	5.2
637.316	5.43
637.647	6.03
637.977	5.4
638.308	5.61
638.639	5.06
638.969	5.66
639.3	5.2
639.63	5.34
639.961	5.83
640.291	5.72
640.622	5.51
640.952	5.54
641.282	5.74
641.612	5.54
641.943	5.43
642.273	5.52
642.603	5.72
642.933	5.57
643.263	5.35
643.592	5.56
643.922	5.74
644.252	5.97
644.582	5.73
644.911	5.45
645.241	5.43
645.571	5.82
645.9	5.65
646.23	6.19
646.559	5.58
646.888	5.69
647.218	5.87
647.547	5.93
647.876	5.56
648.205	5.41
648.534	6.02
648.863	5.86
649.192	6.1
649.521	5.34
649.85	5.42
650.179	4.87
650.508	5.4
650.837	6.07
651.165	5.84
651.494	5.43
651.822	5.38
652.151	5.75
652.479	5.62
652.808	5.36
653.136	5.94
653.465	5.68
653.793	5.64
654.121	5.36
654.449	5.75
654.777	5.91
655.105	5.82
655.433	5.74
655.761	6.06
656.089	5.84
656.417	5.58
656.745	5.7
657.073	5.2
657.4	5.83
657.728	5.59
658.056	5.68
658.383	5.9
658.711	5.32
659.038	5.87
659.365	5.6
659.693	5.45
660.02	5.88
660.347	5.66
660.674	5.46
661.001	6.22
661.329	5.51
661.656	6.16
661.982	5.82
662.309	5.75
662.636	5.96
662.963	6.06
663.29	5.63
663.616	5.58
663.943	5.61
664.27	5.46
664.596	5.72
664.923	5.89
665.249	5.78
665.576	6.17
665.902	5.37
666.228	5.95
666.554	5.53
666.881	5.67
667.207	5.96
667.533	5.58
667.859	5.24
668.185	5.61
668.511	5.43
668.837	5.89
669.162	5.71
669.488	5.72
669.814	6.03
670.139	5.74
670.465	5.8
670.791	5.97
671.116	6.2
671.442	6.04
671.767	5.77
672.092	5.31
672.418	6.13
672.743	5.96
673.068	5.55
673.393	5.67
673.718	5.94
674.043	6.52
674.368	6.19
674.693	5.9
675.018	5.83
675.343	6.41
675.667	5.69
675.992	6.05
676.317	6.06
676.641	5.94
676.966	6
677.29	5.72
677.615	5.9
677.939	5.86
678.264	5.6
678.588	5.72
678.912	5.62
679.236	5.92
679.56	5.52
679.885	6.06
680.209	6.1
680.532	5.4
680.856	5.77
681.18	5.82
681.504	5.86
681.828	6.25
682.152	6.2
682.475	5.88
682.799	6.28
683.122	5.89
683.446	6.09
683.769	5.72
684.093	5.84
684.416	6.01
684.739	5.88
685.062	6
685.386	5.84
685.709	6.01
686.032	5.91
686.355	5.84
686.678	5.83
687.001	6.01
687.324	6.02
687.646	6.17
687.969	6.07
688.292	5.73
688.614	6.52
688.937	5.98
689.26	6.16
689.582	5.49
689.904	6.99
690.227	5.87
690.549	6.13
690.871	6.15
691.194	5.22
691.516	5.63
691.838	5.74
692.16	6.24
692.482	6.3
692.804	5.63
693.126	7
