Data from 97280_crown_Reflection__1__27.txt Node

Date: Fri Sep 23 19:45:33 CDT 2022
User: ToomeyLab
Spectrometer: FLMS14357
Trigger mode: 0
Integration Time (sec): 1.000000E-2
Scans to average: 100
Electric dark correction enabled: true
Nonlinearity correction enabled: false
Boxcar width: 0
XAxis mode: Wavelengths
Number of Pixels in Spectrum: 2048
>>>>>Begin Spectral Data<<<<<
189.047	72.8
189.435	72.8
189.823	72.8
190.211	413.18
190.599	144900
190.987	155.61
191.375	-37.63
191.763	102.16
192.151	793.53
192.538	216.24
192.926	276
193.314	354.47
193.702	52.54
194.089	-123.74
194.477	143.41
194.864	66.63
195.252	238.2
195.639	-147.69
196.027	34.81
196.414	81.95
196.801	463.22
197.189	888.06
197.576	122.57
197.963	-9.99
198.351	25.43
198.738	7.66
199.125	-11.87
199.512	44.6
199.899	-8.61
200.286	5.2
200.673	32.64
201.06	-11.98
201.447	13.86
201.833	-11.85
202.22	-4.2
202.607	48.67
202.994	-1.41
203.38	-52.46
203.767	-42.24
204.154	14.23
204.54	22.37
204.927	-14.48
205.313	46.72
205.699	-51.93
206.086	30.3
206.472	-3.36
206.858	43.67
207.245	-11.77
207.631	19.16
208.017	0.31
208.403	2.91
208.789	10.55
209.175	10.99
209.561	19.96
209.947	-10.17
210.333	7.33
210.719	-10.57
211.105	18.02
211.491	2.39
211.876	28.87
212.262	-10.73
212.648	-22.09
213.034	-31.89
213.419	-12.19
213.805	23.59
214.19	-11.84
214.576	-9.94
214.961	17.34
215.346	-18.12
215.732	18.52
216.117	-10.21
216.502	-7
216.888	8.18
217.273	22.77
217.658	-2.63
218.043	10.14
218.428	0.61
218.813	9.11
219.198	-6.29
219.583	-3.8
219.968	15.11
220.353	10.48
220.738	11.42
221.122	10.47
221.507	5.79
221.892	5.22
222.276	-8.19
222.661	7.35
223.046	4.97
223.43	4.17
223.815	5.13
224.199	1.75
224.583	5.45
224.968	2.14
225.352	-2.17
225.736	1.04
226.121	8.93
226.505	4.2
226.889	8.9
227.273	8.43
227.657	-3.11
228.041	5.33
228.425	5.54
228.809	-0.42
229.193	4.25
229.577	4.23
229.961	3.93
230.344	4.07
230.728	3.27
231.112	3.55
231.495	3.71
231.879	2.4
232.263	4.22
232.646	4.88
233.03	3.27
233.413	4.27
233.797	3.88
234.18	5.62
234.563	1.22
234.946	3.79
235.33	2.42
235.713	4.98
236.096	2.99
236.479	3.48
236.862	3.59
237.245	4.41
237.628	4.13
238.011	4.95
238.394	4.21
238.777	4.75
239.16	3.48
239.543	3.19
239.925	3.16
240.308	4.02
240.691	4.58
241.073	1.88
241.456	3.25
241.838	5.16
242.221	4.62
242.603	4.1
242.986	2.34
243.368	3.65
243.75	3.76
244.133	3.5
244.515	3.72
244.897	3.94
245.279	4.11
245.661	4.2
246.043	4.21
246.425	3.75
246.807	3.25
247.189	4.19
247.571	4.01
247.953	3.18
248.335	3.63
248.717	3.71
249.098	3.55
249.48	3.56
249.862	3.7
250.243	4.09
250.625	3.95
251.006	4.13
251.388	3.9
251.769	3.24
252.151	2.37
252.532	3.74
252.913	4.08
253.295	3.65
253.676	3.27
254.057	3.64
254.438	3.48
254.819	4.09
255.2	3.13
255.581	3.91
255.962	3.1
256.343	4.52
256.724	3.74
257.105	3.52
257.486	3.02
257.867	3.43
258.247	4.31
258.628	2.82
259.009	2.79
259.389	2.97
259.77	2.5
260.15	3.42
260.531	3.14
260.911	3.7
261.292	3.39
261.672	3.24
262.052	3.43
262.432	3.38
262.813	3.82
263.193	3.58
263.573	3.72
263.953	3.01
264.333	3.27
264.713	3.83
265.093	4.3
265.473	3.94
265.853	3.1
266.233	2.78
266.612	2.81
266.992	4.13
267.372	2.98
267.752	3.22
268.131	3.55
268.511	3.17
268.89	3.25
269.27	3.22
269.649	2.95
270.029	3.11
270.408	3.14
270.787	2.95
271.167	2.7
271.546	3.27
271.925	3.15
272.304	3.19
272.683	2.74
273.062	2.8
273.441	3.53
273.82	3.1
274.199	3
274.578	2.95
274.957	2.95
275.336	3.34
275.715	3.23
276.093	3.52
276.472	3.92
276.851	3.28
277.229	3.44
277.608	3.37
277.986	2.91
278.365	3.37
278.743	3.7
279.122	2.98
279.5	3.02
279.878	2.91
280.257	2.86
280.635	2.84
281.013	3.32
281.391	3.08
281.769	3.45
282.147	2.72
282.525	3.35
282.903	2.97
283.281	2.79
283.659	3.1
284.037	3.06
284.415	3
284.792	3.18
285.17	3.19
285.548	2.44
285.925	3.24
286.303	3.52
286.68	3.17
287.058	3.2
287.435	2.98
287.813	3.32
288.19	3.12
288.567	3.63
288.945	3.41
289.322	3.35
289.699	3.21
290.076	2.99
290.453	3.2
290.83	2.75
291.207	3.18
291.584	3.15
291.961	3.04
292.338	3.21
292.715	3.06
293.092	3.02
293.469	3.24
293.845	3.26
294.222	3.12
294.599	2.8
294.975	3.59
295.352	3.64
295.728	2.85
296.105	2.76
296.481	3.13
296.858	3.01
297.234	3.39
297.61	2.72
297.986	2.87
298.363	2.87
298.739	3.04
299.115	3.22
299.491	2.89
299.867	3.18
300.243	3.35
300.619	3.22
300.995	3.55
301.371	2.88
301.746	3.72
302.122	3.11
302.498	3.22
302.874	3.15
303.249	3.43
303.625	2.68
304	3.19
304.376	3.15
304.751	2.7
305.127	3.27
305.502	3.33
305.878	3.35
306.253	2.95
306.628	3.23
307.003	2.9
307.378	3.5
307.754	3.68
308.129	3.29
308.504	3.4
308.879	3.42
309.254	3.38
309.629	3.3
310.003	3.23
310.378	3.34
310.753	3.06
311.128	3.09
311.502	2.92
311.877	2.97
312.252	3.15
312.626	3.01
313.001	3.05
313.375	3.08
313.75	3.18
314.124	3.01
314.498	3.14
314.873	3.46
315.247	3.46
315.621	3.06
315.995	3.44
316.369	2.98
316.743	3.25
317.117	2.34
317.491	3.07
317.865	3.28
318.239	3.92
318.613	3.07
318.987	2.72
319.361	2.76
319.734	2.83
320.108	3.15
320.482	2.99
320.855	3.25
321.229	3.41
321.602	3.52
321.976	3.52
322.349	3.4
322.723	3.36
323.096	3.6
323.469	2.84
323.843	2.72
324.216	3.82
324.589	3.32
324.962	3.06
325.335	3.25
325.708	2.93
326.081	3.28
326.454	3.14
326.827	3.31
327.2	2.66
327.573	3.48
327.945	3.55
328.318	2.85
328.691	3.21
329.063	2.97
329.436	3.53
329.809	3.74
330.181	3.37
330.553	2.37
330.926	3.4
331.298	2.99
331.671	3.22
332.043	3.44
332.415	2.99
332.787	2.99
333.159	3.46
333.532	3.01
333.904	2.92
334.276	3.11
334.648	2.91
335.02	3.06
335.391	3.56
335.763	2.98
336.135	3.46
336.507	3.29
336.879	3.48
337.25	3.2
337.622	2.9
337.993	3.16
338.365	3.52
338.736	3.21
339.108	3.67
339.479	3.24
339.851	3.27
340.222	3.52
340.593	3.15
340.964	3.34
341.336	3.42
341.707	3.93
342.078	3.09
342.449	3.04
342.82	3.49
343.191	3.25
343.562	3.2
343.933	3.99
344.303	3.27
344.674	3.75
345.045	3.96
345.416	3.45
345.786	3.88
346.157	3.09
346.527	3.4
346.898	3.7
347.268	3.51
347.639	3.2
348.009	3.44
348.38	3.42
348.75	3.65
349.12	3.46
349.49	3.48
349.861	3.42
350.231	3.09
350.601	3.48
350.971	3.45
351.341	3.17
351.711	3.73
352.081	3.28
352.45	3.48
352.82	3.23
353.19	3.75
353.56	3.44
353.929	3.64
354.299	3.27
354.669	3.49
355.038	3.56
355.408	3.15
355.777	3.46
356.147	3.2
356.516	3.53
356.885	3.54
357.254	3.55
357.624	3.16
357.993	3.52
358.362	3.41
358.731	3.53
359.1	3.33
359.469	3.31
359.838	3.37
360.207	3.53
360.576	3.47
360.945	3.07
361.314	3.21
361.682	3.32
362.051	3.32
362.42	3.66
362.788	3.61
363.157	3.47
363.525	3.67
363.894	3.45
364.262	3.29
364.631	3.69
364.999	3.61
365.367	3.34
365.735	3.63
366.104	3.7
366.472	3.55
366.84	3.54
367.208	3.58
367.576	3.51
367.944	3.26
368.312	3.75
368.68	3.4
369.048	3.58
369.416	3.61
369.783	3.54
370.151	3.69
370.519	3.51
370.886	3.64
371.254	3.57
371.621	3.04
371.989	3.43
372.356	3.94
372.724	3.45
373.091	3.62
373.458	3.44
373.826	3.38
374.193	3.45
374.56	3.5
374.927	3.7
375.294	3.93
375.661	3.56
376.028	3.56
376.395	3.41
376.762	3.35
377.129	3.75
377.496	3.84
377.863	3.65
378.229	3.84
378.596	3.28
378.963	3.71
379.329	3.85
379.696	3.63
380.062	3.49
380.429	3.68
380.795	3.52
381.161	3.74
381.528	3.68
381.894	3.73
382.26	3.68
382.626	3.68
382.993	3.69
383.359	3.61
383.725	4.05
384.091	3.53
384.457	3.49
384.823	3.43
385.188	3.58
385.554	3.83
385.92	3.85
386.286	3.78
386.651	3.63
387.017	3.77
387.383	3.9
387.748	3.83
388.114	3.7
388.479	3.54
388.845	3.43
389.21	3.71
389.575	3.26
389.94	3.36
390.306	3.42
390.671	3.61
391.036	3.63
391.401	3.74
391.766	3.6
392.131	3.89
392.496	3.79
392.861	3.8
393.226	3.36
393.591	3.4
393.956	3.71
394.32	3.64
394.685	3.41
395.05	3.77
395.414	3.92
395.779	3.62
396.143	3.65
396.508	3.66
396.872	3.63
397.236	3.86
397.601	3.72
397.965	4.02
398.329	3.83
398.694	3.77
399.058	3.76
399.422	3.71
399.786	3.8
400.15	3.46
400.514	3.69
400.878	3.77
401.242	3.64
401.605	4.02
401.969	3.8
402.333	3.62
402.697	3.49
403.06	3.75
403.424	3.78
403.787	3.86
404.151	3.69
404.514	3.72
404.878	3.71
405.241	3.9
405.604	3.53
405.968	3.64
406.331	3.7
406.694	3.81
407.057	3.77
407.42	3.59
407.783	3.9
408.146	3.7
408.509	3.87
408.872	3.54
409.235	3.86
409.598	3.89
409.961	3.89
410.323	3.64
410.686	3.72
411.049	3.84
411.411	4.08
411.774	3.69
412.136	3.77
412.499	3.76
412.861	3.72
413.223	3.68
413.586	3.73
413.948	3.71
414.31	3.72
414.672	3.88
415.035	3.67
415.397	4.02
415.759	4
416.121	3.86
416.483	3.79
416.845	3.7
417.206	3.71
417.568	3.79
417.93	3.64
418.292	3.93
418.653	3.78
419.015	3.86
419.377	3.67
419.738	3.74
420.1	3.73
420.461	3.73
420.822	3.8
421.184	3.78
421.545	3.66
421.906	3.72
422.267	3.65
422.629	3.67
422.99	3.74
423.351	3.67
423.712	3.68
424.073	3.72
424.434	3.78
424.795	3.77
425.155	3.77
425.516	3.78
425.877	3.64
426.238	3.69
426.598	3.74
426.959	3.73
427.32	3.85
427.68	3.79
428.041	3.78
428.401	3.75
428.761	3.84
429.122	3.92
429.482	3.88
429.842	4.11
430.202	4.06
430.563	3.6
430.923	3.94
431.283	3.86
431.643	3.94
432.003	3.71
432.363	3.99
432.722	4
433.082	3.69
433.442	3.85
433.802	3.84
434.161	3.92
434.521	3.72
434.881	3.68
435.24	3.92
435.6	3.83
435.959	3.92
436.319	3.86
436.678	3.83
437.037	3.94
437.396	3.96
437.756	3.8
438.115	3.84
438.474	3.77
438.833	4
439.192	4.06
439.551	3.89
439.91	3.75
440.269	3.9
440.628	3.75
440.987	3.69
441.345	3.78
441.704	3.83
442.063	3.81
442.421	3.66
442.78	3.78
443.138	3.75
443.497	3.91
443.855	3.9
444.214	3.97
444.572	3.81
444.93	3.75
445.288	3.89
445.647	3.97
446.005	3.94
446.363	3.87
446.721	3.82
447.079	3.85
447.437	3.86
447.795	3.87
448.153	3.69
448.51	3.75
448.868	3.81
449.226	3.88
449.584	3.95
449.941	3.92
450.299	3.96
450.656	3.88
451.014	3.96
451.371	3.83
451.729	3.98
452.086	4.02
452.443	3.94
452.801	3.99
453.158	3.89
453.515	4
453.872	3.91
454.229	3.98
454.586	3.93
454.943	3.99
455.3	3.83
455.657	3.94
456.014	3.9
456.371	3.91
456.727	4.06
457.084	4
457.441	4.03
457.797	3.71
458.154	3.94
458.51	3.86
458.867	4
459.223	3.93
459.58	3.88
459.936	4.02
460.292	3.77
460.648	4.09
461.005	3.86
461.361	3.82
461.717	3.81
462.073	3.96
462.429	3.81
462.785	3.89
463.141	3.92
463.496	4.08
463.852	3.99
464.208	3.96
464.564	4.19
464.919	4.14
465.275	4.15
465.631	3.98
465.986	3.9
466.342	3.99
466.697	3.92
467.052	3.96
467.408	3.95
467.763	3.95
468.118	4
468.473	4.13
468.829	3.94
469.184	3.97
469.539	4.02
469.894	4.02
470.249	4.11
470.603	4.05
470.958	4.05
471.313	4.01
471.668	4.06
472.023	4.11
472.377	3.89
472.732	3.97
473.086	4.08
473.441	4.24
473.795	4.13
474.15	4.08
474.504	4.08
474.859	4.02
475.213	4.23
475.567	4.07
475.921	4.08
476.275	3.97
476.63	4.09
476.984	4.13
477.338	3.87
477.692	4.06
478.045	3.95
478.399	4.03
478.753	4.12
479.107	4.01
479.461	4.02
479.814	3.91
480.168	4.01
480.521	3.95
480.875	4
481.228	4.16
481.582	4.12
481.935	4.05
482.289	3.91
482.642	3.87
482.995	4.2
483.348	3.82
483.701	3.94
484.055	3.94
484.408	3.83
484.761	3.91
485.114	3.73
485.466	3.65
485.819	3.67
486.172	3.79
486.525	3.9
486.878	3.92
487.23	3.95
487.583	3.92
487.936	3.98
488.288	3.87
488.641	3.81
488.993	3.78
489.345	3.82
489.698	3.8
490.05	3.91
490.402	3.89
490.754	4.03
491.107	4.02
491.459	3.98
491.811	3.99
492.163	4.11
492.515	3.96
492.866	3.87
493.218	3.78
493.57	3.78
493.922	3.88
494.274	4
494.625	4.01
494.977	4.02
495.328	4.15
495.68	4.13
496.031	4.07
496.383	4.14
496.734	4.17
497.086	4.09
497.437	4.14
497.788	4.13
498.139	4.03
498.49	3.97
498.842	4.06
499.193	4.05
499.544	3.91
499.894	3.99
500.245	4.06
500.596	4.05
500.947	4
501.298	4.19
501.648	4.13
501.999	4.12
502.35	4.21
502.7	4.13
503.051	4.06
503.401	4.12
503.752	4.01
504.102	4.28
504.452	4.05
504.803	4.12
505.153	4.11
505.503	3.87
505.853	4.11
506.203	4.06
506.553	4.15
506.903	4.27
507.253	4.05
507.603	4.05
507.953	4.05
508.303	4.11
508.652	4.06
509.002	4.23
509.352	4.13
509.701	4.12
510.051	4.07
510.4	3.97
510.75	4.1
511.099	4.1
511.449	3.93
511.798	4.16
512.147	4.04
512.496	4.01
512.846	4.17
513.195	4.01
513.544	4.15
513.893	4.13
514.242	4.02
514.591	4.05
514.939	4.17
515.288	4.12
515.637	3.99
515.986	4.11
516.334	4.1
516.683	4.21
517.032	4.11
517.38	4.19
517.729	4.09
518.077	4.04
518.426	4.12
518.774	4.16
519.122	4.03
519.47	4.03
519.819	3.97
520.167	3.99
520.515	3.96
520.863	4.12
521.211	4.08
521.559	4.1
521.907	4.08
522.255	4.07
522.602	4.07
522.95	4.09
523.298	4.15
523.645	4.21
523.993	4.1
524.341	4.14
524.688	4.11
525.036	4.05
525.383	4.04
525.73	4.11
526.078	4.06
526.425	4.09
526.772	4.05
527.119	4.03
527.466	3.97
527.814	4.01
528.161	4.07
528.508	4.14
528.854	4.1
529.201	3.95
529.548	3.93
529.895	3.92
530.242	3.78
530.588	3.79
530.935	3.89
531.282	3.91
531.628	4.05
531.975	4.03
532.321	4.07
532.667	4.02
533.014	4.09
533.36	4.21
533.706	4.05
534.052	4.08
534.399	4.05
534.745	3.96
535.091	3.91
535.437	3.97
535.783	4.02
536.129	4.05
536.474	4.1
536.82	4.06
537.166	4.14
537.512	3.99
537.857	4.12
538.203	4
538.549	3.99
538.894	4.13
539.239	4.11
539.585	4.16
539.93	4.1
540.276	4.23
540.621	4.17
540.966	4.18
541.311	4.3
541.656	4.1
542.001	4.13
542.346	4.01
542.691	3.93
543.036	3.91
543.381	3.99
543.726	4.02
544.071	4
544.415	4.17
544.76	4.09
545.105	4.16
545.449	4.15
545.794	4.23
546.138	4.22
546.483	4.21
546.827	4.21
547.171	4.25
547.516	4.2
547.86	4.08
548.204	4.11
548.548	3.96
548.892	4.13
549.236	4.25
549.58	4.17
549.924	4.27
550.268	4.26
550.612	4.23
550.956	4.35
551.3	4.21
551.643	4.35
551.987	4.27
552.33	4.25
552.674	4.41
553.017	4.23
553.361	4.28
553.704	4.13
554.048	4.21
554.391	4.16
554.734	4.21
555.077	4.12
555.42	4.07
555.764	4.15
556.107	4.15
556.45	4.36
556.793	4.23
557.135	4.37
557.478	4.24
557.821	4.3
558.164	4.28
558.507	4.17
558.849	4.45
559.192	4.28
559.534	4.3
559.877	4.29
560.219	4.25
560.562	4.43
560.904	4.27
561.246	4.09
561.589	4.34
561.931	4.33
562.273	4.28
562.615	4.38
562.957	4.16
563.299	4.18
563.641	4.32
563.983	4.19
564.325	4.36
564.667	4.46
565.008	4.31
565.35	4.44
565.692	4.2
566.033	4.25
566.375	4.29
566.716	4.25
567.058	4.28
567.399	4.13
567.741	4.25
568.082	4.16
568.423	4.06
568.764	4.32
569.105	4.23
569.447	4.19
569.788	4.24
570.129	4.15
570.47	4.34
570.811	4.38
571.151	4.55
571.492	4.4
571.833	4.3
572.174	4.29
572.514	4.31
572.855	4.31
573.195	4.22
573.536	4.28
573.876	4.14
574.217	4.33
574.557	4.22
574.898	4.28
575.238	4.36
575.578	4.49
575.918	4.24
576.258	4.16
576.598	4.31
576.938	4.45
577.278	4.41
577.618	4.31
577.958	4.33
578.298	4.32
578.638	4.23
578.977	4.3
579.317	4.39
579.657	4.42
579.996	4.31
580.336	4.36
580.675	4.46
581.014	4.4
581.354	4.6
581.693	4.24
582.032	4.38
582.372	4.49
582.711	4.5
583.05	4.39
583.389	4.27
583.728	4.41
584.067	4.4
584.406	4.21
584.745	4.27
585.083	4.19
585.422	4.19
585.761	4.34
586.1	4.43
586.438	4.28
586.777	4.28
587.115	4.39
587.454	4.35
587.792	4.69
588.13	4.33
588.469	4.16
588.807	4.3
589.145	4.31
589.483	4.38
589.821	4.25
590.159	4.33
590.497	4.21
590.835	4.28
591.173	4.37
591.511	4.52
591.849	4.06
592.187	4.39
592.524	4.59
592.862	4.52
593.2	4.55
593.537	4.47
593.875	4.53
594.212	4.54
594.55	4.43
594.887	4.38
595.224	4.46
595.561	4.28
595.899	4.23
596.236	4.3
596.573	4.38
596.91	4.44
597.247	4.26
597.584	4.47
597.921	4.37
598.258	4.15
598.594	4.44
598.931	4.32
599.268	4.36
599.604	4.49
599.941	4.5
600.277	4.36
600.614	4.57
600.95	4.31
601.287	4.37
601.623	4.43
601.959	4.32
602.296	4.46
602.632	4.48
602.968	4.14
603.304	4.55
603.64	4.35
603.976	4.28
604.312	4.69
604.648	4.53
604.984	4.34
605.319	4.53
605.655	4.51
605.991	4.42
606.326	4.33
606.662	4.49
606.998	4.64
607.333	4.28
607.668	4.3
608.004	4.35
608.339	4.43
608.674	4.44
609.01	4.55
609.345	4.44
609.68	4.52
610.015	4.53
610.35	4.66
610.685	4.27
611.02	4.27
611.355	4.37
611.689	4.42
612.024	4.57
612.359	4.39
612.694	4.54
613.028	4.68
613.363	4.6
613.697	4.39
614.032	4.34
614.366	4.53
614.7	4.5
615.035	4.75
615.369	4.54
615.703	4.67
616.037	4.56
616.371	4.1
616.705	4.19
617.039	4.25
617.373	4.7
617.707	4.51
618.041	4.75
618.375	4.74
618.709	4.46
619.042	4.55
619.376	4.89
619.71	4.81
620.043	4.34
620.377	4.35
620.71	4.54
621.043	4.76
621.377	4.25
621.71	4.9
622.043	4.45
622.376	4.11
622.709	4.5
623.043	4.39
623.376	4.66
623.709	4.77
624.041	4.43
624.374	4.44
624.707	4.9
625.04	4.89
625.373	4.75
625.705	4.7
626.038	4.63
626.37	4.47
626.703	4.47
627.035	4.61
627.368	4.65
627.7	4.55
628.032	4.26
628.365	4.6
628.697	4.33
629.029	4.48
629.361	4.48
629.693	4.7
630.025	4.96
630.357	4.7
630.689	4.47
631.021	4.5
631.353	4.62
631.684	4.51
632.016	4.85
632.348	4.5
632.679	4.62
633.011	4.58
633.342	4.77
633.674	4.53
634.005	4.19
634.336	5
634.668	4.71
634.999	4.59
635.33	4.43
635.661	4.6
635.992	4.67
636.323	4.77
636.654	4.96
636.985	4.66
637.316	4.48
637.647	4.87
637.977	4.55
638.308	4.47
638.639	4.5
638.969	4.36
639.3	4.62
639.63	4.52
639.961	5.11
640.291	4.78
640.622	4.62
640.952	4.63
641.282	4.62
641.612	4.79
641.943	4.46
642.273	4.75
642.603	4.92
642.933	4.77
643.263	4.24
643.592	4.52
643.922	4.39
644.252	4.92
644.582	4.86
644.911	4.52
645.241	4.54
645.571	4.82
645.9	4.76
646.23	4.87
646.559	4.51
646.888	4.51
647.218	4.96
647.547	4.51
647.876	4.56
648.205	4.73
648.534	4.86
648.863	5.01
649.192	5.03
649.521	4.26
649.85	4.76
650.179	4.57
650.508	4.85
650.837	4.92
651.165	5.04
651.494	4.86
651.822	4.71
652.151	4.36
652.479	4.51
652.808	4.96
653.136	4.59
653.465	4.34
653.793	4.93
654.121	4.41
654.449	4.61
654.777	4.8
655.105	4.38
655.433	4.84
655.761	5.1
656.089	5.05
656.417	4.79
656.745	5.17
657.073	4.54
657.4	4.87
657.728	4.95
658.056	4.96
658.383	5.13
658.711	5.04
659.038	4.59
659.365	4.57
659.693	4.66
660.02	4.77
660.347	4.56
660.674	4.85
661.001	5.2
661.329	4.76
661.656	5.19
661.982	4.9
662.309	4.73
662.636	4.94
662.963	4.75
663.29	4.98
663.616	4.83
663.943	4.79
664.27	4.78
664.596	4.51
664.923	4.86
665.249	5.16
665.576	5.52
665.902	4.51
666.228	5.39
666.554	5.02
666.881	4.55
667.207	5.16
667.533	4.78
667.859	4.26
668.185	4.73
668.511	5
668.837	4.73
669.162	4.7
669.488	4.68
669.814	5.1
670.139	4.74
670.465	4.82
670.791	4.78
671.116	4.84
671.442	4.95
671.767	4.71
672.092	4.71
672.418	4.91
672.743	5.19
673.068	4.08
673.393	4.56
673.718	5.03
674.043	4.99
674.368	4.71
674.693	4.42
675.018	4.96
675.343	5.07
675.667	5.11
675.992	5.07
676.317	5.02
676.641	5.08
676.966	5.37
677.29	5.15
677.615	5.18
677.939	4.89
678.264	4.03
678.588	4.07
678.912	5.06
679.236	4.99
679.56	4.5
679.885	5.14
680.209	5.26
680.532	4.7
680.856	4.53
681.18	5.04
681.504	4.97
681.828	5.43
682.152	5.39
682.475	5.17
682.799	5.48
683.122	5.12
683.446	4.73
683.769	4.75
684.093	5.32
684.416	5.21
684.739	5.06
685.062	4.56
685.386	5.06
685.709	4.67
686.032	4.98
686.355	5.42
686.678	4.83
687.001	5.06
687.324	5.77
687.646	5.68
687.969	4.59
688.292	4.67
688.614	5.32
688.937	4.75
689.26	4.96
689.582	5.02
689.904	5.07
690.227	5.09
690.549	4.6
690.871	5.48
691.194	5.04
691.516	5.05
691.838	5.43
692.16	5.15
692.482	5.13
692.804	4.44
693.126	5.58
