Data from 97280_forehead_Reflection__4__25.txt Node

Date: Fri Sep 23 19:44:50 CDT 2022
User: ToomeyLab
Spectrometer: FLMS14357
Trigger mode: 0
Integration Time (sec): 1.000000E-2
Scans to average: 100
Electric dark correction enabled: true
Nonlinearity correction enabled: false
Boxcar width: 0
XAxis mode: Wavelengths
Number of Pixels in Spectrum: 2048
>>>>>Begin Spectral Data<<<<<
189.047	31.16
189.435	31.16
189.823	31.16
190.211	116.28
190.599	27400
190.987	-11.66
191.375	64.76
191.763	140.14
192.151	-605.76
192.538	1875.21
192.926	828.57
193.314	95.42
193.702	67.21
194.089	-52.66
194.477	65.24
194.864	174.6
195.252	-7.53
195.639	-47.21
196.027	143.68
196.414	-64.06
196.801	508.05
197.189	1173.13
197.576	178.13
197.963	-14.68
198.351	32.24
198.738	-115.14
199.125	-0.77
199.512	-0.46
199.899	14.07
200.286	15.15
200.673	66.16
201.06	8.34
201.447	23.69
201.833	14.55
202.22	11.25
202.607	8.63
202.994	4.95
203.38	19.1
203.767	-25.22
204.154	18.67
204.54	22.25
204.927	39.51
205.313	13.56
205.699	-7.22
206.086	-9.24
206.472	13.6
206.858	42.35
207.245	14.9
207.631	-9.07
208.017	20.97
208.403	31.89
208.789	22.52
209.175	3.87
209.561	28.29
209.947	-9.55
210.333	11.98
210.719	8.16
211.105	22.79
211.491	35.91
211.876	44.14
212.262	-13.98
212.648	-51.06
213.034	-30.09
213.419	-30.38
213.805	20.07
214.19	9.4
214.576	17.09
214.961	15.29
215.346	-29.24
215.732	8.7
216.117	-2.79
216.502	20.39
216.888	-9.03
217.273	20.62
217.658	-0.43
218.043	12.15
218.428	17.58
218.813	23.63
219.198	-7.46
219.583	29.63
219.968	14.83
220.353	-2.44
220.738	23.92
221.122	-4.26
221.507	13.25
221.892	3.83
222.276	-11.03
222.661	-1.27
223.046	5.43
223.43	-8.56
223.815	10.01
224.199	1.51
224.583	0.96
224.968	-5.29
225.352	8.53
225.736	3.31
226.121	11.56
226.505	3.18
226.889	-0.78
227.273	1.67
227.657	-0.04
228.041	3.36
228.425	5.35
228.809	1.84
229.193	3.37
229.577	1.33
229.961	0.91
230.344	1.99
230.728	0.88
231.112	1.02
231.495	1.13
231.879	-0.37
232.263	2.61
232.646	2.5
233.03	1.76
233.413	1.85
233.797	3.63
234.18	4.62
234.563	0.88
234.946	3.37
235.33	1.73
235.713	2.22
236.096	0.49
236.479	1.32
236.862	0.8
237.245	3.37
237.628	2.19
238.011	1.53
238.394	1.74
238.777	1.51
239.16	2.64
239.543	1.38
239.925	1.42
240.308	3.75
240.691	3.18
241.073	1.43
241.456	1.98
241.838	3.54
242.221	3.19
242.603	2.65
242.986	1.77
243.368	1.22
243.75	1.12
244.133	1.42
244.515	1.65
244.897	1.55
245.279	2.06
245.661	2.26
246.043	1.61
246.425	1.79
246.807	1.38
247.189	1.91
247.571	1.12
247.953	1.8
248.335	1.92
248.717	1.77
249.098	1.71
249.48	1.66
249.862	1.37
250.243	1.6
250.625	1.78
251.006	2.53
251.388	1.65
251.769	1.56
252.151	0.83
252.532	1.12
252.913	1.99
253.295	1.98
253.676	2.1
254.057	2
254.438	1.8
254.819	1.93
255.2	1.83
255.581	3.36
255.962	1.88
256.343	1.94
256.724	2.04
257.105	2.25
257.486	0.37
257.867	1.89
258.247	2.87
258.628	1.64
259.009	1.61
259.389	2.15
259.77	0.69
260.15	1.82
260.531	2.04
260.911	1.68
261.292	1.71
261.672	1.7
262.052	1.59
262.432	1.65
262.813	1.9
263.193	1.19
263.573	1.89
263.953	1.6
264.333	1.66
264.713	1.66
265.093	1.92
265.473	2.25
265.853	1.11
266.233	1.54
266.612	1.89
266.992	2.94
267.372	1.58
267.752	2.28
268.131	2.07
268.511	1.56
268.89	1.47
269.27	2
269.649	1.53
270.029	1.78
270.408	1.94
270.787	1.26
271.167	1.17
271.546	2.06
271.925	1.38
272.304	2.05
272.683	1.59
273.062	1.27
273.441	1.69
273.82	1.7
274.199	1.92
274.578	1.6
274.957	1.74
275.336	2.08
275.715	1.88
276.093	1.69
276.472	2.39
276.851	2.25
277.229	1.53
277.608	1.94
277.986	1.35
278.365	2.45
278.743	2.13
279.122	1.57
279.5	1.47
279.878	1.94
280.257	1.31
280.635	1.55
281.013	1.4
281.391	2.22
281.769	1.92
282.147	1.91
282.525	1.64
282.903	1.63
283.281	1.76
283.659	1.8
284.037	1.65
284.415	1.64
284.792	1.63
285.17	1.95
285.548	1.65
285.925	1.71
286.303	2.08
286.68	1.79
287.058	1.95
287.435	1.63
287.813	1.86
288.19	2.17
288.567	2.09
288.945	1.91
289.322	2.11
289.699	2.54
290.076	1.96
290.453	1.99
290.83	2.14
291.207	2.04
291.584	2.23
291.961	1.78
292.338	2.21
292.715	1.78
293.092	1.62
293.469	2.37
293.845	2.36
294.222	2.56
294.599	2.05
294.975	2.24
295.352	1.74
295.728	1.79
296.105	1.95
296.481	2.18
296.858	2.4
297.234	2.54
297.61	2
297.986	2.18
298.363	1.94
298.739	2.37
299.115	1.94
299.491	2.26
299.867	2.12
300.243	2.2
300.619	2.66
300.995	2.44
301.371	2.02
301.746	3
302.122	2.4
302.498	2.55
302.874	2.15
303.249	2.6
303.625	2.22
304	2.55
304.376	2.78
304.751	2.24
305.127	2.67
305.502	3.06
305.878	2.75
306.253	2.75
306.628	2.46
307.003	1.94
307.378	2.67
307.754	3.13
308.129	2.71
308.504	2.6
308.879	2.79
309.254	2.9
309.629	3.01
310.003	2.93
310.378	2.93
310.753	2.83
311.128	2.74
311.502	3.02
311.877	2.72
312.252	2.68
312.626	2.83
313.001	3.08
313.375	3.32
313.75	2.52
314.124	2.91
314.498	3.25
314.873	3.44
315.247	2.89
315.621	3.05
315.995	3.67
316.369	3.58
316.743	2.74
317.117	2.62
317.491	3.07
317.865	3.72
318.239	3.66
318.613	3.13
318.987	3.28
319.361	2.96
319.734	3.63
320.108	3.37
320.482	3.81
320.855	3.02
321.229	3.74
321.602	3.66
321.976	3.15
322.349	3.32
322.723	3.4
323.096	3.34
323.469	3.63
323.843	3.08
324.216	3.73
324.589	3.59
324.962	3.39
325.335	3.38
325.708	3.7
326.081	3.69
326.454	3.78
326.827	3.68
327.2	3.77
327.573	4.22
327.945	4.1
328.318	3.34
328.691	3.9
329.063	3.68
329.436	3.99
329.809	4.62
330.181	4.01
330.553	3.47
330.926	4.1
331.298	4.26
331.671	4.23
332.043	3.89
332.415	4.09
332.787	3.68
333.159	4.09
333.532	3.7
333.904	3.65
334.276	3.86
334.648	4.33
335.02	3.42
335.391	4.4
335.763	3.99
336.135	4.14
336.507	4.39
336.879	3.92
337.25	4.59
337.622	4.34
337.993	4.39
338.365	4.63
338.736	4.59
339.108	4.79
339.479	4.45
339.851	5.14
340.222	4.51
340.593	4.03
340.964	4.81
341.336	4.67
341.707	4.91
342.078	4.07
342.449	4.08
342.82	4.43
343.191	4.59
343.562	4.48
343.933	4.88
344.303	4.44
344.674	4.64
345.045	5.12
345.416	4.63
345.786	5.28
346.157	4.73
346.527	4.31
346.898	4.94
347.268	4.88
347.639	5.01
348.009	5.02
348.38	4.64
348.75	5.04
349.12	4.84
349.49	5.54
349.861	5.27
350.231	5.27
350.601	4.87
350.971	5.1
351.341	5.22
351.711	5.18
352.081	4.99
352.45	4.89
352.82	4.87
353.19	5.53
353.56	5.49
353.929	5.26
354.299	5.58
354.669	5.23
355.038	5.53
355.408	4.98
355.777	5.07
356.147	4.77
356.516	5.35
356.885	5.03
357.254	5.56
357.624	5.14
357.993	5.54
358.362	5.41
358.731	5.22
359.1	5.77
359.469	5.37
359.838	5.22
360.207	5.35
360.576	5.51
360.945	5.24
361.314	5.45
361.682	5.36
362.051	5.68
362.42	5.66
362.788	5.41
363.157	5.51
363.525	5.69
363.894	5.84
364.262	5.52
364.631	5.63
364.999	5.68
365.367	5.56
365.735	5.79
366.104	5.69
366.472	5.82
366.84	5.66
367.208	6.09
367.576	6.19
367.944	5.99
368.312	6.34
368.68	6.03
369.048	6.02
369.416	6.17
369.783	6.09
370.151	5.94
370.519	5.83
370.886	6.07
371.254	6.23
371.621	6.22
371.989	6.06
372.356	6.63
372.724	6.07
373.091	6.27
373.458	6.34
373.826	6.17
374.193	6.53
374.56	6.41
374.927	6.43
375.294	6.38
375.661	6.47
376.028	6.28
376.395	6.43
376.762	6.34
377.129	5.95
377.496	6.63
377.863	6.59
378.229	6.6
378.596	6.15
378.963	6.74
379.329	6.79
379.696	6.48
380.062	6.8
380.429	6.54
380.795	6.28
381.161	6.86
381.528	6.73
381.894	6.67
382.26	6.73
382.626	6.63
382.993	6.92
383.359	7.12
383.725	7.17
384.091	6.92
384.457	6.91
384.823	6.71
385.188	6.9
385.554	7.01
385.92	7.34
386.286	6.85
386.651	6.99
387.017	7.19
387.383	7.03
387.748	7.56
388.114	7.11
388.479	7
388.845	7.02
389.21	6.95
389.575	7.14
389.94	7.23
390.306	7.06
390.671	7.11
391.036	7.25
391.401	7.32
391.766	7.29
392.131	7.31
392.496	7.36
392.861	7.18
393.226	7.21
393.591	7.29
393.956	7.3
394.32	7.41
394.685	7.16
395.05	7.58
395.414	7.37
395.779	7.41
396.143	7.43
396.508	7.5
396.872	7.74
397.236	7.56
397.601	7.48
397.965	7.86
398.329	7.96
398.694	7.57
399.058	7.69
399.422	8
399.786	7.87
400.15	7.68
400.514	7.66
400.878	7.72
401.242	7.55
401.605	8.07
401.969	7.8
402.333	7.88
402.697	7.65
403.06	8
403.424	7.9
403.787	7.89
404.151	8.09
404.514	8.11
404.878	7.97
405.241	7.99
405.604	7.72
405.968	7.75
406.331	7.96
406.694	8.23
407.057	8.05
407.42	8.01
407.783	8.09
408.146	8.14
408.509	7.95
408.872	8.12
409.235	8.38
409.598	8.38
409.961	8.44
410.323	8.27
410.686	8.22
411.049	8.15
411.411	8.3
411.774	8.13
412.136	8.17
412.499	8.2
412.861	8.3
413.223	8.5
413.586	8.33
413.948	8.41
414.31	8.41
414.672	8.59
415.035	8.51
415.397	8.76
415.759	8.82
416.121	8.68
416.483	8.41
416.845	8.39
417.206	8.47
417.568	8.56
417.93	8.6
418.292	8.75
418.653	8.55
419.015	8.63
419.377	8.5
419.738	8.54
420.1	8.58
420.461	8.59
420.822	8.72
421.184	8.64
421.545	8.6
421.906	8.57
422.267	8.51
422.629	8.56
422.99	8.56
423.351	8.6
423.712	8.59
424.073	8.69
424.434	8.78
424.795	8.87
425.155	8.79
425.516	8.69
425.877	8.73
426.238	8.81
426.598	8.82
426.959	8.91
427.32	8.93
427.68	8.94
428.041	8.99
428.401	9
428.761	9.17
429.122	9.16
429.482	9.18
429.842	9.55
430.202	9.32
430.563	9.33
430.923	9.44
431.283	9.46
431.643	9.39
432.003	9.28
432.363	9.51
432.722	9.55
433.082	9.37
433.442	9.44
433.802	9.52
434.161	9.41
434.521	9.54
434.881	9.29
435.24	9.32
435.6	9.57
435.959	9.51
436.319	9.62
436.678	9.51
437.037	9.68
437.396	9.71
437.756	9.73
438.115	9.69
438.474	9.8
438.833	9.79
439.192	9.93
439.551	9.78
439.91	9.78
440.269	9.77
440.628	9.73
440.987	9.82
441.345	9.69
441.704	9.66
442.063	9.82
442.421	9.66
442.78	9.63
443.138	9.71
443.497	9.96
443.855	9.8
444.214	9.97
444.572	9.8
444.93	9.99
445.288	10.09
445.647	10.13
446.005	10.28
446.363	10.07
446.721	9.93
447.079	9.99
447.437	10.12
447.795	9.98
448.153	9.83
448.51	10.05
448.868	10.07
449.226	10.1
449.584	10.17
449.941	10.22
450.299	10.29
450.656	10.38
451.014	10.33
451.371	10.23
451.729	10.28
452.086	10.47
452.443	10.4
452.801	10.56
453.158	10.57
453.515	10.54
453.872	10.52
454.229	10.6
454.586	10.63
454.943	10.75
455.3	10.71
455.657	10.53
456.014	10.87
456.371	10.71
456.727	10.71
457.084	10.84
457.441	10.98
457.797	10.62
458.154	10.89
458.51	10.83
458.867	10.92
459.223	11.05
459.58	10.99
459.936	11.06
460.292	10.84
460.648	11.01
461.005	10.85
461.361	10.7
461.717	10.78
462.073	10.82
462.429	10.92
462.785	11.11
463.141	11.07
463.496	11.16
463.852	11.21
464.208	11.29
464.564	11.28
464.919	11.24
465.275	11.33
465.631	11.27
465.986	11.33
466.342	11.36
466.697	11.29
467.052	11.44
467.408	11.46
467.763	11.51
468.118	11.46
468.473	11.55
468.829	11.61
469.184	11.58
469.539	11.42
469.894	11.54
470.249	11.47
470.603	11.69
470.958	11.6
471.313	11.64
471.668	11.84
472.023	11.66
472.377	11.7
472.732	11.69
473.086	11.78
473.441	11.98
473.795	11.91
474.15	11.96
474.504	11.78
474.859	11.79
475.213	12.08
475.567	11.61
475.921	11.96
476.275	11.87
476.63	12.01
476.984	12.13
477.338	11.92
477.692	11.97
478.045	11.86
478.399	12.08
478.753	12.15
479.107	12.05
479.461	11.97
479.814	12.08
480.168	12.07
480.521	12.04
480.875	12.17
481.228	12.21
481.582	12.19
481.935	12.38
482.289	12.25
482.642	12.18
482.995	12.21
483.348	12.05
483.701	12.22
484.055	12.15
484.408	12.01
484.761	11.79
485.114	11.68
485.466	11.5
485.819	11.47
486.172	11.7
486.525	11.89
486.878	12
487.23	12.08
487.583	12.18
487.936	12.28
488.288	12.22
488.641	12.06
488.993	12.02
489.345	11.96
489.698	12
490.05	12.11
490.402	12.19
490.754	12.34
491.107	12.41
491.459	12.44
491.811	12.49
492.163	12.66
492.515	12.54
492.866	12.38
493.218	12.27
493.57	12.2
493.922	12.35
494.274	12.56
494.625	12.72
494.977	12.85
495.328	12.9
495.68	13.05
496.031	13.04
496.383	13.24
496.734	13.24
497.086	13.22
497.437	13.25
497.788	13.38
498.139	13.08
498.49	13.05
498.842	13.09
499.193	13.2
499.544	13.21
499.894	13.34
500.245	13.39
500.596	13.46
500.947	13.39
501.298	13.52
501.648	13.61
501.999	13.53
502.35	13.66
502.7	13.58
503.051	13.56
503.401	13.56
503.752	13.57
504.102	13.72
504.452	13.69
504.803	13.75
505.153	13.69
505.503	13.71
505.853	13.97
506.203	13.88
506.553	13.86
506.903	13.77
507.253	13.87
507.603	14
507.953	13.84
508.303	14.08
508.652	13.98
509.002	14.03
509.352	14.01
509.701	13.94
510.051	13.98
510.4	13.95
510.75	13.94
511.099	14.14
511.449	13.92
511.798	14.06
512.147	14.06
512.496	14.05
512.846	14.08
513.195	14.23
513.544	14.35
513.893	14.22
514.242	14.16
514.591	14.28
514.939	14.34
515.288	14.45
515.637	14.44
515.986	14.54
516.334	14.44
516.683	14.56
517.032	14.6
517.38	14.72
517.729	14.61
518.077	14.44
518.426	14.7
518.774	14.59
519.122	14.43
519.47	14.43
519.819	14.37
520.167	14.39
520.515	14.4
520.863	14.59
521.211	14.6
521.559	14.63
521.907	14.67
522.255	14.81
522.602	14.75
522.95	14.89
523.298	14.86
523.645	14.99
523.993	14.94
524.341	15.22
524.688	15.07
525.036	15.07
525.383	15.02
525.73	15.18
526.078	15.13
526.425	15.14
526.772	15.03
527.119	14.81
527.466	14.73
527.814	14.83
528.161	15.09
528.508	15
528.854	15.07
529.201	14.99
529.548	14.82
529.895	14.59
530.242	14.39
530.588	14.47
530.935	14.69
531.282	14.86
531.628	14.93
531.975	15.05
532.321	15.11
532.667	15.28
533.014	15.47
533.36	15.38
533.706	15.43
534.052	15.37
534.399	15.22
534.745	15.1
535.091	14.99
535.437	15.14
535.783	15.34
536.129	15.52
536.474	15.6
536.82	15.59
537.166	15.75
537.512	15.68
537.857	15.76
538.203	15.48
538.549	15.53
538.894	15.63
539.239	15.77
539.585	15.88
539.93	16.01
540.276	16.1
540.621	16.08
540.966	16.2
541.311	16.17
541.656	16.05
542.001	16.02
542.346	15.85
542.691	15.61
543.036	15.54
543.381	15.56
543.726	15.81
544.071	15.86
544.415	16.03
544.76	15.98
545.105	16.13
545.449	16.12
545.794	16.4
546.138	16.36
546.483	16.32
546.827	16.62
547.171	16.43
547.516	16.55
547.86	16.55
548.204	16.43
548.548	16.38
548.892	16.43
549.236	16.55
549.58	16.72
549.924	16.89
550.268	16.97
550.612	17.04
550.956	17.06
551.3	17.04
551.643	17.11
551.987	17.22
552.33	17.16
552.674	17.25
553.017	17.19
553.361	17.33
553.704	17.33
554.048	17.19
554.391	17.17
554.734	17.32
555.077	17.26
555.42	17.5
555.764	17.33
556.107	17.44
556.45	17.57
556.793	17.43
557.135	17.79
557.478	17.67
557.821	17.55
558.164	17.66
558.507	17.55
558.849	17.78
559.192	17.88
559.534	17.87
559.877	17.8
560.219	17.89
560.562	17.91
560.904	18.13
561.246	17.83
561.589	17.88
561.931	18.1
562.273	18.01
562.615	18.01
562.957	18.12
563.299	18
563.641	18.25
563.983	18.1
564.325	18.11
564.667	18.12
565.008	18.19
565.35	18.36
565.692	18.12
566.033	18.14
566.375	18.35
566.716	18.42
567.058	18.24
567.399	18.08
567.741	18.13
568.082	18.16
568.423	18.21
568.764	18.38
569.105	18.35
569.447	18.25
569.788	18.48
570.129	18.45
570.47	18.87
570.811	18.56
571.151	18.71
571.492	18.65
571.833	18.59
572.174	18.72
572.514	18.8
572.855	18.63
573.195	18.62
573.536	18.65
573.876	18.47
574.217	18.61
574.557	18.73
574.898	18.77
575.238	18.87
575.578	18.85
575.918	18.8
576.258	18.96
576.598	18.81
576.938	18.92
577.278	18.95
577.618	19.18
577.958	19.33
578.298	19.16
578.638	19.16
578.977	19.16
579.317	19.29
579.657	19.59
579.996	19.42
580.336	19.42
580.675	19.34
581.014	19.49
581.354	19.48
581.693	19.29
582.032	19.59
582.372	19.72
582.711	19.64
583.05	19.68
583.389	19.67
583.728	19.81
584.067	19.88
584.406	19.65
584.745	19.84
585.083	19.72
585.422	19.97
585.761	19.96
586.1	19.77
586.438	19.84
586.777	19.84
587.115	19.84
587.454	19.94
587.792	20.35
588.13	20.23
588.469	20.18
588.807	19.95
589.145	20.24
589.483	20.19
589.821	20.33
590.159	20.2
590.497	20.26
590.835	20.02
591.173	20.22
591.511	20.37
591.849	20.04
592.187	20.33
592.524	20.58
592.862	20.57
593.2	20.44
593.537	20.54
593.875	20.55
594.212	20.69
594.55	20.36
594.887	20.29
595.224	20.48
595.561	20.42
595.899	20.47
596.236	20.56
596.573	20.61
596.91	20.5
597.247	20.65
597.584	20.57
597.921	20.58
598.258	20.49
598.594	20.35
598.931	20.43
599.268	20.81
599.604	20.76
599.941	20.73
600.277	21.02
600.614	21.23
600.95	21.08
601.287	21.08
601.623	20.8
601.959	20.95
602.296	21.08
602.632	21.25
602.968	21.04
603.304	21.27
603.64	21.33
603.976	21.16
604.312	20.99
604.648	21.27
604.984	21.21
605.319	21.21
605.655	21.24
605.991	21.02
606.326	20.95
606.662	20.98
606.998	21.19
607.333	21.45
607.668	21.23
608.004	21.56
608.339	21.28
608.674	21.73
609.01	21.73
609.345	21.67
609.68	21.52
610.015	22.02
610.35	21.85
610.685	21.2
611.02	21.35
611.355	21.75
611.689	21.35
612.024	21.72
612.359	21.74
612.694	22.1
613.028	22.2
613.363	22.02
613.697	22.19
614.032	21.93
614.366	22.1
614.7	22.06
615.035	22.39
615.369	22.17
615.703	22.01
616.037	22.19
616.371	22.37
616.705	22.02
617.039	22.3
617.373	22.4
617.707	22.72
618.041	22.54
618.375	22.45
618.709	22.23
619.042	22.75
619.376	22.5
619.71	22.5
620.043	22.46
620.377	22.33
620.71	22.58
621.043	22.56
621.377	22.26
621.71	22.91
622.043	22.72
622.376	22.49
622.709	22.67
623.043	22.38
623.376	22.64
623.709	23.09
624.041	22.88
624.374	22.55
624.707	22.83
625.04	22.92
625.373	23.17
625.705	22.91
626.038	22.89
626.37	22.76
626.703	22.52
627.035	23.4
627.368	23.08
627.7	23.03
628.032	22.88
628.365	22.98
628.697	22.89
629.029	23.13
629.361	22.97
629.693	23.06
630.025	23.4
630.357	23.5
630.689	23.25
631.021	23.15
631.353	23.42
631.684	23.32
632.016	23.5
632.348	23.18
632.679	23.53
633.011	23.48
633.342	23.51
633.674	23.41
634.005	23.46
634.336	23.66
634.668	23.76
634.999	23.62
635.33	23.63
635.661	23.58
635.992	23.7
636.323	23.51
636.654	23.7
636.985	23.84
637.316	23.35
637.647	23.56
637.977	23.93
638.308	23.91
638.639	23.61
638.969	23.74
639.3	23.91
639.63	24.03
639.961	23.78
640.291	24.21
640.622	24.12
640.952	23.93
641.282	23.79
641.612	24.04
641.943	24.31
642.273	23.87
642.603	24.19
642.933	23.88
643.263	24.02
643.592	24.44
643.922	24.17
644.252	24.32
644.582	24.88
644.911	24.43
645.241	24.26
645.571	24.47
645.9	24.38
646.23	24.58
646.559	24.54
646.888	24.61
647.218	25.11
647.547	25
647.876	24.73
648.205	24.49
648.534	24.53
648.863	24.93
649.192	25.15
649.521	24.62
649.85	24.62
650.179	24.46
650.508	24.57
650.837	25.14
651.165	25.01
651.494	24.65
651.822	24.93
652.151	24.8
652.479	25.16
652.808	24.62
653.136	24.94
653.465	25.12
653.793	24.88
654.121	24.62
654.449	24.72
654.777	25.12
655.105	25.01
655.433	25.3
655.761	25.44
656.089	25.16
656.417	25.7
656.745	25.1
657.073	24.92
657.4	25.77
657.728	24.81
658.056	25.58
658.383	25.35
658.711	25.22
659.038	25.32
659.365	25.39
659.693	25.53
660.02	25.64
660.347	25.13
660.674	24.93
661.001	25.57
661.329	25.21
661.656	25.55
661.982	25.42
662.309	25.86
662.636	25.7
662.963	25.48
663.29	25.82
663.616	25.36
663.943	25.5
664.27	25.85
664.596	25.91
664.923	25.92
665.249	26.59
665.576	26.03
665.902	25.89
666.228	26.16
666.554	25.9
666.881	25.89
667.207	25.96
667.533	26.24
667.859	25.81
668.185	25.9
668.511	25.93
668.837	26.33
669.162	26.65
669.488	25.8
669.814	25.93
670.139	25.48
670.465	25.77
670.791	25.22
671.116	26.16
671.442	26.55
671.767	26.28
672.092	26.18
672.418	26.23
672.743	26.54
673.068	25.42
673.393	26.26
673.718	26.14
674.043	26.82
674.368	26.96
674.693	26.58
675.018	26.7
675.343	26.68
675.667	26.47
675.992	26.77
676.317	26.74
676.641	26.12
