Data from 97280_forehead_Reflection__1__22.txt Node

Date: Fri Sep 23 19:44:17 CDT 2022
User: ToomeyLab
Spectrometer: FLMS14357
Trigger mode: 0
Integration Time (sec): 1.000000E-2
Scans to average: 100
Electric dark correction enabled: true
Nonlinearity correction enabled: false
Boxcar width: 0
XAxis mode: Wavelengths
Number of Pixels in Spectrum: 2048
>>>>>Begin Spectral Data<<<<<
189.047	316.86
189.435	316.86
189.823	316.86
190.211	76.36
190.599	-30150
190.987	271.52
191.375	11.77
191.763	35.09
192.151	-470.86
192.538	84.19
192.926	773.43
193.314	280.07
193.702	68.12
194.089	140.59
194.477	108.68
194.864	91.34
195.252	46.81
195.639	-126.51
196.027	63.89
196.414	-83.23
196.801	192.53
197.189	-176.87
197.576	275.4
197.963	57.78
198.351	62.97
198.738	-83.64
199.125	36.54
199.512	31.03
199.899	10.92
200.286	-21.46
200.673	7.46
201.06	33.63
201.447	50.78
201.833	34.95
202.22	-0.91
202.607	-2.82
202.994	-29.87
203.38	1.09
203.767	-24.87
204.154	14.3
204.54	22.23
204.927	39.95
205.313	30.17
205.699	-9.02
206.086	38.15
206.472	12.07
206.858	17.66
207.245	-0.43
207.631	-4.87
208.017	38.24
208.403	36.73
208.789	21.18
209.175	33.25
209.561	36.63
209.947	11.37
210.333	-25.9
210.719	-9.86
211.105	18.6
211.491	22.74
211.876	28.14
212.262	11.94
212.648	5.96
213.034	-23.29
213.419	-17.65
213.805	28.58
214.19	8.09
214.576	10.11
214.961	33.45
215.346	-5.31
215.732	31.78
216.117	20.94
216.502	13.69
216.888	19.27
217.273	13.3
217.658	-3.05
218.043	27.31
218.428	12.48
218.813	34.15
219.198	12.46
219.583	12.08
219.968	16.19
220.353	29.04
220.738	13.18
221.122	7.41
221.507	-1.36
221.892	21.63
222.276	-13.08
222.661	9.83
223.046	8.34
223.43	-2.24
223.815	3.28
224.199	7.76
224.583	8.73
224.968	4.65
225.352	2.79
225.736	-3.13
226.121	7.5
226.505	12.04
226.889	8.93
227.273	2.55
227.657	2.06
228.041	2.55
228.425	2.89
228.809	2.93
229.193	1.99
229.577	5.6
229.961	3.63
230.344	2.62
230.728	2.64
231.112	2.01
231.495	2.83
231.879	1.96
232.263	4.4
232.646	4.29
233.03	3.2
233.413	3.34
233.797	3.8
234.18	7.17
234.563	3.43
234.946	5.85
235.33	1.02
235.713	2.5
236.096	1.95
236.479	2.5
236.862	3.3
237.245	3.95
237.628	3.55
238.011	4.04
238.394	3.33
238.777	3.14
239.16	4.38
239.543	2.06
239.925	3.18
240.308	4.46
240.691	3.41
241.073	2.52
241.456	2.27
241.838	4.13
242.221	3.62
242.603	3.64
242.986	2.54
243.368	2.49
243.75	3.26
244.133	3.43
244.515	2.96
244.897	3.19
245.279	3.23
245.661	3.74
246.043	3.18
246.425	3.26
246.807	2.46
247.189	3.58
247.571	3.19
247.953	3.15
248.335	3.11
248.717	3.17
249.098	3.02
249.48	3.07
249.862	3.02
250.243	2.87
250.625	3.22
251.006	3.64
251.388	3.31
251.769	4.07
252.151	1.94
252.532	4.29
252.913	3.54
253.295	3.82
253.676	3.61
254.057	3.14
254.438	3.3
254.819	3.37
255.2	3.49
255.581	3.91
255.962	3.02
256.343	4.34
256.724	2.14
257.105	4.04
257.486	2.8
257.867	2.85
258.247	3.37
258.628	3.81
259.009	2.76
259.389	3.5
259.77	3.2
260.15	3.36
260.531	3.33
260.911	3.14
261.292	2.95
261.672	3
262.052	2.96
262.432	2.96
262.813	3.03
263.193	3.4
263.573	3.17
263.953	2.88
264.333	3.28
264.713	2.88
265.093	4.12
265.473	3.53
265.853	3.69
266.233	2.69
266.612	3.5
266.992	4.25
267.372	2.57
267.752	3.32
268.131	3.25
268.511	3.16
268.89	3.21
269.27	2.99
269.649	3.06
270.029	2.91
270.408	3.43
270.787	2.96
271.167	3.07
271.546	2.84
271.925	3.06
272.304	3.47
272.683	2.74
273.062	3.16
273.441	3.27
273.82	3.05
274.199	3.11
274.578	2.72
274.957	2.84
275.336	3.27
275.715	3.21
276.093	3.63
276.472	3.54
276.851	2.71
277.229	3.13
277.608	3.14
277.986	3.06
278.365	3.03
278.743	3.44
279.122	2.96
279.5	2.91
279.878	2.9
280.257	2.89
280.635	3.01
281.013	3.21
281.391	3.23
281.769	3.15
282.147	3.08
282.525	2.94
282.903	3.44
283.281	3.06
283.659	3.19
284.037	3.33
284.415	3.42
284.792	3.05
285.17	3.05
285.548	2.97
285.925	3.3
286.303	3.54
286.68	2.81
287.058	3.37
287.435	3.08
287.813	3.49
288.19	3.09
288.567	3.36
288.945	3.31
289.322	3.33
289.699	3.45
290.076	3.24
290.453	3.55
290.83	3.61
291.207	3.64
291.584	3.45
291.961	3.23
292.338	3.64
292.715	3.08
293.092	3.25
293.469	3.64
293.845	3.98
294.222	3.67
294.599	3.47
294.975	3.89
295.352	3.65
295.728	4.07
296.105	3.76
296.481	3.68
296.858	3.6
297.234	3.83
297.61	3.37
297.986	3.69
298.363	3.81
298.739	4.01
299.115	3.81
299.491	3.7
299.867	3.88
300.243	4.08
300.619	4.53
300.995	4.38
301.371	4.09
301.746	4.44
302.122	4.15
302.498	3.9
302.874	4.03
303.249	4.36
303.625	3.83
304	4.19
304.376	4.06
304.751	4.35
305.127	4.75
305.502	4.22
305.878	4.1
306.253	4.73
306.628	4.64
307.003	4.06
307.378	4.97
307.754	4.97
308.129	4.52
308.504	4.94
308.879	4.81
309.254	4.84
309.629	5.1
310.003	5.06
310.378	5.06
310.753	5.02
311.128	4.85
311.502	5.02
311.877	4.86
312.252	4.82
312.626	5.07
313.001	5.22
313.375	5.21
313.75	4.84
314.124	4.96
314.498	4.69
314.873	5.29
315.247	5.55
315.621	5.43
315.995	5.4
316.369	5.34
316.743	5.14
317.117	4.56
317.491	5.38
317.865	5.53
318.239	6.02
318.613	5.94
318.987	5.36
319.361	5.42
319.734	5.43
320.108	5.3
320.482	5.83
320.855	5.44
321.229	6.28
321.602	5.86
321.976	6.37
322.349	6.18
322.723	6.34
323.096	5.93
323.469	5.81
323.843	5.95
324.216	6.51
324.589	6.46
324.962	6.27
325.335	5.91
325.708	6.92
326.081	6.07
326.454	6.35
326.827	5.96
327.2	6.16
327.573	6.44
327.945	6.85
328.318	6.12
328.691	6.28
329.063	6.78
329.436	6.84
329.809	6.98
330.181	6.8
330.553	6.17
330.926	6.89
331.298	6.58
331.671	7.19
332.043	6.82
332.415	6.61
332.787	6.62
333.159	6.7
333.532	6.87
333.904	6.82
334.276	6.62
334.648	7.06
335.02	7.37
335.391	6.98
335.763	6.57
336.135	7.2
336.507	7.72
336.879	7.24
337.25	6.92
337.622	7.21
337.993	7.47
338.365	7.72
338.736	7.51
339.108	7.58
339.479	7.1
339.851	7.14
340.222	7.69
340.593	7.08
340.964	8.03
341.336	7.21
341.707	8.09
342.078	7.19
342.449	7.25
342.82	7.35
343.191	7.63
343.562	7.53
343.933	7.96
344.303	7.81
344.674	8.01
345.045	8.05
345.416	7.72
345.786	8.09
346.157	7.86
346.527	8.04
346.898	7.97
347.268	7.85
347.639	7.67
348.009	7.94
348.38	7.96
348.75	7.94
349.12	7.9
349.49	8.34
349.861	8.48
350.231	8.07
350.601	8.25
350.971	8.54
351.341	8.25
351.711	8.76
352.081	8.12
352.45	8.15
352.82	7.99
353.19	8.57
353.56	8.72
353.929	8.35
354.299	8.83
354.669	8.74
355.038	8.74
355.408	8.76
355.777	8.49
356.147	8.43
356.516	8.74
356.885	8.92
357.254	8.62
357.624	8.65
357.993	8.81
358.362	9.04
358.731	8.87
359.1	9.03
359.469	8.61
359.838	8.94
360.207	9.11
360.576	8.95
360.945	8.69
361.314	8.85
361.682	9
362.051	9.13
362.42	9.34
362.788	9.14
363.157	9.32
363.525	9.38
363.894	9.18
364.262	9.18
364.631	9.27
364.999	9.5
365.367	9.3
365.735	9.41
366.104	9.47
366.472	9.68
366.84	9.47
367.208	9.8
367.576	9.46
367.944	9.69
368.312	9.6
368.68	9.55
369.048	9.36
369.416	9.67
369.783	9.73
370.151	10.12
370.519	10.13
370.886	9.72
371.254	9.76
371.621	10.1
371.989	9.91
372.356	10.29
372.724	9.66
373.091	9.98
373.458	9.8
373.826	9.89
374.193	10.33
374.56	10.24
374.927	10.2
375.294	10.22
375.661	10.18
376.028	10.34
376.395	10.2
376.762	10.4
377.129	10.17
377.496	10.29
377.863	10.3
378.229	10.25
378.596	10.41
378.963	10.72
379.329	10.63
379.696	10.35
380.062	10.55
380.429	10.34
380.795	10.64
381.161	11.08
381.528	10.77
381.894	10.49
382.26	10.67
382.626	10.66
382.993	11.03
383.359	10.89
383.725	10.97
384.091	11.16
384.457	11.08
384.823	10.78
385.188	11.14
385.554	11.02
385.92	11.25
386.286	11.08
386.651	11.2
387.017	11.41
387.383	11.36
387.748	11.57
388.114	11.32
388.479	11.2
388.845	11.51
389.21	11.39
389.575	11.46
389.94	11.44
390.306	11.27
390.671	11.06
391.036	11.62
391.401	11.72
391.766	11.83
392.131	11.69
392.496	11.54
392.861	11.51
393.226	11.55
393.591	11.73
393.956	11.77
394.32	11.78
394.685	11.63
395.05	12.11
395.414	11.59
395.779	11.87
396.143	11.7
396.508	12.18
396.872	11.99
397.236	12.05
397.601	11.99
397.965	12.25
398.329	12.18
398.694	12
399.058	12.42
399.422	12.43
399.786	12.49
400.15	12.17
400.514	12.08
400.878	12.34
401.242	12.31
401.605	12.76
401.969	12.38
402.333	12.24
402.697	12.33
403.06	12.53
403.424	12.52
403.787	12.6
404.151	12.57
404.514	12.42
404.878	12.51
405.241	12.71
405.604	12.46
405.968	12.71
406.331	12.66
406.694	12.93
407.057	12.77
407.42	12.85
407.783	12.59
408.146	12.83
408.509	12.92
408.872	12.85
409.235	12.93
409.598	13.01
409.961	12.93
410.323	13.1
410.686	12.93
411.049	13.07
411.411	12.99
411.774	12.9
412.136	13.12
412.499	13.06
412.861	13.32
413.223	13.18
413.586	13.32
413.948	13.29
414.31	13.44
414.672	13.29
415.035	13.44
415.397	13.47
415.759	13.6
416.121	13.64
416.483	13.48
416.845	13.13
417.206	13.43
417.568	13.54
417.93	13.51
418.292	13.56
418.653	13.46
419.015	13.54
419.377	13.51
419.738	13.54
420.1	13.47
420.461	13.49
420.822	13.61
421.184	13.67
421.545	13.67
421.906	13.62
422.267	13.62
422.629	13.52
422.99	13.68
423.351	13.57
423.712	13.65
424.073	13.7
424.434	13.86
424.795	13.87
425.155	13.8
425.516	13.76
425.877	13.73
426.238	13.81
426.598	13.89
426.959	13.87
427.32	14.14
427.68	14.05
428.041	14.09
428.401	14.21
428.761	14.39
429.122	14.19
429.482	14.33
429.842	14.61
430.202	14.57
430.563	14.55
430.923	14.63
431.283	14.55
431.643	14.45
432.003	14.54
432.363	14.62
432.722	14.84
433.082	14.54
433.442	14.64
433.802	14.59
434.161	14.65
434.521	14.68
434.881	14.73
435.24	14.62
435.6	14.73
435.959	14.87
436.319	14.8
436.678	14.8
437.037	14.99
437.396	15.03
437.756	15.22
438.115	14.94
438.474	15.17
438.833	15.13
439.192	15.22
439.551	15.27
439.91	15.22
440.269	15.12
440.628	15.15
440.987	15.26
441.345	15.11
441.704	15.18
442.063	15.18
442.421	15.11
442.78	15.12
443.138	15.24
443.497	15.3
443.855	15.34
444.214	15.59
444.572	15.54
444.93	15.66
445.288	15.7
445.647	15.66
446.005	15.65
446.363	15.7
446.721	15.47
447.079	15.61
447.437	15.6
447.795	15.6
448.153	15.32
448.51	15.45
448.868	15.5
449.226	15.66
449.584	15.71
449.941	15.82
450.299	15.8
450.656	15.9
451.014	15.98
451.371	15.93
451.729	15.96
452.086	16.22
452.443	16.11
452.801	16.14
453.158	16.37
453.515	16.24
453.872	16.28
454.229	16.37
454.586	16.33
454.943	16.3
455.3	16.41
455.657	16.56
456.014	16.5
456.371	16.56
456.727	16.63
457.084	16.57
457.441	16.72
457.797	16.5
458.154	16.48
458.51	16.62
458.867	16.61
459.223	16.73
459.58	16.74
459.936	16.86
460.292	16.42
460.648	16.77
461.005	16.54
461.361	16.59
461.717	16.6
462.073	16.6
462.429	16.57
462.785	16.87
463.141	16.88
463.496	16.91
463.852	17.07
464.208	17.24
464.564	17.07
464.919	17.25
465.275	17.46
465.631	17.22
465.986	17.19
466.342	17.37
466.697	17.33
467.052	17.47
467.408	17.56
467.763	17.39
468.118	17.41
468.473	17.49
468.829	17.52
469.184	17.6
469.539	17.45
469.894	17.77
470.249	17.6
470.603	17.79
470.958	17.73
471.313	17.79
471.668	17.69
472.023	17.76
472.377	17.84
472.732	17.88
473.086	17.93
473.441	17.84
473.795	17.82
474.15	17.93
474.504	18.04
474.859	18
475.213	18.11
475.567	17.85
475.921	18.25
476.275	18.24
476.63	18.02
476.984	18.36
477.338	18.17
477.692	18.26
478.045	17.99
478.399	18.26
478.753	18.34
479.107	18.29
479.461	18.31
479.814	18.19
480.168	18.41
480.521	18.24
480.875	18.3
481.228	18.41
481.582	18.5
481.935	18.56
482.289	18.46
482.642	18.33
482.995	18.64
483.348	18.26
483.701	18.42
484.055	18.51
484.408	18.23
484.761	18.09
485.114	17.76
485.466	17.69
485.819	17.68
486.172	17.9
486.525	18.08
486.878	18.26
487.23	18.36
487.583	18.45
487.936	18.41
488.288	18.49
488.641	18.37
488.993	18.27
489.345	18.23
489.698	18.32
490.05	18.36
490.402	18.48
490.754	18.67
491.107	18.85
491.459	18.9
491.811	18.94
492.163	19.09
492.515	18.92
492.866	18.71
493.218	18.54
493.57	18.64
493.922	18.76
494.274	18.95
494.625	19.09
494.977	19.32
495.328	19.35
495.68	19.55
496.031	19.48
496.383	19.68
496.734	19.78
497.086	19.83
497.437	19.75
497.788	19.73
498.139	19.69
498.49	19.62
498.842	19.65
499.193	19.61
499.544	19.77
499.894	19.87
500.245	19.78
500.596	19.83
500.947	19.92
501.298	20.05
501.648	20.26
501.999	20.19
502.35	20.29
502.7	20.18
503.051	20.25
503.401	20.26
503.752	20.25
504.102	20.4
504.452	20.42
504.803	20.47
505.153	20.4
505.503	20.37
505.853	20.63
506.203	20.42
506.553	20.66
506.903	20.61
507.253	20.56
507.603	20.69
507.953	20.52
508.303	20.69
508.652	20.66
509.002	20.88
509.352	20.77
509.701	20.65
510.051	20.85
510.4	20.73
510.75	20.71
511.099	20.77
511.449	20.79
511.798	20.86
512.147	20.84
512.496	20.87
512.846	20.94
513.195	20.94
513.544	21.06
513.893	21.04
514.242	20.91
514.591	21.31
514.939	21.21
515.288	21.32
515.637	21.15
515.986	21.28
516.334	21.44
516.683	21.58
517.032	21.53
517.38	21.44
517.729	21.4
518.077	21.55
518.426	21.57
518.774	21.44
519.122	21.38
519.47	21.41
519.819	21.42
520.167	21.31
520.515	21.33
520.863	21.4
521.211	21.51
521.559	21.59
521.907	21.66
522.255	21.66
522.602	21.86
522.95	21.95
523.298	21.96
523.645	21.83
523.993	21.98
524.341	22.03
524.688	21.99
525.036	22.03
525.383	22
525.73	22.21
526.078	22.15
526.425	22.23
526.772	21.95
527.119	21.87
527.466	21.78
527.814	21.94
528.161	22.03
528.508	22.07
528.854	22.08
529.201	22.15
529.548	21.85
529.895	21.65
530.242	21.49
530.588	21.61
530.935	21.79
531.282	21.96
531.628	22.01
531.975	22.1
532.321	22.25
532.667	22.4
533.014	22.49
533.36	22.49
533.706	22.46
534.052	22.57
534.399	22.43
534.745	22.26
535.091	22.18
535.437	22.28
535.783	22.5
536.129	22.64
536.474	22.78
536.82	22.71
537.166	23.04
537.512	23.07
537.857	22.83
538.203	22.78
538.549	22.76
538.894	22.93
539.239	23.03
539.585	23.13
539.93	23.27
540.276	23.51
540.621	23.39
540.966	23.52
541.311	23.59
541.656	23.38
542.001	23.37
542.346	23.18
542.691	22.93
543.036	22.81
543.381	22.8
543.726	23.06
544.071	23.13
544.415	23.21
544.76	23.23
545.105	23.38
545.449	23.45
545.794	23.65
546.138	23.77
546.483	23.83
546.827	24.02
547.171	23.89
547.516	23.91
547.86	23.98
548.204	23.85
548.548	23.81
548.892	23.9
549.236	24.07
549.58	24.02
549.924	24.38
550.268	24.47
550.612	24.41
550.956	24.52
551.3	24.47
551.643	24.63
551.987	24.54
552.33	24.49
552.674	24.83
553.017	24.74
553.361	24.77
553.704	24.75
554.048	24.73
554.391	24.62
554.734	24.78
555.077	24.78
555.42	24.7
555.764	24.66
556.107	24.97
556.45	25.14
556.793	25.04
557.135	25.07
557.478	25.1
557.821	25.28
558.164	25.46
558.507	25.12
558.849	25.4
559.192	25.41
559.534	25.34
559.877	25.37
560.219	25.54
560.562	25.62
560.904	25.43
561.246	25.47
561.589	25.5
561.931	25.53
562.273	25.74
562.615	25.78
562.957	25.56
563.299	25.59
563.641	25.67
563.983	25.64
564.325	25.59
564.667	25.75
565.008	25.96
565.35	26.06
565.692	26.06
566.033	25.9
566.375	26.14
566.716	25.83
567.058	25.98
567.399	25.71
567.741	25.85
568.082	25.83
568.423	25.83
568.764	26.07
569.105	26.02
569.447	26.05
569.788	26.07
570.129	26.13
570.47	26.5
570.811	26.21
571.151	26.24
571.492	26.25
571.833	26.42
572.174	26.31
572.514	26.63
572.855	26.22
573.195	26.36
573.536	26.39
573.876	26.53
574.217	26.29
574.557	26.59
574.898	26.68
575.238	26.75
575.578	26.85
575.918	26.66
576.258	26.79
576.598	26.69
576.938	26.66
577.278	26.82
577.618	26.74
577.958	27.08
578.298	27.01
578.638	27.04
578.977	26.92
579.317	27.07
579.657	27.44
579.996	26.86
580.336	27.17
580.675	27.23
581.014	27.16
581.354	27.2
581.693	27.43
582.032	27.53
582.372	27.37
582.711	27.58
583.05	27.53
583.389	27.54
583.728	27.56
584.067	27.77
584.406	27.65
584.745	27.67
585.083	27.65
585.422	27.84
585.761	27.88
586.1	27.76
586.438	27.73
586.777	27.75
587.115	27.88
587.454	27.71
587.792	28.24
588.13	28.23
588.469	27.93
588.807	27.98
589.145	28.3
589.483	27.92
589.821	28.41
590.159	28.3
590.497	28.25
590.835	28.11
591.173	27.76
591.511	28.09
591.849	28.14
592.187	28.38
592.524	28.37
592.862	28.62
593.2	28.6
593.537	28.5
593.875	28.57
594.212	28.53
594.55	28.37
594.887	28.3
595.224	28.73
595.561	28.52
595.899	28.74
596.236	28.57
596.573	28.77
596.91	28.68
597.247	28.82
597.584	28.74
597.921	28.71
598.258	28.69
598.594	28.57
598.931	28.62
599.268	28.88
599.604	28.67
599.941	28.86
600.277	28.75
600.614	28.96
600.95	28.86
601.287	28.93
601.623	29.23
601.959	28.84
602.296	29.13
602.632	29.3
602.968	29.2
603.304	29.3
603.64	29.28
603.976	29.39
604.312	29.35
604.648	29.58
604.984	29.25
605.319	29.43
605.655	29.24
605.991	29.18
606.326	29.28
606.662	29.23
606.998	29.63
607.333	29.34
607.668	29.34
608.004	29.54
608.339	29.54
608.674	29.86
609.01	29.67
609.345	29.89
609.68	29.8
610.015	29.93
610.35	29.85
610.685	29.7
611.02	29.54
611.355	29.85
611.689	29.82
612.024	29.75
612.359	29.74
612.694	30.2
613.028	30.14
613.363	29.99
613.697	30.15
614.032	30.03
614.366	30.17
614.7	30.04
615.035	30.37
615.369	30.77
615.703	30.52
616.037	30.32
616.371	30.4
616.705	30.42
617.039	30.41
617.373	30.48
617.707	30.5
618.041	30.72
618.375	31.1
618.709	30.45
619.042	30.79
619.376	31.06
619.71	30.81
620.043	31.03
620.377	30.46
620.71	30.93
621.043	30.94
621.377	30.68
621.71	30.77
622.043	30.94
622.376	30.65
622.709	31.27
623.043	30.7
623.376	30.65
623.709	31.13
624.041	31.28
624.374	31
624.707	31.35
625.04	31.23
625.373	30.59
625.705	31.32
626.038	31.23
626.37	31.25
626.703	31
627.035	31.54
627.368	30.83
627.7	31.26
628.032	31.18
628.365	31.22
628.697	31.01
629.029	31.53
629.361	31.42
629.693	31.48
630.025	31.74
630.357	31.64
630.689	31.58
631.021	31.6
631.353	31.56
631.684	31.74
632.016	31.68
632.348	32.1
632.679	31.92
633.011	31.8
633.342	31.69
633.674	32.41
634.005	31.73
634.336	32.13
634.668	32.21
634.999	31.84
635.33	32.11
635.661	32.33
635.992	32.15
636.323	32.05
636.654	31.72
636.985	32.08
637.316	32.04
637.647	32.13
637.977	31.98
638.308	32.33
638.639	31.84
638.969	32.04
639.3	32.32
639.63	32.18
639.961	32.23
640.291	32.51
640.622	32.09
640.952	32.43
641.282	32.57
641.612	32.54
641.943	32.58
642.273	32.51
642.603	32.64
642.933	32.53
643.263	32.27
643.592	32.61
643.922	33.07
644.252	33.09
644.582	33.09
644.911	32.57
645.241	32.93
645.571	33.2
645.9	33.19
646.23	32.69
646.559	33.04
646.888	33.24
647.218	33.2
647.547	32.9
647.876	32.54
648.205	33.02
648.534	32.83
648.863	33.04
649.192	33.05
649.521	33.35
649.85	32.67
650.179	32.61
650.508	32.83
650.837	33.43
651.165	33.34
651.494	33.18
651.822	33.46
652.151	33.29
652.479	33.07
652.808	33.14
653.136	33.03
653.465	33.23
653.793	33.44
654.121	33.42
654.449	33.14
654.777	34.18
655.105	33.79
655.433	33.36
655.761	33.55
656.089	33.71
656.417	33.61
656.745	33.52
657.073	33.63
657.4	34.02
657.728	33.49
658.056	33.63
658.383	34.14
658.711	33.57
659.038	33.71
659.365	33.77
659.693	33.8
660.02	34.1
660.347	33.54
660.674	33.7
661.001	33.9
661.329	33.73
661.656	34.25
661.982	34.18
662.309	34.2
662.636	34.07
662.963	34.34
663.29	34.29
663.616	33.96
663.943	34.16
664.27	34.6
664.596	34.11
664.923	34.6
665.249	34.59
665.576	34.14
665.902	34.56
666.228	34.56
666.554	34.61
666.881	34.22
667.207	34.34
667.533	34.11
667.859	34.12
668.185	33.96
668.511	34.21
668.837	34.72
669.162	34.6
669.488	34.8
669.814	34.48
670.139	34.53
670.465	34.18
670.791	35.22
671.116	34.77
671.442	35.57
671.767	34.35
672.092	34.59
