Data from 97280_chest_Reflection__0__16.txt Node

Date: Fri Sep 23 19:37:34 CDT 2022
User: ToomeyLab
Spectrometer: FLMS14357
Trigger mode: 0
Integration Time (sec): 1.000000E-2
Scans to average: 100
Electric dark correction enabled: true
Nonlinearity correction enabled: false
Boxcar width: 0
XAxis mode: Wavelengths
Number of Pixels in Spectrum: 2048
>>>>>Begin Spectral Data<<<<<
189.047	342.21
189.435	342.21
189.823	342.21
190.211	555.04
190.599	-54400
190.987	-486.1
191.375	104.18
191.763	117.77
192.151	520.86
192.538	998.29
192.926	116.57
193.314	154.25
193.702	81.36
194.089	-55.66
194.477	95.65
194.864	38.36
195.252	-71.15
195.639	28.94
196.027	16.59
196.414	164.21
196.801	306.51
197.189	-226.87
197.576	-107.23
197.963	-94.78
198.351	68.93
198.738	-33.81
199.125	-9.3
199.512	10.9
199.899	7.85
200.286	-27.21
200.673	-11.06
201.06	-16.8
201.447	19.87
201.833	5.35
202.22	11.67
202.607	-5.83
202.994	-6.01
203.38	-6.68
203.767	-28.38
204.154	-3.06
204.54	16.52
204.927	36.1
205.313	-7.83
205.699	-76.37
206.086	-37.67
206.472	24.27
206.858	19.62
207.245	-11.37
207.631	-9.98
208.017	-12.39
208.403	11.97
208.789	16.53
209.175	11.92
209.561	23.55
209.947	-7.01
210.333	10.75
210.719	8.58
211.105	24.72
211.491	18.06
211.876	2.86
212.262	12.64
212.648	-20.06
213.034	-32.54
213.419	-37.75
213.805	20.1
214.19	-4.22
214.576	-8.2
214.961	16.31
215.346	-13.43
215.732	10.37
216.117	23.67
216.502	4.87
216.888	22.54
217.273	-0.07
217.658	25.6
218.043	1.13
218.428	-15.82
218.813	4.15
219.198	3.86
219.583	7.32
219.968	6.52
220.353	-3.15
220.738	-1.65
221.122	8.34
221.507	7.63
221.892	-0.95
222.276	7.81
222.661	-8.53
223.046	3.5
223.43	-7.34
223.815	1.53
224.199	-0.83
224.583	-4.76
224.968	-3.48
225.352	-3.15
225.736	-0.38
226.121	4.57
226.505	4.09
226.889	5.06
227.273	0.44
227.657	1.92
228.041	1.61
228.425	4.01
228.809	2.53
229.193	4.68
229.577	2.64
229.961	3.08
230.344	1.9
230.728	1.12
231.112	1.4
231.495	1.09
231.879	-0.28
232.263	2.16
232.646	1.53
233.03	1.88
233.413	2.44
233.797	1.67
234.18	4.34
234.563	2.65
234.946	1.99
235.33	0.55
235.713	2.79
236.096	0.57
236.479	0.62
236.862	1.65
237.245	3.04
237.628	1.13
238.011	2.83
238.394	0.92
238.777	3.23
239.16	2.3
239.543	1.95
239.925	1.72
240.308	1.74
240.691	1.74
241.073	-0.08
241.456	1.11
241.838	3.12
242.221	2.13
242.603	2.54
242.986	1.07
243.368	1.36
243.75	1.87
244.133	1.59
244.515	1.46
244.897	1.84
245.279	2.21
245.661	2.1
246.043	2.13
246.425	1.59
246.807	1.17
247.189	1.89
247.571	1.91
247.953	1.24
248.335	1.63
248.717	1.73
249.098	1.57
249.48	1.82
249.862	1.61
250.243	1.81
250.625	1.91
251.006	2.29
251.388	2.09
251.769	2
252.151	0.2
252.532	2.32
252.913	1.9
253.295	2.35
253.676	1.67
254.057	1.24
254.438	1.3
254.819	2.32
255.2	1.87
255.581	2.37
255.962	1.15
256.343	1.9
256.724	1.82
257.105	2.76
257.486	0.83
257.867	1.91
258.247	1.15
258.628	1.1
259.009	0.99
259.389	1.87
259.77	0.75
260.15	1.74
260.531	1.6
260.911	1.56
261.292	1.66
261.672	1.4
262.052	1.54
262.432	1.52
262.813	1.85
263.193	1.62
263.573	2.2
263.953	1.15
264.333	1.73
264.713	1.56
265.093	2.03
265.473	2.3
265.853	1.22
266.233	1.18
266.612	1.48
266.992	2.32
267.372	1.16
267.752	1.92
268.131	2.2
268.511	1.09
268.89	1.82
269.27	1.55
269.649	1.34
270.029	1.61
270.408	2.11
270.787	1.56
271.167	1.18
271.546	1.48
271.925	1.18
272.304	1.58
272.683	1.53
273.062	1.5
273.441	1.61
273.82	1.73
274.199	1.36
274.578	1.37
274.957	1.45
275.336	1.83
275.715	1.29
276.093	1.4
276.472	2.14
276.851	1.62
277.229	1.94
277.608	1.64
277.986	1.4
278.365	1.29
278.743	1.67
279.122	0.95
279.5	1.37
279.878	1.47
280.257	2.2
280.635	1.72
281.013	1.35
281.391	1.59
281.769	1.44
282.147	1.57
282.525	1.45
282.903	1.91
283.281	1.47
283.659	1.67
284.037	1.57
284.415	1.52
284.792	1.43
285.17	1.73
285.548	1.36
285.925	1.58
286.303	2.05
286.68	1.49
287.058	1.53
287.435	1.47
287.813	1.89
288.19	1.54
288.567	1.94
288.945	1.71
289.322	1.78
289.699	1.91
290.076	1.57
290.453	1.31
290.83	2.1
291.207	1.64
291.584	1.68
291.961	1.9
292.338	1.66
292.715	1.28
293.092	1.59
293.469	1.98
293.845	2.27
294.222	1.75
294.599	1.59
294.975	1.61
295.352	2.03
295.728	1.67
296.105	1.73
296.481	1.51
296.858	1.89
297.234	1.84
297.61	1.31
297.986	1.51
298.363	1.55
298.739	1.78
299.115	1.61
299.491	1.59
299.867	1.46
300.243	1.88
300.619	2.27
300.995	1.82
301.371	1.29
301.746	2.14
302.122	1.35
302.498	1.72
302.874	1.43
303.249	1.86
303.625	1.95
304	1.76
304.376	1.51
304.751	1.62
305.127	1.47
305.502	1.58
305.878	2.08
306.253	1.38
306.628	1.87
307.003	1.39
307.378	1.59
307.754	2.2
308.129	1.46
308.504	2.03
308.879	2.21
309.254	1.62
309.629	2.17
310.003	1.87
310.378	1.54
310.753	1.82
311.128	1.83
311.502	1.56
311.877	2.03
312.252	1.62
312.626	1.99
313.001	1.86
313.375	1.99
313.75	1.52
314.124	1.48
314.498	2.34
314.873	1.6
315.247	2.09
315.621	2.36
315.995	1.99
316.369	1.99
316.743	1.63
317.117	1.35
317.491	1.35
317.865	2.44
318.239	2.48
318.613	1.58
318.987	1.71
319.361	2.09
319.734	1.77
320.108	2.11
320.482	2.24
320.855	1.87
321.229	2.19
321.602	1.94
321.976	2.75
322.349	2.27
322.723	2.03
323.096	2
323.469	1.42
323.843	0.97
324.216	2.53
324.589	1.8
324.962	1.54
325.335	1.67
325.708	2.61
326.081	2.12
326.454	1.69
326.827	1.51
327.2	1.5
327.573	2.06
327.945	1.99
328.318	1.69
328.691	2.01
329.063	2.16
329.436	1.71
329.809	2.36
330.181	2.01
330.553	1.17
330.926	1.56
331.298	2.12
331.671	2.48
332.043	1.97
332.415	1.81
332.787	1.5
333.159	2.31
333.532	1.64
333.904	1.99
334.276	1.92
334.648	1.9
335.02	1.86
335.391	1.92
335.763	1.17
336.135	1.86
336.507	2.11
336.879	1.96
337.25	2.04
337.622	2.18
337.993	2.16
338.365	1.96
338.736	2.17
339.108	2.19
339.479	1.73
339.851	2.07
340.222	2.56
340.593	1.92
340.964	2.05
341.336	2.05
341.707	2.46
342.078	1.84
342.449	1.95
342.82	1.99
343.191	2.11
343.562	1.85
343.933	2.26
344.303	2.05
344.674	2.44
345.045	2.19
345.416	2.06
345.786	2.67
346.157	1.81
346.527	2.2
346.898	2.33
347.268	2.07
347.639	2.18
348.009	1.83
348.38	2.44
348.75	2.23
349.12	1.93
349.49	2.12
349.861	2.13
350.231	1.72
350.601	1.9
350.971	2.11
351.341	1.96
351.711	2.1
352.081	1.99
352.45	2.17
352.82	1.97
353.19	2.53
353.56	1.96
353.929	1.96
354.299	2.28
354.669	2.36
355.038	2.26
355.408	1.98
355.777	1.99
356.147	1.88
356.516	2
356.885	1.92
357.254	1.86
357.624	1.96
357.993	2.04
358.362	2.19
358.731	2.11
359.1	2.14
359.469	2.04
359.838	1.94
360.207	2.18
360.576	2.04
360.945	1.97
361.314	1.99
361.682	2
362.051	2.27
362.42	2.36
362.788	2.06
363.157	2.22
363.525	2.19
363.894	2.26
364.262	1.94
364.631	2.05
364.999	2.37
365.367	1.87
365.735	2.23
366.104	2.35
366.472	2.16
366.84	2.25
367.208	2.27
367.576	2.41
367.944	1.92
368.312	2.34
368.68	2.24
369.048	2.21
369.416	2.3
369.783	2.1
370.151	2.38
370.519	2.01
370.886	2.21
371.254	2.46
371.621	2.18
371.989	2.12
372.356	2.58
372.724	2.13
373.091	2.3
373.458	2.37
373.826	2.17
374.193	2.16
374.56	2.17
374.927	2.46
375.294	2.58
375.661	2.04
376.028	2.17
376.395	2.12
376.762	1.93
377.129	1.84
377.496	2.45
377.863	2.24
378.229	2.18
378.596	2.19
378.963	2.51
379.329	2.49
379.696	2.24
380.062	2.21
380.429	2.31
380.795	2.29
381.161	2.25
381.528	2.31
381.894	2.27
382.26	2.1
382.626	2.04
382.993	2.5
383.359	2.07
383.725	2.37
384.091	2.37
384.457	2.46
384.823	2.21
385.188	2.5
385.554	2.38
385.92	2.36
386.286	2.35
386.651	2.42
387.017	2.47
387.383	2.3
387.748	2.54
388.114	2.15
388.479	2.4
388.845	2.18
389.21	2.22
389.575	2.06
389.94	2.23
390.306	2.41
390.671	2.27
391.036	2.32
391.401	2.38
391.766	2.55
392.131	2.32
392.496	2.38
392.861	2.28
393.226	2.28
393.591	2.37
393.956	2.43
394.32	2.48
394.685	2.32
395.05	2.41
395.414	2.35
395.779	2.25
396.143	2.24
396.508	2.28
396.872	2.25
397.236	2.33
397.601	2.23
397.965	2.6
398.329	2.47
398.694	2.42
399.058	2.47
399.422	2.54
399.786	2.7
400.15	2.34
400.514	2.34
400.878	2.48
401.242	2.37
401.605	2.74
401.969	2.51
402.333	2.56
402.697	2.25
403.06	2.52
403.424	2.62
403.787	2.46
404.151	2.46
404.514	2.3
404.878	2.29
405.241	2.5
405.604	2.58
405.968	2.45
406.331	2.4
406.694	2.53
407.057	2.37
407.42	2.45
407.783	2.38
408.146	2.35
408.509	2.34
408.872	2.41
409.235	2.36
409.598	2.58
409.961	2.5
410.323	2.59
410.686	2.33
411.049	2.28
411.411	2.38
411.774	2.36
412.136	2.41
412.499	2.47
412.861	2.38
413.223	2.52
413.586	2.56
413.948	2.49
414.31	2.35
414.672	2.54
415.035	2.46
415.397	2.56
415.759	2.55
416.121	2.73
416.483	2.36
416.845	2.29
417.206	2.58
417.568	2.56
417.93	2.43
418.292	2.41
418.653	2.44
419.015	2.48
419.377	2.34
419.738	2.43
420.1	2.35
420.461	2.43
420.822	2.5
421.184	2.52
421.545	2.47
421.906	2.5
422.267	2.44
422.629	2.48
422.99	2.38
423.351	2.45
423.712	2.39
424.073	2.4
424.434	2.47
424.795	2.54
425.155	2.45
425.516	2.45
425.877	2.54
426.238	2.48
426.598	2.54
426.959	2.52
427.32	2.6
427.68	2.52
428.041	2.55
428.401	2.5
428.761	2.52
429.122	2.49
429.482	2.43
429.842	2.71
430.202	2.64
430.563	2.7
430.923	2.69
431.283	2.71
431.643	2.61
432.003	2.52
432.363	2.8
432.722	2.62
433.082	2.6
433.442	2.48
433.802	2.48
434.161	2.65
434.521	2.46
434.881	2.53
435.24	2.51
435.6	2.52
435.959	2.55
436.319	2.54
436.678	2.59
437.037	2.71
437.396	2.57
437.756	2.62
438.115	2.53
438.474	2.46
438.833	2.65
439.192	2.84
439.551	2.74
439.91	2.57
440.269	2.57
440.628	2.56
440.987	2.51
441.345	2.56
441.704	2.57
442.063	2.67
442.421	2.53
442.78	2.54
443.138	2.56
443.497	2.66
443.855	2.61
444.214	2.69
444.572	2.57
444.93	2.61
445.288	2.65
445.647	2.88
446.005	2.71
446.363	2.7
446.721	2.6
447.079	2.56
447.437	2.73
447.795	2.57
448.153	2.59
448.51	2.6
448.868	2.63
449.226	2.62
449.584	2.6
449.941	2.65
450.299	2.65
450.656	2.67
451.014	2.72
451.371	2.55
451.729	2.59
452.086	2.79
452.443	2.61
452.801	2.54
453.158	2.81
453.515	2.65
453.872	2.71
454.229	2.76
454.586	2.74
454.943	2.83
455.3	2.61
455.657	2.6
456.014	2.79
456.371	2.61
456.727	2.85
457.084	2.65
457.441	2.88
457.797	2.61
458.154	2.7
458.51	2.73
458.867	2.86
459.223	2.79
459.58	2.72
459.936	2.7
460.292	2.7
460.648	2.76
461.005	2.71
461.361	2.7
461.717	2.74
462.073	2.71
462.429	2.65
462.785	2.73
463.141	2.75
463.496	2.73
463.852	2.87
464.208	2.72
464.564	2.84
464.919	2.81
465.275	2.72
465.631	2.84
465.986	2.68
466.342	2.82
466.697	2.69
467.052	2.9
467.408	2.89
467.763	2.75
468.118	2.85
468.473	2.84
468.829	2.81
469.184	2.95
469.539	2.83
469.894	2.71
470.249	2.82
470.603	2.84
470.958	2.75
471.313	2.84
471.668	2.79
472.023	2.66
472.377	2.75
472.732	2.88
473.086	2.77
473.441	2.96
473.795	2.88
474.15	2.9
474.504	2.8
474.859	2.96
475.213	3.02
475.567	2.72
475.921	2.91
476.275	2.78
476.63	2.8
476.984	3.2
477.338	2.71
477.692	2.85
478.045	2.57
478.399	2.89
478.753	2.9
479.107	2.72
479.461	2.93
479.814	2.75
480.168	2.9
480.521	2.97
480.875	2.91
481.228	2.98
481.582	2.93
481.935	2.98
482.289	2.91
482.642	2.79
482.995	3.01
483.348	2.76
483.701	2.82
484.055	2.82
484.408	2.81
484.761	2.82
485.114	2.68
485.466	2.65
485.819	2.64
486.172	2.71
486.525	2.76
486.878	2.79
487.23	2.8
487.583	2.82
487.936	2.82
488.288	2.74
488.641	2.81
488.993	2.76
489.345	2.76
489.698	2.72
490.05	2.78
490.402	2.79
490.754	2.85
491.107	2.89
491.459	2.88
491.811	2.92
492.163	2.91
492.515	2.9
492.866	2.76
493.218	2.78
493.57	2.78
493.922	2.79
494.274	2.84
494.625	2.92
494.977	2.95
495.328	2.99
495.68	3.09
496.031	2.99
496.383	3.12
496.734	3.04
497.086	3.01
497.437	3.08
497.788	3.01
498.139	3.02
498.49	2.81
498.842	2.98
499.193	3.06
499.544	2.97
499.894	2.94
500.245	3.01
500.596	3.05
500.947	2.89
501.298	3.1
501.648	3.21
501.999	3.05
502.35	3.03
502.7	3.05
503.051	3.02
503.401	3.16
503.752	3.05
504.102	3.25
504.452	2.97
504.803	3.11
505.153	3.1
505.503	2.84
505.853	3.18
506.203	3.07
506.553	3.11
506.903	3.15
507.253	3.17
507.603	3.08
507.953	3.02
508.303	3.14
508.652	3.04
509.002	3.21
509.352	3.22
509.701	3.1
510.051	3.15
510.4	3.19
510.75	3.13
511.099	3.17
511.449	3.03
511.798	3.15
512.147	3.12
512.496	3.12
512.846	3.11
513.195	3.03
513.544	3.36
513.893	3.12
514.242	3.15
514.591	3.17
514.939	3.19
515.288	3.26
515.637	3.19
515.986	3.39
516.334	3.11
516.683	3.22
517.032	3.31
517.38	3.27
517.729	3.13
518.077	3.14
518.426	3.24
518.774	3.24
519.122	3.2
519.47	3.27
519.819	3.22
520.167	3.11
520.515	3.11
520.863	3.26
521.211	3.15
521.559	3.25
521.907	3.24
522.255	3.27
522.602	3.21
522.95	3.22
523.298	3.24
523.645	3.29
523.993	3.26
524.341	3.37
524.688	3.31
525.036	3.29
525.383	3.28
525.73	3.35
526.078	3.38
526.425	3.41
526.772	3.33
527.119	3.33
527.466	3.22
527.814	3.22
528.161	3.31
528.508	3.32
528.854	3.38
529.201	3.21
529.548	3.26
529.895	3.16
530.242	3.13
530.588	3.15
530.935	3.19
531.282	3.22
531.628	3.25
531.975	3.28
532.321	3.28
532.667	3.36
533.014	3.31
533.36	3.43
533.706	3.36
534.052	3.31
534.399	3.29
534.745	3.31
535.091	3.31
535.437	3.31
535.783	3.35
536.129	3.41
536.474	3.37
536.82	3.42
537.166	3.49
537.512	3.37
537.857	3.47
538.203	3.38
538.549	3.33
538.894	3.46
539.239	3.5
539.585	3.55
539.93	3.6
540.276	3.61
540.621	3.55
540.966	3.55
541.311	3.54
541.656	3.5
542.001	3.69
542.346	3.51
542.691	3.46
543.036	3.49
543.381	3.44
543.726	3.47
544.071	3.49
544.415	3.54
544.76	3.45
545.105	3.55
545.449	3.6
545.794	3.68
546.138	3.6
546.483	3.71
546.827	3.73
547.171	3.67
547.516	3.72
547.86	3.69
548.204	3.71
548.548	3.68
548.892	3.7
549.236	3.81
549.58	3.72
549.924	3.85
550.268	3.92
550.612	3.82
550.956	3.96
551.3	3.97
551.643	3.77
551.987	3.96
552.33	3.98
552.674	3.85
553.017	3.89
553.361	3.96
553.704	3.78
554.048	3.96
554.391	3.92
554.734	3.96
555.077	3.91
555.42	3.8
555.764	3.96
556.107	3.98
556.45	3.96
556.793	3.97
557.135	4.02
557.478	4.24
557.821	4.18
558.164	4.09
558.507	4.16
558.849	4.07
559.192	4.28
559.534	4.06
559.877	4.16
560.219	4.2
560.562	4.49
560.904	4.11
561.246	4.07
561.589	4.17
561.931	4.25
562.273	4.38
562.615	4.17
562.957	4.17
563.299	4.06
563.641	4.36
563.983	4.22
564.325	4.33
564.667	4.39
565.008	4.36
565.35	4.43
565.692	4.38
566.033	4.34
566.375	4.36
566.716	4.35
567.058	4.39
567.399	4.11
567.741	4.35
568.082	4.38
568.423	4.24
568.764	4.37
569.105	4.44
569.447	4.35
569.788	4.45
570.129	4.39
570.47	4.58
570.811	4.52
571.151	4.66
571.492	4.54
571.833	4.51
572.174	4.38
572.514	4.6
572.855	4.47
573.195	4.47
573.536	4.68
573.876	4.44
574.217	4.54
574.557	4.48
574.898	4.61
575.238	4.65
575.578	4.66
575.918	4.56
576.258	4.6
576.598	4.51
576.938	4.72
577.278	4.71
577.618	4.57
577.958	4.59
578.298	4.72
578.638	4.71
578.977	4.87
579.317	4.91
579.657	4.93
579.996	4.79
580.336	4.99
580.675	4.8
581.014	4.75
581.354	5.16
581.693	4.92
582.032	5.06
582.372	4.94
582.711	4.82
583.05	5.07
583.389	4.9
583.728	5.21
584.067	5.14
584.406	4.84
584.745	5.24
585.083	5.26
585.422	5.32
585.761	5.08
586.1	4.99
586.438	5
586.777	5.19
587.115	5.31
587.454	5.3
587.792	5.47
588.13	5.41
588.469	5.19
588.807	5.29
589.145	5.21
589.483	5.47
589.821	5.3
590.159	5.32
590.497	5.41
590.835	5.26
591.173	5.37
591.511	5.44
591.849	5.07
592.187	5.4
592.524	5.6
592.862	5.84
593.2	5.62
593.537	5.63
593.875	5.5
594.212	5.84
594.55	5.45
594.887	5.52
595.224	5.64
595.561	5.68
595.899	5.48
596.236	5.59
596.573	5.82
596.91	5.67
597.247	5.69
597.584	5.67
597.921	5.58
598.258	5.54
598.594	5.64
598.931	5.77
599.268	5.76
599.604	5.67
599.941	5.94
600.277	5.9
600.614	5.81
600.95	5.9
601.287	5.92
601.623	5.88
601.959	5.94
602.296	5.87
602.632	5.97
602.968	5.93
603.304	6.21
603.64	6.16
603.976	6.23
604.312	6.18
604.648	6.11
604.984	5.96
605.319	6.16
605.655	6.03
605.991	6.04
606.326	6.17
606.662	6.14
606.998	6.22
607.333	6.14
607.668	5.97
608.004	6.16
608.339	6.04
608.674	6.5
609.01	6.26
609.345	6.42
609.68	6.26
610.015	6.52
610.35	6.58
610.685	6.25
611.02	6.53
611.355	6.47
611.689	6.49
612.024	6.41
612.359	6.59
612.694	6.68
613.028	6.61
613.363	6.87
613.697	6.59
614.032	6.43
614.366	6.99
614.7	6.53
615.035	6.78
615.369	6.87
615.703	6.6
616.037	6.55
616.371	6.87
616.705	7
617.039	6.64
617.373	6.92
617.707	7.06
618.041	6.88
618.375	6.8
618.709	6.75
619.042	7.19
619.376	7.25
619.71	7.08
620.043	6.97
620.377	6.91
620.71	6.95
621.043	7.03
621.377	6.63
621.71	7.12
622.043	7.17
622.376	6.97
622.709	7.28
623.043	7.26
623.376	7.36
623.709	7.36
624.041	7.35
624.374	6.82
624.707	7.26
625.04	7.6
625.373	7.37
625.705	7.6
626.038	7.25
626.37	7.33
626.703	7.18
627.035	7.51
627.368	7.34
627.7	7.53
628.032	7.19
628.365	7.28
628.697	7.45
629.029	7.74
629.361	7.65
629.693	7.69
630.025	7.64
630.357	7.82
630.689	7.68
631.021	7.64
631.353	7.72
631.684	7.74
632.016	8.02
632.348	7.78
632.679	7.99
633.011	7.94
633.342	7.84
633.674	7.97
634.005	7.87
634.336	8.11
634.668	8.22
634.999	8.1
635.33	8.13
635.661	8.17
635.992	8.22
636.323	8.15
636.654	8.05
636.985	8.28
637.316	8.28
637.647	8.35
637.977	8.29
638.308	8.15
638.639	7.96
638.969	8.05
639.3	8.25
639.63	7.98
639.961	8.49
640.291	8.16
640.622	8.22
640.952	8.24
641.282	8.72
641.612	8.12
641.943	8.4
642.273	8.5
642.603	8.67
642.933	8.56
643.263	8.58
643.592	8.7
643.922	8.47
644.252	9.1
644.582	9.05
644.911	8.25
645.241	8.85
645.571	9.29
645.9	8.53
646.23	9.05
646.559	8.35
646.888	8.66
647.218	8.94
647.547	8.63
647.876	8.82
648.205	8.7
648.534	9.21
648.863	9.05
649.192	9.06
649.521	8.93
649.85	8.92
650.179	8.76
650.508	8.59
650.837	9.23
651.165	9.15
651.494	9.32
651.822	8.99
652.151	9.3
652.479	9.05
652.808	9.11
653.136	9.35
653.465	9.11
653.793	9.52
654.121	9.15
654.449	9.5
654.777	9.67
655.105	9.4
655.433	9.65
655.761	9.71
656.089	9.55
656.417	9.45
656.745	9.58
657.073	9.59
657.4	9.6
657.728	9.5
658.056	9.9
658.383	9.93
658.711	9.78
659.038	9.77
659.365	9.64
659.693	9.85
660.02	9.83
660.347	10.16
660.674	9.53
661.001	10.29
661.329	9.72
661.656	10.42
661.982	10.09
662.309	9.96
662.636	9.58
662.963	10.05
663.29	10.05
663.616	10.51
663.943	10.16
664.27	10.04
664.596	10.23
664.923	9.92
665.249	10.48
665.576	10.17
665.902	10.14
666.228	10.86
666.554	10.08
666.881	10.56
667.207	10.52
667.533	10.5
667.859	10.23
668.185	10.34
668.511	10.23
668.837	10.73
669.162	10.47
669.488	10.11
669.814	11.16
670.139	10.7
670.465	10.47
670.791	10.79
671.116	10.37
671.442	10.99
671.767	11.06
672.092	10.45
672.418	11.4
672.743	10.67
673.068	10.33
673.393	10.38
673.718	11.37
674.043	11.68
674.368	10.85
674.693	11.18
675.018	10.91
675.343	11.45
675.667	11.03
675.992	11.14
676.317	11.1
676.641	11.2
676.966	11.31
677.29	11.48
677.615	10.8
677.939	11.11
678.264	11.23
678.588	11.23
678.912	10.94
679.236	10.79
679.56	10.84
679.885	11.4
680.209	11.63
680.532	11.01
680.856	11.62
681.18	11.09
681.504	12.33
681.828	11.96
682.152	11.55
682.475	11.5
682.799	12.03
683.122	11.25
683.446	11.91
683.769	11.7
684.093	11.91
684.416	11.77
684.739	12.12
685.062	11.23
685.386	12.06
685.709	11.71
686.032	11.88
686.355	12.04
686.678	12.01
687.001	11.96
687.324	12.15
687.646	11.77
687.969	11.56
688.292	11.34
688.614	12.56
688.937	11.64
689.26	12.28
689.582	12.08
689.904	12.5
690.227	12.57
