Data from 97280_chest_Reflection__1__17.txt Node

Date: Fri Sep 23 19:37:51 CDT 2022
User: ToomeyLab
Spectrometer: FLMS14357
Trigger mode: 0
Integration Time (sec): 1.000000E-2
Scans to average: 100
Electric dark correction enabled: true
Nonlinearity correction enabled: false
Boxcar width: 0
XAxis mode: Wavelengths
Number of Pixels in Spectrum: 2048
>>>>>Begin Spectral Data<<<<<
189.047	86.97
189.435	86.97
189.823	86.97
190.211	-574.42
190.599	37500
190.987	691.03
191.375	90.2
191.763	83.9
192.151	187.77
192.538	874.36
192.926	57.71
193.314	191.94
193.702	67.86
194.089	97.54
194.477	117.53
194.864	101.74
195.252	81.07
195.639	-26.45
196.027	85.92
196.414	-51.88
196.801	142.15
197.189	-46.27
197.576	34.74
197.963	36.87
198.351	23.09
198.738	-41.92
199.125	31.88
199.512	28.91
199.899	14.89
200.286	-14.58
200.673	-19.2
201.06	6.49
201.447	-0.8
201.833	23.22
202.22	-14.38
202.607	39.71
202.994	20.56
203.38	-12.46
203.767	-12.61
204.154	52.58
204.54	-16.49
204.927	36.12
205.313	26.61
205.699	-45.36
206.086	-34.67
206.472	5.49
206.858	6.99
207.245	-17.56
207.631	-6.55
208.017	-19.86
208.403	16.17
208.789	-0.14
209.175	-5.07
209.561	-0.73
209.947	-23.06
210.333	-9.79
210.719	-36.93
211.105	5.24
211.491	5.61
211.876	31.76
212.262	-21.2
212.648	-44.02
213.034	-39.52
213.419	-11.2
213.805	19.42
214.19	15.91
214.576	-15.88
214.961	25.57
215.346	10.53
215.732	11.81
216.117	-0.43
216.502	12.45
216.888	14.73
217.273	0.61
217.658	3.5
218.043	6.58
218.428	-5.23
218.813	17.94
219.198	5.48
219.583	9.17
219.968	3.93
220.353	4.46
220.738	-8.31
221.122	10.08
221.507	-4.08
221.892	-6.91
222.276	-6.01
222.661	-3.29
223.046	6.46
223.43	-8.75
223.815	7.04
224.199	2.84
224.583	1.01
224.968	-0.57
225.352	-0.42
225.736	-0.99
226.121	3.31
226.505	0.28
226.889	3.5
227.273	2.69
227.657	-0.45
228.041	0.46
228.425	1.73
228.809	2.24
229.193	1.88
229.577	0.64
229.961	1.73
230.344	1.16
230.728	0.88
231.112	0.93
231.495	1.17
231.879	-1.29
232.263	0.13
232.646	2.85
233.03	1.86
233.413	1.3
233.797	0.71
234.18	3.53
234.563	1.04
234.946	3.48
235.33	0.02
235.713	1.5
236.096	-0.87
236.479	-0.14
236.862	2.11
237.245	3.37
237.628	1.15
238.011	2.59
238.394	1.69
238.777	2.75
239.16	2.22
239.543	1.5
239.925	2.51
240.308	2.03
240.691	2.33
241.073	-0.2
241.456	1.35
241.838	2.63
242.221	2.19
242.603	2.2
242.986	0.63
243.368	1.18
243.75	1.48
244.133	1.46
244.515	1.21
244.897	1.59
245.279	2.46
245.661	2.05
246.043	1.65
246.425	1.06
246.807	1.21
247.189	1.3
247.571	0.96
247.953	1.43
248.335	1.65
248.717	1.75
249.098	1.55
249.48	1.47
249.862	1.53
250.243	1.8
250.625	1.65
251.006	2.12
251.388	1.38
251.769	2.17
252.151	0.14
252.532	1.98
252.913	2.42
253.295	2.02
253.676	1.52
254.057	1.77
254.438	1.84
254.819	2.43
255.2	1.73
255.581	3.42
255.962	1.39
256.343	2.22
256.724	0.77
257.105	1.22
257.486	0.87
257.867	1.28
258.247	2.16
258.628	1.17
259.009	1.48
259.389	1.41
259.77	0.5
260.15	1.32
260.531	1.54
260.911	1.79
261.292	1.42
261.672	1.51
262.052	1.42
262.432	1.13
262.813	1.77
263.193	1.64
263.573	1.93
263.953	1.15
264.333	1.59
264.713	1.52
265.093	1.63
265.473	1.44
265.853	1.31
266.233	0.83
266.612	0.66
266.992	2.14
267.372	1.24
267.752	1.83
268.131	1.52
268.511	1.24
268.89	1.73
269.27	1.47
269.649	1.35
270.029	1.57
270.408	1.6
270.787	1.13
271.167	0.6
271.546	1.11
271.925	1.15
272.304	1.21
272.683	1.14
273.062	1.36
273.441	1.82
273.82	1.65
274.199	1.33
274.578	1.33
274.957	1.27
275.336	1.44
275.715	1.44
276.093	1.56
276.472	2.26
276.851	1.71
277.229	1.2
277.608	1.85
277.986	1.35
278.365	1.8
278.743	2.15
279.122	1.18
279.5	1.17
279.878	1.15
280.257	1.47
280.635	0.88
281.013	1.22
281.391	1.44
281.769	1.82
282.147	1.41
282.525	1.87
282.903	1.34
283.281	1.53
283.659	1.51
284.037	1.36
284.415	1.36
284.792	1.65
285.17	1.49
285.548	1.19
285.925	1.44
286.303	1.94
286.68	1.54
287.058	1.54
287.435	1.42
287.813	1.68
288.19	1.51
288.567	1.47
288.945	1.95
289.322	1.71
289.699	1.93
290.076	1.81
290.453	1.37
290.83	1.4
291.207	1.61
291.584	1.95
291.961	1.44
292.338	1.58
292.715	1.44
293.092	1.58
293.469	2.12
293.845	2.01
294.222	1.46
294.599	0.74
294.975	1.67
295.352	1.94
295.728	1.44
296.105	1.64
296.481	1.8
296.858	1.73
297.234	1.74
297.61	1.59
297.986	1.41
298.363	1.43
298.739	1.89
299.115	1.72
299.491	1.71
299.867	1.29
300.243	1.71
300.619	2.12
300.995	2.15
301.371	1.59
301.746	1.98
302.122	1.56
302.498	1.73
302.874	1.52
303.249	2.14
303.625	1.63
304	1.41
304.376	1.89
304.751	1.48
305.127	1.88
305.502	1.8
305.878	2.08
306.253	1.83
306.628	1.94
307.003	1.4
307.378	1.5
307.754	2.4
308.129	2.03
308.504	1.71
308.879	1.7
309.254	1.53
309.629	1.98
310.003	1.79
310.378	2.03
310.753	1.7
311.128	1.48
311.502	1.71
311.877	1.92
312.252	1.58
312.626	1.69
313.001	1.85
313.375	1.86
313.75	1.59
314.124	1.76
314.498	2.14
314.873	2.25
315.247	1.83
315.621	2.29
315.995	2.43
316.369	1.55
316.743	1.84
317.117	1.49
317.491	1.41
317.865	2.15
318.239	2.66
318.613	1.96
318.987	1.8
319.361	1.76
319.734	1.64
320.108	2.11
320.482	2.15
320.855	1.83
321.229	2.26
321.602	2.23
321.976	2.28
322.349	2.66
322.723	2.34
323.096	2.27
323.469	1.52
323.843	1.73
324.216	2.14
324.589	2.34
324.962	1.97
325.335	1.79
325.708	2.18
326.081	2.31
326.454	2.12
326.827	1.89
327.2	2.06
327.573	2.36
327.945	2.53
328.318	1.99
328.691	2
329.063	2.47
329.436	2.28
329.809	2.76
330.181	2.26
330.553	1.9
330.926	1.88
331.298	2.18
331.671	2.11
332.043	2.05
332.415	1.8
332.787	1.65
333.159	2.63
333.532	2.04
333.904	1.79
334.276	1.81
334.648	2.26
335.02	2.34
335.391	2.3
335.763	2.25
336.135	2.32
336.507	2.16
336.879	1.71
337.25	2.58
337.622	2.56
337.993	2.14
338.365	2.22
338.736	2.41
339.108	2.61
339.479	2.1
339.851	2.21
340.222	2.43
340.593	2.13
340.964	2.46
341.336	2.03
341.707	2.63
342.078	1.85
342.449	2
342.82	2.16
343.191	2.38
343.562	2.2
343.933	2.63
344.303	2.15
344.674	2.33
345.045	2.61
345.416	2.43
345.786	2.53
346.157	2.67
346.527	2.03
346.898	2.27
347.268	2.25
347.639	2.17
348.009	2.27
348.38	1.92
348.75	2.5
349.12	2.05
349.49	2.17
349.861	2.49
350.231	2.12
350.601	2.24
350.971	2.27
351.341	2.33
351.711	2.11
352.081	2.31
352.45	2.07
352.82	1.69
353.19	2.69
353.56	2.42
353.929	2.14
354.299	2.52
354.669	2.05
355.038	2.41
355.408	2.02
355.777	2.11
356.147	2.13
356.516	2.53
356.885	2.19
357.254	1.89
357.624	2.11
357.993	2.76
358.362	2.39
358.731	2.3
359.1	2.22
359.469	2.15
359.838	2.32
360.207	2.43
360.576	2.43
360.945	2.02
361.314	2.15
361.682	2.14
362.051	2.43
362.42	2.45
362.788	2.28
363.157	2.42
363.525	2.41
363.894	2.37
364.262	2.15
364.631	2.26
364.999	2.42
365.367	2.36
365.735	2.51
366.104	2.48
366.472	2.63
366.84	2.27
367.208	2.43
367.576	2.44
367.944	2.37
368.312	2.42
368.68	2.35
369.048	2.33
369.416	2.46
369.783	2.3
370.151	2.75
370.519	2.25
370.886	2.48
371.254	2.7
371.621	2.52
371.989	2.39
372.356	2.85
372.724	2.17
373.091	2.39
373.458	2.4
373.826	2.36
374.193	2.76
374.56	2.34
374.927	2.77
375.294	2.62
375.661	2.23
376.028	2.31
376.395	2.17
376.762	2.33
377.129	2.45
377.496	2.69
377.863	2.36
378.229	2.41
378.596	2.47
378.963	2.74
379.329	3.08
379.696	2.57
380.062	2.48
380.429	2.43
380.795	2.39
381.161	2.69
381.528	2.62
381.894	2.53
382.26	2.17
382.626	2.23
382.993	2.57
383.359	2.78
383.725	2.72
384.091	2.54
384.457	2.72
384.823	2.36
385.188	2.64
385.554	2.75
385.92	2.85
386.286	2.59
386.651	2.78
387.017	2.8
387.383	2.41
387.748	2.67
388.114	2.63
388.479	2.7
388.845	2.37
389.21	2.65
389.575	2.47
389.94	2.42
390.306	2.5
390.671	2.57
391.036	2.47
391.401	2.53
391.766	2.69
392.131	2.68
392.496	2.59
392.861	2.57
393.226	2.51
393.591	2.52
393.956	2.52
394.32	2.6
394.685	2.46
395.05	2.59
395.414	2.58
395.779	2.66
396.143	2.54
396.508	2.55
396.872	2.68
397.236	2.76
397.601	2.46
397.965	2.76
398.329	2.95
398.694	2.6
399.058	2.76
399.422	2.78
399.786	2.83
400.15	2.68
400.514	2.33
400.878	2.79
401.242	2.54
401.605	3.04
401.969	2.69
402.333	2.64
402.697	2.17
403.06	2.97
403.424	2.73
403.787	2.69
404.151	2.72
404.514	2.53
404.878	2.63
405.241	2.84
405.604	2.67
405.968	2.65
406.331	2.61
406.694	2.73
407.057	2.7
407.42	2.76
407.783	2.59
408.146	2.85
408.509	2.61
408.872	2.71
409.235	2.91
409.598	2.88
409.961	2.82
410.323	2.66
410.686	2.65
411.049	2.8
411.411	2.83
411.774	2.77
412.136	2.75
412.499	2.75
412.861	2.69
413.223	2.8
413.586	2.83
413.948	2.81
414.31	2.69
414.672	2.73
415.035	2.63
415.397	2.76
415.759	2.95
416.121	2.88
416.483	2.78
416.845	2.49
417.206	2.49
417.568	2.81
417.93	2.75
418.292	2.88
418.653	2.78
419.015	2.79
419.377	2.74
419.738	2.66
420.1	2.65
420.461	2.78
420.822	2.78
421.184	2.79
421.545	2.82
421.906	2.82
422.267	2.64
422.629	2.67
422.99	2.68
423.351	2.75
423.712	2.61
424.073	2.67
424.434	2.81
424.795	2.87
425.155	2.75
425.516	2.86
425.877	2.75
426.238	2.77
426.598	2.82
426.959	2.9
427.32	2.84
427.68	2.85
428.041	2.89
428.401	2.89
428.761	2.89
429.122	2.85
429.482	2.89
429.842	3.05
430.202	2.91
430.563	3.02
430.923	2.96
431.283	3.06
431.643	2.83
432.003	2.99
432.363	3.19
432.722	3.12
433.082	2.89
433.442	2.96
433.802	2.86
434.161	2.84
434.521	2.92
434.881	2.88
435.24	2.92
435.6	2.92
435.959	2.87
436.319	2.96
436.678	2.99
437.037	3.13
437.396	2.94
437.756	3
438.115	2.86
438.474	2.99
438.833	3.23
439.192	3.11
439.551	3.06
439.91	3.02
440.269	3.07
440.628	3.12
440.987	2.96
441.345	3.01
441.704	3.01
442.063	3.07
442.421	2.95
442.78	2.96
443.138	2.9
443.497	3.07
443.855	3.01
444.214	3.2
444.572	3.03
444.93	3.02
445.288	3.17
445.647	3.09
446.005	3.16
446.363	3.12
446.721	2.95
447.079	3.07
447.437	3.11
447.795	3.13
448.153	2.99
448.51	3.08
448.868	3.11
449.226	3.19
449.584	3.06
449.941	3.2
450.299	3.18
450.656	3.15
451.014	3.31
451.371	3.07
451.729	3.07
452.086	3.29
452.443	3.14
452.801	3.24
453.158	3.18
453.515	3.25
453.872	3.23
454.229	3.24
454.586	3.2
454.943	3.27
455.3	3.12
455.657	3.22
456.014	3.47
456.371	3.24
456.727	3.31
457.084	3.25
457.441	3.32
457.797	3.13
458.154	3.24
458.51	3.37
458.867	3.47
459.223	3.37
459.58	3.33
459.936	3.36
460.292	3.18
460.648	3.35
461.005	3.44
461.361	3.21
461.717	3.2
462.073	3.29
462.429	3.23
462.785	3.44
463.141	3.28
463.496	3.45
463.852	3.52
464.208	3.37
464.564	3.49
464.919	3.42
465.275	3.41
465.631	3.24
465.986	3.34
466.342	3.31
466.697	3.42
467.052	3.6
467.408	3.61
467.763	3.45
468.118	3.48
468.473	3.42
468.829	3.46
469.184	3.48
469.539	3.43
469.894	3.5
470.249	3.49
470.603	3.52
470.958	3.43
471.313	3.52
471.668	3.56
472.023	3.42
472.377	3.47
472.732	3.57
473.086	3.49
473.441	3.63
473.795	3.58
474.15	3.47
474.504	3.59
474.859	3.56
475.213	3.76
475.567	3.33
475.921	3.66
476.275	3.4
476.63	3.53
476.984	3.64
477.338	3.66
477.692	3.6
478.045	3.39
478.399	3.68
478.753	3.71
479.107	3.53
479.461	3.47
479.814	3.51
480.168	3.58
480.521	3.59
480.875	3.7
481.228	3.76
481.582	3.63
481.935	3.71
482.289	3.71
482.642	3.63
482.995	3.83
483.348	3.54
483.701	3.56
484.055	3.56
484.408	3.52
484.761	3.5
485.114	3.39
485.466	3.34
485.819	3.3
486.172	3.4
486.525	3.51
486.878	3.54
487.23	3.59
487.583	3.61
487.936	3.66
488.288	3.6
488.641	3.54
488.993	3.53
489.345	3.54
489.698	3.51
490.05	3.58
490.402	3.56
490.754	3.68
491.107	3.7
491.459	3.65
491.811	3.77
492.163	3.77
492.515	3.67
492.866	3.62
493.218	3.57
493.57	3.51
493.922	3.66
494.274	3.71
494.625	3.79
494.977	3.81
495.328	3.97
495.68	3.89
496.031	3.9
496.383	3.9
496.734	3.85
497.086	3.9
497.437	4.01
497.788	3.99
498.139	3.89
498.49	3.81
498.842	3.84
499.193	3.87
499.544	3.79
499.894	3.93
500.245	3.9
500.596	3.87
500.947	3.93
501.298	4.07
501.648	4.12
501.999	3.98
502.35	4.05
502.7	4.07
503.051	3.94
503.401	4.06
503.752	4.03
504.102	4.07
504.452	4.02
504.803	4.08
505.153	4.04
505.503	3.97
505.853	4.14
506.203	4.14
506.553	4.06
506.903	4.12
507.253	4.08
507.603	4.01
507.953	4.07
508.303	4.15
508.652	4.07
509.002	4.25
509.352	4.21
509.701	4.06
510.051	4.19
510.4	4.17
510.75	4.09
511.099	4.13
511.449	4.11
511.798	4.12
512.147	4.12
512.496	4.17
512.846	4.27
513.195	4.17
513.544	4.24
513.893	4.15
514.242	4.14
514.591	4.19
514.939	4.27
515.288	4.25
515.637	4.23
515.986	4.26
516.334	4.18
516.683	4.36
517.032	4.33
517.38	4.41
517.729	4.25
518.077	4.17
518.426	4.33
518.774	4.39
519.122	4.27
519.47	4.36
519.819	4.25
520.167	4.2
520.515	4.24
520.863	4.34
521.211	4.29
521.559	4.31
521.907	4.38
522.255	4.4
522.602	4.32
522.95	4.42
523.298	4.43
523.645	4.52
523.993	4.41
524.341	4.57
524.688	4.5
525.036	4.36
525.383	4.41
525.73	4.61
526.078	4.49
526.425	4.49
526.772	4.43
527.119	4.48
527.466	4.34
527.814	4.37
528.161	4.55
528.508	4.54
528.854	4.57
529.201	4.39
529.548	4.45
529.895	4.32
530.242	4.23
530.588	4.25
530.935	4.33
531.282	4.42
531.628	4.46
531.975	4.48
532.321	4.52
532.667	4.62
533.014	4.63
533.36	4.67
533.706	4.58
534.052	4.66
534.399	4.57
534.745	4.5
535.091	4.53
535.437	4.53
535.783	4.59
536.129	4.67
536.474	4.71
536.82	4.73
537.166	4.78
537.512	4.67
537.857	4.78
538.203	4.68
538.549	4.73
538.894	4.73
539.239	4.8
539.585	4.83
539.93	4.88
540.276	4.97
540.621	4.96
540.966	4.99
541.311	5.09
541.656	4.89
542.001	5.05
542.346	4.82
542.691	4.76
543.036	4.69
543.381	4.71
543.726	4.77
544.071	4.83
544.415	4.92
544.76	4.88
545.105	4.98
545.449	5.05
545.794	5
546.138	5.08
546.483	5.14
546.827	5.13
547.171	5.04
547.516	5.14
547.86	5.14
548.204	5.09
548.548	5.06
548.892	5.12
549.236	5.14
549.58	5.22
549.924	5.32
550.268	5.36
550.612	5.34
550.956	5.38
551.3	5.27
551.643	5.26
551.987	5.42
552.33	5.41
552.674	5.47
553.017	5.39
553.361	5.28
553.704	5.45
554.048	5.47
554.391	5.36
554.734	5.35
555.077	5.36
555.42	5.29
555.764	5.45
556.107	5.43
556.45	5.56
556.793	5.52
557.135	5.65
557.478	5.64
557.821	5.67
558.164	5.61
558.507	5.61
558.849	5.69
559.192	5.74
559.534	5.75
559.877	5.75
560.219	5.6
560.562	5.99
560.904	5.74
561.246	5.64
561.589	5.79
561.931	5.8
562.273	5.88
562.615	5.95
562.957	5.72
563.299	5.67
563.641	5.86
563.983	5.89
564.325	5.95
564.667	5.85
565.008	6
565.35	6.03
565.692	5.96
566.033	5.86
566.375	6.06
566.716	6.01
567.058	6.04
567.399	5.83
567.741	6
568.082	5.95
568.423	5.82
568.764	5.93
569.105	6.06
569.447	6
569.788	6.06
570.129	6.1
570.47	6.03
570.811	6.14
571.151	6.16
571.492	6.09
571.833	6.23
572.174	6.21
572.514	6.25
572.855	6.03
573.195	6.05
573.536	6.24
573.876	5.99
574.217	6.21
574.557	6.28
574.898	6.28
575.238	6.32
575.578	6.48
575.918	6.22
576.258	6.19
576.598	6.21
576.938	6.52
577.278	6.45
577.618	6.2
577.958	6.45
578.298	6.43
578.638	6.44
578.977	6.48
579.317	6.68
579.657	6.51
579.996	6.4
580.336	6.67
580.675	6.63
581.014	6.71
581.354	6.72
581.693	6.61
582.032	6.8
582.372	6.95
582.711	6.8
583.05	6.73
583.389	6.92
583.728	6.88
584.067	7.03
584.406	6.7
584.745	6.87
585.083	6.76
585.422	6.65
585.761	7.03
586.1	6.79
586.438	6.86
586.777	6.61
587.115	6.88
587.454	6.85
587.792	7.07
588.13	7.12
588.469	7.1
588.807	6.98
589.145	7.05
589.483	7.17
589.821	6.93
590.159	7.07
590.497	6.97
590.835	6.87
591.173	7.14
591.511	7.19
591.849	7.05
592.187	7.07
592.524	7.37
592.862	7.36
593.2	7.47
593.537	7.26
593.875	7.38
594.212	7.67
594.55	7.25
594.887	7.47
595.224	7.38
595.561	7.24
595.899	7.22
596.236	7.3
596.573	7.45
596.91	7.6
597.247	7.7
597.584	7.51
597.921	7.51
598.258	7.39
598.594	7.35
598.931	7.45
599.268	7.51
599.604	7.53
599.941	7.68
600.277	7.71
600.614	7.68
600.95	7.75
601.287	7.6
601.623	7.77
601.959	7.56
602.296	7.76
602.632	7.71
602.968	7.6
603.304	7.73
603.64	7.96
603.976	7.77
604.312	7.96
604.648	7.8
604.984	7.79
605.319	7.88
605.655	7.91
605.991	7.91
606.326	7.86
606.662	7.86
606.998	8.01
607.333	7.92
607.668	7.76
608.004	7.83
608.339	7.85
608.674	8.11
609.01	8.17
609.345	8.3
609.68	8.13
610.015	8.25
610.35	8.12
610.685	8.02
611.02	8.22
611.355	8.09
611.689	8.1
612.024	8.22
612.359	8.24
612.694	8.5
613.028	8.61
613.363	8.53
613.697	8.45
614.032	8.37
614.366	8.25
614.7	8.34
615.035	8.58
615.369	8.78
615.703	8.53
616.037	8.36
616.371	8.54
616.705	8.35
617.039	8.73
617.373	9.01
617.707	8.94
618.041	8.86
618.375	9.16
618.709	8.5
619.042	8.36
619.376	8.92
619.71	8.52
620.043	8.84
620.377	8.86
620.71	8.97
621.043	8.75
621.377	8.53
621.71	9.21
622.043	8.96
622.376	8.71
622.709	8.95
623.043	8.83
623.376	9.09
623.709	9.45
624.041	8.95
624.374	9.14
624.707	8.78
625.04	9.3
625.373	9.26
625.705	9.09
626.038	8.78
626.37	8.88
626.703	9.45
627.035	9.49
627.368	9
627.7	9.17
628.032	8.97
628.365	9.07
628.697	9.07
629.029	9.37
629.361	9.41
629.693	9.45
630.025	9.57
630.357	9.57
630.689	9.44
631.021	9.37
631.353	9.9
631.684	9.69
632.016	9.68
632.348	9.44
632.679	9.68
633.011	9.63
633.342	9.49
633.674	9.99
634.005	9.56
634.336	10.04
634.668	9.96
634.999	9.6
635.33	9.76
635.661	9.87
635.992	9.87
636.323	9.72
636.654	9.83
636.985	9.69
637.316	9.75
637.647	9.87
637.977	9.89
638.308	9.99
638.639	9.79
638.969	9.9
639.3	9.89
639.63	9.75
639.961	10.35
640.291	10.05
640.622	10.14
640.952	9.92
641.282	10.46
641.612	10.09
641.943	10.04
642.273	10.45
642.603	10.45
642.933	10.38
643.263	9.89
643.592	10.25
643.922	10.14
644.252	10.71
644.582	10.61
644.911	10.22
645.241	10.09
645.571	10.65
645.9	10.6
646.23	11.07
646.559	10.27
646.888	10.3
647.218	11.25
647.547	10.9
647.876	10.3
648.205	10.24
648.534	10.69
648.863	11.09
649.192	10.85
649.521	10.5
649.85	10.35
650.179	10.34
650.508	10.51
650.837	10.36
651.165	10.98
651.494	10.79
651.822	10.67
652.151	10.67
652.479	10.58
652.808	11.06
653.136	10.54
653.465	10.67
653.793	10.82
654.121	10.64
654.449	10.85
654.777	11.11
655.105	11.08
655.433	11.19
655.761	11.35
656.089	11.58
656.417	10.9
656.745	11.42
657.073	10.75
657.4	11.75
657.728	11.03
658.056	11.37
658.383	11.11
658.711	11.66
659.038	11.1
659.365	10.86
659.693	11.22
660.02	12.01
660.347	11.35
660.674	11.07
661.001	11.5
661.329	11.52
661.656	11.55
661.982	11.46
662.309	11.39
662.636	11.32
662.963	11.92
663.29	11.2
663.616	11.68
663.943	11.73
664.27	11.33
664.596	11.91
664.923	12.07
665.249	12.34
665.576	12.22
665.902	11.9
666.228	11.79
666.554	11.54
666.881	11.86
667.207	12.14
667.533	11.74
667.859	11.4
668.185	12.03
668.511	11.97
668.837	12.05
669.162	11.79
669.488	11.5
669.814	12.09
670.139	12.11
670.465	11.78
670.791	11.81
671.116	12.01
671.442	12.74
671.767	11.7
672.092	11.88
672.418	12.05
672.743	12.06
673.068	11.13
673.393	11.92
673.718	11.74
674.043	12.46
674.368	12.63
674.693	12.19
675.018	12.28
675.343	12.8
675.667	12.42
675.992	12.39
676.317	12.05
676.641	12.92
676.966	13.01
677.29	12.4
677.615	12.65
677.939	11.97
678.264	12.42
678.588	12.27
678.912	12.2
679.236	12.42
679.56	12.34
679.885	12.75
680.209	13.08
680.532	12.5
680.856	13.06
681.18	13.09
681.504	12.72
681.828	12.74
682.152	13.15
682.475	12.07
682.799	13.04
683.122	12.78
683.446	12.78
683.769	12.35
684.093	12.82
684.416	13.57
684.739	13.08
685.062	13.19
685.386	12.88
685.709	12.91
686.032	13.16
686.355	13.14
686.678	12.94
687.001	13.41
687.324	13.64
687.646	13.17
687.969	12.58
688.292	12.58
688.614	12.51
