Data from 97280_forehead_Reflection__0__21.txt Node

Date: Fri Sep 23 19:44:10 CDT 2022
User: ToomeyLab
Spectrometer: FLMS14357
Trigger mode: 0
Integration Time (sec): 1.000000E-2
Scans to average: 100
Electric dark correction enabled: true
Nonlinearity correction enabled: false
Boxcar width: 0
XAxis mode: Wavelengths
Number of Pixels in Spectrum: 2048
>>>>>Begin Spectral Data<<<<<
189.047	-55.1
189.435	-55.1
189.823	-55.1
190.211	-721.32
190.599	79750
190.987	10.09
191.375	22.16
191.763	70.37
192.151	70.86
192.538	780.77
192.926	310
193.314	122.55
193.702	55.79
194.089	-92.56
194.477	105.28
194.864	80.51
195.252	86.83
195.639	-92.23
196.027	65.33
196.414	-18.42
196.801	-57.66
197.189	284.33
197.576	351.06
197.963	-3.67
198.351	99.74
198.738	-24.36
199.125	49.54
199.512	21.48
199.899	19.04
200.286	-4.56
200.673	29.61
201.06	24.62
201.447	27.15
201.833	33.3
202.22	-3.62
202.607	25.57
202.994	12.35
203.38	10.21
203.767	19.87
204.154	16.22
204.54	21.02
204.927	32.52
205.313	29.01
205.699	-9.46
206.086	18.57
206.472	32.63
206.858	22.5
207.245	4.48
207.631	30.71
208.017	34.51
208.403	19.83
208.789	36.7
209.175	13.71
209.561	5.22
209.947	4.49
210.333	47.17
210.719	6.12
211.105	21.34
211.491	33.77
211.876	26.46
212.262	34.2
212.648	9.14
213.034	1.98
213.419	9.09
213.805	32.57
214.19	32.13
214.576	19.56
214.961	23.41
215.346	0.39
215.732	16.24
216.117	23.12
216.502	10.8
216.888	35.55
217.273	21.29
217.658	6.61
218.043	33
218.428	19.55
218.813	32.12
219.198	5.91
219.583	19.03
219.968	14.19
220.353	5.78
220.738	7.41
221.122	18.21
221.507	2.25
221.892	5.37
222.276	-14.53
222.661	2.76
223.046	8.86
223.43	-3.07
223.815	10.41
224.199	5.21
224.583	12.89
224.968	1.41
225.352	6.79
225.736	11.82
226.121	8.24
226.505	8.92
226.889	3.45
227.273	5.92
227.657	2.9
228.041	2.94
228.425	4.86
228.809	5.22
229.193	4.38
229.577	4.6
229.961	2.99
230.344	3.7
230.728	2.39
231.112	2.48
231.495	2.58
231.879	1.04
232.263	3.27
232.646	3.78
233.03	4.31
233.413	3.1
233.797	2.5
234.18	5.91
234.563	2.46
234.946	4.78
235.33	2.27
235.713	4.33
236.096	2.24
236.479	3.44
236.862	3.67
237.245	4.16
237.628	4.96
238.011	5.96
238.394	4.31
238.777	3.73
239.16	3.96
239.543	3.1
239.925	4.4
240.308	5.71
240.691	4.27
241.073	2.98
241.456	3.31
241.838	4.5
242.221	3.58
242.603	4.87
242.986	2.06
243.368	3.03
243.75	3.25
244.133	3.56
244.515	3.07
244.897	3.68
245.279	3.84
245.661	3.73
246.043	4.23
246.425	3.89
246.807	3.38
247.189	3.4
247.571	3.65
247.953	3.44
248.335	3.37
248.717	3.46
249.098	3.26
249.48	3.12
249.862	3.19
250.243	3.44
250.625	3.4
251.006	4.14
251.388	3.34
251.769	3.74
252.151	2.93
252.532	3.78
252.913	4.16
253.295	3.9
253.676	3.38
254.057	3.56
254.438	3.4
254.819	3.95
255.2	4.27
255.581	4.59
255.962	3.43
256.343	4.28
256.724	3.8
257.105	4.24
257.486	3.07
257.867	4.18
258.247	4.3
258.628	3.36
259.009	2.67
259.389	3.9
259.77	2.4
260.15	2.94
260.531	3.24
260.911	3.55
261.292	3.46
261.672	3.26
262.052	3.31
262.432	3.16
262.813	3.56
263.193	3.29
263.573	4.03
263.953	3.45
264.333	3.99
264.713	3.32
265.093	4
265.473	3.44
265.853	3.61
266.233	3.04
266.612	3.65
266.992	4.45
267.372	3.76
267.752	3.43
268.131	3.17
268.511	3.46
268.89	3.4
269.27	3.25
269.649	3.42
270.029	3.41
270.408	3.62
270.787	3.22
271.167	2.84
271.546	3.88
271.925	3.38
272.304	3.71
272.683	3.14
273.062	3.47
273.441	3.41
273.82	3.38
274.199	3.05
274.578	2.98
274.957	3.23
275.336	3.16
275.715	3.6
276.093	3.99
276.472	3.98
276.851	3.72
277.229	3.17
277.608	3.37
277.986	3.4
278.365	3.4
278.743	3.71
279.122	2.63
279.5	3.66
279.878	3.47
280.257	3.44
280.635	2.73
281.013	3.17
281.391	2.86
281.769	3.26
282.147	3.59
282.525	3.33
282.903	3.31
283.281	3.49
283.659	3.39
284.037	3.45
284.415	2.93
284.792	3.23
285.17	3.29
285.548	3.09
285.925	3.56
286.303	3.97
286.68	3.39
287.058	3.4
287.435	3.36
287.813	3.52
288.19	3.33
288.567	3.34
288.945	3.56
289.322	3.74
289.699	3.74
290.076	3.62
290.453	3.37
290.83	3.63
291.207	3.59
291.584	3.71
291.961	3.43
292.338	3.87
292.715	3.42
293.092	3.46
293.469	3.78
293.845	4.07
294.222	3.95
294.599	3.52
294.975	4.21
295.352	3.79
295.728	3.63
296.105	3.58
296.481	4
296.858	3.58
297.234	4.1
297.61	3.62
297.986	4.05
298.363	3.75
298.739	4.32
299.115	3.57
299.491	3.94
299.867	4.12
300.243	3.81
300.619	4.53
300.995	4.41
301.371	3.72
301.746	4.57
302.122	4.26
302.498	4.4
302.874	4.27
303.249	4.41
303.625	4.16
304	4.18
304.376	4.07
304.751	3.9
305.127	4.57
305.502	4.88
305.878	4.23
306.253	4.82
306.628	4.54
307.003	4.73
307.378	4.97
307.754	4.92
308.129	4.81
308.504	4.97
308.879	5.3
309.254	5.02
309.629	4.85
310.003	4.78
310.378	4.7
310.753	4.63
311.128	4.84
311.502	4.96
311.877	4.9
312.252	4.67
312.626	4.71
313.001	5.15
313.375	5.14
313.75	4.93
314.124	4.9
314.498	5.32
314.873	5.17
315.247	5.15
315.621	5.77
315.995	5.81
316.369	4.69
316.743	5.07
317.117	4.97
317.491	5.63
317.865	5.73
318.239	5.92
318.613	5.42
318.987	5.79
319.361	5.58
319.734	5.87
320.108	5.04
320.482	5.93
320.855	5.68
321.229	5.83
321.602	5.73
321.976	6.47
322.349	5.95
322.723	6.44
323.096	6.78
323.469	5.58
323.843	5.89
324.216	6.51
324.589	6.66
324.962	6.17
325.335	6
325.708	6.42
326.081	6.34
326.454	6.73
326.827	6.4
327.2	6.12
327.573	6.12
327.945	6.82
328.318	6.38
328.691	6.62
329.063	6.74
329.436	6.27
329.809	7.2
330.181	6.26
330.553	6.39
330.926	6.41
331.298	6.52
331.671	6.56
332.043	6.73
332.415	7.14
332.787	6.59
333.159	6.68
333.532	6.4
333.904	6.25
334.276	6.39
334.648	6.95
335.02	6.79
335.391	6.79
335.763	6.38
336.135	6.72
336.507	7.19
336.879	7.01
337.25	7.29
337.622	7.15
337.993	7.05
338.365	7.19
338.736	7.38
339.108	7.9
339.479	7.28
339.851	7.39
340.222	7.81
340.593	7.13
340.964	7.5
341.336	7.22
341.707	7.92
342.078	7.49
342.449	7.7
342.82	7.29
343.191	7.41
343.562	7.29
343.933	8.04
344.303	7.34
344.674	7.68
345.045	7.85
345.416	8.17
345.786	8.03
346.157	7.69
346.527	7.45
346.898	8.3
347.268	7.9
347.639	7.83
348.009	8.09
348.38	8.06
348.75	8.11
349.12	8.47
349.49	8.25
349.861	8.19
350.231	7.9
350.601	8.13
350.971	8.22
351.341	8.27
351.711	8.24
352.081	8.36
352.45	8.07
352.82	8.14
353.19	8.56
353.56	8.46
353.929	7.88
354.299	8.35
354.669	8.46
355.038	8.68
355.408	8.49
355.777	8.49
356.147	8.39
356.516	8.63
356.885	8.61
357.254	8.44
357.624	8.48
357.993	8.84
358.362	8.75
358.731	8.68
359.1	8.55
359.469	8.36
359.838	8.71
360.207	8.84
360.576	8.96
360.945	8.69
361.314	9.12
361.682	8.8
362.051	9.3
362.42	9.13
362.788	9.04
363.157	9.04
363.525	9.12
363.894	9.13
364.262	8.86
364.631	9.25
364.999	9.28
365.367	9.24
365.735	9.3
366.104	9.29
366.472	9.4
366.84	9.19
367.208	9.65
367.576	9.31
367.944	9.81
368.312	9.7
368.68	9.56
369.048	9.18
369.416	9.76
369.783	9.55
370.151	9.77
370.519	9.78
370.886	9.88
371.254	9.84
371.621	9.69
371.989	10.03
372.356	10.14
372.724	9.65
373.091	9.87
373.458	9.97
373.826	9.73
374.193	10.08
374.56	10.16
374.927	10.34
375.294	10.18
375.661	10.18
376.028	9.95
376.395	9.97
376.762	9.94
377.129	9.99
377.496	10.29
377.863	10.28
378.229	10.15
378.596	10.09
378.963	10.41
379.329	10.53
379.696	10.21
380.062	10.28
380.429	10.62
380.795	10.62
381.161	10.88
381.528	10.71
381.894	10.5
382.26	10.53
382.626	10.72
382.993	10.72
383.359	10.84
383.725	10.78
384.091	11
384.457	10.85
384.823	11.04
385.188	11.05
385.554	11.14
385.92	10.96
386.286	10.98
386.651	11.43
387.017	11.33
387.383	10.98
387.748	11.35
388.114	11.12
388.479	11.01
388.845	11.22
389.21	11.24
389.575	11.15
389.94	11.11
390.306	11.09
390.671	11.38
391.036	11.42
391.401	11.68
391.766	11.54
392.131	11.4
392.496	11.5
392.861	11.69
393.226	11.36
393.591	11.4
393.956	11.62
394.32	11.61
394.685	11.59
395.05	11.76
395.414	11.9
395.779	11.67
396.143	11.46
396.508	11.76
396.872	11.82
397.236	11.82
397.601	11.51
397.965	12.09
398.329	12.24
398.694	11.97
399.058	12.15
399.422	12.36
399.786	12.17
400.15	11.98
400.514	12.1
400.878	12.24
401.242	11.99
401.605	12.33
401.969	12.09
402.333	12.14
402.697	11.97
403.06	12.56
403.424	12.49
403.787	12.39
404.151	12.23
404.514	12.28
404.878	12.29
405.241	12.58
405.604	12.34
405.968	12.39
406.331	12.35
406.694	12.4
407.057	12.23
407.42	12.45
407.783	12.71
408.146	12.58
408.509	12.63
408.872	12.67
409.235	12.94
409.598	12.71
409.961	12.85
410.323	12.98
410.686	12.8
411.049	12.86
411.411	12.93
411.774	12.66
412.136	12.78
412.499	12.63
412.861	12.68
413.223	12.88
413.586	12.76
413.948	12.96
414.31	13.02
414.672	12.89
415.035	13.13
415.397	13.38
415.759	13.26
416.121	13.24
416.483	13.16
416.845	12.99
417.206	13.12
417.568	13.26
417.93	13.26
418.292	13.13
418.653	13.19
419.015	13.32
419.377	13.22
419.738	13.31
420.1	13.16
420.461	13.34
420.822	13.28
421.184	13.35
421.545	13.47
421.906	13.28
422.267	13.39
422.629	13.33
422.99	13.32
423.351	13.36
423.712	13.38
424.073	13.44
424.434	13.52
424.795	13.66
425.155	13.67
425.516	13.71
425.877	13.63
426.238	13.67
426.598	13.67
426.959	13.76
427.32	13.96
427.68	13.85
428.041	14.03
428.401	14.22
428.761	14.13
429.122	14.24
429.482	14.26
429.842	14.49
430.202	14.55
430.563	14.49
430.923	14.56
431.283	14.63
431.643	14.47
432.003	14.65
432.363	14.73
432.722	14.76
433.082	14.58
433.442	14.69
433.802	14.77
434.161	14.81
434.521	14.79
434.881	14.7
435.24	14.9
435.6	14.78
435.959	14.75
436.319	15.02
436.678	15.05
437.037	15.23
437.396	15.15
437.756	15.11
438.115	15.14
438.474	15.17
438.833	15.24
439.192	15.42
439.551	15.19
439.91	15.35
440.269	15.32
440.628	15.22
440.987	15.48
441.345	15.46
441.704	15.33
442.063	15.53
442.421	15.51
442.78	15.3
443.138	15.53
443.497	15.64
443.855	15.68
444.214	15.82
444.572	15.73
444.93	15.69
445.288	15.96
445.647	16.04
446.005	16
446.363	15.94
446.721	15.74
447.079	15.82
447.437	15.89
447.795	15.85
448.153	15.61
448.51	15.71
448.868	15.9
449.226	16.02
449.584	16.13
449.941	16.11
450.299	16.28
450.656	16.26
451.014	16.4
451.371	16.29
451.729	16.42
452.086	16.68
452.443	16.66
452.801	16.52
453.158	16.73
453.515	16.64
453.872	16.84
454.229	16.71
454.586	16.73
454.943	16.87
455.3	16.68
455.657	16.93
456.014	17.19
456.371	17.02
456.727	17.03
457.084	17.14
457.441	17.17
457.797	16.95
458.154	17.04
458.51	17.23
458.867	17.39
459.223	17.3
459.58	17.34
459.936	17.35
460.292	17.22
460.648	17.36
461.005	17.35
461.361	17.15
461.717	17.22
462.073	17.21
462.429	17.18
462.785	17.53
463.141	17.66
463.496	17.68
463.852	17.84
464.208	17.86
464.564	17.97
464.919	18.02
465.275	17.99
465.631	17.77
465.986	17.94
466.342	18.09
466.697	18.18
467.052	18.28
467.408	18.17
467.763	18.33
468.118	18.25
468.473	18.18
468.829	18.21
469.184	18.29
469.539	18.43
469.894	18.35
470.249	18.37
470.603	18.51
470.958	18.5
471.313	18.54
471.668	18.7
472.023	18.76
472.377	18.73
472.732	18.83
473.086	18.79
473.441	18.88
473.795	19.06
474.15	19.03
474.504	19.06
474.859	19.01
475.213	19.17
475.567	18.76
475.921	19.19
476.275	19.2
476.63	19.15
476.984	19.34
477.338	19.31
477.692	19.3
478.045	19.15
478.399	19.34
478.753	19.46
479.107	19.16
479.461	19.35
479.814	19.33
480.168	19.5
480.521	19.36
480.875	19.38
481.228	19.48
481.582	19.57
481.935	19.64
482.289	19.55
482.642	19.52
482.995	19.62
483.348	19.37
483.701	19.49
484.055	19.45
484.408	19.32
484.761	19.32
485.114	18.98
485.466	18.83
485.819	18.8
486.172	18.97
486.525	19.14
486.878	19.32
487.23	19.32
487.583	19.45
487.936	19.55
488.288	19.68
488.641	19.43
488.993	19.4
489.345	19.35
489.698	19.4
490.05	19.47
490.402	19.56
490.754	19.82
491.107	19.91
491.459	20.06
491.811	20.3
492.163	20.38
492.515	20.24
492.866	20.16
493.218	19.88
493.57	19.79
493.922	19.99
494.274	20.09
494.625	20.27
494.977	20.47
495.328	20.72
495.68	20.87
496.031	21.02
496.383	21.04
496.734	21.2
497.086	21.07
497.437	21.17
497.788	21.32
498.139	21.08
498.49	20.94
498.842	20.97
499.193	21.09
499.544	21.01
499.894	21.27
500.245	21.33
500.596	21.39
500.947	21.42
501.298	21.51
501.648	21.65
501.999	21.66
502.35	21.76
502.7	21.7
503.051	21.72
503.401	22.03
503.752	21.76
504.102	22.05
504.452	21.82
504.803	22.06
505.153	22.06
505.503	21.95
505.853	22.17
506.203	22.15
506.553	21.99
506.903	22.23
507.253	22
507.603	22.16
507.953	22.11
508.303	22.34
508.652	22.22
509.002	22.38
509.352	22.44
509.701	22.09
510.051	22.16
510.4	22.29
510.75	22.18
511.099	22.37
511.449	22.3
511.798	22.33
512.147	22.43
512.496	22.4
512.846	22.58
513.195	22.68
513.544	22.78
513.893	22.55
514.242	22.52
514.591	22.65
514.939	22.69
515.288	22.85
515.637	22.9
515.986	22.9
516.334	22.98
516.683	23.19
517.032	23.06
517.38	23.3
517.729	23.09
518.077	23.17
518.426	23.29
518.774	23.26
519.122	23.25
519.47	23.13
519.819	22.99
520.167	22.98
520.515	22.93
520.863	23.12
521.211	23.03
521.559	23.22
521.907	23.36
522.255	23.36
522.602	23.43
522.95	23.65
523.298	23.69
523.645	23.6
523.993	23.88
524.341	23.79
524.688	23.9
525.036	23.94
525.383	23.92
525.73	23.87
526.078	23.96
526.425	24.04
526.772	23.75
527.119	23.72
527.466	23.62
527.814	23.65
528.161	23.79
528.508	23.91
528.854	23.92
529.201	23.83
529.548	23.81
529.895	23.55
530.242	23.34
530.588	23.36
530.935	23.47
531.282	23.65
531.628	23.71
531.975	23.78
532.321	24.01
532.667	24.18
533.014	24.34
533.36	24.34
533.706	24.4
534.052	24.52
534.399	24.29
534.745	24.18
535.091	23.9
535.437	24.11
535.783	24.22
536.129	24.37
536.474	24.54
536.82	24.6
537.166	24.82
537.512	24.81
537.857	24.83
538.203	24.65
538.549	24.6
538.894	24.87
539.239	24.88
539.585	24.9
539.93	25.12
540.276	25.4
540.621	25.32
540.966	25.46
541.311	25.61
541.656	25.35
542.001	25.54
542.346	25.23
542.691	25.04
543.036	24.85
543.381	24.71
543.726	24.84
544.071	24.95
544.415	25.17
544.76	25.15
545.105	25.35
545.449	25.35
545.794	25.53
546.138	25.76
546.483	25.68
546.827	25.96
547.171	25.89
547.516	25.95
547.86	25.82
548.204	25.92
548.548	25.85
548.892	25.94
549.236	25.97
549.58	26.28
549.924	26.17
550.268	26.49
550.612	26.54
550.956	26.64
551.3	26.84
551.643	26.86
551.987	26.8
552.33	26.78
552.674	26.83
553.017	26.76
553.361	26.89
553.704	26.99
554.048	26.83
554.391	26.94
554.734	26.94
555.077	27.03
555.42	27
555.764	26.85
556.107	27.15
556.45	27.27
556.793	27.28
557.135	27.31
557.478	27.32
557.821	27.58
558.164	27.25
558.507	27.36
558.849	27.43
559.192	27.85
559.534	27.86
559.877	27.5
560.219	27.79
560.562	27.65
560.904	27.74
561.246	27.76
561.589	27.76
561.931	27.74
562.273	27.85
562.615	28
562.957	27.92
563.299	27.89
563.641	28.12
563.983	27.86
564.325	27.99
564.667	27.95
565.008	28.15
565.35	28.24
565.692	28.19
566.033	28.18
566.375	28.5
566.716	28.3
567.058	28.37
567.399	28.11
567.741	28.19
568.082	28.35
568.423	28.15
568.764	28.27
569.105	28.22
569.447	28.32
569.788	28.33
570.129	28.55
570.47	28.82
570.811	28.61
571.151	28.59
571.492	28.66
571.833	28.83
572.174	28.89
572.514	28.86
572.855	28.78
573.195	28.74
573.536	28.8
573.876	28.49
574.217	28.8
574.557	28.73
574.898	28.89
575.238	28.85
575.578	29.11
575.918	29.07
576.258	29.03
576.598	29.24
576.938	29.31
577.278	29.09
577.618	29
577.958	29.14
578.298	29.39
578.638	29.22
578.977	29.33
579.317	29.5
579.657	29.67
579.996	29.48
580.336	29.74
580.675	29.77
581.014	29.82
581.354	29.93
581.693	29.86
582.032	29.93
582.372	30.25
582.711	29.9
583.05	30.04
583.389	30.18
583.728	30.04
584.067	30.08
584.406	29.83
584.745	30.4
585.083	29.91
585.422	30.09
585.761	30.49
586.1	30.36
586.438	30.4
586.777	30.39
587.115	30.36
587.454	30.4
587.792	30.74
588.13	30.77
588.469	30.71
588.807	30.46
589.145	30.65
589.483	30.85
589.821	31.08
590.159	30.89
590.497	30.78
590.835	30.68
591.173	30.51
591.511	30.91
591.849	30.94
592.187	31.06
592.524	30.77
592.862	31.13
593.2	31.19
593.537	31.19
593.875	30.98
594.212	31.11
594.55	30.99
594.887	31.37
595.224	31.57
595.561	31.4
595.899	31.38
596.236	31.17
596.573	31.76
596.91	31.5
597.247	31.44
597.584	31.55
597.921	31.59
598.258	31.55
598.594	31.38
598.931	31.26
599.268	31.24
599.604	31.52
599.941	31.63
600.277	31.53
600.614	31.52
600.95	31.74
601.287	31.64
601.623	31.97
601.959	31.87
602.296	31.81
602.632	32.06
602.968	31.95
603.304	32.19
603.64	32.17
603.976	32.1
604.312	32.14
604.648	32.22
604.984	31.94
605.319	32.11
605.655	32.12
605.991	32.22
606.326	32.01
606.662	31.99
606.998	32.33
607.333	32.31
607.668	32.25
608.004	32.25
608.339	32.27
608.674	32.63
609.01	32.78
609.345	32.82
609.68	32.72
610.015	32.88
610.35	32.7
610.685	32.65
611.02	32.66
611.355	32.62
611.689	32.78
612.024	32.64
612.359	32.62
612.694	32.77
613.028	32.96
613.363	33.22
613.697	33.16
614.032	32.91
614.366	33.42
614.7	33.2
615.035	33.53
615.369	33.1
615.703	33.63
616.037	33.46
616.371	33.04
616.705	33.44
617.039	33.26
617.373	33.63
617.707	33.79
618.041	33.5
618.375	33.52
618.709	33.38
619.042	33.67
619.376	33.87
619.71	33.67
620.043	33.91
620.377	33.73
620.71	34.18
621.043	33.84
621.377	33.58
621.71	34.2
622.043	33.75
622.376	33.93
622.709	34.3
623.043	33.81
623.376	34.11
623.709	34.36
624.041	34.58
624.374	33.93
624.707	34.52
625.04	34.77
625.373	34.51
625.705	34.12
626.038	34.48
626.37	34.63
626.703	34.29
627.035	35.02
627.368	34.41
627.7	34.76
628.032	34.33
628.365	34.59
628.697	34.2
629.029	34.83
629.361	34.67
629.693	34.69
630.025	34.83
630.357	34.73
630.689	35.02
631.021	34.66
631.353	34.84
631.684	34.81
632.016	35.08
632.348	34.94
632.679	35.09
633.011	35.21
633.342	35.02
633.674	34.78
634.005	35.3
634.336	35.43
634.668	34.84
634.999	35.19
635.33	35.37
635.661	35.6
635.992	35.33
636.323	35.37
636.654	35.18
636.985	35.55
637.316	35.23
637.647	35.04
637.977	35.58
638.308	35.41
638.639	35.57
638.969	35.57
639.3	35.91
639.63	35.36
639.961	36.06
640.291	35.57
640.622	35.75
640.952	36.21
641.282	36.13
641.612	35.81
641.943	35.85
642.273	36.01
642.603	35.61
642.933	35.61
643.263	35.93
643.592	36.09
643.922	36.3
644.252	36.1
644.582	36.31
644.911	36
645.241	36.08
645.571	36.58
645.9	35.9
646.23	36.21
646.559	36.36
646.888	36.26
647.218	36.36
647.547	36.67
647.876	35.98
648.205	36.09
648.534	36.31
648.863	36.56
649.192	36.49
649.521	36.55
649.85	36.55
650.179	36.33
650.508	36.24
650.837	36.54
651.165	36.86
651.494	36.85
651.822	37
652.151	36.94
652.479	37.12
652.808	36.87
653.136	37
653.465	36.69
653.793	36.57
654.121	36.36
654.449	36.65
654.777	36.64
655.105	36.72
655.433	37.05
655.761	37.29
656.089	37.38
656.417	36.79
656.745	36.63
657.073	37.06
657.4	37.51
657.728	36.78
658.056	37.73
658.383	37.67
658.711	37.63
659.038	37.5
659.365	37.18
659.693	37.42
660.02	37.34
660.347	37.41
660.674	37.34
661.001	37.59
661.329	37.06
661.656	38.2
661.982	37.71
662.309	37.64
662.636	37.55
662.963	37.71
663.29	37.89
663.616	37.47
663.943	37.31
664.27	37.97
664.596	37.4
664.923	37.96
665.249	38.54
665.576	38.22
665.902	37.78
666.228	38.84
666.554	37.9
666.881	37.91
667.207	38.53
667.533	37.67
667.859	38.33
668.185	37.97
668.511	38.13
668.837	37.94
669.162	38.22
669.488	38.2
669.814	38.17
670.139	37.69
670.465	38.61
670.791	38.72
671.116	38.16
671.442	38.11
671.767	37.95
672.092	38.81
672.418	38.95
672.743	38.79
673.068	38.49
