Data from 97280_crown_Reflection__4__30.txt Node

Date: Fri Sep 23 19:46:12 CDT 2022
User: ToomeyLab
Spectrometer: FLMS14357
Trigger mode: 0
Integration Time (sec): 1.000000E-2
Scans to average: 100
Electric dark correction enabled: true
Nonlinearity correction enabled: false
Boxcar width: 0
XAxis mode: Wavelengths
Number of Pixels in Spectrum: 2048
>>>>>Begin Spectral Data<<<<<
189.047	182.72
189.435	182.72
189.823	182.72
190.211	10.08
190.599	-18700
190.987	191.48
191.375	131.06
191.763	127.66
192.151	-331.65
192.538	571.79
192.926	474.86
193.314	172.33
193.702	80.36
194.089	108.73
194.477	106.68
194.864	138.36
195.252	59.86
195.639	-83.16
196.027	55.64
196.414	44.06
196.801	-4.21
197.189	-13.43
197.576	132.45
197.963	-38.28
198.351	48.72
198.738	-47.93
199.125	41.11
199.512	-7.91
199.899	38.63
200.286	-16.78
200.673	35.53
201.06	6.65
201.447	29.21
201.833	34.99
202.22	-34.56
202.607	24.37
202.994	-2.03
203.38	-30.71
203.767	-22.09
204.154	12.58
204.54	-8.39
204.927	-4.11
205.313	18.73
205.699	-53.38
206.086	-55.63
206.472	6.25
206.858	22.9
207.245	12.2
207.631	1.29
208.017	-9.69
208.403	13.97
208.789	10.95
209.175	37.11
209.561	27.28
209.947	20.69
210.333	24.74
210.719	-10.38
211.105	9.67
211.491	-15.76
211.876	26.09
212.262	-11.65
212.648	-37.28
213.034	-35.06
213.419	4.83
213.805	13.63
214.19	5.28
214.576	2.93
214.961	34.54
215.346	5.4
215.732	22.78
216.117	-1.21
216.502	3.25
216.888	3.03
217.273	-3.12
217.658	-1.28
218.043	13.24
218.428	10.4
218.813	24.16
219.198	-2.26
219.583	1.75
219.968	-0.67
220.353	-8.54
220.738	23.49
221.122	-2.52
221.507	10.05
221.892	7.59
222.276	-5.67
222.661	1.4
223.046	11.75
223.43	1.52
223.815	6.13
224.199	-0.25
224.583	1.53
224.968	0.25
225.352	2.14
225.736	6.41
226.121	10.22
226.505	9.71
226.889	6.46
227.273	6.79
227.657	-1.46
228.041	3.63
228.425	3.17
228.809	3.41
229.193	7.83
229.577	4.87
229.961	5.54
230.344	4.96
230.728	4.31
231.112	4.96
231.495	4.53
231.879	3.09
232.263	5.44
232.646	5.8
233.03	4.82
233.413	4.91
233.797	4.61
234.18	8.03
234.563	2.88
234.946	6.45
235.33	3.74
235.713	7
236.096	3.37
236.479	4.47
236.862	6.08
237.245	6.71
237.628	5.47
238.011	6.02
238.394	3.96
238.777	5.69
239.16	4.72
239.543	5.65
239.925	5.48
240.308	4.42
240.691	5.19
241.073	4.82
241.456	4.44
241.838	5.77
242.221	5.46
242.603	7.3
242.986	4.03
243.368	4.52
243.75	4.81
244.133	4.66
244.515	5.07
244.897	4.89
245.279	4.99
245.661	5.48
246.043	5.78
246.425	4.13
246.807	4.34
247.189	5.19
247.571	4.74
247.953	4.97
248.335	4.93
248.717	5.03
249.098	4.93
249.48	4.64
249.862	4.93
250.243	5.1
250.625	4.76
251.006	5.13
251.388	4.32
251.769	4.82
252.151	3.84
252.532	4.79
252.913	4.42
253.295	5.64
253.676	4.8
254.057	4.55
254.438	4.55
254.819	5.25
255.2	4.84
255.581	5.05
255.962	4.37
256.343	4.54
256.724	5.38
257.105	4.95
257.486	4.3
257.867	4.38
258.247	4.91
258.628	3.88
259.009	3.82
259.389	4.68
259.77	4.17
260.15	4.69
260.531	4.71
260.911	4.34
261.292	4.59
261.672	4.48
262.052	4.29
262.432	4.36
262.813	4.57
263.193	4.88
263.573	4.58
263.953	4.44
264.333	4.8
264.713	4.37
265.093	4.15
265.473	4.52
265.853	3.81
266.233	4.53
266.612	4.58
266.992	4.53
267.372	4.58
267.752	4.36
268.131	4.23
268.511	4.12
268.89	4.5
269.27	3.89
269.649	3.78
270.029	4.09
270.408	4.45
270.787	3.98
271.167	4.38
271.546	4.24
271.925	4.26
272.304	4.2
272.683	3.59
273.062	4.08
273.441	4.02
273.82	4.45
274.199	4.22
274.578	4.12
274.957	4.01
275.336	4.36
275.715	3.93
276.093	4.69
276.472	4.7
276.851	4.43
277.229	3.89
277.608	4.3
277.986	4.21
278.365	3.89
278.743	4.33
279.122	3.81
279.5	3.65
279.878	3.69
280.257	3.91
280.635	4.27
281.013	4.36
281.391	3.86
281.769	3.98
282.147	3.79
282.525	4.31
282.903	4.24
283.281	3.72
283.659	4.35
284.037	4.26
284.415	3.99
284.792	4.07
285.17	3.89
285.548	3.93
285.925	4.29
286.303	4.45
286.68	3.8
287.058	4.12
287.435	4
287.813	4.22
288.19	3.96
288.567	4.15
288.945	4.25
289.322	4.09
289.699	4.15
290.076	4.38
290.453	3.71
290.83	4.04
291.207	4.15
291.584	4.02
291.961	4.01
292.338	4.38
292.715	3.84
293.092	3.93
293.469	4.32
293.845	4.7
294.222	4.49
294.599	3.63
294.975	4.13
295.352	4.36
295.728	3.76
296.105	4
296.481	3.99
296.858	4.17
297.234	4.25
297.61	3.66
297.986	4.35
298.363	3.89
298.739	4.17
299.115	3.76
299.491	4.06
299.867	3.91
300.243	3.98
300.619	3.69
300.995	4.05
301.371	3.6
301.746	4.2
302.122	3.73
302.498	3.9
302.874	3.97
303.249	4.1
303.625	3.88
304	4.12
304.376	4.2
304.751	3.6
305.127	4.08
305.502	4.06
305.878	3.98
306.253	4.25
306.628	3.72
307.003	3.86
307.378	4.61
307.754	4.11
308.129	3.73
308.504	3.81
308.879	4
309.254	3.51
309.629	4.08
310.003	4.16
310.378	3.77
310.753	3.84
311.128	3.93
311.502	3.59
311.877	4.08
312.252	3.91
312.626	3.91
313.001	3.7
313.375	4.15
313.75	3.89
314.124	3.91
314.498	3.96
314.873	3.85
315.247	4.11
315.621	3.94
315.995	4.31
316.369	3.89
316.743	3.74
317.117	3.38
317.491	3.55
317.865	4
318.239	3.84
318.613	3.99
318.987	3.39
319.361	3.34
319.734	4.08
320.108	4.11
320.482	4.18
320.855	3.73
321.229	4.05
321.602	4.07
321.976	4.25
322.349	4.03
322.723	3.88
323.096	4.47
323.469	3.51
323.843	3.53
324.216	4.28
324.589	4.08
324.962	3.66
325.335	4.06
325.708	4.09
326.081	3.83
326.454	4.01
326.827	3.98
327.2	3.66
327.573	3.5
327.945	4.11
328.318	3.67
328.691	3.73
329.063	4.08
329.436	3.71
329.809	4.67
330.181	3.51
330.553	3.62
330.926	4
331.298	4.01
331.671	3.76
332.043	4.25
332.415	3.58
332.787	3.46
333.159	3.9
333.532	3.87
333.904	3.65
334.276	3.38
334.648	3.86
335.02	3.54
335.391	3.72
335.763	3.36
336.135	3.86
336.507	4.34
336.879	3.76
337.25	4.43
337.622	4.28
337.993	3.7
338.365	4.08
338.736	4.12
339.108	4.32
339.479	3.49
339.851	4.46
340.222	4.54
340.593	3.8
340.964	4.28
341.336	3.59
341.707	4.11
342.078	3.89
342.449	3.72
342.82	3.99
343.191	4.12
343.562	3.95
343.933	4.66
344.303	3.7
344.674	4.09
345.045	4.15
345.416	4.18
345.786	4.23
346.157	3.92
346.527	3.78
346.898	4.22
347.268	3.86
347.639	3.71
348.009	3.93
348.38	3.81
348.75	3.95
349.12	3.83
349.49	3.85
349.861	4.01
350.231	3.56
350.601	3.52
350.971	3.81
351.341	3.81
351.711	3.92
352.081	4.05
352.45	3.68
352.82	3.83
353.19	4.21
353.56	4.03
353.929	3.62
354.299	4.06
354.669	3.91
355.038	3.89
355.408	3.63
355.777	3.89
356.147	3.65
356.516	3.89
356.885	3.82
357.254	3.77
357.624	3.69
357.993	4.06
358.362	4.06
358.731	4.06
359.1	4.11
359.469	3.87
359.838	4.06
360.207	4.21
360.576	4.01
360.945	4.07
361.314	3.89
361.682	3.51
362.051	4.18
362.42	4.08
362.788	3.9
363.157	4.1
363.525	4.17
363.894	4.12
364.262	3.86
364.631	4.09
364.999	4.17
365.367	3.74
365.735	4.18
366.104	4.13
366.472	4.04
366.84	3.81
367.208	4.06
367.576	4.31
367.944	3.75
368.312	4.19
368.68	4.15
369.048	3.87
369.416	4.07
369.783	4.14
370.151	3.89
370.519	3.62
370.886	3.88
371.254	4.36
371.621	4.14
371.989	4.28
372.356	4.49
372.724	4.04
373.091	4.15
373.458	4.08
373.826	3.85
374.193	4.36
374.56	4.18
374.927	4.01
375.294	3.94
375.661	3.88
376.028	3.96
376.395	4.13
376.762	3.79
377.129	3.64
377.496	4.33
377.863	4.24
378.229	4.05
378.596	4.14
378.963	4.38
379.329	4.35
379.696	3.96
380.062	4.01
380.429	4.17
380.795	3.93
381.161	4.05
381.528	4.11
381.894	4.22
382.26	4
382.626	3.99
382.993	4.32
383.359	3.95
383.725	4.28
384.091	4.17
384.457	4.11
384.823	4.2
385.188	4.37
385.554	4.24
385.92	4.37
386.286	4.13
386.651	4.35
387.017	4.57
387.383	4.26
387.748	4.38
388.114	4.29
388.479	4.08
388.845	4.23
389.21	4.32
389.575	3.98
389.94	4.15
390.306	4.17
390.671	4.29
391.036	4.28
391.401	4.21
391.766	4.32
392.131	4.27
392.496	4.23
392.861	4.2
393.226	4.18
393.591	4.12
393.956	4.23
394.32	4.24
394.685	4.29
395.05	4.41
395.414	4.21
395.779	4.25
396.143	4.31
396.508	4.42
396.872	4.39
397.236	4.19
397.601	4.3
397.965	4.41
398.329	4.56
398.694	4.16
399.058	4.4
399.422	4.52
399.786	4.49
400.15	4.43
400.514	4.31
400.878	4.36
401.242	4.24
401.605	4.45
401.969	4.39
402.333	4.29
402.697	4.04
403.06	4.44
403.424	4.56
403.787	4.4
404.151	4.37
404.514	4.29
404.878	4.17
405.241	4.31
405.604	4.31
405.968	4.31
406.331	4.19
406.694	4.57
407.057	4.42
407.42	4.29
407.783	4.16
408.146	4.31
408.509	4.36
408.872	4.28
409.235	4.5
409.598	4.65
409.961	4.42
410.323	4.25
410.686	4.6
411.049	4.51
411.411	4.48
411.774	4.03
412.136	4.38
412.499	4.42
412.861	4.17
413.223	4.13
413.586	4.61
413.948	4.54
414.31	4.35
414.672	4.56
415.035	4.46
415.397	4.47
415.759	4.42
416.121	4.6
416.483	4.52
416.845	4.08
417.206	4.27
417.568	4.6
417.93	4.54
418.292	4.42
418.653	4.47
419.015	4.45
419.377	4.31
419.738	4.49
420.1	4.41
420.461	4.46
420.822	4.49
421.184	4.51
421.545	4.43
421.906	4.36
422.267	4.33
422.629	4.32
422.99	4.39
423.351	4.41
423.712	4.39
424.073	4.25
424.434	4.5
424.795	4.55
425.155	4.45
425.516	4.47
425.877	4.39
426.238	4.51
426.598	4.41
426.959	4.45
427.32	4.52
427.68	4.43
428.041	4.43
428.401	4.54
428.761	4.52
429.122	4.47
429.482	4.5
429.842	4.79
430.202	4.68
430.563	4.33
430.923	4.66
431.283	4.58
431.643	4.61
432.003	4.58
432.363	4.68
432.722	4.5
433.082	4.54
433.442	4.52
433.802	4.61
434.161	4.45
434.521	4.64
434.881	4.5
435.24	4.42
435.6	4.46
435.959	4.58
436.319	4.49
436.678	4.63
437.037	4.57
437.396	4.64
437.756	4.74
438.115	4.57
438.474	4.6
438.833	4.79
439.192	4.6
439.551	4.57
439.91	4.61
440.269	4.73
440.628	4.57
440.987	4.46
441.345	4.63
441.704	4.63
442.063	4.57
442.421	4.52
442.78	4.55
443.138	4.51
443.497	4.62
443.855	4.46
444.214	4.75
444.572	4.72
444.93	4.56
445.288	4.73
445.647	4.72
446.005	4.73
446.363	4.7
446.721	4.65
447.079	4.6
447.437	4.7
447.795	4.65
448.153	4.48
448.51	4.52
448.868	4.55
449.226	4.6
449.584	4.56
449.941	4.66
450.299	4.64
450.656	4.7
451.014	4.71
451.371	4.63
451.729	4.48
452.086	4.89
452.443	4.73
452.801	4.63
453.158	4.69
453.515	4.77
453.872	4.79
454.229	4.82
454.586	4.57
454.943	4.78
455.3	4.69
455.657	4.74
456.014	4.95
456.371	4.66
456.727	4.99
457.084	4.8
457.441	4.9
457.797	4.82
458.154	4.93
458.51	4.59
458.867	4.87
459.223	4.81
459.58	4.84
459.936	4.82
460.292	4.7
460.648	4.81
461.005	4.77
461.361	4.66
461.717	4.69
462.073	4.72
462.429	4.64
462.785	4.78
463.141	4.68
463.496	4.84
463.852	4.99
464.208	4.77
464.564	4.89
464.919	4.66
465.275	4.86
465.631	4.68
465.986	4.66
466.342	4.59
466.697	4.87
467.052	4.87
467.408	4.74
467.763	4.81
468.118	4.85
468.473	4.76
468.829	4.77
469.184	4.99
469.539	4.84
469.894	5.02
470.249	4.84
470.603	4.87
470.958	4.79
471.313	4.96
471.668	4.76
472.023	4.83
472.377	4.81
472.732	4.9
473.086	4.9
473.441	4.92
473.795	4.96
474.15	4.96
474.504	4.84
474.859	4.95
475.213	5.06
475.567	4.72
475.921	4.99
476.275	4.88
476.63	4.84
476.984	5.03
477.338	4.9
477.692	4.91
478.045	4.82
478.399	4.96
478.753	5.08
479.107	4.8
479.461	4.88
479.814	4.95
480.168	4.86
480.521	5
480.875	4.88
481.228	4.96
481.582	4.88
481.935	4.97
482.289	4.91
482.642	4.81
482.995	5.02
483.348	4.7
483.701	4.83
484.055	4.91
484.408	4.82
484.761	4.87
485.114	4.74
485.466	4.62
485.819	4.6
486.172	4.71
486.525	4.72
486.878	4.75
487.23	4.78
487.583	4.89
487.936	4.96
488.288	4.86
488.641	4.79
488.993	4.78
489.345	4.79
489.698	4.76
490.05	4.76
490.402	4.78
490.754	4.85
491.107	4.86
491.459	4.81
491.811	4.89
492.163	4.96
492.515	5
492.866	4.85
493.218	4.84
493.57	4.76
493.922	4.85
494.274	4.86
494.625	4.91
494.977	4.94
495.328	5.03
495.68	5.09
496.031	4.95
496.383	5.15
496.734	5.12
497.086	5.15
497.437	5.11
497.788	4.95
498.139	5.09
498.49	4.95
498.842	4.97
499.193	5.06
499.544	4.93
499.894	5.06
500.245	5.01
500.596	5.1
500.947	5.05
501.298	5.09
501.648	5.3
501.999	5.16
502.35	5.08
502.7	5.04
503.051	5.06
503.401	5.06
503.752	5.04
504.102	5.08
504.452	5.08
504.803	5.09
505.153	5.14
505.503	5.09
505.853	5.15
506.203	5.11
506.553	5.14
506.903	5.06
507.253	5.13
507.603	5.26
507.953	5.14
508.303	5.06
508.652	5.16
509.002	5.15
509.352	5.14
509.701	4.98
510.051	5.18
510.4	5.17
510.75	4.94
511.099	5.05
511.449	5.06
511.798	5.21
512.147	5.1
512.496	5.05
512.846	5.12
513.195	5.04
513.544	5.17
513.893	5.29
514.242	5.09
514.591	5.08
514.939	5.11
515.288	5.14
515.637	5.15
515.986	5.14
516.334	5.09
516.683	5.25
517.032	5.25
517.38	5.25
517.729	5.19
518.077	5.09
518.426	5.23
518.774	5.14
519.122	5.2
519.47	5.2
519.819	5.08
520.167	5.04
520.515	5.13
520.863	5.19
521.211	5.16
521.559	5.22
521.907	5.22
522.255	5.16
522.602	5.21
522.95	5.29
523.298	5.11
523.645	5.19
523.993	5.3
524.341	5.35
524.688	5.11
525.036	5.16
525.383	5.21
525.73	5.32
526.078	5.29
526.425	5.18
526.772	5.21
527.119	5.23
527.466	5.14
527.814	5.13
528.161	5.19
528.508	5.27
528.854	5.29
529.201	5.17
529.548	5.17
529.895	5.11
530.242	4.96
530.588	4.99
530.935	5.06
531.282	5.07
531.628	5.07
531.975	5.05
532.321	5.1
532.667	5.17
533.014	5.18
533.36	5.24
533.706	5.2
534.052	5.17
534.399	5.13
534.745	5.07
535.091	5.1
535.437	5.18
535.783	5.16
536.129	5.17
536.474	5.17
536.82	5.17
537.166	5.23
537.512	5.09
537.857	5.18
538.203	5.18
538.549	5.24
538.894	5.26
539.239	5.28
539.585	5.22
539.93	5.25
540.276	5.41
540.621	5.28
540.966	5.35
541.311	5.4
541.656	5.32
542.001	5.37
542.346	5.33
542.691	5.09
543.036	5.18
543.381	5.15
543.726	5.2
544.071	5.15
544.415	5.2
544.76	5.21
545.105	5.3
545.449	5.23
545.794	5.31
546.138	5.28
546.483	5.24
546.827	5.37
547.171	5.35
547.516	5.43
547.86	5.29
548.204	5.29
548.548	5.27
548.892	5.28
549.236	5.26
549.58	5.38
549.924	5.48
550.268	5.56
550.612	5.39
550.956	5.42
551.3	5.25
551.643	5.39
551.987	5.5
552.33	5.35
552.674	5.38
553.017	5.42
553.361	5.45
553.704	5.32
554.048	5.44
554.391	5.35
554.734	5.37
555.077	5.17
555.42	5.16
555.764	5.31
556.107	5.51
556.45	5.41
556.793	5.5
557.135	5.47
557.478	5.29
557.821	5.46
558.164	5.49
558.507	5.45
558.849	5.52
559.192	5.35
559.534	5.68
559.877	5.65
560.219	5.47
560.562	5.78
560.904	5.42
561.246	5.38
561.589	5.47
561.931	5.65
562.273	5.77
562.615	5.4
562.957	5.48
563.299	5.35
563.641	5.58
563.983	5.43
564.325	5.53
564.667	5.51
565.008	5.54
565.35	5.62
565.692	5.23
566.033	5.43
566.375	5.76
566.716	5.58
567.058	5.53
567.399	5.37
567.741	5.42
568.082	5.34
568.423	5.34
568.764	5.4
569.105	5.58
569.447	5.4
569.788	5.49
570.129	5.58
570.47	5.6
570.811	5.62
571.151	5.68
571.492	5.44
571.833	5.42
572.174	5.52
572.514	5.74
572.855	5.61
573.195	5.38
573.536	5.51
573.876	5.47
574.217	5.55
574.557	5.35
574.898	5.46
575.238	5.66
575.578	5.64
575.918	5.44
576.258	5.43
576.598	5.63
576.938	5.63
577.278	5.65
577.618	5.56
577.958	5.64
578.298	5.56
578.638	5.65
578.977	5.7
579.317	5.71
579.657	5.84
579.996	5.4
580.336	5.59
580.675	5.47
581.014	5.79
581.354	5.78
581.693	5.71
582.032	5.63
582.372	5.74
582.711	5.66
583.05	5.68
583.389	5.73
583.728	5.77
584.067	5.4
584.406	5.48
584.745	5.73
585.083	5.74
585.422	5.78
585.761	5.66
586.1	5.63
586.438	5.52
586.777	5.5
587.115	5.64
587.454	5.6
587.792	5.7
588.13	5.58
588.469	5.71
588.807	5.44
589.145	5.8
589.483	5.51
589.821	5.68
590.159	5.77
590.497	5.77
590.835	5.51
591.173	5.53
591.511	5.83
591.849	5.37
592.187	5.8
592.524	5.98
592.862	5.93
593.2	6.1
593.537	5.72
593.875	5.8
594.212	5.81
594.55	5.42
594.887	5.65
595.224	5.71
595.561	5.7
595.899	5.42
596.236	5.57
596.573	5.76
596.91	5.82
597.247	5.82
597.584	5.82
597.921	5.69
598.258	5.54
598.594	5.55
598.931	5.69
599.268	5.57
599.604	5.72
599.941	5.78
600.277	5.76
600.614	5.6
600.95	5.58
601.287	5.78
601.623	5.75
601.959	5.56
602.296	5.52
602.632	5.85
602.968	5.55
603.304	5.63
603.64	5.77
603.976	5.57
604.312	5.91
604.648	5.83
604.984	5.74
605.319	5.71
605.655	5.78
605.991	5.59
606.326	5.59
606.662	5.82
606.998	5.78
607.333	5.69
607.668	5.77
608.004	5.68
608.339	5.66
608.674	5.88
609.01	5.85
609.345	5.7
609.68	5.84
610.015	5.99
610.35	5.84
610.685	5.62
611.02	5.7
611.355	5.52
611.689	5.79
612.024	5.86
612.359	5.87
612.694	5.89
613.028	5.91
613.363	6.07
613.697	5.88
614.032	5.79
614.366	5.92
614.7	5.59
615.035	5.84
615.369	5.88
615.703	5.71
616.037	5.91
616.371	5.9
616.705	5.78
617.039	5.6
617.373	5.8
617.707	6.12
618.041	6.01
618.375	6.1
618.709	5.73
619.042	5.81
619.376	6.48
619.71	5.95
620.043	5.9
620.377	5.86
620.71	5.95
621.043	6.03
621.377	5.58
621.71	6.22
622.043	5.76
622.376	5.59
622.709	5.94
623.043	5.64
623.376	5.93
623.709	5.95
624.041	5.78
624.374	5.9
624.707	6.04
625.04	5.93
625.373	5.87
625.705	5.78
626.038	5.59
626.37	5.71
626.703	5.93
627.035	6.19
627.368	5.89
627.7	5.95
628.032	5.78
628.365	5.92
628.697	6.03
629.029	5.97
629.361	6.1
629.693	6.18
630.025	6.18
630.357	6.07
630.689	5.93
631.021	5.92
631.353	6.2
631.684	5.83
632.016	6.04
632.348	6.05
632.679	6.04
633.011	6.02
633.342	5.79
633.674	6.26
634.005	5.69
634.336	6.51
634.668	5.97
634.999	6.23
635.33	5.86
635.661	6.02
635.992	6.15
636.323	6.18
636.654	6.17
636.985	6.17
637.316	5.77
637.647	5.82
637.977	6.05
638.308	5.92
638.639	5.73
638.969	6.03
639.3	6.03
639.63	5.78
639.961	6.2
640.291	6.14
640.622	5.92
640.952	5.87
641.282	6.02
641.612	6.04
641.943	6.25
642.273	5.91
642.603	6.01
642.933	6.16
643.263	6.11
643.592	5.94
643.922	6.32
644.252	6.48
644.582	6.44
644.911	6.16
645.241	6.12
645.571	6.34
645.9	6.46
646.23	6.14
646.559	5.89
646.888	6.23
647.218	6.43
647.547	6.58
647.876	6.02
648.205	6.23
648.534	6.34
648.863	6.29
649.192	6.49
649.521	6
649.85	6.12
650.179	6.13
650.508	6.31
650.837	6.17
651.165	6.61
651.494	5.75
651.822	5.86
652.151	5.69
652.479	5.86
652.808	6.13
653.136	6.09
653.465	5.82
653.793	6.12
654.121	6.18
654.449	5.98
654.777	6.24
655.105	6.36
655.433	6.1
655.761	6.54
656.089	6.71
656.417	6.03
656.745	5.99
657.073	5.77
657.4	6.68
657.728	6.7
658.056	6.38
658.383	6.29
658.711	6.54
659.038	6.44
659.365	6.3
659.693	6.13
660.02	6.42
660.347	6.06
660.674	5.78
661.001	6.39
661.329	6.31
661.656	6.59
661.982	6.25
662.309	6.3
662.636	6.58
662.963	6.66
663.29	6.62
663.616	6.16
663.943	6.47
664.27	6.04
664.596	6.1
664.923	6.55
665.249	6.4
665.576	6.76
665.902	6.06
666.228	6.99
666.554	6.45
666.881	6.73
667.207	6.2
667.533	6.06
667.859	6.32
668.185	6.34
668.511	6.24
668.837	6.8
669.162	6.44
669.488	6.14
669.814	6.78
670.139	6.22
670.465	6.5
670.791	6.18
671.116	6.15
671.442	6.37
671.767	6.21
672.092	6.09
672.418	6.86
672.743	6.15
673.068	6.27
673.393	6.67
673.718	6.47
674.043	6.73
674.368	6.48
674.693	6.74
675.018	6.67
675.343	7
675.667	6.8
675.992	6.49
676.317	6.55
676.641	6.47
676.966	6.64
677.29	6.92
677.615	6.54
677.939	6.03
678.264	6.16
678.588	6.98
678.912	6.8
679.236	6.51
679.56	5.81
679.885	6.54
680.209	6.64
680.532	6.32
680.856	6.94
681.18	6.42
681.504	6.73
681.828	6.53
682.152	7.03
682.475	6.67
682.799	6.64
683.122	6.55
683.446	6.93
683.769	6.44
684.093	6.74
684.416	7.03
684.739	6.74
685.062	6.59
685.386	6.67
685.709	6.49
686.032	6.96
686.355	6.78
686.678	6.54
687.001	5.99
687.324	7.04
687.646	7.29
687.969	6.55
688.292	7.14
688.614	6.66
688.937	6.49
689.26	6.19
689.582	6.56
689.904	7.12
690.227	6.6
690.549	6.91
690.871	7.29
691.194	6.46
691.516	6.68
691.838	7.11
692.16	6.67
692.482	6.93
