Data from 97280_crown_Reflection__2__28.txt Node

Date: Fri Sep 23 19:45:52 CDT 2022
User: ToomeyLab
Spectrometer: FLMS14357
Trigger mode: 0
Integration Time (sec): 1.000000E-2
Scans to average: 100
Electric dark correction enabled: true
Nonlinearity correction enabled: false
Boxcar width: 0
XAxis mode: Wavelengths
Number of Pixels in Spectrum: 2048
>>>>>Begin Spectral Data<<<<<
189.047	23.94
189.435	23.94
189.823	23.94
190.211	-86.43
190.599	-28350
190.987	263.45
191.375	27.78
191.763	67.83
192.151	-601.8
192.538	-112.39
192.926	875.14
193.314	183.77
193.702	-9.85
194.089	-82.33
194.477	36.05
194.864	89.6
195.252	164.25
195.639	-31.38
196.027	82.59
196.414	175.71
196.801	38.51
197.189	2894.78
197.576	109.96
197.963	-40.01
198.351	23.64
198.738	-40.19
199.125	31.4
199.512	-8.42
199.899	-17.65
200.286	26.72
200.673	27.13
201.06	-4.64
201.447	47.04
201.833	20.73
202.22	-0.13
202.607	7.02
202.994	-2.52
203.38	6.83
203.767	-27.08
204.154	40.63
204.54	33.02
204.927	11.63
205.313	-5.91
205.699	18.95
206.086	27.64
206.472	19
206.858	17.16
207.245	-14.96
207.631	8.05
208.017	29.88
208.403	-6.9
208.789	15.03
209.175	1.81
209.561	61.07
209.947	-25.26
210.333	33.64
210.719	12.49
211.105	32.43
211.491	26.31
211.876	11.34
212.262	-0.66
212.648	-10.23
213.034	-26.31
213.419	28.04
213.805	19.22
214.19	0.99
214.576	-10.83
214.961	29.76
215.346	-7.1
215.732	18.11
216.117	8.47
216.502	17.36
216.888	15.76
217.273	20.2
217.658	-14.15
218.043	4.41
218.428	10.49
218.813	11.98
219.198	2.01
219.583	16.84
219.968	17.33
220.353	24.5
220.738	2.41
221.122	-3.05
221.507	-5.15
221.892	11.83
222.276	6.12
222.661	10.41
223.046	1.69
223.43	-1.42
223.815	8.67
224.199	0.98
224.583	4.04
224.968	2.43
225.352	7.48
225.736	1.89
226.121	9.7
226.505	8.68
226.889	7.68
227.273	5.75
227.657	2.02
228.041	4.13
228.425	8.92
228.809	5.39
229.193	4.9
229.577	6.36
229.961	5.43
230.344	5.76
230.728	4.8
231.112	4.85
231.495	5.12
231.879	4.71
232.263	4.76
232.646	7.07
233.03	6.04
233.413	5.08
233.797	5.43
234.18	5.79
234.563	2.83
234.946	5.71
235.33	4.99
235.713	6.61
236.096	2.74
236.479	4.41
236.862	4.49
237.245	5.82
237.628	5.31
238.011	5.06
238.394	4.86
238.777	4.84
239.16	6.25
239.543	3.39
239.925	4.19
240.308	5.34
240.691	6
241.073	4.14
241.456	5.11
241.838	5.87
242.221	5.09
242.603	5.28
242.986	4.32
243.368	4.16
243.75	4.86
244.133	4.5
244.515	4.53
244.897	4.78
245.279	5.01
245.661	5.22
246.043	5.11
246.425	5.04
246.807	4.19
247.189	4.99
247.571	4.44
247.953	4.61
248.335	4.91
248.717	4.84
249.098	4.72
249.48	4.87
249.862	4.99
250.243	4.73
250.625	4.64
251.006	4.99
251.388	4.28
251.769	5.3
252.151	3.77
252.532	4.57
252.913	5.06
253.295	5.1
253.676	4.94
254.057	4.47
254.438	4.5
254.819	4.94
255.2	5.54
255.581	5.96
255.962	4.61
256.343	5.48
256.724	4.61
257.105	5.04
257.486	3.79
257.867	3.79
258.247	5.7
258.628	5.08
259.009	4.78
259.389	4.64
259.77	3.99
260.15	4.61
260.531	4.79
260.911	4.89
261.292	4.84
261.672	4.52
262.052	4.36
262.432	4.42
262.813	4.16
263.193	4.94
263.573	4.68
263.953	4.25
264.333	4.44
264.713	4.48
265.093	4.57
265.473	4.3
265.853	3.59
266.233	3.89
266.612	5
266.992	5.81
267.372	4.12
267.752	4.48
268.131	4.89
268.511	3.95
268.89	4.45
269.27	4.66
269.649	4.42
270.029	4.58
270.408	4.54
270.787	3.96
271.167	4.23
271.546	4.9
271.925	3.95
272.304	4.92
272.683	4.46
273.062	4.21
273.441	4.85
273.82	4.49
274.199	4.46
274.578	4.29
274.957	4.48
275.336	4.86
275.715	4.54
276.093	4.7
276.472	4.88
276.851	5.25
277.229	4.52
277.608	4.95
277.986	4.4
278.365	4.65
278.743	4.48
279.122	4.52
279.5	4.71
279.878	4.32
280.257	4.61
280.635	3.85
281.013	4.35
281.391	4.16
281.769	4.03
282.147	4.28
282.525	4.49
282.903	4.15
283.281	4.07
283.659	4.05
284.037	4.79
284.415	4.12
284.792	4.62
285.17	4.44
285.548	3.94
285.925	5.02
286.303	4.7
286.68	4.3
287.058	4.18
287.435	4.28
287.813	4.64
288.19	4.2
288.567	4.63
288.945	4.64
289.322	4.37
289.699	4.54
290.076	4.15
290.453	4.5
290.83	4.36
291.207	4.34
291.584	4.47
291.961	4.41
292.338	4.73
292.715	4.2
293.092	4.02
293.469	4.83
293.845	4.76
294.222	4.45
294.599	4.24
294.975	4.66
295.352	4.36
295.728	4.41
296.105	4.21
296.481	4.45
296.858	4.8
297.234	3.92
297.61	3.97
297.986	4.19
298.363	4.4
298.739	4.38
299.115	4.22
299.491	4.2
299.867	4.08
300.243	4.32
300.619	4.86
300.995	4.54
301.371	4.08
301.746	4.62
302.122	4.17
302.498	4.4
302.874	4.39
303.249	4.54
303.625	3.97
304	4.86
304.376	4.17
304.751	4.25
305.127	4.27
305.502	4.36
305.878	4.27
306.253	4.46
306.628	4.55
307.003	4.22
307.378	4.81
307.754	4.86
308.129	4.71
308.504	4.21
308.879	4.32
309.254	4.77
309.629	4.88
310.003	4.58
310.378	3.97
310.753	4.41
311.128	3.95
311.502	3.99
311.877	4.37
312.252	4.32
312.626	4.09
313.001	4.3
313.375	4.15
313.75	4.34
314.124	4.07
314.498	4.58
314.873	4.28
315.247	4.23
315.621	4.17
315.995	5.02
316.369	4.35
316.743	3.44
317.117	3.92
317.491	3.76
317.865	4.53
318.239	4.67
318.613	4.27
318.987	3.57
319.361	4
319.734	4.01
320.108	3.59
320.482	4.53
320.855	4.25
321.229	4.42
321.602	4.07
321.976	4.76
322.349	3.89
322.723	4.25
323.096	4.17
323.469	4.05
323.843	3.9
324.216	4.66
324.589	4.68
324.962	4.7
325.335	3.65
325.708	4.51
326.081	4.35
326.454	4.23
326.827	4.14
327.2	4.09
327.573	4.81
327.945	4.77
328.318	4.12
328.691	4.15
329.063	4.11
329.436	4.84
329.809	4.72
330.181	4.2
330.553	4.39
330.926	4.68
331.298	4.22
331.671	3.83
332.043	5.11
332.415	4.09
332.787	4.2
333.159	4.76
333.532	4.15
333.904	4.25
334.276	3.51
334.648	3.93
335.02	4.12
335.391	4.56
335.763	4.09
336.135	4.48
336.507	4.31
336.879	4.1
337.25	4.51
337.622	4.05
337.993	4.36
338.365	4.54
338.736	4.75
339.108	4.86
339.479	4
339.851	4.85
340.222	4.49
340.593	3.85
340.964	4.57
341.336	4.48
341.707	4.89
342.078	4.17
342.449	4.3
342.82	4.14
343.191	4.21
343.562	4.19
343.933	5.09
344.303	4.3
344.674	4.55
345.045	4.7
345.416	4.77
345.786	4.38
346.157	3.99
346.527	4.39
346.898	4.4
347.268	4.5
347.639	4.35
348.009	4.45
348.38	4.22
348.75	4.25
349.12	4.29
349.49	4.44
349.861	4.24
350.231	4.53
350.601	3.99
350.971	4.54
351.341	3.82
351.711	4.07
352.081	4.4
352.45	4.03
352.82	4.17
353.19	4.34
353.56	4.67
353.929	4.4
354.299	4.42
354.669	4.45
355.038	4.68
355.408	4.27
355.777	4.35
356.147	3.98
356.516	4.48
356.885	4.32
357.254	3.96
357.624	4.05
357.993	4.29
358.362	4.35
358.731	4.16
359.1	4.41
359.469	4.09
359.838	4.27
360.207	4.48
360.576	4.26
360.945	4.44
361.314	3.99
361.682	4.21
362.051	4.41
362.42	4.46
362.788	4.22
363.157	4.44
363.525	4.63
363.894	4.25
364.262	4.36
364.631	4.28
364.999	4.23
365.367	4.15
365.735	4.22
366.104	4.32
366.472	4.3
366.84	4.35
367.208	4.31
367.576	4.25
367.944	4.44
368.312	4.49
368.68	4.14
369.048	4.31
369.416	4.53
369.783	4.29
370.151	4.58
370.519	4.52
370.886	4.5
371.254	4.64
371.621	4.51
371.989	4.32
372.356	4.75
372.724	4.1
373.091	4.27
373.458	4.29
373.826	4.43
374.193	4.49
374.56	4.54
374.927	4.45
375.294	4.57
375.661	4.49
376.028	4.49
376.395	4.3
376.762	4.32
377.129	4.31
377.496	4.65
377.863	4.46
378.229	4.57
378.596	4.28
378.963	4.69
379.329	4.5
379.696	4.28
380.062	4.43
380.429	4.4
380.795	4.4
381.161	4.75
381.528	4.54
381.894	4.34
382.26	4.35
382.626	4.2
382.993	4.49
383.359	4.69
383.725	4.65
384.091	4.44
384.457	4.51
384.823	4.56
385.188	4.61
385.554	4.56
385.92	4.66
386.286	4.54
386.651	4.76
387.017	4.41
387.383	4.55
387.748	4.65
388.114	4.37
388.479	4.34
388.845	4.4
389.21	4.31
389.575	4.4
389.94	4.46
390.306	4.27
390.671	4.36
391.036	4.35
391.401	4.8
391.766	4.51
392.131	4.72
392.496	4.44
392.861	4.34
393.226	4.6
393.591	4.35
393.956	4.63
394.32	4.7
394.685	4.44
395.05	4.56
395.414	4.49
395.779	4.39
396.143	4.56
396.508	4.61
396.872	4.68
397.236	4.65
397.601	4.73
397.965	4.76
398.329	4.85
398.694	4.67
399.058	4.43
399.422	4.8
399.786	4.8
400.15	4.71
400.514	4.76
400.878	4.7
401.242	4.48
401.605	4.77
401.969	4.81
402.333	4.38
402.697	4.55
403.06	4.88
403.424	4.72
403.787	4.77
404.151	4.78
404.514	4.61
404.878	4.43
405.241	4.49
405.604	4.61
405.968	4.5
406.331	4.76
406.694	4.69
407.057	4.61
407.42	4.82
407.783	4.81
408.146	4.62
408.509	4.58
408.872	4.58
409.235	4.71
409.598	4.76
409.961	4.75
410.323	4.66
410.686	4.69
411.049	4.73
411.411	4.7
411.774	4.61
412.136	4.78
412.499	4.51
412.861	4.6
413.223	4.49
413.586	4.58
413.948	4.6
414.31	4.51
414.672	4.73
415.035	4.68
415.397	4.74
415.759	4.85
416.121	4.86
416.483	4.63
416.845	4.38
417.206	4.72
417.568	4.69
417.93	4.66
418.292	4.79
418.653	4.59
419.015	4.73
419.377	4.63
419.738	4.59
420.1	4.6
420.461	4.65
420.822	4.7
421.184	4.66
421.545	4.58
421.906	4.67
422.267	4.61
422.629	4.48
422.99	4.58
423.351	4.66
423.712	4.63
424.073	4.57
424.434	4.7
424.795	4.63
425.155	4.64
425.516	4.64
425.877	4.64
426.238	4.7
426.598	4.65
426.959	4.68
427.32	4.69
427.68	4.67
428.041	4.63
428.401	4.75
428.761	4.72
429.122	4.81
429.482	4.65
429.842	4.88
430.202	4.77
430.563	4.48
430.923	4.96
431.283	4.87
431.643	4.59
432.003	4.75
432.363	4.98
432.722	4.83
433.082	4.54
433.442	4.71
433.802	4.82
434.161	4.7
434.521	4.75
434.881	4.62
435.24	4.74
435.6	4.81
435.959	4.76
436.319	4.69
436.678	4.61
437.037	4.88
437.396	4.78
437.756	4.85
438.115	4.74
438.474	4.8
438.833	4.77
439.192	4.98
439.551	4.82
439.91	4.76
440.269	4.75
440.628	4.67
440.987	4.63
441.345	4.73
441.704	4.74
442.063	4.9
442.421	4.72
442.78	4.74
443.138	4.74
443.497	4.84
443.855	4.78
444.214	4.91
444.572	4.84
444.93	4.77
445.288	4.9
445.647	4.96
446.005	4.87
446.363	4.83
446.721	4.75
447.079	4.84
447.437	4.81
447.795	4.84
448.153	4.69
448.51	4.78
448.868	4.71
449.226	4.86
449.584	4.75
449.941	4.88
450.299	4.86
450.656	4.82
451.014	4.91
451.371	4.85
451.729	4.88
452.086	4.95
452.443	4.8
452.801	4.84
453.158	4.86
453.515	4.94
453.872	4.91
454.229	5.04
454.586	4.84
454.943	4.89
455.3	4.92
455.657	4.93
456.014	5.09
456.371	4.79
456.727	4.95
457.084	4.86
457.441	4.98
457.797	4.79
458.154	4.87
458.51	4.91
458.867	5.16
459.223	4.85
459.58	5.01
459.936	5.02
460.292	4.87
460.648	5
461.005	4.88
461.361	4.89
461.717	4.83
462.073	4.91
462.429	4.86
462.785	4.87
463.141	5.01
463.496	4.94
463.852	5.13
464.208	5.07
464.564	5.17
464.919	5.04
465.275	5.2
465.631	4.97
465.986	4.94
466.342	4.95
466.697	4.97
467.052	5.12
467.408	5.18
467.763	4.95
468.118	5.04
468.473	5.04
468.829	4.93
469.184	5.01
469.539	5.02
469.894	4.92
470.249	5.05
470.603	5.18
470.958	5.04
471.313	5.1
471.668	5.19
472.023	4.99
472.377	5.05
472.732	5.13
473.086	5.06
473.441	5.12
473.795	5.24
474.15	5.06
474.504	4.88
474.859	5.01
475.213	5.11
475.567	4.91
475.921	5.12
476.275	5
476.63	4.94
476.984	5.14
477.338	5
477.692	4.94
478.045	4.91
478.399	5.15
478.753	5.21
479.107	5.04
479.461	5.07
479.814	4.93
480.168	5.1
480.521	5
480.875	5
481.228	5.34
481.582	5.14
481.935	5.15
482.289	5.05
482.642	5.04
482.995	5.2
483.348	4.89
483.701	5.01
484.055	5.02
484.408	4.96
484.761	4.9
485.114	4.82
485.466	4.73
485.819	4.75
486.172	4.8
486.525	4.9
486.878	4.94
487.23	4.91
487.583	5.02
487.936	5.08
488.288	5.03
488.641	4.97
488.993	4.88
489.345	4.93
489.698	4.88
490.05	4.94
490.402	4.91
490.754	4.99
491.107	5.1
491.459	5
491.811	5.05
492.163	5.09
492.515	5.07
492.866	4.94
493.218	4.87
493.57	4.9
493.922	4.93
494.274	5.06
494.625	5.1
494.977	5.06
495.328	5.18
495.68	5.24
496.031	5.08
496.383	5.23
496.734	5.31
497.086	5.36
497.437	5.32
497.788	5.27
498.139	5.11
498.49	5.05
498.842	5.12
499.193	5.25
499.544	5.2
499.894	5.17
500.245	5.3
500.596	5.21
500.947	5.2
501.298	5.25
501.648	5.34
501.999	5.28
502.35	5.3
502.7	5.21
503.051	5.34
503.401	5.26
503.752	5.16
504.102	5.38
504.452	5.27
504.803	5.22
505.153	5.2
505.503	5.18
505.853	5.36
506.203	5.4
506.553	5.29
506.903	5.33
507.253	5.34
507.603	5.24
507.953	5.37
508.303	5.28
508.652	5.37
509.002	5.31
509.352	5.29
509.701	5.32
510.051	5.31
510.4	5.3
510.75	5.25
511.099	5.3
511.449	5.2
511.798	5.41
512.147	5.35
512.496	5.33
512.846	5.28
513.195	5.27
513.544	5.31
513.893	5.39
514.242	5.3
514.591	5.34
514.939	5.4
515.288	5.31
515.637	5.43
515.986	5.36
516.334	5.32
516.683	5.37
517.032	5.38
517.38	5.38
517.729	5.46
518.077	5.28
518.426	5.39
518.774	5.41
519.122	5.33
519.47	5.4
519.819	5.35
520.167	5.19
520.515	5.28
520.863	5.25
521.211	5.21
521.559	5.36
521.907	5.34
522.255	5.26
522.602	5.42
522.95	5.49
523.298	5.41
523.645	5.41
523.993	5.44
524.341	5.56
524.688	5.43
525.036	5.46
525.383	5.38
525.73	5.51
526.078	5.39
526.425	5.52
526.772	5.4
527.119	5.36
527.466	5.33
527.814	5.37
528.161	5.34
528.508	5.39
528.854	5.36
529.201	5.34
529.548	5.33
529.895	5.17
530.242	5.14
530.588	5.16
530.935	5.2
531.282	5.27
531.628	5.34
531.975	5.31
532.321	5.39
532.667	5.43
533.014	5.39
533.36	5.45
533.706	5.41
534.052	5.39
534.399	5.32
534.745	5.32
535.091	5.27
535.437	5.35
535.783	5.38
536.129	5.39
536.474	5.5
536.82	5.43
537.166	5.56
537.512	5.55
537.857	5.5
538.203	5.43
538.549	5.31
538.894	5.45
539.239	5.47
539.585	5.57
539.93	5.5
540.276	5.6
540.621	5.54
540.966	5.59
541.311	5.61
541.656	5.44
542.001	5.62
542.346	5.43
542.691	5.37
543.036	5.38
543.381	5.31
543.726	5.4
544.071	5.42
544.415	5.51
544.76	5.43
545.105	5.57
545.449	5.49
545.794	5.6
546.138	5.59
546.483	5.6
546.827	5.73
547.171	5.69
547.516	5.8
547.86	5.64
548.204	5.68
548.548	5.54
548.892	5.57
549.236	5.67
549.58	5.63
549.924	5.81
550.268	5.82
550.612	5.69
550.956	5.79
551.3	5.71
551.643	5.63
551.987	5.72
552.33	5.72
552.674	5.83
553.017	5.8
553.361	5.81
553.704	5.69
554.048	5.8
554.391	5.7
554.734	5.82
555.077	5.6
555.42	5.59
555.764	5.72
556.107	5.79
556.45	5.84
556.793	5.82
557.135	5.94
557.478	5.75
557.821	5.89
558.164	5.91
558.507	5.85
558.849	6.13
559.192	5.91
559.534	5.88
559.877	5.92
560.219	5.86
560.562	5.95
560.904	5.81
561.246	5.75
561.589	5.74
561.931	6.11
562.273	6.04
562.615	5.86
562.957	5.85
563.299	5.73
563.641	5.99
563.983	5.95
564.325	5.87
564.667	5.96
565.008	5.9
565.35	5.95
565.692	5.94
566.033	5.9
566.375	5.95
566.716	6.05
567.058	5.99
567.399	5.77
567.741	5.74
568.082	5.78
568.423	5.8
568.764	5.87
569.105	5.85
569.447	5.88
569.788	5.87
570.129	6.09
570.47	5.97
570.811	5.96
571.151	6.15
571.492	5.86
571.833	5.9
572.174	5.84
572.514	6.08
572.855	5.74
573.195	5.83
573.536	6.08
573.876	5.74
574.217	5.7
574.557	5.76
574.898	5.91
575.238	6.14
575.578	5.99
575.918	5.84
576.258	5.96
576.598	5.9
576.938	5.96
577.278	6.07
577.618	5.95
577.958	6.06
578.298	5.96
578.638	5.96
578.977	5.86
579.317	6.09
579.657	6.13
579.996	5.8
580.336	6.05
580.675	6
581.014	6.15
581.354	6.24
581.693	6.1
582.032	5.99
582.372	6.22
582.711	6.13
583.05	5.98
583.389	6.22
583.728	5.92
584.067	6.21
584.406	6.04
584.745	6.16
585.083	5.92
585.422	6.06
585.761	6.1
586.1	6.01
586.438	6.12
586.777	6
587.115	5.97
587.454	6.17
587.792	6.25
588.13	5.95
588.469	6.14
588.807	6.03
589.145	6.28
589.483	6.31
589.821	6.25
590.159	6.34
590.497	6.39
590.835	5.91
591.173	6.24
591.511	6.25
591.849	6.06
592.187	6.1
592.524	6.42
592.862	6.41
593.2	6.33
593.537	6.46
593.875	6.2
594.212	6.45
594.55	6.15
594.887	6.22
595.224	6.22
595.561	6.44
595.899	6.03
596.236	6.04
596.573	6.24
596.91	6.18
597.247	6.14
597.584	6.27
597.921	6.23
598.258	5.94
598.594	6.14
598.931	6.21
599.268	6.21
599.604	6.31
599.941	6.23
600.277	6.34
600.614	6.25
600.95	6.26
601.287	6.36
601.623	6.1
601.959	6.05
602.296	6.2
602.632	6.16
602.968	6.16
603.304	6.26
603.64	6.49
603.976	6.32
604.312	6.41
604.648	6.53
604.984	6.23
605.319	6.25
605.655	6.28
605.991	6.26
606.326	6.26
606.662	6.21
606.998	6.32
607.333	6.36
607.668	6.24
608.004	6.18
608.339	6.19
608.674	6.4
609.01	6.51
609.345	6.42
609.68	6.39
610.015	6.46
610.35	6.29
610.685	6.09
611.02	6.27
611.355	6.25
611.689	6.28
612.024	6.41
612.359	6.28
612.694	6.58
613.028	6.46
613.363	6.41
613.697	6.04
614.032	6.35
614.366	6.73
614.7	6.31
615.035	6.54
615.369	6.49
615.703	6.57
616.037	6.42
616.371	6.68
616.705	6.41
617.039	6.45
617.373	6.65
617.707	6.82
618.041	6.57
618.375	6.71
618.709	6.41
619.042	6.5
619.376	6.84
619.71	6.78
620.043	6.54
620.377	6.44
620.71	6.71
621.043	6.42
621.377	6.28
621.71	6.68
622.043	6.4
622.376	6.48
622.709	6.44
623.043	6.51
623.376	6.36
623.709	6.68
624.041	6.64
624.374	6.4
624.707	6.58
625.04	6.8
625.373	6.53
625.705	6.61
626.038	6.28
626.37	6.13
626.703	6.7
627.035	6.79
627.368	6.49
627.7	6.75
628.032	6.26
628.365	6.76
628.697	6.46
629.029	6.74
629.361	6.89
629.693	6.42
630.025	6.85
630.357	6.62
630.689	6.62
631.021	6.67
631.353	6.48
631.684	6.71
632.016	6.79
632.348	6.42
632.679	6.45
633.011	6.65
633.342	6.64
633.674	6.89
634.005	6.78
634.336	6.91
634.668	6.69
634.999	6.84
635.33	6.68
635.661	6.59
635.992	6.86
636.323	7.05
636.654	7.06
636.985	6.92
637.316	6.63
637.647	7.05
637.977	6.64
638.308	6.73
638.639	6.44
638.969	6.76
639.3	6.94
639.63	6.47
639.961	6.82
640.291	6.62
640.622	6.93
640.952	7.03
641.282	6.97
641.612	6.53
641.943	6.83
642.273	6.82
642.603	6.92
642.933	6.89
643.263	6.73
643.592	6.67
643.922	6.93
644.252	7.37
644.582	7.35
644.911	6.72
645.241	7.15
645.571	7.58
645.9	6.78
646.23	7.04
646.559	6.63
646.888	7
647.218	7.07
647.547	7.01
647.876	6.48
648.205	7
648.534	7.13
648.863	7.28
649.192	7.37
649.521	6.66
649.85	6.95
650.179	6.65
650.508	6.91
650.837	7.08
651.165	7.06
651.494	6.88
651.822	7.18
652.151	7.13
652.479	6.85
652.808	6.86
653.136	6.83
653.465	6.47
653.793	6.94
654.121	6.59
654.449	6.25
654.777	6.81
655.105	7.14
655.433	7.17
655.761	7.04
656.089	7.53
656.417	7.2
656.745	6.67
657.073	6.09
657.4	7.1
657.728	6.56
658.056	7.47
658.383	6.92
658.711	6.63
659.038	7.32
659.365	6.79
659.693	7.29
660.02	6.92
660.347	6.97
660.674	6.85
661.001	7.32
661.329	6.86
661.656	7.5
661.982	7.1
662.309	7.22
662.636	7.28
662.963	7.21
663.29	7.44
663.616	7.15
663.943	7.13
664.27	7.07
664.596	6.98
664.923	7.1
665.249	7.46
665.576	7.65
665.902	7.23
666.228	7.45
666.554	7.24
666.881	7.43
667.207	7.27
667.533	7.13
667.859	7.24
668.185	7.32
668.511	6.83
668.837	7.74
669.162	7.08
669.488	7.36
669.814	7.24
670.139	7.36
670.465	7.47
670.791	6.79
671.116	7.32
671.442	7.89
671.767	6.87
672.092	6.94
672.418	7.88
672.743	7.48
673.068	7.05
673.393	7.01
673.718	7.18
674.043	7.52
674.368	7.38
674.693	7.36
675.018	7.53
675.343	7.9
675.667	7.4
675.992	7.74
676.317	7.54
676.641	7.81
676.966	7.66
677.29	7.41
677.615	7.68
677.939	7.57
678.264	7.47
678.588	7.64
678.912	7.37
679.236	7.31
679.56	6.98
679.885	7.15
680.209	7.38
680.532	7.19
680.856	7.59
681.18	7.82
681.504	7.45
681.828	7.65
682.152	7.65
682.475	7.42
682.799	7.57
683.122	7.18
683.446	7.65
683.769	7.29
684.093	7.47
684.416	8.03
684.739	7.92
685.062	7.19
685.386	7.63
685.709	7.14
686.032	7.3
686.355	7.87
686.678	7.26
687.001	7.78
687.324	8
687.646	7.95
687.969	7.4
688.292	7.57
688.614	7.78
688.937	7.08
689.26	7.9
689.582	7.37
689.904	7.83
690.227	7.8
690.549	7.81
690.871	8.23
691.194	7.49
691.516	7.01
691.838	7.44
692.16	7.57
692.482	7.46
692.804	7.6
693.126	8.62
693.448	7.41
