Data from 97280_forehead_Reflection__3__24.txt Node

Date: Fri Sep 23 19:44:37 CDT 2022
User: ToomeyLab
Spectrometer: FLMS14357
Trigger mode: 0
Integration Time (sec): 1.000000E-2
Scans to average: 100
Electric dark correction enabled: true
Nonlinearity correction enabled: false
Boxcar width: 0
XAxis mode: Wavelengths
Number of Pixels in Spectrum: 2048
>>>>>Begin Spectral Data<<<<<
189.047	-34.42
189.435	-34.42
189.823	-34.42
190.211	48.45
190.599	33050
190.987	63.45
191.375	-65.17
191.763	61.24
192.151	-62.23
192.538	757.69
192.926	958.57
193.314	226.91
193.702	76.53
194.089	36.9
194.477	145.65
194.864	22.1
195.252	101.54
195.639	-26.87
196.027	5.26
196.414	19.02
196.801	399.43
197.189	1679.85
197.576	75.04
197.963	-14.01
198.351	60.45
198.738	16.19
199.125	21.05
199.512	-13.08
199.899	23.36
200.286	-6.73
200.673	17.39
201.06	16.51
201.447	42.98
201.833	12.64
202.22	27.67
202.607	52.36
202.994	35.85
203.38	-3.36
203.767	-49.79
204.154	13.83
204.54	27.39
204.927	42.59
205.313	42.6
205.699	19.19
206.086	-13.63
206.472	20.67
206.858	31.22
207.245	27.67
207.631	20.88
208.017	7.54
208.403	3.77
208.789	39.43
209.175	49.45
209.561	25.28
209.947	10.94
210.333	4.95
210.719	4.7
211.105	49.9
211.491	42.52
211.876	14.01
212.262	16.37
212.648	17.42
213.034	1.19
213.419	7.55
213.805	30.14
214.19	12.16
214.576	8.72
214.961	24.53
215.346	-4.31
215.732	16.22
216.117	15.58
216.502	8.17
216.888	25.35
217.273	21.57
217.658	12.35
218.043	10.95
218.428	26.89
218.813	26.3
219.198	11.65
219.583	3.68
219.968	9.22
220.353	24.84
220.738	30.14
221.122	3.66
221.507	23.25
221.892	-8.38
222.276	8.72
222.661	5.2
223.046	4.63
223.43	8.67
223.815	8.66
224.199	1.05
224.583	13.33
224.968	-1
225.352	5.91
225.736	3.48
226.121	12.61
226.505	8.51
226.889	6.51
227.273	9.75
227.657	5.27
228.041	4.88
228.425	7.15
228.809	7.56
229.193	6.12
229.577	5.53
229.961	4.76
230.344	3.92
230.728	2.69
231.112	3.12
231.495	2.86
231.879	1.92
232.263	3.69
232.646	4.05
233.03	4.18
233.413	4.84
233.797	3.71
234.18	5.85
234.563	4.19
234.946	4.8
235.33	3.19
235.713	4.87
236.096	2.55
236.479	2.71
236.862	3.05
237.245	3.61
237.628	4.9
238.011	5.53
238.394	4.05
238.777	4.17
239.16	3.06
239.543	2.58
239.925	4.09
240.308	3.94
240.691	6.01
241.073	3.82
241.456	3.48
241.838	5.2
242.221	4.73
242.603	4.59
242.986	3.06
243.368	3.53
243.75	3.29
244.133	3.58
244.515	3.4
244.897	3.08
245.279	3.34
245.661	4.76
246.043	4.03
246.425	3.29
246.807	4.19
247.189	3.97
247.571	3.72
247.953	3.31
248.335	3.76
248.717	3.76
249.098	3.3
249.48	3.52
249.862	3.56
250.243	3.78
250.625	3.63
251.006	4.31
251.388	3.91
251.769	4.22
252.151	3.29
252.532	4
252.913	3.71
253.295	4.08
253.676	4.38
254.057	3.2
254.438	3.75
254.819	3.95
255.2	3.6
255.581	4.45
255.962	3.29
256.343	3.37
256.724	4.03
257.105	4.52
257.486	3.04
257.867	3.57
258.247	4.59
258.628	4.26
259.009	3.51
259.389	4.05
259.77	2.94
260.15	3.91
260.531	3.46
260.911	3.36
261.292	3.33
261.672	3.38
262.052	3.19
262.432	3.28
262.813	3.79
263.193	3.48
263.573	4.27
263.953	3.29
264.333	3.9
264.713	4.13
265.093	4.02
265.473	4.16
265.853	2.58
266.233	3.4
266.612	3.99
266.992	4.35
267.372	3.18
267.752	3.87
268.131	3.87
268.511	3.2
268.89	3.61
269.27	3.41
269.649	3.52
270.029	3.2
270.408	3.94
270.787	3.38
271.167	3.44
271.546	3.58
271.925	3.34
272.304	3.52
272.683	3.61
273.062	3.51
273.441	3.19
273.82	3.29
274.199	3.41
274.578	3.08
274.957	3.55
275.336	3.75
275.715	3.25
276.093	3.98
276.472	3.77
276.851	3.55
277.229	3.43
277.608	3.58
277.986	3.32
278.365	3.96
278.743	3.94
279.122	3.39
279.5	3.68
279.878	3.06
280.257	3.6
280.635	3.53
281.013	3.82
281.391	3.1
281.769	3.55
282.147	3.54
282.525	3.54
282.903	3.41
283.281	3.73
283.659	3.21
284.037	3.78
284.415	3.43
284.792	3.63
285.17	3.09
285.548	3.2
285.925	3.47
286.303	4.02
286.68	3.34
287.058	3.51
287.435	3.23
287.813	3.56
288.19	3.32
288.567	3.66
288.945	3.4
289.322	3.65
289.699	3.84
290.076	3.54
290.453	3.29
290.83	3.65
291.207	3.86
291.584	4.03
291.961	3.59
292.338	4.14
292.715	3.24
293.092	3.45
293.469	3.55
293.845	4.02
294.222	3.64
294.599	3.33
294.975	4.2
295.352	4.16
295.728	4.06
296.105	3.93
296.481	3.93
296.858	3.78
297.234	3.87
297.61	3.62
297.986	3.79
298.363	3.87
298.739	4.09
299.115	3.78
299.491	4.03
299.867	4.06
300.243	4.1
300.619	4.37
300.995	4.24
301.371	4.05
301.746	4.69
302.122	4.65
302.498	4.57
302.874	4.27
303.249	4.46
303.625	4.11
304	4.15
304.376	3.95
304.751	4.17
305.127	3.75
305.502	4.51
305.878	4.42
306.253	4.64
306.628	4.58
307.003	4.26
307.378	4.77
307.754	4.66
308.129	4.47
308.504	4.64
308.879	4.55
309.254	4.37
309.629	5.08
310.003	4.63
310.378	4.76
310.753	4.68
311.128	4.5
311.502	4.81
311.877	4.8
312.252	4.78
312.626	4.92
313.001	4.81
313.375	4.87
313.75	5
314.124	4.94
314.498	5.12
314.873	5.22
315.247	5.53
315.621	5.2
315.995	5.19
316.369	5.16
316.743	5.02
317.117	4.69
317.491	4.86
317.865	5.3
318.239	5.93
318.613	5.05
318.987	5.21
319.361	4.94
319.734	5.13
320.108	4.75
320.482	5.8
320.855	5.51
321.229	5.62
321.602	5.37
321.976	5.79
322.349	5.88
322.723	5.83
323.096	5.96
323.469	5.44
323.843	5.6
324.216	6.05
324.589	6.18
324.962	5.79
325.335	5.59
325.708	5.19
326.081	5.34
326.454	5.95
326.827	5.87
327.2	5.58
327.573	6.14
327.945	6.25
328.318	5.92
328.691	5.97
329.063	5.87
329.436	5.84
329.809	6.59
330.181	5.77
330.553	5.78
330.926	6.33
331.298	6.49
331.671	6.76
332.043	6.19
332.415	6.03
332.787	5.76
333.159	6.28
333.532	6.08
333.904	6.15
334.276	5.8
334.648	6.54
335.02	6.35
335.391	6.56
335.763	5.93
336.135	6.87
336.507	6.69
336.879	6.54
337.25	6.35
337.622	6.88
337.993	6.59
338.365	6.66
338.736	6.77
339.108	6.85
339.479	7.02
339.851	7.15
340.222	7.25
340.593	6.94
340.964	7.05
341.336	6.99
341.707	7.3
342.078	6.89
342.449	6.62
342.82	6.92
343.191	7.05
343.562	6.87
343.933	7.45
344.303	7.07
344.674	7.27
345.045	7.2
345.416	7.36
345.786	7.49
346.157	6.71
346.527	7.46
346.898	7.31
347.268	7.18
347.639	7.28
348.009	7.01
348.38	7.38
348.75	7.71
349.12	7.23
349.49	7.86
349.861	7.51
350.231	7.19
350.601	7.31
350.971	7.7
351.341	7.14
351.711	7.34
352.081	7.35
352.45	7.27
352.82	7.47
353.19	8.02
353.56	7.73
353.929	7.55
354.299	7.48
354.669	8.09
355.038	7.92
355.408	7.55
355.777	7.74
356.147	7.61
356.516	7.85
356.885	7.69
357.254	7.87
357.624	7.78
357.993	7.9
358.362	7.6
358.731	8.11
359.1	7.87
359.469	7.82
359.838	8.06
360.207	8.22
360.576	8.18
360.945	8.07
361.314	7.68
361.682	8.2
362.051	7.93
362.42	8.43
362.788	8.22
363.157	8.05
363.525	8.52
363.894	8.13
364.262	8.11
364.631	8.13
364.999	8.59
365.367	8.25
365.735	8.61
366.104	8.47
366.472	8.55
366.84	8.48
367.208	8.77
367.576	8.54
367.944	8.37
368.312	8.87
368.68	8.47
369.048	8.53
369.416	8.48
369.783	8.98
370.151	8.96
370.519	8.67
370.886	9
371.254	8.9
371.621	8.77
371.989	9.01
372.356	9.14
372.724	8.68
373.091	8.73
373.458	8.8
373.826	8.69
374.193	9.28
374.56	8.9
374.927	9.13
375.294	9.47
375.661	9
376.028	9.26
376.395	9.26
376.762	9.31
377.129	9.2
377.496	9.28
377.863	9.6
378.229	9.24
378.596	9.21
378.963	9.56
379.329	9.42
379.696	9.5
380.062	9.66
380.429	9.18
380.795	9.14
381.161	9.44
381.528	9.6
381.894	9.74
382.26	9.38
382.626	9.52
382.993	9.62
383.359	9.64
383.725	9.87
384.091	9.68
384.457	9.88
384.823	9.67
385.188	9.84
385.554	9.73
385.92	9.79
386.286	9.84
386.651	9.95
387.017	10.12
387.383	9.92
387.748	10.43
388.114	10.18
388.479	10.21
388.845	10.19
389.21	10.03
389.575	10.23
389.94	10.01
390.306	9.89
390.671	10.23
391.036	10.2
391.401	10.24
391.766	10.55
392.131	10.21
392.496	10.46
392.861	10.19
393.226	10.31
393.591	10.4
393.956	10.5
394.32	10.45
394.685	10.54
395.05	10.56
395.414	10.48
395.779	10.19
396.143	10.57
396.508	10.57
396.872	10.87
397.236	10.8
397.601	10.35
397.965	10.75
398.329	10.93
398.694	10.66
399.058	10.54
399.422	11.08
399.786	10.8
400.15	10.74
400.514	10.66
400.878	10.74
401.242	10.62
401.605	11.19
401.969	10.83
402.333	10.82
402.697	10.71
403.06	10.85
403.424	10.93
403.787	11.04
404.151	11.04
404.514	10.99
404.878	10.82
405.241	11.02
405.604	10.99
405.968	10.73
406.331	10.98
406.694	11.01
407.057	10.95
407.42	11.08
407.783	11.05
408.146	11.02
408.509	11.06
408.872	11.02
409.235	11.29
409.598	11.33
409.961	11.46
410.323	11.17
410.686	11.28
411.049	11.1
411.411	11.5
411.774	11.16
412.136	11.11
412.499	11.14
412.861	11.23
413.223	11.32
413.586	11.25
413.948	11.35
414.31	11.17
414.672	11.53
415.035	11.4
415.397	11.78
415.759	11.57
416.121	11.58
416.483	11.51
416.845	11.35
417.206	11.33
417.568	11.79
417.93	11.53
418.292	11.63
418.653	11.59
419.015	11.67
419.377	11.59
419.738	11.53
420.1	11.47
420.461	11.64
420.822	11.78
421.184	11.69
421.545	11.79
421.906	11.73
422.267	11.58
422.629	11.63
422.99	11.66
423.351	11.79
423.712	11.74
424.073	11.81
424.434	11.99
424.795	12.06
425.155	11.9
425.516	12.02
425.877	11.98
426.238	12.1
426.598	12.13
426.959	12.2
427.32	12.2
427.68	12.41
428.041	12.33
428.401	12.35
428.761	12.48
429.122	12.59
429.482	12.64
429.842	12.74
430.202	12.72
430.563	12.75
430.923	12.98
431.283	13
431.643	12.89
432.003	13.09
432.363	13.04
432.722	13.09
433.082	13
433.442	13.09
433.802	13.08
434.161	13.17
434.521	13.07
434.881	12.93
435.24	13.05
435.6	13.12
435.959	13.33
436.319	13.36
436.678	13.25
437.037	13.35
437.396	13.59
437.756	13.59
438.115	13.59
438.474	13.52
438.833	13.63
439.192	13.72
439.551	13.83
439.91	13.66
440.269	13.7
440.628	13.83
440.987	13.75
441.345	13.67
441.704	13.84
442.063	13.93
442.421	13.83
442.78	13.78
443.138	13.88
443.497	13.94
443.855	13.96
444.214	14.38
444.572	14.2
444.93	14.2
445.288	14.41
445.647	14.42
446.005	14.53
446.363	14.36
446.721	14.21
447.079	14.27
447.437	14.35
447.795	14.35
448.153	14.09
448.51	14.24
448.868	14.29
449.226	14.54
449.584	14.56
449.941	14.71
450.299	14.79
450.656	14.75
451.014	14.93
451.371	14.87
451.729	14.9
452.086	15.11
452.443	15.25
452.801	15.09
453.158	15.42
453.515	15.27
453.872	15.25
454.229	15.24
454.586	15.25
454.943	15.44
455.3	15.36
455.657	15.51
456.014	15.59
456.371	15.48
456.727	15.63
457.084	15.75
457.441	15.81
457.797	15.64
458.154	15.64
458.51	15.71
458.867	15.88
459.223	15.92
459.58	15.75
459.936	16.05
460.292	15.8
460.648	15.98
461.005	15.84
461.361	15.74
461.717	15.72
462.073	15.78
462.429	15.96
462.785	16.07
463.141	16.2
463.496	16.28
463.852	16.29
464.208	16.25
464.564	16.45
464.919	16.47
465.275	16.67
465.631	16.53
465.986	16.45
466.342	16.49
466.697	16.68
467.052	16.72
467.408	16.61
467.763	16.72
468.118	16.75
468.473	16.93
468.829	16.76
469.184	17.02
469.539	16.84
469.894	17.12
470.249	17.06
470.603	17.1
470.958	17.04
471.313	17.16
471.668	17.12
472.023	17.18
472.377	17.26
472.732	17.27
473.086	17.31
473.441	17.54
473.795	17.49
474.15	17.55
474.504	17.47
474.859	17.63
475.213	17.68
475.567	17.49
475.921	17.76
476.275	17.67
476.63	17.69
476.984	17.99
477.338	17.85
477.692	17.77
478.045	17.77
478.399	17.88
478.753	18.01
479.107	17.89
479.461	17.99
479.814	17.97
480.168	18
480.521	18.05
480.875	18.08
481.228	18.11
481.582	18.1
481.935	18.18
482.289	18.24
482.642	18.19
482.995	18.31
483.348	18.05
483.701	18.2
484.055	18.08
484.408	17.96
484.761	17.78
485.114	17.48
485.466	17.31
485.819	17.37
486.172	17.63
486.525	17.74
486.878	17.93
487.23	18.03
487.583	18.21
487.936	18.2
488.288	18.26
488.641	18.05
488.993	17.91
489.345	17.96
489.698	17.97
490.05	18.15
490.402	18.19
490.754	18.53
491.107	18.57
491.459	18.56
491.811	18.82
492.163	18.93
492.515	18.74
492.866	18.59
493.218	18.31
493.57	18.34
493.922	18.55
494.274	18.74
494.625	18.89
494.977	19.1
495.328	19.28
495.68	19.41
496.031	19.49
496.383	19.55
496.734	19.6
497.086	19.7
497.437	19.77
497.788	19.84
498.139	19.58
498.49	19.51
498.842	19.59
499.193	19.75
499.544	19.67
499.894	19.82
500.245	19.82
500.596	19.91
500.947	19.8
501.298	20.02
501.648	20.33
501.999	20.14
502.35	20.25
502.7	20.17
503.051	20.43
503.401	20.34
503.752	20.46
504.102	20.49
504.452	20.49
504.803	20.62
505.153	20.52
505.503	20.45
505.853	20.6
506.203	20.6
506.553	20.53
506.903	20.56
507.253	20.51
507.603	20.75
507.953	20.7
508.303	20.78
508.652	20.65
509.002	20.88
509.352	20.78
509.701	20.77
510.051	20.72
510.4	20.8
510.75	20.77
511.099	20.83
511.449	20.88
511.798	20.87
512.147	20.97
512.496	20.94
512.846	20.93
513.195	21.13
513.544	21.18
513.893	21.02
514.242	21.05
514.591	21.14
514.939	21.24
515.288	21.18
515.637	21.28
515.986	21.44
516.334	21.36
516.683	21.46
517.032	21.64
517.38	21.67
517.729	21.67
518.077	21.48
518.426	21.8
518.774	21.58
519.122	21.52
519.47	21.5
519.819	21.48
520.167	21.33
520.515	21.33
520.863	21.53
521.211	21.62
521.559	21.63
521.907	21.83
522.255	21.83
522.602	21.97
522.95	22.06
523.298	21.84
523.645	22.11
523.993	22.12
524.341	22.38
524.688	22.26
525.036	22.26
525.383	22.09
525.73	22.33
526.078	22.36
526.425	22.27
526.772	22.1
527.119	22.03
527.466	21.88
527.814	21.99
528.161	22.13
528.508	22.18
528.854	22.22
529.201	22.1
529.548	21.89
529.895	21.7
530.242	21.49
530.588	21.6
530.935	21.81
531.282	22.01
531.628	21.91
531.975	22.13
532.321	22.25
532.667	22.36
533.014	22.42
533.36	22.59
533.706	22.64
534.052	22.65
534.399	22.5
534.745	22.34
535.091	22.24
535.437	22.28
535.783	22.49
536.129	22.6
536.474	22.79
536.82	22.87
537.166	23.03
537.512	23.06
537.857	23.2
538.203	22.92
538.549	22.87
538.894	23.03
539.239	23.1
539.585	23.29
539.93	23.37
540.276	23.59
540.621	23.46
540.966	23.54
541.311	23.65
541.656	23.55
542.001	23.45
542.346	23.37
542.691	23
543.036	22.79
543.381	22.93
543.726	23.05
544.071	23.28
544.415	23.48
544.76	23.25
545.105	23.5
545.449	23.56
545.794	23.72
546.138	23.77
546.483	23.98
546.827	24.12
547.171	24.01
547.516	24.06
547.86	24.01
548.204	23.98
548.548	23.94
548.892	24.05
549.236	24.2
549.58	24.35
549.924	24.5
550.268	24.62
550.612	24.6
550.956	24.61
551.3	24.85
551.643	24.64
551.987	24.84
552.33	25.03
552.674	25.02
553.017	24.91
553.361	25.07
553.704	25.01
554.048	24.95
554.391	24.82
554.734	24.78
555.077	25.02
555.42	25.03
555.764	25.15
556.107	25.33
556.45	25.47
556.793	25.09
557.135	25.19
557.478	25.45
557.821	25.54
558.164	25.5
558.507	25.51
558.849	25.77
559.192	25.71
559.534	25.79
559.877	25.92
560.219	25.84
560.562	25.95
560.904	25.73
561.246	25.82
561.589	25.78
561.931	26
562.273	26.12
562.615	25.86
562.957	25.97
563.299	25.89
563.641	26.1
563.983	25.98
564.325	26.06
564.667	26.16
565.008	26.16
565.35	26.22
565.692	26.12
566.033	26.17
566.375	26.47
566.716	26.32
567.058	26.18
567.399	26.14
567.741	25.97
568.082	26.12
568.423	26.06
568.764	26.3
569.105	26.36
569.447	26.4
569.788	26.5
570.129	26.33
570.47	26.69
570.811	26.56
571.151	26.64
571.492	26.59
571.833	26.52
572.174	26.66
572.514	27.1
572.855	26.64
573.195	26.7
573.536	26.77
573.876	26.39
574.217	26.72
574.557	26.76
574.898	26.83
575.238	26.87
575.578	26.88
575.918	26.86
576.258	26.76
576.598	26.91
576.938	27.17
577.278	26.97
577.618	26.83
577.958	27.26
578.298	27.34
578.638	27.21
578.977	27.25
579.317	27.32
579.657	27.55
579.996	27.48
580.336	27.57
580.675	27.42
581.014	27.66
581.354	27.87
581.693	27.84
582.032	27.86
582.372	27.81
582.711	27.68
583.05	27.8
583.389	28.07
583.728	27.98
584.067	28.04
584.406	27.96
584.745	28.05
585.083	28.09
585.422	28.03
585.761	28.12
586.1	28.06
586.438	28.16
586.777	28.25
587.115	28.14
587.454	28.33
587.792	28.42
588.13	28.4
588.469	28.38
588.807	28.57
589.145	28.35
589.483	28.63
589.821	28.71
590.159	28.55
590.497	28.53
590.835	28.55
591.173	28.68
591.511	28.84
591.849	28.31
592.187	28.59
592.524	28.73
592.862	29.18
593.2	29.04
593.537	28.61
593.875	28.77
594.212	29.06
594.55	28.67
594.887	28.91
595.224	29.03
595.561	29.15
595.899	28.96
596.236	29.02
596.573	29.33
596.91	29.18
597.247	29.1
597.584	29.02
597.921	29.11
598.258	29.06
598.594	29.14
598.931	29.02
599.268	29.09
599.604	29.27
599.941	29.32
600.277	29.27
600.614	29.54
600.95	29.58
601.287	29.77
601.623	29.57
601.959	29.47
602.296	29.82
602.632	29.64
602.968	29.56
603.304	29.92
603.64	29.87
603.976	29.73
604.312	29.77
604.648	30.03
604.984	29.68
605.319	29.93
605.655	29.82
605.991	29.91
606.326	29.66
606.662	29.61
606.998	29.73
607.333	29.68
607.668	29.83
608.004	30.14
608.339	30.11
608.674	30.16
609.01	30.41
609.345	30.03
609.68	30.26
610.015	30.47
610.35	30.46
610.685	29.74
611.02	30.31
611.355	30.26
611.689	30.24
612.024	30.3
612.359	30.46
612.694	30.51
613.028	30.51
613.363	30.57
613.697	30.49
614.032	30.89
614.366	30.52
614.7	30.6
615.035	30.88
615.369	31.32
615.703	30.93
616.037	30.61
616.371	31.09
616.705	30.87
617.039	31.02
617.373	31.07
617.707	31.09
618.041	31.32
618.375	31.09
618.709	31.15
619.042	31.31
619.376	31.22
619.71	31.31
620.043	31.68
620.377	31.45
620.71	31.69
621.043	31.54
621.377	31.44
621.71	31.4
622.043	31.33
622.376	31.19
622.709	31.65
623.043	31.47
623.376	31.94
623.709	31.9
624.041	31.82
624.374	31.66
624.707	32.18
625.04	32.23
625.373	32.23
625.705	31.56
626.038	31.97
626.37	32.02
626.703	31.95
627.035	32.22
627.368	32.13
627.7	31.98
628.032	31.96
628.365	31.98
628.697	31.59
629.029	32.09
629.361	32.02
629.693	31.99
630.025	32.62
630.357	32.42
630.689	32.35
631.021	32.07
631.353	32.31
631.684	32.38
632.016	32.57
632.348	32.61
632.679	32.69
633.011	32.83
633.342	32.54
633.674	32.54
634.005	32.64
634.336	33.15
634.668	32.69
634.999	32.53
635.33	32.7
635.661	32.81
635.992	32.76
636.323	32.64
636.654	32.67
636.985	33.14
637.316	32.8
637.647	33.27
637.977	32.82
638.308	33.07
638.639	32.66
638.969	33.15
639.3	33.39
639.63	33.02
639.961	33.27
640.291	33.09
640.622	33.14
640.952	33.29
641.282	33.21
641.612	33.38
641.943	32.9
642.273	33.49
642.603	33.21
642.933	33.48
643.263	33.14
643.592	33.53
643.922	33.31
644.252	33.96
644.582	34.16
644.911	33.58
645.241	33.87
645.571	33.95
645.9	33.7
646.23	33.96
646.559	33.77
646.888	34.04
647.218	34.17
647.547	33.66
647.876	34.03
648.205	33.89
648.534	34.03
648.863	34.22
649.192	33.82
649.521	33.86
649.85	34.11
650.179	33.76
650.508	34.22
650.837	34.39
651.165	34.37
651.494	33.84
651.822	34.1
652.151	34.07
652.479	33.88
652.808	34.25
653.136	34.37
653.465	34.63
653.793	34.32
654.121	33.96
654.449	34.56
654.777	34.69
655.105	34.2
655.433	34.44
655.761	34.51
656.089	34.29
656.417	34.88
656.745	34.56
657.073	34.09
657.4	34.95
657.728	34.71
658.056	35.04
658.383	34.68
658.711	34.52
659.038	34.48
659.365	34.4
659.693	34.63
660.02	34.48
660.347	34.84
660.674	34.38
661.001	35
661.329	34.63
661.656	35.11
661.982	34.68
662.309	35.03
662.636	34.95
662.963	35.13
663.29	35.43
663.616	35.01
663.943	35.46
664.27	35
664.596	34.88
664.923	35.57
665.249	35.71
665.576	35.56
665.902	35.33
666.228	36.07
666.554	35.19
666.881	35.3
667.207	35.41
667.533	35.96
667.859	35.33
668.185	35.62
668.511	35.81
668.837	36.11
669.162	35.65
669.488	35.87
669.814	35.95
670.139	35.7
670.465	35.46
670.791	35.37
671.116	36.09
671.442	35.67
671.767	35.75
672.092	35.67
672.418	35.67
672.743	36.43
673.068	34.82
673.393	36.27
