Data from 20-5_crown_Reflection__0__05.txt Node

Date: Fri Nov 11 20:14:14 CST 2022
User: ToomeyLab
Spectrometer: FLMS14357
Trigger mode: 0
Integration Time (sec): 1.000000E-2
Scans to average: 100
Electric dark correction enabled: true
Nonlinearity correction enabled: false
Boxcar width: 0
XAxis mode: Wavelengths
Number of Pixels in Spectrum: 2048
>>>>>Begin Spectral Data<<<<<
189.047	42.86
189.435	42.86
189.823	42.86
190.211	331.5
190.599	-114.98
190.987	179.36
191.375	15.01
191.763	156.62
192.151	-3252.08
192.538	36.99
192.926	31.84
193.314	143.12
193.702	-51.31
194.089	1022.16
194.477	429.04
194.864	94.39
195.252	104.17
195.639	-105.07
196.027	369.35
196.414	-39.74
196.801	180.92
197.189	4.35
197.576	-92.76
197.963	73.79
198.351	6.1
198.738	27.07
199.125	-23.64
199.512	26.16
199.899	-73.96
200.286	26.3
200.673	-42.26
201.06	52.94
201.447	40.55
201.833	4.61
202.22	-40.56
202.607	-1.03
202.994	6.38
203.38	38.09
203.767	50.84
204.154	29.77
204.54	-44.93
204.927	26.1
205.313	-24.97
205.699	-67.33
206.086	46.47
206.472	34.74
206.858	27.59
207.245	45.5
207.631	-19.41
208.017	30.13
208.403	30.47
208.789	39.95
209.175	1.8
209.561	53.4
209.947	13.91
210.333	-2.63
210.719	46.26
211.105	36.33
211.491	20.64
211.876	31.82
212.262	41.68
212.648	54.35
213.034	22.91
213.419	-2.08
213.805	-7.79
214.19	6.16
214.576	37.8
214.961	-8.38
215.346	-10.67
215.732	-4.61
216.117	46.65
216.502	-0.29
216.888	-29.21
217.273	19.74
217.658	-23.16
218.043	15.45
218.428	-2.58
218.813	-3.61
219.198	1.86
219.583	0.07
219.968	7.81
220.353	1.89
220.738	-17.51
221.122	21.42
221.507	10.73
221.892	0.08
222.276	14.84
222.661	23.34
223.046	-15.7
223.43	8.74
223.815	4.54
224.199	9.86
224.583	-4
224.968	-10.7
225.352	9.05
225.736	-3.58
226.121	-0.27
226.505	4.38
226.889	-4.85
227.273	5.91
227.657	-1.02
228.041	-0.86
228.425	5.04
228.809	5.61
229.193	5.86
229.577	4.88
229.961	4.16
230.344	4.47
230.728	3
231.112	3.49
231.495	4.14
231.879	3.35
232.263	2.48
232.646	2.47
233.03	4.45
233.413	3.57
233.797	3.76
234.18	2.9
234.563	5.96
234.946	4.38
235.33	3.07
235.713	3.28
236.096	3.2
236.479	3.68
236.862	3.34
237.245	3.52
237.628	4.44
238.011	3.63
238.394	4.71
238.777	4.79
239.16	3.76
239.543	2.66
239.925	4.64
240.308	2.78
240.691	4.97
241.073	4.06
241.456	2.99
241.838	3.21
242.221	3.05
242.603	2.77
242.986	2.94
243.368	3.4
243.75	3.48
244.133	3.52
244.515	3.6
244.897	3.92
245.279	2.99
245.661	3.03
246.043	2.98
246.425	4.06
246.807	4.29
247.189	3.3
247.571	3.63
247.953	3.13
248.335	3.21
248.717	3.4
249.098	3.75
249.48	3.22
249.862	3.55
250.243	3.31
250.625	3.51
251.006	3.94
251.388	4.2
251.769	4.56
252.151	4.02
252.532	3.08
252.913	3.77
253.295	2.92
253.676	2.63
254.057	3.19
254.438	3.83
254.819	3.14
255.2	3.54
255.581	2.97
255.962	3.24
256.343	3.39
256.724	3.24
257.105	2.72
257.486	2.37
257.867	3.89
258.247	2.23
258.628	2.9
259.009	3.52
259.389	3.43
259.77	3.98
260.15	2.9
260.531	3.13
260.911	3.09
261.292	3.36
261.672	2.83
262.052	2.92
262.432	3.49
262.813	3.45
263.193	3.26
263.573	2.74
263.953	3.36
264.333	3.21
264.713	3.29
265.093	3.38
265.473	2.51
265.853	3.42
266.233	2.9
266.612	3.27
266.992	2.89
267.372	3.74
267.752	2.86
268.131	2.81
268.511	3.39
268.89	3.24
269.27	3.1
269.649	2.5
270.029	3.52
270.408	3.06
270.787	3
271.167	2.49
271.546	3.47
271.925	3.48
272.304	3.05
272.683	3.06
273.062	3.11
273.441	3.04
273.82	2.95
274.199	3.43
274.578	2.85
274.957	3.3
275.336	3.2
275.715	3.88
276.093	2.74
276.472	3.12
276.851	3.22
277.229	3.16
277.608	2.98
277.986	3.15
278.365	3.44
278.743	3.25
279.122	3.46
279.5	3.14
279.878	3.54
280.257	3.22
280.635	3.2
281.013	3.33
281.391	2.97
281.769	2.59
282.147	2.94
282.525	2.79
282.903	3.15
283.281	3.14
283.659	3.1
284.037	3.44
284.415	2.81
284.792	3.32
285.17	3.63
285.548	2.66
285.925	2.83
286.303	2.86
286.68	3.54
287.058	3.24
287.435	3.27
287.813	3.11
288.19	2.77
288.567	3.04
288.945	3.4
289.322	3.44
289.699	2.5
290.076	3.35
290.453	3.42
290.83	2.89
291.207	3.06
291.584	3.29
291.961	3.07
292.338	3.09
292.715	3.39
293.092	3.17
293.469	3.1
293.845	3.53
294.222	2.81
294.599	3.26
294.975	3.09
295.352	3.14
295.728	2.5
296.105	2.93
296.481	2.76
296.858	3.08
297.234	3.44
297.61	2.99
297.986	3.22
298.363	3.09
298.739	3.34
299.115	3.34
299.491	3.52
299.867	3.22
300.243	3.07
300.619	3.28
300.995	3.56
301.371	3.75
301.746	3.73
302.122	3.12
302.498	3.53
302.874	3.27
303.249	3.29
303.625	3.06
304	2.82
304.376	3.07
304.751	2.71
305.127	3.33
305.502	3.45
305.878	3.47
306.253	3.15
306.628	3.02
307.003	3.29
307.378	3.22
307.754	3.61
308.129	3.37
308.504	3.21
308.879	3.04
309.254	3.54
309.629	3.11
310.003	3.08
310.378	3.33
310.753	3.58
311.128	3.64
311.502	3.51
311.877	3.24
312.252	3.15
312.626	3.16
313.001	2.82
313.375	3.4
313.75	3.05
314.124	2.83
314.498	3.2
314.873	3.62
315.247	3.4
315.621	3.33
315.995	3.45
316.369	3.13
316.743	2.88
317.117	3.25
317.491	3.26
317.865	2.57
318.239	2.9
318.613	3.82
318.987	2.94
319.361	3.22
319.734	3.88
320.108	2.48
320.482	3.37
320.855	2.62
321.229	3.04
321.602	2.91
321.976	3.27
322.349	3.18
322.723	3.67
323.096	3.2
323.469	3.11
323.843	3.52
324.216	2.94
324.589	3.2
324.962	3.52
325.335	3.12
325.708	3.38
326.081	2.89
326.454	2.99
326.827	2.9
327.2	3.65
327.573	4.19
327.945	3.03
328.318	2.98
328.691	3.22
329.063	3.26
329.436	2.69
329.809	3.1
330.181	2.77
330.553	2.72
330.926	3.38
331.298	3.8
331.671	3.48
332.043	2.85
332.415	3.27
332.787	3.82
333.159	3.3
333.532	3.15
333.904	3.44
334.276	2.8
334.648	2.93
335.02	3.07
335.391	3.67
335.763	3.04
336.135	3.3
336.507	3.02
336.879	3.17
337.25	2.83
337.622	3.62
337.993	3.51
338.365	3.61
338.736	3.24
339.108	3.36
339.479	2.83
339.851	3.08
340.222	3.33
340.593	3.51
340.964	3.37
341.336	3.1
341.707	3.32
342.078	3.21
342.449	3.19
342.82	3.28
343.191	3.33
343.562	3.34
343.933	2.86
344.303	3.06
344.674	3.21
345.045	3.11
345.416	3.57
345.786	2.65
346.157	3.07
346.527	3.14
346.898	2.59
347.268	2.82
347.639	3.38
348.009	3.05
348.38	3.14
348.75	3.08
349.12	3.92
349.49	3.27
349.861	3.23
350.231	3.56
350.601	2.97
350.971	3.28
351.341	3.55
351.711	3.17
352.081	3.49
352.45	3.59
352.82	3.03
353.19	3.6
353.56	2.98
353.929	3.18
354.299	3.25
354.669	3.4
355.038	3.22
355.408	3.66
355.777	3.17
356.147	3.59
356.516	3.07
356.885	3.17
357.254	3.1
357.624	2.99
357.993	3.4
358.362	3.22
358.731	2.66
359.1	2.94
359.469	2.88
359.838	3.08
360.207	3.42
360.576	3.11
360.945	3.41
361.314	2.69
361.682	3.03
362.051	3.15
362.42	3.18
362.788	3.43
363.157	3.14
363.525	2.91
363.894	2.96
364.262	3.33
364.631	3.17
364.999	3.04
365.367	3.26
365.735	3.27
366.104	2.91
366.472	3.24
366.84	2.78
367.208	2.87
367.576	3.22
367.944	3.44
368.312	3.45
368.68	3.16
369.048	3.43
369.416	2.98
369.783	3.65
370.151	3.45
370.519	3.3
370.886	3.33
371.254	3.32
371.621	3.01
371.989	3.34
372.356	3.26
372.724	3.54
373.091	3.28
373.458	3.26
373.826	3.13
374.193	3.13
374.56	3.34
374.927	3.3
375.294	3.34
375.661	3.51
376.028	2.9
376.395	3.41
376.762	3.47
377.129	3.01
377.496	3.22
377.863	3.26
378.229	3.14
378.596	3.28
378.963	3.12
379.329	3.36
379.696	3.12
380.062	3.47
380.429	3.26
380.795	3.5
381.161	3.41
381.528	3.58
381.894	3.5
382.26	3.52
382.626	3.54
382.993	3.32
383.359	3.65
383.725	3.13
384.091	3.55
384.457	3.38
384.823	3.44
385.188	3.14
385.554	3.28
385.92	3.37
386.286	3.35
386.651	3.28
387.017	3.15
387.383	3.5
387.748	3.26
388.114	3.1
388.479	3.25
388.845	3.36
389.21	3.06
389.575	3.36
389.94	3.38
390.306	3.08
390.671	3.12
391.036	3.44
391.401	3.59
391.766	3.28
392.131	3.37
392.496	3.21
392.861	3.22
393.226	2.98
393.591	3.24
393.956	3.31
394.32	3.48
394.685	3.27
395.05	3.48
395.414	3.22
395.779	3.33
396.143	3.3
396.508	3.59
396.872	3.3
397.236	3.18
397.601	3.36
397.965	3.23
398.329	3.27
398.694	3.51
399.058	3.32
399.422	3.27
399.786	3.08
400.15	3.45
400.514	3.63
400.878	3.42
401.242	3.23
401.605	3.48
401.969	3.42
402.333	3.14
402.697	3.4
403.06	3.7
403.424	3
403.787	3.28
404.151	3.15
404.514	3.41
404.878	3.33
405.241	3.28
405.604	3.12
405.968	3.42
406.331	3.12
406.694	3.32
407.057	3.35
407.42	3.4
407.783	3.49
408.146	3.52
408.509	3.67
408.872	3.63
409.235	3.51
409.598	3.44
409.961	3.75
410.323	3.35
410.686	3.51
411.049	3.33
411.411	3.3
411.774	3.36
412.136	3.28
412.499	3.4
412.861	3.35
413.223	3.24
413.586	3.5
413.948	3.71
414.31	3.66
414.672	3.47
415.035	3.38
415.397	3.3
415.759	3.18
416.121	3.55
416.483	3.26
416.845	3.49
417.206	3.34
417.568	3.16
417.93	3.48
418.292	3.21
418.653	3.34
419.015	3.36
419.377	3.18
419.738	3.35
420.1	3.34
420.461	3.27
420.822	3.17
421.184	3.28
421.545	3.27
421.906	3.2
422.267	3.24
422.629	3.14
422.99	3.21
423.351	3.26
423.712	3.26
424.073	3.3
424.434	3.35
424.795	3.37
425.155	3.26
425.516	3.39
425.877	3.25
426.238	3.23
426.598	3.29
426.959	3.25
427.32	3.34
427.68	3.47
428.041	3.51
428.401	3.14
428.761	3.44
429.122	3.3
429.482	3.47
429.842	3.31
430.202	3.57
430.563	3.56
430.923	3.47
431.283	3.25
431.643	3.4
432.003	3.48
432.363	3.41
432.722	3.6
433.082	3.41
433.442	3.49
433.802	3.55
434.161	3.37
434.521	3.37
434.881	3.52
435.24	3.44
435.6	3.34
435.959	3.53
436.319	3.38
436.678	3.47
437.037	3.54
437.396	3.61
437.756	3.29
438.115	3.48
438.474	3.23
438.833	3.37
439.192	3.45
439.551	3.36
439.91	3.53
440.269	3.36
440.628	3.52
440.987	3.38
441.345	3.42
441.704	3.39
442.063	3.31
442.421	3.26
442.78	3.28
443.138	3.53
443.497	3.31
443.855	3.38
444.214	3.41
444.572	3.58
444.93	3.56
445.288	3.52
445.647	3.54
446.005	3.53
446.363	3.46
446.721	3.46
447.079	3.43
447.437	3.28
447.795	3.37
448.153	3.38
448.51	3.45
448.868	3.45
449.226	3.4
449.584	3.43
449.941	3.41
450.299	3.36
450.656	3.51
451.014	3.52
451.371	3.48
451.729	3.48
452.086	3.52
452.443	3.44
452.801	3.61
453.158	3.51
453.515	3.5
453.872	3.27
454.229	3.44
454.586	3.54
454.943	3.56
455.3	3.51
455.657	3.66
456.014	3.54
456.371	3.47
456.727	3.63
457.084	3.29
457.441	3.53
457.797	3.5
458.154	3.41
458.51	3.61
458.867	3.45
459.223	3.53
459.58	3.68
459.936	3.48
460.292	3.43
460.648	3.54
461.005	3.47
461.361	3.38
461.717	3.34
462.073	3.51
462.429	3.48
462.785	3.47
463.141	3.44
463.496	3.52
463.852	3.8
464.208	3.52
464.564	3.49
464.919	3.57
465.275	3.47
465.631	3.44
465.986	3.71
466.342	3.68
466.697	3.51
467.052	3.65
467.408	3.61
467.763	3.46
468.118	3.57
468.473	3.63
468.829	3.53
469.184	3.63
469.539	3.69
469.894	3.61
470.249	3.65
470.603	3.49
470.958	3.49
471.313	3.74
471.668	3.72
472.023	3.48
472.377	3.67
472.732	3.71
473.086	3.48
473.441	3.6
473.795	3.7
474.15	3.55
474.504	3.63
474.859	3.75
475.213	3.69
475.567	3.62
475.921	3.64
476.275	3.54
476.63	3.67
476.984	3.71
477.338	3.69
477.692	3.47
478.045	3.55
478.399	3.72
478.753	3.46
479.107	3.6
479.461	3.64
479.814	3.56
480.168	3.65
480.521	3.69
480.875	3.7
481.228	3.45
481.582	3.78
481.935	3.57
482.289	3.56
482.642	3.67
482.995	3.58
483.348	3.57
483.701	3.64
484.055	3.59
484.408	3.51
484.761	3.37
485.114	3.27
485.466	3.23
485.819	3.28
486.172	3.33
486.525	3.43
486.878	3.49
487.23	3.48
487.583	3.55
487.936	3.47
488.288	3.5
488.641	3.38
488.993	3.39
489.345	3.33
489.698	3.39
490.05	3.4
490.402	3.46
490.754	3.58
491.107	3.45
491.459	3.58
491.811	3.58
492.163	3.61
492.515	3.58
492.866	3.45
493.218	3.41
493.57	3.42
493.922	3.48
494.274	3.57
494.625	3.61
494.977	3.73
495.328	3.72
495.68	3.62
496.031	3.66
496.383	3.6
496.734	3.64
497.086	3.71
497.437	3.82
497.788	3.61
498.139	3.54
498.49	3.53
498.842	3.56
499.193	3.7
499.544	3.67
499.894	3.57
500.245	3.75
500.596	3.65
500.947	3.75
501.298	3.74
501.648	3.73
501.999	3.71
502.35	3.88
502.7	3.76
503.051	3.62
503.401	3.71
503.752	3.67
504.102	3.55
504.452	3.72
504.803	3.75
505.153	3.61
505.503	3.68
505.853	3.73
506.203	3.79
506.553	3.61
506.903	3.77
507.253	3.76
507.603	3.72
507.953	3.67
508.303	3.67
508.652	3.73
509.002	3.63
509.352	3.74
509.701	3.87
510.051	3.65
510.4	3.77
510.75	3.65
511.099	3.64
511.449	3.7
511.798	3.66
512.147	3.62
512.496	3.73
512.846	3.84
513.195	3.72
513.544	3.7
513.893	3.61
514.242	3.72
514.591	3.81
514.939	3.66
515.288	3.74
515.637	3.79
515.986	3.73
516.334	3.81
516.683	3.76
517.032	3.77
517.38	3.75
517.729	3.74
518.077	3.81
518.426	3.89
518.774	3.75
519.122	3.74
519.47	3.72
519.819	3.66
520.167	3.63
520.515	3.67
520.863	3.73
521.211	3.7
521.559	3.65
521.907	3.82
522.255	3.78
522.602	3.77
522.95	3.76
523.298	3.92
523.645	3.84
523.993	3.88
524.341	3.83
524.688	3.71
525.036	3.8
525.383	3.75
525.73	3.76
526.078	3.66
526.425	3.72
526.772	3.74
527.119	3.62
527.466	3.7
527.814	3.69
528.161	3.79
528.508	3.71
528.854	3.61
529.201	3.61
529.548	3.57
529.895	3.53
530.242	3.47
530.588	3.51
530.935	3.55
531.282	3.61
531.628	3.69
531.975	3.72
532.321	3.64
532.667	3.71
533.014	3.73
533.36	3.76
533.706	3.8
534.052	3.7
534.399	3.62
534.745	3.56
535.091	3.6
535.437	3.62
535.783	3.7
536.129	3.77
536.474	3.84
536.82	3.71
537.166	3.81
537.512	3.72
537.857	3.67
538.203	3.68
538.549	3.75
538.894	3.72
539.239	3.8
539.585	3.85
539.93	3.87
540.276	4.02
540.621	3.91
540.966	3.92
541.311	3.82
541.656	3.89
542.001	3.82
542.346	3.7
542.691	3.63
543.036	3.57
543.381	3.62
543.726	3.61
544.071	3.71
544.415	3.81
544.76	3.76
545.105	3.73
545.449	3.71
545.794	3.87
546.138	3.75
546.483	3.94
546.827	3.86
547.171	3.75
547.516	3.77
547.86	3.77
548.204	3.83
548.548	3.75
548.892	3.74
549.236	3.79
549.58	3.92
549.924	4.05
550.268	3.98
550.612	4
550.956	4.09
551.3	3.86
551.643	4.08
551.987	4.03
552.33	3.89
552.674	3.94
553.017	4.05
553.361	4.04
553.704	3.93
554.048	3.86
554.391	3.94
554.734	3.74
555.077	3.95
555.42	3.95
555.764	3.97
556.107	3.94
556.45	4
556.793	4.13
557.135	4.07
557.478	3.99
557.821	4.1
558.164	3.9
558.507	4.08
558.849	3.94
559.192	3.97
559.534	3.96
559.877	4.09
560.219	4.14
560.562	3.9
560.904	4.05
561.246	3.97
561.589	4.11
561.931	3.9
562.273	3.92
562.615	3.94
562.957	3.92
563.299	4.14
563.641	3.83
563.983	4.08
564.325	3.94
564.667	4.01
565.008	4.17
565.35	4.01
565.692	3.89
566.033	4.06
566.375	3.95
566.716	4.14
567.058	4.06
567.399	4.15
567.741	4.1
568.082	3.9
568.423	4.08
568.764	4.08
569.105	4.03
569.447	4.15
569.788	4.19
570.129	4.02
570.47	4.08
570.811	4.02
571.151	4.39
571.492	3.95
571.833	3.93
572.174	4.11
572.514	4.11
572.855	4.09
573.195	3.74
573.536	4
573.876	4.06
574.217	4.13
574.557	3.98
574.898	4.05
575.238	3.89
575.578	4.11
575.918	4.03
576.258	4.22
576.598	4.01
576.938	4.06
577.278	3.99
577.618	4
577.958	3.96
578.298	4.21
578.638	4.13
578.977	4.19
579.317	4.16
579.657	4.13
579.996	3.89
580.336	4
580.675	4.06
581.014	4.01
581.354	4.2
581.693	3.94
582.032	4.29
582.372	4.2
582.711	4.18
583.05	4.09
583.389	4.26
583.728	4.03
584.067	4
584.406	4.06
584.745	4.28
585.083	4.12
585.422	4.16
585.761	4.34
586.1	4.06
586.438	4.03
586.777	4.11
587.115	4.15
587.454	4.08
587.792	4.25
588.13	4.02
588.469	4.17
588.807	4.12
589.145	4
589.483	4.45
589.821	4.12
590.159	4.24
590.497	4.27
590.835	3.99
591.173	4.29
591.511	3.96
591.849	3.84
592.187	4.12
592.524	3.83
592.862	3.99
593.2	4.08
593.537	4.19
593.875	4.22
594.212	4.12
594.55	4.23
594.887	4.08
595.224	4.01
595.561	4.06
595.899	3.98
596.236	4.07
596.573	4.06
596.91	4.04
597.247	4.07
597.584	4.04
597.921	4.39
598.258	3.95
598.594	4.12
598.931	3.93
599.268	4.08
599.604	4.19
599.941	4.15
600.277	4.2
600.614	4.37
600.95	4.04
601.287	4.1
601.623	4.63
601.959	4.21
602.296	4.18
602.632	4.28
602.968	4.22
603.304	4.22
603.64	4.41
603.976	4.31
604.312	4.23
604.648	4.09
604.984	4.13
605.319	4.22
605.655	4.09
605.991	4.1
606.326	4.28
606.662	4.28
606.998	4.1
607.333	4.07
607.668	4.08
608.004	4.12
608.339	4.18
608.674	4.06
609.01	4.1
609.345	4.12
609.68	4.07
610.015	4.27
610.35	4.04
610.685	4.13
611.02	4.2
611.355	3.93
611.689	4.13
612.024	4.12
612.359	4.11
612.694	4.21
613.028	4.2
613.363	4.12
613.697	4.26
614.032	4.17
614.366	4.38
614.7	4.17
615.035	4.16
615.369	4.03
615.703	4.23
616.037	4.32
616.371	4.48
616.705	4.3
617.039	4.4
617.373	4.33
617.707	4.36
618.041	4.41
618.375	4.05
618.709	4.82
619.042	4.53
619.376	4.36
619.71	4.26
620.043	4.44
620.377	4.21
620.71	4.42
621.043	4.13
621.377	4.44
621.71	4.32
622.043	4.17
622.376	4.58
622.709	4.2
623.043	4.27
623.376	4.62
623.709	4.83
624.041	4.45
624.374	4.11
624.707	4.42
625.04	4.32
625.373	4.43
625.705	4.42
626.038	4.31
626.37	4.44
626.703	4.41
627.035	4.45
627.368	4.07
627.7	4.14
628.032	4.13
628.365	4.42
628.697	4.14
629.029	3.96
629.361	4.17
629.693	4.42
630.025	4.22
630.357	4.37
630.689	4.24
631.021	3.87
631.353	4.41
631.684	4.33
632.016	4.34
632.348	4.12
632.679	4.18
633.011	4.46
633.342	4.41
633.674	4.13
634.005	4.57
634.336	4.43
634.668	4.26
634.999	4.51
635.33	4.09
635.661	4.82
635.992	4.39
636.323	4.25
636.654	4.45
636.985	4.21
637.316	4.51
637.647	4.65
637.977	4.76
638.308	4.34
638.639	4.07
638.969	4.19
639.3	4.37
639.63	4.77
639.961	4.18
640.291	4.57
640.622	4.48
640.952	4.65
641.282	4.27
641.612	3.73
641.943	5.02
642.273	4.2
642.603	4.54
642.933	4.64
643.263	4.44
643.592	4.8
643.922	4.29
644.252	4.9
644.582	4.5
644.911	4.01
645.241	4.34
645.571	4.2
645.9	4.37
646.23	4.61
646.559	4.55
646.888	4.13
647.218	4.31
647.547	4.35
647.876	4.49
648.205	4.36
648.534	4.07
648.863	4.19
649.192	4.01
649.521	4.21
649.85	4.5
650.179	4.22
650.508	4.66
650.837	4.87
651.165	4.25
651.494	4.73
651.822	4.37
652.151	4.12
652.479	4.33
652.808	4.19
653.136	4.5
653.465	4.8
653.793	4.65
654.121	4.29
654.449	3.97
654.777	4.96
655.105	4.23
655.433	4.31
655.761	4.37
656.089	4.36
656.417	4.34
656.745	4.38
657.073	4.5
657.4	4.48
657.728	4.7
658.056	4.99
658.383	4.56
658.711	4.32
659.038	4.26
659.365	4.13
659.693	4.62
660.02	4.71
660.347	4.46
660.674	4.59
661.001	4.36
661.329	4.21
661.656	4.3
661.982	4.63
662.309	4.21
662.636	4.79
662.963	4.11
663.29	4.52
663.616	4.31
663.943	4.62
664.27	4.3
664.596	4.72
664.923	4.35
665.249	4.61
665.576	5.08
665.902	4.95
666.228	4.26
666.554	4.34
666.881	4.33
667.207	4.45
667.533	5.11
667.859	4.82
668.185	4.72
668.511	4.99
668.837	4.55
669.162	4.57
669.488	4.65
669.814	4.81
670.139	4.36
670.465	4.48
670.791	4.03
671.116	4.58
671.442	4.33
671.767	4.89
672.092	4.06
672.418	4.19
672.743	4.48
673.068	4.69
673.393	4.82
673.718	4.51
674.043	4.26
674.368	4.48
674.693	4.08
675.018	4.28
675.343	5.06
675.667	5.22
675.992	5.03
676.317	4.69
676.641	4.43
676.966	4.55
677.29	4.85
677.615	4.53
677.939	4.94
678.264	4.9
678.588	4.1
678.912	4.82
679.236	4.87
679.56	4.57
679.885	4.04
680.209	4.32
680.532	4.78
680.856	5.22
681.18	4.61
681.504	4.57
681.828	4.69
682.152	4.67
682.475	4.4
682.799	4.31
683.122	4.43
683.446	5.04
683.769	4.81
684.093	4.47
684.416	4.27
684.739	5.33
685.062	4.66
685.386	4.9
685.709	4.7
686.032	4.46
686.355	4.76
686.678	4.8
687.001	4.63
687.324	4.39
687.646	4.33
687.969	4.88
688.292	5.38
688.614	5.05
688.937	5
689.26	3.47
689.582	5.11
689.904	4.51
690.227	4.57
690.549	4.42
690.871	4.69
691.194	4.9
691.516	4.5
691.838	5.03
692.16	4.63
692.482	4.92
692.804	3.86
