Data from 20-5_chest_Reflection__2__02.txt Node

Date: Fri Nov 11 20:12:56 CST 2022
User: ToomeyLab
Spectrometer: FLMS14357
Trigger mode: 0
Integration Time (sec): 1.000000E-2
Scans to average: 100
Electric dark correction enabled: true
Nonlinearity correction enabled: false
Boxcar width: 0
XAxis mode: Wavelengths
Number of Pixels in Spectrum: 2048
>>>>>Begin Spectral Data<<<<<
189.047	-22.57
189.435	-22.57
189.823	-22.57
190.211	-600.25
190.599	51.95
190.987	37.79
191.375	24.17
191.763	43.24
192.151	2282.29
192.538	164.67
192.926	-1.48
193.314	265.06
193.702	16.61
194.089	876.99
194.477	81.18
194.864	178.38
195.252	121.06
195.639	-80.26
196.027	-321.28
196.414	37.35
196.801	-310.42
197.189	86.73
197.576	-15.68
197.963	39.37
198.351	5.63
198.738	49.6
199.125	66.57
199.512	57.45
199.899	-71.45
200.286	15.56
200.673	12.26
201.06	83.1
201.447	21.74
201.833	22.32
202.22	45.06
202.607	54.23
202.994	33.17
203.38	53.24
203.767	37.94
204.154	39.64
204.54	50.23
204.927	30.13
205.313	-38.97
205.699	-13.05
206.086	22.61
206.472	25.61
206.858	54.49
207.245	31.93
207.631	16.04
208.017	-1.12
208.403	10.11
208.789	33.05
209.175	51.28
209.561	51.86
209.947	24.07
210.333	19.11
210.719	40.48
211.105	48.04
211.491	13.85
211.876	31.56
212.262	47.05
212.648	5.1
213.034	4.16
213.419	28.72
213.805	-2.27
214.19	13.58
214.576	39.9
214.961	-17.2
215.346	4.33
215.732	27.36
216.117	24.73
216.502	31.05
216.888	3.14
217.273	41.19
217.658	8.08
218.043	19.26
218.428	12.87
218.813	26.18
219.198	22.25
219.583	9.28
219.968	12.6
220.353	10.47
220.738	15.5
221.122	27.71
221.507	-4.47
221.892	27.11
222.276	37.24
222.661	29.88
223.046	-4.51
223.43	-1.9
223.815	21.98
224.199	16.85
224.583	4.66
224.968	-1.77
225.352	12.76
225.736	8.62
226.121	7.93
226.505	9.01
226.889	0.59
227.273	11.49
227.657	-2.12
228.041	2.23
228.425	6.08
228.809	6.48
229.193	6.95
229.577	4.5
229.961	4
230.344	4.36
230.728	3.3
231.112	3.14
231.495	4.17
231.879	4.43
232.263	5.93
232.646	3.16
233.03	4.87
233.413	5.67
233.797	6.78
234.18	3.61
234.563	5.47
234.946	3.32
235.33	5.29
235.713	3.93
236.096	4.59
236.479	5.3
236.862	6.31
237.245	4.26
237.628	5.07
238.011	3.51
238.394	6.21
238.777	3.57
239.16	4.8
239.543	3.27
239.925	3.32
240.308	4.4
240.691	4.59
241.073	3.62
241.456	4.14
241.838	5.59
242.221	3.7
242.603	4.82
242.986	2.79
243.368	3.86
243.75	3.53
244.133	3.51
244.515	3.48
244.897	4.38
245.279	3.31
245.661	4.29
246.043	4
246.425	4.98
246.807	4.39
247.189	2.82
247.571	4.09
247.953	3.7
248.335	3.45
248.717	3.56
249.098	3.81
249.48	3.53
249.862	3.89
250.243	3.57
250.625	3.55
251.006	5.04
251.388	3.9
251.769	4.24
252.151	3.82
252.532	3.74
252.913	4.43
253.295	3.63
253.676	2.94
254.057	3.38
254.438	3.86
254.819	3.01
255.2	4.52
255.581	4.88
255.962	2.7
256.343	3.6
256.724	3.32
257.105	4.34
257.486	3.9
257.867	4.27
258.247	2.41
258.628	3.74
259.009	2.91
259.389	2.85
259.77	3.97
260.15	3.66
260.531	3.1
260.911	3.03
261.292	3.48
261.672	3.01
262.052	3.12
262.432	3.58
262.813	3.58
263.193	3.6
263.573	3.44
263.953	3.38
264.333	3.35
264.713	3.34
265.093	3.69
265.473	2.67
265.853	3.53
266.233	3.41
266.612	3.66
266.992	3.84
267.372	3.77
267.752	2.88
268.131	2.61
268.511	3.59
268.89	2.93
269.27	3.05
269.649	2.86
270.029	3.36
270.408	3.58
270.787	3.13
271.167	2.21
271.546	3.2
271.925	3.5
272.304	2.88
272.683	3.02
273.062	3.21
273.441	3.14
273.82	3.37
274.199	2.73
274.578	2.74
274.957	3.35
275.336	3.61
275.715	3.26
276.093	2.72
276.472	3.14
276.851	3.17
277.229	3.21
277.608	3.43
277.986	3.8
278.365	3.02
278.743	2.99
279.122	3.86
279.5	3.38
279.878	3.45
280.257	3.83
280.635	2.93
281.013	3.23
281.391	3.39
281.769	2.69
282.147	3.27
282.525	2.58
282.903	2.85
283.281	2.87
283.659	3.14
284.037	3.45
284.415	3.13
284.792	3.17
285.17	3.66
285.548	2.47
285.925	3.04
286.303	2.79
286.68	3.13
287.058	3.08
287.435	2.74
287.813	3.04
288.19	2.96
288.567	3.25
288.945	3.21
289.322	3.58
289.699	2.94
290.076	3.71
290.453	3.06
290.83	3.14
291.207	3.47
291.584	3.23
291.961	2.87
292.338	3.06
292.715	3.37
293.092	3.49
293.469	3.16
293.845	3.62
294.222	3.14
294.599	3.33
294.975	3.29
295.352	3.45
295.728	3.16
296.105	3.15
296.481	2.99
296.858	3.24
297.234	3.43
297.61	3.21
297.986	3.47
298.363	3.42
298.739	3.3
299.115	3.59
299.491	3.89
299.867	3.32
300.243	3.4
300.619	3.22
300.995	3.41
301.371	3.96
301.746	3.39
302.122	3.73
302.498	3.6
302.874	3.72
303.249	3.33
303.625	2.9
304	3.39
304.376	3.76
304.751	3.23
305.127	3.31
305.502	3.97
305.878	3.8
306.253	3.73
306.628	3.28
307.003	3.65
307.378	3.19
307.754	4.2
308.129	4.22
308.504	3.68
308.879	3.74
309.254	3.96
309.629	3.2
310.003	3.39
310.378	3.81
310.753	3.71
311.128	4.07
311.502	3.94
311.877	3.34
312.252	3.65
312.626	3.82
313.001	3.32
313.375	3.47
313.75	3.47
314.124	3.48
314.498	3.98
314.873	3.71
315.247	3.86
315.621	3.86
315.995	3.67
316.369	3.93
316.743	3.66
317.117	3.95
317.491	3.62
317.865	3.53
318.239	3.88
318.613	3.94
318.987	3.63
319.361	3.49
319.734	4.08
320.108	3.42
320.482	3.86
320.855	3.53
321.229	3.84
321.602	3.56
321.976	4.02
322.349	3.93
322.723	3.7
323.096	3.89
323.469	3.99
323.843	3.73
324.216	3.53
324.589	3.61
324.962	4.11
325.335	3.27
325.708	3.95
326.081	3.72
326.454	3.59
326.827	3.22
327.2	3.75
327.573	4.6
327.945	3.97
328.318	3.6
328.691	4.3
329.063	4.11
329.436	4.18
329.809	3.94
330.181	3.72
330.553	3.54
330.926	3.79
331.298	3.91
331.671	4.1
332.043	3.68
332.415	3.74
332.787	4.24
333.159	3.98
333.532	4.14
333.904	4.55
334.276	3.76
334.648	3.57
335.02	3.79
335.391	4.56
335.763	3.6
336.135	3.34
336.507	3.3
336.879	3.73
337.25	3.52
337.622	3.79
337.993	4.28
338.365	4.4
338.736	4.13
339.108	3.61
339.479	3.69
339.851	4.06
340.222	3.76
340.593	4.33
340.964	4.08
341.336	4.25
341.707	3.74
342.078	3.63
342.449	3.97
342.82	3.78
343.191	4.22
343.562	3.91
343.933	3.88
344.303	3.99
344.674	4.09
345.045	3.89
345.416	4.31
345.786	3.87
346.157	3.82
346.527	4.07
346.898	3.32
347.268	3.68
347.639	4
348.009	3.58
348.38	3.88
348.75	3.88
349.12	4.11
349.49	4.11
349.861	3.76
350.231	4.16
350.601	4.33
350.971	4.01
351.341	4.14
351.711	3.96
352.081	4.08
352.45	4.4
352.82	3.95
353.19	4.17
353.56	4.31
353.929	3.88
354.299	3.64
354.669	3.85
355.038	3.67
355.408	4.1
355.777	3.74
356.147	3.84
356.516	4.26
356.885	4.02
357.254	3.91
357.624	3.68
357.993	3.97
358.362	4.07
358.731	3.43
359.1	3.68
359.469	3.46
359.838	3.57
360.207	4.05
360.576	3.83
360.945	4.01
361.314	3.83
361.682	3.85
362.051	3.63
362.42	4.19
362.788	4.17
363.157	3.86
363.525	3.88
363.894	3.76
364.262	3.96
364.631	4.03
364.999	3.96
365.367	3.95
365.735	3.74
366.104	3.66
366.472	3.73
366.84	3.35
367.208	3.92
367.576	4.33
367.944	4.31
368.312	3.67
368.68	3.77
369.048	3.9
369.416	3.83
369.783	4.05
370.151	4.03
370.519	4.15
370.886	3.89
371.254	4.2
371.621	4.12
371.989	4.1
372.356	4.03
372.724	4.4
373.091	4.17
373.458	4.08
373.826	3.83
374.193	3.95
374.56	3.84
374.927	4.02
375.294	3.99
375.661	4.31
376.028	4.01
376.395	3.97
376.762	4.12
377.129	4.09
377.496	4.02
377.863	4.14
378.229	4.01
378.596	3.81
378.963	3.94
379.329	4.16
379.696	3.98
380.062	4.04
380.429	3.93
380.795	4.36
381.161	4.06
381.528	4.07
381.894	4.41
382.26	4.48
382.626	4.45
382.993	4.04
383.359	4.28
383.725	4.01
384.091	4.09
384.457	4.22
384.823	4.27
385.188	3.99
385.554	4.23
385.92	3.77
386.286	3.94
386.651	4.2
387.017	4.23
387.383	4.18
387.748	4.1
388.114	4.29
388.479	3.97
388.845	4.23
389.21	4.03
389.575	4.16
389.94	4.02
390.306	4.14
390.671	4.33
391.036	4.16
391.401	4.22
391.766	4.14
392.131	3.95
392.496	4.07
392.861	4.01
393.226	4.23
393.591	3.95
393.956	4.22
394.32	4.19
394.685	4.24
395.05	4.21
395.414	4.02
395.779	4.15
396.143	4.2
396.508	4.31
396.872	4.5
397.236	4.12
397.601	4.08
397.965	4.32
398.329	4.19
398.694	4.19
399.058	4.27
399.422	4.15
399.786	4.21
400.15	4.25
400.514	4.2
400.878	4.25
401.242	4.2
401.605	4.29
401.969	4.36
402.333	4.16
402.697	4.36
403.06	4.58
403.424	3.93
403.787	4.46
404.151	4.11
404.514	4.29
404.878	4.2
405.241	4.23
405.604	4.21
405.968	4.25
406.331	3.99
406.694	4.19
407.057	4.22
407.42	4.38
407.783	4.14
408.146	4.29
408.509	4.42
408.872	4.34
409.235	4.35
409.598	4.25
409.961	4.22
410.323	4.38
410.686	4.28
411.049	4.15
411.411	4.25
411.774	4.26
412.136	4.35
412.499	4.52
412.861	4.27
413.223	4.14
413.586	4.33
413.948	4.63
414.31	4.3
414.672	4.3
415.035	4.26
415.397	4.3
415.759	4.32
416.121	4.22
416.483	4.29
416.845	4.34
417.206	4.27
417.568	4.25
417.93	4.26
418.292	4.14
418.653	4.36
419.015	4.3
419.377	4.28
419.738	4.38
420.1	4.25
420.461	4.45
420.822	4.28
421.184	4.2
421.545	4.2
421.906	4.25
422.267	4.17
422.629	4.05
422.99	4.18
423.351	4.27
423.712	4.25
424.073	4.3
424.434	4.27
424.795	4.43
425.155	4.32
425.516	4.27
425.877	4.26
426.238	4.3
426.598	4.26
426.959	4.24
427.32	4.33
427.68	4.31
428.041	4.36
428.401	4.19
428.761	4.47
429.122	4.39
429.482	4.35
429.842	4.4
430.202	4.37
430.563	4.56
430.923	4.48
431.283	4.37
431.643	4.43
432.003	4.62
432.363	4.36
432.722	4.73
433.082	4.63
433.442	4.71
433.802	4.51
434.161	4.42
434.521	4.56
434.881	4.6
435.24	4.47
435.6	4.47
435.959	4.58
436.319	4.52
436.678	4.53
437.037	4.59
437.396	4.5
437.756	4.44
438.115	4.5
438.474	4.47
438.833	4.53
439.192	4.54
439.551	4.41
439.91	4.6
440.269	4.45
440.628	4.54
440.987	4.57
441.345	4.48
441.704	4.4
442.063	4.46
442.421	4.47
442.78	4.5
443.138	4.57
443.497	4.53
443.855	4.61
444.214	4.48
444.572	4.66
444.93	4.46
445.288	4.57
445.647	4.73
446.005	4.72
446.363	4.73
446.721	4.69
447.079	4.63
447.437	4.51
447.795	4.64
448.153	4.49
448.51	4.54
448.868	4.62
449.226	4.59
449.584	4.54
449.941	4.64
450.299	4.53
450.656	4.78
451.014	4.82
451.371	4.71
451.729	4.75
452.086	4.72
452.443	4.68
452.801	4.89
453.158	4.68
453.515	4.62
453.872	4.71
454.229	4.7
454.586	4.7
454.943	4.84
455.3	4.76
455.657	4.82
456.014	4.77
456.371	4.85
456.727	4.87
457.084	4.66
457.441	5.03
457.797	4.75
458.154	4.89
458.51	4.85
458.867	4.86
459.223	4.89
459.58	4.75
459.936	4.88
460.292	4.92
460.648	4.82
461.005	4.69
461.361	4.76
461.717	4.66
462.073	4.84
462.429	4.74
462.785	4.74
463.141	4.8
463.496	4.73
463.852	5.02
464.208	5.07
464.564	5.02
464.919	5
465.275	4.83
465.631	4.96
465.986	4.98
466.342	4.87
466.697	4.99
467.052	4.98
467.408	4.98
467.763	4.92
468.118	4.98
468.473	5.08
468.829	4.98
469.184	5.09
469.539	5.2
469.894	5
470.249	5.03
470.603	4.99
470.958	4.9
471.313	5.06
471.668	5.2
472.023	4.96
472.377	5.01
472.732	5.03
473.086	5.08
473.441	5.12
473.795	5.12
474.15	5.1
474.504	5.23
474.859	5.1
475.213	5.13
475.567	5.11
475.921	5.11
476.275	5.05
476.63	5.27
476.984	5.26
477.338	5.11
477.692	5.01
478.045	5
478.399	5.1
478.753	5.04
479.107	5.22
479.461	5.08
479.814	5.06
480.168	5.06
480.521	5.19
480.875	5.27
481.228	5.18
481.582	5.17
481.935	5.09
482.289	5.07
482.642	5.14
482.995	5.17
483.348	5.06
483.701	5.11
484.055	5.07
484.408	5.03
484.761	4.84
485.114	4.79
485.466	4.8
485.819	4.87
486.172	4.87
486.525	4.92
486.878	4.98
487.23	5.04
487.583	5.04
487.936	5.04
488.288	5.07
488.641	5.06
488.993	5.05
489.345	4.94
489.698	4.99
490.05	5
490.402	5.04
490.754	5.1
491.107	5.09
491.459	5.07
491.811	5.22
492.163	5.22
492.515	5.21
492.866	5.1
493.218	5.07
493.57	5.1
493.922	5.15
494.274	5.2
494.625	5.25
494.977	5.3
495.328	5.29
495.68	5.31
496.031	5.39
496.383	5.5
496.734	5.46
497.086	5.54
497.437	5.42
497.788	5.38
498.139	5.29
498.49	5.32
498.842	5.27
499.193	5.39
499.544	5.46
499.894	5.33
500.245	5.48
500.596	5.52
500.947	5.44
501.298	5.5
501.648	5.52
501.999	5.52
502.35	5.63
502.7	5.64
503.051	5.51
503.401	5.58
503.752	5.58
504.102	5.5
504.452	5.64
504.803	5.61
505.153	5.47
505.503	5.57
505.853	5.6
506.203	5.66
506.553	5.5
506.903	5.63
507.253	5.55
507.603	5.68
507.953	5.63
508.303	5.52
508.652	5.65
509.002	5.64
509.352	5.65
509.701	5.84
510.051	5.62
510.4	5.73
510.75	5.58
511.099	5.68
511.449	5.68
511.798	5.74
512.147	5.67
512.496	5.65
512.846	5.89
513.195	5.7
513.544	5.77
513.893	5.76
514.242	5.76
514.591	5.78
514.939	5.72
515.288	5.81
515.637	5.96
515.986	5.81
516.334	5.86
516.683	5.82
517.032	5.92
517.38	5.94
517.729	5.92
518.077	5.93
518.426	6.05
518.774	5.88
519.122	6
519.47	5.92
519.819	5.86
520.167	5.82
520.515	5.96
520.863	5.89
521.211	5.89
521.559	5.87
521.907	5.97
522.255	5.89
522.602	6.04
522.95	6.08
523.298	6.18
523.645	6.09
523.993	6.17
524.341	6.07
524.688	6.15
525.036	6.13
525.383	6.05
525.73	6.11
526.078	6.01
526.425	6.08
526.772	6.16
527.119	5.91
527.466	6.07
527.814	6.03
528.161	6.1
528.508	6.08
528.854	6.08
529.201	6.02
529.548	5.99
529.895	5.88
530.242	5.85
530.588	5.93
530.935	5.88
531.282	5.96
531.628	6
531.975	6.16
532.321	6.13
532.667	6.22
533.014	6.15
533.36	6.24
533.706	6.25
534.052	6.33
534.399	6.19
534.745	6.13
535.091	6.16
535.437	6.17
535.783	6.22
536.129	6.31
536.474	6.34
536.82	6.37
537.166	6.41
537.512	6.43
537.857	6.37
538.203	6.32
538.549	6.52
538.894	6.45
539.239	6.47
539.585	6.47
539.93	6.65
540.276	6.73
540.621	6.64
540.966	6.74
541.311	6.59
541.656	6.6
542.001	6.52
542.346	6.52
542.691	6.42
543.036	6.4
543.381	6.45
543.726	6.43
544.071	6.52
544.415	6.58
544.76	6.65
545.105	6.55
545.449	6.5
545.794	6.74
546.138	6.81
546.483	6.82
546.827	6.96
547.171	6.85
547.516	6.74
547.86	6.76
548.204	6.88
548.548	6.84
548.892	6.89
549.236	6.99
549.58	6.99
549.924	7.1
550.268	7.13
550.612	7.11
550.956	7.31
551.3	7.24
551.643	7.15
551.987	7.34
552.33	7.15
552.674	7.21
553.017	7.35
553.361	7.35
553.704	7.34
554.048	7.17
554.391	7.3
554.734	7.26
555.077	7.32
555.42	7.17
555.764	7.41
556.107	7.38
556.45	7.48
556.793	7.43
557.135	7.45
557.478	7.43
557.821	7.59
558.164	7.74
558.507	7.65
558.849	7.61
559.192	7.56
559.534	7.72
559.877	7.63
560.219	7.65
560.562	7.79
560.904	7.81
561.246	7.6
561.589	7.7
561.931	7.61
562.273	7.81
562.615	7.67
562.957	7.68
563.299	7.73
563.641	7.77
563.983	7.8
564.325	7.87
564.667	7.75
565.008	7.92
565.35	7.98
565.692	7.85
566.033	8.02
566.375	8.06
566.716	7.94
567.058	8.01
567.399	8.23
567.741	8.18
568.082	8.04
568.423	7.96
568.764	8.22
569.105	8.04
569.447	8.23
569.788	8.12
570.129	8.13
570.47	8.13
570.811	8.24
571.151	8.27
571.492	8.28
571.833	8.31
572.174	8.24
572.514	8.41
572.855	8.37
573.195	8.27
573.536	8.44
573.876	8.33
574.217	8.45
574.557	8.47
574.898	8.32
575.238	8.51
575.578	8.4
575.918	8.6
576.258	8.49
576.598	8.37
576.938	8.46
577.278	8.45
577.618	8.61
577.958	8.6
578.298	8.66
578.638	8.8
578.977	8.81
579.317	9.1
579.657	8.88
579.996	8.72
580.336	8.82
580.675	9.05
581.014	8.94
581.354	8.76
581.693	8.99
582.032	8.81
582.372	9.21
582.711	8.83
583.05	8.92
583.389	9.11
583.728	9.24
584.067	9.37
584.406	9.23
584.745	9.27
585.083	9.21
585.422	9.09
585.761	9.42
586.1	9.08
586.438	9.37
586.777	9.42
587.115	9.45
587.454	9.5
587.792	9.41
588.13	9.23
588.469	9.63
588.807	9.7
589.145	9.65
589.483	9.68
589.821	9.4
590.159	9.55
590.497	9.63
590.835	9.49
591.173	9.65
591.511	9.66
591.849	9.75
592.187	9.57
592.524	9.59
592.862	9.64
593.2	9.93
593.537	9.74
593.875	9.97
594.212	9.92
594.55	9.87
594.887	10.02
595.224	9.98
595.561	9.83
595.899	9.73
596.236	9.94
596.573	9.89
596.91	10.24
597.247	10.23
597.584	10.11
597.921	10.34
598.258	10.11
598.594	10.17
598.931	10.06
599.268	10.04
599.604	10.2
599.941	10.04
600.277	10.37
600.614	10.38
600.95	10.18
601.287	10.5
601.623	10.68
601.959	10.76
602.296	10.36
602.632	10.35
602.968	10.71
603.304	10.77
603.64	10.64
603.976	10.64
604.312	10.65
604.648	10.44
604.984	10.61
605.319	10.75
605.655	10.61
605.991	10.68
606.326	10.79
606.662	10.68
606.998	10.53
607.333	10.75
607.668	10.85
608.004	10.92
608.339	10.86
608.674	11.01
609.01	11.04
609.345	10.82
609.68	10.97
610.015	11.09
610.35	10.88
610.685	11.16
611.02	10.94
611.355	10.96
611.689	11.03
612.024	11.23
612.359	11
612.694	11.12
613.028	11.33
613.363	11.47
613.697	11.62
614.032	11.42
614.366	11.41
614.7	11.63
615.035	11.64
615.369	11.64
615.703	11.55
616.037	11.77
616.371	11.66
616.705	11.8
617.039	11.78
617.373	11.72
617.707	11.43
618.041	11.75
618.375	11.6
618.709	12
619.042	12.1
619.376	11.47
619.71	11.99
620.043	12.19
620.377	12.04
620.71	12.11
621.043	11.8
621.377	11.99
621.71	12.11
622.043	12.12
622.376	12.46
622.709	12.02
623.043	12.31
623.376	12.51
623.709	12.41
624.041	12.25
624.374	12.12
624.707	12.61
625.04	12.32
625.373	12.32
625.705	12.32
626.038	12.64
626.37	12.66
626.703	12.37
627.035	12.58
627.368	12.33
627.7	12.2
628.032	12.58
628.365	12.84
628.697	12.56
629.029	12.62
629.361	12.53
629.693	12.78
630.025	12.94
630.357	12.84
630.689	12.79
631.021	12.71
631.353	12.68
631.684	12.83
632.016	12.93
632.348	12.83
632.679	13.22
633.011	13.11
633.342	13.32
633.674	13.09
634.005	12.97
634.336	13.24
634.668	13.32
634.999	13.02
635.33	13.17
635.661	13.29
635.992	13.35
636.323	12.94
636.654	13.5
636.985	13.14
637.316	13.11
637.647	13.71
637.977	13.67
638.308	13.74
638.639	13.25
638.969	13.3
639.3	13.9
639.63	13.7
639.961	13.39
640.291	13.9
640.622	14.19
640.952	13.72
641.282	13.86
641.612	13.61
641.943	14.09
642.273	13.63
642.603	14.31
642.933	14.22
643.263	13.71
643.592	14.08
643.922	14.1
644.252	14.18
644.582	14.3
644.911	13.75
645.241	14.01
645.571	14.21
645.9	14.28
646.23	14.39
646.559	14.76
646.888	14.46
647.218	14.3
647.547	14.03
647.876	13.87
648.205	14.44
648.534	14.41
648.863	14.36
649.192	14.3
649.521	14.45
649.85	14.68
650.179	15.1
650.508	14.52
650.837	15.01
651.165	14.38
651.494	14.96
651.822	14.95
652.151	14.26
652.479	14.2
652.808	14.52
653.136	14.39
653.465	15.37
653.793	15.15
654.121	14.83
654.449	14.82
654.777	15.65
655.105	14.82
655.433	15.08
655.761	15.28
656.089	15.15
656.417	14.54
656.745	15.05
657.073	14.87
657.4	14.94
657.728	15.72
658.056	15.29
658.383	15.04
658.711	14.96
659.038	15.58
659.365	15
659.693	15.24
660.02	16.4
660.347	15.27
660.674	15.44
661.001	15.42
661.329	15.34
661.656	15.31
661.982	15.6
662.309	15.73
662.636	16
662.963	15.7
663.29	15.9
663.616	15.21
663.943	15.81
664.27	15.99
664.596	16.11
664.923	15.89
665.249	16.29
665.576	16.37
665.902	16.89
666.228	16.35
666.554	16.04
666.881	15.78
667.207	16.27
667.533	16.92
667.859	15.9
668.185	16.28
668.511	16
668.837	16.78
669.162	16.49
669.488	16.37
669.814	16.39
670.139	16.32
670.465	16.22
670.791	16.43
671.116	16.36
671.442	16.6
671.767	16.5
672.092	16.43
672.418	16.72
672.743	16.53
673.068	16.84
673.393	17.19
673.718	16.46
674.043	17.11
674.368	16.73
674.693	16.11
675.018	17.23
675.343	17.37
675.667	17.37
675.992	16.93
676.317	16.32
676.641	16.81
676.966	17.17
677.29	17.43
677.615	16.73
677.939	16.91
678.264	17.09
678.588	17.24
678.912	17.16
679.236	17.46
679.56	17.45
679.885	17.2
680.209	17.45
680.532	17.59
680.856	17.76
681.18	17.21
681.504	17.59
681.828	17.82
682.152	17.85
682.475	17.43
682.799	17.38
683.122	17.38
683.446	17.84
683.769	17.61
684.093	17.68
684.416	18.18
684.739	18.53
685.062	17.33
685.386	17.92
685.709	18.27
686.032	17.17
686.355	17.79
686.678	18.13
