Data from 20-5_crown_Reflection__2__07.txt Node

Date: Fri Nov 11 20:14:32 CST 2022
User: ToomeyLab
Spectrometer: FLMS14357
Trigger mode: 0
Integration Time (sec): 1.000000E-2
Scans to average: 100
Electric dark correction enabled: true
Nonlinearity correction enabled: false
Boxcar width: 0
XAxis mode: Wavelengths
Number of Pixels in Spectrum: 2048
>>>>>Begin Spectral Data<<<<<
189.047	-70.45
189.435	-70.45
189.823	-70.45
190.211	945
190.599	129.01
190.987	-19.1
191.375	37.1
191.763	-33.4
192.151	2920.83
192.538	-40.44
192.926	56.51
193.314	488.75
193.702	5.94
194.089	882.95
194.477	105.47
194.864	136.47
195.252	109.1
195.639	-7.67
196.027	-272.02
196.414	12.24
196.801	-375.88
197.189	-57.72
197.576	-37.28
197.963	8.35
198.351	-21.16
198.738	-22.59
199.125	40.34
199.512	-5.06
199.899	-54.86
200.286	21.45
200.673	3.82
201.06	25.2
201.447	32.12
201.833	6.72
202.22	23.25
202.607	17.83
202.994	41.25
203.38	33.96
203.767	29.5
204.154	24.79
204.54	-24.84
204.927	34.27
205.313	-11.07
205.699	-36.99
206.086	24.22
206.472	12.9
206.858	31.13
207.245	42.69
207.631	-5.55
208.017	24.13
208.403	35.38
208.789	8.79
209.175	27.39
209.561	70.56
209.947	4.51
210.333	1.65
210.719	4.98
211.105	44.4
211.491	14.1
211.876	24.46
212.262	36.66
212.648	-8.02
213.034	-2.05
213.419	-29.87
213.805	2.03
214.19	35.42
214.576	44.18
214.961	-23.24
215.346	-33.1
215.732	-5.29
216.117	29.06
216.502	10.86
216.888	19.9
217.273	13.39
217.658	-44.41
218.043	36.62
218.428	6.49
218.813	17.49
219.198	10.12
219.583	9.77
219.968	4.63
220.353	13.39
220.738	2.54
221.122	19.17
221.507	-7.33
221.892	15.78
222.276	29.1
222.661	19.26
223.046	-4.79
223.43	3.66
223.815	16.6
224.199	12.4
224.583	3.84
224.968	-6.21
225.352	6.4
225.736	6.25
226.121	3.07
226.505	9.15
226.889	-4.18
227.273	3.6
227.657	-2.07
228.041	4.41
228.425	7.53
228.809	5.91
229.193	7.2
229.577	6.38
229.961	6.6
230.344	6.07
230.728	5.15
231.112	4.48
231.495	6.29
231.879	4.38
232.263	6.7
232.646	4.46
233.03	5.43
233.413	5.52
233.797	7.36
234.18	2.59
234.563	5.05
234.946	3.32
235.33	6.49
235.713	4.43
236.096	5.53
236.479	5.63
236.862	8.48
237.245	6.1
237.628	5.45
238.011	6.02
238.394	4.68
238.777	7.58
239.16	5.74
239.543	3.63
239.925	4.2
240.308	5.5
240.691	6.01
241.073	5.55
241.456	4.06
241.838	6.09
242.221	4.75
242.603	5.9
242.986	4.27
243.368	4.4
243.75	5.1
244.133	5.04
244.515	4.53
244.897	5.31
245.279	4.92
245.661	5.23
246.043	4.99
246.425	5.64
246.807	4.74
247.189	4.34
247.571	4.83
247.953	4.61
248.335	4.81
248.717	4.6
249.098	5.09
249.48	4.62
249.862	5.14
250.243	4.69
250.625	4.85
251.006	5.33
251.388	5.72
251.769	5.58
252.151	5.47
252.532	5.51
252.913	5.19
253.295	4.44
253.676	3.99
254.057	4.48
254.438	4.52
254.819	4.72
255.2	5.02
255.581	4.35
255.962	4.14
256.343	4.44
256.724	4.27
257.105	3.72
257.486	3.24
257.867	6.38
258.247	3.64
258.628	4.03
259.009	4.72
259.389	4.35
259.77	5.4
260.15	4.1
260.531	4.61
260.911	3.91
261.292	4.39
261.672	4.19
262.052	4.32
262.432	4.49
262.813	4.88
263.193	4.47
263.573	4.55
263.953	5.04
264.333	4.83
264.713	3.52
265.093	4.58
265.473	4.42
265.853	4.57
266.233	4.95
266.612	4.07
266.992	4.22
267.372	4.3
267.752	4.33
268.131	3.89
268.511	4.37
268.89	4.11
269.27	4.57
269.649	3.98
270.029	4.79
270.408	4.53
270.787	4.04
271.167	4.08
271.546	3.95
271.925	4.59
272.304	3.57
272.683	3.78
273.062	4.12
273.441	4.22
273.82	4.47
274.199	3.9
274.578	3.85
274.957	4.26
275.336	4.55
275.715	4.71
276.093	4.39
276.472	3.88
276.851	4.51
277.229	4.12
277.608	3.99
277.986	4.38
278.365	4.18
278.743	4.12
279.122	4.48
279.5	4.19
279.878	4.4
280.257	4.62
280.635	4.03
281.013	4.14
281.391	4.28
281.769	4.37
282.147	4.08
282.525	3.52
282.903	4.14
283.281	4.17
283.659	4.19
284.037	4.49
284.415	4.16
284.792	4.49
285.17	4.49
285.548	3.69
285.925	3.68
286.303	3.92
286.68	3.91
287.058	4.09
287.435	3.86
287.813	4.34
288.19	4.2
288.567	4.18
288.945	4.32
289.322	4.63
289.699	4.27
290.076	4.66
290.453	4.09
290.83	4.11
291.207	4.28
291.584	4.19
291.961	4.05
292.338	4.11
292.715	3.96
293.092	4.27
293.469	3.99
293.845	3.83
294.222	3.42
294.599	4.08
294.975	4.24
295.352	3.97
295.728	4.36
296.105	4.01
296.481	3.47
296.858	3.79
297.234	4.27
297.61	3.66
297.986	4.31
298.363	3.99
298.739	4.09
299.115	4.22
299.491	4.21
299.867	4.05
300.243	3.69
300.619	4.27
300.995	4.07
301.371	4.76
301.746	4.5
302.122	4.01
302.498	4.24
302.874	3.85
303.249	3.96
303.625	3.89
304	3.48
304.376	4.24
304.751	3.89
305.127	3.94
305.502	4.21
305.878	4.59
306.253	4.19
306.628	4.24
307.003	4.11
307.378	3.95
307.754	4.31
308.129	4.38
308.504	3.92
308.879	4.59
309.254	4.11
309.629	4.23
310.003	3.85
310.378	4.24
310.753	4.62
311.128	4.21
311.502	4.06
311.877	4.03
312.252	4.04
312.626	3.95
313.001	3.96
313.375	4.13
313.75	4.02
314.124	3.7
314.498	3.73
314.873	4.1
315.247	4.11
315.621	4.1
315.995	4.06
316.369	4.35
316.743	4.03
317.117	3.91
317.491	4.08
317.865	3.53
318.239	3.89
318.613	4.1
318.987	4.48
319.361	3.83
319.734	4.32
320.108	3.56
320.482	4.32
320.855	4.13
321.229	4.15
321.602	4.22
321.976	3.68
322.349	4.12
322.723	4.38
323.096	4.14
323.469	3.96
323.843	3.8
324.216	3.47
324.589	4.24
324.962	4.48
325.335	3.91
325.708	4.34
326.081	3.95
326.454	3.68
326.827	3.79
327.2	4.48
327.573	4.51
327.945	4.1
328.318	3.64
328.691	3.86
329.063	3.72
329.436	3.72
329.809	3.84
330.181	3.72
330.553	3.29
330.926	3.74
331.298	3.88
331.671	3.57
332.043	3.42
332.415	3.87
332.787	4.28
333.159	3.65
333.532	3.67
333.904	4.33
334.276	3.7
334.648	3.31
335.02	4.24
335.391	4.13
335.763	3.67
336.135	4.02
336.507	3.56
336.879	3.69
337.25	3.93
337.622	4.05
337.993	3.84
338.365	4.14
338.736	4.09
339.108	3.94
339.479	3.91
339.851	4.03
340.222	3.86
340.593	4.24
340.964	4.02
341.336	4.16
341.707	4.16
342.078	3.68
342.449	4.34
342.82	4.12
343.191	4.01
343.562	4.04
343.933	3.8
344.303	3.75
344.674	4.31
345.045	3.83
345.416	4
345.786	3.54
346.157	3.81
346.527	3.88
346.898	3.33
347.268	3.74
347.639	3.97
348.009	3.7
348.38	4.05
348.75	3.84
349.12	4.38
349.49	4.12
349.861	3.74
350.231	4.06
350.601	3.94
350.971	3.97
351.341	3.98
351.711	4.01
352.081	4.22
352.45	4.04
352.82	3.63
353.19	4.05
353.56	4.27
353.929	3.81
354.299	3.76
354.669	4.1
355.038	3.81
355.408	3.85
355.777	3.97
356.147	3.8
356.516	3.91
356.885	3.99
357.254	3.82
357.624	3.28
357.993	4.27
358.362	4.31
358.731	3.66
359.1	3.81
359.469	3.75
359.838	3.85
360.207	4.16
360.576	3.7
360.945	3.88
361.314	3.46
361.682	3.85
362.051	3.73
362.42	3.73
362.788	4.06
363.157	3.72
363.525	3.44
363.894	3.57
364.262	4.04
364.631	3.89
364.999	3.96
365.367	3.78
365.735	3.61
366.104	3.78
366.472	3.94
366.84	3.3
367.208	4.1
367.576	3.95
367.944	3.95
368.312	3.95
368.68	3.79
369.048	3.89
369.416	3.91
369.783	4.32
370.151	4.22
370.519	4.09
370.886	3.85
371.254	4.22
371.621	3.81
371.989	3.6
372.356	3.99
372.724	4.37
373.091	4.03
373.458	3.79
373.826	3.95
374.193	3.84
374.56	3.94
374.927	3.81
375.294	3.97
375.661	4.13
376.028	3.68
376.395	4.17
376.762	3.73
377.129	4.05
377.496	3.84
377.863	3.85
378.229	4.19
378.596	3.68
378.963	3.93
379.329	4.23
379.696	3.89
380.062	3.99
380.429	3.81
380.795	4.29
381.161	4.03
381.528	3.85
381.894	4.07
382.26	4.28
382.626	4.15
382.993	3.86
383.359	4.18
383.725	4.08
384.091	3.91
384.457	3.67
384.823	3.67
385.188	4.1
385.554	3.95
385.92	3.79
386.286	3.88
386.651	4.15
387.017	3.77
387.383	3.99
387.748	4.01
388.114	3.95
388.479	3.94
388.845	4
389.21	3.93
389.575	4.12
389.94	3.8
390.306	4
390.671	3.89
391.036	4.08
391.401	4.08
391.766	4.09
392.131	3.96
392.496	4.06
392.861	3.98
393.226	3.91
393.591	3.89
393.956	3.99
394.32	4.01
394.685	3.85
395.05	4.1
395.414	3.93
395.779	4.03
396.143	3.78
396.508	4.18
396.872	4.14
397.236	3.95
397.601	4.18
397.965	3.97
398.329	4.04
398.694	4.3
399.058	4.33
399.422	4.04
399.786	3.88
400.15	3.97
400.514	4.26
400.878	3.94
401.242	4.09
401.605	4.17
401.969	4.11
402.333	4.06
402.697	4.02
403.06	4.16
403.424	3.8
403.787	4.14
404.151	3.98
404.514	4.11
404.878	4.15
405.241	3.93
405.604	4.01
405.968	4.17
406.331	3.93
406.694	4.05
407.057	4.03
407.42	4.09
407.783	4.18
408.146	4.26
408.509	3.98
408.872	4.07
409.235	4.36
409.598	4.21
409.961	4.23
410.323	4.03
410.686	4.32
411.049	4.1
411.411	4.12
411.774	3.93
412.136	4.05
412.499	4.01
412.861	4.09
413.223	4.06
413.586	4.07
413.948	4.39
414.31	4.21
414.672	4
415.035	4.07
415.397	3.92
415.759	4.18
416.121	3.92
416.483	4.09
416.845	4
417.206	3.94
417.568	3.97
417.93	4.04
418.292	3.96
418.653	4.12
419.015	4.04
419.377	4.03
419.738	4.12
420.1	3.96
420.461	4.12
420.822	3.93
421.184	4.05
421.545	3.9
421.906	3.99
422.267	3.97
422.629	3.9
422.99	3.94
423.351	3.94
423.712	3.9
424.073	4
424.434	4.06
424.795	4.07
425.155	3.92
425.516	4
425.877	4.02
426.238	4.06
426.598	3.96
426.959	4.03
427.32	4.1
427.68	4.07
428.041	4.22
428.401	4.01
428.761	4.16
429.122	4.02
429.482	4.18
429.842	4.13
430.202	4.08
430.563	4.2
430.923	4.13
431.283	4
431.643	4.12
432.003	4.33
432.363	4.11
432.722	4.32
433.082	4.17
433.442	4.16
433.802	4.23
434.161	4.04
434.521	4.08
434.881	4.19
435.24	4.13
435.6	4.07
435.959	4.1
436.319	4.07
436.678	4.29
437.037	4.13
437.396	4.09
437.756	4.06
438.115	4.12
438.474	4.05
438.833	4.22
439.192	4.15
439.551	4.22
439.91	4.21
440.269	4.13
440.628	4.28
440.987	4.08
441.345	4.11
441.704	4.18
442.063	4.1
442.421	4.06
442.78	4.02
443.138	4.16
443.497	4.1
443.855	4.05
444.214	4.02
444.572	4.23
444.93	4.22
445.288	4.31
445.647	4.28
446.005	4.3
446.363	4.15
446.721	4.22
447.079	4.17
447.437	3.99
447.795	4.15
448.153	4.11
448.51	4.1
448.868	4.22
449.226	4.15
449.584	4.12
449.941	4.17
450.299	4.15
450.656	4.18
451.014	4.27
451.371	4.34
451.729	4.21
452.086	4.29
452.443	4.37
452.801	4.5
453.158	4.18
453.515	4.3
453.872	4.18
454.229	4.25
454.586	4.17
454.943	4.35
455.3	4.19
455.657	4.18
456.014	4.43
456.371	4.3
456.727	4.29
457.084	4.18
457.441	4.42
457.797	4.36
458.154	4.32
458.51	4.33
458.867	4.15
459.223	4.44
459.58	4.43
459.936	4.24
460.292	4.37
460.648	4.23
461.005	4.18
461.361	4.13
461.717	4.25
462.073	4.26
462.429	4.14
462.785	4.19
463.141	4.22
463.496	4.34
463.852	4.33
464.208	4.33
464.564	4.09
464.919	4.25
465.275	4.2
465.631	4.31
465.986	4.53
466.342	4.28
466.697	4.36
467.052	4.36
467.408	4.37
467.763	4.29
468.118	4.35
468.473	4.41
468.829	4.36
469.184	4.38
469.539	4.48
469.894	4.61
470.249	4.45
470.603	4.3
470.958	4.28
471.313	4.54
471.668	4.69
472.023	4.37
472.377	4.43
472.732	4.31
473.086	4.37
473.441	4.32
473.795	4.37
474.15	4.36
474.504	4.49
474.859	4.47
475.213	4.63
475.567	4.41
475.921	4.59
476.275	4.37
476.63	4.49
476.984	4.53
477.338	4.59
477.692	4.22
478.045	4.39
478.399	4.43
478.753	4.24
479.107	4.44
479.461	4.48
479.814	4.35
480.168	4.43
480.521	4.45
480.875	4.48
481.228	4.36
481.582	4.47
481.935	4.33
482.289	4.3
482.642	4.41
482.995	4.27
483.348	4.26
483.701	4.38
484.055	4.36
484.408	4.32
484.761	4.15
485.114	4.07
485.466	4.02
485.819	4.08
486.172	4.11
486.525	4.21
486.878	4.25
487.23	4.23
487.583	4.26
487.936	4.3
488.288	4.29
488.641	4.16
488.993	4.17
489.345	4.09
489.698	4.14
490.05	4.21
490.402	4.22
490.754	4.3
491.107	4.23
491.459	4.27
491.811	4.35
492.163	4.37
492.515	4.28
492.866	4.31
493.218	4.2
493.57	4.2
493.922	4.23
494.274	4.35
494.625	4.36
494.977	4.47
495.328	4.35
495.68	4.43
496.031	4.37
496.383	4.51
496.734	4.44
497.086	4.63
497.437	4.5
497.788	4.43
498.139	4.45
498.49	4.45
498.842	4.33
499.193	4.58
499.544	4.47
499.894	4.42
500.245	4.49
500.596	4.54
500.947	4.46
501.298	4.44
501.648	4.62
501.999	4.5
502.35	4.6
502.7	4.49
503.051	4.48
503.401	4.47
503.752	4.5
504.102	4.5
504.452	4.51
504.803	4.42
505.153	4.42
505.503	4.53
505.853	4.51
506.203	4.56
506.553	4.49
506.903	4.54
507.253	4.49
507.603	4.6
507.953	4.61
508.303	4.42
508.652	4.65
509.002	4.49
509.352	4.6
509.701	4.54
510.051	4.47
510.4	4.57
510.75	4.39
511.099	4.46
511.449	4.58
511.798	4.5
512.147	4.55
512.496	4.51
512.846	4.73
513.195	4.6
513.544	4.5
513.893	4.43
514.242	4.52
514.591	4.64
514.939	4.61
515.288	4.51
515.637	4.61
515.986	4.59
516.334	4.62
516.683	4.61
517.032	4.71
517.38	4.55
517.729	4.61
518.077	4.58
518.426	4.53
518.774	4.51
519.122	4.66
519.47	4.68
519.819	4.48
520.167	4.4
520.515	4.49
520.863	4.6
521.211	4.51
521.559	4.39
521.907	4.67
522.255	4.58
522.602	4.54
522.95	4.5
523.298	4.55
523.645	4.7
523.993	4.64
524.341	4.65
524.688	4.64
525.036	4.69
525.383	4.51
525.73	4.59
526.078	4.48
526.425	4.6
526.772	4.56
527.119	4.37
527.466	4.56
527.814	4.56
528.161	4.57
528.508	4.64
528.854	4.5
529.201	4.44
529.548	4.38
529.895	4.24
530.242	4.29
530.588	4.35
530.935	4.39
531.282	4.46
531.628	4.42
531.975	4.49
532.321	4.44
532.667	4.62
533.014	4.58
533.36	4.51
533.706	4.57
534.052	4.54
534.399	4.47
534.745	4.42
535.091	4.49
535.437	4.43
535.783	4.5
536.129	4.55
536.474	4.64
536.82	4.56
537.166	4.64
537.512	4.55
537.857	4.59
538.203	4.51
538.549	4.64
538.894	4.61
539.239	4.67
539.585	4.61
539.93	4.68
540.276	4.8
540.621	4.65
540.966	4.83
541.311	4.66
541.656	4.63
542.001	4.65
542.346	4.55
542.691	4.47
543.036	4.41
543.381	4.54
543.726	4.44
544.071	4.48
544.415	4.57
544.76	4.61
545.105	4.6
545.449	4.53
545.794	4.65
546.138	4.62
546.483	4.67
546.827	4.62
547.171	4.8
547.516	4.56
547.86	4.62
548.204	4.72
548.548	4.55
548.892	4.6
549.236	4.65
549.58	4.71
549.924	4.79
550.268	4.79
550.612	4.86
550.956	4.77
551.3	4.81
551.643	4.74
551.987	4.81
552.33	4.88
552.674	4.69
553.017	4.83
553.361	4.79
553.704	4.86
554.048	4.7
554.391	4.86
554.734	4.79
555.077	4.88
555.42	4.77
555.764	4.75
556.107	4.79
556.45	4.89
556.793	4.87
557.135	4.73
557.478	4.94
557.821	5.05
558.164	4.85
558.507	4.8
558.849	4.88
559.192	4.89
559.534	4.89
559.877	4.83
560.219	4.9
560.562	4.89
560.904	4.96
561.246	4.69
561.589	4.96
561.931	4.65
562.273	4.99
562.615	4.77
562.957	4.95
563.299	4.97
563.641	4.8
563.983	4.7
564.325	4.73
564.667	4.76
565.008	4.91
565.35	4.88
565.692	4.62
566.033	4.81
566.375	4.94
566.716	4.94
567.058	4.99
567.399	4.9
567.741	4.82
568.082	4.72
568.423	4.83
568.764	5.02
569.105	4.78
569.447	5.02
569.788	4.94
570.129	4.73
570.47	4.87
570.811	4.83
571.151	5.05
571.492	4.85
571.833	4.96
572.174	4.92
572.514	4.91
572.855	4.89
573.195	4.67
573.536	4.8
573.876	4.89
574.217	5.01
574.557	4.73
574.898	4.85
575.238	4.85
575.578	4.84
575.918	4.95
576.258	4.93
576.598	4.74
576.938	4.94
577.278	4.85
577.618	4.85
577.958	4.83
578.298	4.82
578.638	4.97
578.977	4.89
579.317	4.91
579.657	5.01
579.996	4.93
580.336	5.03
580.675	5.21
581.014	5.04
581.354	4.85
581.693	4.93
582.032	4.96
582.372	5.03
582.711	5.08
583.05	4.99
583.389	5.01
583.728	5.17
584.067	4.89
584.406	4.87
584.745	5.2
585.083	4.98
585.422	4.79
585.761	5.14
586.1	4.85
586.438	4.95
586.777	5.1
587.115	5.25
587.454	4.88
587.792	4.9
588.13	5.12
588.469	4.98
588.807	5.01
589.145	4.8
589.483	5.2
589.821	5.02
590.159	5.06
590.497	5.19
590.835	5.24
591.173	5
591.511	5.12
591.849	5.09
592.187	5
592.524	5.03
592.862	4.75
593.2	5.1
593.537	5.09
593.875	5.05
594.212	5.21
594.55	5.32
594.887	4.99
595.224	4.96
595.561	4.9
595.899	4.95
596.236	4.95
596.573	4.86
596.91	5.09
597.247	5.05
597.584	4.77
597.921	5.02
598.258	4.91
598.594	4.95
598.931	4.82
599.268	4.89
599.604	5.02
599.941	4.93
600.277	5.12
600.614	5.24
600.95	4.86
601.287	4.96
601.623	5.45
601.959	5.18
602.296	4.96
602.632	4.95
602.968	5.1
603.304	4.98
603.64	5.27
603.976	5.19
604.312	4.74
604.648	4.82
604.984	5.21
605.319	5.24
605.655	5.1
605.991	4.95
606.326	5.12
606.662	4.93
606.998	5.01
607.333	5.09
607.668	4.98
608.004	5.05
608.339	5.14
608.674	4.88
609.01	5.21
609.345	4.87
609.68	5.04
610.015	5.04
610.35	5.13
610.685	5.12
611.02	4.88
611.355	5.16
611.689	5.01
612.024	4.86
612.359	4.85
612.694	4.84
613.028	5.01
613.363	5.16
613.697	5.09
614.032	5.22
614.366	5.04
614.7	5.15
615.035	5.11
615.369	4.91
615.703	5.08
616.037	5.18
616.371	5.08
616.705	5.18
617.039	5.3
617.373	5.1
617.707	5.14
618.041	5.2
618.375	4.77
618.709	5.34
619.042	5.52
619.376	5.16
619.71	5.49
620.043	5.11
620.377	5
620.71	4.95
621.043	5.09
621.377	4.97
621.71	4.97
622.043	5.52
622.376	5.42
622.709	5.1
623.043	4.89
623.376	5.3
623.709	5.43
624.041	5.35
624.374	4.93
624.707	5.31
625.04	5.37
625.373	5.08
625.705	5.28
626.038	5.3
626.37	5.2
626.703	4.98
627.035	5.02
627.368	5.14
627.7	5.06
628.032	5.31
628.365	5.27
628.697	5.09
629.029	5.25
629.361	4.86
629.693	5.17
630.025	5
630.357	5.23
630.689	4.9
631.021	5.07
631.353	5.11
631.684	5.12
632.016	5.13
632.348	5.24
632.679	5.24
633.011	5.36
633.342	5.04
633.674	4.99
634.005	5.2
634.336	5.33
634.668	5.1
634.999	5.2
635.33	5.22
635.661	5.12
635.992	5.44
636.323	5
636.654	5.21
636.985	5.16
637.316	5.14
637.647	5.32
637.977	5.64
638.308	5.09
638.639	4.99
638.969	5.14
639.3	5.36
639.63	5.69
639.961	4.79
640.291	5.43
640.622	5.53
640.952	4.99
641.282	5.18
641.612	5.09
641.943	5.61
642.273	5
642.603	5.68
642.933	5.44
643.263	5.06
643.592	5.35
643.922	5.34
644.252	5.48
644.582	5.37
644.911	5.08
645.241	5.33
645.571	4.91
645.9	5.37
646.23	5.59
646.559	5.91
646.888	5.32
647.218	5.25
647.547	5.21
647.876	5.36
648.205	5.17
648.534	5.31
648.863	5.2
649.192	4.95
649.521	5.04
649.85	5.57
650.179	5.41
650.508	5.01
650.837	5.56
651.165	4.74
651.494	5.69
651.822	5.14
652.151	5.14
652.479	4.49
652.808	5.05
653.136	5.25
653.465	5.96
653.793	5.4
654.121	5.3
654.449	4.61
654.777	5.71
655.105	5.25
655.433	5.44
655.761	5.4
656.089	5.61
656.417	4.87
656.745	5.59
657.073	5.18
657.4	5.03
657.728	5.29
658.056	5.6
658.383	4.8
658.711	5.25
659.038	5.34
659.365	5.02
659.693	5.48
660.02	5.83
660.347	5.49
660.674	4.89
661.001	5.3
661.329	5.3
661.656	5.3
661.982	5.71
662.309	5.21
662.636	5.44
662.963	5.13
663.29	5.31
663.616	5.29
663.943	5.27
664.27	5.23
664.596	5.43
664.923	5.52
665.249	5.22
665.576	5.7
665.902	5.45
666.228	5.34
666.554	5.28
666.881	5.13
667.207	5.36
667.533	5.68
667.859	5.88
668.185	6.18
668.511	5.19
668.837	6.02
669.162	5.45
669.488	4.92
669.814	5.36
670.139	5.43
670.465	5.6
670.791	5.33
671.116	5.74
671.442	5.21
671.767	5.81
672.092	5.53
672.418	5.63
672.743	5.13
673.068	5.57
673.393	6.22
673.718	5.6
674.043	5.77
674.368	5.62
674.693	5.26
675.018	5.52
675.343	5.58
675.667	5.23
675.992	6.48
676.317	5.79
676.641	4.65
676.966	6.34
677.29	5.89
677.615	5.22
677.939	5.42
678.264	5.77
678.588	5.28
678.912	5.25
679.236	5.94
679.56	5.66
679.885	5.08
680.209	5.56
680.532	5.5
680.856	6.25
681.18	5.61
681.504	5.6
681.828	5.68
682.152	5.22
682.475	5.61
682.799	5.45
683.122	5.46
683.446	5.95
683.769	6.12
684.093	5.67
684.416	5.14
684.739	6.01
685.062	5.29
685.386	5.98
685.709	5.45
686.032	5.2
686.355	5.62
686.678	6.34
687.001	5.72
687.324	5.54
687.646	5.48
687.969	5.95
688.292	6.38
688.614	5.76
688.937	5.22
689.26	4.57
689.582	6.09
689.904	5.51
690.227	6.4
690.549	5.34
690.871	5.43
691.194	5.46
691.516	5.03
691.838	5.82
692.16	5.86
692.482	5.59
692.804	5.54
693.126	5.2
693.448	5.55
