Data from 20-5_forehead_Reflection__4__14.txt Node

Date: Fri Nov 11 20:16:10 CST 2022
User: ToomeyLab
Spectrometer: FLMS14357
Trigger mode: 0
Integration Time (sec): 1.000000E-2
Scans to average: 100
Electric dark correction enabled: true
Nonlinearity correction enabled: false
Boxcar width: 0
XAxis mode: Wavelengths
Number of Pixels in Spectrum: 2048
>>>>>Begin Spectral Data<<<<<
189.047	-74.5
189.435	-74.5
189.823	-74.5
190.211	-1063.5
190.599	85.73
190.987	-45.4
191.375	26.08
191.763	118
192.151	3468.75
192.538	66.54
192.926	20.95
193.314	396.87
193.702	87.22
194.089	609.66
194.477	150.13
194.864	184.99
195.252	113.27
195.639	120.92
196.027	106.85
196.414	-27.51
196.801	-52.85
197.189	58.88
197.576	-28.29
197.963	-7.46
198.351	-1.99
198.738	20.67
199.125	67.01
199.512	16.07
199.899	55.78
200.286	16.21
200.673	34.21
201.06	66.56
201.447	27
201.833	144.8
202.22	49.49
202.607	34.94
202.994	24.94
203.38	50.97
203.767	34.31
204.154	67.23
204.54	56.99
204.927	11.56
205.313	142.35
205.699	19.94
206.086	59.15
206.472	17.98
206.858	52.56
207.245	39.84
207.631	35.12
208.017	23.58
208.403	28.83
208.789	74.18
209.175	47.31
209.561	70.13
209.947	16.81
210.333	25.96
210.719	50.23
211.105	63.2
211.491	30.1
211.876	24.47
212.262	50.69
212.648	21.88
213.034	76.97
213.419	32.76
213.805	4.97
214.19	22.35
214.576	54.62
214.961	20.71
215.346	17.03
215.732	9.51
216.117	34.6
216.502	22.67
216.888	50.49
217.273	10.24
217.658	62.68
218.043	9.74
218.428	33.01
218.813	27.77
219.198	17.33
219.583	29.42
219.968	16.6
220.353	29.95
220.738	15.05
221.122	14.07
221.507	33.99
221.892	24.96
222.276	26.14
222.661	33.79
223.046	1.94
223.43	8.36
223.815	9.18
224.199	21.55
224.583	14.28
224.968	9.35
225.352	4.36
225.736	14.77
226.121	14.01
226.505	8.53
226.889	7.24
227.273	12.08
227.657	7.17
228.041	5.85
228.425	5.48
228.809	9.73
229.193	8.41
229.577	7.19
229.961	5.98
230.344	5.47
230.728	3.77
231.112	3.5
231.495	4.7
231.879	4.59
232.263	5.6
232.646	3.83
233.03	7.26
233.413	7.2
233.797	8.05
234.18	7.21
234.563	8.18
234.946	5.8
235.33	5.26
235.713	4.17
236.096	4.34
236.479	5.3
236.862	7.95
237.245	5.58
237.628	5.66
238.011	6.33
238.394	5.98
238.777	4.06
239.16	4.94
239.543	5.37
239.925	6.64
240.308	5.47
240.691	6.88
241.073	5.11
241.456	4.17
241.838	6.02
242.221	5.7
242.603	5.95
242.986	4.38
243.368	5.02
243.75	4.49
244.133	4.63
244.515	4.69
244.897	5.02
245.279	4.64
245.661	5.28
246.043	6.3
246.425	5.96
246.807	4.77
247.189	4.53
247.571	5.11
247.953	4.39
248.335	4.81
248.717	4.72
249.098	4.92
249.48	4.47
249.862	5.29
250.243	4.91
250.625	5.22
251.006	5.64
251.388	5.49
251.769	5.58
252.151	5.59
252.532	5.7
252.913	6.27
253.295	4.93
253.676	3.95
254.057	4.52
254.438	5.27
254.819	4.43
255.2	5.93
255.581	6.16
255.962	3.68
256.343	6.16
256.724	4.55
257.105	5.31
257.486	5.18
257.867	5.73
258.247	4.5
258.628	5.07
259.009	4.32
259.389	4.74
259.77	5.24
260.15	4.65
260.531	4.37
260.911	4.55
261.292	4.71
261.672	4.41
262.052	4.51
262.432	4.9
262.813	4.72
263.193	4.72
263.573	4.65
263.953	5
264.333	4.7
264.713	4.26
265.093	5.43
265.473	4.31
265.853	4.52
266.233	4.55
266.612	4.56
266.992	5.43
267.372	5.38
267.752	4.75
268.131	4.89
268.511	4.84
268.89	4.48
269.27	4.47
269.649	4.39
270.029	4.98
270.408	4.62
270.787	4.68
271.167	3.98
271.546	4.69
271.925	5.06
272.304	4.86
272.683	5
273.062	4.29
273.441	4.6
273.82	4.9
274.199	4.49
274.578	4.41
274.957	4.91
275.336	4.8
275.715	4.67
276.093	4.32
276.472	4.12
276.851	4.75
277.229	4.64
277.608	4.76
277.986	4.97
278.365	3.98
278.743	4.64
279.122	4.82
279.5	4.77
279.878	5.05
280.257	4.47
280.635	4.12
281.013	4.89
281.391	4.39
281.769	4.47
282.147	4.62
282.525	4.58
282.903	4.48
283.281	4.85
283.659	4.81
284.037	5.1
284.415	4.14
284.792	4.39
285.17	5.04
285.548	4.73
285.925	4.24
286.303	4.61
286.68	4.98
287.058	4.84
287.435	4.48
287.813	4.79
288.19	4.53
288.567	4.31
288.945	4.72
289.322	4.95
289.699	4.71
290.076	5.27
290.453	4.79
290.83	5.15
291.207	4.63
291.584	5.18
291.961	4.91
292.338	4.92
292.715	5.14
293.092	5.67
293.469	5.18
293.845	5.45
294.222	5.08
294.599	5.49
294.975	5.91
295.352	5.82
295.728	5.59
296.105	5.4
296.481	4.95
296.858	5.29
297.234	5.47
297.61	5.28
297.986	5.65
298.363	5.5
298.739	5.48
299.115	5.65
299.491	5.91
299.867	5.63
300.243	5.52
300.619	6.02
300.995	5.93
301.371	6.23
301.746	6.48
302.122	5.8
302.498	5.89
302.874	5.83
303.249	5.9
303.625	5.82
304	5.77
304.376	6.16
304.751	6.22
305.127	6.16
305.502	6.24
305.878	6.52
306.253	6.39
306.628	6.49
307.003	6.67
307.378	6.77
307.754	7.26
308.129	6.68
308.504	6.72
308.879	6.8
309.254	6.84
309.629	6.62
310.003	6.8
310.378	7.05
310.753	7.2
311.128	7.14
311.502	6.95
311.877	6.87
312.252	7.16
312.626	7.17
313.001	6.94
313.375	7.16
313.75	7.02
314.124	6.8
314.498	7.61
314.873	7.13
315.247	7.28
315.621	7.75
315.995	7.73
316.369	7.62
316.743	7.56
317.117	7.83
317.491	7.45
317.865	6.97
318.239	8.07
318.613	7.94
318.987	7.86
319.361	7.55
319.734	8.24
320.108	8.51
320.482	8.41
320.855	7.76
321.229	7.46
321.602	8.13
321.976	8.02
322.349	7.84
322.723	8.8
323.096	8.5
323.469	8.24
323.843	8.32
324.216	7.84
324.589	8.43
324.962	8.42
325.335	8.22
325.708	8.32
326.081	8.86
326.454	8.19
326.827	8.27
327.2	9.01
327.573	9.11
327.945	8.52
328.318	8.54
328.691	8.62
329.063	9.05
329.436	8.91
329.809	8.66
330.181	8.71
330.553	8.66
330.926	8.76
331.298	9.03
331.671	8.97
332.043	8.97
332.415	8.91
332.787	9.32
333.159	9.1
333.532	9.08
333.904	9.46
334.276	9.41
334.648	9.16
335.02	8.8
335.391	9.81
335.763	9.58
336.135	9.34
336.507	9.14
336.879	9.59
337.25	9.04
337.622	9.97
337.993	9.52
338.365	9.82
338.736	9.56
339.108	9.6
339.479	9.12
339.851	9.54
340.222	9.36
340.593	10.11
340.964	9.5
341.336	9.64
341.707	9.81
342.078	9.13
342.449	9.41
342.82	10.03
343.191	9.88
343.562	9.81
343.933	9.84
344.303	10.07
344.674	9.71
345.045	10.25
345.416	10.19
345.786	9.8
346.157	10.12
346.527	10.07
346.898	9.75
347.268	9.78
347.639	10.29
348.009	9.97
348.38	10.13
348.75	10.17
349.12	10.8
349.49	10.54
349.861	10.49
350.231	10.6
350.601	10.51
350.971	10.62
351.341	10.88
351.711	10.51
352.081	10.89
352.45	11.01
352.82	10.27
353.19	10.72
353.56	10.67
353.929	10.58
354.299	10.62
354.669	10.86
355.038	10.74
355.408	10.84
355.777	10.86
356.147	10.73
356.516	11.02
356.885	10.9
357.254	10.71
357.624	10.65
357.993	10.84
358.362	10.97
358.731	10.54
359.1	10.95
359.469	10.65
359.838	11.04
360.207	11.25
360.576	11.15
360.945	11.12
361.314	11.04
361.682	11.17
362.051	11.28
362.42	11.21
362.788	11.4
363.157	11.04
363.525	11.11
363.894	11.31
364.262	11.54
364.631	11.69
364.999	11.59
365.367	11.6
365.735	11.43
366.104	11.51
366.472	11.25
366.84	11.33
367.208	11.49
367.576	11.9
367.944	12.17
368.312	11.49
368.68	11.58
369.048	11.76
369.416	12.07
369.783	11.98
370.151	12.27
370.519	12.04
370.886	12.15
371.254	12.46
371.621	12.14
371.989	11.92
372.356	12.19
372.724	12.16
373.091	12.49
373.458	12.25
373.826	12.18
374.193	12.31
374.56	12.52
374.927	12.45
375.294	12.15
375.661	12.82
376.028	12.17
376.395	12.58
376.762	12.49
377.129	12.38
377.496	12.63
377.863	12.84
378.229	12.68
378.596	12.53
378.963	12.41
379.329	12.66
379.696	12.9
380.062	12.77
380.429	12.91
380.795	13.24
381.161	12.77
381.528	13.01
381.894	12.87
382.26	13.28
382.626	13.31
382.993	13.2
383.359	13.15
383.725	12.85
384.091	13.29
384.457	13.13
384.823	13.12
385.188	13.05
385.554	13.14
385.92	13.07
386.286	12.95
386.651	13.46
387.017	13.45
387.383	13.56
387.748	13.57
388.114	13.54
388.479	13.45
388.845	13.51
389.21	13.4
389.575	13.57
389.94	13.51
390.306	13.47
390.671	13.64
391.036	13.68
391.401	13.59
391.766	13.68
392.131	13.66
392.496	13.92
392.861	13.62
393.226	13.7
393.591	13.64
393.956	13.69
394.32	13.94
394.685	13.95
395.05	14.04
395.414	14.03
395.779	14.05
396.143	13.93
396.508	14.22
396.872	14.26
397.236	14.07
397.601	14.07
397.965	14.22
398.329	14.1
398.694	14.43
399.058	14.53
399.422	14.55
399.786	14.14
400.15	14.6
400.514	14.28
400.878	14.52
401.242	14.63
401.605	14.45
401.969	14.81
402.333	14.36
402.697	14.53
403.06	14.64
403.424	14.63
403.787	14.54
404.151	14.79
404.514	14.54
404.878	14.72
405.241	14.81
405.604	14.47
405.968	14.7
406.331	14.57
406.694	14.54
407.057	14.72
407.42	14.76
407.783	14.9
408.146	14.93
408.509	14.74
408.872	15.05
409.235	15.26
409.598	15.19
409.961	15.19
410.323	15.01
410.686	15.05
411.049	15.05
411.411	15.15
411.774	15.22
412.136	15.02
412.499	15.08
412.861	15.27
413.223	14.77
413.586	15.25
413.948	15.64
414.31	15.3
414.672	15.5
415.035	15.51
415.397	15.54
415.759	15.17
416.121	15.43
416.483	15.45
416.845	15.47
417.206	15.09
417.568	15.46
417.93	15.46
418.292	15.32
418.653	15.67
419.015	15.65
419.377	15.53
419.738	15.53
420.1	15.4
420.461	15.61
420.822	15.47
421.184	15.47
421.545	15.51
421.906	15.61
422.267	15.49
422.629	15.31
422.99	15.45
423.351	15.65
423.712	15.71
424.073	15.79
424.434	15.87
424.795	15.87
425.155	15.8
425.516	15.84
425.877	15.75
426.238	15.92
426.598	15.89
426.959	16.02
427.32	16.32
427.68	16.29
428.041	16.49
428.401	16.29
428.761	16.7
429.122	16.48
429.482	16.77
429.842	16.6
430.202	16.78
430.563	16.73
430.923	16.72
431.283	16.7
431.643	16.72
432.003	17.01
432.363	16.83
432.722	16.96
433.082	16.95
433.442	17.02
433.802	17.05
434.161	16.85
434.521	16.76
434.881	17.14
435.24	16.93
435.6	17.02
435.959	17.16
436.319	17.11
436.678	17.35
437.037	17.33
437.396	17.55
437.756	17.39
438.115	17.38
438.474	17.25
438.833	17.48
439.192	17.44
439.551	17.36
439.91	17.41
440.269	17.28
440.628	17.45
440.987	17.49
441.345	17.25
441.704	17.43
442.063	17.58
442.421	17.41
442.78	17.34
443.138	17.68
443.497	17.62
443.855	17.7
444.214	17.81
444.572	18.02
444.93	17.96
445.288	17.93
445.647	18
446.005	17.98
446.363	17.95
446.721	17.92
447.079	17.91
447.437	17.66
447.795	17.68
448.153	17.65
448.51	17.69
448.868	18
449.226	18.02
449.584	18.01
449.941	18.34
450.299	18.37
450.656	18.61
451.014	18.5
451.371	18.5
451.729	18.59
452.086	18.75
452.443	18.76
452.801	18.83
453.158	18.64
453.515	18.6
453.872	18.58
454.229	18.71
454.586	18.79
454.943	18.76
455.3	18.98
455.657	18.96
456.014	19.15
456.371	19.01
456.727	19.1
457.084	18.98
457.441	19.51
457.797	19.29
458.154	19.1
458.51	19.27
458.867	19.26
459.223	19.21
459.58	19.27
459.936	19.26
460.292	19.29
460.648	19.17
461.005	18.98
461.361	19.01
461.717	18.94
462.073	19.11
462.429	19.28
462.785	19.51
463.141	19.5
463.496	19.78
463.852	19.82
464.208	19.86
464.564	19.69
464.919	19.93
465.275	20.09
465.631	19.98
465.986	20.1
466.342	19.89
466.697	19.96
467.052	20.14
467.408	20.25
467.763	20.2
468.118	20.13
468.473	20.17
468.829	20.05
469.184	19.98
469.539	20.34
469.894	20.47
470.249	20.32
470.603	20.45
470.958	20.31
471.313	20.41
471.668	20.54
472.023	20.49
472.377	20.55
472.732	20.68
473.086	20.57
473.441	20.73
473.795	20.7
474.15	20.62
474.504	20.84
474.859	20.93
475.213	20.9
475.567	20.83
475.921	20.81
476.275	20.94
476.63	21.05
476.984	21.22
477.338	21.09
477.692	20.94
478.045	21
478.399	21.12
478.753	20.91
479.107	21.09
479.461	20.92
479.814	20.91
480.168	21.05
480.521	21.1
480.875	21.34
481.228	21.26
481.582	21.31
481.935	21.27
482.289	21.15
482.642	21.2
482.995	21.05
483.348	21.09
483.701	21.09
484.055	20.95
484.408	20.83
484.761	20.53
485.114	20.06
485.466	20.11
485.819	20.37
486.172	20.59
486.525	20.81
486.878	21.13
487.23	21.13
487.583	21.24
487.936	21.18
488.288	20.96
488.641	20.85
488.993	20.87
489.345	20.87
489.698	20.97
490.05	21.16
490.402	21.27
490.754	21.5
491.107	21.69
491.459	21.82
491.811	21.89
492.163	21.82
492.515	21.6
492.866	21.32
493.218	21.11
493.57	21.31
493.922	21.52
494.274	21.86
494.625	22.04
494.977	22.31
495.328	22.51
495.68	22.53
496.031	22.63
496.383	22.64
496.734	22.75
497.086	22.67
497.437	22.71
497.788	22.6
498.139	22.41
498.49	22.39
498.842	22.45
499.193	22.59
499.544	22.71
499.894	22.66
500.245	22.84
500.596	22.92
500.947	22.86
501.298	23.1
501.648	23.15
501.999	23.27
502.35	23.36
502.7	23.35
503.051	23.2
503.401	23.34
503.752	23.41
504.102	23.31
504.452	23.51
504.803	23.51
505.153	23.44
505.503	23.39
505.853	23.51
506.203	23.6
506.553	23.57
506.903	23.62
507.253	23.47
507.603	23.65
507.953	23.7
508.303	23.66
508.652	23.78
509.002	23.89
509.352	23.79
509.701	23.87
510.051	23.68
510.4	23.62
510.75	23.74
511.099	23.73
511.449	23.88
511.798	23.93
512.147	23.88
512.496	23.98
512.846	24.24
513.195	24.02
513.544	24.11
513.893	23.96
514.242	24.18
514.591	24.26
514.939	24.28
515.288	24.33
515.637	24.46
515.986	24.46
516.334	24.42
516.683	24.46
517.032	24.58
517.38	24.7
517.729	24.55
518.077	24.81
518.426	24.57
518.774	24.58
519.122	24.52
519.47	24.51
519.819	24.32
520.167	24.28
520.515	24.33
520.863	24.53
521.211	24.6
521.559	24.75
521.907	24.99
522.255	24.86
522.602	25.07
522.95	25.03
523.298	25.5
523.645	25.32
523.993	25.34
524.341	25.37
524.688	25.5
525.036	25.22
525.383	25.36
525.73	25.37
526.078	25.29
526.425	25.26
526.772	24.93
527.119	24.97
527.466	24.92
527.814	25.05
528.161	25.13
528.508	25.18
528.854	25.26
529.201	25.06
529.548	24.71
529.895	24.38
530.242	24.4
530.588	24.71
530.935	24.91
531.282	25.07
531.628	25.26
531.975	25.4
532.321	25.39
532.667	25.74
533.014	25.81
533.36	25.77
533.706	25.8
534.052	25.65
534.399	25.42
534.745	25.12
535.091	25.28
535.437	25.62
535.783	25.7
536.129	25.85
536.474	26.27
536.82	26.38
537.166	26.36
537.512	26.22
537.857	25.93
538.203	26.03
538.549	26.1
538.894	26.19
539.239	26.48
539.585	26.52
539.93	26.7
540.276	26.83
540.621	26.85
540.966	26.86
541.311	26.79
541.656	26.74
542.001	26.61
542.346	26.22
542.691	25.91
543.036	25.83
543.381	26.09
543.726	26.33
544.071	26.43
544.415	26.59
544.76	26.73
545.105	26.71
545.449	26.94
545.794	27.01
546.138	27.18
546.483	27.22
546.827	27.19
547.171	27.28
547.516	27.46
547.86	27.16
548.204	27.26
548.548	27.17
548.892	27.31
549.236	27.45
549.58	27.63
549.924	27.91
550.268	27.91
550.612	28.23
550.956	28.2
551.3	28.06
551.643	28.25
551.987	28.36
552.33	28.17
552.674	28.05
553.017	28.39
553.361	28.29
553.704	28.13
554.048	27.96
554.391	28.15
554.734	28.32
555.077	28.41
555.42	28.45
555.764	28.56
556.107	28.79
556.45	28.63
556.793	28.86
557.135	28.77
557.478	28.79
557.821	28.91
558.164	28.89
558.507	28.75
558.849	29.14
559.192	29
559.534	29.09
559.877	29.22
560.219	29.18
560.562	29.22
560.904	29.32
561.246	29.05
561.589	29.42
561.931	29.19
562.273	29.29
562.615	29.32
562.957	29.35
563.299	29.24
563.641	29.27
563.983	29.37
564.325	29.49
564.667	29.6
565.008	29.73
565.35	29.78
565.692	29.67
566.033	29.71
566.375	29.85
566.716	29.71
567.058	29.57
567.399	29.69
567.741	29.47
568.082	29.67
568.423	29.7
568.764	29.95
569.105	29.88
569.447	29.93
569.788	29.86
570.129	29.95
570.47	30.25
570.811	30.15
571.151	30.26
571.492	30.29
571.833	30.23
572.174	30.35
572.514	30.31
572.855	30.14
573.195	30.06
573.536	30.06
573.876	30.23
574.217	30.34
574.557	30.4
574.898	30.52
575.238	30.54
575.578	30.5
575.918	30.71
576.258	30.44
576.598	30.45
576.938	30.61
577.278	30.63
577.618	30.87
577.958	30.83
578.298	30.93
578.638	30.91
578.977	31.03
579.317	31.04
579.657	31.27
579.996	31.14
580.336	31.16
580.675	31.16
581.014	31.5
581.354	31.19
581.693	31.38
582.032	31.36
582.372	31.61
582.711	31.43
583.05	31.35
583.389	31.72
583.728	31.76
584.067	31.76
584.406	31.7
584.745	31.75
585.083	31.53
585.422	32.02
585.761	31.99
586.1	31.84
586.438	31.8
586.777	32.05
587.115	32.15
587.454	31.9
587.792	31.97
588.13	32.39
588.469	32.28
588.807	31.95
589.145	32.54
589.483	32.34
589.821	32.1
590.159	32.28
590.497	32.1
590.835	32.12
591.173	32.2
591.511	32.23
591.849	32.47
592.187	32.22
592.524	32.31
592.862	32.21
593.2	32.71
593.537	32.75
593.875	33
594.212	32.76
594.55	32.78
594.887	32.87
595.224	32.81
595.561	32.75
595.899	32.26
596.236	32.85
596.573	32.81
596.91	32.8
597.247	32.85
597.584	32.72
597.921	32.99
598.258	32.31
598.594	32.56
598.931	32.62
599.268	32.87
599.604	33.02
599.941	33.19
600.277	32.92
600.614	33.27
600.95	33.45
601.287	33.58
601.623	33.64
601.959	33.5
602.296	33.27
602.632	33.43
602.968	33.49
603.304	33.48
603.64	33.8
603.976	33.76
604.312	33.45
604.648	33.1
604.984	33.28
605.319	33.26
605.655	33.56
605.991	33.44
606.326	33.45
606.662	33.37
606.998	33.27
607.333	33.63
607.668	33.93
608.004	33.82
608.339	34.09
608.674	33.96
609.01	34.3
609.345	34.03
609.68	34.18
610.015	33.99
610.35	33.86
610.685	33.63
611.02	33.78
611.355	33.8
611.689	34.12
612.024	34.06
612.359	34.38
612.694	34.53
613.028	34.44
613.363	34.63
613.697	34.87
614.032	34.72
614.366	34.52
614.7	34.64
615.035	34.49
615.369	34.69
615.703	34.78
616.037	34.69
616.371	35.01
616.705	35.12
617.039	35.23
617.373	35.05
617.707	35.02
618.041	34.86
618.375	34.8
618.709	35.19
619.042	35.24
619.376	35.72
619.71	35.27
620.043	35.25
620.377	35.32
620.71	35.26
621.043	35.08
621.377	35.41
621.71	35.07
622.043	35.6
622.376	35.85
622.709	35.45
623.043	35.36
623.376	35.67
623.709	35.61
624.041	35.79
624.374	35.47
624.707	36.3
625.04	35.6
625.373	35.72
625.705	35.5
626.038	35.94
626.37	36.04
626.703	36.03
627.035	35.94
627.368	35.65
627.7	35.62
628.032	35.65
628.365	35.92
628.697	35.62
629.029	35.68
629.361	35.89
629.693	36.17
630.025	36.2
630.357	36.08
630.689	36.13
631.021	36.2
631.353	36.67
631.684	36.43
632.016	36.44
632.348	36.53
632.679	36.44
633.011	36.59
633.342	36.25
633.674	36.43
634.005	36.61
634.336	36.73
634.668	36.81
634.999	36.65
635.33	36.33
635.661	36.41
635.992	36.78
636.323	36.36
636.654	37.06
636.985	36.48
637.316	37.01
637.647	37.37
637.977	36.77
638.308	37.14
638.639	36.92
638.969	36.81
639.3	37.24
639.63	37.55
639.961	37.24
640.291	37.21
640.622	37.5
640.952	37.18
641.282	37.02
641.612	37.11
641.943	37.45
642.273	37.12
642.603	37.56
642.933	37.91
643.263	36.94
643.592	37.65
643.922	37.64
644.252	37.75
644.582	37.89
644.911	37.35
645.241	37.58
645.571	37.83
645.9	37.99
646.23	37.8
646.559	37.99
646.888	37.9
647.218	37.85
647.547	37.7
647.876	37.51
648.205	38.07
648.534	37.75
648.863	37.77
649.192	37.72
649.521	37.81
649.85	37.47
650.179	37.75
650.508	38.11
650.837	38.33
651.165	37.72
651.494	38.3
651.822	38.24
652.151	38.24
652.479	38.14
652.808	37.93
653.136	38.31
653.465	38.6
653.793	38.31
654.121	37.74
654.449	37.84
654.777	38.88
655.105	38.67
655.433	38.07
655.761	38.49
656.089	38.23
656.417	38.6
656.745	38.3
657.073	38.55
657.4	38.31
657.728	38.68
658.056	39.04
658.383	38.97
658.711	38.61
659.038	38.97
659.365	38.78
659.693	38.87
660.02	39.27
660.347	39.01
660.674	38.48
661.001	38.51
661.329	38.52
661.656	38.83
661.982	38.79
662.309	38.58
662.636	39.45
662.963	39.23
663.29	38.97
663.616	38.61
663.943	39.21
664.27	39.48
664.596	39.04
664.923	39.12
665.249	39.38
665.576	39.65
665.902	39.55
666.228	39.37
666.554	39.75
666.881	39.05
667.207	40.07
667.533	39.39
667.859	39.9
668.185	40.06
668.511	39.45
668.837	39.95
669.162	39.88
669.488	39.65
669.814	39.03
670.139	39.92
670.465	39.33
670.791	39.65
