Data from 20-5_forehead_Reflection__2__12.txt Node

Date: Fri Nov 11 20:15:48 CST 2022
User: ToomeyLab
Spectrometer: FLMS14357
Trigger mode: 0
Integration Time (sec): 1.000000E-2
Scans to average: 100
Electric dark correction enabled: true
Nonlinearity correction enabled: false
Boxcar width: 0
XAxis mode: Wavelengths
Number of Pixels in Spectrum: 2048
>>>>>Begin Spectral Data<<<<<
189.047	-70.86
189.435	-70.86
189.823	-70.86
190.211	1164.5
190.599	-103.89
190.987	360.26
191.375	82.25
191.763	17.26
192.151	4968.75
192.538	56.54
192.926	-7.76
193.314	253.87
193.702	-39.3
194.089	1050.57
194.477	172.01
194.864	213.34
195.252	57.88
195.639	15.97
196.027	71.13
196.414	-36.31
196.801	-70.39
197.189	171.14
197.576	610.31
197.963	-8.94
198.351	-18.1
198.738	92.19
199.125	52.03
199.512	47.8
199.899	-65.94
200.286	-12.21
200.673	-22.5
201.06	83.47
201.447	65.62
201.833	56.95
202.22	46.38
202.607	36.55
202.994	48.96
203.38	57.56
203.767	56.95
204.154	30.81
204.54	28.48
204.927	38.48
205.313	85.99
205.699	-25.96
206.086	58.28
206.472	32.18
206.858	30.06
207.245	60.48
207.631	33.11
208.017	-2.71
208.403	80.27
208.789	48.56
209.175	53.43
209.561	48.28
209.947	24.56
210.333	-2.12
210.719	36.45
211.105	39.93
211.491	48.04
211.876	34.13
212.262	27.95
212.648	63.14
213.034	16.71
213.419	50.68
213.805	33.03
214.19	-1.87
214.576	14.41
214.961	0.4
215.346	10.1
215.732	1.93
216.117	34.53
216.502	10.47
216.888	37.05
217.273	48.74
217.658	25.18
218.043	13.39
218.428	21.87
218.813	16.24
219.198	11.34
219.583	30.38
219.968	11.25
220.353	5.44
220.738	-4.61
221.122	22.59
221.507	3.33
221.892	9.56
222.276	12.37
222.661	27.81
223.046	0.15
223.43	7.66
223.815	11.92
224.199	6.29
224.583	15.39
224.968	-3.12
225.352	10.21
225.736	6.22
226.121	7.83
226.505	8.28
226.889	7.88
227.273	3.73
227.657	7.44
228.041	3.63
228.425	0.98
228.809	3
229.193	10.51
229.577	5.29
229.961	4.82
230.344	4.09
230.728	2.81
231.112	2.45
231.495	3.84
231.879	4
232.263	3.29
232.646	3
233.03	4.48
233.413	5.86
233.797	6.11
234.18	2.78
234.563	4.23
234.946	1.12
235.33	4.45
235.713	3.92
236.096	4.99
236.479	3.55
236.862	6.9
237.245	2.61
237.628	5.15
238.011	3.25
238.394	4.96
238.777	5.66
239.16	5.53
239.543	0.33
239.925	4.5
240.308	6.77
240.691	4.75
241.073	3.61
241.456	3.93
241.838	4.57
242.221	3.75
242.603	4.18
242.986	3.44
243.368	3.76
243.75	3.63
244.133	3.36
244.515	3.22
244.897	3.65
245.279	3.49
245.661	3.68
246.043	3.66
246.425	4.91
246.807	3.78
247.189	3.85
247.571	3.18
247.953	3.14
248.335	3.28
248.717	3.5
249.098	3.82
249.48	3.7
249.862	4.01
250.243	3.37
250.625	3.54
251.006	4.72
251.388	3.86
251.769	4.51
252.151	4.2
252.532	3.25
252.913	4.54
253.295	3.54
253.676	3.11
254.057	2.88
254.438	3.77
254.819	3.03
255.2	4.62
255.581	4.38
255.962	3.2
256.343	4.36
256.724	3.43
257.105	3.51
257.486	3.04
257.867	4.34
258.247	3.39
258.628	3.34
259.009	3.76
259.389	3.59
259.77	4.67
260.15	3.52
260.531	3.59
260.911	3.15
261.292	3.65
261.672	3.08
262.052	3.31
262.432	3.7
262.813	3.54
263.193	3.36
263.573	3.35
263.953	4.53
264.333	3.77
264.713	3.71
265.093	4.39
265.473	3.02
265.853	3.27
266.233	3.47
266.612	3.42
266.992	3.13
267.372	3.68
267.752	3.42
268.131	3.61
268.511	3.39
268.89	3.12
269.27	3.1
269.649	3.12
270.029	3.84
270.408	3.54
270.787	3.07
271.167	3.21
271.546	3.84
271.925	3.37
272.304	3.74
272.683	3.33
273.062	3.21
273.441	3.42
273.82	3.33
274.199	2.94
274.578	2.74
274.957	3.56
275.336	4.01
275.715	3.47
276.093	3.36
276.472	2.7
276.851	3.02
277.229	3.28
277.608	3.04
277.986	3.37
278.365	2.78
278.743	3.35
279.122	3.74
279.5	3.52
279.878	3.27
280.257	2.95
280.635	2.89
281.013	3.58
281.391	3.27
281.769	3.06
282.147	3.12
282.525	2.6
282.903	3.11
283.281	3.41
283.659	3.65
284.037	3.67
284.415	3.39
284.792	3.33
285.17	3.53
285.548	3.14
285.925	3.13
286.303	3.55
286.68	3.68
287.058	3.61
287.435	3.93
287.813	3.59
288.19	3.34
288.567	3.4
288.945	3.59
289.322	3.97
289.699	3
290.076	4.1
290.453	3.34
290.83	3.4
291.207	3.39
291.584	3.62
291.961	3.49
292.338	3.94
292.715	3.98
293.092	4.2
293.469	3.87
293.845	4.37
294.222	3.91
294.599	4.19
294.975	4.53
295.352	4.34
295.728	4.33
296.105	4.01
296.481	3.71
296.858	4.49
297.234	4
297.61	3.94
297.986	4.25
298.363	4.06
298.739	4.33
299.115	4.36
299.491	4.3
299.867	4.86
300.243	4.38
300.619	4.51
300.995	4.64
301.371	4.99
301.746	5.15
302.122	4.51
302.498	5.12
302.874	4.67
303.249	5.2
303.625	4.33
304	4.39
304.376	5.05
304.751	4.25
305.127	4.8
305.502	5.01
305.878	5.39
306.253	5
306.628	5.29
307.003	5.12
307.378	4.98
307.754	5.73
308.129	5.49
308.504	5.86
308.879	5.41
309.254	5.49
309.629	5.51
310.003	5.57
310.378	5.78
310.753	5.98
311.128	5.87
311.502	5.73
311.877	5.69
312.252	5.63
312.626	5.94
313.001	5.19
313.375	6.03
313.75	5.64
314.124	5.49
314.498	5.92
314.873	6.33
315.247	6.35
315.621	6.33
315.995	6.84
316.369	6.41
316.743	6.02
317.117	6.33
317.491	6.27
317.865	5.65
318.239	6.44
318.613	6.49
318.987	6.45
319.361	6.62
319.734	7.11
320.108	6.54
320.482	6.7
320.855	6.33
321.229	6.99
321.602	6.65
321.976	6.93
322.349	7.74
322.723	7.69
323.096	6.95
323.469	7.36
323.843	7.35
324.216	6.83
324.589	7.44
324.962	7.69
325.335	7.29
325.708	7.32
326.081	7.51
326.454	7.19
326.827	6.93
327.2	7.5
327.573	8.01
327.945	6.85
328.318	6.91
328.691	7.39
329.063	7.77
329.436	7.1
329.809	7.55
330.181	7.15
330.553	7.14
330.926	7.41
331.298	8.16
331.671	8.16
332.043	7.29
332.415	7.25
332.787	7.74
333.159	7.89
333.532	7.65
333.904	8.29
334.276	7.43
334.648	7.51
335.02	7.51
335.391	8.17
335.763	7.85
336.135	7.88
336.507	8.21
336.879	8.51
337.25	8.14
337.622	8.27
337.993	8.58
338.365	8.22
338.736	7.83
339.108	8.21
339.479	7.95
339.851	8.47
340.222	8.11
340.593	8.59
340.964	8.4
341.336	8.65
341.707	7.9
342.078	8.12
342.449	8.41
342.82	8.82
343.191	8.42
343.562	8.58
343.933	8.23
344.303	8.73
344.674	8.98
345.045	8.56
345.416	8.79
345.786	8.63
346.157	8.62
346.527	9.04
346.898	8.43
347.268	8.87
347.639	8.92
348.009	9.04
348.38	9.26
348.75	8.83
349.12	9.58
349.49	9.56
349.861	9.07
350.231	9.21
350.601	9.12
350.971	9.06
351.341	9.38
351.711	9.22
352.081	9.59
352.45	9.58
352.82	9.36
353.19	9.95
353.56	9.16
353.929	9.62
354.299	9.31
354.669	9.62
355.038	9.77
355.408	9.65
355.777	9.81
356.147	9.66
356.516	9.72
356.885	9.95
357.254	9.82
357.624	9.39
357.993	9.55
358.362	9.8
358.731	9.63
359.1	9.57
359.469	9.54
359.838	9.55
360.207	9.77
360.576	9.85
360.945	10.11
361.314	9.71
361.682	9.87
362.051	9.78
362.42	9.94
362.788	10.14
363.157	9.97
363.525	9.99
363.894	10.08
364.262	10.22
364.631	10.31
364.999	10.14
365.367	10.46
365.735	10.31
366.104	10
366.472	10.18
366.84	10.04
367.208	10.2
367.576	10.67
367.944	10.93
368.312	10.43
368.68	10.77
369.048	10.73
369.416	10.72
369.783	10.79
370.151	10.74
370.519	10.77
370.886	10.89
371.254	11.18
371.621	10.62
371.989	10.56
372.356	11.09
372.724	11.32
373.091	10.93
373.458	10.82
373.826	10.73
374.193	11.14
374.56	11.03
374.927	11.02
375.294	11.42
375.661	11.55
376.028	11.18
376.395	11.53
376.762	11.38
377.129	11.46
377.496	11.52
377.863	11.41
378.229	11.58
378.596	11.32
378.963	11.47
379.329	11.8
379.696	11.76
380.062	11.74
380.429	11.75
380.795	12.01
381.161	11.99
381.528	11.58
381.894	11.78
382.26	12.01
382.626	12.03
382.993	11.75
383.359	12.11
383.725	12.19
384.091	12
384.457	11.91
384.823	11.81
385.188	12.12
385.554	11.8
385.92	11.93
386.286	12.01
386.651	12.19
387.017	12.22
387.383	12.24
387.748	12.09
388.114	12.17
388.479	12.06
388.845	12.04
389.21	12.47
389.575	12.55
389.94	12.41
390.306	12.26
390.671	12.56
391.036	12.71
391.401	12.72
391.766	12.73
392.131	12.82
392.496	12.76
392.861	12.53
393.226	12.33
393.591	12.64
393.956	12.73
394.32	12.74
394.685	12.72
395.05	13.04
395.414	12.77
395.779	13.14
396.143	12.78
396.508	13.02
396.872	13.06
397.236	13.1
397.601	13.03
397.965	13.01
398.329	12.98
398.694	13.26
399.058	13.27
399.422	13.45
399.786	13.2
400.15	13.38
400.514	13.28
400.878	13.36
401.242	13.57
401.605	13.54
401.969	13.37
402.333	13.06
402.697	13.47
403.06	14.01
403.424	13.69
403.787	13.53
404.151	13.54
404.514	13.55
404.878	13.61
405.241	13.43
405.604	13.44
405.968	13.67
406.331	13.48
406.694	13.67
407.057	13.58
407.42	13.8
407.783	13.85
408.146	14.01
408.509	13.89
408.872	13.87
409.235	14.27
409.598	13.84
409.961	14.12
410.323	14.13
410.686	13.84
411.049	14.07
411.411	14.15
411.774	13.9
412.136	14.04
412.499	14.1
412.861	14.15
413.223	14.04
413.586	14.24
413.948	14.58
414.31	14.72
414.672	14.27
415.035	14.3
415.397	14.3
415.759	14.48
416.121	14.44
416.483	14.48
416.845	14.12
417.206	14.23
417.568	14.32
417.93	14.47
418.292	14.43
418.653	14.54
419.015	14.4
419.377	14.4
419.738	14.61
420.1	14.6
420.461	14.49
420.822	14.47
421.184	14.53
421.545	14.52
421.906	14.33
422.267	14.42
422.629	14.24
422.99	14.62
423.351	14.68
423.712	14.81
424.073	14.8
424.434	14.85
424.795	14.81
425.155	14.67
425.516	14.73
425.877	14.74
426.238	14.89
426.598	14.81
426.959	14.98
427.32	15.13
427.68	15.26
428.041	15.45
428.401	15.32
428.761	15.66
429.122	15.59
429.482	15.69
429.842	15.62
430.202	15.62
430.563	15.81
430.923	15.7
431.283	15.79
431.643	15.82
432.003	16.09
432.363	15.77
432.722	16.01
433.082	15.84
433.442	15.95
433.802	16.01
434.161	15.98
434.521	16.02
434.881	15.95
435.24	16.01
435.6	16.1
435.959	16.14
436.319	16.14
436.678	16.29
437.037	16.42
437.396	16.48
437.756	16.5
438.115	16.55
438.474	16.32
438.833	16.38
439.192	16.65
439.551	16.43
439.91	16.63
440.269	16.53
440.628	16.57
440.987	16.56
441.345	16.55
441.704	16.64
442.063	16.56
442.421	16.52
442.78	16.54
443.138	16.78
443.497	16.65
443.855	16.91
444.214	17.02
444.572	17.19
444.93	17.03
445.288	16.98
445.647	17.07
446.005	17.11
446.363	17.07
446.721	16.94
447.079	16.95
447.437	16.81
447.795	16.91
448.153	16.83
448.51	16.96
448.868	17
449.226	17.11
449.584	17.19
449.941	17.29
450.299	17.35
450.656	17.56
451.014	17.6
451.371	17.65
451.729	17.76
452.086	17.94
452.443	17.94
452.801	17.95
453.158	17.83
453.515	17.81
453.872	17.73
454.229	17.95
454.586	17.92
454.943	18.07
455.3	18.09
455.657	18.28
456.014	18.2
456.371	18.25
456.727	18.37
457.084	18.1
457.441	18.45
457.797	18.31
458.154	18.25
458.51	18.49
458.867	18.4
459.223	18.54
459.58	18.35
459.936	18.44
460.292	18.47
460.648	18.24
461.005	18.09
461.361	18.1
461.717	18.23
462.073	18.38
462.429	18.39
462.785	18.64
463.141	18.69
463.496	18.76
463.852	19.02
464.208	19.03
464.564	19
464.919	19.12
465.275	19.07
465.631	19.15
465.986	19.17
466.342	19.03
466.697	19.08
467.052	19.35
467.408	19.24
467.763	19.28
468.118	19.17
468.473	19.32
468.829	19.22
469.184	19.49
469.539	19.58
469.894	19.51
470.249	19.59
470.603	19.63
470.958	19.66
471.313	19.6
471.668	19.75
472.023	19.73
472.377	19.79
472.732	19.64
473.086	19.77
473.441	19.98
473.795	19.93
474.15	19.94
474.504	19.83
474.859	19.97
475.213	20.03
475.567	20.11
475.921	20.18
476.275	20.09
476.63	20.27
476.984	20.25
477.338	20.24
477.692	20.09
478.045	20.25
478.399	20.4
478.753	20.13
479.107	20.29
479.461	20.26
479.814	20.29
480.168	20.38
480.521	20.43
480.875	20.67
481.228	20.42
481.582	20.57
481.935	20.33
482.289	20.35
482.642	20.45
482.995	20.37
483.348	20.34
483.701	20.26
484.055	20.16
484.408	20.04
484.761	19.66
485.114	19.44
485.466	19.4
485.819	19.73
486.172	19.86
486.525	20.05
486.878	20.21
487.23	20.26
487.583	20.4
487.936	20.41
488.288	20.25
488.641	20.02
488.993	20.06
489.345	20.17
489.698	20.27
490.05	20.37
490.402	20.5
490.754	20.72
491.107	20.85
491.459	20.93
491.811	21.06
492.163	21.1
492.515	20.97
492.866	20.52
493.218	20.5
493.57	20.62
493.922	20.9
494.274	21.11
494.625	21.31
494.977	21.5
495.328	21.64
495.68	21.64
496.031	21.79
496.383	21.91
496.734	21.98
497.086	22.09
497.437	22.02
497.788	21.85
498.139	21.76
498.49	21.75
498.842	21.82
499.193	21.83
499.544	22.02
499.894	21.96
500.245	22.12
500.596	22.24
500.947	22.19
501.298	22.39
501.648	22.22
501.999	22.52
502.35	22.61
502.7	22.71
503.051	22.63
503.401	22.64
503.752	22.62
504.102	22.78
504.452	22.67
504.803	22.89
505.153	22.65
505.503	22.63
505.853	22.82
506.203	22.96
506.553	22.81
506.903	22.97
507.253	22.85
507.603	23
507.953	23.09
508.303	23.18
508.652	22.98
509.002	23.3
509.352	23.1
509.701	23.04
510.051	23.03
510.4	23.09
510.75	22.99
511.099	22.91
511.449	23.19
511.798	23.31
512.147	23.35
512.496	23.13
512.846	23.33
513.195	23.34
513.544	23.4
513.893	23.36
514.242	23.38
514.591	23.34
514.939	23.67
515.288	23.77
515.637	23.8
515.986	23.69
516.334	23.88
516.683	23.96
517.032	23.85
517.38	23.94
517.729	24.12
518.077	24.09
518.426	24.09
518.774	23.91
519.122	23.92
519.47	23.87
519.819	23.61
520.167	23.56
520.515	23.74
520.863	23.73
521.211	23.98
521.559	23.9
521.907	24.11
522.255	24.24
522.602	24.5
522.95	24.44
523.298	24.48
523.645	24.53
523.993	24.64
524.341	24.77
524.688	24.78
525.036	24.6
525.383	24.6
525.73	24.68
526.078	24.42
526.425	24.62
526.772	24.36
527.119	24.21
527.466	24.25
527.814	24.43
528.161	24.36
528.508	24.43
528.854	24.43
529.201	24.32
529.548	24
529.895	23.81
530.242	23.76
530.588	24.07
530.935	24.17
531.282	24.32
531.628	24.38
531.975	24.54
532.321	24.66
532.667	24.85
533.014	24.89
533.36	24.92
533.706	24.93
534.052	24.84
534.399	24.7
534.745	24.43
535.091	24.58
535.437	24.76
535.783	24.81
536.129	25.05
536.474	25.37
536.82	25.47
537.166	25.53
537.512	25.44
537.857	25.26
538.203	25.3
538.549	25.44
538.894	25.47
539.239	25.71
539.585	25.81
539.93	25.95
540.276	26.13
540.621	26.08
540.966	26.11
541.311	26.22
541.656	26.08
542.001	25.77
542.346	25.52
542.691	25.18
543.036	25.25
543.381	25.48
543.726	25.61
544.071	25.72
544.415	25.87
544.76	25.87
545.105	25.98
545.449	26.18
545.794	26.28
546.138	26.27
546.483	26.5
546.827	26.52
547.171	26.43
547.516	26.43
547.86	26.46
548.204	26.48
548.548	26.41
548.892	26.6
549.236	26.77
549.58	27.03
549.924	27.11
550.268	27.15
550.612	27.37
550.956	27.46
551.3	27.51
551.643	27.38
551.987	27.52
552.33	27.67
552.674	27.49
553.017	27.58
553.361	27.67
553.704	27.49
554.048	27.4
554.391	27.6
554.734	27.67
555.077	27.98
555.42	27.82
555.764	27.86
556.107	28.08
556.45	27.94
556.793	28.02
557.135	27.99
557.478	28.25
557.821	28.21
558.164	28.31
558.507	28.23
558.849	28.19
559.192	28.36
559.534	28.62
559.877	28.51
560.219	28.47
560.562	28.53
560.904	28.59
561.246	28.57
561.589	28.61
561.931	28.51
562.273	28.67
562.615	28.71
562.957	28.48
563.299	28.77
563.641	28.92
563.983	28.72
564.325	28.82
564.667	29.05
565.008	28.93
565.35	28.99
565.692	28.81
566.033	29.04
566.375	28.93
566.716	29.17
567.058	29.09
567.399	28.95
567.741	28.95
568.082	28.9
568.423	29.01
568.764	29.19
569.105	28.9
569.447	29.29
569.788	29.43
570.129	29.32
570.47	29.42
570.811	29.44
571.151	29.53
571.492	29.47
571.833	29.5
572.174	29.9
572.514	29.75
572.855	29.3
573.195	29.46
573.536	29.33
573.876	29.46
574.217	29.63
574.557	29.46
574.898	29.79
575.238	29.77
575.578	29.71
575.918	29.85
576.258	29.86
576.598	29.66
576.938	29.77
577.278	29.69
577.618	29.85
577.958	29.98
578.298	29.97
578.638	30.05
578.977	30.39
579.317	30.37
579.657	30.51
579.996	30.62
580.336	30.41
580.675	30.58
581.014	30.66
581.354	30.56
581.693	30.73
582.032	30.65
582.372	30.81
582.711	30.74
583.05	30.71
583.389	31.09
583.728	30.81
584.067	31.09
584.406	31.07
584.745	31.26
585.083	31.03
585.422	31.19
585.761	31.21
586.1	31.09
586.438	31.1
586.777	31.13
587.115	31.57
587.454	31.52
587.792	31.45
588.13	31.4
588.469	31.57
588.807	31.42
589.145	31.33
589.483	31.64
589.821	31.29
590.159	31.63
590.497	31.62
590.835	31.41
591.173	31.55
591.511	31.61
591.849	31.48
592.187	31.46
592.524	31.69
592.862	31.53
593.2	31.73
593.537	31.83
593.875	32.18
594.212	32.24
594.55	32.1
594.887	31.93
595.224	32.09
595.561	31.93
595.899	31.66
596.236	32.01
596.573	32.12
596.91	32.06
597.247	31.96
597.584	32.06
597.921	32.12
598.258	31.79
598.594	31.6
598.931	31.93
599.268	31.72
599.604	32.29
599.941	32.18
600.277	32.45
600.614	32.45
600.95	32.49
601.287	32.65
601.623	33.08
601.959	32.66
602.296	32.56
602.632	32.83
602.968	33.19
603.304	32.88
603.64	32.71
603.976	32.95
604.312	32.56
604.648	32.21
604.984	32.76
605.319	32.44
605.655	32.61
605.991	32.4
606.326	32.6
606.662	32.46
606.998	32.51
607.333	32.7
607.668	32.76
608.004	33.12
608.339	33.18
608.674	33.25
609.01	33.42
609.345	33.22
609.68	33.43
610.015	33.13
610.35	33.33
610.685	33.13
611.02	32.53
611.355	32.97
611.689	33.18
612.024	33.04
612.359	32.98
612.694	33.31
613.028	33.34
613.363	33.75
613.697	33.7
614.032	33.54
614.366	33.66
614.7	33.87
615.035	34.03
615.369	33.89
615.703	33.69
616.037	34.16
616.371	33.87
616.705	34.22
617.039	34.45
617.373	33.91
617.707	34.24
618.041	34.16
618.375	33.89
618.709	34.52
619.042	34.12
619.376	34.22
619.71	34.46
620.043	34.66
620.377	34.33
620.71	34.28
621.043	34.24
621.377	34.32
621.71	34.55
622.043	34.1
622.376	34.91
622.709	34.48
623.043	34.72
623.376	34.76
623.709	34.84
624.041	34.75
624.374	34.85
624.707	34.89
625.04	35
625.373	35.02
625.705	35.09
626.038	34.85
626.37	35.12
626.703	35.1
627.035	35.14
627.368	34.58
627.7	34.87
628.032	34.78
628.365	34.83
628.697	34.64
629.029	34.79
629.361	34.57
629.693	34.89
630.025	34.98
630.357	35.26
630.689	35.17
631.021	35.26
631.353	35.35
631.684	35
632.016	35.39
632.348	35.43
632.679	35.54
633.011	35.23
633.342	35.24
633.674	35.45
634.005	35.81
634.336	35.75
634.668	35.69
634.999	35.94
635.33	35.6
635.661	35.63
635.992	35.62
636.323	35.65
636.654	36.25
636.985	35.84
637.316	35.92
637.647	35.66
637.977	35.94
638.308	36.04
638.639	36.17
638.969	35.64
639.3	35.91
639.63	36.84
639.961	36.02
640.291	36.5
640.622	36.87
640.952	36.29
641.282	36.04
641.612	35.94
641.943	36.46
642.273	36.4
642.603	36.4
642.933	36.39
643.263	36.71
643.592	36.61
643.922	36.3
644.252	36.83
644.582	36.49
644.911	36.49
645.241	36.16
645.571	36.69
645.9	36.97
646.23	36.98
646.559	36.44
646.888	36.5
647.218	36.71
647.547	36.51
647.876	37.2
648.205	36.91
648.534	36.74
648.863	36.63
649.192	36.86
649.521	36.41
649.85	37.04
650.179	36.82
650.508	37.23
650.837	36.99
651.165	37.35
651.494	37.47
651.822	36.67
652.151	36.81
652.479	37.03
652.808	36.9
653.136	37.28
653.465	37.07
653.793	37.01
654.121	36.77
654.449	36.87
654.777	37.66
655.105	37.34
655.433	37.23
655.761	37.58
656.089	37.79
656.417	37.06
656.745	37.09
657.073	37.67
657.4	37.06
657.728	37.56
658.056	37.94
658.383	37.46
658.711	37.62
659.038	37.35
659.365	37.75
659.693	37.55
660.02	37.85
660.347	37.24
660.674	37.36
661.001	37.08
661.329	37.41
661.656	37.45
661.982	37.81
662.309	37.75
662.636	37.62
662.963	37.36
663.29	37.69
663.616	37.2
663.943	37.73
664.27	38.08
664.596	37.85
664.923	38.24
665.249	38.29
665.576	38.69
665.902	38.24
666.228	38.72
666.554	37.91
666.881	37.58
667.207	38.09
667.533	38.46
667.859	38.42
668.185	38.27
668.511	38.57
668.837	39.07
669.162	38.36
669.488	38.66
669.814	38.22
670.139	37.86
670.465	38.48
670.791	38.4
671.116	38.5
671.442	37.96
671.767	38.69
