Data from 20-5_chest_Reflection__4__04.txt Node

Date: Fri Nov 11 20:13:23 CST 2022
User: ToomeyLab
Spectrometer: FLMS14357
Trigger mode: 0
Integration Time (sec): 1.000000E-2
Scans to average: 100
Electric dark correction enabled: true
Nonlinearity correction enabled: false
Boxcar width: 0
XAxis mode: Wavelengths
Number of Pixels in Spectrum: 2048
>>>>>Begin Spectral Data<<<<<
189.047	49.45
189.435	49.45
189.823	49.45
190.211	-124
190.599	-109.43
190.987	39.62
191.375	-5.94
191.763	78.36
192.151	2050
192.538	97.06
192.926	19.22
193.314	226
193.702	55.25
194.089	1336.36
194.477	275
194.864	148.97
195.252	137.95
195.639	-196.04
196.027	-269.05
196.414	-30.99
196.801	164.91
197.189	-48.53
197.576	52.63
197.963	47.03
198.351	-4.56
198.738	21.72
199.125	-3.79
199.512	26.81
199.899	-78.03
200.286	14.77
200.673	-2.01
201.06	62.03
201.447	36.27
201.833	43.82
202.22	-24.47
202.607	35.52
202.994	32.34
203.38	7.91
203.767	27.89
204.154	41.78
204.54	-12.94
204.927	38.21
205.313	-23.94
205.699	-68.47
206.086	33.07
206.472	13.81
206.858	37.71
207.245	35.13
207.631	30.25
208.017	2.47
208.403	42.95
208.789	83.22
209.175	44.64
209.561	44.21
209.947	2.42
210.333	38.82
210.719	30.58
211.105	44.5
211.491	18.77
211.876	0.78
212.262	45.4
212.648	69.1
213.034	6.64
213.419	16.67
213.805	13.98
214.19	-8.3
214.576	14.53
214.961	-14.2
215.346	1.36
215.732	1.94
216.117	18.52
216.502	25.5
216.888	28.22
217.273	29.6
217.658	73.19
218.043	34.27
218.428	23.84
218.813	27.95
219.198	34.8
219.583	36.25
219.968	13.07
220.353	7.87
220.738	6.84
221.122	6.42
221.507	-1.56
221.892	16.53
222.276	38.02
222.661	29.88
223.046	-16.07
223.43	3.95
223.815	16.3
224.199	15.33
224.583	13.59
224.968	-1.92
225.352	6.96
225.736	13.26
226.121	5.01
226.505	9.18
226.889	-3.27
227.273	6.44
227.657	3.63
228.041	6.98
228.425	3.4
228.809	4.26
229.193	7.9
229.577	4.63
229.961	4.14
230.344	4.19
230.728	3
231.112	3.14
231.495	4.83
231.879	2.51
232.263	2.91
232.646	3.33
233.03	5.05
233.413	4.6
233.797	4.81
234.18	2.2
234.563	7.04
234.946	3.06
235.33	4.87
235.713	5.01
236.096	2.63
236.479	4.27
236.862	6.81
237.245	4.78
237.628	5.06
238.011	4.55
238.394	6.25
238.777	6.86
239.16	5.31
239.543	2.9
239.925	4.41
240.308	3.17
240.691	4.55
241.073	3.54
241.456	2.76
241.838	4.82
242.221	4.19
242.603	3.74
242.986	3.98
243.368	4.13
243.75	4.25
244.133	3.73
244.515	4.19
244.897	4.48
245.279	3.73
245.661	3.5
246.043	3.68
246.425	5.24
246.807	4.98
247.189	3.37
247.571	4.04
247.953	3.73
248.335	4
248.717	3.82
249.098	4.27
249.48	3.71
249.862	4.5
250.243	3.98
250.625	3.67
251.006	5.27
251.388	4.84
251.769	4.47
252.151	4.89
252.532	4.65
252.913	4.84
253.295	4.03
253.676	3
254.057	3.95
254.438	3.82
254.819	2.89
255.2	4
255.581	3.46
255.962	4.23
256.343	4.48
256.724	3.59
257.105	4
257.486	4.39
257.867	3.93
258.247	3.48
258.628	3.72
259.009	3.16
259.389	3.84
259.77	4.99
260.15	3.39
260.531	3.75
260.911	3.76
261.292	3.8
261.672	3.42
262.052	3.69
262.432	4.01
262.813	3.65
263.193	3.49
263.573	3.39
263.953	3.69
264.333	3.44
264.713	3.48
265.093	3.87
265.473	3.59
265.853	3.94
266.233	4.17
266.612	3.41
266.992	3.39
267.372	4.63
267.752	3.82
268.131	3.23
268.511	3.51
268.89	3.63
269.27	3.64
269.649	3.04
270.029	4.09
270.408	3.53
270.787	3.75
271.167	2.74
271.546	4.01
271.925	3.62
272.304	3.49
272.683	3.57
273.062	2.84
273.441	3.75
273.82	3.3
274.199	3.54
274.578	3.66
274.957	3.62
275.336	3.8
275.715	3.81
276.093	3.29
276.472	2.85
276.851	3.38
277.229	3.56
277.608	3.84
277.986	3.71
278.365	3.17
278.743	3
279.122	3.53
279.5	3.04
279.878	3.59
280.257	3.98
280.635	3.02
281.013	3.12
281.391	3.24
281.769	3.51
282.147	3.7
282.525	3.07
282.903	2.98
283.281	3.7
283.659	3.79
284.037	3.35
284.415	3.74
284.792	3.42
285.17	3.75
285.548	3.3
285.925	3.32
286.303	3.43
286.68	3.87
287.058	3.74
287.435	3.51
287.813	3.5
288.19	3.55
288.567	3.51
288.945	3.97
289.322	3.9
289.699	3.28
290.076	3.91
290.453	3.49
290.83	3.58
291.207	3.45
291.584	3.77
291.961	3.75
292.338	3.64
292.715	3.79
293.092	3.63
293.469	4.14
293.845	3.78
294.222	3.77
294.599	4.46
294.975	4
295.352	4.07
295.728	3.91
296.105	4.09
296.481	3.66
296.858	3.59
297.234	3.97
297.61	3.48
297.986	4.37
298.363	4.12
298.739	3.99
299.115	4.04
299.491	4.05
299.867	4.17
300.243	3.72
300.619	4.03
300.995	4.54
301.371	4.55
301.746	4.46
302.122	4.23
302.498	4.24
302.874	4.1
303.249	4.13
303.625	3.79
304	3.81
304.376	4.29
304.751	4.14
305.127	4.35
305.502	4.47
305.878	4.59
306.253	4.39
306.628	4.26
307.003	4.29
307.378	4.71
307.754	4.66
308.129	4.5
308.504	4.66
308.879	4.66
309.254	4.59
309.629	4.54
310.003	4.34
310.378	4.73
310.753	4.81
311.128	5.21
311.502	4.75
311.877	4.46
312.252	4.32
312.626	4.4
313.001	4.35
313.375	4.52
313.75	4.34
314.124	4.36
314.498	4.59
314.873	4.4
315.247	4.94
315.621	4.91
315.995	4.57
316.369	5.03
316.743	4.66
317.117	4.86
317.491	4.91
317.865	5.03
318.239	4.9
318.613	5.35
318.987	4.82
319.361	4.87
319.734	5.08
320.108	4.26
320.482	5.03
320.855	4.68
321.229	4.56
321.602	4.64
321.976	4.96
322.349	5.45
322.723	5.29
323.096	5.15
323.469	4.63
323.843	5.58
324.216	4.63
324.589	4.97
324.962	5.19
325.335	4.87
325.708	4.91
326.081	5.12
326.454	4.74
326.827	4.61
327.2	5.26
327.573	6.24
327.945	5.01
328.318	5.14
328.691	4.9
329.063	4.8
329.436	4.92
329.809	4.77
330.181	4.84
330.553	4.39
330.926	5.24
331.298	4.98
331.671	5.15
332.043	4.51
332.415	5.34
332.787	5.32
333.159	5.16
333.532	5.27
333.904	5.4
334.276	4.77
334.648	4.75
335.02	5.21
335.391	5.15
335.763	4.79
336.135	4.55
336.507	5.21
336.879	5.06
337.25	5.18
337.622	5.28
337.993	5.53
338.365	5.46
338.736	5.31
339.108	5.12
339.479	4.55
339.851	5
340.222	5.01
340.593	5.8
340.964	5.28
341.336	5.77
341.707	4.89
342.078	4.68
342.449	5.5
342.82	5.1
343.191	5.21
343.562	4.74
343.933	4.94
344.303	4.65
344.674	5.25
345.045	5.04
345.416	5.44
345.786	4.92
346.157	5.11
346.527	4.85
346.898	4.83
347.268	5.07
347.639	5.22
348.009	5.19
348.38	5.28
348.75	5.14
349.12	5.4
349.49	5.54
349.861	5.48
350.231	5.51
350.601	5.47
350.971	5.48
351.341	5.35
351.711	5.24
352.081	5.28
352.45	5.25
352.82	4.82
353.19	5.29
353.56	5.24
353.929	5.23
354.299	5.11
354.669	5.31
355.038	5.3
355.408	5.26
355.777	5.23
356.147	5.08
356.516	5.16
356.885	5.39
357.254	5.15
357.624	5.07
357.993	5.12
358.362	5.38
358.731	5.05
359.1	5.32
359.469	5.02
359.838	5.08
360.207	5.31
360.576	5.28
360.945	5.65
361.314	5.25
361.682	5.18
362.051	5.46
362.42	5.26
362.788	5.42
363.157	5.31
363.525	5.19
363.894	5.15
364.262	5.33
364.631	5.24
364.999	5.2
365.367	5.18
365.735	5.3
366.104	5.34
366.472	5.24
366.84	4.87
367.208	5.16
367.576	5.4
367.944	5.88
368.312	5.31
368.68	5.41
369.048	5.39
369.416	5.53
369.783	5.52
370.151	5.35
370.519	5.52
370.886	5.39
371.254	5.84
371.621	5.19
371.989	5.3
372.356	5.51
372.724	5.8
373.091	5.63
373.458	5.52
373.826	5.23
374.193	5.32
374.56	5.55
374.927	5.58
375.294	5.47
375.661	5.7
376.028	5.4
376.395	5.67
376.762	5.58
377.129	5.65
377.496	5.42
377.863	5.63
378.229	5.62
378.596	5.47
378.963	5.53
379.329	5.62
379.696	5.62
380.062	5.56
380.429	5.74
380.795	5.76
381.161	5.68
381.528	5.56
381.894	5.7
382.26	5.89
382.626	5.73
382.993	5.33
383.359	5.91
383.725	5.57
384.091	5.66
384.457	5.56
384.823	5.64
385.188	5.61
385.554	5.48
385.92	5.61
386.286	5.7
386.651	5.63
387.017	5.6
387.383	5.73
387.748	5.4
388.114	5.55
388.479	5.64
388.845	5.56
389.21	5.44
389.575	5.61
389.94	5.71
390.306	5.56
390.671	5.59
391.036	5.56
391.401	5.61
391.766	5.84
392.131	5.46
392.496	5.85
392.861	5.74
393.226	5.83
393.591	5.61
393.956	5.78
394.32	5.81
394.685	5.75
395.05	5.84
395.414	5.7
395.779	5.66
396.143	5.86
396.508	5.96
396.872	5.94
397.236	5.65
397.601	5.75
397.965	5.78
398.329	5.64
398.694	5.77
399.058	5.76
399.422	5.77
399.786	5.85
400.15	5.84
400.514	5.79
400.878	5.82
401.242	5.8
401.605	5.87
401.969	5.92
402.333	5.77
402.697	5.93
403.06	6.04
403.424	5.62
403.787	5.93
404.151	5.78
404.514	5.68
404.878	5.78
405.241	5.8
405.604	5.82
405.968	5.99
406.331	5.57
406.694	5.8
407.057	5.82
407.42	6
407.783	5.93
408.146	6.11
408.509	5.98
408.872	5.86
409.235	6.02
409.598	6.06
409.961	6.12
410.323	6.07
410.686	5.97
411.049	5.86
411.411	6.11
411.774	5.81
412.136	5.88
412.499	6.16
412.861	5.96
413.223	5.78
413.586	6.15
413.948	6.3
414.31	5.89
414.672	5.97
415.035	5.89
415.397	5.96
415.759	5.86
416.121	6.18
416.483	5.95
416.845	6.16
417.206	5.97
417.568	5.95
417.93	5.91
418.292	5.9
418.653	6.18
419.015	6.07
419.377	6.05
419.738	5.86
420.1	6.02
420.461	6.09
420.822	5.99
421.184	5.98
421.545	6.06
421.906	5.98
422.267	5.91
422.629	5.84
422.99	5.97
423.351	6.04
423.712	5.94
424.073	6.17
424.434	6.09
424.795	5.98
425.155	6.01
425.516	6.12
425.877	6.09
426.238	6.02
426.598	5.99
426.959	6
427.32	6.18
427.68	6.15
428.041	6.21
428.401	5.98
428.761	6.28
429.122	6.28
429.482	6.45
429.842	6.23
430.202	6.24
430.563	6.28
430.923	6.36
431.283	6.14
431.643	6.11
432.003	6.43
432.363	6.27
432.722	6.47
433.082	6.43
433.442	6.44
433.802	6.38
434.161	6.3
434.521	6.19
434.881	6.37
435.24	6.29
435.6	6.31
435.959	6.32
436.319	6.38
436.678	6.35
437.037	6.48
437.396	6.56
437.756	6.45
438.115	6.49
438.474	6.38
438.833	6.42
439.192	6.54
439.551	6.36
439.91	6.51
440.269	6.41
440.628	6.49
440.987	6.34
441.345	6.45
441.704	6.38
442.063	6.36
442.421	6.46
442.78	6.44
443.138	6.55
443.497	6.36
443.855	6.48
444.214	6.61
444.572	6.59
444.93	6.69
445.288	6.48
445.647	6.6
446.005	6.62
446.363	6.51
446.721	6.53
447.079	6.6
447.437	6.43
447.795	6.47
448.153	6.41
448.51	6.39
448.868	6.52
449.226	6.54
449.584	6.54
449.941	6.55
450.299	6.47
450.656	6.68
451.014	6.63
451.371	6.75
451.729	6.63
452.086	6.74
452.443	6.69
452.801	6.81
453.158	6.6
453.515	6.67
453.872	6.71
454.229	6.79
454.586	6.61
454.943	6.81
455.3	6.76
455.657	6.75
456.014	6.86
456.371	6.91
456.727	6.98
457.084	6.65
457.441	6.86
457.797	6.76
458.154	6.82
458.51	6.86
458.867	6.7
459.223	6.92
459.58	6.85
459.936	6.75
460.292	6.9
460.648	6.84
461.005	6.77
461.361	6.72
461.717	6.77
462.073	6.91
462.429	6.86
462.785	6.79
463.141	6.73
463.496	6.85
463.852	7
464.208	7.06
464.564	7.02
464.919	7.03
465.275	6.94
465.631	6.95
465.986	7.23
466.342	7.02
466.697	6.91
467.052	7.04
467.408	7.11
467.763	7.05
468.118	7.06
468.473	7.19
468.829	7.08
469.184	6.99
469.539	7.09
469.894	7.22
470.249	7.4
470.603	7.17
470.958	7.11
471.313	7.16
471.668	7.35
472.023	7.03
472.377	7.24
472.732	7.12
473.086	7.01
473.441	7.24
473.795	7.26
474.15	7.24
474.504	7.26
474.859	7.3
475.213	7.31
475.567	7.22
475.921	7.2
476.275	7.22
476.63	7.32
476.984	7.46
477.338	7.37
477.692	7.25
478.045	7.18
478.399	7.37
478.753	7.29
479.107	7.38
479.461	7.11
479.814	7.24
480.168	7.35
480.521	7.37
480.875	7.42
481.228	7.35
481.582	7.36
481.935	7.26
482.289	7.23
482.642	7.28
482.995	7.26
483.348	7.27
483.701	7.35
484.055	7.26
484.408	7.21
484.761	7.07
485.114	6.93
485.466	6.88
485.819	6.97
486.172	7.02
486.525	7.11
486.878	7.11
487.23	7.17
487.583	7.22
487.936	7.23
488.288	7.26
488.641	7.11
488.993	7.17
489.345	7.11
489.698	7.15
490.05	7.2
490.402	7.19
490.754	7.33
491.107	7.31
491.459	7.37
491.811	7.49
492.163	7.51
492.515	7.36
492.866	7.35
493.218	7.24
493.57	7.29
493.922	7.37
494.274	7.47
494.625	7.54
494.977	7.67
495.328	7.64
495.68	7.55
496.031	7.71
496.383	7.77
496.734	7.78
497.086	7.72
497.437	7.76
497.788	7.69
498.139	7.72
498.49	7.64
498.842	7.59
499.193	7.71
499.544	7.84
499.894	7.76
500.245	7.74
500.596	7.69
500.947	7.8
501.298	7.94
501.648	7.91
501.999	7.91
502.35	8.02
502.7	8
503.051	7.78
503.401	7.97
503.752	7.95
504.102	7.82
504.452	8.08
504.803	7.95
505.153	7.99
505.503	8.02
505.853	8
506.203	8.08
506.553	7.98
506.903	8.04
507.253	8.08
507.603	8.06
507.953	8.06
508.303	8.11
508.652	8.07
509.002	8.14
509.352	8.14
509.701	8.24
510.051	8.17
510.4	8.16
510.75	8.06
511.099	8
511.449	8.16
511.798	8.12
512.147	8.05
512.496	8.12
512.846	8.3
513.195	8.1
513.544	8.2
513.893	8.18
514.242	8.29
514.591	8.32
514.939	8.26
515.288	8.34
515.637	8.29
515.986	8.29
516.334	8.37
516.683	8.38
517.032	8.27
517.38	8.3
517.729	8.46
518.077	8.43
518.426	8.51
518.774	8.45
519.122	8.5
519.47	8.41
519.819	8.27
520.167	8.36
520.515	8.35
520.863	8.42
521.211	8.48
521.559	8.41
521.907	8.56
522.255	8.52
522.602	8.59
522.95	8.63
523.298	8.6
523.645	8.64
523.993	8.7
524.341	8.78
524.688	8.73
525.036	8.73
525.383	8.63
525.73	8.75
526.078	8.6
526.425	8.6
526.772	8.62
527.119	8.55
527.466	8.67
527.814	8.64
528.161	8.76
528.508	8.7
528.854	8.62
529.201	8.6
529.548	8.59
529.895	8.36
530.242	8.37
530.588	8.48
530.935	8.49
531.282	8.55
531.628	8.57
531.975	8.66
532.321	8.74
532.667	8.71
533.014	8.83
533.36	8.8
533.706	8.84
534.052	8.83
534.399	8.79
534.745	8.66
535.091	8.75
535.437	8.81
535.783	8.85
536.129	8.97
536.474	9
536.82	9.02
537.166	9.04
537.512	9.02
537.857	9
538.203	9.01
538.549	9.14
538.894	9.11
539.239	9.1
539.585	9.18
539.93	9.17
540.276	9.47
540.621	9.41
540.966	9.34
541.311	9.3
541.656	9.39
542.001	9.33
542.346	9.24
542.691	9.08
543.036	9.09
543.381	9.12
543.726	9.11
544.071	9.17
544.415	9.23
544.76	9.35
545.105	9.33
545.449	9.34
545.794	9.5
546.138	9.43
546.483	9.49
546.827	9.61
547.171	9.65
547.516	9.57
547.86	9.57
548.204	9.54
548.548	9.6
548.892	9.75
549.236	9.57
549.58	9.8
549.924	9.77
550.268	9.79
550.612	9.97
550.956	10.02
551.3	9.98
551.643	9.94
551.987	10.04
552.33	10.14
552.674	9.99
553.017	10.24
553.361	10.03
553.704	10.15
554.048	10.06
554.391	10.07
554.734	10.15
555.077	10.3
555.42	10.28
555.764	10.23
556.107	10.22
556.45	10.35
556.793	10.25
557.135	10.36
557.478	10.35
557.821	10.56
558.164	10.21
558.507	10.48
558.849	10.58
559.192	10.45
559.534	10.47
559.877	10.64
560.219	10.49
560.562	10.68
560.904	10.56
561.246	10.42
561.589	10.62
561.931	10.41
562.273	10.83
562.615	10.63
562.957	10.61
563.299	10.54
563.641	10.54
563.983	10.68
564.325	10.63
564.667	10.77
565.008	10.67
565.35	10.75
565.692	10.71
566.033	10.78
566.375	10.96
566.716	10.95
567.058	10.98
567.399	11.06
567.741	10.89
568.082	11.03
568.423	10.9
568.764	11.06
569.105	10.84
569.447	11.22
569.788	11.1
570.129	10.96
570.47	11.1
570.811	11.35
571.151	11.19
571.492	11.28
571.833	11.24
572.174	11.29
572.514	11.38
572.855	11.29
573.195	10.97
573.536	11.27
573.876	11.32
574.217	11.43
574.557	11.3
574.898	11.35
575.238	11.38
575.578	11.43
575.918	11.47
576.258	11.51
576.598	11.49
576.938	11.59
577.278	11.6
577.618	11.78
577.958	11.67
578.298	11.9
578.638	11.76
578.977	11.61
579.317	11.84
579.657	11.85
579.996	11.82
580.336	11.91
580.675	11.91
581.014	12.06
581.354	11.9
581.693	11.74
582.032	11.83
582.372	12.11
582.711	12.04
583.05	11.95
583.389	12.06
583.728	12.05
584.067	12.27
584.406	11.97
584.745	12.3
585.083	12.2
585.422	12.23
585.761	12.28
586.1	12.17
586.438	12.38
586.777	12.18
587.115	12.29
587.454	12.24
587.792	12.38
588.13	12.4
588.469	12.31
588.807	12.85
589.145	12.34
589.483	12.69
589.821	12.57
590.159	12.59
590.497	12.64
590.835	12.55
591.173	12.76
591.511	12.58
591.849	12.63
592.187	12.58
592.524	12.54
592.862	12.68
593.2	12.95
593.537	13.02
593.875	12.98
594.212	13.03
594.55	12.87
594.887	12.85
595.224	12.77
595.561	12.7
595.899	12.64
596.236	12.9
596.573	12.86
596.91	13
597.247	13.05
597.584	13
597.921	13.33
598.258	13.15
598.594	12.88
598.931	12.93
599.268	13.02
599.604	13.29
599.941	13.21
600.277	13.11
600.614	13.03
600.95	13.26
601.287	13.29
601.623	13.84
601.959	13.56
602.296	13.44
602.632	13.55
602.968	13.48
603.304	13.48
603.64	13.69
603.976	13.62
604.312	13.47
604.648	13.59
604.984	13.54
605.319	13.54
605.655	13.43
605.991	13.39
606.326	13.67
606.662	13.58
606.998	13.54
607.333	13.5
607.668	13.69
608.004	13.55
608.339	13.82
608.674	13.87
609.01	13.9
609.345	13.67
609.68	13.8
610.015	14.03
610.35	13.93
610.685	13.77
611.02	13.86
611.355	13.92
611.689	14
612.024	13.9
612.359	13.97
612.694	14.05
613.028	14.11
613.363	14.33
613.697	14.06
614.032	14.2
614.366	14.06
614.7	14.22
615.035	14.12
615.369	14.41
615.703	14.35
616.037	14.54
616.371	14.52
616.705	14.48
617.039	14.6
617.373	14.4
617.707	14.12
618.041	14.73
618.375	14.27
618.709	15.03
619.042	14.61
619.376	14.82
619.71	15.09
620.043	14.97
620.377	14.85
620.71	14.96
621.043	14.54
621.377	14.93
621.71	14.45
622.043	15.05
622.376	15.08
622.709	14.88
623.043	15.06
623.376	15.05
623.709	15.27
624.041	15.12
624.374	15.1
624.707	15.31
625.04	15.26
625.373	15.1
625.705	15.42
626.038	15.52
626.37	15.16
626.703	15.25
627.035	15.31
627.368	15.21
627.7	15.23
628.032	15.41
628.365	15.45
628.697	15.2
629.029	15.41
629.361	15.53
629.693	15.27
630.025	15.47
630.357	15.65
630.689	15.26
631.021	15.27
631.353	15.6
631.684	15.57
632.016	15.58
632.348	15.41
632.679	15.61
633.011	15.44
633.342	15.91
633.674	15.42
634.005	15.72
634.336	15.79
634.668	16.05
634.999	15.67
635.33	15.88
635.661	15.65
635.992	16.03
636.323	15.78
636.654	16.2
636.985	15.86
637.316	15.9
637.647	16.46
637.977	16.47
638.308	16.24
638.639	15.8
638.969	16.09
639.3	16.2
639.63	16.89
639.961	16.25
640.291	16.23
640.622	16.35
640.952	16.25
641.282	16.22
641.612	16.11
641.943	16.62
642.273	16.69
642.603	16.41
642.933	16.69
643.263	16.37
643.592	16.22
643.922	16.74
644.252	16.82
644.582	16.86
644.911	16.96
645.241	16.96
645.571	16.49
645.9	16.52
646.23	16.78
646.559	17.05
646.888	16.82
647.218	16.71
647.547	16.77
647.876	17.08
648.205	17.13
648.534	16.91
648.863	16.72
649.192	16.76
649.521	16.85
649.85	16.94
650.179	17.05
650.508	16.98
650.837	17.5
651.165	17.22
651.494	17.62
651.822	17.08
652.151	17.15
652.479	16.94
652.808	16.84
653.136	17.2
653.465	17.54
653.793	17.23
654.121	16.94
654.449	16.65
654.777	17.61
655.105	17.37
655.433	17.49
655.761	17.44
656.089	17.76
656.417	16.8
656.745	17.34
657.073	17.84
657.4	17.38
657.728	18.08
658.056	18.09
658.383	17.69
658.711	16.86
659.038	17.71
659.365	17.77
659.693	17.68
660.02	17.99
660.347	17.4
660.674	17.85
661.001	17.87
661.329	17.76
661.656	17.91
661.982	17.97
662.309	17.74
662.636	18.06
662.963	17.89
663.29	17.72
663.616	17.62
663.943	17.88
664.27	18.21
664.596	18.16
664.923	18.02
665.249	18.37
665.576	18.26
665.902	18.33
666.228	18.31
666.554	18.27
666.881	18.13
667.207	17.78
667.533	18.74
667.859	18.97
668.185	18.46
668.511	18.6
668.837	18.84
669.162	18.32
669.488	18.42
669.814	18.78
670.139	18.69
670.465	18.31
670.791	18.2
671.116	18.33
671.442	18.39
671.767	19.33
672.092	18.66
672.418	18.36
672.743	18.37
673.068	18.52
673.393	18.73
673.718	18.34
674.043	19.24
674.368	18.5
674.693	18.55
675.018	18.83
675.343	18.92
675.667	18.88
675.992	19.92
676.317	18.91
676.641	18.59
676.966	19.18
677.29	18.8
677.615	19.34
677.939	19.05
678.264	18.95
678.588	19.08
678.912	18.62
679.236	19.29
679.56	19.15
679.885	18.9
680.209	19.54
680.532	19.29
680.856	19.79
681.18	19.12
681.504	18.97
681.828	19.65
682.152	19.31
682.475	19.32
682.799	19.43
683.122	19.62
683.446	19.77
683.769	19.04
684.093	19.04
