Data from 20-5_crown_Reflection__4__09.txt Node

Date: Fri Nov 11 20:14:51 CST 2022
User: ToomeyLab
Spectrometer: FLMS14357
Trigger mode: 0
Integration Time (sec): 1.000000E-2
Scans to average: 100
Electric dark correction enabled: true
Nonlinearity correction enabled: false
Boxcar width: 0
XAxis mode: Wavelengths
Number of Pixels in Spectrum: 2048
>>>>>Begin Spectral Data<<<<<
189.047	67.14
189.435	67.14
189.823	67.14
190.211	138.5
190.599	-172.29
190.987	-17.57
191.375	74.71
191.763	-59.98
192.151	760.42
192.538	141.54
192.926	10.37
193.314	409.37
193.702	-57.8
194.089	-124.43
194.477	261.07
194.864	102.26
195.252	131.99
195.639	-33.04
196.027	-49.11
196.414	-66.07
196.801	119.96
197.189	138.54
197.576	79.61
197.963	-45.7
198.351	-83.23
198.738	4.38
199.125	21.51
199.512	30.24
199.899	-131.22
200.286	19.51
200.673	13.49
201.06	40.1
201.447	-2.29
201.833	6.85
202.22	-15.27
202.607	35.27
202.994	16.16
203.38	33.51
203.767	28.99
204.154	43.11
204.54	39.12
204.927	-4.97
205.313	-27.89
205.699	-39.67
206.086	3.53
206.472	45.93
206.858	31.76
207.245	30.95
207.631	-24.8
208.017	18.36
208.403	14.16
208.789	22.5
209.175	15.74
209.561	57.93
209.947	38.81
210.333	-4.63
210.719	-20.5
211.105	39.18
211.491	9.51
211.876	21.76
212.262	46.84
212.648	36.23
213.034	-0.55
213.419	19.94
213.805	-9.49
214.19	-0.74
214.576	48.36
214.961	-20.17
215.346	-20.64
215.732	19.63
216.117	25.05
216.502	-10.24
216.888	-23.7
217.273	22.26
217.658	-38.84
218.043	15.64
218.428	14.38
218.813	5
219.198	0.28
219.583	9.55
219.968	1.76
220.353	-31.72
220.738	-0.39
221.122	15.61
221.507	3.29
221.892	5.51
222.276	16.71
222.661	26.6
223.046	6.53
223.43	14.05
223.815	3.55
224.199	-6.36
224.583	-1.79
224.968	-0.95
225.352	10.33
225.736	-0.18
226.121	-0.79
226.505	2.34
226.889	2
227.273	8.19
227.657	-3.37
228.041	-0.75
228.425	4.52
228.809	0.92
229.193	4.68
229.577	4.55
229.961	5.18
230.344	3.81
230.728	3.4
231.112	3.1
231.495	3.85
231.879	3.15
232.263	3.37
232.646	1.14
233.03	3.29
233.413	2.95
233.797	5.84
234.18	3.28
234.563	3.52
234.946	2.86
235.33	4.52
235.713	3.44
236.096	3.37
236.479	3.73
236.862	4.88
237.245	3.87
237.628	3.94
238.011	4.56
238.394	4.8
238.777	4.42
239.16	5.95
239.543	2.31
239.925	4.4
240.308	3.32
240.691	4.12
241.073	4.2
241.456	2.44
241.838	4.28
242.221	3.3
242.603	3.89
242.986	2.12
243.368	3.29
243.75	3.35
244.133	3.53
244.515	3.1
244.897	3.49
245.279	3.22
245.661	4.22
246.043	3.8
246.425	5.12
246.807	3.57
247.189	2.69
247.571	3.25
247.953	3.62
248.335	3.26
248.717	3.36
249.098	3.8
249.48	3.44
249.862	3.69
250.243	3.07
250.625	3.25
251.006	3.85
251.388	4.23
251.769	3.51
252.151	3.68
252.532	3.34
252.913	3.27
253.295	3.29
253.676	2.75
254.057	3.11
254.438	3.63
254.819	3.54
255.2	3.51
255.581	3.97
255.962	2.59
256.343	3.6
256.724	3.18
257.105	3.47
257.486	3.35
257.867	3.57
258.247	2.18
258.628	3.44
259.009	3.5
259.389	3.4
259.77	3.78
260.15	3.04
260.531	3.59
260.911	3.1
261.292	3.27
261.672	3.02
262.052	3.4
262.432	3.49
262.813	3.62
263.193	3.4
263.573	3.14
263.953	3.82
264.333	3.23
264.713	3.94
265.093	3.92
265.473	3.53
265.853	2.64
266.233	2.87
266.612	3.17
266.992	3.45
267.372	3.6
267.752	2.76
268.131	2.62
268.511	2.96
268.89	2.97
269.27	3.29
269.649	2.68
270.029	3.47
270.408	3.04
270.787	3.07
271.167	2.89
271.546	3.85
271.925	2.72
272.304	2.9
272.683	3.26
273.062	2.82
273.441	3.26
273.82	3.04
274.199	3.08
274.578	2.6
274.957	3.62
275.336	4
275.715	2.99
276.093	2.69
276.472	3.3
276.851	2.85
277.229	3.04
277.608	2.9
277.986	3.34
278.365	3.28
278.743	2.86
279.122	3.03
279.5	3.23
279.878	3.69
280.257	3.38
280.635	3.34
281.013	2.96
281.391	2.99
281.769	3.23
282.147	2.57
282.525	2.05
282.903	2.93
283.281	3.36
283.659	3.52
284.037	3.39
284.415	2.94
284.792	2.91
285.17	3.24
285.548	3.29
285.925	2.92
286.303	3.1
286.68	3.17
287.058	3.01
287.435	2.69
287.813	3.01
288.19	2.78
288.567	2.71
288.945	3.53
289.322	3.35
289.699	2.5
290.076	3.53
290.453	3.15
290.83	3.03
291.207	2.87
291.584	3.53
291.961	3.12
292.338	3.25
292.715	3.09
293.092	3.27
293.469	2.94
293.845	3.23
294.222	2.8
294.599	3.74
294.975	3.33
295.352	3.18
295.728	3.22
296.105	3.01
296.481	2.91
296.858	3.03
297.234	2.85
297.61	2.68
297.986	3.15
298.363	3.09
298.739	3.12
299.115	3.53
299.491	3.33
299.867	2.99
300.243	3.02
300.619	2.93
300.995	3.58
301.371	3.72
301.746	3.52
302.122	3.55
302.498	3.12
302.874	3.41
303.249	3.04
303.625	3.29
304	2.53
304.376	3.04
304.751	2.97
305.127	3.27
305.502	3.39
305.878	3.76
306.253	2.99
306.628	3.46
307.003	3.23
307.378	3.38
307.754	3.55
308.129	3.01
308.504	3.11
308.879	3.13
309.254	3.65
309.629	3.06
310.003	3.32
310.378	3.54
310.753	3.55
311.128	3.53
311.502	3.43
311.877	3.12
312.252	3.1
312.626	2.99
313.001	3.04
313.375	3.1
313.75	3.33
314.124	2.9
314.498	3.17
314.873	3.27
315.247	3.32
315.621	3.51
315.995	3.48
316.369	2.78
316.743	3.03
317.117	3.02
317.491	3.3
317.865	2.82
318.239	3.69
318.613	3.71
318.987	3.47
319.361	3.36
319.734	3.68
320.108	3.3
320.482	4
320.855	3.41
321.229	3.13
321.602	2.99
321.976	3.22
322.349	3.81
322.723	3.26
323.096	3.27
323.469	3.66
323.843	3.56
324.216	2.79
324.589	3.42
324.962	3.61
325.335	3.44
325.708	3.43
326.081	3.39
326.454	3.51
326.827	2.97
327.2	3.85
327.573	4.17
327.945	3.12
328.318	3.06
328.691	3.54
329.063	3.4
329.436	3.55
329.809	3.18
330.181	2.99
330.553	2.73
330.926	3.34
331.298	3.46
331.671	3.22
332.043	3.06
332.415	3.23
332.787	3.79
333.159	3.39
333.532	3.31
333.904	3.64
334.276	3.22
334.648	2.94
335.02	3.23
335.391	3.94
335.763	3.09
336.135	2.94
336.507	3.52
336.879	3.44
337.25	2.99
337.622	3.7
337.993	3.67
338.365	3.51
338.736	3.45
339.108	3.38
339.479	3.02
339.851	3.35
340.222	3.09
340.593	3.3
340.964	3.34
341.336	3.73
341.707	3.48
342.078	3.03
342.449	3.6
342.82	3.17
343.191	3.27
343.562	3.1
343.933	3.41
344.303	3.06
344.674	3.25
345.045	2.73
345.416	3.2
345.786	3.21
346.157	3.14
346.527	3.08
346.898	2.77
347.268	3.12
347.639	3.23
348.009	3.16
348.38	3.2
348.75	3.13
349.12	3.77
349.49	3.44
349.861	3.4
350.231	3.49
350.601	3.61
350.971	3.26
351.341	3.46
351.711	3
352.081	3.45
352.45	3.23
352.82	3.11
353.19	3.53
353.56	2.83
353.929	3.27
354.299	3.26
354.669	3.5
355.038	3.46
355.408	3.29
355.777	3.18
356.147	3.43
356.516	3.46
356.885	3.38
357.254	3.42
357.624	2.84
357.993	3.44
358.362	3
358.731	2.96
359.1	3.04
359.469	2.81
359.838	3.05
360.207	3.35
360.576	2.98
360.945	3.23
361.314	3.19
361.682	2.98
362.051	3.11
362.42	3.49
362.788	3.29
363.157	2.97
363.525	3.02
363.894	3.07
364.262	3.27
364.631	3.6
364.999	3.45
365.367	3.14
365.735	3.29
366.104	2.99
366.472	3.28
366.84	3
367.208	3.14
367.576	3.3
367.944	3.51
368.312	3.28
368.68	3.23
369.048	3.31
369.416	3.19
369.783	3.3
370.151	3.49
370.519	3.45
370.886	3.2
371.254	3.26
371.621	2.98
371.989	3.12
372.356	3.17
372.724	3.42
373.091	3.41
373.458	3.09
373.826	3.16
374.193	3.09
374.56	3.26
374.927	3.17
375.294	3.43
375.661	3.31
376.028	3.02
376.395	3.6
376.762	3.43
377.129	3.19
377.496	3.23
377.863	3.22
378.229	3.06
378.596	3.18
378.963	3.02
379.329	3.32
379.696	3.31
380.062	3.45
380.429	3.3
380.795	3.59
381.161	3.6
381.528	2.97
381.894	3.6
382.26	3.76
382.626	3.52
382.993	3.14
383.359	3.45
383.725	3.1
384.091	3.38
384.457	3.44
384.823	2.96
385.188	3.22
385.554	3.25
385.92	3.09
386.286	3.24
386.651	3.21
387.017	3.14
387.383	3.32
387.748	3.25
388.114	3.19
388.479	3.03
388.845	3.36
389.21	3.27
389.575	3.51
389.94	3.3
390.306	3.19
390.671	3.41
391.036	3.48
391.401	3.26
391.766	3.51
392.131	3.47
392.496	3.54
392.861	3.26
393.226	3.08
393.591	3.25
393.956	3.38
394.32	3.29
394.685	3.09
395.05	3.5
395.414	3.36
395.779	3.37
396.143	3.34
396.508	3.49
396.872	3.38
397.236	3.17
397.601	3.43
397.965	3.26
398.329	3.28
398.694	3.46
399.058	3.38
399.422	3.6
399.786	3.14
400.15	3.48
400.514	3.41
400.878	3.22
401.242	3.39
401.605	3.29
401.969	3.47
402.333	3.21
402.697	3.4
403.06	3.54
403.424	3.34
403.787	3.32
404.151	3.4
404.514	3.11
404.878	3.15
405.241	3.45
405.604	3.13
405.968	3.42
406.331	3.09
406.694	3.33
407.057	3.29
407.42	3.38
407.783	3.37
408.146	3.58
408.509	3.42
408.872	3.54
409.235	3.44
409.598	3.19
409.961	3.43
410.323	3.46
410.686	3.37
411.049	3.3
411.411	3.52
411.774	3.51
412.136	3.41
412.499	3.54
412.861	3.37
413.223	3.16
413.586	3.42
413.948	3.74
414.31	3.42
414.672	3.55
415.035	3.59
415.397	3.31
415.759	3.19
416.121	3.31
416.483	3.31
416.845	3.38
417.206	3.25
417.568	3.37
417.93	3.4
418.292	3.21
418.653	3.46
419.015	3.46
419.377	3.4
419.738	3.43
420.1	3.41
420.461	3.43
420.822	3.34
421.184	3.38
421.545	3.38
421.906	3.33
422.267	3.34
422.629	3.23
422.99	3.34
423.351	3.31
423.712	3.25
424.073	3.43
424.434	3.44
424.795	3.42
425.155	3.33
425.516	3.46
425.877	3.39
426.238	3.41
426.598	3.38
426.959	3.37
427.32	3.45
427.68	3.47
428.041	3.56
428.401	3.3
428.761	3.68
429.122	3.39
429.482	3.47
429.842	3.4
430.202	3.59
430.563	3.62
430.923	3.53
431.283	3.41
431.643	3.42
432.003	3.55
432.363	3.48
432.722	3.7
433.082	3.52
433.442	3.52
433.802	3.56
434.161	3.53
434.521	3.41
434.881	3.53
435.24	3.43
435.6	3.37
435.959	3.5
436.319	3.4
436.678	3.53
437.037	3.64
437.396	3.53
437.756	3.4
438.115	3.56
438.474	3.48
438.833	3.56
439.192	3.52
439.551	3.48
439.91	3.56
440.269	3.53
440.628	3.54
440.987	3.47
441.345	3.52
441.704	3.61
442.063	3.48
442.421	3.52
442.78	3.4
443.138	3.56
443.497	3.49
443.855	3.5
444.214	3.52
444.572	3.67
444.93	3.43
445.288	3.48
445.647	3.67
446.005	3.71
446.363	3.53
446.721	3.53
447.079	3.57
447.437	3.47
447.795	3.51
448.153	3.44
448.51	3.45
448.868	3.56
449.226	3.53
449.584	3.57
449.941	3.57
450.299	3.47
450.656	3.54
451.014	3.6
451.371	3.64
451.729	3.43
452.086	3.69
452.443	3.69
452.801	3.73
453.158	3.64
453.515	3.62
453.872	3.53
454.229	3.65
454.586	3.58
454.943	3.65
455.3	3.58
455.657	3.71
456.014	3.74
456.371	3.72
456.727	3.76
457.084	3.49
457.441	3.74
457.797	3.64
458.154	3.7
458.51	3.73
458.867	3.5
459.223	3.72
459.58	3.66
459.936	3.62
460.292	3.6
460.648	3.68
461.005	3.66
461.361	3.6
461.717	3.49
462.073	3.59
462.429	3.6
462.785	3.53
463.141	3.62
463.496	3.69
463.852	3.73
464.208	3.69
464.564	3.76
464.919	3.67
465.275	3.64
465.631	3.79
465.986	3.81
466.342	3.76
466.697	3.7
467.052	3.71
467.408	3.66
467.763	3.66
468.118	3.8
468.473	3.78
468.829	3.8
469.184	3.82
469.539	3.78
469.894	3.88
470.249	3.83
470.603	3.73
470.958	3.79
471.313	3.77
471.668	3.95
472.023	3.68
472.377	3.88
472.732	3.82
473.086	3.74
473.441	3.82
473.795	3.72
474.15	3.85
474.504	3.8
474.859	3.86
475.213	4.04
475.567	3.85
475.921	3.79
476.275	3.72
476.63	3.87
476.984	3.88
477.338	3.86
477.692	3.67
478.045	3.73
478.399	3.73
478.753	3.75
479.107	3.78
479.461	3.61
479.814	3.8
480.168	3.79
480.521	3.87
480.875	3.79
481.228	3.79
481.582	3.9
481.935	3.71
482.289	3.78
482.642	3.68
482.995	3.69
483.348	3.8
483.701	3.8
484.055	3.74
484.408	3.67
484.761	3.64
485.114	3.45
485.466	3.45
485.819	3.53
486.172	3.58
486.525	3.63
486.878	3.71
487.23	3.67
487.583	3.76
487.936	3.74
488.288	3.74
488.641	3.61
488.993	3.61
489.345	3.57
489.698	3.6
490.05	3.63
490.402	3.66
490.754	3.78
491.107	3.64
491.459	3.73
491.811	3.77
492.163	3.78
492.515	3.77
492.866	3.65
493.218	3.63
493.57	3.62
493.922	3.7
494.274	3.76
494.625	3.81
494.977	3.88
495.328	3.96
495.68	3.84
496.031	3.9
496.383	3.96
496.734	3.88
497.086	3.89
497.437	3.9
497.788	3.75
498.139	3.89
498.49	3.9
498.842	3.8
499.193	3.86
499.544	3.92
499.894	3.85
500.245	3.94
500.596	3.98
500.947	3.94
501.298	3.99
501.648	3.9
501.999	3.98
502.35	4.02
502.7	3.95
503.051	3.97
503.401	3.94
503.752	3.89
504.102	3.91
504.452	3.95
504.803	3.85
505.153	3.95
505.503	4.03
505.853	3.93
506.203	4.03
506.553	3.91
506.903	3.96
507.253	4.01
507.603	4
507.953	3.95
508.303	3.95
508.652	3.99
509.002	3.92
509.352	3.93
509.701	4.09
510.051	3.93
510.4	4.05
510.75	3.92
511.099	3.9
511.449	4.01
511.798	4.04
512.147	3.92
512.496	3.86
512.846	4.14
513.195	4.01
513.544	4.04
513.893	3.88
514.242	3.94
514.591	4
514.939	4
515.288	4.05
515.637	4.01
515.986	3.92
516.334	4.04
516.683	3.99
517.032	4.06
517.38	4.08
517.729	4.17
518.077	4.06
518.426	4.05
518.774	3.99
519.122	4.12
519.47	3.96
519.819	3.98
520.167	3.98
520.515	4.09
520.863	4.09
521.211	4.01
521.559	3.97
521.907	4.05
522.255	4.01
522.602	4.2
522.95	4.04
523.298	4.18
523.645	4.18
523.993	4.1
524.341	4.19
524.688	4.18
525.036	4.08
525.383	4.24
525.73	4.1
526.078	4.14
526.425	3.97
526.772	4.05
527.119	3.98
527.466	4.02
527.814	4.1
528.161	4.05
528.508	4.05
528.854	4.04
529.201	3.96
529.548	3.93
529.895	3.84
530.242	3.84
530.588	3.9
530.935	3.97
531.282	3.95
531.628	3.98
531.975	4.03
532.321	4.06
532.667	4.1
533.014	4.1
533.36	4.09
533.706	4.14
534.052	4.17
534.399	4.03
534.745	3.96
535.091	3.99
535.437	4.07
535.783	4.06
536.129	4.11
536.474	4.13
536.82	4.08
537.166	4.17
537.512	4.17
537.857	4.14
538.203	4.12
538.549	4.19
538.894	4.2
539.239	4.08
539.585	4.18
539.93	4.27
540.276	4.29
540.621	4.22
540.966	4.26
541.311	4.21
541.656	4.21
542.001	4.21
542.346	4.1
542.691	3.98
543.036	3.93
543.381	3.99
543.726	4.05
544.071	4.08
544.415	4.18
544.76	4.13
545.105	4.15
545.449	4.19
545.794	4.22
546.138	4.24
546.483	4.29
546.827	4.26
547.171	4.37
547.516	4.24
547.86	4.16
548.204	4.2
548.548	4.19
548.892	4.28
549.236	4.19
549.58	4.37
549.924	4.3
550.268	4.42
550.612	4.31
550.956	4.39
551.3	4.36
551.643	4.32
551.987	4.39
552.33	4.45
552.674	4.35
553.017	4.42
553.361	4.37
553.704	4.32
554.048	4.35
554.391	4.35
554.734	4.32
555.077	4.46
555.42	4.33
555.764	4.38
556.107	4.5
556.45	4.47
556.793	4.45
557.135	4.37
557.478	4.46
557.821	4.35
558.164	4.48
558.507	4.54
558.849	4.44
559.192	4.57
559.534	4.63
559.877	4.53
560.219	4.42
560.562	4.46
560.904	4.6
561.246	4.48
561.589	4.46
561.931	4.34
562.273	4.38
562.615	4.4
562.957	4.45
563.299	4.39
563.641	4.37
563.983	4.4
564.325	4.57
564.667	4.57
565.008	4.63
565.35	4.52
565.692	4.39
566.033	4.47
566.375	4.55
566.716	4.57
567.058	4.56
567.399	4.67
567.741	4.49
568.082	4.62
568.423	4.55
568.764	4.7
569.105	4.47
569.447	4.64
569.788	4.55
570.129	4.42
570.47	4.44
570.811	4.62
571.151	4.77
571.492	4.77
571.833	4.52
572.174	4.71
572.514	4.52
572.855	4.65
573.195	4.36
573.536	4.57
573.876	4.59
574.217	4.72
574.557	4.4
574.898	4.69
575.238	4.55
575.578	4.63
575.918	4.77
576.258	4.62
576.598	4.57
576.938	4.59
577.278	4.59
577.618	4.61
577.958	4.71
578.298	4.58
578.638	4.66
578.977	4.71
579.317	4.78
579.657	4.79
579.996	4.74
580.336	4.6
580.675	4.79
581.014	4.88
581.354	4.58
581.693	4.72
582.032	4.55
582.372	4.65
582.711	4.66
583.05	4.56
583.389	4.87
583.728	4.58
584.067	5.04
584.406	4.61
584.745	4.8
585.083	4.73
585.422	4.65
585.761	4.87
586.1	4.78
586.438	4.89
586.777	4.77
587.115	4.81
587.454	4.56
587.792	4.77
588.13	4.71
588.469	4.64
588.807	4.57
589.145	4.53
589.483	4.83
589.821	4.94
590.159	4.82
590.497	4.86
590.835	4.79
591.173	4.91
591.511	4.68
591.849	4.64
592.187	4.79
592.524	4.56
592.862	4.73
593.2	4.99
593.537	4.81
593.875	5.14
594.212	4.84
594.55	4.79
594.887	4.92
595.224	4.56
595.561	4.65
595.899	4.66
596.236	4.85
596.573	4.91
596.91	4.93
597.247	4.83
597.584	4.69
597.921	4.97
598.258	4.67
598.594	4.89
598.931	4.73
599.268	4.74
599.604	4.93
599.941	4.95
600.277	4.92
600.614	5.21
600.95	4.84
601.287	4.96
601.623	5.17
601.959	4.99
602.296	4.87
602.632	4.88
602.968	4.86
603.304	5.01
603.64	5.16
603.976	4.89
604.312	4.85
604.648	4.67
604.984	4.84
605.319	4.92
605.655	4.73
605.991	4.77
606.326	4.84
606.662	4.75
606.998	4.79
607.333	4.96
607.668	4.89
608.004	5.03
608.339	4.88
608.674	4.96
609.01	4.99
609.345	4.99
609.68	5.07
610.015	4.84
610.35	4.8
610.685	4.85
611.02	4.79
611.355	4.77
611.689	4.78
612.024	4.93
612.359	4.83
612.694	4.85
613.028	5.02
613.363	5.08
613.697	5.4
614.032	5.14
614.366	4.97
614.7	4.84
615.035	4.98
615.369	4.67
615.703	5.03
616.037	5.27
616.371	5.18
616.705	5.03
617.039	5.03
617.373	4.82
617.707	4.97
618.041	4.91
618.375	4.77
618.709	5.46
619.042	5.37
619.376	5.14
619.71	5.27
620.043	5.21
620.377	5.06
620.71	4.96
621.043	4.92
621.377	5.12
621.71	5.06
622.043	5.3
622.376	4.97
622.709	5.24
623.043	4.9
623.376	5.35
623.709	5.14
624.041	5.29
624.374	4.87
624.707	5.31
625.04	5.38
625.373	5.1
625.705	5.29
626.038	5.14
626.37	5.19
626.703	4.73
627.035	5.16
627.368	4.91
627.7	4.82
628.032	5.2
628.365	5.35
628.697	5.02
629.029	5.16
629.361	5.01
629.693	5.25
630.025	5.36
630.357	5.29
630.689	5.12
631.021	5.03
631.353	5.44
631.684	5.17
632.016	5.1
632.348	5.05
632.679	5.33
633.011	5.4
633.342	5.18
633.674	5.07
634.005	5.36
634.336	5.45
634.668	5.36
634.999	5.09
635.33	5.13
635.661	5.36
635.992	5.41
636.323	4.98
636.654	5.62
636.985	5.35
637.316	5.41
637.647	5.42
637.977	5.34
638.308	5.24
638.639	5.15
638.969	4.92
639.3	5.23
639.63	5.48
639.961	4.97
640.291	5.76
640.622	5.35
640.952	5.1
641.282	5.17
641.612	4.97
641.943	5.66
642.273	5.18
642.603	5.35
642.933	5.56
643.263	5.27
643.592	5.51
643.922	5.52
644.252	5.47
644.582	5.45
644.911	5.16
645.241	4.71
645.571	5.54
645.9	5.58
646.23	5.77
646.559	5.28
646.888	5.38
647.218	5.15
647.547	5.74
647.876	5.33
648.205	5.56
648.534	5.28
648.863	5.25
649.192	5.34
649.521	5.49
649.85	5.59
650.179	5.08
650.508	5.45
650.837	5.92
651.165	5.4
651.494	5.74
651.822	5.02
652.151	5.05
652.479	5.01
652.808	5.1
653.136	5.44
653.465	5.15
653.793	5.81
654.121	5.17
654.449	5.44
654.777	5.7
655.105	5.29
655.433	5.12
655.761	5.56
656.089	5.87
656.417	5.07
656.745	5.18
657.073	5.22
657.4	5.1
657.728	5.83
658.056	5.62
658.383	5.49
658.711	5.02
659.038	5.61
659.365	5.3
659.693	5.45
660.02	5.88
660.347	5.65
660.674	5.57
661.001	5.28
661.329	5.57
661.656	5.71
661.982	5.8
662.309	5.55
662.636	5.44
662.963	5.37
663.29	5.24
663.616	5.12
663.943	5.39
664.27	5.76
664.596	5.7
664.923	5.48
665.249	5.73
665.576	6.11
665.902	6.06
666.228	5.49
666.554	5.2
666.881	5.63
667.207	6.01
667.533	5.74
667.859	6.06
668.185	5.69
668.511	5.62
668.837	5.52
669.162	5.48
669.488	5.71
669.814	5.52
670.139	5.82
670.465	5.24
670.791	5.63
671.116	5.99
671.442	5.37
671.767	5.94
672.092	5.81
672.418	5.43
672.743	5.04
673.068	5.87
673.393	6.47
673.718	5.16
674.043	5.5
674.368	5.73
674.693	4.72
675.018	5.5
675.343	5.86
675.667	6.54
675.992	6.4
676.317	5.39
676.641	4.6
676.966	5.72
677.29	5.59
677.615	5.74
677.939	6.03
678.264	5.78
678.588	5.29
678.912	5.76
679.236	5.33
679.56	5.87
679.885	5.33
680.209	6.2
680.532	5.82
680.856	6.51
681.18	6.43
681.504	5.6
681.828	6.15
682.152	5.66
682.475	6.03
682.799	5.88
683.122	5.53
683.446	6.1
683.769	6.05
684.093	6.53
684.416	5.26
684.739	6.45
685.062	5.55
685.386	6.26
685.709	6.31
686.032	6.04
686.355	6.22
686.678	6.17
687.001	5.34
687.324	6.13
687.646	5.21
687.969	6.51
688.292	6.9
688.614	6.07
688.937	6.18
689.26	5.32
689.582	6.2
689.904	6.26
690.227	6.33
690.549	5.89
690.871	5.9
691.194	5.74
691.516	5.07
691.838	5.94
692.16	5.94
692.482	5.65
692.804	5.14
