Data from 20-5_chest_Reflection__1__01.txt Node

Date: Fri Nov 11 20:12:44 CST 2022
User: ToomeyLab
Spectrometer: FLMS14357
Trigger mode: 0
Integration Time (sec): 1.000000E-2
Scans to average: 100
Electric dark correction enabled: true
Nonlinearity correction enabled: false
Boxcar width: 0
XAxis mode: Wavelengths
Number of Pixels in Spectrum: 2048
>>>>>Begin Spectral Data<<<<<
189.047	13.02
189.435	13.02
189.823	13.02
190.211	1731.25
190.599	-74.35
190.987	145.46
191.375	-66.3
191.763	47.62
192.151	480.21
192.538	-0.11
192.926	40.59
193.314	213.19
193.702	-82.22
194.089	690.06
194.477	-18.95
194.864	173.81
195.252	48.3
195.639	-51.67
196.027	2.83
196.414	-123.17
196.801	-185.64
197.189	16.08
197.576	423.14
197.963	85.94
198.351	-23.07
198.738	20.33
199.125	12.65
199.512	28.69
199.899	-87.33
200.286	17.81
200.673	21
201.06	19.14
201.447	60.97
201.833	41.87
202.22	1.4
202.607	3.15
202.994	7.72
203.38	40.6
203.767	17.12
204.154	38.69
204.54	-4.78
204.927	19.27
205.313	2.16
205.699	2.27
206.086	28.44
206.472	38.68
206.858	37.14
207.245	29.16
207.631	2.46
208.017	-5.6
208.403	6.28
208.789	35.19
209.175	31.27
209.561	50.05
209.947	16.33
210.333	4.51
210.719	57.92
211.105	49.54
211.491	29.48
211.876	-4.38
212.262	32.8
212.648	26.01
213.034	12.36
213.419	-3.62
213.805	2.84
214.19	12.91
214.576	38.65
214.961	-1.95
215.346	13.77
215.732	-3.22
216.117	31.31
216.502	18.06
216.888	20.96
217.273	13.43
217.658	8.3
218.043	44.8
218.428	14.52
218.813	26.45
219.198	30.16
219.583	1.04
219.968	0.01
220.353	5.65
220.738	-10.77
221.122	11.01
221.507	-8.29
221.892	-17.19
222.276	15.86
222.661	18.87
223.046	-5.71
223.43	-10.35
223.815	0.21
224.199	9.49
224.583	2.59
224.968	3.86
225.352	8.53
225.736	-0.64
226.121	5.41
226.505	7.16
226.889	-4.17
227.273	10.12
227.657	0.82
228.041	2.31
228.425	2.8
228.809	5.42
229.193	4.22
229.577	6.06
229.961	4.05
230.344	4.94
230.728	3.79
231.112	3.5
231.495	4.6
231.879	3.38
232.263	4.5
232.646	5.32
233.03	4.15
233.413	4.39
233.797	6.21
234.18	3.69
234.563	3.96
234.946	4.31
235.33	5.29
235.713	3.01
236.096	2.65
236.479	2.47
236.862	5.64
237.245	5.01
237.628	4.97
238.011	4.55
238.394	4.6
238.777	5.95
239.16	5.22
239.543	4.38
239.925	4.82
240.308	4.76
240.691	5.84
241.073	3.76
241.456	4.3
241.838	5.59
242.221	4.78
242.603	4.45
242.986	4.12
243.368	3.93
243.75	3.92
244.133	4.06
244.515	4.09
244.897	4.39
245.279	3.72
245.661	4.31
246.043	4.76
246.425	4.83
246.807	3.93
247.189	3.94
247.571	4.27
247.953	3.66
248.335	3.71
248.717	3.92
249.098	4.17
249.48	4
249.862	4.08
250.243	3.72
250.625	4.05
251.006	4.96
251.388	4.49
251.769	4.24
252.151	5.03
252.532	3.53
252.913	5.21
253.295	3.77
253.676	3.38
254.057	3.43
254.438	4.23
254.819	4.02
255.2	4.29
255.581	3.96
255.962	3.69
256.343	2.92
256.724	4.07
257.105	4.24
257.486	3.56
257.867	4.42
258.247	3.4
258.628	3.04
259.009	3.87
259.389	3.89
259.77	4.91
260.15	3.77
260.531	4.05
260.911	3.51
261.292	3.72
261.672	3.44
262.052	3.74
262.432	3.66
262.813	3.8
263.193	3.73
263.573	3.8
263.953	4.24
264.333	3.55
264.713	3.87
265.093	3.74
265.473	3.35
265.853	3.25
266.233	4.01
266.612	3.49
266.992	3.53
267.372	3.99
267.752	3.13
268.131	3.31
268.511	3.96
268.89	3.22
269.27	3.89
269.649	3.65
270.029	3.92
270.408	3.61
270.787	3.63
271.167	2.94
271.546	3.53
271.925	3.24
272.304	3.6
272.683	3.32
273.062	3.41
273.441	3.34
273.82	3.66
274.199	3.04
274.578	3.58
274.957	3.76
275.336	3.89
275.715	3.5
276.093	3.52
276.472	3.41
276.851	3.6
277.229	3.28
277.608	3.87
277.986	4
278.365	3.09
278.743	3.8
279.122	4.04
279.5	3.46
279.878	3.36
280.257	3.76
280.635	3.66
281.013	3.97
281.391	2.97
281.769	3.26
282.147	3.49
282.525	2.75
282.903	3.24
283.281	3.7
283.659	3.8
284.037	3.64
284.415	3.5
284.792	3.55
285.17	3.69
285.548	3.12
285.925	3.03
286.303	3.27
286.68	3.57
287.058	3.59
287.435	3.38
287.813	3.63
288.19	3.15
288.567	3.58
288.945	4.04
289.322	4.04
289.699	3.09
290.076	3.57
290.453	3.3
290.83	3.37
291.207	3.27
291.584	3.9
291.961	3.29
292.338	3.31
292.715	3.58
293.092	3.53
293.469	3.73
293.845	3.58
294.222	3.47
294.599	3.57
294.975	4.2
295.352	3.65
295.728	3.67
296.105	3.54
296.481	3.07
296.858	3.21
297.234	3.58
297.61	3.25
297.986	3.62
298.363	3.68
298.739	3.68
299.115	3.63
299.491	3.86
299.867	3.5
300.243	3.7
300.619	3.67
300.995	3.52
301.371	4.06
301.746	4.05
302.122	3.77
302.498	3.66
302.874	3.52
303.249	3.23
303.625	3.67
304	3.06
304.376	3.79
304.751	3.59
305.127	3.42
305.502	3.8
305.878	4.04
306.253	3.73
306.628	3.7
307.003	3.59
307.378	3.77
307.754	4.11
308.129	3.98
308.504	3.86
308.879	3.46
309.254	3.81
309.629	3.58
310.003	4.01
310.378	3.54
310.753	3.78
311.128	3.78
311.502	3.81
311.877	3.6
312.252	3.5
312.626	3.98
313.001	3.63
313.375	3.63
313.75	3.5
314.124	3.44
314.498	3.55
314.873	3.33
315.247	3.92
315.621	3.87
315.995	4.29
316.369	3.93
316.743	3.57
317.117	3.88
317.491	4.39
317.865	3.48
318.239	3.65
318.613	3.83
318.987	3.29
319.361	3.67
319.734	4.02
320.108	3.26
320.482	4.31
320.855	3.32
321.229	3.51
321.602	3.91
321.976	4.05
322.349	3.9
322.723	3.98
323.096	3.86
323.469	4.07
323.843	4.23
324.216	3.21
324.589	3.85
324.962	4.33
325.335	3.57
325.708	3.82
326.081	3.78
326.454	3.62
326.827	3.38
327.2	4.01
327.573	4.51
327.945	3.8
328.318	3.67
328.691	3.89
329.063	3.7
329.436	3.19
329.809	3.43
330.181	3.74
330.553	3.17
330.926	3.69
331.298	3.53
331.671	3.9
332.043	3.36
332.415	3.54
332.787	4.18
333.159	4.11
333.532	3.84
333.904	4.14
334.276	3.78
334.648	3.66
335.02	3.87
335.391	4.02
335.763	3.83
336.135	3.66
336.507	3.57
336.879	3.57
337.25	4.02
337.622	3.74
337.993	4.16
338.365	3.83
338.736	3.83
339.108	3.57
339.479	3.62
339.851	4.07
340.222	3.91
340.593	3.87
340.964	3.33
341.336	3.47
341.707	3.7
342.078	3.43
342.449	3.51
342.82	3.8
343.191	4.07
343.562	3.54
343.933	3.9
344.303	3.75
344.674	3.56
345.045	3.86
345.416	4.04
345.786	3.47
346.157	3.33
346.527	3.65
346.898	3.15
347.268	3.5
347.639	3.9
348.009	3.5
348.38	4.15
348.75	4.05
349.12	4.09
349.49	4.01
349.861	3.6
350.231	3.85
350.601	3.58
350.971	3.86
351.341	4.07
351.711	3.82
352.081	4.05
352.45	3.76
352.82	3.78
353.19	4.01
353.56	3.67
353.929	3.84
354.299	3.96
354.669	3.84
355.038	3.78
355.408	3.73
355.777	3.83
356.147	3.98
356.516	3.97
356.885	4.03
357.254	3.73
357.624	3.37
357.993	4.12
358.362	4.12
358.731	3.43
359.1	3.58
359.469	3.5
359.838	3.55
360.207	3.93
360.576	3.97
360.945	3.97
361.314	3.55
361.682	3.61
362.051	3.69
362.42	4.03
362.788	3.95
363.157	3.85
363.525	3.52
363.894	3.51
364.262	3.85
364.631	3.95
364.999	3.87
365.367	4.05
365.735	3.71
366.104	3.68
366.472	3.76
366.84	3.36
367.208	3.38
367.576	4.37
367.944	4.23
368.312	3.93
368.68	3.87
369.048	3.98
369.416	3.77
369.783	3.74
370.151	4.15
370.519	3.82
370.886	3.78
371.254	3.97
371.621	3.67
371.989	3.64
372.356	3.95
372.724	4.13
373.091	4.19
373.458	3.77
373.826	3.73
374.193	3.7
374.56	3.88
374.927	4.03
375.294	3.93
375.661	4.1
376.028	3.6
376.395	4.04
376.762	3.85
377.129	3.67
377.496	3.75
377.863	3.97
378.229	4.11
378.596	3.62
378.963	3.88
379.329	4.08
379.696	3.96
380.062	3.88
380.429	4.01
380.795	4.07
381.161	4.07
381.528	3.71
381.894	3.83
382.26	4.24
382.626	4.15
382.993	3.59
383.359	4.33
383.725	3.67
384.091	4.07
384.457	3.99
384.823	3.9
385.188	4.03
385.554	3.95
385.92	3.83
386.286	3.98
386.651	4.1
387.017	4.03
387.383	4.04
387.748	4.02
388.114	3.91
388.479	3.65
388.845	3.98
389.21	3.91
389.575	4.18
389.94	4.1
390.306	3.67
390.671	4.01
391.036	3.77
391.401	3.96
391.766	4.19
392.131	3.98
392.496	4.18
392.861	3.89
393.226	4.01
393.591	3.82
393.956	3.86
394.32	4
394.685	3.96
395.05	4.18
395.414	4.02
395.779	3.89
396.143	3.91
396.508	4.18
396.872	4.24
397.236	3.91
397.601	3.96
397.965	4.07
398.329	3.99
398.694	4.04
399.058	4.34
399.422	4.11
399.786	3.95
400.15	3.98
400.514	4
400.878	4.05
401.242	4.06
401.605	3.95
401.969	4.13
402.333	3.92
402.697	4.09
403.06	4.34
403.424	3.74
403.787	4.05
404.151	3.95
404.514	3.94
404.878	4.03
405.241	4.1
405.604	4.07
405.968	4.09
406.331	3.73
406.694	3.97
407.057	4.08
407.42	4.06
407.783	3.97
408.146	4.14
408.509	4.01
408.872	4.02
409.235	4.17
409.598	4.08
409.961	4.25
410.323	4.15
410.686	4.11
411.049	3.96
411.411	4.16
411.774	3.99
412.136	3.92
412.499	3.97
412.861	4.12
413.223	3.93
413.586	3.87
413.948	4.22
414.31	4.05
414.672	4.14
415.035	4.3
415.397	4.04
415.759	4.05
416.121	4.14
416.483	4.15
416.845	4.08
417.206	3.92
417.568	4.02
417.93	3.94
418.292	3.95
418.653	4.17
419.015	4.1
419.377	4.12
419.738	4.03
420.1	4.02
420.461	4.06
420.822	4
421.184	4.03
421.545	4.03
421.906	4.08
422.267	3.86
422.629	3.81
422.99	3.93
423.351	3.96
423.712	3.91
424.073	4.14
424.434	4.09
424.795	4.1
425.155	3.93
425.516	4.04
425.877	4.05
426.238	4.02
426.598	3.97
426.959	4
427.32	4.1
427.68	4.04
428.041	4.17
428.401	3.87
428.761	4.15
429.122	4.08
429.482	4.22
429.842	4.1
430.202	4.21
430.563	4.36
430.923	4.07
431.283	4.09
431.643	4.17
432.003	4.2
432.363	4.14
432.722	4.37
433.082	4.35
433.442	4.21
433.802	4.18
434.161	4.18
434.521	4.17
434.881	4.33
435.24	4.15
435.6	4.15
435.959	4.15
436.319	4.11
436.678	4.27
437.037	4.17
437.396	4.29
437.756	4.23
438.115	4.1
438.474	4.11
438.833	4.2
439.192	4.25
439.551	4.2
439.91	4.18
440.269	4.15
440.628	4.26
440.987	4.24
441.345	4.01
441.704	4.16
442.063	4.14
442.421	4.08
442.78	4.07
443.138	4.19
443.497	4.14
443.855	4.25
444.214	4.11
444.572	4.37
444.93	4.19
445.288	4.26
445.647	4.24
446.005	4.21
446.363	4.3
446.721	4.17
447.079	4.21
447.437	4.02
447.795	4.2
448.153	4.03
448.51	4.06
448.868	4.21
449.226	4.14
449.584	4.19
449.941	4.25
450.299	4.25
450.656	4.22
451.014	4.3
451.371	4.25
451.729	4.23
452.086	4.29
452.443	4.08
452.801	4.43
453.158	4.19
453.515	4.28
453.872	4.24
454.229	4.31
454.586	4.22
454.943	4.41
455.3	4.38
455.657	4.31
456.014	4.37
456.371	4.36
456.727	4.33
457.084	4.13
457.441	4.58
457.797	4.2
458.154	4.29
458.51	4.42
458.867	4.29
459.223	4.43
459.58	4.27
459.936	4.35
460.292	4.34
460.648	4.25
461.005	4.32
461.361	4.27
461.717	4.15
462.073	4.28
462.429	4.31
462.785	4.31
463.141	4.19
463.496	4.34
463.852	4.34
464.208	4.39
464.564	4.43
464.919	4.45
465.275	4.29
465.631	4.45
465.986	4.59
466.342	4.4
466.697	4.34
467.052	4.43
467.408	4.44
467.763	4.33
468.118	4.43
468.473	4.43
468.829	4.35
469.184	4.54
469.539	4.46
469.894	4.53
470.249	4.5
470.603	4.4
470.958	4.41
471.313	4.66
471.668	4.6
472.023	4.32
472.377	4.51
472.732	4.45
473.086	4.35
473.441	4.47
473.795	4.41
474.15	4.48
474.504	4.37
474.859	4.48
475.213	4.74
475.567	4.48
475.921	4.5
476.275	4.59
476.63	4.6
476.984	4.57
477.338	4.57
477.692	4.46
478.045	4.4
478.399	4.67
478.753	4.4
479.107	4.5
479.461	4.44
479.814	4.46
480.168	4.41
480.521	4.52
480.875	4.58
481.228	4.4
481.582	4.5
481.935	4.44
482.289	4.4
482.642	4.36
482.995	4.42
483.348	4.4
483.701	4.49
484.055	4.4
484.408	4.34
484.761	4.24
485.114	4.14
485.466	4.1
485.819	4.14
486.172	4.22
486.525	4.25
486.878	4.28
487.23	4.29
487.583	4.35
487.936	4.35
488.288	4.3
488.641	4.25
488.993	4.25
489.345	4.19
489.698	4.25
490.05	4.29
490.402	4.37
490.754	4.36
491.107	4.33
491.459	4.42
491.811	4.46
492.163	4.43
492.515	4.42
492.866	4.31
493.218	4.27
493.57	4.28
493.922	4.39
494.274	4.42
494.625	4.41
494.977	4.51
495.328	4.53
495.68	4.61
496.031	4.63
496.383	4.63
496.734	4.69
497.086	4.67
497.437	4.66
497.788	4.59
498.139	4.6
498.49	4.48
498.842	4.41
499.193	4.65
499.544	4.69
499.894	4.54
500.245	4.5
500.596	4.7
500.947	4.63
501.298	4.59
501.648	4.65
501.999	4.68
502.35	4.7
502.7	4.63
503.051	4.63
503.401	4.71
503.752	4.68
504.102	4.49
504.452	4.71
504.803	4.66
505.153	4.72
505.503	4.74
505.853	4.72
506.203	4.72
506.553	4.49
506.903	4.72
507.253	4.65
507.603	4.74
507.953	4.77
508.303	4.62
508.652	4.67
509.002	4.84
509.352	4.59
509.701	4.81
510.051	4.66
510.4	4.62
510.75	4.61
511.099	4.59
511.449	4.71
511.798	4.73
512.147	4.63
512.496	4.54
512.846	4.81
513.195	4.7
513.544	4.69
513.893	4.65
514.242	4.68
514.591	4.8
514.939	4.78
515.288	4.87
515.637	4.68
515.986	4.73
516.334	4.75
516.683	4.83
517.032	4.73
517.38	4.88
517.729	4.85
518.077	4.85
518.426	4.86
518.774	4.73
519.122	4.77
519.47	4.76
519.819	4.71
520.167	4.72
520.515	4.78
520.863	4.8
521.211	4.73
521.559	4.71
521.907	4.8
522.255	4.7
522.602	4.81
522.95	4.76
523.298	4.89
523.645	4.99
523.993	4.89
524.341	4.95
524.688	4.88
525.036	4.96
525.383	4.89
525.73	4.83
526.078	4.87
526.425	4.77
526.772	4.83
527.119	4.72
527.466	4.73
527.814	4.84
528.161	4.9
528.508	4.76
528.854	4.78
529.201	4.76
529.548	4.69
529.895	4.62
530.242	4.57
530.588	4.66
530.935	4.69
531.282	4.74
531.628	4.78
531.975	4.87
532.321	4.84
532.667	4.91
533.014	4.88
533.36	4.93
533.706	4.98
534.052	4.93
534.399	4.79
534.745	4.75
535.091	4.79
535.437	4.82
535.783	4.83
536.129	5.03
536.474	5.06
536.82	4.94
537.166	4.99
537.512	5.03
537.857	4.99
538.203	4.98
538.549	5.14
538.894	5.04
539.239	5.02
539.585	5.09
539.93	5.18
540.276	5.29
540.621	5.18
540.966	5.17
541.311	5.14
541.656	5.22
542.001	5.11
542.346	5.09
542.691	4.96
543.036	4.91
543.381	5
543.726	4.95
544.071	5.05
544.415	5.11
544.76	5.14
545.105	5.11
545.449	5.1
545.794	5.23
546.138	5.12
546.483	5.3
546.827	5.26
547.171	5.28
547.516	5.17
547.86	5.21
548.204	5.26
548.548	5.21
548.892	5.38
549.236	5.35
549.58	5.49
549.924	5.42
550.268	5.46
550.612	5.44
550.956	5.64
551.3	5.44
551.643	5.67
551.987	5.55
552.33	5.6
552.674	5.62
553.017	5.67
553.361	5.51
553.704	5.52
554.048	5.5
554.391	5.47
554.734	5.5
555.077	5.67
555.42	5.63
555.764	5.6
556.107	5.63
556.45	5.63
556.793	5.68
557.135	5.64
557.478	5.69
557.821	5.81
558.164	5.79
558.507	5.78
558.849	5.7
559.192	5.69
559.534	5.73
559.877	5.85
560.219	5.71
560.562	5.63
560.904	5.85
561.246	5.54
561.589	5.86
561.931	5.62
562.273	5.95
562.615	5.97
562.957	5.79
563.299	5.88
563.641	5.82
563.983	5.8
564.325	5.77
564.667	5.96
565.008	5.93
565.35	5.92
565.692	5.62
566.033	5.89
566.375	5.97
566.716	5.89
567.058	5.93
567.399	6.19
567.741	6
568.082	6.06
568.423	5.93
568.764	6.18
569.105	6.04
569.447	6.09
569.788	6.19
570.129	6.13
570.47	6.22
570.811	6.16
571.151	6.26
571.492	6.3
571.833	6.21
572.174	6.32
572.514	6.12
572.855	6.34
573.195	6.15
573.536	6.22
573.876	6.23
574.217	6.25
574.557	6.24
574.898	6.38
575.238	6.3
575.578	6.3
575.918	6.45
576.258	6.26
576.598	6.37
576.938	6.4
577.278	6.26
577.618	6.43
577.958	6.32
578.298	6.39
578.638	6.6
578.977	6.66
579.317	6.63
579.657	6.52
579.996	6.55
580.336	6.49
580.675	6.74
581.014	6.68
581.354	6.59
581.693	6.5
582.032	6.61
582.372	6.64
582.711	6.78
583.05	6.7
583.389	6.69
583.728	6.73
584.067	6.85
584.406	6.79
584.745	7
585.083	6.97
585.422	6.84
585.761	6.92
586.1	6.66
586.438	6.79
586.777	6.87
587.115	6.95
587.454	6.75
587.792	6.99
588.13	7.17
588.469	7.11
588.807	7.02
589.145	7.07
589.483	7.13
589.821	7.01
590.159	7.28
590.497	7.04
590.835	7.07
591.173	7.14
591.511	7.22
591.849	7.13
592.187	7.17
592.524	7.08
592.862	7.05
593.2	7.21
593.537	7.3
593.875	7.61
594.212	7.28
594.55	7.39
594.887	7.22
595.224	7.29
595.561	7.43
595.899	7.52
596.236	7.17
596.573	7.33
596.91	7.41
597.247	7.45
597.584	7.33
597.921	7.61
598.258	7.37
598.594	7.59
598.931	7.46
599.268	7.46
599.604	7.59
599.941	7.61
600.277	7.64
600.614	7.66
600.95	7.34
601.287	7.71
601.623	8.02
601.959	7.8
602.296	7.7
602.632	7.83
602.968	7.88
603.304	8.02
603.64	7.78
603.976	7.88
604.312	7.71
604.648	7.82
604.984	7.89
605.319	7.96
605.655	7.78
605.991	7.84
606.326	8.04
606.662	7.84
606.998	7.89
607.333	7.77
607.668	7.93
608.004	8.05
608.339	8.02
608.674	8.16
609.01	8.19
609.345	8.16
609.68	8.07
610.015	8.22
610.35	8.05
610.685	8.23
611.02	8.1
611.355	8.38
611.689	8.22
612.024	8.19
612.359	8.3
612.694	8.47
613.028	8.56
613.363	8.64
613.697	8.48
614.032	8.68
614.366	8.61
614.7	8.3
615.035	8.52
615.369	8.39
615.703	8.88
616.037	8.57
616.371	8.7
616.705	8.89
617.039	8.88
617.373	8.66
617.707	8.77
618.041	8.72
618.375	8.42
618.709	8.96
619.042	8.84
619.376	9.03
619.71	8.96
620.043	9.34
620.377	9.1
620.71	8.88
621.043	8.82
621.377	8.96
621.71	9.2
622.043	9.25
622.376	9.41
622.709	9.14
623.043	9.25
623.376	9.33
623.709	9.36
624.041	9.47
624.374	8.81
624.707	9.18
625.04	9.28
625.373	9.12
625.705	9.18
626.038	9.29
626.37	9.35
626.703	9.25
627.035	9.33
627.368	9.14
627.7	9.22
628.032	9.52
628.365	9.7
628.697	9.57
629.029	9.26
629.361	9.55
629.693	9.41
630.025	9.52
630.357	9.92
630.689	9.64
631.021	9.72
631.353	9.81
631.684	9.63
632.016	9.74
632.348	9.49
632.679	9.44
633.011	10.05
633.342	9.92
633.674	10.03
634.005	9.9
634.336	10.15
634.668	9.89
634.999	10.06
635.33	10.12
635.661	10.19
635.992	10.25
636.323	9.93
636.654	10.26
636.985	10.15
637.316	9.92
637.647	10.57
637.977	10.38
638.308	10.32
638.639	9.91
638.969	10.11
639.3	10.28
639.63	10.33
639.961	10.42
640.291	10.34
640.622	10.7
640.952	10.42
641.282	10.47
641.612	10.05
641.943	10.9
642.273	10.48
642.603	10.47
642.933	10.93
643.263	10.58
643.592	10.93
643.922	11.09
644.252	10.67
644.582	10.58
644.911	10.57
645.241	10.64
645.571	10.77
645.9	10.81
646.23	11.09
646.559	11.33
646.888	10.75
647.218	11.02
647.547	11.04
647.876	11.16
648.205	10.67
648.534	10.87
648.863	11.01
649.192	11.12
649.521	11.18
649.85	11.26
650.179	11.12
650.508	11.12
650.837	11.33
651.165	11.13
651.494	11.55
651.822	11.38
652.151	11.09
652.479	11.23
652.808	10.77
653.136	11.18
653.465	11.41
653.793	11.47
654.121	11.5
654.449	11
654.777	11.73
655.105	11.56
655.433	11.52
655.761	11.54
656.089	11.86
656.417	11.29
656.745	11.8
657.073	11.7
657.4	11.49
657.728	12.14
658.056	12.32
658.383	11.92
658.711	11.63
659.038	11.85
659.365	11.77
659.693	11.82
660.02	12.63
660.347	11.84
660.674	11.75
661.001	12.07
661.329	11.76
661.656	11.74
661.982	12.68
662.309	12.09
662.636	12.49
662.963	12.03
663.29	11.54
663.616	11.87
663.943	11.91
664.27	12.45
664.596	12.63
664.923	12.38
665.249	12.46
665.576	12.96
665.902	13.19
666.228	12.46
666.554	12.69
666.881	12.64
667.207	12.49
667.533	12.63
667.859	12.83
668.185	12.88
668.511	12.42
668.837	13.06
669.162	13.59
669.488	12.51
669.814	12.56
670.139	12.4
670.465	12.85
670.791	12.74
671.116	12.54
671.442	12.36
671.767	12.93
672.092	12.91
672.418	12.87
672.743	12.82
673.068	12.99
673.393	13.71
673.718	12.83
674.043	13.27
674.368	13.16
674.693	13.12
675.018	13.11
675.343	13.36
675.667	13.51
675.992	13.47
676.317	13.3
676.641	13.16
676.966	13.78
677.29	13.04
677.615	13.56
677.939	13.01
678.264	13.71
678.588	13.45
678.912	13.3
679.236	13.64
679.56	13.49
679.885	13.96
680.209	13.67
680.532	14.36
680.856	14.23
681.18	13.66
681.504	13.81
681.828	14.14
682.152	13.59
682.475	14.46
682.799	13.51
683.122	14.25
683.446	14.39
683.769	13.8
684.093	14.18
684.416	13.75
684.739	14.43
685.062	13.61
685.386	14.68
685.709	14.53
686.032	13.13
686.355	14.06
686.678	14.76
687.001	14.1
687.324	13.92
687.646	13.63
687.969	14.59
688.292	14.76
688.614	14.48
688.937	14.17
689.26	13.7
