Data from 20-5_forehead_Reflection__1__11.txt Node

Date: Fri Nov 11 20:15:37 CST 2022
User: ToomeyLab
Spectrometer: FLMS14357
Trigger mode: 0
Integration Time (sec): 1.000000E-2
Scans to average: 100
Electric dark correction enabled: true
Nonlinearity correction enabled: false
Boxcar width: 0
XAxis mode: Wavelengths
Number of Pixels in Spectrum: 2048
>>>>>Begin Spectral Data<<<<<
189.047	24.55
189.435	24.55
189.823	24.55
190.211	386
190.599	-210.85
190.987	261.79
191.375	-90.18
191.763	122.01
192.151	2408.33
192.538	163.24
192.926	-22.75
193.314	330.5
193.702	-28.45
194.089	715.91
194.477	506.77
194.864	164.18
195.252	153.59
195.639	-28.22
196.027	129.76
196.414	-79.75
196.801	-162.28
197.189	231.13
197.576	-30.7
197.963	77.1
198.351	-23.94
198.738	14.04
199.125	56.07
199.512	10.12
199.899	-27.9
200.286	27.68
200.673	18.04
201.06	45.06
201.447	74.38
201.833	27.19
202.22	-1.65
202.607	35.19
202.994	48.51
203.38	39.99
203.767	76.54
204.154	62.35
204.54	20.94
204.927	49.02
205.313	51.38
205.699	-53.82
206.086	36.32
206.472	12.36
206.858	34.18
207.245	65.67
207.631	18.21
208.017	8.48
208.403	49.12
208.789	29.95
209.175	32.72
209.561	55.1
209.947	8.51
210.333	43
210.719	59.21
211.105	61.6
211.491	44.19
211.876	45.47
212.262	39.52
212.648	15.87
213.034	52.61
213.419	0.91
213.805	39.82
214.19	11.28
214.576	56.26
214.961	-7.82
215.346	14.03
215.732	14.83
216.117	46.9
216.502	49.55
216.888	23.8
217.273	38.07
217.658	-7.56
218.043	22.18
218.428	25.14
218.813	37.84
219.198	18.2
219.583	22.96
219.968	16.42
220.353	6.31
220.738	25.8
221.122	19.22
221.507	4.93
221.892	16.1
222.276	17.11
222.661	33.46
223.046	6.49
223.43	4.3
223.815	11.27
224.199	12.2
224.583	11.64
224.968	14.68
225.352	6.88
225.736	9.86
226.121	8.01
226.505	10.79
226.889	4.4
227.273	8.04
227.657	2.62
228.041	4.11
228.425	2.3
228.809	7.04
229.193	8.31
229.577	7.38
229.961	4.56
230.344	4.44
230.728	3.31
231.112	3.25
231.495	4.85
231.879	2.85
232.263	3.56
232.646	2.76
233.03	4.75
233.413	5.24
233.797	5.64
234.18	1.26
234.563	5.6
234.946	3.58
235.33	4.46
235.713	4.67
236.096	2.49
236.479	4.39
236.862	5.58
237.245	5.12
237.628	4.77
238.011	4.23
238.394	4.63
238.777	4.27
239.16	4.66
239.543	4.76
239.925	4.36
240.308	3.99
240.691	7.28
241.073	5.07
241.456	2.66
241.838	5.39
242.221	4.24
242.603	4.7
242.986	3.98
243.368	3.62
243.75	3.86
244.133	3.92
244.515	4
244.897	4.51
245.279	4.36
245.661	4.92
246.043	3.6
246.425	5.02
246.807	4.08
247.189	4
247.571	4.09
247.953	4.11
248.335	3.89
248.717	3.91
249.098	3.91
249.48	3.61
249.862	4.43
250.243	4.12
250.625	4.38
251.006	4.93
251.388	4.93
251.769	5.5
252.151	5.12
252.532	4.44
252.913	4.63
253.295	4.04
253.676	3.47
254.057	3.8
254.438	4.53
254.819	4.06
255.2	4.39
255.581	4.2
255.962	4.49
256.343	4.08
256.724	5.1
257.105	4.03
257.486	5.35
257.867	5.18
258.247	3.6
258.628	4.59
259.009	3.88
259.389	4.11
259.77	4.12
260.15	4.24
260.531	3.89
260.911	3.77
261.292	3.89
261.672	3.61
262.052	3.84
262.432	4.14
262.813	4.46
263.193	4
263.573	4.12
263.953	4.36
264.333	3.68
264.713	4.14
265.093	3.95
265.473	3.29
265.853	4.5
266.233	4.65
266.612	4.71
266.992	3.91
267.372	4.45
267.752	4.3
268.131	3.38
268.511	4.02
268.89	3.89
269.27	3.83
269.649	3.75
270.029	4.36
270.408	3.95
270.787	4.29
271.167	3.56
271.546	4.29
271.925	3.63
272.304	3.92
272.683	3.94
273.062	3.97
273.441	3.72
273.82	3.62
274.199	3.9
274.578	3.48
274.957	4.12
275.336	4.13
275.715	4.68
276.093	3.64
276.472	3.6
276.851	3.66
277.229	3.95
277.608	3.48
277.986	4.21
278.365	3.3
278.743	4.07
279.122	4.56
279.5	3.69
279.878	4.57
280.257	4.07
280.635	3.91
281.013	4.01
281.391	3.62
281.769	3.56
282.147	3.14
282.525	3.64
282.903	3.88
283.281	4.01
283.659	3.94
284.037	4.41
284.415	3.77
284.792	4.1
285.17	4.08
285.548	3.89
285.925	3.88
286.303	3.94
286.68	3.87
287.058	3.97
287.435	3.91
287.813	3.89
288.19	3.68
288.567	3.92
288.945	4.33
289.322	4.13
289.699	4.02
290.076	4.46
290.453	4.36
290.83	4.36
291.207	4.16
291.584	4.67
291.961	4.33
292.338	4.39
292.715	4.62
293.092	4.7
293.469	4.75
293.845	4.69
294.222	4.57
294.599	5.09
294.975	4.78
295.352	4.64
295.728	4.49
296.105	4.3
296.481	4.4
296.858	4.65
297.234	4.99
297.61	4.66
297.986	5.07
298.363	4.89
298.739	4.94
299.115	4.98
299.491	5.1
299.867	5.05
300.243	5.12
300.619	5.06
300.995	4.96
301.371	5.68
301.746	5.58
302.122	5.09
302.498	5.68
302.874	5.29
303.249	5.25
303.625	5.41
304	4.97
304.376	5.75
304.751	5.2
305.127	5.22
305.502	5.8
305.878	5.8
306.253	5.27
306.628	5.76
307.003	5.89
307.378	5.57
307.754	5.69
308.129	6.05
308.504	6.23
308.879	6.32
309.254	6.56
309.629	5.95
310.003	5.92
310.378	6.18
310.753	6.38
311.128	6.5
311.502	6.04
311.877	6.09
312.252	6.33
312.626	6.3
313.001	6.33
313.375	6.44
313.75	6.14
314.124	6.1
314.498	6.35
314.873	6.61
315.247	6.39
315.621	7.06
315.995	6.61
316.369	7
316.743	6.55
317.117	7.06
317.491	6.72
317.865	6.8
318.239	6.7
318.613	7.31
318.987	6.95
319.361	6.7
319.734	7.43
320.108	6.98
320.482	7.37
320.855	7.06
321.229	7.37
321.602	6.91
321.976	6.96
322.349	7.52
322.723	7.95
323.096	7.74
323.469	7.25
323.843	7.84
324.216	6.74
324.589	7.53
324.962	7.27
325.335	7.42
325.708	7.25
326.081	7.75
326.454	7.25
326.827	6.94
327.2	8.07
327.573	8.44
327.945	7.59
328.318	7.3
328.691	7.95
329.063	7.54
329.436	7.91
329.809	7.29
330.181	7.8
330.553	7.48
330.926	7.68
331.298	7.8
331.671	7.62
332.043	7.44
332.415	8.12
332.787	8.61
333.159	7.86
333.532	8.09
333.904	8.34
334.276	8.18
334.648	7.95
335.02	8.08
335.391	8.34
335.763	8.13
336.135	7.72
336.507	8.31
336.879	8.24
337.25	7.92
337.622	8.46
337.993	9.28
338.365	8.59
338.736	8.49
339.108	8.86
339.479	8.53
339.851	8.54
340.222	8.49
340.593	8.65
340.964	8.51
341.336	9.08
341.707	8.11
342.078	8.26
342.449	8.76
342.82	8.96
343.191	8.85
343.562	8.54
343.933	8.82
344.303	8.53
344.674	8.78
345.045	8.75
345.416	8.84
345.786	8.52
346.157	8.32
346.527	8.76
346.898	8.59
347.268	8.73
347.639	8.85
348.009	9.31
348.38	9.02
348.75	9.13
349.12	9.46
349.49	9.28
349.861	9.25
350.231	9.58
350.601	9.11
350.971	8.96
351.341	9.73
351.711	9.33
352.081	9.68
352.45	9.63
352.82	9.1
353.19	9.53
353.56	9.74
353.929	9.39
354.299	9.24
354.669	9.27
355.038	9.49
355.408	9.33
355.777	9.32
356.147	9.92
356.516	9.71
356.885	9.81
357.254	9.26
357.624	9.38
357.993	9.75
358.362	10.15
358.731	9.53
359.1	9.63
359.469	9.54
359.838	9.6
360.207	10.02
360.576	9.43
360.945	9.89
361.314	9.97
361.682	9.98
362.051	9.7
362.42	9.99
362.788	9.92
363.157	9.51
363.525	9.77
363.894	9.81
364.262	10
364.631	10.28
364.999	10.06
365.367	10.43
365.735	10.37
366.104	9.92
366.472	10.05
366.84	10.02
367.208	10.43
367.576	10.56
367.944	10.76
368.312	10.16
368.68	10.35
369.048	10.58
369.416	10.44
369.783	10.34
370.151	10.5
370.519	10.67
370.886	10.72
371.254	10.87
371.621	10.42
371.989	10.63
372.356	11.21
372.724	11.13
373.091	10.75
373.458	10.87
373.826	10.78
374.193	11.01
374.56	10.85
374.927	10.73
375.294	11.16
375.661	11.48
376.028	11.05
376.395	11.49
376.762	11.13
377.129	11.08
377.496	10.99
377.863	11.31
378.229	11.39
378.596	11.1
378.963	11.18
379.329	11.05
379.696	11.42
380.062	11.36
380.429	11.45
380.795	11.59
381.161	11.53
381.528	11.42
381.894	11.68
382.26	11.7
382.626	11.75
382.993	11.66
383.359	11.72
383.725	11.68
384.091	11.97
384.457	11.79
384.823	11.84
385.188	11.57
385.554	11.84
385.92	11.91
386.286	11.54
386.651	12.01
387.017	11.6
387.383	12.1
387.748	11.86
388.114	11.86
388.479	11.84
388.845	11.76
389.21	11.73
389.575	12
389.94	12.06
390.306	12.12
390.671	12.23
391.036	12.22
391.401	12.42
391.766	12.21
392.131	12.23
392.496	12.3
392.861	12.1
393.226	12.16
393.591	12.11
393.956	12.08
394.32	12.29
394.685	12.44
395.05	12.67
395.414	12.44
395.779	12.6
396.143	12.34
396.508	12.77
396.872	12.67
397.236	12.55
397.601	12.75
397.965	12.77
398.329	12.76
398.694	12.85
399.058	12.86
399.422	12.76
399.786	12.92
400.15	12.92
400.514	12.86
400.878	13.03
401.242	12.89
401.605	13.08
401.969	12.93
402.333	12.96
402.697	12.96
403.06	13.3
403.424	12.95
403.787	13.22
404.151	13.21
404.514	13.26
404.878	13.01
405.241	13.09
405.604	13.04
405.968	13.06
406.331	12.8
406.694	13.03
407.057	13.21
407.42	13.35
407.783	13.21
408.146	13.31
408.509	13.4
408.872	13.56
409.235	13.81
409.598	13.57
409.961	13.52
410.323	13.81
410.686	13.52
411.049	13.51
411.411	13.57
411.774	13.43
412.136	13.54
412.499	13.87
412.861	13.75
413.223	13.85
413.586	13.95
413.948	14.09
414.31	13.81
414.672	13.97
415.035	14.07
415.397	13.82
415.759	13.75
416.121	13.77
416.483	13.68
416.845	13.72
417.206	13.74
417.568	13.94
417.93	13.68
418.292	13.78
418.653	14.06
419.015	13.84
419.377	14.06
419.738	14.16
420.1	13.88
420.461	14.08
420.822	13.94
421.184	13.98
421.545	14.07
421.906	13.95
422.267	13.86
422.629	13.72
422.99	13.91
423.351	14.05
423.712	14.07
424.073	14.26
424.434	14.33
424.795	14.29
425.155	14.04
425.516	14.04
425.877	14.12
426.238	14.21
426.598	14.24
426.959	14.36
427.32	14.59
427.68	14.67
428.041	14.74
428.401	14.75
428.761	15
429.122	14.95
429.482	14.97
429.842	14.96
430.202	14.98
430.563	15.18
430.923	15.15
431.283	14.94
431.643	15.22
432.003	15.11
432.363	15.31
432.722	15.47
433.082	15.34
433.442	15.37
433.802	15.37
434.161	15.28
434.521	15.26
434.881	15.48
435.24	15.35
435.6	15.36
435.959	15.47
436.319	15.45
436.678	15.57
437.037	15.62
437.396	15.84
437.756	15.74
438.115	15.53
438.474	15.74
438.833	15.75
439.192	15.85
439.551	15.7
439.91	15.99
440.269	15.73
440.628	15.83
440.987	15.75
441.345	15.69
441.704	15.7
442.063	15.7
442.421	15.71
442.78	15.79
443.138	15.97
443.497	16.08
443.855	16.02
444.214	16.19
444.572	16.2
444.93	16.19
445.288	16.19
445.647	16.28
446.005	16.45
446.363	16.29
446.721	16.31
447.079	16.16
447.437	16.16
447.795	16.1
448.153	16.08
448.51	16.2
448.868	16.32
449.226	16.3
449.584	16.47
449.941	16.58
450.299	16.66
450.656	16.88
451.014	16.8
451.371	16.85
451.729	16.96
452.086	16.98
452.443	17.16
452.801	16.99
453.158	16.87
453.515	17
453.872	17.04
454.229	17.06
454.586	17.09
454.943	17.3
455.3	17.27
455.657	17.19
456.014	17.25
456.371	17.37
456.727	17.47
457.084	17.36
457.441	17.65
457.797	17.52
458.154	17.41
458.51	17.51
458.867	17.57
459.223	17.61
459.58	17.66
459.936	17.56
460.292	17.45
460.648	17.31
461.005	17.3
461.361	17.2
461.717	17.16
462.073	17.5
462.429	17.57
462.785	17.77
463.141	17.86
463.496	17.94
463.852	18.18
464.208	18.1
464.564	18.15
464.919	18.33
465.275	18.36
465.631	18.34
465.986	18.4
466.342	18.21
466.697	18.24
467.052	18.36
467.408	18.44
467.763	18.52
468.118	18.55
468.473	18.53
468.829	18.45
469.184	18.39
469.539	18.82
469.894	18.83
470.249	18.87
470.603	18.6
470.958	18.64
471.313	18.94
471.668	19.07
472.023	18.84
472.377	18.86
472.732	19.01
473.086	19
473.441	18.95
473.795	18.95
474.15	19.01
474.504	19.19
474.859	19.06
475.213	19.28
475.567	19.25
475.921	19.46
476.275	19.31
476.63	19.5
476.984	19.44
477.338	19.47
477.692	19.27
478.045	19.29
478.399	19.4
478.753	19.32
479.107	19.4
479.461	19.34
479.814	19.35
480.168	19.42
480.521	19.57
480.875	19.7
481.228	19.55
481.582	19.66
481.935	19.69
482.289	19.53
482.642	19.54
482.995	19.37
483.348	19.45
483.701	19.58
484.055	19.3
484.408	19.21
484.761	18.85
485.114	18.4
485.466	18.46
485.819	18.65
486.172	18.97
486.525	19.29
486.878	19.42
487.23	19.64
487.583	19.6
487.936	19.55
488.288	19.33
488.641	19.15
488.993	19.16
489.345	19.19
489.698	19.28
490.05	19.44
490.402	19.68
490.754	19.82
491.107	19.96
491.459	20.06
491.811	20.21
492.163	20.19
492.515	19.91
492.866	19.7
493.218	19.49
493.57	19.73
493.922	20.01
494.274	20.29
494.625	20.48
494.977	20.83
495.328	20.83
495.68	20.97
496.031	21.08
496.383	21.1
496.734	21.32
497.086	21.19
497.437	21.13
497.788	21.04
498.139	20.95
498.49	20.89
498.842	20.9
499.193	21.1
499.544	21.3
499.894	21.27
500.245	21.2
500.596	21.36
500.947	21.47
501.298	21.71
501.648	21.55
501.999	21.72
502.35	21.82
502.7	21.85
503.051	21.77
503.401	21.9
503.752	22.02
504.102	21.91
504.452	21.88
504.803	22.16
505.153	21.92
505.503	21.91
505.853	22.04
506.203	22.12
506.553	22.05
506.903	22.3
507.253	22.07
507.603	22.31
507.953	22.32
508.303	22.32
508.652	22.33
509.002	22.41
509.352	22.31
509.701	22.46
510.051	22.21
510.4	22.26
510.75	22.36
511.099	22.35
511.449	22.52
511.798	22.45
512.147	22.38
512.496	22.49
512.846	22.74
513.195	22.65
513.544	22.59
513.893	22.53
514.242	22.79
514.591	22.69
514.939	23.02
515.288	23.05
515.637	23.13
515.986	23.21
516.334	23.21
516.683	23.38
517.032	23.19
517.38	23.47
517.729	23.25
518.077	23.33
518.426	23.49
518.774	23.35
519.122	23.18
519.47	23.2
519.819	22.9
520.167	22.93
520.515	22.98
520.863	23.15
521.211	23.32
521.559	23.43
521.907	23.65
522.255	23.65
522.602	23.91
522.95	23.75
523.298	23.99
523.645	23.96
523.993	24.07
524.341	24.2
524.688	24.03
525.036	24.13
525.383	24.04
525.73	24.11
526.078	24.06
526.425	23.88
526.772	23.91
527.119	23.51
527.466	23.68
527.814	23.81
528.161	23.94
528.508	23.87
528.854	23.94
529.201	23.66
529.548	23.37
529.895	23.05
530.242	23.11
530.588	23.4
530.935	23.7
531.282	23.9
531.628	24.01
531.975	24.3
532.321	24.32
532.667	24.55
533.014	24.54
533.36	24.57
533.706	24.59
534.052	24.52
534.399	24.17
534.745	23.84
535.091	24.13
535.437	24.34
535.783	24.47
536.129	24.8
536.474	25
536.82	25.05
537.166	25.12
537.512	25.11
537.857	24.92
538.203	24.79
538.549	24.93
538.894	25.1
539.239	25.27
539.585	25.53
539.93	25.64
540.276	26.01
540.621	25.78
540.966	25.82
541.311	25.8
541.656	25.59
542.001	25.46
542.346	25.08
542.691	24.78
543.036	24.78
543.381	24.94
543.726	25.13
544.071	25.39
544.415	25.66
544.76	25.64
545.105	25.68
545.449	25.95
545.794	26.13
546.138	26.18
546.483	26.28
546.827	26.37
547.171	26.25
547.516	26.26
547.86	26.38
548.204	26.34
548.548	26.09
548.892	26.5
549.236	26.5
549.58	26.78
549.924	27
550.268	27.05
550.612	27.24
550.956	27.43
551.3	27.37
551.643	27.33
551.987	27.57
552.33	27.54
552.674	27.4
553.017	27.58
553.361	27.68
553.704	27.38
554.048	27.37
554.391	27.39
554.734	27.53
555.077	27.71
555.42	27.69
555.764	27.96
556.107	27.79
556.45	27.9
556.793	27.98
557.135	27.98
557.478	28.08
557.821	28.15
558.164	28.44
558.507	28.34
558.849	28.26
559.192	28.18
559.534	28.31
559.877	28.59
560.219	28.23
560.562	28.72
560.904	28.61
561.246	28.54
561.589	28.68
561.931	28.63
562.273	28.79
562.615	28.85
562.957	28.58
563.299	28.87
563.641	28.8
563.983	28.85
564.325	29.05
564.667	29.02
565.008	29.07
565.35	29.12
565.692	28.9
566.033	29.25
566.375	29.18
566.716	29.12
567.058	29.11
567.399	29.23
567.741	29.18
568.082	29.08
568.423	29.1
568.764	29.21
569.105	29.36
569.447	29.57
569.788	29.81
570.129	29.66
570.47	29.58
570.811	29.68
571.151	29.6
571.492	29.75
571.833	29.64
572.174	29.96
572.514	29.82
572.855	29.81
573.195	29.63
573.536	29.69
573.876	29.54
574.217	29.84
574.557	30
574.898	30.09
575.238	30.06
575.578	29.96
575.918	30.23
576.258	30.18
576.598	30.05
576.938	30.07
577.278	30.09
577.618	30.26
577.958	30.41
578.298	30.7
578.638	30.44
578.977	30.96
579.317	30.99
579.657	31.13
579.996	30.82
580.336	30.74
580.675	31.18
581.014	31.19
581.354	31.24
581.693	31.37
582.032	31.31
582.372	31.53
582.711	31.35
583.05	31.46
583.389	31.68
583.728	31.54
584.067	31.95
584.406	31.36
584.745	32
585.083	31.63
585.422	31.65
585.761	31.98
586.1	31.65
586.438	31.82
586.777	31.79
587.115	32.01
587.454	31.9
587.792	31.83
588.13	32.15
588.469	32.23
588.807	32.26
589.145	32.11
589.483	32.43
589.821	32.22
590.159	32.55
590.497	32.26
590.835	32.05
591.173	32.36
591.511	32.45
591.849	32.41
592.187	32.21
592.524	32.44
592.862	32.61
593.2	32.7
593.537	32.75
593.875	32.76
594.212	32.84
594.55	32.67
594.887	32.94
595.224	32.71
595.561	32.77
595.899	32.63
596.236	32.79
596.573	32.93
596.91	33.05
597.247	32.9
597.584	33.06
597.921	33.03
598.258	32.76
598.594	32.65
598.931	32.78
599.268	32.91
599.604	33.05
599.941	33.22
600.277	33.32
600.614	33.6
600.95	33.34
601.287	33.88
601.623	34.1
601.959	34.01
602.296	33.57
602.632	33.62
602.968	33.86
603.304	33.95
603.64	33.99
603.976	34.04
604.312	33.74
604.648	33.28
604.984	33.57
605.319	33.49
605.655	33.52
605.991	33.3
606.326	33.61
606.662	33.62
606.998	33.75
607.333	34.04
607.668	34.12
608.004	34.32
608.339	34.3
608.674	34.83
609.01	34.71
609.345	34.83
609.68	34.56
610.015	34.36
610.35	34.59
610.685	34.26
611.02	34.17
611.355	34.18
611.689	34.46
612.024	34.66
612.359	34.7
612.694	34.97
613.028	34.81
613.363	35.25
613.697	34.98
614.032	35.21
614.366	35.18
614.7	35.1
615.035	35.07
615.369	35.33
615.703	35.63
616.037	35.66
616.371	35.74
616.705	35.58
617.039	35.9
617.373	35.85
617.707	35.77
618.041	35.45
618.375	35.6
618.709	36.17
619.042	35.61
619.376	35.83
619.71	36.09
620.043	36.18
620.377	35.74
620.71	36.27
621.043	36.05
621.377	36.43
621.71	36.02
622.043	36.43
622.376	36.6
622.709	35.88
623.043	36.08
623.376	36.46
623.709	36.7
624.041	36.53
624.374	36.53
624.707	36.92
625.04	36.42
625.373	36.46
625.705	36.33
626.038	36.78
626.37	36.44
626.703	36.45
627.035	36.72
627.368	36.69
627.7	36.1
628.032	36.32
628.365	36.63
628.697	36.75
629.029	36.61
629.361	36.3
629.693	36.75
630.025	36.89
630.357	36.88
630.689	37.03
631.021	37.02
631.353	37.29
631.684	36.91
632.016	37.35
632.348	37.06
632.679	37.31
633.011	37.25
633.342	37.4
633.674	37.63
634.005	37.48
634.336	37.2
634.668	37.91
634.999	37.76
635.33	37.21
635.661	37.78
635.992	37.43
636.323	37.33
636.654	37.92
636.985	38.14
637.316	37.54
637.647	38.35
637.977	38.04
638.308	38.24
638.639	37.84
638.969	37.64
639.3	38.2
639.63	38.62
639.961	37.91
640.291	38.49
640.622	38.7
640.952	38.48
641.282	38.17
641.612	38.35
641.943	38.53
642.273	38.25
642.603	38.63
642.933	38.11
643.263	38.51
643.592	38.72
643.922	38.94
644.252	39.14
644.582	38.89
644.911	38.71
645.241	38.58
645.571	38.78
645.9	39.21
646.23	39.07
646.559	38.84
646.888	38.75
647.218	39.08
647.547	38.84
647.876	39.29
648.205	38.87
648.534	39.01
648.863	38.87
649.192	39.32
649.521	38.75
649.85	39.42
650.179	39.67
650.508	39.28
650.837	39.47
651.165	39.43
651.494	39.64
651.822	39.54
652.151	39.08
652.479	39.4
652.808	39.32
653.136	39.7
653.465	39.49
653.793	39.5
654.121	39.7
654.449	39.27
654.777	39.9
655.105	39.6
655.433	39.96
655.761	40.46
656.089	40.36
656.417	39.96
656.745	40.14
657.073	40.44
657.4	39.96
657.728	40.04
658.056	40.58
658.383	39.6
658.711	40.27
659.038	39.85
659.365	39.95
659.693	39.99
660.02	40.6
660.347	39.84
660.674	39.66
661.001	39.68
661.329	40.01
661.656	39.82
661.982	40.46
662.309	40.55
662.636	40.49
662.963	40.31
663.29	40.79
663.616	40.18
663.943	39.95
664.27	40.89
664.596	40.64
664.923	41.38
665.249	41.46
665.576	41.15
665.902	41.28
666.228	41.11
666.554	41.29
666.881	40.47
667.207	41.62
667.533	41.3
667.859	41.09
668.185	41.09
668.511	41.48
668.837	41.44
669.162	41.36
669.488	41.45
669.814	40.72
670.139	41.54
670.465	41.02
670.791	40.94
671.116	40.89
671.442	41.22
671.767	41.54
672.092	41.9
672.418	41.57
