Data from 20-5_chest_Reflection__3__03.txt Node

Date: Fri Nov 11 20:13:10 CST 2022
User: ToomeyLab
Spectrometer: FLMS14357
Trigger mode: 0
Integration Time (sec): 1.000000E-2
Scans to average: 100
Electric dark correction enabled: true
Nonlinearity correction enabled: false
Boxcar width: 0
XAxis mode: Wavelengths
Number of Pixels in Spectrum: 2048
>>>>>Begin Spectral Data<<<<<
189.047	-28.61
189.435	-28.61
189.823	-28.61
190.211	921.25
190.599	-237.09
190.987	138.38
191.375	-45.98
191.763	145.76
192.151	221.88
192.538	71.36
192.926	19.3
193.314	535.69
193.702	0.38
194.089	1151.42
194.477	82.62
194.864	148.29
195.252	79.84
195.639	153.77
196.027	-12.65
196.414	-123
196.801	43.31
197.189	-23.87
197.576	-47.92
197.963	57.84
198.351	-16.61
198.738	12.44
199.125	41.91
199.512	33.23
199.899	-6.39
200.286	23.68
200.673	-31.93
201.06	34.29
201.447	19.34
201.833	26.83
202.22	-24.53
202.607	14.41
202.994	19.37
203.38	43.31
203.767	11.5
204.154	31.98
204.54	-41.95
204.927	28.27
205.313	66.46
205.699	-41.85
206.086	49.82
206.472	44.7
206.858	6.62
207.245	29.46
207.631	-15.11
208.017	13.79
208.403	12.77
208.789	54.36
209.175	39.76
209.561	33.26
209.947	17.69
210.333	-10.33
210.719	38.56
211.105	27.02
211.491	11.5
211.876	36.96
212.262	42.73
212.648	60.22
213.034	-19.02
213.419	-35.34
213.805	6.9
214.19	38.54
214.576	24.7
214.961	-19.2
215.346	9.51
215.732	-2.62
216.117	29.28
216.502	47.45
216.888	9.15
217.273	23.92
217.658	19.49
218.043	10.75
218.428	0.13
218.813	-0.28
219.198	5.65
219.583	-7.49
219.968	9.5
220.353	-20.33
220.738	8.19
221.122	12.09
221.507	-2.65
221.892	2.19
222.276	7.43
222.661	20.13
223.046	-13.3
223.43	1.05
223.815	6.39
224.199	7.28
224.583	-2.55
224.968	-8.36
225.352	6.89
225.736	2.02
226.121	-4.43
226.505	14.39
226.889	-0.01
227.273	7.76
227.657	-0.99
228.041	4.43
228.425	1.69
228.809	0.83
229.193	8.29
229.577	6.41
229.961	4.16
230.344	4.59
230.728	3.95
231.112	4.24
231.495	4.07
231.879	3.22
232.263	3.54
232.646	3
233.03	3.93
233.413	5.72
233.797	6.56
234.18	4.6
234.563	5.61
234.946	5.24
235.33	4.1
235.713	4.8
236.096	3.53
236.479	3.67
236.862	5.35
237.245	4.16
237.628	4.54
238.011	4.48
238.394	3.82
238.777	4.12
239.16	3.67
239.543	2.99
239.925	3.11
240.308	5.42
240.691	6.54
241.073	3.8
241.456	3.47
241.838	4.16
242.221	4.28
242.603	4.78
242.986	3.87
243.368	3.97
243.75	4.2
244.133	3.82
244.515	3.76
244.897	4.68
245.279	3.74
245.661	3.48
246.043	3.44
246.425	4.17
246.807	4.11
247.189	2.98
247.571	3.24
247.953	3.38
248.335	3.46
248.717	3.76
249.098	3.95
249.48	3.62
249.862	3.88
250.243	3.49
250.625	3.56
251.006	4.42
251.388	4.98
251.769	4.31
252.151	4.17
252.532	3.91
252.913	3.7
253.295	3.57
253.676	2.99
254.057	3.42
254.438	3.8
254.819	3.39
255.2	3.93
255.581	4.02
255.962	3.2
256.343	3.44
256.724	2.97
257.105	3.73
257.486	4.24
257.867	4.64
258.247	2.68
258.628	3.14
259.009	3.42
259.389	3.19
259.77	3.5
260.15	3.42
260.531	3.54
260.911	3.31
261.292	3.44
261.672	3
262.052	3.19
262.432	3.62
262.813	3.18
263.193	3.24
263.573	2.81
263.953	4
264.333	3.34
264.713	3.21
265.093	3.77
265.473	2.17
265.853	3.89
266.233	3.16
266.612	3.25
266.992	3.21
267.372	3.34
267.752	3.12
268.131	3.25
268.511	3.68
268.89	2.87
269.27	2.98
269.649	2.81
270.029	3.84
270.408	3.85
270.787	2.93
271.167	2.96
271.546	3.56
271.925	3.63
272.304	3.4
272.683	2.85
273.062	2.84
273.441	3.07
273.82	2.96
274.199	3.03
274.578	3.02
274.957	3.48
275.336	3.39
275.715	3.58
276.093	2.75
276.472	2.71
276.851	2.72
277.229	2.73
277.608	3.51
277.986	3.83
278.365	2.79
278.743	3.12
279.122	3.11
279.5	3.26
279.878	3.65
280.257	3.08
280.635	2.98
281.013	3.7
281.391	2.87
281.769	3.3
282.147	2.85
282.525	2.54
282.903	2.6
283.281	3.12
283.659	3.12
284.037	3.28
284.415	2.96
284.792	3.13
285.17	3.45
285.548	2.73
285.925	2.78
286.303	2.92
286.68	3.03
287.058	3.09
287.435	3.05
287.813	3.2
288.19	2.86
288.567	2.93
288.945	2.98
289.322	3.62
289.699	2.88
290.076	3.37
290.453	2.99
290.83	2.83
291.207	3.17
291.584	2.93
291.961	3.21
292.338	3.2
292.715	3.22
293.092	3.56
293.469	3.15
293.845	2.87
294.222	2.9
294.599	3.33
294.975	3.07
295.352	3.23
295.728	3.07
296.105	2.87
296.481	2.58
296.858	2.93
297.234	3.23
297.61	2.75
297.986	3.61
298.363	3.26
298.739	3.24
299.115	3.37
299.491	3.41
299.867	3.02
300.243	3.21
300.619	3.11
300.995	3.14
301.371	3.54
301.746	3.72
302.122	3.31
302.498	3.52
302.874	3.36
303.249	3.22
303.625	2.92
304	3.11
304.376	3.28
304.751	2.94
305.127	3.02
305.502	3.29
305.878	3.81
306.253	3.67
306.628	3.04
307.003	3.25
307.378	2.99
307.754	3.53
308.129	3.33
308.504	3.41
308.879	3.37
309.254	3.32
309.629	3.26
310.003	2.83
310.378	3.18
310.753	3.55
311.128	3.91
311.502	3.59
311.877	3.07
312.252	3.23
312.626	3.23
313.001	3.06
313.375	3.11
313.75	3.1
314.124	2.79
314.498	3.11
314.873	3.12
315.247	3.3
315.621	3.41
315.995	3.73
316.369	3.54
316.743	3.08
317.117	3.49
317.491	3.6
317.865	2.55
318.239	3.3
318.613	3.32
318.987	3.31
319.361	2.81
319.734	3.7
320.108	3.01
320.482	3.68
320.855	3.29
321.229	3.04
321.602	3.15
321.976	3.5
322.349	3.62
322.723	3.56
323.096	3.59
323.469	3.53
323.843	3.83
324.216	2.75
324.589	3.32
324.962	3.41
325.335	3.49
325.708	3.22
326.081	3.46
326.454	3.35
326.827	3.03
327.2	4.03
327.573	3.87
327.945	3.39
328.318	3.46
328.691	3.59
329.063	4.11
329.436	2.96
329.809	3.17
330.181	3.7
330.553	2.68
330.926	3.12
331.298	3.17
331.671	3.76
332.043	2.73
332.415	3.49
332.787	3.99
333.159	3.24
333.532	3.51
333.904	4.03
334.276	3.59
334.648	3.04
335.02	3.15
335.391	4.04
335.763	3.3
336.135	3.17
336.507	3.32
336.879	3.51
337.25	3.63
337.622	3.62
337.993	3.71
338.365	3.4
338.736	3.5
339.108	3.77
339.479	2.7
339.851	3.33
340.222	2.92
340.593	3.96
340.964	3.35
341.336	3.82
341.707	3.39
342.078	3.24
342.449	3.86
342.82	3.57
343.191	3.48
343.562	3.04
343.933	3.36
344.303	3.21
344.674	3.29
345.045	3.37
345.416	3.53
345.786	3.18
346.157	3.13
346.527	3.4
346.898	2.84
347.268	3.35
347.639	3.17
348.009	3.38
348.38	3.63
348.75	3.37
349.12	3.68
349.49	3.62
349.861	3.64
350.231	3.73
350.601	3.67
350.971	3.83
351.341	3.64
351.711	3.54
352.081	3.63
352.45	3.92
352.82	3.4
353.19	3.59
353.56	3.43
353.929	3.95
354.299	3.36
354.669	3.62
355.038	3.12
355.408	3.31
355.777	3.38
356.147	3.51
356.516	3.64
356.885	3.5
357.254	3.37
357.624	3.07
357.993	3.62
358.362	3.4
358.731	2.98
359.1	3.24
359.469	3.16
359.838	3.71
360.207	3.57
360.576	3.47
360.945	3.5
361.314	3.21
361.682	3.41
362.051	3.28
362.42	3.73
362.788	3.55
363.157	3.43
363.525	3.43
363.894	3.27
364.262	3.7
364.631	3.5
364.999	3.37
365.367	3.19
365.735	3.15
366.104	3.52
366.472	3.15
366.84	3.08
367.208	3.39
367.576	3.55
367.944	3.77
368.312	3.12
368.68	3.49
369.048	3.74
369.416	3.58
369.783	3.58
370.151	3.78
370.519	3.77
370.886	3.58
371.254	3.99
371.621	3.36
371.989	3.48
372.356	3.73
372.724	3.71
373.091	3.94
373.458	3.61
373.826	3.27
374.193	3.57
374.56	3.51
374.927	3.46
375.294	3.54
375.661	3.45
376.028	3.28
376.395	3.85
376.762	3.67
377.129	3.48
377.496	3.32
377.863	3.69
378.229	3.52
378.596	3.43
378.963	3.5
379.329	3.56
379.696	3.61
380.062	3.4
380.429	3.75
380.795	4.03
381.161	3.63
381.528	3.58
381.894	3.83
382.26	4
382.626	3.8
382.993	3.41
383.359	3.9
383.725	3.63
384.091	3.72
384.457	3.66
384.823	3.65
385.188	3.75
385.554	3.62
385.92	3.69
386.286	3.82
386.651	3.61
387.017	3.6
387.383	3.78
387.748	3.45
388.114	3.57
388.479	3.33
388.845	3.78
389.21	3.58
389.575	3.72
389.94	3.76
390.306	3.52
390.671	3.71
391.036	3.77
391.401	3.85
391.766	3.71
392.131	3.38
392.496	3.77
392.861	3.77
393.226	3.47
393.591	3.67
393.956	3.7
394.32	3.59
394.685	3.56
395.05	4.09
395.414	3.7
395.779	3.62
396.143	3.55
396.508	3.94
396.872	3.86
397.236	3.58
397.601	3.65
397.965	3.79
398.329	3.7
398.694	3.74
399.058	3.87
399.422	3.83
399.786	3.62
400.15	3.76
400.514	3.92
400.878	3.8
401.242	3.69
401.605	3.62
401.969	3.85
402.333	3.59
402.697	3.75
403.06	3.88
403.424	3.6
403.787	3.76
404.151	3.62
404.514	3.67
404.878	3.88
405.241	3.78
405.604	3.69
405.968	3.75
406.331	3.62
406.694	3.54
407.057	3.96
407.42	3.89
407.783	3.74
408.146	3.88
408.509	3.89
408.872	3.88
409.235	3.68
409.598	3.99
409.961	3.74
410.323	3.9
410.686	3.87
411.049	3.53
411.411	3.77
411.774	3.89
412.136	3.68
412.499	3.83
412.861	3.83
413.223	3.71
413.586	3.84
413.948	3.98
414.31	3.93
414.672	3.99
415.035	3.96
415.397	3.71
415.759	3.74
416.121	3.91
416.483	3.66
416.845	3.73
417.206	3.76
417.568	3.85
417.93	3.67
418.292	3.56
418.653	3.79
419.015	3.77
419.377	3.74
419.738	3.71
420.1	3.78
420.461	3.71
420.822	3.7
421.184	3.66
421.545	3.74
421.906	3.72
422.267	3.73
422.629	3.65
422.99	3.72
423.351	3.72
423.712	3.67
424.073	3.8
424.434	3.83
424.795	3.79
425.155	3.69
425.516	3.74
425.877	3.73
426.238	3.71
426.598	3.69
426.959	3.69
427.32	3.86
427.68	3.86
428.041	3.89
428.401	3.62
428.761	3.91
429.122	3.74
429.482	3.88
429.842	3.84
430.202	3.9
430.563	4.1
430.923	4.05
431.283	3.79
431.643	3.83
432.003	3.99
432.363	3.85
432.722	4.04
433.082	3.84
433.442	4.2
433.802	3.91
434.161	3.85
434.521	3.86
434.881	4.06
435.24	3.77
435.6	3.97
435.959	3.97
436.319	3.92
436.678	4.01
437.037	3.89
437.396	3.94
437.756	3.94
438.115	3.88
438.474	3.81
438.833	3.96
439.192	4.06
439.551	3.98
439.91	4.03
440.269	3.75
440.628	4.07
440.987	3.92
441.345	3.89
441.704	3.92
442.063	3.81
442.421	3.89
442.78	3.78
443.138	3.99
443.497	3.81
443.855	3.91
444.214	3.91
444.572	4.15
444.93	4.07
445.288	3.96
445.647	4.01
446.005	4.05
446.363	3.96
446.721	4.05
447.079	3.94
447.437	3.83
447.795	3.88
448.153	3.92
448.51	3.85
448.868	3.98
449.226	3.95
449.584	3.93
449.941	4.03
450.299	3.89
450.656	3.96
451.014	4.02
451.371	4.01
451.729	4
452.086	4.03
452.443	4.06
452.801	4.08
453.158	3.93
453.515	4.03
453.872	3.91
454.229	4
454.586	4
454.943	4.1
455.3	4.13
455.657	4.07
456.014	4.23
456.371	4.1
456.727	4.28
457.084	3.84
457.441	4.25
457.797	4.06
458.154	4.01
458.51	4.09
458.867	4.01
459.223	4.09
459.58	4.13
459.936	4.08
460.292	4.04
460.648	3.96
461.005	4.07
461.361	3.98
461.717	3.99
462.073	4.1
462.429	4.01
462.785	4.03
463.141	4.09
463.496	4.02
463.852	4.05
464.208	4.1
464.564	4.16
464.919	4.07
465.275	4.05
465.631	4.01
465.986	4.31
466.342	4.18
466.697	4.13
467.052	4.11
467.408	4.21
467.763	4.14
468.118	4.23
468.473	4.13
468.829	4.08
469.184	4.14
469.539	4.26
469.894	4.14
470.249	4.17
470.603	4.08
470.958	4.25
471.313	4.25
471.668	4.3
472.023	4.06
472.377	4.29
472.732	4.23
473.086	4.11
473.441	4.2
473.795	4.1
474.15	4.21
474.504	4.28
474.859	4.2
475.213	4.4
475.567	4.2
475.921	4.16
476.275	4.16
476.63	4.27
476.984	4.32
477.338	4.28
477.692	4.12
478.045	4.19
478.399	4.19
478.753	4.06
479.107	4.29
479.461	4.16
479.814	4.21
480.168	4.23
480.521	4.28
480.875	4.19
481.228	4.16
481.582	4.13
481.935	4.21
482.289	4.07
482.642	4.14
482.995	4.18
483.348	4.19
483.701	4.2
484.055	4.11
484.408	4.08
484.761	3.98
485.114	3.91
485.466	3.91
485.819	3.97
486.172	3.98
486.525	4.05
486.878	4.05
487.23	4.13
487.583	4.13
487.936	4.15
488.288	4.13
488.641	4.06
488.993	4.06
489.345	4.02
489.698	4.1
490.05	4.08
490.402	4.11
490.754	4.19
491.107	4.12
491.459	4.1
491.811	4.23
492.163	4.21
492.515	4.17
492.866	4.1
493.218	4.05
493.57	4.08
493.922	4.12
494.274	4.15
494.625	4.22
494.977	4.37
495.328	4.36
495.68	4.22
496.031	4.21
496.383	4.36
496.734	4.27
497.086	4.46
497.437	4.41
497.788	4.33
498.139	4.33
498.49	4.3
498.842	4.23
499.193	4.34
499.544	4.43
499.894	4.33
500.245	4.33
500.596	4.44
500.947	4.36
501.298	4.43
501.648	4.39
501.999	4.41
502.35	4.42
502.7	4.46
503.051	4.36
503.401	4.46
503.752	4.38
504.102	4.4
504.452	4.43
504.803	4.4
505.153	4.41
505.503	4.4
505.853	4.39
506.203	4.46
506.553	4.26
506.903	4.46
507.253	4.44
507.603	4.38
507.953	4.48
508.303	4.33
508.652	4.44
509.002	4.47
509.352	4.45
509.701	4.51
510.051	4.46
510.4	4.46
510.75	4.38
511.099	4.34
511.449	4.56
511.798	4.42
512.147	4.3
512.496	4.29
512.846	4.57
513.195	4.38
513.544	4.46
513.893	4.39
514.242	4.48
514.591	4.5
514.939	4.45
515.288	4.49
515.637	4.61
515.986	4.57
516.334	4.57
516.683	4.56
517.032	4.6
517.38	4.56
517.729	4.6
518.077	4.59
518.426	4.52
518.774	4.64
519.122	4.62
519.47	4.64
519.819	4.46
520.167	4.48
520.515	4.59
520.863	4.53
521.211	4.52
521.559	4.5
521.907	4.63
522.255	4.46
522.602	4.55
522.95	4.58
523.298	4.66
523.645	4.67
523.993	4.7
524.341	4.67
524.688	4.63
525.036	4.62
525.383	4.57
525.73	4.68
526.078	4.59
526.425	4.62
526.772	4.58
527.119	4.59
527.466	4.68
527.814	4.63
528.161	4.61
528.508	4.55
528.854	4.59
529.201	4.57
529.548	4.54
529.895	4.47
530.242	4.41
530.588	4.48
530.935	4.43
531.282	4.54
531.628	4.57
531.975	4.59
532.321	4.62
532.667	4.67
533.014	4.73
533.36	4.66
533.706	4.7
534.052	4.69
534.399	4.64
534.745	4.6
535.091	4.56
535.437	4.65
535.783	4.66
536.129	4.74
536.474	4.78
536.82	4.67
537.166	4.74
537.512	4.77
537.857	4.7
538.203	4.7
538.549	4.83
538.894	4.82
539.239	4.8
539.585	4.82
539.93	4.85
540.276	4.99
540.621	4.98
540.966	4.94
541.311	4.94
541.656	4.9
542.001	4.81
542.346	4.76
542.691	4.67
543.036	4.7
543.381	4.71
543.726	4.7
544.071	4.78
544.415	4.82
544.76	4.85
545.105	4.87
545.449	4.85
545.794	4.93
546.138	4.83
546.483	4.94
546.827	5.04
547.171	4.95
547.516	4.94
547.86	4.92
548.204	5.08
548.548	4.98
548.892	5.05
549.236	5.05
549.58	5.16
549.924	5.19
550.268	5.19
550.612	5.13
550.956	5.31
551.3	5.15
551.643	5.19
551.987	5.26
552.33	5.27
552.674	5.07
553.017	5.33
553.361	5.22
553.704	5.31
554.048	5.09
554.391	5.18
554.734	5.33
555.077	5.37
555.42	5.24
555.764	5.4
556.107	5.39
556.45	5.33
556.793	5.36
557.135	5.39
557.478	5.39
557.821	5.51
558.164	5.37
558.507	5.49
558.849	5.41
559.192	5.28
559.534	5.45
559.877	5.57
560.219	5.35
560.562	5.35
560.904	5.47
561.246	5.35
561.589	5.45
561.931	5.35
562.273	5.4
562.615	5.27
562.957	5.48
563.299	5.48
563.641	5.47
563.983	5.49
564.325	5.53
564.667	5.49
565.008	5.5
565.35	5.48
565.692	5.39
566.033	5.66
566.375	5.68
566.716	5.74
567.058	5.5
567.399	5.6
567.741	5.68
568.082	5.56
568.423	5.59
568.764	5.71
569.105	5.56
569.447	5.78
569.788	5.7
570.129	5.51
570.47	5.64
570.811	5.69
571.151	5.9
571.492	5.83
571.833	5.6
572.174	5.9
572.514	5.68
572.855	5.7
573.195	5.72
573.536	5.78
573.876	5.87
574.217	5.84
574.557	5.86
574.898	5.8
575.238	5.85
575.578	5.77
575.918	5.82
576.258	5.98
576.598	5.85
576.938	5.82
577.278	5.82
577.618	5.9
577.958	5.96
578.298	5.94
578.638	5.86
578.977	5.98
579.317	6.1
579.657	6
579.996	6.03
580.336	6.01
580.675	5.99
581.014	6.15
581.354	5.96
581.693	6.06
582.032	6.14
582.372	6.09
582.711	6.12
583.05	6.27
583.389	6.16
583.728	6.29
584.067	6.37
584.406	6.29
584.745	6.45
585.083	6.04
585.422	6.15
585.761	6.42
586.1	6.26
586.438	5.98
586.777	6.29
587.115	6.5
587.454	6.41
587.792	6.26
588.13	6.27
588.469	6.45
588.807	6.3
589.145	6.28
589.483	6.57
589.821	6.67
590.159	6.58
590.497	6.72
590.835	6.41
591.173	6.71
591.511	6.36
591.849	6.38
592.187	6.59
592.524	6.29
592.862	6.54
593.2	6.58
593.537	6.77
593.875	6.78
594.212	6.61
594.55	6.43
594.887	6.46
595.224	6.59
595.561	6.42
595.899	6.58
596.236	6.42
596.573	6.57
596.91	6.61
597.247	6.76
597.584	6.86
597.921	6.77
598.258	6.49
598.594	6.74
598.931	6.58
599.268	6.74
599.604	6.8
599.941	6.75
600.277	6.95
600.614	6.78
600.95	6.84
601.287	6.96
601.623	6.97
601.959	6.98
602.296	6.9
602.632	6.73
602.968	6.87
603.304	6.95
603.64	7.09
603.976	6.99
604.312	6.71
604.648	6.67
604.984	7.03
605.319	6.95
605.655	6.93
605.991	6.91
606.326	7.13
606.662	6.88
606.998	6.96
607.333	6.98
607.668	7.21
608.004	7.12
608.339	7.21
608.674	7.24
609.01	7.19
609.345	7.16
609.68	7.07
610.015	7.16
610.35	6.89
610.685	7.11
611.02	7.01
611.355	7.07
611.689	7.06
612.024	7.28
612.359	7.16
612.694	7.32
613.028	7.12
613.363	7.46
613.697	7.45
614.032	7.61
614.366	7.35
614.7	7.18
615.035	7.56
615.369	7.22
615.703	7.31
616.037	7.61
616.371	7.75
616.705	7.68
617.039	7.46
617.373	7.62
617.707	7.32
618.041	7.73
618.375	7.1
618.709	7.52
619.042	7.51
619.376	7.75
619.71	7.74
620.043	7.61
620.377	7.4
620.71	7.66
621.043	7.59
621.377	7.74
621.71	7.42
622.043	8.15
622.376	7.75
622.709	7.72
623.043	7.67
623.376	8
623.709	7.92
624.041	8
624.374	7.86
624.707	8.04
625.04	7.73
625.373	7.79
625.705	7.93
626.038	8.24
626.37	8.21
626.703	7.74
627.035	8.07
627.368	8.07
627.7	7.89
628.032	7.82
628.365	8.04
628.697	7.94
629.029	8.02
629.361	7.89
629.693	8.16
630.025	8.13
630.357	8.13
630.689	8
631.021	8.14
631.353	8.14
631.684	7.88
632.016	8.22
632.348	8.03
632.679	8.42
633.011	8.38
633.342	8.23
633.674	8.36
634.005	7.99
634.336	8.46
634.668	8.14
634.999	8.33
635.33	8.17
635.661	8.7
635.992	8.36
636.323	8.05
636.654	8.64
636.985	8.32
637.316	8.48
637.647	8.53
637.977	8.63
638.308	8.59
638.639	8.44
638.969	8.45
639.3	8.51
639.63	8.83
639.961	8.55
640.291	9.37
640.622	8.87
640.952	8.69
641.282	8.48
641.612	8.7
641.943	9.12
642.273	8.71
642.603	9.23
642.933	8.61
643.263	8.75
643.592	8.89
643.922	8.83
644.252	9.26
644.582	9.01
644.911	8.72
645.241	8.81
645.571	8.44
645.9	9.26
646.23	9.28
646.559	9.07
646.888	9.14
647.218	8.78
647.547	8.65
647.876	9.08
648.205	9.22
648.534	8.87
648.863	9.22
649.192	9.17
649.521	8.93
649.85	9.42
650.179	9.18
650.508	8.97
650.837	9.25
651.165	9.1
651.494	9.16
651.822	9
652.151	9.13
652.479	9.1
652.808	8.9
653.136	9.18
653.465	9.4
653.793	9.37
654.121	9.33
654.449	8.6
654.777	9.94
655.105	9.21
655.433	9.24
655.761	9.96
656.089	9.68
656.417	9.06
656.745	9.44
657.073	8.95
657.4	9.06
657.728	9.72
658.056	10.08
658.383	9.23
658.711	9.41
659.038	10.15
659.365	9.49
659.693	9.7
660.02	10.27
660.347	10.31
660.674	9.92
661.001	9.4
661.329	9.51
661.656	9.78
661.982	9.83
662.309	9.77
662.636	9.94
662.963	10.02
663.29	9.62
663.616	9.2
663.943	9.75
664.27	10.1
664.596	10.42
664.923	9.69
665.249	9.74
665.576	10.23
665.902	10.51
666.228	10.14
666.554	9.84
666.881	10.32
667.207	10.26
667.533	10.32
667.859	10.76
668.185	10.23
668.511	9.77
668.837	10.64
669.162	10.16
669.488	9.95
669.814	10.33
670.139	10.18
670.465	10.15
670.791	9.61
671.116	10.28
671.442	10.32
671.767	10.95
672.092	10.46
672.418	10.26
672.743	9.89
673.068	10.13
673.393	11.11
673.718	10.29
674.043	10.49
674.368	10
674.693	9.8
675.018	10.84
675.343	11.08
675.667	10.97
675.992	11.22
676.317	10.54
676.641	10.17
676.966	10.98
677.29	10.82
677.615	10.72
677.939	10.9
678.264	10.83
678.588	10.12
678.912	10.45
679.236	11.26
679.56	11.02
679.885	10.8
680.209	10.69
680.532	11.45
680.856	11.09
681.18	11.34
681.504	10.8
681.828	10.86
682.152	10.92
682.475	10.79
682.799	10.61
683.122	11.04
683.446	11.34
683.769	11.32
684.093	10.52
684.416	11.15
684.739	11.69
685.062	10.63
685.386	11.1
685.709	11.1
686.032	10.95
686.355	11.71
686.678	11.86
687.001	11.02
687.324	11.53
687.646	11.31
687.969	11.74
688.292	11.47
688.614	11.47
688.937	11.45
689.26	10.93
689.582	11.07
689.904	11.07
690.227	11.14
690.549	10.99
690.871	11.1
