Data from 0207_forehead_Reflection__4__308.txt Node

Date: Fri Dec 15 19:30:47 CST 2023
User: ToomeyLab
Spectrometer: FLMS14357
Trigger mode: 0
Integration Time (sec): 1.000000E-2
Scans to average: 100
Electric dark correction enabled: true
Nonlinearity correction enabled: false
Boxcar width: 0
XAxis mode: Wavelengths
Number of Pixels in Spectrum: 2048
>>>>>Begin Spectral Data<<<<<
189.047	25.94
189.435	25.94
189.823	25.94
190.211	-28.05
190.599	-21.96
190.987	72.75
191.375	64.11
191.763	-240.69
192.151	-49.57
192.538	31.02
192.926	3932.26
193.314	68.12
193.702	223.48
194.089	-64.36
194.477	74.8
194.864	18.02
195.252	46.36
195.639	90.02
196.027	-4.47
196.414	63.37
196.801	93.68
197.189	24.02
197.576	111.18
197.963	180.63
198.351	235.2
198.738	74.89
199.125	5.94
199.512	-4.4
199.899	55.16
200.286	54.61
200.673	32.72
201.06	-35.49
201.447	-51
201.833	47.67
202.22	51.97
202.607	24.63
202.994	53.89
203.38	34.92
203.767	31.05
204.154	42.6
204.54	33.64
204.927	-12.95
205.313	14.4
205.699	37.67
206.086	46.39
206.472	62.12
206.858	0.72
207.245	-12.43
207.631	45.46
208.017	47.52
208.403	12.35
208.789	13.54
209.175	105.03
209.561	-12.73
209.947	-15.74
210.333	113.71
210.719	51.62
211.105	29.74
211.491	44.13
211.876	-18.12
212.262	16.35
212.648	21.65
213.034	45.52
213.419	-13.55
213.805	-15.12
214.19	2.58
214.576	-26.61
214.961	-26.11
215.346	-161.5
215.732	5.09
216.117	12.24
216.502	-22.44
216.888	16.7
217.273	59.08
217.658	12.55
218.043	1.23
218.428	-10.71
218.813	-3.23
219.198	-16.46
219.583	16.56
219.968	21.14
220.353	-5.14
220.738	23.87
221.122	13.01
221.507	-25.46
221.892	-35.82
222.276	-23.39
222.661	-13.16
223.046	5.09
223.43	14.93
223.815	4.4
224.199	-11.03
224.583	6.08
224.968	5.35
225.352	14.96
225.736	5.16
226.121	-5.05
226.505	5.77
226.889	7.8
227.273	-3.07
227.657	4.31
228.041	0.64
228.425	5.57
228.809	5.63
229.193	3.92
229.577	3.44
229.961	2.95
230.344	4.26
230.728	3.11
231.112	2.77
231.495	3.36
231.879	1.41
232.263	3.7
232.646	4.39
233.03	3.48
233.413	3.31
233.797	3.75
234.18	3.58
234.563	4.63
234.946	0.82
235.33	4.33
235.713	5.3
236.096	3.39
236.479	4.42
236.862	3.34
237.245	4.17
237.628	1.62
238.011	4.37
238.394	3.02
238.777	3.86
239.16	3.38
239.543	5.14
239.925	5.61
240.308	5.41
240.691	5.53
241.073	4.26
241.456	1.8
241.838	4.04
242.221	2.72
242.603	3.84
242.986	2.61
243.368	3.27
243.75	3.93
244.133	2.98
244.515	3.52
244.897	3.39
245.279	3.66
245.661	3.74
246.043	2.99
246.425	3.35
246.807	4.55
247.189	4.01
247.571	3.46
247.953	3.43
248.335	3.34
248.717	3.58
249.098	3.38
249.48	3.61
249.862	3.38
250.243	3.57
250.625	3.05
251.006	3.63
251.388	2.43
251.769	4.07
252.151	4.72
252.532	3.37
252.913	2.85
253.295	3.46
253.676	3.03
254.057	3.98
254.438	3.3
254.819	3.6
255.2	3.34
255.581	4.17
255.962	2.87
256.343	4.44
256.724	4.22
257.105	2.52
257.486	2.99
257.867	3.15
258.247	3.66
258.628	2.57
259.009	3.08
259.389	3.9
259.77	3.31
260.15	3.34
260.531	2.52
260.911	3.5
261.292	3.52
261.672	3.47
262.052	3.44
262.432	3.52
262.813	3.28
263.193	3.49
263.573	3.01
263.953	3.35
264.333	3.65
264.713	3.68
265.093	3.11
265.473	3.71
265.853	3.01
266.233	3.72
266.612	1.75
266.992	2.51
267.372	3.45
267.752	2.68
268.131	3.43
268.511	3.79
268.89	4.07
269.27	3.36
269.649	3.24
270.029	2.94
270.408	4.3
270.787	3.54
271.167	4.09
271.546	3.94
271.925	3.29
272.304	3.16
272.683	3.47
273.062	3.31
273.441	3.1
273.82	3.03
274.199	3.03
274.578	2.99
274.957	3.07
275.336	3.61
275.715	2.67
276.093	2.91
276.472	3.43
276.851	3.26
277.229	3.03
277.608	2.74
277.986	3.31
278.365	3.44
278.743	3.52
279.122	3.37
279.5	3.59
279.878	3.97
280.257	3.34
280.635	3.18
281.013	2.57
281.391	3.29
281.769	3.44
282.147	3.5
282.525	4.25
282.903	3.08
283.281	3.49
283.659	3.32
284.037	3.78
284.415	3.49
284.792	3.72
285.17	2.97
285.548	3.2
285.925	3.16
286.303	3.35
286.68	3.19
287.058	3.38
287.435	3.37
287.813	3.47
288.19	3.48
288.567	2.95
288.945	3.79
289.322	3.37
289.699	3.47
290.076	3.56
290.453	3.93
290.83	3.36
291.207	3.49
291.584	3.62
291.961	3.74
292.338	3.77
292.715	3.82
293.092	3.72
293.469	3.71
293.845	3.89
294.222	3.28
294.599	3.7
294.975	3.72
295.352	3.79
295.728	3.12
296.105	3.71
296.481	4.09
296.858	3.73
297.234	3.83
297.61	3.92
297.986	3.91
298.363	4.43
298.739	4.14
299.115	4.21
299.491	3.92
299.867	3.85
300.243	4.02
300.619	3.87
300.995	4.3
301.371	4.4
301.746	4.26
302.122	4.6
302.498	4.36
302.874	4.29
303.249	4.8
303.625	4.77
304	4.56
304.376	4.25
304.751	3.56
305.127	4.68
305.502	4.17
305.878	3.91
306.253	4.34
306.628	5.11
307.003	4.57
307.378	5.4
307.754	4.8
308.129	3.64
308.504	4.94
308.879	4.5
309.254	5.84
309.629	5.41
310.003	4.89
310.378	5.43
310.753	5.53
311.128	5.03
311.502	5.12
311.877	5.48
312.252	4.33
312.626	4.92
313.001	4.47
313.375	5.09
313.75	4.65
314.124	5.02
314.498	5.31
314.873	5.03
315.247	4.89
315.621	5.1
315.995	4.28
316.369	4.9
316.743	4.37
317.117	5.64
317.491	5.57
317.865	4.86
318.239	4.68
318.613	5.39
318.987	5.89
319.361	5.45
319.734	5.79
320.108	5.99
320.482	5.44
320.855	5.79
321.229	5.17
321.602	5.4
321.976	5.81
322.349	5.2
322.723	5.11
323.096	5.76
323.469	5.32
323.843	6.15
324.216	6.42
324.589	5.82
324.962	5.89
325.335	5.44
325.708	5.81
326.081	5.45
326.454	6.05
326.827	5.33
327.2	5.89
327.573	6
327.945	6.13
328.318	5.82
328.691	5.54
329.063	6.03
329.436	5.67
329.809	6.31
330.181	6.08
330.553	6.04
330.926	5.52
331.298	6.44
331.671	5.36
332.043	6.8
332.415	6.41
332.787	6.47
333.159	6.58
333.532	6.24
333.904	5.95
334.276	6.18
334.648	6.19
335.02	6.09
335.391	6.61
335.763	6.35
336.135	6.37
336.507	6.58
336.879	6.21
337.25	5.77
337.622	6.12
337.993	5.95
338.365	6.62
338.736	7.01
339.108	6.18
339.479	6.76
339.851	6.93
340.222	6.24
340.593	6.42
340.964	6.59
341.336	7.28
341.707	6.34
342.078	7.05
342.449	6.87
342.82	6.43
343.191	6.87
343.562	6.94
343.933	7.16
344.303	6.59
344.674	6.85
345.045	6.87
345.416	7.62
345.786	6.41
346.157	7.28
346.527	6.82
346.898	6.38
347.268	7.26
347.639	6.83
348.009	6.67
348.38	7.12
348.75	6.91
349.12	6.95
349.49	7.61
349.861	7.28
350.231	6.57
350.601	7.3
350.971	6.91
351.341	7.34
351.711	6.92
352.081	7.33
352.45	7.64
352.82	7.29
353.19	7.44
353.56	7.13
353.929	7.29
354.299	7.46
354.669	7.45
355.038	7.71
355.408	7.46
355.777	7.44
356.147	6.99
356.516	7.73
356.885	7.45
357.254	7.48
357.624	7.71
357.993	7.38
358.362	7.48
358.731	7.14
359.1	7.67
359.469	7.61
359.838	7.65
360.207	7.57
360.576	7.57
360.945	7.96
361.314	8.16
361.682	7.28
362.051	7.36
362.42	7.99
362.788	7.67
363.157	7.83
363.525	8.3
363.894	7.65
364.262	7.98
364.631	7.91
364.999	8.06
365.367	7.49
365.735	8.4
366.104	8.19
366.472	8.33
366.84	8.03
367.208	8.47
367.576	8.17
367.944	8.22
368.312	8.19
368.68	7.9
369.048	8.24
369.416	8.38
369.783	8.16
370.151	8.66
370.519	8.5
370.886	8.7
371.254	8.2
371.621	8.87
371.989	8.79
372.356	7.99
372.724	8.65
373.091	8.09
373.458	8.57
373.826	8.54
374.193	8.68
374.56	8.91
374.927	8.85
375.294	8.61
375.661	8.81
376.028	8.69
376.395	9.04
376.762	9.13
377.129	8.9
377.496	8.87
377.863	9.12
378.229	8.44
378.596	8.91
378.963	8.92
379.329	8.7
379.696	9.17
380.062	9.34
380.429	9.07
380.795	9.02
381.161	9.07
381.528	9.23
381.894	8.96
382.26	9.1
382.626	9.36
382.993	8.62
383.359	9.46
383.725	9.28
384.091	9.38
384.457	9.79
384.823	9.25
385.188	9.44
385.554	9.37
385.92	9.51
386.286	9.82
386.651	9.44
387.017	9.74
387.383	9.53
387.748	9.07
388.114	9.7
388.479	9.57
388.845	9.83
389.21	9.55
389.575	9.47
389.94	9.65
390.306	9.86
390.671	9.73
391.036	9.37
391.401	9.22
391.766	10.12
392.131	9.73
392.496	10.07
392.861	9.8
393.226	9.94
393.591	10
393.956	10.04
394.32	10.15
394.685	9.87
395.05	9.86
395.414	10.17
395.779	9.4
396.143	10
396.508	9.87
396.872	9.93
397.236	10.03
397.601	10
397.965	10.3
398.329	9.91
398.694	10.06
399.058	10.29
399.422	9.95
399.786	10.28
400.15	10.29
400.514	10.41
400.878	10.25
401.242	10.64
401.605	10.54
401.969	10.53
402.333	10.21
402.697	10.41
403.06	10.41
403.424	10.66
403.787	10.32
404.151	10.59
404.514	10.65
404.878	10.32
405.241	10.69
405.604	10.35
405.968	10.64
406.331	10.82
406.694	10.78
407.057	10.53
407.42	10.78
407.783	10.53
408.146	10.56
408.509	10.79
408.872	10.68
409.235	10.61
409.598	10.86
409.961	10.96
410.323	10.99
410.686	10.75
411.049	10.74
411.411	10.97
411.774	10.93
412.136	10.92
412.499	10.92
412.861	10.82
413.223	10.97
413.586	11.27
413.948	11.16
414.31	11.16
414.672	10.7
415.035	11
415.397	11.23
415.759	10.89
416.121	11.37
416.483	11.24
416.845	11.08
417.206	11.12
417.568	11.13
417.93	11.28
418.292	11.14
418.653	11.25
419.015	11.33
419.377	11.13
419.738	11.25
420.1	11.19
420.461	11.25
420.822	11.32
421.184	11.43
421.545	11.26
421.906	11.32
422.267	11.29
422.629	11.28
422.99	11.31
423.351	11.23
423.712	11.33
424.073	11.39
424.434	11.23
424.795	11.48
425.155	11.48
425.516	11.36
425.877	11.46
426.238	11.37
426.598	11.54
426.959	11.43
427.32	11.6
427.68	11.58
428.041	11.66
428.401	11.87
428.761	11.85
429.122	11.96
429.482	11.86
429.842	12.01
430.202	11.95
430.563	12.08
430.923	11.93
431.283	12
431.643	11.84
432.003	12.04
432.363	12.26
432.722	12.22
433.082	12.1
433.442	12.04
433.802	12.18
434.161	12.17
434.521	12.31
434.881	12.35
435.24	12.11
435.6	12.21
435.959	12.17
436.319	12.3
436.678	12.29
437.037	12.45
437.396	12.39
437.756	12.37
438.115	12.31
438.474	12.61
438.833	12.16
439.192	12.53
439.551	12.49
439.91	12.58
440.269	12.54
440.628	12.43
440.987	12.38
441.345	12.47
441.704	12.53
442.063	12.56
442.421	12.49
442.78	12.57
443.138	12.54
443.497	12.6
443.855	12.69
444.214	12.7
444.572	12.91
444.93	12.78
445.288	12.97
445.647	13.07
446.005	12.91
446.363	13.07
446.721	13.03
447.079	12.76
447.437	13.01
447.795	12.95
448.153	12.88
448.51	12.84
448.868	12.97
449.226	13.03
449.584	12.76
449.941	13.18
450.299	13.14
450.656	13.1
451.014	13.18
451.371	13.17
451.729	13.13
452.086	13.47
452.443	13.33
452.801	13.5
453.158	13.53
453.515	13.31
453.872	13.47
454.229	13.31
454.586	13.43
454.943	13.49
455.3	13.6
455.657	13.51
456.014	13.57
456.371	13.71
456.727	13.68
457.084	13.73
457.441	13.72
457.797	13.65
458.154	13.91
458.51	13.9
458.867	13.93
459.223	13.89
459.58	13.81
459.936	13.79
460.292	13.96
460.648	13.82
461.005	13.82
461.361	13.97
461.717	13.89
462.073	13.66
462.429	13.82
462.785	13.86
463.141	14.04
463.496	13.88
463.852	14.2
464.208	14.2
464.564	14.35
464.919	14.28
465.275	14.27
465.631	14.51
465.986	14.27
466.342	14.38
466.697	14.36
467.052	14.41
467.408	14.43
467.763	14.33
468.118	14.27
468.473	14.48
468.829	14.52
469.184	14.61
469.539	14.63
469.894	14.5
470.249	14.68
470.603	14.67
470.958	14.68
471.313	14.74
471.668	14.8
472.023	14.81
472.377	14.55
472.732	14.81
473.086	14.89
473.441	14.86
473.795	15.11
474.15	14.91
474.504	15.12
474.859	15.08
475.213	14.97
475.567	14.97
475.921	15.02
476.275	15.29
476.63	15.11
476.984	15.18
477.338	15.26
477.692	15.01
478.045	15.3
478.399	15.3
478.753	15.31
479.107	15.37
479.461	15.37
479.814	15.45
480.168	15.4
480.521	15.46
480.875	15.5
481.228	15.33
481.582	15.56
481.935	15.57
482.289	15.48
482.642	15.61
482.995	15.38
483.348	15.37
483.701	15.44
484.055	15.62
484.408	15.63
484.761	15.36
485.114	15.38
485.466	15.11
485.819	14.99
486.172	15.06
486.525	15.06
486.878	15.2
487.23	15.29
487.583	15.39
487.936	15.58
488.288	15.59
488.641	15.65
488.993	15.59
489.345	15.56
489.698	15.42
490.05	15.52
490.402	15.61
490.754	15.66
491.107	15.85
491.459	15.94
491.811	15.99
492.163	16.15
492.515	16.12
492.866	16.09
493.218	16.06
493.57	15.92
493.922	15.96
494.274	16.11
494.625	16.13
494.977	16.3
495.328	16.45
495.68	16.54
496.031	16.71
496.383	16.69
496.734	16.97
497.086	16.72
497.437	16.76
497.788	16.9
498.139	16.87
498.49	16.97
498.842	16.87
499.193	16.93
499.544	17.01
499.894	16.99
500.245	17.17
500.596	16.96
500.947	17.05
501.298	16.99
501.648	17.18
501.999	17.28
502.35	17.34
502.7	17.23
503.051	17.26
503.401	17.33
503.752	17.35
504.102	17.35
504.452	17.34
504.803	17.47
505.153	17.71
505.503	17.63
505.853	17.74
506.203	17.46
506.553	17.67
506.903	17.68
507.253	17.52
507.603	17.83
507.953	17.72
508.303	18.02
508.652	17.8
509.002	17.94
509.352	17.93
509.701	17.85
510.051	17.89
510.4	17.97
510.75	18.03
511.099	17.87
511.449	18.02
511.798	18.07
512.147	18.14
512.496	18.12
512.846	18.13
513.195	18.31
513.544	18.27
513.893	18.35
514.242	18.35
514.591	18.53
514.939	18.34
515.288	18.49
515.637	18.53
515.986	18.55
516.334	18.7
516.683	18.67
517.032	18.73
517.38	18.77
517.729	18.74
518.077	18.63
518.426	18.66
518.774	18.77
519.122	18.77
519.47	18.69
519.819	18.68
520.167	18.72
520.515	18.74
520.863	18.8
521.211	18.8
521.559	18.91
521.907	18.84
522.255	19.01
522.602	19.09
522.95	19.09
523.298	19.16
523.645	19.37
523.993	19.26
524.341	19.36
524.688	19.55
525.036	19.41
525.383	19.48
525.73	19.65
526.078	19.55
526.425	19.53
526.772	19.57
527.119	19.55
527.466	19.48
527.814	19.46
528.161	19.4
528.508	19.47
528.854	19.48
529.201	19.56
529.548	19.64
529.895	19.44
530.242	19.32
530.588	19.19
530.935	19.28
531.282	19.37
531.628	19.26
531.975	19.5
532.321	19.59
532.667	19.69
533.014	19.93
533.36	19.99
533.706	20.18
534.052	20.22
534.399	19.98
534.745	20.02
535.091	20.06
535.437	20.02
535.783	20.03
536.129	20.1
536.474	20.18
536.82	20.39
537.166	20.44
537.512	20.63
537.857	20.6
538.203	20.62
538.549	20.6
538.894	20.48
539.239	20.67
539.585	20.88
539.93	20.86
540.276	21.05
540.621	20.98
540.966	21.25
541.311	21.07
541.656	21.06
542.001	21.29
542.346	21.28
542.691	21.04
543.036	20.84
543.381	20.67
543.726	20.86
544.071	20.89
544.415	20.94
544.76	21.03
545.105	21.15
545.449	21.29
545.794	21.35
546.138	21.46
546.483	21.49
546.827	21.64
547.171	21.65
547.516	21.8
547.86	21.82
548.204	21.83
548.548	21.72
548.892	22.05
549.236	21.96
549.58	21.87
549.924	21.93
550.268	22.13
550.612	22.18
550.956	22.26
551.3	22.25
551.643	22.43
551.987	22.58
552.33	22.41
552.674	22.56
553.017	22.61
553.361	22.5
553.704	22.88
554.048	22.71
554.391	22.65
554.734	22.75
555.077	22.75
555.42	22.79
555.764	22.83
556.107	23.05
556.45	22.79
556.793	22.81
557.135	22.93
557.478	23.19
557.821	23.25
558.164	23.19
558.507	23.24
558.849	23.36
559.192	23.41
559.534	23.25
559.877	23.56
560.219	23.56
560.562	23.81
560.904	23.51
561.246	23.69
561.589	23.71
561.931	23.75
562.273	23.46
562.615	23.88
562.957	23.79
563.299	23.88
563.641	23.88
563.983	23.85
564.325	23.87
564.667	24.12
565.008	23.95
565.35	23.93
565.692	23.84
566.033	24.24
566.375	24.27
566.716	24.43
567.058	24.35
567.399	24.21
567.741	24.32
568.082	24.48
568.423	24.44
568.764	24.29
569.105	24.42
569.447	24.32
569.788	24.62
570.129	24.74
570.47	24.59
570.811	24.82
571.151	24.67
571.492	24.92
571.833	24.68
572.174	24.79
572.514	24.95
572.855	24.96
573.195	24.97
573.536	24.99
573.876	24.99
574.217	25.06
574.557	25.16
574.898	25.25
575.238	25.5
575.578	25.18
575.918	25.37
576.258	25.41
576.598	25.48
576.938	25.33
577.278	25.21
577.618	25.45
577.958	25.59
578.298	25.69
578.638	25.67
578.977	25.81
579.317	25.8
579.657	26.08
579.996	25.87
580.336	25.82
580.675	25.73
581.014	25.94
581.354	26.19
581.693	26.19
582.032	25.89
582.372	26.3
582.711	26.53
583.05	26.22
583.389	26.33
583.728	26.38
584.067	26.76
584.406	26.36
584.745	26.47
585.083	26.74
585.422	26.74
585.761	26.43
586.1	26.73
586.438	26.56
586.777	26.97
587.115	26.96
587.454	26.96
587.792	26.98
588.13	27.16
588.469	27.09
588.807	27.4
589.145	27.02
589.483	27.2
589.821	27.1
590.159	27.2
590.497	27.43
590.835	27.19
591.173	27.37
591.511	27.32
591.849	27.12
592.187	27.82
592.524	27.57
592.862	27.68
593.2	27.51
593.537	27.61
593.875	27.9
594.212	27.77
594.55	27.66
594.887	28.2
595.224	27.73
595.561	28.19
595.899	28.4
596.236	27.91
596.573	28.64
596.91	27.66
597.247	28.18
597.584	28.4
597.921	28.22
598.258	28.12
598.594	28.19
598.931	28.12
599.268	28.18
599.604	28.14
599.941	28.49
600.277	28.15
600.614	28.42
600.95	28.23
601.287	28.81
601.623	28.7
601.959	28.63
602.296	28.88
602.632	28.53
602.968	28.96
603.304	29.08
603.64	29.04
603.976	28.97
604.312	29.09
604.648	29.18
604.984	29.31
605.319	29.09
605.655	29.27
605.991	29.23
606.326	29.17
606.662	29.05
606.998	28.98
607.333	29.36
607.668	29.54
608.004	29.41
608.339	29.48
608.674	29.58
609.01	29.66
609.345	29.7
609.68	29.82
610.015	29.34
610.35	29.59
610.685	30
611.02	29.92
611.355	29.86
611.689	29.76
612.024	29.83
612.359	29.89
612.694	30.02
613.028	29.97
613.363	30.25
613.697	30.19
614.032	30.41
614.366	30.32
614.7	30.44
615.035	30.61
615.369	30.53
615.703	30.32
616.037	30.72
616.371	30.79
616.705	30.38
617.039	30.34
617.373	30.89
617.707	30.5
618.041	30.4
618.375	31.25
618.709	31.05
619.042	30.84
619.376	30.94
619.71	31.56
620.043	30.76
620.377	30.87
620.71	31.17
621.043	31.08
621.377	31.17
621.71	31.18
622.043	30.73
622.376	31.07
622.709	31.15
623.043	31.46
623.376	31.5
623.709	31.61
624.041	31.66
624.374	31.7
624.707	31.7
625.04	31.67
625.373	31.71
625.705	31.89
626.038	31.62
626.37	32.5
626.703	31.92
627.035	32.21
627.368	32.5
627.7	31.99
628.032	31.88
628.365	32.51
628.697	32.15
629.029	32.02
629.361	32.23
629.693	31.95
630.025	32.02
630.357	32.52
630.689	32.53
631.021	32.42
631.353	32.46
631.684	32.32
632.016	32.63
632.348	32.55
632.679	32.65
633.011	32.97
633.342	32.97
633.674	32.66
634.005	32.79
634.336	32.83
634.668	33.39
634.999	32.61
635.33	33.01
635.661	32.92
635.992	32.94
636.323	33.28
636.654	33.37
636.985	33.5
637.316	33.28
637.647	33.23
637.977	33.51
638.308	33.51
638.639	32.86
638.969	33.44
639.3	33.86
639.63	33.1
639.961	33.46
640.291	33.53
640.622	33.78
640.952	33.99
641.282	34.5
641.612	33.63
641.943	33.35
642.273	33.89
642.603	34.45
642.933	34.24
643.263	34.03
643.592	34.19
643.922	33.43
644.252	34.17
644.582	34.13
644.911	34.35
645.241	34.11
645.571	33.74
645.9	34.32
646.23	34.38
646.559	34.53
646.888	34.01
647.218	34.55
647.547	34.56
647.876	34.26
648.205	35.15
648.534	34.98
648.863	34.33
649.192	34.65
649.521	34.61
649.85	34.67
650.179	35.33
650.508	34.44
650.837	34.47
651.165	34.91
651.494	34.94
651.822	35.11
652.151	35.3
652.479	35.54
652.808	34.73
653.136	35.07
653.465	34.94
653.793	34.81
654.121	35.18
654.449	35.49
654.777	35.11
655.105	35.29
655.433	35.4
655.761	35.72
656.089	35.87
656.417	35.47
656.745	35.74
657.073	35.71
657.4	36.08
657.728	35.83
658.056	35.86
658.383	36.38
658.711	36.63
659.038	36.01
659.365	36.1
659.693	36.15
660.02	36.05
660.347	36.24
660.674	36.19
661.001	36.06
661.329	36.05
661.656	36.54
661.982	36.56
662.309	36.03
662.636	36
662.963	36.69
663.29	36.75
663.616	36.45
663.943	36.44
664.27	36.17
664.596	36.66
664.923	36.82
665.249	35.87
665.576	36.37
665.902	37.13
666.228	36.95
666.554	37.3
666.881	36.57
667.207	36.4
667.533	38.01
667.859	37.47
668.185	37.58
668.511	36.59
668.837	36.28
669.162	36.83
669.488	36.8
669.814	37.06
670.139	37.1
670.465	36.54
670.791	37.98
671.116	37.7
671.442	36.94
671.767	37.46
672.092	37.19
672.418	37.49
672.743	37.4
673.068	37.21
