Data from 0207_forehead_Reflection__2__306.txt Node

Date: Fri Dec 15 19:30:29 CST 2023
User: ToomeyLab
Spectrometer: FLMS14357
Trigger mode: 0
Integration Time (sec): 1.000000E-2
Scans to average: 100
Electric dark correction enabled: true
Nonlinearity correction enabled: false
Boxcar width: 0
XAxis mode: Wavelengths
Number of Pixels in Spectrum: 2048
>>>>>Begin Spectral Data<<<<<
189.047	-83.28
189.435	-83.28
189.823	-83.28
190.211	93.73
190.599	-164.41
190.987	74.37
191.375	71.51
191.763	180.11
192.151	356.87
192.538	48.35
192.926	1561.29
193.314	87.71
193.702	-74.23
194.089	78.06
194.477	59.77
194.864	229.44
195.252	53.64
195.639	77.13
196.027	187.43
196.414	175.02
196.801	161.63
197.189	230.89
197.576	176.34
197.963	-130.72
198.351	139.88
198.738	-6.92
199.125	64.55
199.512	2.24
199.899	30.78
200.286	47.7
200.673	19.29
201.06	43.12
201.447	10.39
201.833	-23.53
202.22	43.92
202.607	70.82
202.994	-1.13
203.38	7.8
203.767	13.86
204.154	65.25
204.54	38.33
204.927	-39.63
205.313	-14.72
205.699	75.81
206.086	54.13
206.472	38.19
206.858	19.78
207.245	0.39
207.631	55.39
208.017	42.3
208.403	-4.89
208.789	21.95
209.175	134.31
209.561	4.94
209.947	17.35
210.333	46.46
210.719	53.95
211.105	34.72
211.491	-3.67
211.876	26.09
212.262	15.61
212.648	20.85
213.034	60.69
213.419	-3.69
213.805	36.31
214.19	-19.99
214.576	39.27
214.961	-21.06
215.346	-93.23
215.732	2.91
216.117	29.19
216.502	30.47
216.888	21.9
217.273	64.19
217.658	-4.6
218.043	25.57
218.428	-31.62
218.813	-42.11
219.198	-23.81
219.583	17.52
219.968	5.39
220.353	-11.19
220.738	27.63
221.122	14.9
221.507	-10.52
221.892	-28.54
222.276	-0.24
222.661	-0.51
223.046	29.29
223.43	10.75
223.815	17.72
224.199	-1.26
224.583	0.43
224.968	-0.96
225.352	23.49
225.736	0.31
226.121	-2.33
226.505	8.83
226.889	16.65
227.273	1.36
227.657	12.76
228.041	8.5
228.425	5.99
228.809	12.25
229.193	3.48
229.577	4.2
229.961	6
230.344	5.17
230.728	3.65
231.112	4.68
231.495	5.71
231.879	4.31
232.263	6.4
232.646	6.1
233.03	3.37
233.413	3.39
233.797	4.93
234.18	3.35
234.563	5.46
234.946	5.68
235.33	5.17
235.713	5.61
236.096	4.11
236.479	6.17
236.862	3.46
237.245	6.34
237.628	5.46
238.011	6.96
238.394	5.31
238.777	5.59
239.16	4.09
239.543	2.56
239.925	7.43
240.308	7.01
240.691	6.27
241.073	4.62
241.456	3.95
241.838	4.8
242.221	3.57
242.603	5.91
242.986	5.69
243.368	4.56
243.75	4.81
244.133	4.5
244.515	4.78
244.897	5.07
245.279	5.26
245.661	4.81
246.043	3.69
246.425	3.58
246.807	6.21
247.189	5.4
247.571	4.3
247.953	4.57
248.335	4.72
248.717	4.76
249.098	4.54
249.48	4.57
249.862	4.54
250.243	4.8
250.625	4.73
251.006	5.07
251.388	4.05
251.769	4.48
252.151	5.2
252.532	5.52
252.913	4.3
253.295	4.97
253.676	4.11
254.057	4.81
254.438	5.05
254.819	3.99
255.2	4.62
255.581	5.15
255.962	4.8
256.343	4.82
256.724	5.72
257.105	4.05
257.486	4.54
257.867	4.97
258.247	4.13
258.628	5.16
259.009	4.08
259.389	4.92
259.77	3.57
260.15	3.95
260.531	3.98
260.911	4.9
261.292	4.36
261.672	4.68
262.052	4.45
262.432	4.97
262.813	4.49
263.193	4.54
263.573	4.42
263.953	3.97
264.333	5.83
264.713	4.75
265.093	4.03
265.473	4.34
265.853	4.36
266.233	4.09
266.612	2.89
266.992	3.79
267.372	4.36
267.752	5.06
268.131	4.83
268.511	5.3
268.89	5.37
269.27	4.5
269.649	4.39
270.029	4.28
270.408	5.37
270.787	4.82
271.167	5.05
271.546	4.93
271.925	3.93
272.304	4.65
272.683	4.63
273.062	4.35
273.441	4.51
273.82	4.16
274.199	4.57
274.578	4.52
274.957	4.46
275.336	4.71
275.715	4.01
276.093	4.03
276.472	5.07
276.851	4.12
277.229	4.16
277.608	4.54
277.986	4.23
278.365	4.71
278.743	4.18
279.122	4.61
279.5	4.81
279.878	4.73
280.257	4.3
280.635	4.49
281.013	4.13
281.391	4.58
281.769	4.44
282.147	4.5
282.525	5.6
282.903	4.24
283.281	4.97
283.659	4.86
284.037	4.69
284.415	4.79
284.792	4.74
285.17	3.84
285.548	4.37
285.925	4.57
286.303	4.86
286.68	4.63
287.058	4.5
287.435	4.71
287.813	4.71
288.19	4.46
288.567	4.37
288.945	5.11
289.322	4.59
289.699	4.83
290.076	4.6
290.453	4.43
290.83	4.64
291.207	4.64
291.584	5.08
291.961	5.1
292.338	5.21
292.715	4.92
293.092	4.97
293.469	5.03
293.845	5.33
294.222	5.02
294.599	4.99
294.975	4.97
295.352	5.18
295.728	4.78
296.105	4.84
296.481	5.65
296.858	5.51
297.234	5.06
297.61	5.35
297.986	5.19
298.363	5.64
298.739	5.37
299.115	5.24
299.491	5.06
299.867	5.08
300.243	5.03
300.619	5.02
300.995	5.03
301.371	5.6
301.746	5.28
302.122	5.77
302.498	5.43
302.874	5.82
303.249	5.71
303.625	5.04
304	5.83
304.376	5.5
304.751	5.69
305.127	6.88
305.502	5.36
305.878	5.7
306.253	5.82
306.628	6.7
307.003	5.94
307.378	6.64
307.754	5.49
308.129	5.61
308.504	6.06
308.879	6.08
309.254	6.63
309.629	6.56
310.003	6.11
310.378	6.9
310.753	6.84
311.128	6.37
311.502	6.28
311.877	6.4
312.252	5.87
312.626	6.34
313.001	5.94
313.375	6.85
313.75	5.95
314.124	6.29
314.498	6.34
314.873	6.32
315.247	6.48
315.621	6.47
315.995	5.9
316.369	6.58
316.743	6.18
317.117	6.99
317.491	6.28
317.865	6.69
318.239	6.5
318.613	6.83
318.987	6.91
319.361	6.42
319.734	7.01
320.108	6.97
320.482	7.32
320.855	7.03
321.229	7.33
321.602	6.85
321.976	6.94
322.349	7.13
322.723	7.22
323.096	7.78
323.469	6.34
323.843	6.99
324.216	7.91
324.589	7.4
324.962	7.42
325.335	7.26
325.708	7.11
326.081	7.44
326.454	7.29
326.827	7.12
327.2	7.19
327.573	7.48
327.945	7.4
328.318	7.46
328.691	7.29
329.063	7.59
329.436	7.48
329.809	8.07
330.181	7.35
330.553	7.49
330.926	7.75
331.298	7.81
331.671	7.29
332.043	8.5
332.415	7.93
332.787	7.88
333.159	8.1
333.532	8.49
333.904	8.02
334.276	8.45
334.648	7.84
335.02	7.79
335.391	7.24
335.763	7.91
336.135	8.27
336.507	8.49
336.879	8.6
337.25	7.73
337.622	7.93
337.993	8.09
338.365	8.37
338.736	8.61
339.108	8.39
339.479	8.18
339.851	8.73
340.222	8.49
340.593	8.51
340.964	8.42
341.336	8.99
341.707	7.94
342.078	8.81
342.449	8.7
342.82	8.35
343.191	8.23
343.562	8.43
343.933	8.83
344.303	8.63
344.674	8.92
345.045	8.89
345.416	9.22
345.786	8.3
346.157	9.12
346.527	8.39
346.898	8.84
347.268	9.65
347.639	8.57
348.009	9.12
348.38	9.07
348.75	9.27
349.12	8.77
349.49	9.52
349.861	8.9
350.231	8.9
350.601	8.49
350.971	8.96
351.341	9.49
351.711	9.16
352.081	9.39
352.45	8.88
352.82	9.43
353.19	9.09
353.56	9.31
353.929	9.89
354.299	9.58
354.669	9.37
355.038	9.81
355.408	9.39
355.777	9.19
356.147	9.53
356.516	9.58
356.885	9.62
357.254	9.57
357.624	9.65
357.993	9.89
358.362	9.49
358.731	9.44
359.1	9.74
359.469	9.86
359.838	10.08
360.207	9.83
360.576	9.88
360.945	9.89
361.314	10.42
361.682	10.26
362.051	10.07
362.42	10.35
362.788	10.01
363.157	10.13
363.525	10.76
363.894	10.24
364.262	10.21
364.631	10.37
364.999	10.54
365.367	9.92
365.735	10.99
366.104	10.45
366.472	10.68
366.84	10.31
367.208	10.94
367.576	11.08
367.944	10.67
368.312	10.74
368.68	10.53
369.048	10.46
369.416	10.86
369.783	10.85
370.151	11.24
370.519	11.06
370.886	11.6
371.254	10.9
371.621	11.24
371.989	11.44
372.356	10.87
372.724	11.35
373.091	11.09
373.458	11.25
373.826	11.48
374.193	11.66
374.56	11.54
374.927	11.6
375.294	11.19
375.661	11.68
376.028	11.16
376.395	11.36
376.762	11.88
377.129	11.66
377.496	11.29
377.863	11.57
378.229	11.28
378.596	11.69
378.963	11.98
379.329	11.32
379.696	11.91
380.062	11.48
380.429	11.56
380.795	11.69
381.161	12
381.528	11.73
381.894	11.93
382.26	11.7
382.626	11.99
382.993	11.72
383.359	12.47
383.725	11.97
384.091	12.06
384.457	12.54
384.823	12.05
385.188	12.12
385.554	12.1
385.92	12.18
386.286	12.29
386.651	12.42
387.017	12.65
387.383	12.4
387.748	12.41
388.114	12.37
388.479	12.65
388.845	12.63
389.21	12.6
389.575	12.51
389.94	12.54
390.306	12.94
390.671	12.93
391.036	12.47
391.401	12.29
391.766	13.18
392.131	12.77
392.496	12.96
392.861	12.9
393.226	13.04
393.591	12.92
393.956	12.72
394.32	12.66
394.685	13.09
395.05	13.05
395.414	12.96
395.779	13.08
396.143	13.07
396.508	13.04
396.872	12.87
397.236	12.88
397.601	12.92
397.965	13.5
398.329	13.37
398.694	13.68
399.058	13.16
399.422	13.35
399.786	13.85
400.15	13.43
400.514	13.28
400.878	13.44
401.242	13.73
401.605	13.43
401.969	13.65
402.333	13.47
402.697	13.6
403.06	13.61
403.424	13.9
403.787	13.61
404.151	13.84
404.514	13.76
404.878	13.78
405.241	13.71
405.604	13.74
405.968	13.84
406.331	13.77
406.694	13.99
407.057	13.66
407.42	13.94
407.783	13.74
408.146	13.77
408.509	13.93
408.872	13.92
409.235	13.88
409.598	14.06
409.961	14.12
410.323	14.37
410.686	13.99
411.049	14.25
411.411	14.08
411.774	14.38
412.136	14.1
412.499	14.1
412.861	14.25
413.223	14.27
413.586	14.61
413.948	14.35
414.31	14.5
414.672	14.44
415.035	14.28
415.397	14.82
415.759	14.48
416.121	14.68
416.483	14.48
416.845	14.9
417.206	14.57
417.568	14.62
417.93	14.46
418.292	14.66
418.653	14.52
419.015	14.64
419.377	14.44
419.738	14.85
420.1	14.77
420.461	14.73
420.822	14.76
421.184	14.69
421.545	14.59
421.906	14.57
422.267	14.72
422.629	14.68
422.99	14.66
423.351	14.63
423.712	14.78
424.073	14.68
424.434	14.85
424.795	14.85
425.155	14.89
425.516	14.96
425.877	14.93
426.238	14.86
426.598	15.03
426.959	15.12
427.32	15.09
427.68	15.17
428.041	15.17
428.401	15.34
428.761	15.29
429.122	15.56
429.482	15.14
429.842	15.68
430.202	15.5
430.563	15.53
430.923	15.45
431.283	15.66
431.643	15.56
432.003	15.62
432.363	15.78
432.722	15.84
433.082	15.75
433.442	15.78
433.802	15.5
434.161	16.1
434.521	16.06
434.881	15.89
435.24	15.74
435.6	15.95
435.959	15.98
436.319	15.99
436.678	15.94
437.037	16.07
437.396	16.32
437.756	16.3
438.115	16.1
438.474	16.49
438.833	16.27
439.192	16.24
439.551	16.39
439.91	16.37
440.269	16.28
440.628	16.44
440.987	16.28
441.345	16.2
441.704	16.5
442.063	16.36
442.421	16.39
442.78	16.39
443.138	16.54
443.497	16.53
443.855	16.47
444.214	16.64
444.572	16.9
444.93	16.88
445.288	16.75
445.647	16.88
446.005	16.75
446.363	17
446.721	16.91
447.079	16.58
447.437	16.94
447.795	16.88
448.153	16.72
448.51	16.84
448.868	16.94
449.226	16.89
449.584	16.92
449.941	17.15
450.299	17.13
450.656	17.14
451.014	17.17
451.371	17.24
451.729	17.29
452.086	17.35
452.443	17.15
452.801	17.46
453.158	17.38
453.515	17.48
453.872	17.63
454.229	17.52
454.586	17.59
454.943	17.65
455.3	17.91
455.657	17.78
456.014	17.65
456.371	17.91
456.727	17.89
457.084	17.95
457.441	17.78
457.797	17.87
458.154	18.1
458.51	18.21
458.867	18.2
459.223	17.99
459.58	18.11
459.936	18.18
460.292	18.2
460.648	18.06
461.005	18.16
461.361	18.13
461.717	18.12
462.073	18.01
462.429	18.05
462.785	18.28
463.141	18.18
463.496	18.33
463.852	18.54
464.208	18.55
464.564	18.88
464.919	18.91
465.275	18.65
465.631	18.77
465.986	18.71
466.342	18.85
466.697	18.88
467.052	18.81
467.408	18.99
467.763	18.8
468.118	18.97
468.473	18.95
468.829	18.96
469.184	19.07
469.539	19.01
469.894	19.05
470.249	19.18
470.603	19.34
470.958	19.32
471.313	19.45
471.668	19.28
472.023	19.2
472.377	19.25
472.732	19.18
473.086	19.5
473.441	19.44
473.795	19.55
474.15	19.5
474.504	19.61
474.859	19.71
475.213	19.51
475.567	19.8
475.921	19.75
476.275	19.79
476.63	19.86
476.984	19.88
477.338	19.7
477.692	19.73
478.045	20.04
478.399	19.96
478.753	19.99
479.107	20.05
479.461	20.14
479.814	20.12
480.168	20.04
480.521	20.06
480.875	20.09
481.228	20.11
481.582	20.41
481.935	20.28
482.289	20.39
482.642	20.4
482.995	20.28
483.348	20.24
483.701	20.2
484.055	20.35
484.408	20.38
484.761	20.08
485.114	19.97
485.466	19.6
485.819	19.69
486.172	19.75
486.525	19.86
486.878	19.93
487.23	19.99
487.583	20.32
487.936	20.36
488.288	20.38
488.641	20.42
488.993	20.22
489.345	20.26
489.698	20.21
490.05	20.26
490.402	20.35
490.754	20.47
491.107	20.74
491.459	20.78
491.811	20.85
492.163	21.11
492.515	21
492.866	20.9
493.218	20.9
493.57	20.7
493.922	20.8
494.274	20.94
494.625	21.08
494.977	21.28
495.328	21.51
495.68	21.5
496.031	21.7
496.383	21.76
496.734	22.03
497.086	22.01
497.437	21.87
497.788	21.95
498.139	21.94
498.49	22.22
498.842	21.88
499.193	21.82
499.544	22.09
499.894	22.18
500.245	22.34
500.596	22.16
500.947	22.31
501.298	22.43
501.648	22.32
501.999	22.74
502.35	22.6
502.7	22.55
503.051	22.55
503.401	22.55
503.752	22.92
504.102	22.88
504.452	22.93
504.803	22.8
505.153	22.9
505.503	22.93
505.853	22.98
506.203	22.99
506.553	23.05
506.903	22.91
507.253	22.92
507.603	23.13
507.953	23.32
508.303	23.32
508.652	23.21
509.002	23.38
509.352	23.49
509.701	23.24
510.051	23.37
510.4	23.46
510.75	23.25
511.099	23.45
511.449	23.39
511.798	23.42
512.147	23.65
512.496	23.75
512.846	23.63
513.195	23.75
513.544	23.7
513.893	23.75
514.242	23.91
514.591	24.14
514.939	23.89
515.288	23.8
515.637	24.11
515.986	24.21
516.334	24.37
516.683	24.41
517.032	24.22
517.38	24.41
517.729	24.37
518.077	24.23
518.426	24.44
518.774	24.61
519.122	24.42
519.47	24.46
519.819	24.4
520.167	24.44
520.515	24.49
520.863	24.49
521.211	24.5
521.559	24.68
521.907	24.67
522.255	24.71
522.602	24.85
522.95	24.99
523.298	25
523.645	25.1
523.993	25.14
524.341	25.21
524.688	25.22
525.036	25.29
525.383	25.33
525.73	25.65
526.078	25.39
526.425	25.45
526.772	25.42
527.119	25.35
527.466	25.29
527.814	25.29
528.161	25.1
528.508	25.48
528.854	25.48
529.201	25.32
529.548	25.26
529.895	25.37
530.242	25.04
530.588	24.95
530.935	25.06
531.282	25.26
531.628	25.25
531.975	25.49
532.321	25.59
532.667	25.74
533.014	25.89
533.36	25.92
533.706	26.01
534.052	26.26
534.399	26.14
534.745	26
535.091	25.9
535.437	25.88
535.783	26.07
536.129	26.18
536.474	26.3
536.82	26.4
537.166	26.57
537.512	26.67
537.857	26.77
538.203	26.73
538.549	26.62
538.894	26.69
539.239	26.79
539.585	26.92
539.93	26.89
540.276	27.4
540.621	27.36
540.966	27.36
541.311	27.26
541.656	27.5
542.001	27.48
542.346	27.41
542.691	27.23
543.036	26.95
543.381	26.87
543.726	26.99
544.071	27.16
544.415	27.33
544.76	27.34
545.105	27.56
545.449	27.59
545.794	27.78
546.138	27.75
546.483	27.87
546.827	28.11
547.171	28.07
547.516	28.23
547.86	28.2
548.204	28.32
548.548	28.15
548.892	28.4
549.236	28.38
549.58	28.37
549.924	28.71
550.268	28.9
550.612	28.89
550.956	28.86
551.3	28.78
551.643	28.95
551.987	29.19
552.33	29.24
552.674	29.33
553.017	29.24
553.361	29.2
553.704	29.55
554.048	29.48
554.391	29.33
554.734	29.52
555.077	29.52
555.42	29.29
555.764	29.06
556.107	29.5
556.45	29.36
556.793	29.51
557.135	29.67
557.478	30.1
557.821	30.1
558.164	30.03
558.507	30.04
558.849	30.12
559.192	30.31
559.534	30.41
559.877	30.31
560.219	30.4
560.562	30.64
560.904	30.62
561.246	30.5
561.589	30.54
561.931	30.76
562.273	30.49
562.615	30.77
562.957	30.93
563.299	30.69
563.641	30.76
563.983	30.8
564.325	31.08
564.667	30.96
565.008	31.04
565.35	31.12
565.692	30.99
566.033	30.97
566.375	31.42
566.716	31.1
567.058	31.32
567.399	31.43
567.741	31.17
568.082	31.12
568.423	31.56
568.764	31.35
569.105	31.19
569.447	31.52
569.788	31.69
570.129	31.62
570.47	31.73
570.811	32.01
571.151	31.97
571.492	32.02
571.833	32.06
572.174	32.13
572.514	31.98
572.855	31.95
573.195	32.17
573.536	32.23
573.876	32
574.217	32.13
574.557	32.47
574.898	32.4
575.238	32.45
575.578	32.36
575.918	32.76
576.258	32.65
576.598	32.65
576.938	32.65
577.278	32.51
577.618	32.73
577.958	32.78
578.298	33.03
578.638	33.13
578.977	33.13
579.317	33.42
579.657	33.23
579.996	33.3
580.336	33.52
580.675	33.37
581.014	33.76
581.354	33.58
581.693	33.62
582.032	33.53
582.372	33.77
582.711	33.98
583.05	33.85
583.389	33.93
583.728	34.21
584.067	34.43
584.406	34.42
584.745	33.81
585.083	34.28
585.422	34.31
585.761	34.53
586.1	34.53
586.438	34.56
586.777	34.66
587.115	34.66
587.454	34.32
587.792	34.78
588.13	34.53
588.469	34.7
588.807	34.98
589.145	34.71
589.483	35.01
589.821	35.06
590.159	34.87
590.497	35.06
590.835	35.15
591.173	35.29
591.511	35.24
591.849	34.87
592.187	35.5
592.524	35.43
592.862	35.39
593.2	35.8
593.537	35.41
593.875	35.57
594.212	35.98
594.55	35.46
594.887	35.63
595.224	35.96
595.561	36.12
595.899	36.02
596.236	35.81
596.573	36.21
596.91	35.77
597.247	36.19
597.584	36.36
597.921	36.26
598.258	35.97
598.594	36.24
598.931	35.99
599.268	36.04
599.604	36.4
599.941	36.54
600.277	36.5
600.614	36.75
600.95	36.7
601.287	36.75
601.623	36.75
601.959	36.78
602.296	36.86
602.632	36.71
602.968	36.87
603.304	37.23
603.64	36.79
603.976	36.67
604.312	36.93
604.648	37.14
604.984	37.27
605.319	37.33
605.655	37.21
605.991	37.06
606.326	37.14
606.662	37.14
606.998	37.13
607.333	37.53
607.668	37.65
608.004	37.78
608.339	37.72
608.674	37.95
609.01	38.01
609.345	37.8
609.68	38
610.015	37.59
610.35	37.67
610.685	37.73
611.02	38.14
611.355	38.1
611.689	37.83
612.024	38.07
612.359	38.11
612.694	38.11
613.028	38.36
613.363	38.8
613.697	38.69
614.032	38.64
614.366	38.61
614.7	38.87
615.035	39.24
615.369	38.93
615.703	38.77
616.037	38.96
616.371	39.03
616.705	39.01
617.039	39.07
617.373	39.03
617.707	38.96
618.041	39.44
618.375	39.24
618.709	39.45
619.042	39.04
619.376	39.58
619.71	39.53
620.043	39.86
620.377	39.75
620.71	39.78
621.043	39.4
621.377	39.55
621.71	39.93
622.043	39.17
622.376	39.97
622.709	39.48
623.043	39.83
623.376	40.02
623.709	39.93
624.041	40.31
624.374	39.9
624.707	40.21
625.04	40.42
625.373	40.45
625.705	40.41
626.038	40.17
626.37	40.86
626.703	39.84
627.035	40.85
627.368	41.11
627.7	40.45
628.032	40.6
628.365	41.13
628.697	40.72
629.029	40.64
629.361	40.95
629.693	41.1
630.025	41.18
630.357	41.16
630.689	40.9
631.021	41.07
631.353	41.74
631.684	41.12
632.016	41.29
632.348	41.48
632.679	41.85
633.011	41.59
633.342	42.15
633.674	41.96
634.005	41.63
634.336	42.17
634.668	42.03
634.999	42.03
635.33	41.67
635.661	41.98
635.992	42.11
636.323	42.11
636.654	42.27
636.985	42
637.316	41.97
637.647	42.29
637.977	42.53
638.308	42.14
638.639	42.18
638.969	42.64
639.3	42.87
639.63	42.57
639.961	43.26
640.291	42.43
640.622	42.46
640.952	42.56
641.282	43.48
641.612	43.35
641.943	42.76
642.273	42.42
642.603	42.95
642.933	43.48
643.263	42.89
643.592	42.93
643.922	43.22
644.252	43.29
644.582	43.48
644.911	43.45
645.241	43.13
645.571	43.02
645.9	43.53
646.23	43.89
646.559	43.94
646.888	43.44
647.218	43.75
647.547	44.23
647.876	43.76
648.205	43.98
648.534	44.33
648.863	44.3
649.192	43.94
649.521	44.16
649.85	43.94
650.179	44.15
650.508	44.1
650.837	43.74
651.165	44.3
651.494	44.43
651.822	44.44
652.151	45.06
652.479	45
652.808	44.56
653.136	44.7
653.465	44.74
653.793	44.55
654.121	44.67
654.449	45.51
654.777	44.55
655.105	44.81
655.433	44.93
655.761	45.07
656.089	45.36
656.417	45.76
656.745	45.34
657.073	45.63
657.4	45.51
657.728	45.32
658.056	45.08
658.383	45.04
658.711	45.49
659.038	45.06
659.365	45.42
659.693	45.28
660.02	45.78
660.347	45.7
660.674	46.09
661.001	46.34
661.329	45.33
661.656	46.26
661.982	45.99
662.309	45.95
662.636	45.83
662.963	46.46
663.29	46.62
663.616	46.11
663.943	46.29
664.27	46.08
664.596	46.72
664.923	46.92
665.249	46.3
665.576	45.98
665.902	47.05
666.228	46.11
666.554	47.15
666.881	46.44
667.207	46.88
667.533	46.51
667.859	46.57
668.185	47.3
668.511	46.58
668.837	46.3
669.162	46.71
669.488	47.01
669.814	46.92
670.139	46.49
670.465	47.56
670.791	47.8
671.116	47.6
671.442	47.28
671.767	47.06
