Data from 0207_forehead_Reflection__1__305.txt Node

Date: Fri Dec 15 19:30:20 CST 2023
User: ToomeyLab
Spectrometer: FLMS14357
Trigger mode: 0
Integration Time (sec): 1.000000E-2
Scans to average: 100
Electric dark correction enabled: true
Nonlinearity correction enabled: false
Boxcar width: 0
XAxis mode: Wavelengths
Number of Pixels in Spectrum: 2048
>>>>>Begin Spectral Data<<<<<
189.047	-27.29
189.435	-27.29
189.823	-27.29
190.211	425.74
190.599	266.18
190.987	-29.42
191.375	19.52
191.763	174.68
192.151	128.35
192.538	101.39
192.926	-3374.19
193.314	75.17
193.702	-262.62
194.089	-78.79
194.477	13.33
194.864	290.78
195.252	60.81
195.639	106.6
196.027	94.32
196.414	9.44
196.801	119.64
197.189	21.14
197.576	405.59
197.963	-275.15
198.351	-22.22
198.738	34.5
199.125	31.95
199.512	-42.76
199.899	20.84
200.286	62.09
200.673	33.24
201.06	-12.72
201.447	-25.57
201.833	4.69
202.22	5.67
202.607	25.91
202.994	16.07
203.38	57.15
203.767	15.19
204.154	50.06
204.54	51.43
204.927	-67.01
205.313	-118.54
205.699	24.42
206.086	48.23
206.472	38.38
206.858	28.05
207.245	-0.89
207.631	73.48
208.017	16.68
208.403	-13.05
208.789	23.63
209.175	91.03
209.561	-22.16
209.947	-17.55
210.333	-88.21
210.719	19.49
211.105	16.55
211.491	-11.95
211.876	10.79
212.262	-5.12
212.648	19.34
213.034	15.44
213.419	53.66
213.805	-25.04
214.19	14.56
214.576	-32.1
214.961	-32.36
215.346	-67.29
215.732	23.79
216.117	39.04
216.502	-34.94
216.888	12.86
217.273	73.86
217.658	-23.76
218.043	47.93
218.428	-16.91
218.813	-2.57
219.198	-9.46
219.583	-21.09
219.968	22.51
220.353	28.04
220.738	29.86
221.122	-7.74
221.507	-40.81
221.892	-13.32
222.276	-35.16
222.661	1.11
223.046	28.75
223.43	15.59
223.815	17.61
224.199	-19.37
224.583	2.18
224.968	12.46
225.352	7.62
225.736	-8.99
226.121	-3.74
226.505	2.98
226.889	5.44
227.273	-1.75
227.657	8.51
228.041	0.81
228.425	2.52
228.809	7.88
229.193	5.44
229.577	2.82
229.961	4.05
230.344	3.94
230.728	3.43
231.112	3.8
231.495	3.7
231.879	2.5
232.263	5.2
232.646	4.41
233.03	2.8
233.413	2.92
233.797	4.6
234.18	0.25
234.563	0.6
234.946	-0.4
235.33	3.64
235.713	4.38
236.096	2.25
236.479	3.69
236.862	1.08
237.245	5.42
237.628	2.72
238.011	4.46
238.394	3.67
238.777	2.89
239.16	1.82
239.543	2.53
239.925	3.28
240.308	3.94
240.691	5.66
241.073	4.31
241.456	4.21
241.838	3.34
242.221	1.9
242.603	3.46
242.986	3.52
243.368	4.44
243.75	3.45
244.133	3.63
244.515	3.91
244.897	3.75
245.279	3.92
245.661	3.25
246.043	3.02
246.425	2.63
246.807	3.45
247.189	4.07
247.571	3.81
247.953	3.83
248.335	3.51
248.717	3.59
249.098	3.43
249.48	3.39
249.862	3.6
250.243	3.67
250.625	3.73
251.006	4.4
251.388	2.24
251.769	3.09
252.151	2.94
252.532	2.95
252.913	2.14
253.295	3.61
253.676	2.96
254.057	3.72
254.438	3.04
254.819	3.46
255.2	2.74
255.581	3.88
255.962	2.62
256.343	3.7
256.724	3.59
257.105	2.93
257.486	1.53
257.867	3.93
258.247	3.14
258.628	4.25
259.009	3.4
259.389	3.83
259.77	3.05
260.15	2.92
260.531	2.86
260.911	3.91
261.292	3.6
261.672	3.61
262.052	3.56
262.432	3.78
262.813	3.71
263.193	3.52
263.573	3.51
263.953	3.46
264.333	4.13
264.713	3.64
265.093	3.21
265.473	2.68
265.853	2.59
266.233	3.83
266.612	1.34
266.992	2.08
267.372	3.79
267.752	3.32
268.131	3.78
268.511	3.62
268.89	3.9
269.27	3.38
269.649	3.18
270.029	3.19
270.408	4.22
270.787	3.54
271.167	3.51
271.546	4.24
271.925	1.97
272.304	3.56
272.683	3.94
273.062	2.9
273.441	3.67
273.82	3.41
274.199	3.6
274.578	3.37
274.957	3
275.336	3.86
275.715	2.92
276.093	3.4
276.472	3.35
276.851	3.32
277.229	3.17
277.608	3.03
277.986	3.54
278.365	3.96
278.743	2.95
279.122	3.49
279.5	4.34
279.878	4.05
280.257	3.87
280.635	2.85
281.013	3.69
281.391	3.68
281.769	4.12
282.147	3.69
282.525	3.72
282.903	2.9
283.281	3.84
283.659	4.37
284.037	3.58
284.415	3.83
284.792	3.95
285.17	3.58
285.548	3.21
285.925	3.4
286.303	3.82
286.68	3.3
287.058	3.31
287.435	3.45
287.813	3.5
288.19	3.32
288.567	3.52
288.945	4.27
289.322	3.8
289.699	3.63
290.076	3.96
290.453	3.77
290.83	3.44
291.207	3.47
291.584	3.63
291.961	3.88
292.338	3.87
292.715	3.86
293.092	4.16
293.469	3.83
293.845	4.4
294.222	3.43
294.599	4.01
294.975	4.35
295.352	3.7
295.728	3.47
296.105	3.91
296.481	3.83
296.858	4.16
297.234	4.39
297.61	3.54
297.986	4.53
298.363	4.29
298.739	4.47
299.115	4.09
299.491	4.14
299.867	4.39
300.243	4.24
300.619	3.84
300.995	4.36
301.371	5.07
301.746	4.04
302.122	4.84
302.498	4.81
302.874	4.15
303.249	4.64
303.625	3.93
304	4.61
304.376	4.66
304.751	3.72
305.127	5.33
305.502	4.13
305.878	3.94
306.253	4.8
306.628	5.73
307.003	4.28
307.378	4.84
307.754	4.33
308.129	4.04
308.504	4.96
308.879	4.72
309.254	5.32
309.629	5.36
310.003	5.01
310.378	5.29
310.753	4.98
311.128	4.54
311.502	5.01
311.877	5.23
312.252	4.66
312.626	4.85
313.001	4.8
313.375	5.23
313.75	4.72
314.124	4.84
314.498	5.36
314.873	4.91
315.247	5.08
315.621	5.22
315.995	4.53
316.369	5.37
316.743	4.93
317.117	5.63
317.491	5.2
317.865	5.14
318.239	4.88
318.613	5.17
318.987	5.5
319.361	4.55
319.734	5.61
320.108	5.12
320.482	5.56
320.855	6.06
321.229	5.59
321.602	5.3
321.976	6.03
322.349	5.78
322.723	5.76
323.096	5.66
323.469	5.2
323.843	5.92
324.216	6.51
324.589	5.17
324.962	5.95
325.335	5.62
325.708	5.26
326.081	5.66
326.454	6.09
326.827	5.23
327.2	6.4
327.573	6.34
327.945	6.32
328.318	5.71
328.691	5.77
329.063	5.91
329.436	5.81
329.809	6.97
330.181	5.98
330.553	5.85
330.926	6.37
331.298	6.32
331.671	6.01
332.043	6.16
332.415	6.68
332.787	6.83
333.159	7.24
333.532	6.48
333.904	6.03
334.276	6.62
334.648	7.23
335.02	6.29
335.391	6.34
335.763	6.56
336.135	6.37
336.507	7.02
336.879	6.81
337.25	6.22
337.622	6.39
337.993	6.56
338.365	7.04
338.736	7.17
339.108	6.45
339.479	6.58
339.851	6.88
340.222	6.79
340.593	6.7
340.964	6.66
341.336	7.13
341.707	6.63
342.078	7.17
342.449	7.1
342.82	6.85
343.191	7.1
343.562	6.86
343.933	7.59
344.303	7.2
344.674	7.17
345.045	7.15
345.416	7.35
345.786	6.85
346.157	7.16
346.527	6.75
346.898	7.27
347.268	7.96
347.639	7.11
348.009	7.3
348.38	6.91
348.75	7.55
349.12	7.11
349.49	7.84
349.861	7.33
350.231	7.38
350.601	7.44
350.971	7.8
351.341	7.23
351.711	7.46
352.081	7.57
352.45	7.55
352.82	7.42
353.19	7.32
353.56	7.11
353.929	7.78
354.299	7.09
354.669	7.49
355.038	7.98
355.408	7.77
355.777	7.77
356.147	8.11
356.516	8.07
356.885	7.75
357.254	8.02
357.624	8.24
357.993	7.99
358.362	7.65
358.731	7.73
359.1	8.09
359.469	7.89
359.838	8.34
360.207	7.59
360.576	7.97
360.945	8.14
361.314	8.58
361.682	8.04
362.051	8.27
362.42	8.63
362.788	8.22
363.157	8.38
363.525	8.66
363.894	8.53
364.262	8.25
364.631	8.5
364.999	8.72
365.367	8.25
365.735	9.14
366.104	8.7
366.472	8.7
366.84	8.31
367.208	8.5
367.576	8.98
367.944	8.55
368.312	8.53
368.68	8.5
369.048	8.93
369.416	8.8
369.783	8.92
370.151	9.42
370.519	9.31
370.886	9.2
371.254	8.8
371.621	8.94
371.989	9.19
372.356	8.79
372.724	9
373.091	8.96
373.458	8.9
373.826	9.06
374.193	8.87
374.56	9.22
374.927	9.45
375.294	9.15
375.661	9.5
376.028	9.24
376.395	9.27
376.762	9.53
377.129	9.29
377.496	9.57
377.863	9.54
378.229	8.99
378.596	9.59
378.963	9.27
379.329	9.19
379.696	9.78
380.062	9.9
380.429	9.61
380.795	9.55
381.161	9.41
381.528	9.5
381.894	9.68
382.26	9.28
382.626	9.99
382.993	9.35
383.359	9.88
383.725	9.48
384.091	9.58
384.457	9.72
384.823	9.9
385.188	9.92
385.554	9.77
385.92	9.87
386.286	10.23
386.651	10.07
387.017	9.98
387.383	10.02
387.748	10.32
388.114	10.49
388.479	10.05
388.845	10.33
389.21	10
389.575	10.14
389.94	9.94
390.306	10.39
390.671	10.57
391.036	10.04
391.401	10.07
391.766	9.87
392.131	10.08
392.496	10.34
392.861	10.24
393.226	10.35
393.591	10.39
393.956	10.23
394.32	10.45
394.685	10.26
395.05	10.43
395.414	10.63
395.779	10.48
396.143	10.7
396.508	10.38
396.872	10.61
397.236	10.57
397.601	10.26
397.965	10.33
398.329	10.53
398.694	10.85
399.058	10.61
399.422	10.21
399.786	10.66
400.15	10.8
400.514	10.71
400.878	11.02
401.242	11.13
401.605	10.61
401.969	10.9
402.333	10.82
402.697	10.9
403.06	10.81
403.424	11.02
403.787	10.61
404.151	11.07
404.514	10.91
404.878	10.99
405.241	11.15
405.604	11.13
405.968	11.16
406.331	11.22
406.694	11.34
407.057	11.02
407.42	11.25
407.783	11.04
408.146	11.01
408.509	11.08
408.872	10.82
409.235	11.06
409.598	11.38
409.961	11.33
410.323	11.11
410.686	11.51
411.049	11.31
411.411	11.2
411.774	11.45
412.136	11.47
412.499	11.28
412.861	11.42
413.223	11.45
413.586	11.45
413.948	11.46
414.31	11.67
414.672	11.56
415.035	11.32
415.397	11.74
415.759	11.6
416.121	11.9
416.483	11.6
416.845	11.64
417.206	11.61
417.568	11.77
417.93	11.46
418.292	11.67
418.653	11.69
419.015	11.82
419.377	11.86
419.738	11.96
420.1	11.93
420.461	11.79
420.822	11.7
421.184	11.62
421.545	11.74
421.906	11.63
422.267	11.79
422.629	11.89
422.99	11.61
423.351	11.52
423.712	11.57
424.073	11.82
424.434	11.7
424.795	11.8
425.155	11.87
425.516	11.74
425.877	11.77
426.238	11.9
426.598	11.89
426.959	11.92
427.32	11.91
427.68	11.9
428.041	12.04
428.401	12.15
428.761	12.23
429.122	12.17
429.482	11.96
429.842	12.32
430.202	12.12
430.563	12.44
430.923	12.29
431.283	12.59
431.643	12.31
432.003	12.38
432.363	12.64
432.722	12.34
433.082	12.49
433.442	12.4
433.802	12.36
434.161	12.72
434.521	12.78
434.881	12.63
435.24	12.63
435.6	12.77
435.959	12.45
436.319	12.61
436.678	12.72
437.037	12.82
437.396	12.77
437.756	12.77
438.115	12.67
438.474	12.9
438.833	12.75
439.192	12.7
439.551	12.93
439.91	12.83
440.269	12.91
440.628	12.93
440.987	12.93
441.345	12.88
441.704	12.96
442.063	12.94
442.421	12.91
442.78	12.89
443.138	12.83
443.497	13.11
443.855	12.88
444.214	12.89
444.572	13.05
444.93	13.11
445.288	13.24
445.647	13.27
446.005	13.1
446.363	13.29
446.721	13.48
447.079	13.1
447.437	13.32
447.795	13.26
448.153	13.18
448.51	13.21
448.868	13.28
449.226	13.2
449.584	13.27
449.941	13.42
450.299	13.35
450.656	13.38
451.014	13.5
451.371	13.41
451.729	13.48
452.086	13.74
452.443	13.77
452.801	13.61
453.158	13.8
453.515	13.66
453.872	13.85
454.229	13.7
454.586	13.88
454.943	13.86
455.3	13.86
455.657	13.6
456.014	13.81
456.371	13.93
456.727	13.96
457.084	14.05
457.441	14.06
457.797	13.85
458.154	14.29
458.51	14.05
458.867	14.21
459.223	14.12
459.58	14.2
459.936	14.21
460.292	14.27
460.648	14.19
461.005	14.05
461.361	14.28
461.717	14.19
462.073	14.08
462.429	13.98
462.785	14.13
463.141	14.23
463.496	14.24
463.852	14.29
464.208	14.47
464.564	14.66
464.919	14.59
465.275	14.52
465.631	14.73
465.986	14.52
466.342	14.79
466.697	14.72
467.052	14.56
467.408	14.74
467.763	14.6
468.118	14.97
468.473	14.78
468.829	14.92
469.184	14.73
469.539	14.87
469.894	14.66
470.249	15.04
470.603	15.05
470.958	15.09
471.313	15.09
471.668	15.25
472.023	15.12
472.377	15.19
472.732	14.95
473.086	15.05
473.441	14.9
473.795	15.21
474.15	15.14
474.504	15.46
474.859	15.45
475.213	15.17
475.567	15.2
475.921	15.34
476.275	15.43
476.63	15.56
476.984	15.39
477.338	15.57
477.692	15.33
478.045	15.59
478.399	15.49
478.753	15.44
479.107	15.7
479.461	15.55
479.814	15.47
480.168	15.51
480.521	15.48
480.875	15.62
481.228	15.65
481.582	15.72
481.935	15.5
482.289	15.72
482.642	15.8
482.995	15.66
483.348	15.67
483.701	15.76
484.055	15.84
484.408	15.77
484.761	15.65
485.114	15.55
485.466	15.37
485.819	15.26
486.172	15.19
486.525	15.24
486.878	15.25
487.23	15.21
487.583	15.55
487.936	15.61
488.288	15.67
488.641	15.89
488.993	15.73
489.345	15.65
489.698	15.52
490.05	15.55
490.402	15.68
490.754	15.78
491.107	15.8
491.459	15.9
491.811	16.1
492.163	16.09
492.515	16.21
492.866	16.29
493.218	16.24
493.57	16.07
493.922	15.96
494.274	16.07
494.625	16.16
494.977	16.29
495.328	16.47
495.68	16.46
496.031	16.75
496.383	16.64
496.734	16.93
497.086	16.76
497.437	16.98
497.788	17.03
498.139	16.82
498.49	17.11
498.842	16.91
499.193	16.86
499.544	17.02
499.894	17.03
500.245	17.02
500.596	17
500.947	17.16
501.298	17.02
501.648	17.38
501.999	17.3
502.35	17.36
502.7	17.33
503.051	17.37
503.401	17.33
503.752	17.52
504.102	17.35
504.452	17.68
504.803	17.54
505.153	17.61
505.503	17.61
505.853	17.68
506.203	17.76
506.553	17.6
506.903	17.7
507.253	17.68
507.603	17.74
507.953	17.68
508.303	17.9
508.652	17.81
509.002	18.05
509.352	18.01
509.701	18
510.051	17.93
510.4	17.99
510.75	17.95
511.099	18.03
511.449	17.93
511.798	17.94
512.147	18.17
512.496	18.07
512.846	18.16
513.195	18.14
513.544	18.27
513.893	18.26
514.242	18.25
514.591	18.44
514.939	18.46
515.288	18.35
515.637	18.38
515.986	18.55
516.334	18.47
516.683	18.68
517.032	18.53
517.38	18.59
517.729	18.65
518.077	18.6
518.426	18.71
518.774	18.73
519.122	18.66
519.47	18.73
519.819	18.64
520.167	18.87
520.515	18.7
520.863	18.69
521.211	18.8
521.559	18.83
521.907	18.82
522.255	18.77
522.602	19
522.95	19.08
523.298	19.17
523.645	19.14
523.993	19.29
524.341	19.41
524.688	19.46
525.036	19.28
525.383	19.38
525.73	19.63
526.078	19.51
526.425	19.34
526.772	19.59
527.119	19.43
527.466	19.31
527.814	19.28
528.161	19.29
528.508	19.36
528.854	19.5
529.201	19.32
529.548	19.42
529.895	19.4
530.242	19.16
530.588	19.14
530.935	19.18
531.282	19.16
531.628	19.08
531.975	19.23
532.321	19.45
532.667	19.51
533.014	19.66
533.36	19.75
533.706	19.86
534.052	19.93
534.399	19.87
534.745	19.87
535.091	19.96
535.437	19.83
535.783	19.69
536.129	19.86
536.474	19.85
536.82	20.18
537.166	20.06
537.512	20.43
537.857	20.43
538.203	20.5
538.549	20.4
538.894	20.32
539.239	20.27
539.585	20.49
539.93	20.46
540.276	20.7
540.621	20.76
540.966	20.82
541.311	20.84
541.656	20.93
542.001	20.98
542.346	20.98
542.691	20.73
543.036	20.66
543.381	20.57
543.726	20.58
544.071	20.6
544.415	20.61
544.76	20.78
545.105	20.81
545.449	20.99
545.794	21.07
546.138	21.1
546.483	21.3
546.827	21.39
547.171	21.41
547.516	21.7
547.86	21.52
548.204	21.58
548.548	21.47
548.892	21.69
549.236	21.55
549.58	21.63
549.924	21.64
550.268	21.7
550.612	21.81
550.956	22.07
551.3	22.01
551.643	21.93
551.987	22.15
552.33	22.24
552.674	22.34
553.017	22.34
553.361	22.28
553.704	22.32
554.048	22.37
554.391	22.5
554.734	22.48
555.077	22.37
555.42	22.22
555.764	22.42
556.107	22.47
556.45	22.37
556.793	22.58
557.135	22.72
557.478	22.77
557.821	22.93
558.164	22.89
558.507	22.75
558.849	22.85
559.192	23
559.534	23
559.877	23.03
560.219	23.1
560.562	23.53
560.904	23.1
561.246	23.13
561.589	23.25
561.931	23.1
562.273	23.15
562.615	23.31
562.957	23.43
563.299	23.29
563.641	23.23
563.983	23.32
564.325	23.49
564.667	23.7
565.008	23.78
565.35	23.58
565.692	23.74
566.033	23.67
566.375	23.75
566.716	23.98
567.058	23.86
567.399	23.65
567.741	23.78
568.082	23.79
568.423	24.03
568.764	23.81
569.105	24.01
569.447	23.78
569.788	23.99
570.129	23.91
570.47	24
570.811	24.2
571.151	24.3
571.492	24.42
571.833	24.24
572.174	24.27
572.514	24.24
572.855	24.49
573.195	24.58
573.536	24.35
573.876	24.42
574.217	24.46
574.557	24.53
574.898	24.47
575.238	24.81
575.578	24.65
575.918	24.89
576.258	24.81
576.598	24.74
576.938	24.74
577.278	24.83
577.618	25.01
577.958	25
578.298	25.02
578.638	24.96
578.977	24.86
579.317	25.1
579.657	25.32
579.996	25.46
580.336	25.5
580.675	25.58
581.014	25.61
581.354	25.45
581.693	25.71
582.032	25.42
582.372	25.59
582.711	26
583.05	25.6
583.389	25.87
583.728	25.62
584.067	26.2
584.406	25.96
584.745	25.8
585.083	26.23
585.422	26.18
585.761	25.92
586.1	25.9
586.438	26.24
586.777	26.42
587.115	26.59
587.454	26.11
587.792	26.48
588.13	26.4
588.469	26.35
588.807	26.3
589.145	26.06
589.483	26.38
589.821	26.28
590.159	26.56
590.497	26.65
590.835	27.02
591.173	26.8
591.511	26.9
591.849	26.76
592.187	26.7
592.524	27.05
592.862	26.97
593.2	27.14
593.537	26.85
593.875	27.13
594.212	26.99
594.55	27
594.887	27.06
595.224	27.28
595.561	27.22
595.899	27.63
596.236	27.25
596.573	27.43
596.91	26.92
597.247	27.19
597.584	27.71
597.921	27.39
598.258	27.26
598.594	27.38
598.931	27.67
599.268	27.58
599.604	27.28
599.941	27.79
600.277	27.63
600.614	27.75
600.95	27.57
601.287	27.97
601.623	27.6
601.959	27.95
602.296	28.25
602.632	27.63
602.968	28.17
603.304	28.27
603.64	28.23
603.976	28.6
604.312	28.24
604.648	28.17
604.984	28.45
605.319	28.56
605.655	28.43
605.991	28.3
606.326	28.49
606.662	28.47
606.998	28.33
607.333	28.4
607.668	28.42
608.004	28.67
608.339	28.52
608.674	28.88
609.01	28.83
609.345	28.65
609.68	29.02
610.015	28.66
610.35	28.45
610.685	28.79
611.02	29.05
611.355	29.18
611.689	28.89
612.024	29.05
612.359	28.99
612.694	28.74
613.028	29.03
613.363	29.36
613.697	29.49
614.032	29.44
614.366	29.23
614.7	29.41
615.035	29.26
615.369	29.7
615.703	29.62
616.037	29.36
616.371	29.22
616.705	29.81
617.039	29.84
617.373	29.67
617.707	29.67
618.041	30.09
618.375	30.08
618.709	30.27
619.042	29.95
619.376	30.24
619.71	30.56
620.043	30.17
620.377	30.57
620.71	30.31
621.043	30.28
621.377	30.09
621.71	30.61
622.043	30.16
622.376	30.27
622.709	30.19
623.043	30.61
623.376	30.92
623.709	30.51
624.041	30.75
624.374	30.66
624.707	30.57
625.04	31.11
625.373	30.43
625.705	31.02
626.038	30.49
626.37	31.19
626.703	30.72
627.035	30.96
627.368	31.3
627.7	30.86
628.032	30.9
628.365	31.32
628.697	31.16
629.029	30.73
629.361	30.86
629.693	31.39
630.025	30.94
630.357	31.23
630.689	31.45
631.021	31.61
631.353	31.53
631.684	31.38
632.016	31.48
632.348	31.28
632.679	31.83
633.011	31.7
633.342	31.79
633.674	32.02
634.005	32.1
634.336	32.21
634.668	32.23
634.999	31.61
635.33	31.96
635.661	31.93
635.992	32.23
636.323	32.11
636.654	32.28
636.985	32.18
637.316	32.45
637.647	32.04
637.977	32.47
638.308	32.34
638.639	31.51
638.969	32.41
639.3	32.71
639.63	32.3
639.961	32.58
640.291	32.44
640.622	32.97
640.952	32.16
641.282	33.22
641.612	32.31
641.943	33.16
642.273	32.85
642.603	33.27
642.933	32.92
643.263	32.92
643.592	32.76
643.922	32.56
644.252	33.01
644.582	32.95
644.911	32.76
645.241	33.16
645.571	33.1
645.9	33.24
646.23	33.13
646.559	33.68
646.888	32.68
647.218	33.15
647.547	33.77
647.876	33.33
648.205	33.74
648.534	33.29
648.863	33.63
649.192	33.48
649.521	32.98
649.85	32.89
650.179	33.94
650.508	33.61
650.837	33.46
651.165	33.34
651.494	33.45
651.822	34.37
652.151	34.64
652.479	34.13
652.808	33.69
653.136	34.22
653.465	33.66
653.793	33.39
654.121	34.18
654.449	34.07
654.777	34.13
655.105	34.15
655.433	33.94
655.761	34.43
656.089	34.66
656.417	34.77
656.745	34.32
657.073	34.31
657.4	35.06
657.728	34.71
658.056	33.96
658.383	34.45
658.711	35.34
659.038	34.25
659.365	35.1
659.693	35
660.02	34.77
660.347	35.02
660.674	35.28
661.001	35.24
661.329	34.44
661.656	34.74
661.982	35.02
662.309	34.47
662.636	34.93
662.963	35.54
663.29	35.69
663.616	35.32
663.943	35.26
664.27	35.12
664.596	35.8
664.923	35.84
665.249	35.5
665.576	34.99
665.902	35.8
666.228	35.54
666.554	35.64
666.881	35.47
667.207	36.29
667.533	35.51
667.859	36.37
668.185	36.53
668.511	35.75
668.837	35.09
669.162	35.8
669.488	35.64
669.814	35.64
670.139	36.08
670.465	36.32
670.791	36.57
671.116	36.59
671.442	35.59
671.767	36.5
672.092	36.4
672.418	36.78
672.743	37.15
673.068	36.11
673.393	36.86
