Data from 0207_forehead_Reflection__3__307.txt Node

Date: Fri Dec 15 19:30:38 CST 2023
User: ToomeyLab
Spectrometer: FLMS14357
Trigger mode: 0
Integration Time (sec): 1.000000E-2
Scans to average: 100
Electric dark correction enabled: true
Nonlinearity correction enabled: false
Boxcar width: 0
XAxis mode: Wavelengths
Number of Pixels in Spectrum: 2048
>>>>>Begin Spectral Data<<<<<
189.047	-24.22
189.435	-24.22
189.823	-24.22
190.211	90.43
190.599	-22.68
190.987	118.26
191.375	-1.44
191.763	-59.67
192.151	189.57
192.538	54.46
192.926	-1516.13
193.314	117.39
193.702	-114.86
194.089	25.94
194.477	113.01
194.864	-171.39
195.252	96.37
195.639	77.91
196.027	165.78
196.414	185.57
196.801	33.56
197.189	146.49
197.576	544.95
197.963	-372.21
198.351	-1.64
198.738	7.22
199.125	105.72
199.512	60.37
199.899	34.48
200.286	-5.62
200.673	-7.76
201.06	7.7
201.447	39.18
201.833	11.12
202.22	20.59
202.607	0.42
202.994	60.85
203.38	19.31
203.767	51
204.154	19.58
204.54	57.49
204.927	-35.55
205.313	82.96
205.699	38.64
206.086	57.4
206.472	45.9
206.858	57.01
207.245	-31.4
207.631	44.35
208.017	45.3
208.403	2.12
208.789	32.13
209.175	142.02
209.561	-18.56
209.947	12.91
210.333	-82.51
210.719	11.6
211.105	17.63
211.491	-18.53
211.876	43.36
212.262	35.01
212.648	15.69
213.034	32.09
213.419	12.01
213.805	-0.27
214.19	-37.42
214.576	30.88
214.961	-1.94
215.346	-33.39
215.732	42.19
216.117	15.51
216.502	-13.92
216.888	-3.24
217.273	50.59
217.658	-3.8
218.043	23.17
218.428	-40.71
218.813	-12.37
219.198	8.18
219.583	13.26
219.968	15.21
220.353	-35.26
220.738	41.69
221.122	18.72
221.507	-46.79
221.892	-32.05
222.276	-12.32
222.661	15.79
223.046	15.05
223.43	6.91
223.815	26.67
224.199	-3.56
224.583	9.74
224.968	1.26
225.352	15.64
225.736	6.44
226.121	4.44
226.505	8.7
226.889	5.87
227.273	1.87
227.657	10.79
228.041	6.89
228.425	0.6
228.809	11.07
229.193	5.78
229.577	2.26
229.961	4.97
230.344	3.88
230.728	5.15
231.112	5.57
231.495	4.62
231.879	4.83
232.263	5.18
232.646	4.44
233.03	7.74
233.413	3.34
233.797	2.76
234.18	2.58
234.563	3.91
234.946	4.99
235.33	4.5
235.713	6.77
236.096	4.8
236.479	5.66
236.862	3.87
237.245	7.48
237.628	4.06
238.011	7.05
238.394	6.89
238.777	5.15
239.16	2.93
239.543	5.6
239.925	5.7
240.308	6.7
240.691	7.77
241.073	5.33
241.456	4.32
241.838	3.82
242.221	4.25
242.603	5.98
242.986	4.95
243.368	4.71
243.75	5.13
244.133	4.72
244.515	5.05
244.897	5.05
245.279	4.77
245.661	4.91
246.043	4.28
246.425	3.88
246.807	6.53
247.189	5.58
247.571	5.36
247.953	5.31
248.335	4.94
248.717	4.91
249.098	4.58
249.48	4.48
249.862	4.39
250.243	4.57
250.625	5.04
251.006	5.21
251.388	4.38
251.769	4.29
252.151	5.26
252.532	5.09
252.913	5.68
253.295	3.86
253.676	4.56
254.057	4.99
254.438	4.67
254.819	4.82
255.2	3.81
255.581	4.38
255.962	4.73
256.343	4.78
256.724	5.43
257.105	4.69
257.486	4.99
257.867	5.29
258.247	5.17
258.628	4.16
259.009	4.07
259.389	4.96
259.77	4.56
260.15	4.25
260.531	4.04
260.911	5.28
261.292	4.44
261.672	4.77
262.052	4.62
262.432	4.85
262.813	4.95
263.193	4.84
263.573	4.07
263.953	4.58
264.333	5.4
264.713	5.1
265.093	4
265.473	5.14
265.853	4.36
266.233	5.01
266.612	3.37
266.992	3.35
267.372	5.56
267.752	4.74
268.131	3.97
268.511	5.29
268.89	4.79
269.27	4.69
269.649	4.17
270.029	4.43
270.408	5.69
270.787	4.67
271.167	5.58
271.546	5.3
271.925	4.01
272.304	4.45
272.683	5.07
273.062	4.22
273.441	5.25
273.82	4.33
274.199	4.43
274.578	4.61
274.957	4.27
275.336	4.75
275.715	4.05
276.093	4.67
276.472	4.77
276.851	4.23
277.229	4.18
277.608	4.73
277.986	4.5
278.365	4.78
278.743	4.69
279.122	4.68
279.5	4.74
279.878	4.95
280.257	4.18
280.635	4.31
281.013	4.49
281.391	4.63
281.769	4.48
282.147	4.9
282.525	5.42
282.903	4.68
283.281	4.91
283.659	4.81
284.037	4.92
284.415	4.68
284.792	5.28
285.17	3.83
285.548	4.31
285.925	4.54
286.303	4.81
286.68	4.32
287.058	4.6
287.435	4.76
287.813	4.9
288.19	4.61
288.567	4.41
288.945	5.15
289.322	4.83
289.699	4.6
290.076	4.51
290.453	4.72
290.83	4.85
291.207	4.64
291.584	5.53
291.961	5.21
292.338	4.96
292.715	5.66
293.092	5
293.469	4.98
293.845	4.89
294.222	5.17
294.599	5.08
294.975	5.12
295.352	5.56
295.728	4.55
296.105	5.21
296.481	5.04
296.858	5.13
297.234	5.49
297.61	5.27
297.986	5.07
298.363	5.45
298.739	5.33
299.115	4.98
299.491	5.14
299.867	5.44
300.243	5.15
300.619	4.33
300.995	4.94
301.371	5.66
301.746	5.27
302.122	5.94
302.498	5.52
302.874	5.58
303.249	5.43
303.625	5.98
304	5.53
304.376	6.01
304.751	5.41
305.127	6.29
305.502	5.3
305.878	5.22
306.253	5.32
306.628	6.21
307.003	6.16
307.378	5.89
307.754	6.36
308.129	5.23
308.504	5.96
308.879	5.89
309.254	6.43
309.629	6.64
310.003	5.66
310.378	6.84
310.753	6.67
311.128	6.3
311.502	5.99
311.877	6.23
312.252	6.04
312.626	6.32
313.001	5.74
313.375	6.56
313.75	6.09
314.124	6.15
314.498	6.47
314.873	6.32
315.247	6.35
315.621	6.03
315.995	6.13
316.369	6.67
316.743	6.53
317.117	6.57
317.491	6.3
317.865	6.37
318.239	6.62
318.613	7.31
318.987	6.9
319.361	6.73
319.734	6.66
320.108	7.13
320.482	7.1
320.855	7.39
321.229	7.17
321.602	6.73
321.976	7.05
322.349	6.72
322.723	7.19
323.096	8.09
323.469	6.24
323.843	6.87
324.216	7.69
324.589	7
324.962	7.23
325.335	6.99
325.708	7.6
326.081	7.09
326.454	7.34
326.827	7.31
327.2	7.24
327.573	8.2
327.945	7.4
328.318	7.09
328.691	6.96
329.063	7.66
329.436	7.15
329.809	7.96
330.181	7.38
330.553	7.42
330.926	7.41
331.298	7.79
331.671	6.98
332.043	8.26
332.415	7.71
332.787	7.68
333.159	8.46
333.532	8.23
333.904	8.07
334.276	7.49
334.648	8.47
335.02	7.43
335.391	7.74
335.763	7.37
336.135	7.98
336.507	8.42
336.879	7.88
337.25	7.94
337.622	8.16
337.993	7.76
338.365	8.2
338.736	7.96
339.108	7.69
339.479	7.79
339.851	8.44
340.222	8.68
340.593	8.2
340.964	8.5
341.336	8.64
341.707	7.89
342.078	8.29
342.449	8.5
342.82	8.46
343.191	8.1
343.562	8.59
343.933	8.47
344.303	8.63
344.674	8.9
345.045	9.1
345.416	8.82
345.786	8.35
346.157	8.49
346.527	8.53
346.898	8.49
347.268	8.87
347.639	8.72
348.009	8.66
348.38	8.4
348.75	8.92
349.12	8.47
349.49	9.02
349.861	9.08
350.231	8.52
350.601	9.33
350.971	9.1
351.341	8.9
351.711	8.87
352.081	8.65
352.45	8.7
352.82	9.54
353.19	8.75
353.56	9.07
353.929	9.27
354.299	8.76
354.669	9.2
355.038	9.39
355.408	9.14
355.777	9.45
356.147	8.94
356.516	9.7
356.885	9.44
357.254	9.34
357.624	9.67
357.993	9.52
358.362	9.11
358.731	9.17
359.1	9.33
359.469	9.66
359.838	9.8
360.207	9.45
360.576	9.4
360.945	9.52
361.314	10.21
361.682	9.78
362.051	9.34
362.42	9.81
362.788	9.99
363.157	9.86
363.525	10.25
363.894	9.86
364.262	9.91
364.631	9.78
364.999	10.26
365.367	9.54
365.735	10.53
366.104	9.94
366.472	10.29
366.84	10.2
367.208	10.24
367.576	10.24
367.944	10.28
368.312	10.01
368.68	10.21
369.048	10.69
369.416	10.21
369.783	10.05
370.151	10.55
370.519	10.51
370.886	10.93
371.254	10.55
371.621	10.45
371.989	10.82
372.356	10.27
372.724	10.91
373.091	10.72
373.458	10.77
373.826	10.6
374.193	10.63
374.56	11.02
374.927	10.94
375.294	10.59
375.661	10.33
376.028	10.64
376.395	10.86
376.762	11.17
377.129	11.05
377.496	11.05
377.863	10.85
378.229	10.64
378.596	11.17
378.963	10.94
379.329	10.89
379.696	11.2
380.062	11.38
380.429	11.05
380.795	11.22
381.161	11.14
381.528	11.5
381.894	11.22
382.26	11.27
382.626	11.61
382.993	11.15
383.359	11.35
383.725	11.27
384.091	11.24
384.457	11.45
384.823	11.53
385.188	11.45
385.554	11.82
385.92	11.8
386.286	11.52
386.651	11.95
387.017	11.83
387.383	11.89
387.748	11.59
388.114	12.18
388.479	11.68
388.845	11.97
389.21	11.76
389.575	11.72
389.94	12.31
390.306	11.88
390.671	12.03
391.036	11.57
391.401	11.85
391.766	11.93
392.131	11.93
392.496	12.12
392.861	12.18
393.226	12.31
393.591	12.24
393.956	12.28
394.32	12.47
394.685	11.97
395.05	12.23
395.414	12.36
395.779	12.11
396.143	12.13
396.508	12.47
396.872	12.69
397.236	12.33
397.601	12.54
397.965	12.81
398.329	12.47
398.694	12.41
399.058	12.71
399.422	12.59
399.786	12.83
400.15	12.9
400.514	12.82
400.878	12.66
401.242	12.83
401.605	12.99
401.969	12.84
402.333	13
402.697	12.65
403.06	12.67
403.424	12.96
403.787	12.77
404.151	13.28
404.514	13.08
404.878	12.96
405.241	13.11
405.604	13.09
405.968	12.98
406.331	13.11
406.694	13.23
407.057	13.2
407.42	13.21
407.783	13.04
408.146	13.37
408.509	13.64
408.872	13.23
409.235	13.51
409.598	13.66
409.961	13.29
410.323	13.44
410.686	13.5
411.049	13.55
411.411	13.34
411.774	13.45
412.136	13.62
412.499	13.65
412.861	13.6
413.223	13.5
413.586	13.71
413.948	13.78
414.31	13.71
414.672	13.39
415.035	13.81
415.397	14.06
415.759	13.69
416.121	13.75
416.483	13.92
416.845	14.02
417.206	13.97
417.568	13.9
417.93	13.6
418.292	14.01
418.653	14.05
419.015	14.2
419.377	14.11
419.738	14.12
420.1	14.07
420.461	14.15
420.822	14.16
421.184	14.12
421.545	14.16
421.906	14.19
422.267	14.09
422.629	14.11
422.99	14.12
423.351	14.01
423.712	14.1
424.073	14.25
424.434	14.21
424.795	14.32
425.155	14.38
425.516	14.27
425.877	14.3
426.238	14.36
426.598	14.41
426.959	14.35
427.32	14.5
427.68	14.51
428.041	14.54
428.401	14.79
428.761	14.69
429.122	14.65
429.482	14.76
429.842	15.07
430.202	14.99
430.563	15.07
430.923	14.91
431.283	15.09
431.643	14.87
432.003	14.98
432.363	15.12
432.722	15.33
433.082	15.3
433.442	15.09
433.802	15.11
434.161	15.18
434.521	15.49
434.881	15.44
435.24	15.22
435.6	15.37
435.959	15.31
436.319	15.35
436.678	15.37
437.037	15.22
437.396	15.66
437.756	15.65
438.115	15.5
438.474	15.77
438.833	15.47
439.192	15.61
439.551	15.82
439.91	15.79
440.269	15.89
440.628	15.63
440.987	15.76
441.345	15.62
441.704	15.79
442.063	15.77
442.421	15.75
442.78	15.88
443.138	15.75
443.497	15.93
443.855	15.9
444.214	16.1
444.572	16.01
444.93	16.11
445.288	16.28
445.647	16.17
446.005	16.07
446.363	16.25
446.721	16.32
447.079	16.23
447.437	16.15
447.795	16.3
448.153	16.24
448.51	16.33
448.868	16.29
449.226	16.26
449.584	16.42
449.941	16.51
450.299	16.53
450.656	16.53
451.014	16.52
451.371	16.66
451.729	16.63
452.086	16.84
452.443	16.61
452.801	17.02
453.158	16.98
453.515	16.87
453.872	16.95
454.229	16.82
454.586	16.8
454.943	17.01
455.3	17.13
455.657	16.98
456.014	16.99
456.371	17.24
456.727	17.19
457.084	17.46
457.441	17.21
457.797	17.48
458.154	17.65
458.51	17.57
458.867	17.47
459.223	17.58
459.58	17.39
459.936	17.57
460.292	17.68
460.648	17.6
461.005	17.47
461.361	17.58
461.717	17.69
462.073	17.52
462.429	17.47
462.785	17.59
463.141	17.53
463.496	17.77
463.852	17.9
464.208	17.99
464.564	18.09
464.919	18.08
465.275	18.28
465.631	18.33
465.986	18.28
466.342	17.98
466.697	18.24
467.052	18.19
467.408	18.25
467.763	18.31
468.118	18.39
468.473	18.44
468.829	18.58
469.184	18.33
469.539	18.21
469.894	18.25
470.249	18.61
470.603	18.47
470.958	18.48
471.313	18.84
471.668	18.94
472.023	18.72
472.377	18.97
472.732	18.88
473.086	18.8
473.441	18.71
473.795	18.94
474.15	19.33
474.504	18.97
474.859	18.93
475.213	18.9
475.567	18.98
475.921	19.19
476.275	19.2
476.63	19.26
476.984	19.35
477.338	19.3
477.692	19.18
478.045	19.42
478.399	19.32
478.753	19.42
479.107	19.42
479.461	19.51
479.814	19.51
480.168	19.52
480.521	19.59
480.875	19.43
481.228	19.69
481.582	19.65
481.935	19.8
482.289	19.85
482.642	19.81
482.995	19.65
483.348	19.62
483.701	19.86
484.055	19.79
484.408	19.84
484.761	19.68
485.114	19.59
485.466	19.29
485.819	19.28
486.172	19.24
486.525	19.2
486.878	19.26
487.23	19.34
487.583	19.55
487.936	19.76
488.288	19.85
488.641	19.97
488.993	19.78
489.345	19.76
489.698	19.7
490.05	19.7
490.402	19.76
490.754	19.94
491.107	20.01
491.459	20.24
491.811	20.3
492.163	20.5
492.515	20.54
492.866	20.46
493.218	20.48
493.57	20.36
493.922	20.25
494.274	20.32
494.625	20.45
494.977	20.56
495.328	20.85
495.68	20.99
496.031	21.18
496.383	21.2
496.734	21.29
497.086	21.24
497.437	21.35
497.788	21.4
498.139	21.48
498.49	21.56
498.842	21.28
499.193	21.42
499.544	21.47
499.894	21.61
500.245	21.54
500.596	21.56
500.947	21.68
501.298	21.67
501.648	22.02
501.999	22.06
502.35	21.97
502.7	21.96
503.051	22.07
503.401	22.04
503.752	22.17
504.102	22.14
504.452	22.4
504.803	22.23
505.153	22.23
505.503	22.49
505.853	22.52
506.203	22.26
506.553	22.51
506.903	22.57
507.253	22.6
507.603	22.59
507.953	22.6
508.303	22.87
508.652	22.6
509.002	22.77
509.352	22.9
509.701	22.73
510.051	22.63
510.4	22.78
510.75	22.82
511.099	22.8
511.449	22.84
511.798	22.93
512.147	23.05
512.496	22.97
512.846	23.05
513.195	22.9
513.544	23.17
513.893	23.22
514.242	23.14
514.591	23.27
514.939	23.42
515.288	23.3
515.637	23.57
515.986	23.69
516.334	23.68
516.683	23.8
517.032	23.7
517.38	23.75
517.729	23.83
518.077	23.56
518.426	23.81
518.774	24.06
519.122	23.92
519.47	23.93
519.819	23.78
520.167	23.94
520.515	23.93
520.863	23.94
521.211	24
521.559	24.07
521.907	24.11
522.255	24.05
522.602	24.12
522.95	24.45
523.298	24.58
523.645	24.58
523.993	24.67
524.341	24.83
524.688	24.86
525.036	24.75
525.383	24.76
525.73	25.05
526.078	24.71
526.425	24.97
526.772	24.98
527.119	24.9
527.466	24.7
527.814	24.71
528.161	24.82
528.508	24.98
528.854	24.9
529.201	24.98
529.548	24.85
529.895	24.86
530.242	24.71
530.588	24.6
530.935	24.7
531.282	24.62
531.628	24.51
531.975	24.81
532.321	24.98
532.667	25.07
533.014	25.28
533.36	25.43
533.706	25.57
534.052	25.6
534.399	25.56
534.745	25.55
535.091	25.53
535.437	25.49
535.783	25.43
536.129	25.54
536.474	25.56
536.82	25.74
537.166	26.03
537.512	26.21
537.857	26.15
538.203	26.23
538.549	26.13
538.894	26.23
539.239	26.11
539.585	26.3
539.93	26.3
540.276	26.56
540.621	26.5
540.966	26.77
541.311	26.69
541.656	26.72
542.001	27.08
542.346	26.99
542.691	26.86
543.036	26.58
543.381	26.43
543.726	26.39
544.071	26.52
544.415	26.55
544.76	26.63
545.105	26.85
545.449	26.97
545.794	27.09
546.138	27.27
546.483	27.24
546.827	27.46
547.171	27.45
547.516	27.59
547.86	27.4
548.204	27.63
548.548	27.65
548.892	27.73
549.236	27.72
549.58	27.89
549.924	27.79
550.268	27.99
550.612	28
550.956	28.34
551.3	28.2
551.643	28.4
551.987	28.76
552.33	28.6
552.674	28.68
553.017	28.68
553.361	28.76
553.704	28.85
554.048	29.01
554.391	28.82
554.734	28.92
555.077	28.9
555.42	28.83
555.764	28.78
556.107	28.87
556.45	28.83
556.793	29.02
557.135	28.98
557.478	29.26
557.821	29.41
558.164	29.29
558.507	29.42
558.849	29.34
559.192	29.73
559.534	29.58
559.877	29.65
560.219	29.77
560.562	30.06
560.904	29.93
561.246	30.06
561.589	29.79
561.931	30.04
562.273	29.94
562.615	30.02
562.957	30.22
563.299	30.04
563.641	30.23
563.983	30.1
564.325	30.27
564.667	30.21
565.008	30.57
565.35	30.54
565.692	30.45
566.033	30.39
566.375	30.61
566.716	30.78
567.058	30.65
567.399	30.65
567.741	30.55
568.082	30.94
568.423	30.7
568.764	31.06
569.105	30.91
569.447	31
569.788	30.93
570.129	31.22
570.47	30.91
570.811	31.34
571.151	31.52
571.492	31.56
571.833	31.24
572.174	31.52
572.514	31.66
572.855	31.53
573.195	31.4
573.536	31.7
573.876	31.5
574.217	31.52
574.557	31.99
574.898	31.8
575.238	31.94
575.578	31.73
575.918	31.86
576.258	32.16
576.598	32.08
576.938	32.1
577.278	32.1
577.618	32.4
577.958	32.24
578.298	32.36
578.638	32.35
578.977	32.55
579.317	32.58
579.657	32.76
579.996	32.66
580.336	32.62
580.675	32.54
581.014	32.9
581.354	32.79
581.693	33.06
582.032	32.98
582.372	33.34
582.711	33
583.05	33.24
583.389	33.2
583.728	33.14
584.067	33.73
584.406	33.29
584.745	33.49
585.083	33.62
585.422	33.93
585.761	33.97
586.1	34.03
586.438	33.94
586.777	34
587.115	34.11
587.454	33.8
587.792	33.91
588.13	34.24
588.469	33.96
588.807	34
589.145	34.3
589.483	34
589.821	34.49
590.159	34.23
590.497	34.38
590.835	34.84
591.173	34.63
591.511	34.57
591.849	34.55
592.187	34.76
592.524	34.73
592.862	34.6
593.2	34.86
593.537	34.74
593.875	34.81
594.212	34.77
594.55	34.9
594.887	35.05
595.224	35.25
595.561	34.94
595.899	35.36
596.236	35.25
596.573	35.4
596.91	35.2
597.247	35.28
597.584	35.42
597.921	35.14
598.258	35.52
598.594	35.43
598.931	35.73
599.268	35.4
599.604	35.49
599.941	35.57
600.277	35.7
600.614	35.78
600.95	36.19
601.287	36.25
601.623	36.19
601.959	36.3
602.296	36.15
602.632	36.4
602.968	36.34
603.304	36.54
603.64	36.31
603.976	36.66
604.312	36.59
604.648	36.76
604.984	36.57
605.319	36.93
605.655	36.5
605.991	36.7
606.326	36.77
606.662	36.74
606.998	36.75
607.333	36.78
607.668	36.92
608.004	36.92
608.339	37.1
608.674	37.29
609.01	37.31
609.345	37.52
609.68	37.22
610.015	37.32
610.35	37.32
610.685	37.74
611.02	37.55
611.355	37.78
611.689	37.73
612.024	37.9
612.359	37.61
612.694	37.55
613.028	37.77
613.363	38.15
613.697	38.11
614.032	38.32
614.366	38.07
614.7	38
615.035	38.56
615.369	38
615.703	38.39
616.037	38.44
616.371	38.82
616.705	38.74
617.039	38.71
617.373	38.39
617.707	38.26
618.041	38.94
618.375	39.26
618.709	38.79
619.042	38.59
619.376	39.09
619.71	39.3
620.043	38.83
620.377	39.19
620.71	39.24
621.043	39.25
621.377	39.28
621.71	39.22
622.043	38.81
622.376	39.56
622.709	39.16
623.043	39.73
623.376	39.69
623.709	39.35
624.041	40.28
624.374	39.42
624.707	40.07
625.04	39.89
625.373	39.73
625.705	40.19
626.038	39.9
626.37	40.09
626.703	39.45
627.035	40.32
627.368	40.4
627.7	40.25
628.032	40.31
628.365	40.35
628.697	40.65
629.029	40.56
629.361	40.53
629.693	41.15
630.025	40.79
630.357	40.91
630.689	40.95
631.021	40.72
631.353	40.77
631.684	40.75
632.016	41.1
632.348	41.09
632.679	41.1
633.011	41.2
633.342	41.29
633.674	41.39
634.005	41.76
634.336	41.42
634.668	41.53
634.999	41.42
635.33	41.86
635.661	42.18
635.992	41.75
636.323	41.78
636.654	42.2
636.985	41.88
637.316	41.79
637.647	41.78
637.977	42.12
638.308	41.94
638.639	41.9
638.969	42.23
639.3	41.94
639.63	42.52
639.961	42.21
640.291	42.27
640.622	42.79
640.952	41.93
641.282	42.54
641.612	42.2
641.943	42.41
642.273	42.38
642.603	43.01
642.933	43.02
643.263	42.63
643.592	42.88
643.922	42.37
644.252	43.4
644.582	42.46
644.911	42.6
645.241	42.54
645.571	43.21
645.9	43.26
646.23	43.26
646.559	43.91
646.888	43.54
647.218	43.68
647.547	43.89
647.876	43.63
648.205	43.81
648.534	43.7
648.863	43.4
649.192	43.65
649.521	43.2
649.85	43.33
650.179	43.86
650.508	43.61
650.837	43.31
651.165	44.24
651.494	44.1
651.822	44.5
652.151	43.88
652.479	44.31
652.808	44.06
653.136	44.44
653.465	44.03
653.793	44.52
654.121	44.37
654.449	45.08
654.777	44.82
655.105	44.76
655.433	44.54
655.761	44.66
656.089	44.65
656.417	45.1
656.745	44.74
657.073	45.03
657.4	45.03
657.728	45.79
658.056	44.94
658.383	44.93
658.711	45.21
659.038	45
659.365	45.31
659.693	45.16
660.02	45.14
660.347	45.65
660.674	46.18
661.001	45.94
661.329	45.08
661.656	45.92
661.982	46.02
662.309	45.84
662.636	45.7
662.963	46.36
663.29	46.31
663.616	45.39
663.943	45.61
664.27	45.94
664.596	46.57
664.923	46.22
665.249	46.41
665.576	45.71
665.902	46.25
666.228	46.2
666.554	46.42
666.881	46.48
667.207	46.54
667.533	47.18
667.859	46.47
668.185	46.27
668.511	46.57
668.837	46.21
669.162	46.56
669.488	46.7
669.814	47.42
670.139	46.64
670.465	46.97
670.791	46.92
671.116	47.26
671.442	46.61
671.767	47.39
672.092	47.64
672.418	47.08
