Data from 0207_crown_Reflection__2__301.txt Node

Date: Fri Dec 15 19:29:22 CST 2023
User: ToomeyLab
Spectrometer: FLMS14357
Trigger mode: 0
Integration Time (sec): 1.000000E-2
Scans to average: 100
Electric dark correction enabled: true
Nonlinearity correction enabled: false
Boxcar width: 0
XAxis mode: Wavelengths
Number of Pixels in Spectrum: 2048
>>>>>Begin Spectral Data<<<<<
189.047	13.74
189.435	13.74
189.823	13.74
190.211	21.62
190.599	25.65
190.987	57.7
191.375	143.12
191.763	205.15
192.151	188.09
192.538	74.59
192.926	1062.9
193.314	7.14
193.702	-131
194.089	-129.15
194.477	29.13
194.864	57.43
195.252	117.72
195.639	44.49
196.027	91.94
196.414	168.59
196.801	105.23
197.189	326.27
197.576	464.19
197.963	-333.17
198.351	-70.94
198.738	-71.11
199.125	22.82
199.512	-14.56
199.899	-6.57
200.286	4.17
200.673	-11.67
201.06	-110.88
201.447	-92.42
201.833	-5.35
202.22	13.88
202.607	14.98
202.994	-71.23
203.38	-6.1
203.767	-2.38
204.154	-4.16
204.54	43.09
204.927	-75.64
205.313	-60.83
205.699	37.16
206.086	25.46
206.472	31.27
206.858	-3.06
207.245	-21.39
207.631	-7.44
208.017	12.13
208.403	-10.2
208.789	-5.58
209.175	-17.15
209.561	-43.31
209.947	-4.04
210.333	-101.4
210.719	1.39
211.105	47.76
211.491	-59.65
211.876	-26.29
212.262	0.45
212.648	2.86
213.034	-3.83
213.419	-33.75
213.805	-19.63
214.19	-82.6
214.576	-25.77
214.961	-28.54
215.346	-32.58
215.732	-25.6
216.117	-8.6
216.502	-32.49
216.888	-11.03
217.273	26.84
217.658	-13.01
218.043	28.24
218.428	-63.85
218.813	-37.3
219.198	-13.99
219.583	-25.42
219.968	2.46
220.353	-9.02
220.738	-3.4
221.122	9.73
221.507	-45.17
221.892	-55.47
222.276	-21.46
222.661	4.93
223.046	0.36
223.43	5.37
223.815	-10.76
224.199	-6.71
224.583	-3.11
224.968	5.15
225.352	8.11
225.736	2.51
226.121	-23.98
226.505	-0.09
226.889	4
227.273	-2.17
227.657	9.19
228.041	2.04
228.425	3.66
228.809	1.44
229.193	6.5
229.577	5.7
229.961	5.6
230.344	5.31
230.728	4.92
231.112	6.5
231.495	5.79
231.879	4.06
232.263	5.1
232.646	5.77
233.03	6.18
233.413	5.08
233.797	6.06
234.18	5.02
234.563	4.6
234.946	4.39
235.33	5.45
235.713	5.54
236.096	4.2
236.479	4.94
236.862	3.92
237.245	6.99
237.628	4.45
238.011	5.65
238.394	7.43
238.777	5.67
239.16	3.97
239.543	3.59
239.925	6.01
240.308	6.41
240.691	8.84
241.073	5.53
241.456	4.56
241.838	4.08
242.221	5.35
242.603	5.19
242.986	6.34
243.368	5.42
243.75	5.86
244.133	5.76
244.515	6.26
244.897	6.05
245.279	5.8
245.661	5.33
246.043	4.31
246.425	4.46
246.807	6.56
247.189	4.21
247.571	6.03
247.953	5.29
248.335	5.88
248.717	5.89
249.098	5.56
249.48	5.77
249.862	5.55
250.243	5.81
250.625	5.79
251.006	5.85
251.388	3.5
251.769	5.66
252.151	6.39
252.532	5.64
252.913	4.15
253.295	5.02
253.676	5.84
254.057	5.88
254.438	5
254.819	4.63
255.2	5.04
255.581	5.34
255.962	3.15
256.343	6.01
256.724	5.21
257.105	4.42
257.486	4.95
257.867	5.83
258.247	5.44
258.628	6.18
259.009	5.26
259.389	4.81
259.77	4.97
260.15	4.03
260.531	4.54
260.911	5.62
261.292	5.32
261.672	5.55
262.052	5.57
262.432	5.51
262.813	5.47
263.193	5.67
263.573	5.24
263.953	5.11
264.333	6.05
264.713	5.36
265.093	4.95
265.473	5.66
265.853	4.66
266.233	4.25
266.612	3.35
266.992	4.27
267.372	5.94
267.752	4.65
268.131	4.7
268.511	5.63
268.89	5.57
269.27	4.94
269.649	4.66
270.029	4.82
270.408	6.21
270.787	5.26
271.167	5.43
271.546	5.38
271.925	4.44
272.304	5.04
272.683	5.24
273.062	5.19
273.441	5.27
273.82	4.7
274.199	5.43
274.578	5.2
274.957	4.92
275.336	4.7
275.715	4.35
276.093	4.84
276.472	4.97
276.851	5.17
277.229	4.5
277.608	4.18
277.986	5.34
278.365	4.86
278.743	4.26
279.122	4.76
279.5	5.1
279.878	5.24
280.257	4.95
280.635	4.04
281.013	5.02
281.391	4.93
281.769	5.2
282.147	4.83
282.525	4.98
282.903	4.81
283.281	4.54
283.659	5.45
284.037	4.79
284.415	5.84
284.792	4.94
285.17	3.95
285.548	4.36
285.925	4.31
286.303	4.62
286.68	4.32
287.058	4.97
287.435	4.52
287.813	4.66
288.19	4.56
288.567	4.54
288.945	4.77
289.322	4.31
289.699	3.96
290.076	4.48
290.453	4.92
290.83	4.7
291.207	5.02
291.584	4.8
291.961	4.3
292.338	4.62
292.715	4.81
293.092	4.52
293.469	4.74
293.845	4.71
294.222	4.56
294.599	4.9
294.975	4.2
295.352	4.51
295.728	3.98
296.105	4.63
296.481	4.85
296.858	4.33
297.234	4.59
297.61	3.99
297.986	4.73
298.363	4.94
298.739	4.88
299.115	4.41
299.491	4.23
299.867	4.89
300.243	4.73
300.619	4.28
300.995	4.12
301.371	5.23
301.746	4.36
302.122	5.46
302.498	4.59
302.874	4.59
303.249	4.62
303.625	4.44
304	4.63
304.376	4.68
304.751	3.94
305.127	4.82
305.502	3.88
305.878	4.28
306.253	4.47
306.628	5.01
307.003	4.4
307.378	5.06
307.754	4.29
308.129	4.05
308.504	4.21
308.879	4.36
309.254	4.36
309.629	4.75
310.003	4.28
310.378	4.97
310.753	4.95
311.128	4.51
311.502	4.07
311.877	5.01
312.252	4.15
312.626	4.17
313.001	4.06
313.375	4.75
313.75	3.96
314.124	4.47
314.498	4.11
314.873	4.34
315.247	3.92
315.621	4.17
315.995	3.77
316.369	3.72
316.743	4.39
317.117	4.73
317.491	4.04
317.865	3.62
318.239	4.47
318.613	4.42
318.987	4.6
319.361	3.83
319.734	4.65
320.108	4.56
320.482	4.22
320.855	4.76
321.229	4.1
321.602	3.99
321.976	4.74
322.349	4.32
322.723	3.85
323.096	4.67
323.469	3.41
323.843	3.6
324.216	4.19
324.589	3.79
324.962	3.81
325.335	4.02
325.708	4.17
326.081	4.08
326.454	4.32
326.827	4.4
327.2	4.23
327.573	4.24
327.945	4.28
328.318	3.76
328.691	4.25
329.063	4.07
329.436	4.38
329.809	4.21
330.181	4.02
330.553	4.08
330.926	4.5
331.298	4.12
331.671	3.51
332.043	4.51
332.415	4
332.787	4.64
333.159	4.82
333.532	4.31
333.904	4.19
334.276	4.14
334.648	4.18
335.02	3.77
335.391	4
335.763	3.92
336.135	3.93
336.507	4.76
336.879	3.99
337.25	4.69
337.622	4.12
337.993	4.31
338.365	5.1
338.736	4.41
339.108	4.27
339.479	4.22
339.851	4.12
340.222	3.98
340.593	4.17
340.964	4.37
341.336	4.54
341.707	3.63
342.078	4.81
342.449	4.49
342.82	4.17
343.191	3.99
343.562	3.78
343.933	4
344.303	4.03
344.674	4.23
345.045	4.3
345.416	5
345.786	3.67
346.157	4.35
346.527	3.73
346.898	4.02
347.268	4.4
347.639	3.93
348.009	4.21
348.38	4.13
348.75	4.32
349.12	3.85
349.49	4.45
349.861	4.43
350.231	4.1
350.601	4.23
350.971	4.4
351.341	4.45
351.711	4.38
352.081	4.38
352.45	3.9
352.82	4.5
353.19	4.32
353.56	3.85
353.929	4.17
354.299	3.81
354.669	3.74
355.038	4.47
355.408	3.72
355.777	4.55
356.147	4.24
356.516	4.5
356.885	4.37
357.254	4.36
357.624	4.49
357.993	4.34
358.362	4.11
358.731	3.92
359.1	4.21
359.469	4.38
359.838	4.47
360.207	4.3
360.576	3.97
360.945	4.2
361.314	4.83
361.682	4.34
362.051	4.4
362.42	4.15
362.788	4.11
363.157	4.3
363.525	4.79
363.894	4.57
364.262	4.49
364.631	4.53
364.999	4.62
365.367	4.23
365.735	4.81
366.104	4.26
366.472	4.29
366.84	4.07
367.208	4.29
367.576	4.53
367.944	4.79
368.312	4.29
368.68	4.21
369.048	4.78
369.416	4.82
369.783	4.47
370.151	4.48
370.519	5.05
370.886	4.66
371.254	3.93
371.621	4.65
371.989	5.04
372.356	3.99
372.724	4.61
373.091	4.32
373.458	4.66
373.826	4.63
374.193	4.36
374.56	4.43
374.927	4.6
375.294	4.48
375.661	4.44
376.028	4.52
376.395	4.64
376.762	4.54
377.129	4.87
377.496	4.71
377.863	4.59
378.229	4.15
378.596	4.92
378.963	4.63
379.329	4.56
379.696	4.71
380.062	4.58
380.429	4.62
380.795	4.41
381.161	4.34
381.528	5.07
381.894	4.52
382.26	4.33
382.626	4.67
382.993	4.52
383.359	4.87
383.725	4.65
384.091	4.61
384.457	4.97
384.823	4.83
385.188	5.13
385.554	4.66
385.92	5
386.286	4.69
386.651	5.32
387.017	5.18
387.383	4.73
387.748	4.41
388.114	4.95
388.479	4.55
388.845	5.11
389.21	5.1
389.575	4.84
389.94	4.94
390.306	4.73
390.671	5.25
391.036	4.41
391.401	4.51
391.766	4.84
392.131	4.86
392.496	4.84
392.861	4.56
393.226	4.92
393.591	4.94
393.956	4.75
394.32	4.92
394.685	4.8
395.05	4.58
395.414	4.9
395.779	4.6
396.143	5.05
396.508	5.09
396.872	4.99
397.236	4.95
397.601	4.8
397.965	5.03
398.329	4.92
398.694	4.97
399.058	4.85
399.422	4.61
399.786	5.5
400.15	5.08
400.514	5.12
400.878	4.9
401.242	5.41
401.605	5.31
401.969	5.08
402.333	4.93
402.697	4.99
403.06	5.28
403.424	4.72
403.787	4.92
404.151	5.06
404.514	4.89
404.878	4.91
405.241	5.26
405.604	4.9
405.968	5.05
406.331	5.1
406.694	5.33
407.057	5.19
407.42	5.12
407.783	4.89
408.146	5.13
408.509	5.08
408.872	4.99
409.235	5.18
409.598	5.24
409.961	5.24
410.323	5.25
410.686	5.07
411.049	4.9
411.411	5.09
411.774	5.24
412.136	5.33
412.499	5.15
412.861	4.97
413.223	5.15
413.586	5.09
413.948	5.06
414.31	5.13
414.672	4.97
415.035	5.19
415.397	5.58
415.759	5.18
416.121	5.34
416.483	5.16
416.845	5.24
417.206	5.29
417.568	5.12
417.93	4.98
418.292	5.13
418.653	5.27
419.015	5.09
419.377	5.25
419.738	5.27
420.1	5.16
420.461	5.19
420.822	5.29
421.184	5.24
421.545	5.27
421.906	5.09
422.267	5.23
422.629	5.24
422.99	5.19
423.351	5.19
423.712	5.15
424.073	5.17
424.434	5.27
424.795	5.12
425.155	5.09
425.516	5.09
425.877	5.18
426.238	5.12
426.598	5.25
426.959	5.22
427.32	5.19
427.68	5.33
428.041	5.27
428.401	5.3
428.761	5.24
429.122	5.36
429.482	5.17
429.842	5.37
430.202	5.19
430.563	5.28
430.923	5.2
431.283	5.56
431.643	5.3
432.003	5.32
432.363	5.46
432.722	5.31
433.082	5.39
433.442	5.32
433.802	5.29
434.161	5.21
434.521	5.57
434.881	5.41
435.24	5.28
435.6	5.38
435.959	5.31
436.319	5.3
436.678	5.49
437.037	5.52
437.396	5.55
437.756	5.43
438.115	5.42
438.474	5.56
438.833	5.2
439.192	5.11
439.551	5.36
439.91	5.37
440.269	5.42
440.628	5.26
440.987	5.48
441.345	5.04
441.704	5.29
442.063	5.3
442.421	5.26
442.78	5.3
443.138	5.39
443.497	5.51
443.855	5.28
444.214	5.51
444.572	5.52
444.93	5.44
445.288	5.55
445.647	5.5
446.005	5.55
446.363	5.4
446.721	5.4
447.079	5.34
447.437	5.35
447.795	5.36
448.153	5.45
448.51	5.41
448.868	5.45
449.226	5.49
449.584	5.39
449.941	5.5
450.299	5.37
450.656	5.53
451.014	5.4
451.371	5.5
451.729	5.47
452.086	5.58
452.443	5.6
452.801	5.56
453.158	5.48
453.515	5.17
453.872	5.52
454.229	5.39
454.586	5.39
454.943	5.45
455.3	5.64
455.657	5.55
456.014	5.54
456.371	5.63
456.727	5.39
457.084	5.61
457.441	5.54
457.797	5.44
458.154	5.78
458.51	5.6
458.867	5.53
459.223	5.55
459.58	5.45
459.936	5.62
460.292	5.73
460.648	5.45
461.005	5.42
461.361	5.65
461.717	5.47
462.073	5.46
462.429	5.54
462.785	5.67
463.141	5.57
463.496	5.69
463.852	5.67
464.208	5.64
464.564	5.92
464.919	5.65
465.275	5.67
465.631	5.76
465.986	5.68
466.342	5.62
466.697	5.45
467.052	5.75
467.408	5.76
467.763	5.67
468.118	5.68
468.473	5.5
468.829	5.74
469.184	5.57
469.539	5.65
469.894	5.37
470.249	5.74
470.603	5.83
470.958	5.81
471.313	5.73
471.668	5.66
472.023	5.76
472.377	5.63
472.732	5.66
473.086	5.56
473.441	5.38
473.795	5.74
474.15	5.53
474.504	5.71
474.859	5.68
475.213	5.56
475.567	5.76
475.921	5.51
476.275	5.89
476.63	5.69
476.984	5.66
477.338	5.8
477.692	5.41
478.045	5.61
478.399	5.89
478.753	5.82
479.107	5.71
479.461	5.85
479.814	5.67
480.168	5.61
480.521	5.69
480.875	5.67
481.228	5.8
481.582	5.63
481.935	5.53
482.289	5.73
482.642	5.69
482.995	5.56
483.348	5.6
483.701	5.58
484.055	5.67
484.408	5.76
484.761	5.56
485.114	5.52
485.466	5.32
485.819	5.34
486.172	5.39
486.525	5.44
486.878	5.53
487.23	5.49
487.583	5.6
487.936	5.65
488.288	5.59
488.641	5.6
488.993	5.48
489.345	5.45
489.698	5.49
490.05	5.43
490.402	5.56
490.754	5.59
491.107	5.62
491.459	5.68
491.811	5.74
492.163	5.73
492.515	5.6
492.866	5.67
493.218	5.63
493.57	5.47
493.922	5.51
494.274	5.66
494.625	5.75
494.977	5.68
495.328	5.82
495.68	5.77
496.031	5.92
496.383	5.78
496.734	5.82
497.086	5.84
497.437	5.78
497.788	5.84
498.139	5.66
498.49	5.77
498.842	5.74
499.193	5.69
499.544	5.71
499.894	5.77
500.245	5.8
500.596	5.63
500.947	5.89
501.298	5.66
501.648	5.9
501.999	5.93
502.35	5.78
502.7	5.84
503.051	5.65
503.401	5.8
503.752	5.92
504.102	5.76
504.452	5.82
504.803	5.82
505.153	5.81
505.503	5.84
505.853	5.95
506.203	5.78
506.553	5.72
506.903	5.85
507.253	5.71
507.603	5.93
507.953	5.87
508.303	5.88
508.652	5.77
509.002	5.87
509.352	5.76
509.701	5.76
510.051	5.8
510.4	5.82
510.75	5.73
511.099	5.8
511.449	5.86
511.798	5.82
512.147	5.85
512.496	5.87
512.846	5.82
513.195	5.89
513.544	5.9
513.893	5.93
514.242	5.72
514.591	6.06
514.939	5.8
515.288	5.79
515.637	5.83
515.986	5.83
516.334	5.78
516.683	5.93
517.032	5.86
517.38	5.88
517.729	5.84
518.077	5.8
518.426	5.99
518.774	5.77
519.122	5.84
519.47	5.81
519.819	5.64
520.167	5.76
520.515	5.91
520.863	5.83
521.211	5.79
521.559	6.05
521.907	5.85
522.255	5.89
522.602	5.91
522.95	5.86
523.298	5.82
523.645	5.82
523.993	5.8
524.341	6
524.688	6.01
525.036	5.93
525.383	5.84
525.73	5.89
526.078	5.91
526.425	5.77
526.772	5.89
527.119	5.83
527.466	5.81
527.814	5.8
528.161	5.85
528.508	5.89
528.854	5.77
529.201	5.81
529.548	5.77
529.895	5.65
530.242	5.55
530.588	5.52
530.935	5.58
531.282	5.68
531.628	5.71
531.975	5.75
532.321	5.77
532.667	5.88
533.014	5.86
533.36	5.83
533.706	5.83
534.052	5.84
534.399	5.76
534.745	5.7
535.091	5.61
535.437	5.72
535.783	5.7
536.129	5.82
536.474	5.97
536.82	5.86
537.166	5.95
537.512	5.94
537.857	5.91
538.203	5.87
538.549	5.81
538.894	5.73
539.239	5.8
539.585	5.91
539.93	5.79
540.276	5.94
540.621	5.93
540.966	5.9
541.311	5.88
541.656	5.87
542.001	5.78
542.346	5.84
542.691	5.62
543.036	5.61
543.381	5.54
543.726	5.63
544.071	5.84
544.415	5.8
544.76	5.75
545.105	5.82
545.449	5.87
545.794	5.91
546.138	5.89
546.483	5.88
546.827	5.87
547.171	5.73
547.516	6.04
547.86	5.84
548.204	5.88
548.548	5.88
548.892	5.85
549.236	5.84
549.58	5.82
549.924	5.97
550.268	5.92
550.612	6.08
550.956	6.01
551.3	5.94
551.643	6.11
551.987	6.1
552.33	5.95
552.674	6.03
553.017	5.83
553.361	5.79
553.704	6.09
554.048	5.89
554.391	5.87
554.734	5.92
555.077	5.93
555.42	5.67
555.764	5.87
556.107	5.82
556.45	5.8
556.793	5.86
557.135	5.96
557.478	6.2
557.821	6.11
558.164	5.9
558.507	5.84
558.849	5.95
559.192	6
559.534	5.94
559.877	6
560.219	5.81
560.562	6.12
560.904	5.8
561.246	5.93
561.589	6.01
561.931	6.11
562.273	5.86
562.615	6.06
562.957	5.76
563.299	5.74
563.641	5.93
563.983	6.12
564.325	5.73
564.667	5.93
565.008	5.93
565.35	5.98
565.692	5.73
566.033	5.9
566.375	6.17
566.716	5.97
567.058	5.84
567.399	5.81
567.741	5.74
568.082	5.71
568.423	5.95
568.764	5.83
569.105	6.03
569.447	5.9
569.788	5.67
570.129	6.03
570.47	5.94
570.811	6.03
571.151	5.96
571.492	6.07
571.833	5.92
572.174	5.83
572.514	5.81
572.855	5.91
573.195	5.92
573.536	5.99
573.876	5.83
574.217	5.88
574.557	5.87
574.898	5.97
575.238	5.92
575.578	5.9
575.918	6.01
576.258	5.91
576.598	5.97
576.938	5.71
577.278	5.77
577.618	5.8
577.958	5.84
578.298	5.82
578.638	5.82
578.977	5.92
579.317	5.79
579.657	5.92
579.996	6.03
580.336	6.22
580.675	5.92
581.014	5.89
581.354	5.83
581.693	6.01
582.032	5.81
582.372	5.97
582.711	5.71
583.05	5.81
583.389	6.04
583.728	5.51
584.067	5.92
584.406	6.03
584.745	5.8
585.083	6.1
585.422	5.94
585.761	5.93
586.1	5.7
586.438	6
586.777	5.98
587.115	6
587.454	5.7
587.792	5.88
588.13	6.07
588.469	5.9
588.807	5.85
589.145	5.43
589.483	5.97
589.821	5.85
590.159	5.83
590.497	6.1
590.835	6.02
591.173	6.08
591.511	6.1
591.849	5.71
592.187	5.86
592.524	5.82
592.862	5.84
593.2	6.05
593.537	5.94
593.875	5.75
594.212	5.75
594.55	5.93
594.887	6.39
595.224	5.96
595.561	5.87
595.899	5.99
596.236	5.68
596.573	5.89
596.91	5.62
597.247	5.61
597.584	6.09
597.921	5.7
598.258	5.62
598.594	5.78
598.931	5.61
599.268	5.93
599.604	5.83
599.941	5.9
600.277	5.74
600.614	5.79
600.95	5.51
601.287	5.88
601.623	5.87
601.959	5.92
602.296	5.9
602.632	5.86
602.968	5.94
603.304	6.02
603.64	5.95
603.976	5.89
604.312	5.84
604.648	6.03
604.984	5.85
605.319	5.86
605.655	5.49
605.991	5.75
606.326	5.72
606.662	5.69
606.998	5.64
607.333	5.87
607.668	5.83
608.004	5.73
608.339	6.24
608.674	5.93
609.01	5.88
609.345	5.58
609.68	6.13
610.015	5.5
610.35	5.88
610.685	5.78
611.02	5.79
611.355	5.81
611.689	5.64
612.024	5.9
612.359	5.72
612.694	5.66
613.028	5.78
613.363	5.75
613.697	6.13
614.032	5.64
614.366	5.7
614.7	5.85
615.035	5.95
615.369	5.82
615.703	5.77
616.037	6.35
616.371	5.54
616.705	5.45
617.039	5.91
617.373	5.87
617.707	5.91
618.041	5.8
618.375	5.81
618.709	5.8
619.042	5.68
619.376	6.09
619.71	5.97
620.043	5.9
620.377	5.64
620.71	5.7
621.043	5.65
621.377	5.81
621.71	5.78
622.043	5.82
622.376	5.25
622.709	5.62
623.043	6.07
623.376	5.87
623.709	5.89
624.041	6.08
624.374	5.86
624.707	5.98
625.04	5.91
625.373	5.27
625.705	5.83
626.038	5.9
626.37	5.7
626.703	5.62
627.035	5.99
627.368	6.06
627.7	5.67
628.032	6.08
628.365	6.2
628.697	5.65
629.029	5.81
629.361	5.54
629.693	5.99
630.025	5.71
630.357	6.1
630.689	5.71
631.021	5.88
631.353	5.81
631.684	5.69
632.016	5.61
632.348	6.07
632.679	5.85
633.011	5.84
633.342	6.19
633.674	5.85
634.005	5.78
634.336	5.7
634.668	6.36
634.999	5.71
635.33	6.23
635.661	6.09
635.992	5.61
636.323	6.09
636.654	5.91
636.985	6.14
637.316	5.78
637.647	5.31
637.977	6.07
638.308	5.91
638.639	5.33
638.969	5.86
639.3	5.54
639.63	5.3
639.961	6.04
640.291	6.04
640.622	5.87
640.952	5.07
641.282	5.9
641.612	5.82
641.943	5.89
642.273	5.6
642.603	6.69
642.933	6.25
643.263	6.22
643.592	5.44
643.922	5.7
644.252	5.81
644.582	5.77
644.911	5.56
645.241	5.67
645.571	5.65
645.9	5.23
646.23	5.57
646.559	6.06
646.888	5.59
647.218	5.35
647.547	5.96
647.876	5.78
648.205	5.74
648.534	5.56
648.863	5.59
649.192	5.77
649.521	5.31
649.85	5.49
650.179	5.83
650.508	5.12
650.837	5.06
651.165	5.29
651.494	5.54
651.822	5.48
652.151	5.62
652.479	5.98
652.808	5.42
653.136	5.7
653.465	5.16
653.793	5.74
654.121	5.58
654.449	5.51
654.777	5.73
655.105	6.07
655.433	5.74
655.761	5.79
656.089	6.28
656.417	6.16
656.745	5.11
657.073	5.59
657.4	6.37
657.728	6.07
658.056	5.52
658.383	6.08
658.711	5.39
659.038	5.75
659.365	6.49
659.693	5.88
660.02	5.54
660.347	5.82
660.674	5.88
661.001	6.03
661.329	5.35
661.656	5.86
661.982	6.24
662.309	5.55
662.636	5.3
662.963	6.08
663.29	6
663.616	6.12
663.943	5.31
664.27	5.94
664.596	6.12
664.923	5.75
665.249	5.76
665.576	5.57
665.902	6.14
666.228	5.75
666.554	5.91
666.881	5.76
667.207	6.02
667.533	5.95
667.859	5.9
668.185	6.19
668.511	4.95
668.837	5.11
669.162	6.4
669.488	5.42
669.814	5.69
670.139	6.28
670.465	5.94
670.791	5.86
671.116	6.45
671.442	5.51
671.767	6.03
672.092	5.93
672.418	5.67
672.743	5.62
673.068	5.36
673.393	6.12
673.718	5.3
674.043	5.37
674.368	5.79
674.693	6.35
675.018	5.74
675.343	5.2
675.667	5.44
675.992	5.99
676.317	6.21
676.641	6.13
676.966	5.81
677.29	5.96
677.615	6.48
677.939	6.34
678.264	6.32
678.588	5.84
678.912	5.71
679.236	6.3
679.56	5.74
679.885	6.09
680.209	5.77
680.532	6.06
680.856	6.1
681.18	6.37
681.504	5.78
681.828	6.28
682.152	5.5
682.475	5.82
682.799	6.19
683.122	6.14
683.446	5.96
683.769	6.77
684.093	5.71
684.416	6.45
684.739	6.03
685.062	5.7
685.386	6.48
685.709	5.47
686.032	5.6
686.355	6.11
686.678	5.62
687.001	6.03
687.324	6.33
687.646	5.4
687.969	5.79
688.292	5.47
688.614	5.83
688.937	6.79
689.26	5.8
689.582	6.03
689.904	5.66
690.227	5.91
690.549	6.26
690.871	6.09
691.194	5.51
691.516	5.27
691.838	6.04
692.16	5.23
692.482	6.45
692.804	5.84
