Data from 0207_chest_Reflection__2__295.txt Node

Date: Fri Dec 15 19:27:47 CST 2023
User: ToomeyLab
Spectrometer: FLMS14357
Trigger mode: 0
Integration Time (sec): 1.000000E-2
Scans to average: 100
Electric dark correction enabled: true
Nonlinearity correction enabled: false
Boxcar width: 0
XAxis mode: Wavelengths
Number of Pixels in Spectrum: 2048
>>>>>Begin Spectral Data<<<<<
189.047	22.55
189.435	22.55
189.823	22.55
190.211	-654.79
190.599	-114.05
190.987	131.36
191.375	-3.67
191.763	-125.86
192.151	-165.57
192.538	39.28
192.926	567.74
193.314	69.43
193.702	-121.02
194.089	125.09
194.477	13.98
194.864	140.85
195.252	78.64
195.639	63.45
196.027	-20.59
196.414	154.67
196.801	102.33
197.189	197.49
197.576	502.37
197.963	4.7
198.351	-147.84
198.738	-41.13
199.125	36.02
199.512	-2.14
199.899	-3.01
200.286	22.38
200.673	13.98
201.06	22.62
201.447	-0.81
201.833	39.09
202.22	33.19
202.607	14.44
202.994	1.44
203.38	38.89
203.767	21.86
204.154	29.02
204.54	26.01
204.927	-15.14
205.313	10.58
205.699	30.89
206.086	13.49
206.472	22.35
206.858	-13.68
207.245	-33.29
207.631	1.1
208.017	59.29
208.403	-14.62
208.789	7.2
209.175	48.4
209.561	-20.44
209.947	16.45
210.333	-47.71
210.719	22.72
211.105	9.94
211.491	-19.46
211.876	9.59
212.262	-9.23
212.648	12.69
213.034	38.52
213.419	0.66
213.805	-18.27
214.19	-57.36
214.576	13.55
214.961	-18.82
215.346	-121.55
215.732	0.47
216.117	-0.39
216.502	-50.42
216.888	9.14
217.273	26.66
217.658	-14.89
218.043	-13.3
218.428	-42.96
218.813	-25.6
219.198	-24.74
219.583	-4.93
219.968	-1.27
220.353	-2.54
220.738	-1.5
221.122	2.86
221.507	-42.34
221.892	-21.12
222.276	-24.88
222.661	2.19
223.046	14.34
223.43	6.23
223.815	17.45
224.199	-13
224.583	4.34
224.968	-4.05
225.352	17.73
225.736	2.31
226.121	-9.62
226.505	-1.94
226.889	1.84
227.273	1.32
227.657	6.83
228.041	3.17
228.425	-0.07
228.809	5.26
229.193	1.5
229.577	0.14
229.961	3.32
230.344	2.17
230.728	1.99
231.112	2.64
231.495	2.42
231.879	1.89
232.263	3.29
232.646	1.63
233.03	1.3
233.413	1.36
233.797	2.05
234.18	4.72
234.563	1.46
234.946	1.13
235.33	1.96
235.713	3.36
236.096	2.21
236.479	3.21
236.862	2.84
237.245	4.12
237.628	1.51
238.011	1.46
238.394	2.15
238.777	1.92
239.16	0.83
239.543	1.31
239.925	1.83
240.308	3.56
240.691	3.7
241.073	2.64
241.456	2.79
241.838	1.32
242.221	2.15
242.603	2.22
242.986	2.94
243.368	2.83
243.75	3.28
244.133	2.22
244.515	3.23
244.897	2.71
245.279	2.62
245.661	2.57
246.043	1.22
246.425	1.94
246.807	4.26
247.189	2.41
247.571	2.77
247.953	3.08
248.335	2.3
248.717	2.59
249.098	2.53
249.48	2.75
249.862	2.93
250.243	2.76
250.625	2.24
251.006	2.87
251.388	1.12
251.769	2.15
252.151	3.37
252.532	2.97
252.913	2.24
253.295	1.63
253.676	2.38
254.057	2.88
254.438	2.39
254.819	2.16
255.2	1.83
255.581	3.1
255.962	1.28
256.343	2.72
256.724	1.46
257.105	1.87
257.486	1.86
257.867	2.61
258.247	1.95
258.628	2.74
259.009	2.55
259.389	2.63
259.77	2.98
260.15	1.7
260.531	1.72
260.911	3.25
261.292	2.41
261.672	2.68
262.052	2.63
262.432	2.8
262.813	2.18
263.193	2.35
263.573	1.84
263.953	2.32
264.333	2.49
264.713	2.85
265.093	2.66
265.473	2.83
265.853	1.43
266.233	2.78
266.612	1.13
266.992	1.62
267.372	2.44
267.752	2.38
268.131	2.6
268.511	2.57
268.89	2.95
269.27	2.19
269.649	2.2
270.029	1.87
270.408	3.02
270.787	2.62
271.167	2.93
271.546	2.46
271.925	1.59
272.304	2.63
272.683	2.5
273.062	2.2
273.441	2.43
273.82	2.02
274.199	2.17
274.578	2.55
274.957	2.05
275.336	2.37
275.715	1.96
276.093	2.09
276.472	2.32
276.851	1.73
277.229	1.87
277.608	1.8
277.986	2.19
278.365	2.36
278.743	1.92
279.122	1.77
279.5	2.25
279.878	2.87
280.257	1.9
280.635	1.98
281.013	2.08
281.391	2.86
281.769	2.4
282.147	2.73
282.525	2.61
282.903	2.6
283.281	2.76
283.659	2.77
284.037	3.01
284.415	2.47
284.792	2.24
285.17	1.28
285.548	1.61
285.925	1.91
286.303	2.24
286.68	1.7
287.058	2.33
287.435	2.55
287.813	2.42
288.19	2
288.567	2.36
288.945	2.79
289.322	2.31
289.699	2.17
290.076	2.59
290.453	2.04
290.83	2.31
291.207	2.19
291.584	2.4
291.961	2.56
292.338	2.28
292.715	2.56
293.092	2.26
293.469	2.43
293.845	2.4
294.222	1.99
294.599	2.03
294.975	1.9
295.352	2.56
295.728	1.93
296.105	2.07
296.481	2.73
296.858	2.74
297.234	2.33
297.61	2.36
297.986	2.17
298.363	2.53
298.739	2.69
299.115	2.28
299.491	2.16
299.867	2.5
300.243	2.49
300.619	1.87
300.995	2.1
301.371	2.1
301.746	2.41
302.122	2.61
302.498	2.44
302.874	2.58
303.249	2.55
303.625	2.26
304	2.81
304.376	2.51
304.751	2.26
305.127	2.65
305.502	1.59
305.878	1.52
306.253	2.51
306.628	3
307.003	2.14
307.378	2.3
307.754	2.06
308.129	1.92
308.504	2.11
308.879	2.31
309.254	2.94
309.629	2.59
310.003	2.54
310.378	2.65
310.753	2.62
311.128	2.64
311.502	2.48
311.877	2.69
312.252	2.26
312.626	2.19
313.001	2.03
313.375	3.26
313.75	2.16
314.124	2.47
314.498	2.12
314.873	2.55
315.247	2.57
315.621	2.13
315.995	1.29
316.369	2.25
316.743	2.16
317.117	2.26
317.491	2.34
317.865	2.33
318.239	2.49
318.613	2.3
318.987	2.86
319.361	2.08
319.734	2.98
320.108	2.47
320.482	2.26
320.855	2.48
321.229	2.04
321.602	2.12
321.976	3.02
322.349	1.99
322.723	2.32
323.096	2.56
323.469	2.15
323.843	2.31
324.216	2.71
324.589	2.53
324.962	1.85
325.335	2.43
325.708	2.6
326.081	2.19
326.454	2.58
326.827	2.17
327.2	2.65
327.573	2.7
327.945	2.77
328.318	2.51
328.691	2.08
329.063	2.38
329.436	2.74
329.809	2.74
330.181	2.15
330.553	2.53
330.926	2.75
331.298	2.8
331.671	2.73
332.043	2.92
332.415	2.15
332.787	2.45
333.159	2.73
333.532	2.51
333.904	2.49
334.276	3.28
334.648	2.01
335.02	2.19
335.391	1.97
335.763	2.37
336.135	2.08
336.507	2.53
336.879	2.88
337.25	2.45
337.622	1.92
337.993	2.6
338.365	2.55
338.736	2.54
339.108	2.54
339.479	2.45
339.851	1.92
340.222	2.26
340.593	2.46
340.964	2.23
341.336	2.8
341.707	2.21
342.078	3
342.449	2.72
342.82	2.39
343.191	2.25
343.562	2.47
343.933	2.43
344.303	2.52
344.674	2.24
345.045	2.72
345.416	2.96
345.786	2.13
346.157	2.59
346.527	1.99
346.898	2.07
347.268	2.67
347.639	2.77
348.009	2.52
348.38	2.19
348.75	2.2
349.12	2.27
349.49	2.59
349.861	2.52
350.231	2.63
350.601	2.5
350.971	2.89
351.341	2.29
351.711	2.5
352.081	2.69
352.45	2.33
352.82	2.84
353.19	2.39
353.56	2.33
353.929	2.33
354.299	2.1
354.669	2.11
355.038	2.99
355.408	2.18
355.777	2.56
356.147	2.53
356.516	2.21
356.885	2.62
357.254	2.38
357.624	3.01
357.993	2.82
358.362	2.52
358.731	2.42
359.1	2.45
359.469	2.77
359.838	2.72
360.207	2.46
360.576	2.47
360.945	2.76
361.314	3.11
361.682	1.99
362.051	2.32
362.42	2.54
362.788	2.64
363.157	2.67
363.525	2.7
363.894	2.7
364.262	2.58
364.631	2.56
364.999	2.83
365.367	2.14
365.735	3.26
366.104	2.74
366.472	2.87
366.84	2.53
367.208	2.22
367.576	2.81
367.944	2.89
368.312	2.72
368.68	2.38
369.048	2.86
369.416	2.56
369.783	2.42
370.151	2.84
370.519	2.8
370.886	2.78
371.254	2.15
371.621	2.76
371.989	2.64
372.356	2.26
372.724	2.91
373.091	2.64
373.458	3.07
373.826	2.77
374.193	2.45
374.56	2.79
374.927	2.69
375.294	2.57
375.661	2.69
376.028	2.25
376.395	2.26
376.762	2.4
377.129	2.58
377.496	2.52
377.863	2.72
378.229	2.29
378.596	2.48
378.963	2.81
379.329	2.49
379.696	2.82
380.062	2.77
380.429	2.36
380.795	2.66
381.161	2.56
381.528	3.03
381.894	2.64
382.26	2.48
382.626	2.99
382.993	2.8
383.359	3.1
383.725	2.31
384.091	2.6
384.457	2.67
384.823	2.37
385.188	2.75
385.554	2.37
385.92	2.75
386.286	2.75
386.651	2.68
387.017	3.12
387.383	2.66
387.748	2.49
388.114	3.19
388.479	2.9
388.845	3.11
389.21	3.02
389.575	2.96
389.94	2.76
390.306	2.69
390.671	2.79
391.036	2.33
391.401	2.36
391.766	2.94
392.131	2.94
392.496	2.8
392.861	2.65
393.226	2.91
393.591	2.98
393.956	2.91
394.32	3
394.685	2.58
395.05	2.79
395.414	2.96
395.779	2.47
396.143	2.68
396.508	2.85
396.872	2.8
397.236	2.74
397.601	2.61
397.965	2.83
398.329	2.96
398.694	2.8
399.058	2.83
399.422	2.74
399.786	3
400.15	3.01
400.514	2.78
400.878	2.62
401.242	3.34
401.605	3.09
401.969	2.85
402.333	3.07
402.697	2.87
403.06	2.97
403.424	3.04
403.787	2.72
404.151	2.88
404.514	2.89
404.878	2.8
405.241	2.95
405.604	2.7
405.968	3.04
406.331	2.85
406.694	3.07
407.057	3
407.42	3.07
407.783	2.63
408.146	2.79
408.509	2.84
408.872	2.72
409.235	2.84
409.598	3.02
409.961	3.09
410.323	2.94
410.686	2.91
411.049	2.88
411.411	2.98
411.774	3.04
412.136	2.89
412.499	2.61
412.861	2.93
413.223	3
413.586	2.81
413.948	2.86
414.31	3.13
414.672	2.77
415.035	2.94
415.397	3.24
415.759	2.77
416.121	2.97
416.483	2.83
416.845	2.93
417.206	2.89
417.568	3.09
417.93	2.56
418.292	2.92
418.653	2.95
419.015	2.89
419.377	2.89
419.738	2.94
420.1	2.94
420.461	2.93
420.822	2.98
421.184	2.77
421.545	2.93
421.906	2.82
422.267	2.87
422.629	2.87
422.99	2.82
423.351	2.83
423.712	2.91
424.073	2.89
424.434	2.83
424.795	2.97
425.155	2.9
425.516	2.82
425.877	2.92
426.238	2.81
426.598	2.9
426.959	2.88
427.32	2.82
427.68	2.85
428.041	2.89
428.401	3.06
428.761	2.95
429.122	3.07
429.482	2.91
429.842	3.09
430.202	2.95
430.563	2.9
430.923	2.97
431.283	2.97
431.643	2.92
432.003	2.98
432.363	3.02
432.722	3.12
433.082	3.03
433.442	2.92
433.802	3.06
434.161	2.76
434.521	3.17
434.881	3
435.24	2.93
435.6	3.03
435.959	2.97
436.319	3.01
436.678	2.97
437.037	3
437.396	3.08
437.756	2.96
438.115	3.07
438.474	3.12
438.833	2.85
439.192	2.97
439.551	3.05
439.91	3.05
440.269	3.04
440.628	2.87
440.987	3
441.345	2.9
441.704	3.1
442.063	3
442.421	2.85
442.78	2.98
443.138	3.04
443.497	2.97
443.855	3.03
444.214	3.07
444.572	3.07
444.93	3.16
445.288	2.96
445.647	3.25
446.005	3.11
446.363	2.95
446.721	2.98
447.079	2.92
447.437	3.11
447.795	3
448.153	2.93
448.51	2.98
448.868	3.05
449.226	3.11
449.584	2.97
449.941	3.13
450.299	2.95
450.656	3.03
451.014	3.14
451.371	2.97
451.729	2.89
452.086	3.25
452.443	3.14
452.801	3.16
453.158	3.14
453.515	3.06
453.872	3.02
454.229	2.93
454.586	2.99
454.943	3.09
455.3	3.11
455.657	3.12
456.014	3.05
456.371	3.05
456.727	3.04
457.084	3.32
457.441	3.16
457.797	3.07
458.154	3.25
458.51	3.05
458.867	3.02
459.223	3.3
459.58	3.17
459.936	3.27
460.292	2.98
460.648	3.14
461.005	3.07
461.361	3.21
461.717	3.17
462.073	2.97
462.429	3.07
462.785	3.11
463.141	3.13
463.496	3.21
463.852	3.21
464.208	3.1
464.564	3.23
464.919	3.21
465.275	3.22
465.631	3.24
465.986	3.43
466.342	3.16
466.697	3.2
467.052	3.31
467.408	3.31
467.763	3.26
468.118	3.43
468.473	3.12
468.829	3.11
469.184	2.97
469.539	3.32
469.894	3.25
470.249	3.41
470.603	3.09
470.958	3.29
471.313	3.26
471.668	3.25
472.023	3.29
472.377	3.22
472.732	3.06
473.086	3.22
473.441	2.96
473.795	3.12
474.15	3.18
474.504	3.08
474.859	3.3
475.213	3.19
475.567	3.14
475.921	3.09
476.275	3.38
476.63	3.18
476.984	3.4
477.338	3.2
477.692	3.27
478.045	3.14
478.399	3.24
478.753	3.29
479.107	3.33
479.461	3.21
479.814	3.29
480.168	3.38
480.521	3.09
480.875	3.31
481.228	3.33
481.582	3.34
481.935	3.09
482.289	3.23
482.642	3.26
482.995	3.22
483.348	3.25
483.701	3.17
484.055	3.32
484.408	3.19
484.761	3.17
485.114	3.08
485.466	2.99
485.819	3.03
486.172	3.02
486.525	3.12
486.878	3.16
487.23	3.16
487.583	3.19
487.936	3.18
488.288	3.19
488.641	3.2
488.993	3.05
489.345	3.14
489.698	3.1
490.05	3.1
490.402	3.21
490.754	3.22
491.107	3.23
491.459	3.29
491.811	3.28
492.163	3.26
492.515	3.22
492.866	3.23
493.218	3.23
493.57	3.11
493.922	3.15
494.274	3.26
494.625	3.34
494.977	3.36
495.328	3.37
495.68	3.35
496.031	3.37
496.383	3.34
496.734	3.63
497.086	3.39
497.437	3.38
497.788	3.45
498.139	3.28
498.49	3.39
498.842	3.19
499.193	3.36
499.544	3.36
499.894	3.36
500.245	3.47
500.596	3.3
500.947	3.47
501.298	3.26
501.648	3.54
501.999	3.51
502.35	3.33
502.7	3.41
503.051	3.35
503.401	3.42
503.752	3.41
504.102	3.39
504.452	3.47
504.803	3.28
505.153	3.51
505.503	3.5
505.853	3.43
506.203	3.46
506.553	3.44
506.903	3.48
507.253	3.45
507.603	3.47
507.953	3.56
508.303	3.62
508.652	3.42
509.002	3.58
509.352	3.55
509.701	3.48
510.051	3.43
510.4	3.52
510.75	3.44
511.099	3.53
511.449	3.53
511.798	3.52
512.147	3.56
512.496	3.49
512.846	3.51
513.195	3.51
513.544	3.52
513.893	3.55
514.242	3.4
514.591	3.6
514.939	3.57
515.288	3.51
515.637	3.69
515.986	3.57
516.334	3.59
516.683	3.68
517.032	3.61
517.38	3.6
517.729	3.56
518.077	3.56
518.426	3.72
518.774	3.81
519.122	3.59
519.47	3.59
519.819	3.55
520.167	3.65
520.515	3.56
520.863	3.61
521.211	3.59
521.559	3.71
521.907	3.63
522.255	3.66
522.602	3.64
522.95	3.71
523.298	3.7
523.645	3.88
523.993	3.77
524.341	3.9
524.688	3.79
525.036	3.85
525.383	3.76
525.73	3.73
526.078	3.72
526.425	3.68
526.772	3.78
527.119	3.74
527.466	3.68
527.814	3.67
528.161	3.68
528.508	3.8
528.854	3.71
529.201	3.68
529.548	3.7
529.895	3.64
530.242	3.57
530.588	3.53
530.935	3.63
531.282	3.71
531.628	3.74
531.975	3.76
532.321	3.83
532.667	3.8
533.014	3.86
533.36	3.84
533.706	3.9
534.052	3.88
534.399	3.81
534.745	3.78
535.091	3.81
535.437	3.83
535.783	3.82
536.129	3.86
536.474	3.86
536.82	4
537.166	3.91
537.512	4.09
537.857	3.97
538.203	4.04
538.549	3.93
538.894	3.88
539.239	3.95
539.585	4.02
539.93	3.98
540.276	4.18
540.621	4.13
540.966	4.04
541.311	4.03
541.656	4.05
542.001	4.05
542.346	4.22
542.691	4.03
543.036	3.96
543.381	3.92
543.726	3.95
544.071	4.05
544.415	4.12
544.76	4.08
545.105	4.13
545.449	4.13
545.794	4.17
546.138	4.19
546.483	4.26
546.827	4.25
547.171	4.2
547.516	4.33
547.86	4.26
548.204	4.23
548.548	4.25
548.892	4.32
549.236	4.22
549.58	4.2
549.924	4.47
550.268	4.5
550.612	4.43
550.956	4.59
551.3	4.52
551.643	4.57
551.987	4.73
552.33	4.48
552.674	4.53
553.017	4.31
553.361	4.42
553.704	4.67
554.048	4.28
554.391	4.47
554.734	4.46
555.077	4.57
555.42	4.54
555.764	4.58
556.107	4.45
556.45	4.46
556.793	4.63
557.135	4.79
557.478	4.81
557.821	4.77
558.164	4.77
558.507	4.64
558.849	4.58
559.192	4.84
559.534	4.76
559.877	4.84
560.219	4.79
560.562	5.1
560.904	4.84
561.246	4.73
561.589	4.86
561.931	4.84
562.273	4.72
562.615	4.96
562.957	4.96
563.299	4.83
563.641	4.91
563.983	5.01
564.325	4.78
564.667	4.94
565.008	4.94
565.35	5.03
565.692	4.92
566.033	4.93
566.375	5.23
566.716	5.34
567.058	5.04
567.399	4.95
567.741	4.95
568.082	4.98
568.423	5.03
568.764	5.1
569.105	5.22
569.447	5.34
569.788	5.25
570.129	5.27
570.47	5.12
570.811	5.41
571.151	5.17
571.492	5.4
571.833	5.31
572.174	5.18
572.514	5.38
572.855	5.33
573.195	5.21
573.536	5.32
573.876	5.32
574.217	5.2
574.557	5.4
574.898	5.53
575.238	5.54
575.578	5.33
575.918	5.66
576.258	5.67
576.598	5.46
576.938	5.53
577.278	5.47
577.618	5.61
577.958	5.6
578.298	5.61
578.638	5.41
578.977	5.67
579.317	5.57
579.657	5.74
579.996	5.73
580.336	5.88
580.675	5.51
581.014	5.86
581.354	5.58
581.693	5.68
582.032	5.78
582.372	5.87
582.711	6.02
583.05	5.87
583.389	6.03
583.728	5.97
584.067	6.23
584.406	5.94
584.745	6.44
585.083	6.24
585.422	6.18
585.761	6.32
586.1	6.21
586.438	6.26
586.777	6.58
587.115	6.42
587.454	6.41
587.792	6.34
588.13	6.48
588.469	6.45
588.807	6.42
589.145	6.04
589.483	6.15
589.821	6.58
590.159	6.36
590.497	6.62
590.835	6.48
591.173	6.31
591.511	6.85
591.849	6.68
592.187	6.74
592.524	6.52
592.862	6.51
593.2	6.69
593.537	6.58
593.875	6.69
594.212	6.53
594.55	6.75
594.887	6.92
595.224	6.26
595.561	6.72
595.899	6.74
596.236	6.57
596.573	6.8
596.91	6.63
597.247	6.64
597.584	7.1
597.921	6.94
598.258	6.61
598.594	6.89
598.931	6.78
599.268	7
599.604	6.87
599.941	7.09
600.277	7
600.614	6.93
600.95	6.98
601.287	7.4
601.623	6.99
601.959	6.95
602.296	7.25
602.632	7.2
602.968	7.36
603.304	7.14
603.64	7.15
603.976	7.62
604.312	7.28
604.648	7.46
604.984	7.49
605.319	7.42
605.655	7.39
605.991	7.57
606.326	7.49
606.662	7.44
606.998	7.42
607.333	7.55
607.668	7.45
608.004	7.72
608.339	7.94
608.674	7.59
609.01	7.52
609.345	7.33
609.68	7.72
610.015	7.66
610.35	7.6
610.685	7.62
611.02	7.68
611.355	7.81
611.689	7.85
612.024	8.01
612.359	7.91
612.694	8.04
613.028	7.89
613.363	8.09
613.697	8.09
614.032	8.33
614.366	8.16
614.7	8.39
615.035	8.51
615.369	8.04
615.703	8.05
616.037	8.24
616.371	7.93
616.705	8.2
617.039	7.96
617.373	7.93
617.707	8.18
618.041	8.34
618.375	8.77
618.709	8.48
619.042	8.5
619.376	8.61
619.71	8.5
620.043	8.55
620.377	8.46
620.71	9.1
621.043	8.71
621.377	8.69
621.71	8.5
622.043	8.57
622.376	8.79
622.709	8.65
623.043	9.01
623.376	8.93
623.709	8.96
624.041	9.43
624.374	9.11
624.707	9.04
625.04	9.28
625.373	8.6
625.705	8.88
626.038	9.34
626.37	8.75
626.703	8.83
627.035	9.13
627.368	9.26
627.7	8.98
628.032	9.02
628.365	9.4
628.697	9.5
629.029	9.19
629.361	9.2
629.693	9.3
630.025	9.23
630.357	9.32
630.689	9.34
631.021	9.74
631.353	9.82
631.684	9.17
632.016	9.34
632.348	9.65
632.679	9.91
633.011	9.46
633.342	9.63
633.674	9.55
634.005	10.01
634.336	9.9
634.668	10.04
634.999	9.53
635.33	9.67
635.661	10.14
635.992	9.83
636.323	9.86
636.654	10.5
636.985	9.78
637.316	9.76
637.647	9.6
637.977	10.32
638.308	10.41
638.639	9.84
638.969	9.79
639.3	9.66
639.63	9.77
639.961	10.04
640.291	10.47
640.622	10.89
640.952	10.55
641.282	10.92
641.612	10.69
641.943	10.03
642.273	10.36
642.603	10.74
642.933	10.91
643.263	10.65
643.592	10.75
643.922	10.6
644.252	10.69
644.582	10.71
644.911	9.96
645.241	10.29
645.571	10.71
645.9	10.21
646.23	10.71
646.559	10.98
646.888	10.91
647.218	10.99
647.547	10.89
647.876	10.58
648.205	10.7
648.534	11.36
648.863	10.78
649.192	10.85
649.521	11.47
649.85	10.81
650.179	11.03
650.508	10.92
650.837	11
651.165	10.97
651.494	11.08
651.822	11
652.151	11.58
652.479	11.18
652.808	11.04
653.136	11.61
653.465	11.19
653.793	11.27
654.121	11.16
654.449	11.39
654.777	11.85
655.105	11.74
655.433	11.19
655.761	11.59
656.089	11.67
656.417	11.7
656.745	11.85
657.073	11.69
657.4	12.45
657.728	11.71
658.056	11.55
658.383	11.62
658.711	11.78
659.038	12.14
659.365	12.4
659.693	11.87
660.02	11.45
660.347	11.8
660.674	12.33
661.001	12.15
661.329	11.05
661.656	12.14
661.982	12.37
662.309	11.97
662.636	11.75
662.963	12.31
663.29	12.37
663.616	12.7
663.943	11.43
664.27	12.23
664.596	12.41
664.923	12.26
665.249	12.47
665.576	12.19
665.902	13.29
666.228	12.22
666.554	12.42
666.881	12.75
667.207	12.34
667.533	12.66
667.859	12.59
668.185	12.98
668.511	12.68
668.837	12.2
669.162	13.09
669.488	12.2
669.814	13.09
670.139	12.64
670.465	13.52
670.791	12.7
671.116	13.72
671.442	13.05
671.767	12.89
672.092	13
672.418	12.95
672.743	13.23
673.068	12.87
673.393	13.46
673.718	13.49
674.043	12.87
674.368	13.56
674.693	13.72
675.018	13.62
675.343	12.73
675.667	12.85
675.992	13.34
676.317	14.26
676.641	13.58
676.966	13.05
677.29	13.47
677.615	13.54
677.939	14.12
678.264	13.5
678.588	13.76
678.912	13.66
679.236	14.91
679.56	13.14
679.885	14.29
680.209	14.17
680.532	13.64
680.856	14.42
681.18	13.35
681.504	13.53
681.828	13.92
682.152	13.57
682.475	13.81
682.799	13.83
683.122	14.37
683.446	14.18
683.769	14.63
684.093	13.96
684.416	14.87
684.739	14.75
685.062	14.15
685.386	14.39
685.709	14.6
686.032	14.3
686.355	14.71
686.678	14.24
687.001	14.96
687.324	14.53
687.646	14.47
687.969	14.62
688.292	14.79
688.614	13.99
688.937	15.32
