Data from 0207_chest_Reflection__1__294.txt Node

Date: Fri Dec 15 19:27:37 CST 2023
User: ToomeyLab
Spectrometer: FLMS14357
Trigger mode: 0
Integration Time (sec): 1.000000E-2
Scans to average: 100
Electric dark correction enabled: true
Nonlinearity correction enabled: false
Boxcar width: 0
XAxis mode: Wavelengths
Number of Pixels in Spectrum: 2048
>>>>>Begin Spectral Data<<<<<
189.047	69.51
189.435	69.51
189.823	69.51
190.211	595.05
190.599	-1.98
190.987	54.33
191.375	87.16
191.763	8.14
192.151	289.91
192.538	67.96
192.926	35.48
193.314	112.04
193.702	-152.95
194.089	5.45
194.477	34.34
194.864	-137.14
195.252	51.49
195.639	56
196.027	202.04
196.414	220.26
196.801	174.94
197.189	125.13
197.576	498.28
197.963	-448.73
198.351	-212.98
198.738	-54.42
199.125	56.06
199.512	-40.21
199.899	4.93
200.286	24.61
200.673	10.13
201.06	54.67
201.447	-1.23
201.833	24.78
202.22	18.33
202.607	44.53
202.994	7.68
203.38	-3.26
203.767	-4.76
204.154	22.15
204.54	2.32
204.927	-46.2
205.313	-100.21
205.699	31.55
206.086	36.6
206.472	13.92
206.858	58.1
207.245	-0.1
207.631	35.3
208.017	36.1
208.403	11.58
208.789	8.24
209.175	10.19
209.561	-14.13
209.947	4.62
210.333	-145.13
210.719	44.68
211.105	31.47
211.491	-14.13
211.876	29.71
212.262	16.46
212.648	23.67
213.034	35.58
213.419	-1.41
213.805	-15.27
214.19	-4.95
214.576	-30.5
214.961	-11.45
215.346	-15.14
215.732	-30.61
216.117	5.65
216.502	-12.09
216.888	6.46
217.273	23.95
217.658	-3.68
218.043	6.74
218.428	-76.37
218.813	-15.29
219.198	-16.9
219.583	0.38
219.968	30.29
220.353	-27.86
220.738	37.62
221.122	-4.38
221.507	3.17
221.892	-2.05
222.276	-16.39
222.661	7.29
223.046	8.3
223.43	16.82
223.815	7.52
224.199	-10.55
224.583	10.33
224.968	8.72
225.352	12.61
225.736	3.76
226.121	-8.17
226.505	0.86
226.889	8.43
227.273	0.61
227.657	5.72
228.041	-3.27
228.425	6.4
228.809	9.26
229.193	7.45
229.577	1.63
229.961	5.2
230.344	4.75
230.728	5
231.112	5.79
231.495	5.19
231.879	3.95
232.263	5.21
232.646	4.02
233.03	4.96
233.413	3.48
233.797	5
234.18	3.81
234.563	5.16
234.946	1.97
235.33	4.86
235.713	7.54
236.096	5.44
236.479	4.3
236.862	2.13
237.245	4.63
237.628	5.19
238.011	5.61
238.394	6.29
238.777	3.53
239.16	2.54
239.543	5.92
239.925	7.2
240.308	6.78
240.691	7.26
241.073	6.9
241.456	5.56
241.838	5.74
242.221	3.87
242.603	5.41
242.986	5.11
243.368	5.16
243.75	5.01
244.133	4.56
244.515	5.07
244.897	4.8
245.279	5.16
245.661	4.52
246.043	3.61
246.425	3.41
246.807	6.3
247.189	4.57
247.571	4.64
247.953	4.55
248.335	4.36
248.717	4.71
249.098	4.6
249.48	4.73
249.862	4.48
250.243	4.93
250.625	4.7
251.006	5.07
251.388	3.46
251.769	4.42
252.151	5.57
252.532	5.29
252.913	5.3
253.295	4.01
253.676	4.78
254.057	4.62
254.438	4.54
254.819	4.08
255.2	3.94
255.581	3.64
255.962	4.13
256.343	4.38
256.724	3.98
257.105	4.09
257.486	3.16
257.867	4.99
258.247	4.37
258.628	3.91
259.009	5.04
259.389	4.44
259.77	4.5
260.15	3.83
260.531	3.97
260.911	4.66
261.292	4.61
261.672	4.65
262.052	4.42
262.432	4.55
262.813	4.14
263.193	4.1
263.573	4.3
263.953	4.78
264.333	5.33
264.713	4.23
265.093	3.8
265.473	4.06
265.853	3.25
266.233	4.41
266.612	2.87
266.992	4.17
267.372	4.85
267.752	4.15
268.131	3.83
268.511	5.03
268.89	4.81
269.27	3.88
269.649	3.77
270.029	4.44
270.408	5.72
270.787	4.34
271.167	4.05
271.546	4.68
271.925	3.72
272.304	4.52
272.683	4.35
273.062	3.94
273.441	4.35
273.82	3.42
274.199	4.57
274.578	4.26
274.957	4.35
275.336	4.39
275.715	3.58
276.093	4.19
276.472	4.1
276.851	3.64
277.229	3.55
277.608	3.45
277.986	4.35
278.365	4.19
278.743	4.21
279.122	4.35
279.5	3.37
279.878	4.15
280.257	3.88
280.635	3.8
281.013	4.22
281.391	4.54
281.769	4.27
282.147	3.94
282.525	4.7
282.903	3.58
283.281	4.23
283.659	4.4
284.037	4.1
284.415	3.92
284.792	4.28
285.17	3.55
285.548	3.52
285.925	4.3
286.303	4.08
286.68	3.88
287.058	3.9
287.435	3.96
287.813	4.04
288.19	4.12
288.567	4.01
288.945	3.93
289.322	3.93
289.699	3.83
290.076	4.39
290.453	3.85
290.83	3.55
291.207	3.8
291.584	4.15
291.961	4.1
292.338	4.26
292.715	4.41
293.092	4.02
293.469	3.99
293.845	4.01
294.222	3.32
294.599	4.22
294.975	3.87
295.352	4.37
295.728	4.03
296.105	3.77
296.481	4.63
296.858	3.77
297.234	3.71
297.61	4.11
297.986	3.58
298.363	4.28
298.739	4.05
299.115	4.06
299.491	3.91
299.867	3.86
300.243	4.33
300.619	3.25
300.995	4.24
301.371	4.28
301.746	3.98
302.122	4.09
302.498	4.12
302.874	3.87
303.249	3.95
303.625	4.44
304	3.72
304.376	4.2
304.751	3.55
305.127	4.32
305.502	3.84
305.878	3.33
306.253	4.06
306.628	4.31
307.003	4.05
307.378	4.46
307.754	4.32
308.129	3.33
308.504	3.88
308.879	4.06
309.254	4.93
309.629	4.28
310.003	4.23
310.378	3.79
310.753	4.42
311.128	4.14
311.502	4.18
311.877	4.49
312.252	3.39
312.626	4.08
313.001	4.02
313.375	4.57
313.75	3.66
314.124	4.1
314.498	3.72
314.873	4.02
315.247	4.03
315.621	4.28
315.995	3.6
316.369	3.91
316.743	4.22
317.117	4.28
317.491	4.14
317.865	4.11
318.239	3.69
318.613	4.77
318.987	4.43
319.361	3.46
319.734	4.38
320.108	4.18
320.482	3.98
320.855	4.21
321.229	3.93
321.602	3.89
321.976	5
322.349	3.53
322.723	3.78
323.096	4.31
323.469	3.73
323.843	4.07
324.216	4.24
324.589	3.99
324.962	4.41
325.335	3.95
325.708	4.22
326.081	4.09
326.454	4.01
326.827	3.91
327.2	4.37
327.573	4.32
327.945	4.33
328.318	4.32
328.691	3.37
329.063	3.95
329.436	3.88
329.809	4.67
330.181	4.42
330.553	4.3
330.926	4.34
331.298	4.17
331.671	3.9
332.043	4.56
332.415	3.95
332.787	4.18
333.159	4.91
333.532	4.16
333.904	3.71
334.276	3.6
334.648	3.82
335.02	3.96
335.391	3.74
335.763	3.8
336.135	4.45
336.507	4.27
336.879	4.51
337.25	3.84
337.622	3.97
337.993	4.02
338.365	4.11
338.736	3.92
339.108	4.33
339.479	4.09
339.851	4.18
340.222	4.1
340.593	4.05
340.964	3.51
341.336	4.68
341.707	3.69
342.078	4.4
342.449	4.58
342.82	3.84
343.191	3.92
343.562	4.18
343.933	4.27
344.303	4.46
344.674	4.12
345.045	4.06
345.416	4.16
345.786	3.51
346.157	4.36
346.527	3.63
346.898	3.94
347.268	4.53
347.639	4.45
348.009	4.29
348.38	4.08
348.75	4.14
349.12	4.07
349.49	4.15
349.861	4.38
350.231	4.05
350.601	3.71
350.971	4.14
351.341	4.67
351.711	4.19
352.081	4.03
352.45	3.82
352.82	4.29
353.19	4.11
353.56	4.41
353.929	4.14
354.299	3.71
354.669	3.94
355.038	4.08
355.408	4.12
355.777	4.34
356.147	4.26
356.516	4.34
356.885	4.28
357.254	4.15
357.624	4.59
357.993	4.4
358.362	4.12
358.731	3.71
359.1	4.3
359.469	4.19
359.838	4.48
360.207	3.93
360.576	4.28
360.945	4.09
361.314	4.33
361.682	4.02
362.051	3.94
362.42	4.29
362.788	3.87
363.157	4.17
363.525	4.37
363.894	4.23
364.262	4.2
364.631	4.14
364.999	4.28
365.367	3.52
365.735	4.61
366.104	4.1
366.472	4.74
366.84	3.82
367.208	4.28
367.576	4.58
367.944	4.56
368.312	4.42
368.68	4.02
369.048	4.09
369.416	4.34
369.783	4.06
370.151	4.38
370.519	4.54
370.886	4.43
371.254	3.95
371.621	4.46
371.989	4.6
372.356	3.95
372.724	4.02
373.091	4.08
373.458	3.94
373.826	4.14
374.193	4.21
374.56	4.39
374.927	4.26
375.294	4.2
375.661	4.01
376.028	4.24
376.395	4.26
376.762	4.33
377.129	4.11
377.496	3.98
377.863	4.4
378.229	3.92
378.596	4.34
378.963	4.7
379.329	4.38
379.696	4.54
380.062	4.08
380.429	4.24
380.795	4.53
381.161	4.33
381.528	4.83
381.894	4.23
382.26	4.09
382.626	4.7
382.993	3.99
383.359	4.62
383.725	3.98
384.091	4.05
384.457	4.8
384.823	4.42
385.188	4.71
385.554	4.59
385.92	4.43
386.286	4.48
386.651	4.57
387.017	4.8
387.383	4.43
387.748	3.91
388.114	4.73
388.479	4.48
388.845	4.68
389.21	4.41
389.575	4.62
389.94	4.43
390.306	4.19
390.671	4.45
391.036	4.33
391.401	4.2
391.766	4.51
392.131	4.18
392.496	4.4
392.861	4.42
393.226	4.66
393.591	4.42
393.956	4.17
394.32	4.42
394.685	4.11
395.05	4.15
395.414	4.34
395.779	4.51
396.143	4.54
396.508	4.54
396.872	4.42
397.236	4.51
397.601	4.46
397.965	4.68
398.329	4.42
398.694	4.53
399.058	4.52
399.422	4.14
399.786	4.78
400.15	4.62
400.514	4.28
400.878	4.85
401.242	4.84
401.605	4.49
401.969	4.45
402.333	4.61
402.697	4.3
403.06	4.39
403.424	4.3
403.787	4.53
404.151	4.7
404.514	4.41
404.878	4.45
405.241	4.73
405.604	4.64
405.968	4.52
406.331	4.65
406.694	4.57
407.057	4.43
407.42	4.58
407.783	4.22
408.146	4.6
408.509	4.66
408.872	4.33
409.235	4.44
409.598	4.83
409.961	4.31
410.323	4.52
410.686	4.33
411.049	4.36
411.411	4.63
411.774	4.51
412.136	4.35
412.499	4.34
412.861	4.31
413.223	4.46
413.586	4.46
413.948	4.38
414.31	4.62
414.672	4.36
415.035	4.46
415.397	4.85
415.759	4.26
416.121	4.73
416.483	4.4
416.845	4.45
417.206	4.43
417.568	4.64
417.93	4.57
418.292	4.52
418.653	4.57
419.015	4.57
419.377	4.44
419.738	4.49
420.1	4.56
420.461	4.52
420.822	4.67
421.184	4.49
421.545	4.55
421.906	4.41
422.267	4.31
422.629	4.47
422.99	4.5
423.351	4.37
423.712	4.4
424.073	4.4
424.434	4.42
424.795	4.46
425.155	4.53
425.516	4.39
425.877	4.54
426.238	4.36
426.598	4.51
426.959	4.47
427.32	4.45
427.68	4.55
428.041	4.52
428.401	4.57
428.761	4.58
429.122	4.58
429.482	4.33
429.842	4.74
430.202	4.45
430.563	4.42
430.923	4.48
431.283	4.48
431.643	4.46
432.003	4.59
432.363	4.72
432.722	4.49
433.082	4.68
433.442	4.52
433.802	4.54
434.161	4.65
434.521	4.78
434.881	4.59
435.24	4.47
435.6	4.63
435.959	4.42
436.319	4.55
436.678	4.67
437.037	4.61
437.396	4.62
437.756	4.66
438.115	4.57
438.474	4.78
438.833	4.56
439.192	4.55
439.551	4.77
439.91	4.56
440.269	4.65
440.628	4.45
440.987	4.58
441.345	4.37
441.704	4.6
442.063	4.49
442.421	4.4
442.78	4.48
443.138	4.51
443.497	4.58
443.855	4.51
444.214	4.66
444.572	4.63
444.93	4.61
445.288	4.7
445.647	4.7
446.005	4.49
446.363	4.72
446.721	4.77
447.079	4.59
447.437	4.59
447.795	4.62
448.153	4.51
448.51	4.54
448.868	4.59
449.226	4.5
449.584	4.63
449.941	4.7
450.299	4.53
450.656	4.63
451.014	4.68
451.371	4.7
451.729	4.56
452.086	4.86
452.443	4.57
452.801	4.77
453.158	4.64
453.515	4.57
453.872	4.7
454.229	4.53
454.586	4.53
454.943	4.7
455.3	4.88
455.657	4.46
456.014	4.65
456.371	4.77
456.727	4.69
457.084	4.93
457.441	4.78
457.797	4.57
458.154	4.95
458.51	4.73
458.867	4.75
459.223	4.88
459.58	4.81
459.936	4.74
460.292	4.66
460.648	4.84
461.005	4.72
461.361	4.65
461.717	4.72
462.073	4.6
462.429	4.56
462.785	4.54
463.141	4.61
463.496	4.78
463.852	4.81
464.208	4.83
464.564	4.86
464.919	4.71
465.275	4.88
465.631	5.01
465.986	4.73
466.342	4.76
466.697	4.55
467.052	4.83
467.408	4.85
467.763	4.63
468.118	4.9
468.473	4.62
468.829	4.71
469.184	4.63
469.539	4.72
469.894	4.62
470.249	5.03
470.603	5.04
470.958	4.71
471.313	4.98
471.668	4.76
472.023	4.88
472.377	5.02
472.732	4.6
473.086	4.7
473.441	4.61
473.795	5.05
474.15	4.95
474.504	4.78
474.859	4.89
475.213	4.75
475.567	4.78
475.921	4.73
476.275	4.78
476.63	4.89
476.984	4.99
477.338	4.91
477.692	4.77
478.045	4.81
478.399	4.76
478.753	4.94
479.107	4.84
479.461	4.88
479.814	4.85
480.168	4.82
480.521	4.75
480.875	4.79
481.228	4.83
481.582	4.81
481.935	4.8
482.289	4.83
482.642	4.76
482.995	4.65
483.348	4.73
483.701	4.76
484.055	4.81
484.408	4.76
484.761	4.75
485.114	4.64
485.466	4.56
485.819	4.49
486.172	4.54
486.525	4.6
486.878	4.6
487.23	4.66
487.583	4.71
487.936	4.71
488.288	4.72
488.641	4.77
488.993	4.64
489.345	4.62
489.698	4.58
490.05	4.58
490.402	4.69
490.754	4.71
491.107	4.75
491.459	4.79
491.811	4.83
492.163	4.81
492.515	4.84
492.866	4.82
493.218	4.77
493.57	4.75
493.922	4.69
494.274	4.77
494.625	4.83
494.977	4.78
495.328	4.9
495.68	4.86
496.031	5
496.383	4.93
496.734	4.98
497.086	5
497.437	4.85
497.788	5.05
498.139	4.99
498.49	4.95
498.842	4.82
499.193	4.94
499.544	5.03
499.894	4.93
500.245	5.04
500.596	4.83
500.947	5.06
501.298	4.81
501.648	4.98
501.999	5.09
502.35	5
502.7	5.12
503.051	4.98
503.401	4.9
503.752	4.94
504.102	4.99
504.452	5.25
504.803	4.96
505.153	5.08
505.503	5.04
505.853	5.09
506.203	4.93
506.553	5.03
506.903	5.15
507.253	5.03
507.603	5.09
507.953	5.29
508.303	5.27
508.652	4.92
509.002	5.14
509.352	5.23
509.701	5.01
510.051	5.12
510.4	5.03
510.75	5.2
511.099	5.05
511.449	5.04
511.798	5.18
512.147	5.12
512.496	5.17
512.846	5.17
513.195	5.08
513.544	5.12
513.893	5.15
514.242	5.22
514.591	5.29
514.939	5.14
515.288	5.01
515.637	5.32
515.986	5.26
516.334	5.29
516.683	5.29
517.032	5.19
517.38	5.39
517.729	5.24
518.077	5.08
518.426	5.36
518.774	5.3
519.122	5.14
519.47	5.17
519.819	5.11
520.167	5.18
520.515	5.18
520.863	5.18
521.211	5.28
521.559	5.28
521.907	5.18
522.255	5.24
522.602	5.23
522.95	5.2
523.298	5.2
523.645	5.34
523.993	5.29
524.341	5.38
524.688	5.37
525.036	5.11
525.383	5.41
525.73	5.59
526.078	5.3
526.425	5.29
526.772	5.41
527.119	5.43
527.466	5.24
527.814	5.34
528.161	5.24
528.508	5.33
528.854	5.32
529.201	5.28
529.548	5.23
529.895	5.2
530.242	5.16
530.588	5.15
530.935	5.22
531.282	5.24
531.628	5.2
531.975	5.24
532.321	5.33
532.667	5.41
533.014	5.39
533.36	5.4
533.706	5.33
534.052	5.44
534.399	5.37
534.745	5.45
535.091	5.34
535.437	5.41
535.783	5.43
536.129	5.52
536.474	5.47
536.82	5.54
537.166	5.52
537.512	5.64
537.857	5.6
538.203	5.56
538.549	5.48
538.894	5.51
539.239	5.6
539.585	5.67
539.93	5.6
540.276	5.73
540.621	5.73
540.966	5.76
541.311	5.67
541.656	5.54
542.001	5.75
542.346	5.86
542.691	5.62
543.036	5.6
543.381	5.5
543.726	5.56
544.071	5.65
544.415	5.65
544.76	5.65
545.105	5.7
545.449	5.73
545.794	5.88
546.138	5.8
546.483	5.87
546.827	5.97
547.171	5.88
547.516	5.87
547.86	5.88
548.204	5.92
548.548	5.9
548.892	5.99
549.236	5.87
549.58	6.04
549.924	5.97
550.268	6.08
550.612	6.09
550.956	6.28
551.3	6.16
551.643	6.27
551.987	6.27
552.33	6.4
552.674	6.31
553.017	6.11
553.361	5.88
553.704	6.4
554.048	6.13
554.391	6.18
554.734	6.21
555.077	6.34
555.42	6.13
555.764	6.26
556.107	6.15
556.45	6.13
556.793	6.35
557.135	6.48
557.478	6.42
557.821	6.41
558.164	6.38
558.507	6.32
558.849	6.37
559.192	6.51
559.534	6.56
559.877	6.61
560.219	6.46
560.562	6.71
560.904	6.57
561.246	6.53
561.589	6.56
561.931	6.65
562.273	6.57
562.615	6.79
562.957	6.64
563.299	6.52
563.641	6.77
563.983	6.64
564.325	6.53
564.667	6.66
565.008	6.5
565.35	6.66
565.692	6.71
566.033	6.5
566.375	6.9
566.716	6.77
567.058	6.79
567.399	6.86
567.741	6.64
568.082	6.87
568.423	6.84
568.764	6.91
569.105	6.83
569.447	7.12
569.788	6.97
570.129	7.13
570.47	6.95
570.811	7.18
571.151	7.15
571.492	7.15
571.833	7.06
572.174	7.1
572.514	6.97
572.855	7.03
573.195	7.24
573.536	7.16
573.876	6.97
574.217	7.01
574.557	7.39
574.898	7.2
575.238	7.5
575.578	7.34
575.918	7.33
576.258	7.35
576.598	7.39
576.938	7.31
577.278	7.37
577.618	7.42
577.958	7.32
578.298	7.55
578.638	7.4
578.977	7.62
579.317	7.42
579.657	7.53
579.996	7.48
580.336	7.65
580.675	7.72
581.014	7.8
581.354	7.79
581.693	7.83
582.032	7.64
582.372	7.87
582.711	7.93
583.05	7.81
583.389	8.01
583.728	7.84
584.067	8.1
584.406	8.11
584.745	7.92
585.083	8.28
585.422	7.93
585.761	8.01
586.1	8.1
586.438	8.17
586.777	8.11
587.115	8.18
587.454	8.34
587.792	8.31
588.13	8.35
588.469	8.24
588.807	8.28
589.145	8.25
589.483	8.39
589.821	8.45
590.159	8.25
590.497	8.58
590.835	8.78
591.173	8.58
591.511	8.41
591.849	8.38
592.187	8.51
592.524	8.51
592.862	8.53
593.2	8.56
593.537	8.66
593.875	8.57
594.212	8.45
594.55	8.61
594.887	8.82
595.224	8.59
595.561	8.85
595.899	8.9
596.236	8.68
596.573	8.83
596.91	8.57
597.247	8.65
597.584	9.07
597.921	8.89
598.258	8.94
598.594	8.89
598.931	8.93
599.268	9.1
599.604	8.99
599.941	9.17
600.277	9.1
600.614	9.11
600.95	8.91
601.287	9.25
601.623	9.21
601.959	9.22
602.296	9.34
602.632	9.32
602.968	9.23
603.304	9.41
603.64	9.49
603.976	9.65
604.312	9.46
604.648	9.45
604.984	9.31
605.319	9.46
605.655	9.54
605.991	9.63
606.326	9.54
606.662	9.79
606.998	9.49
607.333	9.61
607.668	9.8
608.004	9.91
608.339	9.98
608.674	10.07
609.01	9.59
609.345	9.62
609.68	10.15
610.015	9.71
610.35	9.76
610.685	10.01
611.02	10.18
611.355	10.19
611.689	10.22
612.024	10.1
612.359	10.1
612.694	10.22
613.028	10.16
613.363	10.5
613.697	10.5
614.032	10.51
614.366	10.07
614.7	10.3
615.035	10.53
615.369	10.12
615.703	10.67
616.037	10.29
616.371	10.08
616.705	10.54
617.039	10.67
617.373	10.57
617.707	10.81
618.041	10.87
618.375	10.81
618.709	10.96
619.042	10.72
619.376	10.9
619.71	11.09
620.043	10.94
620.377	10.96
620.71	11.32
621.043	11.07
621.377	11.24
621.71	11.41
622.043	10.91
622.376	10.99
622.709	11.26
623.043	11.71
623.376	11.27
623.709	10.62
624.041	11.43
624.374	11.21
624.707	11.25
625.04	11.35
625.373	11.15
625.705	11.5
626.038	11.81
626.37	11.44
626.703	11.31
627.035	11.57
627.368	12.16
627.7	11.55
628.032	11.63
628.365	12.23
628.697	11.81
629.029	11.9
629.361	11.75
629.693	12.05
630.025	11.83
630.357	12.26
630.689	12.14
631.021	11.88
631.353	12.3
631.684	12.02
632.016	11.87
632.348	11.98
632.679	12.09
633.011	12.54
633.342	12.5
633.674	12.3
634.005	12.42
634.336	12.7
634.668	12.75
634.999	12.28
635.33	12.68
635.661	12.81
635.992	12.66
636.323	12.75
636.654	12.59
636.985	12.5
637.316	12.55
637.647	12.31
637.977	12.89
638.308	13.01
638.639	12.42
638.969	12.73
639.3	12.74
639.63	12.84
639.961	13.22
640.291	12.82
640.622	12.91
640.952	12.9
641.282	13.63
641.612	13.18
641.943	12.68
642.273	13.32
642.603	13.51
642.933	13.04
643.263	13.54
643.592	13.18
643.922	13.27
644.252	13.15
644.582	13.45
644.911	13.77
645.241	13.65
645.571	13.24
645.9	13.38
646.23	13.5
646.559	13.8
646.888	13.5
647.218	13.75
647.547	13.91
647.876	13.66
648.205	13.88
648.534	13.81
648.863	13.6
649.192	13.64
649.521	13.51
649.85	13.69
650.179	14.25
650.508	13.91
650.837	13.64
651.165	14.04
651.494	14.41
651.822	13.89
652.151	13.84
652.479	14.23
652.808	13.78
653.136	14.25
653.465	13.89
653.793	13.96
654.121	14.05
654.449	14.36
654.777	14.65
655.105	14.73
655.433	14.49
655.761	14.51
656.089	15.14
656.417	15.39
656.745	14.51
657.073	14.8
657.4	15.29
657.728	14.62
658.056	15.02
658.383	15.02
658.711	15.25
659.038	15.05
659.365	15.1
659.693	15.64
660.02	15.08
660.347	15.28
660.674	15.13
661.001	15.29
661.329	14.76
661.656	15.01
661.982	15.18
662.309	15.13
662.636	14.56
662.963	15.69
663.29	15.57
663.616	15.42
663.943	15.19
664.27	15.57
664.596	15.46
664.923	15.79
665.249	15.83
665.576	15.84
665.902	16.14
666.228	16.04
666.554	16.05
666.881	15.56
667.207	15.96
667.533	15.93
667.859	15.64
668.185	16.48
668.511	15.67
668.837	15.54
669.162	16.09
669.488	15.4
669.814	16.32
670.139	16.39
670.465	16.67
670.791	16.76
671.116	17.24
671.442	16.42
671.767	16.14
672.092	16.01
672.418	16.4
672.743	16.65
673.068	15.89
673.393	16.28
673.718	16.59
674.043	16.73
674.368	16.68
674.693	17.49
675.018	16.87
675.343	16.99
675.667	16.47
675.992	17.25
676.317	16.98
676.641	17.31
676.966	17.45
677.29	16.88
677.615	17.34
677.939	17.53
678.264	17.87
678.588	18.02
678.912	17.08
679.236	17.71
679.56	16.81
679.885	18.34
680.209	17.36
680.532	17.49
680.856	17.78
681.18	17.3
681.504	17.23
681.828	17.4
682.152	16.92
682.475	17.91
682.799	17.86
683.122	17.48
683.446	17.91
683.769	17.6
684.093	17.6
684.416	18.47
684.739	17.82
685.062	17.25
685.386	17.64
685.709	17.8
686.032	17.79
686.355	18.4
686.678	18.19
687.001	18.66
