Data from 0207_chest_Reflection__3__296.txt Node

Date: Fri Dec 15 19:27:58 CST 2023
User: ToomeyLab
Spectrometer: FLMS14357
Trigger mode: 0
Integration Time (sec): 1.000000E-2
Scans to average: 100
Electric dark correction enabled: true
Nonlinearity correction enabled: false
Boxcar width: 0
XAxis mode: Wavelengths
Number of Pixels in Spectrum: 2048
>>>>>Begin Spectral Data<<<<<
189.047	145.23
189.435	145.23
189.823	145.23
190.211	-251.82
190.599	235.07
190.987	126.26
191.375	22.33
191.763	-8.14
192.151	-150.78
192.538	21.24
192.926	-1738.71
193.314	106.16
193.702	-89.09
194.089	54.67
194.477	-25.52
194.864	45.8
195.252	69.23
195.639	74.3
196.027	-42.17
196.414	208.23
196.801	-100.9
197.189	184.11
197.576	262.15
197.963	27.59
198.351	-491.58
198.738	-9.64
199.125	47.87
199.512	-65.07
199.899	0.81
200.286	14.26
200.673	44.58
201.06	-10.78
201.447	-48.86
201.833	-76.47
202.22	20.8
202.607	14.39
202.994	19.64
203.38	-15.31
203.767	-4.2
204.154	24.57
204.54	-3.84
204.927	-79.96
205.313	-87
205.699	24.84
206.086	27.46
206.472	30.68
206.858	25.42
207.245	-39.82
207.631	-8.74
208.017	-10.64
208.403	-40.71
208.789	4.46
209.175	27.16
209.561	-35.7
209.947	23.23
210.333	-96.62
210.719	24.44
211.105	-15.38
211.491	-25.95
211.876	6.63
212.262	-0.58
212.648	10.61
213.034	12
213.419	-45.15
213.805	-17.86
214.19	-41.47
214.576	-69.81
214.961	-28.05
215.346	-203.98
215.732	15.82
216.117	20.78
216.502	35.25
216.888	-9.6
217.273	21.52
217.658	-8.83
218.043	16.93
218.428	-122.58
218.813	-34.88
219.198	-7.92
219.583	-3.06
219.968	-23.45
220.353	-26.73
220.738	-11.95
221.122	-8.52
221.507	-41.98
221.892	-25.34
222.276	-13.45
222.661	-5.65
223.046	11.46
223.43	11.27
223.815	9.05
224.199	-10.54
224.583	-8.93
224.968	-4.33
225.352	11.44
225.736	-11.07
226.121	-14.38
226.505	-2.47
226.889	1.43
227.273	1.8
227.657	3.55
228.041	3.87
228.425	0.34
228.809	5.08
229.193	1.71
229.577	1.42
229.961	1.7
230.344	2.43
230.728	3.77
231.112	3.25
231.495	2.22
231.879	-0.26
232.263	2.52
232.646	2.78
233.03	2.88
233.413	1.39
233.797	2.81
234.18	1.05
234.563	-0.08
234.946	-1.21
235.33	4.8
235.713	2.27
236.096	3.71
236.479	4.09
236.862	0.57
237.245	5.14
237.628	4.46
238.011	2.51
238.394	1.87
238.777	3.6
239.16	2.46
239.543	1.39
239.925	3.29
240.308	3.1
240.691	3.6
241.073	3.97
241.456	1.46
241.838	2.63
242.221	2.76
242.603	2.65
242.986	2.59
243.368	2.83
243.75	3.46
244.133	2.56
244.515	2.61
244.897	3.17
245.279	3.24
245.661	2.98
246.043	1.86
246.425	1.49
246.807	4.16
247.189	2.89
247.571	3.36
247.953	3.14
248.335	2.96
248.717	3.1
249.098	3.09
249.48	3.08
249.862	2.77
250.243	3.01
250.625	2.95
251.006	3.46
251.388	2.42
251.769	3.19
252.151	3.59
252.532	2.76
252.913	2.45
253.295	2.81
253.676	2.34
254.057	2.6
254.438	2.98
254.819	2.44
255.2	3.2
255.581	3.79
255.962	2.78
256.343	2.76
256.724	1.03
257.105	2.91
257.486	1.58
257.867	3.24
258.247	2.92
258.628	2.15
259.009	3.25
259.389	3.4
259.77	1.87
260.15	2.37
260.531	2.06
260.911	3.16
261.292	2.99
261.672	3.04
262.052	3.04
262.432	3.08
262.813	3.1
263.193	2.73
263.573	2.77
263.953	2.41
264.333	2.8
264.713	3.08
265.093	2.21
265.473	2.31
265.853	1.89
266.233	3.18
266.612	0.97
266.992	1.78
267.372	2.87
267.752	2.51
268.131	2.44
268.511	3.17
268.89	2.92
269.27	2.36
269.649	2.31
270.029	2.26
270.408	4.22
270.787	3.21
271.167	2.75
271.546	2.71
271.925	2.36
272.304	2.72
272.683	3.22
273.062	2.4
273.441	2.87
273.82	2.3
274.199	2.84
274.578	2.83
274.957	2.87
275.336	3.12
275.715	2.48
276.093	2.24
276.472	2.31
276.851	2.76
277.229	2.91
277.608	2.26
277.986	2.66
278.365	2.97
278.743	2.38
279.122	2.47
279.5	2.58
279.878	3.36
280.257	3.32
280.635	2.86
281.013	2.76
281.391	3.03
281.769	2.67
282.147	3.4
282.525	2.47
282.903	2.46
283.281	2.97
283.659	2.94
284.037	2.82
284.415	3.05
284.792	2.84
285.17	2.14
285.548	2.86
285.925	2.89
286.303	2.84
286.68	2.62
287.058	2.56
287.435	2.74
287.813	2.62
288.19	2.94
288.567	2.97
288.945	3.27
289.322	2.87
289.699	2.78
290.076	2.93
290.453	2.75
290.83	2.8
291.207	2.96
291.584	3.17
291.961	3.4
292.338	2.99
292.715	3.3
293.092	2.85
293.469	2.97
293.845	3.35
294.222	3.19
294.599	3.09
294.975	2.84
295.352	2.9
295.728	2.56
296.105	2.71
296.481	3.59
296.858	2.92
297.234	3.27
297.61	3.25
297.986	2.86
298.363	3.23
298.739	3.14
299.115	3.23
299.491	3.04
299.867	2.87
300.243	3
300.619	3.05
300.995	2.89
301.371	3.47
301.746	2.98
302.122	3.6
302.498	2.8
302.874	2.89
303.249	3.01
303.625	3
304	3.68
304.376	3.25
304.751	2.52
305.127	3.71
305.502	2.48
305.878	2.51
306.253	3.15
306.628	4.16
307.003	3
307.378	3.4
307.754	3.04
308.129	2.53
308.504	3.31
308.879	2.18
309.254	3.74
309.629	3.37
310.003	3.05
310.378	3.47
310.753	3.87
311.128	3.31
311.502	3.11
311.877	3.84
312.252	2.7
312.626	3.24
313.001	2.96
313.375	3.78
313.75	2.99
314.124	3.84
314.498	2.86
314.873	3.64
315.247	3.35
315.621	2.95
315.995	2.37
316.369	3.03
316.743	3.55
317.117	3.42
317.491	3.66
317.865	4.06
318.239	3.66
318.613	3.36
318.987	3.63
319.361	2.8
319.734	3.34
320.108	3.49
320.482	3.04
320.855	3.51
321.229	3.38
321.602	3.09
321.976	4.26
322.349	2.99
322.723	3.43
323.096	3.96
323.469	2.85
323.843	3.46
324.216	3.38
324.589	3.26
324.962	2.94
325.335	2.93
325.708	2.96
326.081	3.14
326.454	3.62
326.827	3.19
327.2	3.42
327.573	3.8
327.945	3.32
328.318	3.18
328.691	3.09
329.063	3.01
329.436	3.08
329.809	3.29
330.181	3.33
330.553	3.41
330.926	3.63
331.298	3.36
331.671	2.89
332.043	3.67
332.415	3.84
332.787	3.14
333.159	3.63
333.532	3.84
333.904	3.2
334.276	3.39
334.648	3.61
335.02	3.37
335.391	3.23
335.763	3.14
336.135	3.49
336.507	4.17
336.879	3.29
337.25	2.79
337.622	3.65
337.993	3.37
338.365	3.92
338.736	3.49
339.108	3.56
339.479	3.04
339.851	3.37
340.222	3.38
340.593	3.14
340.964	3.06
341.336	3.71
341.707	2.6
342.078	3.73
342.449	3.66
342.82	3.81
343.191	3.45
343.562	3.96
343.933	4.02
344.303	3.23
344.674	3.79
345.045	3.76
345.416	3.68
345.786	3.34
346.157	3.78
346.527	3.34
346.898	3
347.268	3.46
347.639	3.94
348.009	3.27
348.38	3.12
348.75	3.57
349.12	3.5
349.49	4.01
349.861	3.67
350.231	3.25
350.601	3.68
350.971	3.73
351.341	3.64
351.711	3.55
352.081	3.94
352.45	3.46
352.82	3.62
353.19	3.9
353.56	3.51
353.929	3.93
354.299	3.6
354.669	3.04
355.038	3.93
355.408	3.66
355.777	3.48
356.147	3.34
356.516	3.36
356.885	3.45
357.254	3.67
357.624	3.69
357.993	3.58
358.362	3.48
358.731	3.25
359.1	3.45
359.469	3.56
359.838	3.72
360.207	3.71
360.576	3.67
360.945	3.66
361.314	4.18
361.682	3.05
362.051	3.45
362.42	3.84
362.788	3.48
363.157	3.93
363.525	3.94
363.894	3.8
364.262	3.72
364.631	3.66
364.999	4.1
365.367	3.11
365.735	4.09
366.104	3.68
366.472	3.73
366.84	3.59
367.208	3.37
367.576	4.08
367.944	3.77
368.312	3.34
368.68	3.34
369.048	4.03
369.416	3.82
369.783	3.58
370.151	3.7
370.519	3.55
370.886	3.64
371.254	3.56
371.621	3.99
371.989	4.24
372.356	3.23
372.724	3.83
373.091	3.21
373.458	3.64
373.826	3.46
374.193	3.79
374.56	3.91
374.927	3.85
375.294	3.62
375.661	3.61
376.028	3.55
376.395	3.62
376.762	4.05
377.129	3.55
377.496	3.83
377.863	3.86
378.229	3.66
378.596	3.86
378.963	3.83
379.329	3.52
379.696	3.87
380.062	3.82
380.429	3.58
380.795	3.3
381.161	3.94
381.528	3.88
381.894	3.75
382.26	3.89
382.626	4.08
382.993	3.46
383.359	3.97
383.725	3.67
384.091	3.75
384.457	3.83
384.823	3.89
385.188	3.83
385.554	3.68
385.92	4.25
386.286	4.2
386.651	4.11
387.017	3.99
387.383	3.96
387.748	3.65
388.114	4.11
388.479	3.53
388.845	4.13
389.21	4.15
389.575	3.85
389.94	4.2
390.306	4.06
390.671	4.16
391.036	3.65
391.401	3.77
391.766	4.05
392.131	3.79
392.496	4.34
392.861	3.76
393.226	4.2
393.591	4.08
393.956	3.98
394.32	4.06
394.685	3.76
395.05	3.63
395.414	3.8
395.779	3.76
396.143	3.8
396.508	3.99
396.872	4.08
397.236	4.13
397.601	3.86
397.965	3.96
398.329	4.19
398.694	4.19
399.058	3.82
399.422	4
399.786	4.18
400.15	4.11
400.514	4.11
400.878	4.02
401.242	4.26
401.605	4.08
401.969	4.24
402.333	3.99
402.697	4.16
403.06	4.26
403.424	4.09
403.787	3.96
404.151	4.09
404.514	4.12
404.878	4.2
405.241	4.33
405.604	4.1
405.968	4
406.331	4.1
406.694	4.15
407.057	4.25
407.42	4.2
407.783	3.86
408.146	4.06
408.509	4.15
408.872	4.05
409.235	4.22
409.598	4.31
409.961	4.11
410.323	4.52
410.686	4.09
411.049	3.89
411.411	4.06
411.774	4.11
412.136	4.13
412.499	4
412.861	4.17
413.223	4.08
413.586	4.23
413.948	4.14
414.31	4.18
414.672	4.09
415.035	3.95
415.397	4.51
415.759	3.88
416.121	4.18
416.483	4.04
416.845	4.1
417.206	4.21
417.568	4.44
417.93	4.05
418.292	4.02
418.653	4.39
419.015	4.23
419.377	4.33
419.738	4.21
420.1	4.15
420.461	4.18
420.822	4.09
421.184	4.16
421.545	4.26
421.906	4.05
422.267	4.24
422.629	4.04
422.99	4.2
423.351	4.11
423.712	4.14
424.073	4.26
424.434	4.13
424.795	4.11
425.155	4.14
425.516	4.1
425.877	4.17
426.238	4.11
426.598	4.17
426.959	4.09
427.32	4.13
427.68	4.21
428.041	4.24
428.401	4.27
428.761	4.32
429.122	4.4
429.482	3.97
429.842	4.29
430.202	4.26
430.563	4.4
430.923	4.12
431.283	4.43
431.643	4.31
432.003	4.33
432.363	4.39
432.722	4.21
433.082	4.26
433.442	4.36
433.802	4.14
434.161	4.38
434.521	4.59
434.881	4.23
435.24	4.13
435.6	4.53
435.959	4.39
436.319	4.42
436.678	4.4
437.037	4.28
437.396	4.47
437.756	4.38
438.115	4.33
438.474	4.36
438.833	4.22
439.192	4.32
439.551	4.5
439.91	4.4
440.269	4.27
440.628	4.26
440.987	4.4
441.345	4.27
441.704	4.4
442.063	4.36
442.421	4.33
442.78	4.44
443.138	4.35
443.497	4.34
443.855	4.27
444.214	4.4
444.572	4.49
444.93	4.45
445.288	4.54
445.647	4.55
446.005	4.5
446.363	4.59
446.721	4.41
447.079	4.21
447.437	4.35
447.795	4.47
448.153	4.28
448.51	4.42
448.868	4.35
449.226	4.4
449.584	4.4
449.941	4.48
450.299	4.46
450.656	4.57
451.014	4.46
451.371	4.42
451.729	4.45
452.086	4.5
452.443	4.41
452.801	4.53
453.158	4.53
453.515	4.31
453.872	4.68
454.229	4.47
454.586	4.49
454.943	4.59
455.3	4.68
455.657	4.37
456.014	4.52
456.371	4.44
456.727	4.47
457.084	4.71
457.441	4.5
457.797	4.53
458.154	4.62
458.51	4.66
458.867	4.71
459.223	4.76
459.58	4.47
459.936	4.59
460.292	4.57
460.648	4.54
461.005	4.48
461.361	4.63
461.717	4.5
462.073	4.48
462.429	4.44
462.785	4.48
463.141	4.51
463.496	4.71
463.852	4.67
464.208	4.54
464.564	4.53
464.919	4.7
465.275	4.63
465.631	4.88
465.986	4.61
466.342	4.5
466.697	4.37
467.052	4.65
467.408	4.72
467.763	4.6
468.118	4.72
468.473	4.68
468.829	4.75
469.184	4.72
469.539	4.77
469.894	4.65
470.249	4.87
470.603	4.85
470.958	4.96
471.313	4.76
471.668	4.81
472.023	4.78
472.377	4.83
472.732	4.76
473.086	4.68
473.441	4.52
473.795	4.95
474.15	4.83
474.504	4.86
474.859	4.84
475.213	4.65
475.567	4.82
475.921	4.76
476.275	4.79
476.63	4.67
476.984	4.94
477.338	4.89
477.692	4.61
478.045	4.89
478.399	4.71
478.753	4.98
479.107	4.92
479.461	4.82
479.814	4.81
480.168	4.8
480.521	4.69
480.875	4.73
481.228	4.83
481.582	4.88
481.935	4.82
482.289	4.92
482.642	4.78
482.995	4.71
483.348	4.72
483.701	4.84
484.055	4.83
484.408	4.94
484.761	4.71
485.114	4.64
485.466	4.58
485.819	4.59
486.172	4.56
486.525	4.59
486.878	4.71
487.23	4.71
487.583	4.83
487.936	4.72
488.288	4.79
488.641	4.84
488.993	4.68
489.345	4.66
489.698	4.7
490.05	4.67
490.402	4.76
490.754	4.8
491.107	4.84
491.459	4.91
491.811	4.93
492.163	4.86
492.515	4.89
492.866	4.8
493.218	4.84
493.57	4.75
493.922	4.76
494.274	4.88
494.625	4.97
494.977	4.9
495.328	5.1
495.68	5.11
496.031	5.19
496.383	4.94
496.734	5.1
497.086	5.06
497.437	5.09
497.788	4.98
498.139	4.95
498.49	5.19
498.842	5.03
499.193	5.06
499.544	5.09
499.894	5.03
500.245	5.17
500.596	5.07
500.947	5.23
501.298	4.98
501.648	5.34
501.999	5.25
502.35	5.2
502.7	5.3
503.051	5.06
503.401	5.01
503.752	5.34
504.102	5.11
504.452	5.4
504.803	5.13
505.153	5.19
505.503	5.19
505.853	5.16
506.203	5.25
506.553	5.34
506.903	5.24
507.253	5.25
507.603	5.19
507.953	5.31
508.303	5.49
508.652	5.22
509.002	5.35
509.352	5.31
509.701	5.41
510.051	5.32
510.4	5.38
510.75	5.37
511.099	5.39
511.449	5.22
511.798	5.3
512.147	5.48
512.496	5.38
512.846	5.4
513.195	5.33
513.544	5.24
513.893	5.5
514.242	5.36
514.591	5.58
514.939	5.46
515.288	5.42
515.637	5.55
515.986	5.53
516.334	5.51
516.683	5.53
517.032	5.55
517.38	5.62
517.729	5.56
518.077	5.45
518.426	5.6
518.774	5.63
519.122	5.48
519.47	5.57
519.819	5.5
520.167	5.45
520.515	5.58
520.863	5.51
521.211	5.54
521.559	5.6
521.907	5.61
522.255	5.61
522.602	5.8
522.95	5.68
523.298	5.75
523.645	5.81
523.993	5.76
524.341	5.88
524.688	5.89
525.036	5.72
525.383	5.85
525.73	5.9
526.078	5.79
526.425	5.75
526.772	5.79
527.119	5.76
527.466	5.74
527.814	5.66
528.161	5.84
528.508	5.8
528.854	5.81
529.201	5.8
529.548	5.77
529.895	5.67
530.242	5.56
530.588	5.62
530.935	5.63
531.282	5.71
531.628	5.71
531.975	5.79
532.321	5.84
532.667	5.86
533.014	5.95
533.36	6.01
533.706	5.88
534.052	5.97
534.399	5.87
534.745	5.94
535.091	5.94
535.437	5.97
535.783	6
536.129	6.01
536.474	6.06
536.82	6.15
537.166	6.13
537.512	6.17
537.857	6.08
538.203	6.14
538.549	6.16
538.894	6.08
539.239	6.24
539.585	6.08
539.93	6.22
540.276	6.35
540.621	6.31
540.966	6.36
541.311	6.34
541.656	6.34
542.001	6.38
542.346	6.45
542.691	6.26
543.036	6.22
543.381	6.16
543.726	6.18
544.071	6.31
544.415	6.29
544.76	6.35
545.105	6.36
545.449	6.38
545.794	6.51
546.138	6.53
546.483	6.53
546.827	6.71
547.171	6.59
547.516	6.68
547.86	6.66
548.204	6.66
548.548	6.55
548.892	6.62
549.236	6.72
549.58	6.64
549.924	6.86
550.268	6.73
550.612	6.91
550.956	6.9
551.3	6.87
551.643	6.96
551.987	7.06
552.33	6.81
552.674	7.1
553.017	6.98
553.361	6.73
553.704	7.15
554.048	6.94
554.391	7
554.734	7.02
555.077	7.06
555.42	6.94
555.764	6.98
556.107	6.92
556.45	7.07
556.793	6.94
557.135	7.28
557.478	7.17
557.821	7.12
558.164	7.16
558.507	7.18
558.849	7.34
559.192	7.37
559.534	7.32
559.877	7.45
560.219	7.37
560.562	7.55
560.904	7.33
561.246	7.51
561.589	7.5
561.931	7.34
562.273	7.54
562.615	7.62
562.957	7.6
563.299	7.53
563.641	7.56
563.983	7.58
564.325	7.4
564.667	7.42
565.008	7.64
565.35	7.76
565.692	7.52
566.033	7.68
566.375	7.75
566.716	7.82
567.058	7.77
567.399	7.76
567.741	7.73
568.082	7.76
568.423	7.74
568.764	7.87
569.105	7.93
569.447	8.04
569.788	7.69
570.129	8.03
570.47	7.95
570.811	8.2
571.151	8.17
571.492	8.27
571.833	8.26
572.174	7.97
572.514	8.2
572.855	8.25
573.195	8.25
573.536	8.21
573.876	8.18
574.217	8.3
574.557	8.33
574.898	8.31
575.238	8.59
575.578	8.15
575.918	8.55
576.258	8.63
576.598	8.49
576.938	8.4
577.278	8.4
577.618	8.5
577.958	8.44
578.298	8.6
578.638	8.62
578.977	8.8
579.317	8.48
579.657	8.71
579.996	8.68
580.336	8.82
580.675	8.69
581.014	8.84
581.354	8.83
581.693	8.9
582.032	8.67
582.372	8.75
582.711	8.83
583.05	8.71
583.389	9.02
583.728	8.99
584.067	9.3
584.406	9.33
584.745	9.04
585.083	9.17
585.422	9.22
585.761	9.38
586.1	9.55
586.438	9.25
586.777	9.41
587.115	9.68
587.454	9.45
587.792	9.24
588.13	9.58
588.469	9.5
588.807	9.49
589.145	9.41
589.483	9.44
589.821	9.55
590.159	9.42
590.497	10.02
590.835	9.85
591.173	9.76
591.511	9.63
591.849	9.74
592.187	9.72
592.524	9.9
592.862	9.69
593.2	9.81
593.537	9.81
593.875	9.82
594.212	9.81
594.55	9.9
594.887	10.16
595.224	10.06
595.561	10.05
595.899	10.39
596.236	10.02
596.573	10.04
596.91	9.69
597.247	9.97
597.584	10.22
597.921	10.16
598.258	10.07
598.594	10.25
598.931	10.27
599.268	10.35
599.604	10.33
599.941	10.32
600.277	10.29
600.614	10.27
600.95	10.41
601.287	10.61
601.623	10.44
601.959	10.41
602.296	10.89
602.632	10.71
602.968	10.87
603.304	10.73
603.64	10.78
603.976	10.59
604.312	10.84
604.648	10.95
604.984	10.78
605.319	11.01
605.655	10.96
605.991	11.03
606.326	10.95
606.662	10.86
606.998	10.7
607.333	11.04
607.668	11.13
608.004	10.88
608.339	11.15
608.674	11.23
609.01	11.07
609.345	10.89
609.68	11.44
610.015	11.15
610.35	11.17
610.685	11.22
611.02	11.36
611.355	11.52
611.689	11.39
612.024	11.51
612.359	11.34
612.694	11.48
613.028	11.38
613.363	11.53
613.697	11.67
614.032	11.87
614.366	11.82
614.7	11.99
615.035	11.85
615.369	11.58
615.703	11.39
616.037	11.74
616.371	11.69
616.705	11.72
617.039	11.8
617.373	11.91
617.707	11.93
618.041	12.09
618.375	12.5
618.709	12.3
619.042	11.57
619.376	12.28
619.71	12.74
620.043	12.22
620.377	12.07
620.71	12.32
621.043	11.88
621.377	12.45
621.71	12.15
622.043	12.25
622.376	12.32
622.709	12.53
623.043	12.41
623.376	12.68
623.709	12.5
624.041	12.97
624.374	12.74
624.707	12.51
625.04	12.99
625.373	12.66
625.705	12.59
626.038	12.69
626.37	12.64
626.703	12.71
627.035	13.21
627.368	13.33
627.7	12.69
628.032	12.85
628.365	13.2
628.697	13.06
629.029	13
629.361	13.11
629.693	13.17
630.025	12.65
630.357	13.44
630.689	13.03
631.021	13
631.353	13.03
631.684	13.06
632.016	13.01
632.348	13.48
632.679	13.65
633.011	13.53
633.342	13.61
633.674	13.36
634.005	14.03
634.336	13.17
634.668	13.74
634.999	13.37
635.33	13.59
635.661	13.78
635.992	13.74
636.323	13.77
636.654	13.85
636.985	13.56
637.316	13.72
637.647	13.43
637.977	14.03
638.308	14.2
638.639	13.42
638.969	13.77
639.3	14
639.63	13.77
639.961	13.65
640.291	13.84
640.622	14.32
640.952	13.73
641.282	14.39
641.612	14.08
641.943	13.99
642.273	14.33
642.603	14.76
642.933	14.82
643.263	14.32
643.592	13.88
643.922	14.17
644.252	14.2
644.582	14.36
644.911	14.49
645.241	14.38
645.571	14.09
645.9	14.26
646.23	14.26
646.559	14.98
646.888	14.28
647.218	14.27
647.547	14.65
647.876	14.55
648.205	14.71
648.534	15.06
648.863	14.77
649.192	14.86
649.521	14.81
649.85	14.74
650.179	15.05
650.508	14.83
650.837	14.78
651.165	15
651.494	15.01
651.822	14.98
652.151	14.87
652.479	15.27
652.808	15.21
653.136	15.26
653.465	14.9
653.793	14.78
654.121	14.79
654.449	15.22
654.777	15.38
655.105	15.13
655.433	14.96
655.761	15.31
656.089	15.93
656.417	15.71
656.745	15.45
657.073	15.87
657.4	15.97
657.728	15.99
658.056	15.19
658.383	15.41
658.711	15.73
659.038	15.54
659.365	16.02
659.693	15.28
660.02	15.58
660.347	15.8
660.674	15.99
661.001	15.56
661.329	15.33
661.656	16.01
661.982	16.02
662.309	15.89
662.636	16.11
662.963	16.2
663.29	16.3
663.616	16.03
663.943	15.49
664.27	16.07
664.596	16.6
664.923	16.4
665.249	16.16
665.576	16.23
665.902	16.83
666.228	16.77
666.554	15.99
666.881	15.95
667.207	15.87
667.533	16.42
667.859	16.69
668.185	17.2
668.511	16.69
668.837	16.07
669.162	16.61
669.488	16.61
669.814	16.77
670.139	16.71
670.465	16.8
670.791	16.67
671.116	17.21
671.442	16.29
671.767	16.86
672.092	17.01
672.418	16.6
672.743	16.58
673.068	16.75
673.393	17.52
673.718	17.15
674.043	16.75
674.368	17.01
674.693	17.21
675.018	16.61
675.343	17.08
675.667	17.2
675.992	17.28
676.317	17.36
676.641	17.64
676.966	16.97
677.29	17
677.615	16.98
677.939	17.89
678.264	18.48
678.588	17.6
678.912	18.18
679.236	18.05
679.56	17.47
679.885	17.82
680.209	17.25
680.532	17.68
680.856	18.04
681.18	17.75
681.504	18.15
681.828	17.68
682.152	17.5
682.475	18.08
682.799	17.91
683.122	17.75
683.446	17.29
683.769	18.21
684.093	17.78
684.416	18.03
684.739	17.67
685.062	17.58
685.386	18.14
685.709	17.37
