Data from 0207_crown_Reflection__1__300.txt Node

Date: Fri Dec 15 19:29:14 CST 2023
User: ToomeyLab
Spectrometer: FLMS14357
Trigger mode: 0
Integration Time (sec): 1.000000E-2
Scans to average: 100
Electric dark correction enabled: true
Nonlinearity correction enabled: false
Boxcar width: 0
XAxis mode: Wavelengths
Number of Pixels in Spectrum: 2048
>>>>>Begin Spectral Data<<<<<
189.047	28.12
189.435	28.12
189.823	28.12
190.211	472.94
190.599	8.22
190.987	41.89
191.375	214.87
191.763	279.02
192.151	147.65
192.538	76.24
192.926	2867.74
193.314	151.08
193.702	56.2
194.089	293.7
194.477	-48.51
194.864	396.29
195.252	95.8
195.639	82.81
196.027	101.67
196.414	181.96
196.801	-16.93
197.189	190.32
197.576	342.15
197.963	-298.83
198.351	-8.3
198.738	80.72
199.125	78.57
199.512	-55.63
199.899	-29.69
200.286	32.66
200.673	9.02
201.06	-4.4
201.447	-9
201.833	-18.23
202.22	1.24
202.607	8.08
202.994	-53.17
203.38	27.7
203.767	33.08
204.154	20.47
204.54	12.14
204.927	11.61
205.313	-58.27
205.699	19.38
206.086	32.66
206.472	30
206.858	-7.36
207.245	8.19
207.631	39.8
208.017	-0.67
208.403	-4.27
208.789	6.71
209.175	1.66
209.561	-11.02
209.947	0.83
210.333	-56.92
210.719	15.53
211.105	0.45
211.491	-32.21
211.876	45.08
212.262	-3.64
212.648	12.3
213.034	28.34
213.419	-10.64
213.805	-4.01
214.19	-50.53
214.576	-12.95
214.961	-43.87
215.346	-117.78
215.732	-25.77
216.117	30.03
216.502	-0.96
216.888	3.29
217.273	61.97
217.658	-1.23
218.043	2.39
218.428	-72.24
218.813	-56.7
219.198	-24.19
219.583	-14.09
219.968	12.99
220.353	-28.22
220.738	35.51
221.122	2.05
221.507	-4.87
221.892	-19.61
222.276	-42.85
222.661	-8.42
223.046	7.18
223.43	12.93
223.815	11.17
224.199	-1.99
224.583	-4.74
224.968	1.03
225.352	10.96
225.736	-1.61
226.121	-9.97
226.505	3.09
226.889	10.17
227.273	-2.82
227.657	11.65
228.041	7.61
228.425	8.99
228.809	14.52
229.193	3.8
229.577	8.42
229.961	9.37
230.344	7.45
230.728	7.8
231.112	7.84
231.495	7.76
231.879	5.64
232.263	7.13
232.646	7.76
233.03	7.78
233.413	8.07
233.797	7.59
234.18	5.14
234.563	5.71
234.946	5.48
235.33	8.31
235.713	7.57
236.096	8.28
236.479	8.69
236.862	5.38
237.245	8.01
237.628	5.79
238.011	7.56
238.394	7
238.777	7.28
239.16	8.07
239.543	7.29
239.925	6.89
240.308	6.68
240.691	8.17
241.073	8.99
241.456	9.06
241.838	7.54
242.221	6.41
242.603	9.88
242.986	7.85
243.368	8.45
243.75	7.34
244.133	6.95
244.515	7.9
244.897	7.91
245.279	7.28
245.661	6.53
246.043	6.77
246.425	7.15
246.807	7
247.189	8.03
247.571	8.24
247.953	7.61
248.335	7.32
248.717	7.5
249.098	7.32
249.48	7.24
249.862	7.28
250.243	7.47
250.625	7.21
251.006	7.63
251.388	6.35
251.769	7.29
252.151	7.47
252.532	7.55
252.913	6.25
253.295	7.21
253.676	7.25
254.057	7.56
254.438	7.19
254.819	7.06
255.2	6.81
255.581	5.08
255.962	6.25
256.343	6.65
256.724	7.13
257.105	6.21
257.486	6.62
257.867	7.6
258.247	7.16
258.628	6.15
259.009	5.97
259.389	6.75
259.77	6.73
260.15	6.11
260.531	6.17
260.911	7.54
261.292	7.25
261.672	7.2
262.052	6.96
262.432	6.83
262.813	7.2
263.193	6.85
263.573	6.06
263.953	6.72
264.333	7.07
264.713	7.24
265.093	6.5
265.473	6.25
265.853	5.47
266.233	7.17
266.612	5.98
266.992	5.81
267.372	7.08
267.752	6.43
268.131	6.75
268.511	7.65
268.89	6.54
269.27	7
269.649	6.06
270.029	6.4
270.408	7.41
270.787	6.8
271.167	7.35
271.546	6.93
271.925	5.76
272.304	6.54
272.683	7.05
273.062	6.56
273.441	6.69
273.82	6.18
274.199	6.54
274.578	6.74
274.957	6.15
275.336	6.2
275.715	5.79
276.093	5.88
276.472	6.49
276.851	6.41
277.229	6.46
277.608	6.22
277.986	6.64
278.365	6.59
278.743	6.01
279.122	6.27
279.5	6.16
279.878	6.53
280.257	6.06
280.635	6.27
281.013	6.75
281.391	6.67
281.769	6.06
282.147	6.27
282.525	7.01
282.903	5.94
283.281	6.1
283.659	6.7
284.037	6.38
284.415	6.43
284.792	6.37
285.17	5.66
285.548	5.91
285.925	6.21
286.303	6.38
286.68	6.15
287.058	6.17
287.435	6.15
287.813	6.2
288.19	6.03
288.567	6.15
288.945	6.49
289.322	5.84
289.699	6.06
290.076	6.09
290.453	5.76
290.83	5.93
291.207	5.42
291.584	6.57
291.961	6.13
292.338	6.33
292.715	5.98
293.092	6.21
293.469	5.84
293.845	6.45
294.222	6.08
294.599	5.52
294.975	5.94
295.352	5.81
295.728	5.33
296.105	5.64
296.481	6.01
296.858	5.93
297.234	6.02
297.61	5.8
297.986	5.97
298.363	6.17
298.739	5.98
299.115	5.85
299.491	5.48
299.867	5.74
300.243	5.45
300.619	5.68
300.995	5.97
301.371	5.58
301.746	5.53
302.122	6.4
302.498	5.92
302.874	5.72
303.249	5.95
303.625	5.92
304	6.16
304.376	5.17
304.751	5.19
305.127	6.09
305.502	5.24
305.878	4.61
306.253	5.43
306.628	5.6
307.003	5.83
307.378	6
307.754	5.36
308.129	4.67
308.504	4.92
308.879	4.93
309.254	6.28
309.629	5.55
310.003	5.33
310.378	5.41
310.753	5.85
311.128	5.5
311.502	5.59
311.877	5.82
312.252	5.02
312.626	5.7
313.001	5.64
313.375	5.71
313.75	5.23
314.124	5.57
314.498	5
314.873	4.98
315.247	5
315.621	5.56
315.995	5.03
316.369	5.77
316.743	5.22
317.117	5.4
317.491	4.96
317.865	5.87
318.239	5.22
318.613	5.55
318.987	5.51
319.361	4.91
319.734	5.71
320.108	5.24
320.482	5.96
320.855	5.24
321.229	5.61
321.602	5.32
321.976	5.74
322.349	5.38
322.723	5.74
323.096	5.51
323.469	4.58
323.843	4.84
324.216	6.34
324.589	4.63
324.962	4.86
325.335	5.35
325.708	5.03
326.081	4.94
326.454	5.45
326.827	4.86
327.2	4.94
327.573	5.13
327.945	4.94
328.318	5.06
328.691	4.89
329.063	5.6
329.436	4.74
329.809	5.58
330.181	4.63
330.553	5.21
330.926	5.05
331.298	5.33
331.671	4.8
332.043	5.82
332.415	4.96
332.787	5.14
333.159	5.62
333.532	5.44
333.904	5.58
334.276	5.65
334.648	4.58
335.02	5
335.391	5.4
335.763	4.73
336.135	4.93
336.507	5.57
336.879	4.92
337.25	5
337.622	5.47
337.993	5.25
338.365	5.46
338.736	5.44
339.108	4.94
339.479	4.96
339.851	5.12
340.222	5.08
340.593	5.73
340.964	5.49
341.336	6.03
341.707	5.37
342.078	5.48
342.449	5.52
342.82	4.66
343.191	5.03
343.562	5.26
343.933	5.37
344.303	5.28
344.674	5.35
345.045	4.8
345.416	5.22
345.786	4.96
346.157	5.68
346.527	4.81
346.898	5
347.268	5.69
347.639	5.23
348.009	5.48
348.38	5.32
348.75	4.86
349.12	5.25
349.49	5.62
349.861	5.26
350.231	4.98
350.601	4.89
350.971	5.53
351.341	5.48
351.711	5.18
352.081	5.48
352.45	4.87
352.82	5.63
353.19	5.54
353.56	5.25
353.929	5.1
354.299	4.94
354.669	4.82
355.038	5.77
355.408	5.74
355.777	5.29
356.147	5.23
356.516	5.39
356.885	5.37
357.254	5.56
357.624	5.7
357.993	5.25
358.362	5.27
358.731	5.11
359.1	5.3
359.469	5.62
359.838	5.5
360.207	5.23
360.576	5.19
360.945	5.38
361.314	5.37
361.682	5.35
362.051	5.19
362.42	5.53
362.788	5.23
363.157	5.53
363.525	5.46
363.894	5.65
364.262	5.4
364.631	5.25
364.999	5.12
365.367	4.82
365.735	5.97
366.104	5.64
366.472	5.49
366.84	5.22
367.208	5.18
367.576	5.71
367.944	5.59
368.312	5.3
368.68	5.42
369.048	5.42
369.416	5.45
369.783	5.01
370.151	5.59
370.519	5.94
370.886	5.58
371.254	5.61
371.621	5.7
371.989	5.82
372.356	5.35
372.724	5.85
373.091	5.31
373.458	5.69
373.826	5.63
374.193	5.44
374.56	5.77
374.927	5.48
375.294	5.99
375.661	5.25
376.028	5.5
376.395	5.45
376.762	5.72
377.129	5.9
377.496	5.65
377.863	5.53
378.229	5.5
378.596	5.63
378.963	5.87
379.329	5.56
379.696	5.8
380.062	5.85
380.429	5.65
380.795	5.31
381.161	5.74
381.528	5.48
381.894	5.77
382.26	5.59
382.626	5.99
382.993	5.47
383.359	6.14
383.725	5.53
384.091	5.98
384.457	5.76
384.823	5.63
385.188	6.01
385.554	5.83
385.92	6.04
386.286	6.1
386.651	6.2
387.017	6.21
387.383	5.99
387.748	5.78
388.114	6.28
388.479	5.59
388.845	6.05
389.21	6.19
389.575	6.04
389.94	6.11
390.306	5.98
390.671	6.18
391.036	5.44
391.401	5.76
391.766	5.93
392.131	6.21
392.496	6.04
392.861	5.88
393.226	6.07
393.591	6.07
393.956	5.79
394.32	6.09
394.685	5.84
395.05	5.81
395.414	5.89
395.779	5.65
396.143	6.03
396.508	5.73
396.872	6.08
397.236	6.22
397.601	6.1
397.965	6.09
398.329	5.99
398.694	6.36
399.058	6.34
399.422	6.01
399.786	6.35
400.15	5.98
400.514	6.17
400.878	5.75
401.242	6.51
401.605	6.11
401.969	6.32
402.333	6.14
402.697	6.04
403.06	6.26
403.424	6.15
403.787	5.84
404.151	6.16
404.514	5.98
404.878	6.3
405.241	6.48
405.604	6.14
405.968	6.11
406.331	6.27
406.694	6.47
407.057	6.34
407.42	6.23
407.783	6.04
408.146	6.15
408.509	6.31
408.872	6
409.235	6.29
409.598	6.49
409.961	6.27
410.323	6.49
410.686	6.22
411.049	5.93
411.411	6.38
411.774	6.44
412.136	6.42
412.499	6.3
412.861	6.28
413.223	6.27
413.586	6.4
413.948	6.25
414.31	6.15
414.672	6.41
415.035	6.28
415.397	6.66
415.759	6.12
416.121	6.45
416.483	6.17
416.845	6.35
417.206	6.46
417.568	6.51
417.93	6.14
418.292	6.42
418.653	6.45
419.015	6.35
419.377	6.24
419.738	6.58
420.1	6.52
420.461	6.41
420.822	6.42
421.184	6.38
421.545	6.38
421.906	6.3
422.267	6.29
422.629	6.3
422.99	6.39
423.351	6.32
423.712	6.31
424.073	6.33
424.434	6.36
424.795	6.28
425.155	6.38
425.516	6.36
425.877	6.28
426.238	6.31
426.598	6.46
426.959	6.33
427.32	6.19
427.68	6.33
428.041	6.36
428.401	6.5
428.761	6.43
429.122	6.39
429.482	6.38
429.842	6.61
430.202	6.54
430.563	6.49
430.923	6.5
431.283	6.63
431.643	6.34
432.003	6.36
432.363	6.59
432.722	6.46
433.082	6.5
433.442	6.51
433.802	6.42
434.161	6.35
434.521	6.89
434.881	6.74
435.24	6.54
435.6	6.54
435.959	6.5
436.319	6.59
436.678	6.56
437.037	6.55
437.396	6.62
437.756	6.53
438.115	6.55
438.474	6.77
438.833	6.41
439.192	6.59
439.551	6.82
439.91	6.73
440.269	6.61
440.628	6.69
440.987	6.7
441.345	6.46
441.704	6.48
442.063	6.47
442.421	6.55
442.78	6.5
443.138	6.5
443.497	6.56
443.855	6.54
444.214	6.61
444.572	6.69
444.93	6.74
445.288	6.7
445.647	6.75
446.005	6.64
446.363	6.84
446.721	6.69
447.079	6.47
447.437	6.72
447.795	6.7
448.153	6.5
448.51	6.68
448.868	6.55
449.226	6.6
449.584	6.66
449.941	6.73
450.299	6.67
450.656	6.76
451.014	6.67
451.371	6.58
451.729	6.57
452.086	6.93
452.443	6.69
452.801	6.77
453.158	6.74
453.515	6.86
453.872	6.8
454.229	6.72
454.586	6.7
454.943	6.74
455.3	6.75
455.657	6.65
456.014	6.64
456.371	6.8
456.727	6.73
457.084	6.94
457.441	6.74
457.797	6.82
458.154	7.01
458.51	6.8
458.867	6.95
459.223	6.82
459.58	6.79
459.936	6.74
460.292	7
460.648	6.93
461.005	6.75
461.361	6.81
461.717	6.79
462.073	6.66
462.429	6.66
462.785	6.7
463.141	6.6
463.496	6.78
463.852	7.1
464.208	6.88
464.564	6.75
464.919	7.02
465.275	6.87
465.631	6.91
465.986	6.81
466.342	6.86
466.697	6.65
467.052	7.01
467.408	6.87
467.763	6.83
468.118	7.11
468.473	6.79
468.829	6.89
469.184	6.65
469.539	6.91
469.894	6.76
470.249	6.95
470.603	7.01
470.958	6.97
471.313	6.91
471.668	6.96
472.023	6.81
472.377	6.79
472.732	6.94
473.086	6.89
473.441	6.89
473.795	7.2
474.15	7.08
474.504	7.01
474.859	6.99
475.213	6.75
475.567	6.86
475.921	6.68
476.275	6.71
476.63	7
476.984	7.05
477.338	6.95
477.692	6.79
478.045	6.88
478.399	6.75
478.753	7.09
479.107	7.01
479.461	6.98
479.814	7.07
480.168	7.07
480.521	6.94
480.875	6.88
481.228	6.86
481.582	6.85
481.935	6.87
482.289	7.03
482.642	7.04
482.995	6.97
483.348	6.87
483.701	6.89
484.055	7.05
484.408	6.97
484.761	6.8
485.114	6.85
485.466	6.79
485.819	6.7
486.172	6.6
486.525	6.56
486.878	6.62
487.23	6.62
487.583	6.72
487.936	6.8
488.288	6.82
488.641	6.92
488.993	6.82
489.345	6.74
489.698	6.77
490.05	6.69
490.402	6.74
490.754	6.78
491.107	6.8
491.459	6.88
491.811	6.87
492.163	6.89
492.515	6.9
492.866	6.95
493.218	6.92
493.57	6.82
493.922	6.86
494.274	6.81
494.625	6.83
494.977	6.93
495.328	6.96
495.68	6.98
496.031	7.04
496.383	6.91
496.734	7.17
497.086	6.98
497.437	7.06
497.788	6.96
498.139	7.1
498.49	7.08
498.842	6.94
499.193	6.95
499.544	7.08
499.894	7.05
500.245	7.06
500.596	6.96
500.947	7.12
501.298	6.96
501.648	7.03
501.999	7.21
502.35	7.02
502.7	7.15
503.051	6.93
503.401	6.99
503.752	7.09
504.102	7.1
504.452	7.22
504.803	7.02
505.153	7.1
505.503	7.08
505.853	7.05
506.203	7.09
506.553	7.07
506.903	6.91
507.253	7
507.603	7.03
507.953	7.23
508.303	7.27
508.652	6.96
509.002	7.24
509.352	7.2
509.701	7.15
510.051	7.03
510.4	7.03
510.75	7.13
511.099	7.08
511.449	7.02
511.798	7.06
512.147	7.06
512.496	7.12
512.846	7.2
513.195	7.01
513.544	7.11
513.893	7.16
514.242	7.1
514.591	7.1
514.939	7.04
515.288	7.05
515.637	7.24
515.986	7.2
516.334	7.11
516.683	7.22
517.032	7.15
517.38	7.3
517.729	7.25
518.077	6.95
518.426	7.36
518.774	7.33
519.122	7.08
519.47	7.09
519.819	6.93
520.167	7.17
520.515	7.08
520.863	7.17
521.211	7.19
521.559	7.18
521.907	7.03
522.255	7.03
522.602	7.04
522.95	7.17
523.298	7.03
523.645	7.14
523.993	7.13
524.341	7.27
524.688	7.29
525.036	7.2
525.383	7.32
525.73	7.49
526.078	7.2
526.425	7.12
526.772	7.11
527.119	7.18
527.466	7.13
527.814	7.07
528.161	7.09
528.508	7.15
528.854	7.03
529.201	7.03
529.548	7.1
529.895	7.06
530.242	7.03
530.588	6.99
530.935	6.93
531.282	6.91
531.628	6.86
531.975	6.89
532.321	6.93
532.667	7.07
533.014	7.11
533.36	7.12
533.706	7.12
534.052	7.16
534.399	7.16
534.745	7.16
535.091	7.19
535.437	7.11
535.783	7.06
536.129	6.98
536.474	6.99
536.82	7.08
537.166	7.13
537.512	7.16
537.857	7.12
538.203	7.14
538.549	7.16
538.894	7.18
539.239	7.11
539.585	7.09
539.93	7.01
540.276	7.15
540.621	7.29
540.966	7.19
541.311	7.08
541.656	7.14
542.001	7.16
542.346	7.14
542.691	7.13
543.036	7.15
543.381	7.03
543.726	7.03
544.071	7.04
544.415	7
544.76	6.93
545.105	7.07
545.449	7.1
545.794	7.15
546.138	7.05
546.483	7.15
546.827	7.35
547.171	7.16
547.516	7.2
547.86	7.2
548.204	7.22
548.548	7.14
548.892	7.22
549.236	7.14
549.58	7.12
549.924	7.22
550.268	7.19
550.612	7.29
550.956	7.32
551.3	7.3
551.643	7.39
551.987	7.24
552.33	7.32
552.674	7.23
553.017	7.22
553.361	7.2
553.704	7.36
554.048	7.31
554.391	7.26
554.734	7.24
555.077	7.22
555.42	7.08
555.764	7.03
556.107	6.91
556.45	7.02
556.793	7
557.135	7.13
557.478	7.45
557.821	7.43
558.164	7.13
558.507	7.19
558.849	7.02
559.192	7.26
559.534	7.16
559.877	7.3
560.219	7.19
560.562	7.45
560.904	7.23
561.246	7.19
561.589	7.3
561.931	7.19
562.273	7.26
562.615	7.29
562.957	7.18
563.299	7.18
563.641	7.18
563.983	7.37
564.325	7.23
564.667	7.25
565.008	7.25
565.35	7.09
565.692	7.1
566.033	7.12
566.375	7.3
566.716	7.49
567.058	7.12
567.399	7.19
567.741	7.19
568.082	7.17
568.423	7.14
568.764	7.13
569.105	7.24
569.447	7.13
569.788	7.22
570.129	7.25
570.47	7.12
570.811	7.2
571.151	7.15
571.492	7.31
571.833	6.98
572.174	7.21
572.514	7.2
572.855	7.21
573.195	7.14
573.536	7.2
573.876	6.99
574.217	7.07
574.557	7.27
574.898	7.37
575.238	7.32
575.578	7.16
575.918	7.33
576.258	7.2
576.598	7.25
576.938	7.29
577.278	7.39
577.618	7.45
577.958	7.16
578.298	7.16
578.638	7.32
578.977	7.27
579.317	7.09
579.657	7.28
579.996	7.12
580.336	7.15
580.675	7.31
581.014	7.39
581.354	7.22
581.693	7.24
582.032	7.04
582.372	7.21
582.711	7.26
583.05	7.13
583.389	7.31
583.728	7.07
584.067	7.15
584.406	7.3
584.745	7.03
585.083	7.44
585.422	7.24
585.761	7.42
586.1	7.43
586.438	6.99
586.777	7.39
587.115	7.35
587.454	6.9
587.792	7.36
588.13	7.34
588.469	7.22
588.807	7.42
589.145	7.01
589.483	7.2
589.821	7.01
590.159	7.15
590.497	7.35
590.835	7.55
591.173	7.11
591.511	7.27
591.849	7.21
592.187	7.06
592.524	7.11
592.862	7.29
593.2	7.1
593.537	7.27
593.875	6.96
594.212	6.94
594.55	7.32
594.887	7.46
595.224	7.01
595.561	7.19
595.899	7.33
596.236	7.2
596.573	7.42
596.91	6.92
597.247	6.71
597.584	7.69
597.921	7.03
598.258	7.27
598.594	6.89
598.931	7.09
599.268	7.19
599.604	6.82
599.941	7.18
600.277	6.92
600.614	7.08
600.95	6.95
601.287	7.28
601.623	6.78
601.959	7.06
602.296	7.16
602.632	7
602.968	7.06
603.304	6.99
603.64	6.97
603.976	7.08
604.312	6.92
604.648	7.12
604.984	7.13
605.319	7.24
605.655	7.03
605.991	7.09
606.326	7.22
606.662	7.16
606.998	7.11
607.333	6.9
607.668	6.98
608.004	7.15
608.339	7.46
608.674	7.06
609.01	6.71
609.345	7.08
609.68	7.27
610.015	6.83
610.35	7.11
610.685	7.09
611.02	7.19
611.355	7.18
611.689	7
612.024	7.21
612.359	7.08
612.694	7.26
613.028	6.71
613.363	7.12
613.697	7.12
614.032	7.19
614.366	7.05
614.7	7.28
615.035	7.22
615.369	7.03
615.703	7.23
616.037	6.98
616.371	6.79
616.705	6.8
617.039	7.06
617.373	6.86
617.707	7
618.041	7.01
618.375	7.17
618.709	7.13
619.042	6.86
619.376	7.3
619.71	7.63
620.043	7.3
620.377	6.98
620.71	6.93
621.043	6.74
621.377	6.93
621.71	6.82
622.043	6.76
622.376	6.77
622.709	7.1
623.043	7.29
623.376	7.44
623.709	6.99
624.041	7.31
624.374	6.85
624.707	6.98
625.04	7.1
625.373	6.38
625.705	6.77
626.038	6.99
626.37	7.37
626.703	7.19
627.035	7.11
627.368	7.44
627.7	7.29
628.032	7.08
628.365	7.35
628.697	7.23
629.029	7.02
629.361	6.95
629.693	7.01
630.025	7
630.357	7.35
630.689	6.96
631.021	7.03
631.353	7.09
631.684	6.87
632.016	6.76
632.348	6.95
632.679	7.2
633.011	7.12
633.342	7.6
633.674	7.4
634.005	7.53
634.336	7.28
634.668	7.17
634.999	6.97
635.33	7.28
635.661	7.56
635.992	7.24
636.323	7.38
636.654	7.53
636.985	6.92
637.316	6.99
637.647	6.89
637.977	7.45
638.308	6.89
638.639	6.83
638.969	6.84
639.3	6.97
639.63	6.7
639.961	6.86
640.291	7.11
640.622	7.16
640.952	6.46
641.282	7.38
641.612	7.3
641.943	6.88
642.273	7.03
642.603	7.41
642.933	6.8
643.263	6.93
643.592	6.69
643.922	6.92
644.252	6.62
644.582	6.74
644.911	6.9
645.241	7.21
645.571	6.7
645.9	6.57
646.23	6.78
646.559	7.29
646.888	6.68
647.218	6.86
647.547	7.44
647.876	6.77
648.205	7.21
648.534	7.18
648.863	6.72
649.192	7.24
649.521	6.72
649.85	6.9
650.179	6.71
650.508	6.92
650.837	6.82
651.165	7.11
651.494	6.95
651.822	6.68
652.151	6.41
652.479	7.16
652.808	6.72
653.136	7.31
653.465	6.67
653.793	6.83
654.121	7
654.449	7.37
654.777	7.35
655.105	6.83
655.433	6.69
655.761	7.2
656.089	7.35
656.417	6.93
656.745	7.07
657.073	6.95
657.4	7.45
657.728	6.48
658.056	7.37
658.383	6.92
658.711	6.96
659.038	7.17
659.365	7.84
659.693	6.83
660.02	6.81
660.347	7.13
660.674	7.36
661.001	7.41
661.329	6.68
661.656	7.06
661.982	7.49
662.309	7.16
662.636	6.75
662.963	7.24
663.29	6.71
663.616	7.31
663.943	6.8
664.27	7.21
664.596	7.4
664.923	7.36
665.249	6.89
665.576	6.99
665.902	8.01
666.228	7.53
666.554	7.62
666.881	6.89
667.207	6.67
667.533	7.05
667.859	7.76
668.185	7.45
668.511	6.63
668.837	6.09
669.162	6.88
669.488	6.52
669.814	7.22
670.139	7.3
670.465	7.79
670.791	7.28
671.116	7.9
671.442	6.54
671.767	7.23
672.092	7.29
672.418	7.23
672.743	7.32
673.068	6.87
673.393	6.76
673.718	6.92
674.043	6.91
674.368	6.67
674.693	7.84
675.018	7.26
675.343	6.93
675.667	6.78
675.992	7.73
676.317	7.21
676.641	7.44
676.966	6.97
677.29	6.6
677.615	6.95
677.939	7.5
678.264	7.47
678.588	7.05
678.912	6.85
679.236	7.94
679.56	6.32
679.885	7.81
680.209	7.2
680.532	7.35
680.856	7.45
681.18	7.31
681.504	7.18
681.828	7.6
682.152	6.94
682.475	7.22
682.799	7.08
683.122	7.23
683.446	7.08
683.769	7.38
684.093	6.59
684.416	7.47
684.739	6.68
685.062	7.02
685.386	7.9
685.709	6.97
686.032	6.36
686.355	7.19
686.678	7.05
687.001	7.21
687.324	7.36
687.646	7.12
687.969	6.51
688.292	7.36
688.614	7.17
688.937	7.9
689.26	7.09
689.582	7.69
689.904	7.33
690.227	7.61
690.549	7.46
690.871	7.47
691.194	7.31
691.516	6.96
691.838	7.63
692.16	6.98
692.482	6.65
692.804	7.23
693.126	7.74
693.448	7.11
