Data from 0207_crown_Reflection__0__299.txt Node

Date: Fri Dec 15 19:29:06 CST 2023
User: ToomeyLab
Spectrometer: FLMS14357
Trigger mode: 0
Integration Time (sec): 1.000000E-2
Scans to average: 100
Electric dark correction enabled: true
Nonlinearity correction enabled: false
Boxcar width: 0
XAxis mode: Wavelengths
Number of Pixels in Spectrum: 2048
>>>>>Begin Spectral Data<<<<<
189.047	79.5
189.435	79.5
189.823	79.5
190.211	-108.58
190.599	-36.52
190.987	108.69
191.375	39.75
191.763	-209.58
192.151	-188
192.538	79.53
192.926	1054.84
193.314	124.37
193.702	-49.87
194.089	-16.36
194.477	35.63
194.864	-43.05
195.252	72.54
195.639	77.37
196.027	185.39
196.414	57.82
196.801	196.91
197.189	233.04
197.576	540.43
197.963	-230.33
198.351	-402.46
198.738	-114.73
199.125	18.85
199.512	-15.79
199.899	0.13
200.286	8.41
200.673	6.97
201.06	17.67
201.447	-54.46
201.833	27.23
202.22	11.7
202.607	20.53
202.994	-12.76
203.38	5.93
203.767	48.53
204.154	38.67
204.54	51.89
204.927	-37.14
205.313	-51.48
205.699	8.32
206.086	37.89
206.472	2.32
206.858	17.68
207.245	-38.55
207.631	-21.56
208.017	22.68
208.403	-21.88
208.789	12.39
209.175	-19.85
209.561	-16.39
209.947	-29.83
210.333	-101.16
210.719	18.63
211.105	1.28
211.491	-49.77
211.876	32.4
212.262	-13.75
212.648	28.06
213.034	32.16
213.419	-7.4
213.805	1.22
214.19	-86.24
214.576	-14
214.961	-21.68
215.346	-224.96
215.732	-56.32
216.117	12.57
216.502	-25.15
216.888	29.59
217.273	16.01
217.658	-24.84
218.043	4.74
218.428	-116.14
218.813	-18.62
219.198	-19.69
219.583	29.49
219.968	-16.24
220.353	-37.28
220.738	14.99
221.122	-4.42
221.507	-45.34
221.892	-30.99
222.276	-51.14
222.661	-9.69
223.046	14.68
223.43	15.52
223.815	6.67
224.199	-10.34
224.583	0.81
224.968	7.6
225.352	10.23
225.736	1.1
226.121	-5.63
226.505	1.48
226.889	8.41
227.273	-2.57
227.657	6.95
228.041	4.96
228.425	3.23
228.809	8.78
229.193	6.79
229.577	5.26
229.961	5.32
230.344	2.78
230.728	6.56
231.112	6.26
231.495	6.05
231.879	4.69
232.263	7.74
232.646	5.94
233.03	6.41
233.413	4.56
233.797	7.74
234.18	3.59
234.563	7.04
234.946	6.54
235.33	5.25
235.713	5.78
236.096	5.98
236.479	7.03
236.862	6.04
237.245	6.63
237.628	4.62
238.011	5.5
238.394	7.38
238.777	7.17
239.16	3.61
239.543	3.37
239.925	5.04
240.308	4.93
240.691	7.19
241.073	6.27
241.456	6.61
241.838	5.98
242.221	4.94
242.603	6.82
242.986	5.9
243.368	6.19
243.75	6.4
244.133	5.52
244.515	6.41
244.897	5.8
245.279	6.03
245.661	5.34
246.043	4.78
246.425	5.36
246.807	5.96
247.189	6.73
247.571	5.19
247.953	5.87
248.335	5.62
248.717	5.72
249.098	5.68
249.48	5.83
249.862	5.67
250.243	5.78
250.625	5.8
251.006	5.76
251.388	4.56
251.769	4.49
252.151	6.08
252.532	5.02
252.913	5.45
253.295	5.32
253.676	5.44
254.057	5.67
254.438	6.03
254.819	5.36
255.2	4.71
255.581	6.09
255.962	4.83
256.343	6.54
256.724	4.88
257.105	5.61
257.486	5.09
257.867	5.21
258.247	5.77
258.628	5.47
259.009	5.13
259.389	5.47
259.77	4.76
260.15	4.39
260.531	4.67
260.911	5.66
261.292	5.41
261.672	5.45
262.052	5.61
262.432	5.86
262.813	5.49
263.193	5.63
263.573	4.8
263.953	5.05
264.333	5.28
264.713	5.42
265.093	5.37
265.473	5.21
265.853	4.2
266.233	5.63
266.612	3.31
266.992	4.7
267.372	5.51
267.752	4.77
268.131	5.41
268.511	6.04
268.89	5.52
269.27	5.09
269.649	4.99
270.029	4.73
270.408	5.88
270.787	5.85
271.167	5.36
271.546	5.07
271.925	4.34
272.304	4.42
272.683	5.29
273.062	4.66
273.441	5.5
273.82	4.57
274.199	4.72
274.578	5.2
274.957	4.87
275.336	4.83
275.715	4.82
276.093	5.04
276.472	5.04
276.851	5
277.229	5.21
277.608	4.55
277.986	5.29
278.365	4.92
278.743	4.83
279.122	5.05
279.5	4.9
279.878	4.99
280.257	4.73
280.635	4.12
281.013	4.41
281.391	5.5
281.769	4.89
282.147	5.18
282.525	5.65
282.903	4.68
283.281	4.67
283.659	4.49
284.037	4.89
284.415	5.12
284.792	5.22
285.17	4.54
285.548	4.45
285.925	5.03
286.303	4.78
286.68	4.96
287.058	4.82
287.435	5.19
287.813	5.17
288.19	4.95
288.567	4.91
288.945	5.55
289.322	4.54
289.699	4.75
290.076	4.71
290.453	4.9
290.83	4.14
291.207	4.78
291.584	4.99
291.961	4.64
292.338	4.66
292.715	4.91
293.092	4.84
293.469	4.68
293.845	5.23
294.222	4.19
294.599	4.32
294.975	4.47
295.352	4.86
295.728	4.45
296.105	4.7
296.481	4.83
296.858	4.35
297.234	4.75
297.61	4.84
297.986	4.59
298.363	4.48
298.739	4.65
299.115	4.65
299.491	4.49
299.867	4.41
300.243	4.66
300.619	4
300.995	4.35
301.371	4.96
301.746	4.33
302.122	5.11
302.498	4.4
302.874	4.59
303.249	4.59
303.625	4.1
304	4.87
304.376	4.57
304.751	3.95
305.127	5.41
305.502	3.88
305.878	3.84
306.253	4.6
306.628	4.93
307.003	4.24
307.378	5.2
307.754	4.25
308.129	4.02
308.504	4.25
308.879	3.75
309.254	4.76
309.629	4.88
310.003	4.35
310.378	4.41
310.753	4.6
311.128	4.45
311.502	4.57
311.877	4.95
312.252	3.95
312.626	4.29
313.001	4.32
313.375	4.63
313.75	4.11
314.124	4.15
314.498	4.11
314.873	4.07
315.247	4.32
315.621	4.47
315.995	3.64
316.369	4
316.743	4.29
317.117	4.63
317.491	4
317.865	4.11
318.239	4.23
318.613	3.84
318.987	4.59
319.361	4.02
319.734	4.87
320.108	4.44
320.482	4.32
320.855	4.17
321.229	4.28
321.602	4.24
321.976	4.53
322.349	4.21
322.723	4.08
323.096	3.39
323.469	3.98
323.843	3.94
324.216	4.22
324.589	3.94
324.962	3.79
325.335	4.38
325.708	4.09
326.081	4.21
326.454	4.67
326.827	3.94
327.2	4.09
327.573	4.43
327.945	4.11
328.318	4.15
328.691	3.49
329.063	4.25
329.436	4.2
329.809	4.42
330.181	3.89
330.553	4.05
330.926	4.22
331.298	4.87
331.671	3.98
332.043	4.56
332.415	4.89
332.787	3.93
333.159	4.31
333.532	4.21
333.904	3.93
334.276	3.88
334.648	4.08
335.02	4.04
335.391	4.1
335.763	4.06
336.135	3.98
336.507	4.32
336.879	3.88
337.25	4.13
337.622	4.26
337.993	4.38
338.365	4.63
338.736	4.43
339.108	4.41
339.479	4.17
339.851	4.19
340.222	3.86
340.593	4.4
340.964	4.11
341.336	5.06
341.707	3.74
342.078	4.79
342.449	4.14
342.82	4.1
343.191	3.84
343.562	3.91
343.933	4.35
344.303	4.36
344.674	4.31
345.045	4.2
345.416	4.48
345.786	3.58
346.157	4.43
346.527	3.8
346.898	3.52
347.268	4.43
347.639	4.24
348.009	4.21
348.38	3.84
348.75	4.11
349.12	4.34
349.49	4.52
349.861	4.53
350.231	4.26
350.601	4.33
350.971	4.41
351.341	4.45
351.711	4.36
352.081	4.18
352.45	4.19
352.82	4.4
353.19	4.04
353.56	4.41
353.929	4.05
354.299	4.11
354.669	4.11
355.038	4.65
355.408	4.54
355.777	4.51
356.147	4
356.516	4.46
356.885	4.43
357.254	4.46
357.624	4.9
357.993	4.5
358.362	4.18
358.731	3.92
359.1	4.32
359.469	4.21
359.838	4.59
360.207	4.41
360.576	4.36
360.945	4.38
361.314	4.71
361.682	4.13
362.051	4.35
362.42	4.33
362.788	4.15
363.157	4.35
363.525	4.62
363.894	4.77
364.262	4.49
364.631	4.53
364.999	4.7
365.367	4.13
365.735	5.07
366.104	4.36
366.472	4.66
366.84	4.45
367.208	4.38
367.576	4.52
367.944	4.57
368.312	4.27
368.68	4.47
369.048	4.59
369.416	4.38
369.783	4.35
370.151	4.76
370.519	4.69
370.886	4.74
371.254	4
371.621	4.88
371.989	4.8
372.356	4.06
372.724	4.6
373.091	3.95
373.458	4.35
373.826	4.71
374.193	4.34
374.56	4.6
374.927	5.04
375.294	4.32
375.661	4.35
376.028	4.26
376.395	4.52
376.762	4.33
377.129	4.5
377.496	4.56
377.863	4.58
378.229	4.01
378.596	4.87
378.963	4.52
379.329	4.39
379.696	4.82
380.062	4.67
380.429	4.64
380.795	4.41
381.161	4.59
381.528	4.53
381.894	4.64
382.26	4.59
382.626	4.93
382.993	4.33
383.359	5.03
383.725	4.39
384.091	4.42
384.457	4.91
384.823	4.91
385.188	4.46
385.554	4.24
385.92	4.94
386.286	4.85
386.651	5.01
387.017	5.2
387.383	4.79
387.748	4.67
388.114	4.89
388.479	4.67
388.845	4.78
389.21	5.07
389.575	5
389.94	4.91
390.306	5.01
390.671	4.83
391.036	4.89
391.401	4.28
391.766	4.85
392.131	4.71
392.496	4.86
392.861	4.68
393.226	4.85
393.591	4.91
393.956	4.47
394.32	4.9
394.685	4.65
395.05	4.96
395.414	5.06
395.779	4.54
396.143	4.93
396.508	5.19
396.872	5.06
397.236	5.05
397.601	4.93
397.965	4.89
398.329	5
398.694	5.21
399.058	5.07
399.422	4.72
399.786	4.93
400.15	4.85
400.514	4.87
400.878	5.11
401.242	5.22
401.605	5.13
401.969	5.18
402.333	4.85
402.697	4.85
403.06	5.07
403.424	5.09
403.787	4.54
404.151	4.96
404.514	5.14
404.878	5.3
405.241	5.2
405.604	4.8
405.968	4.93
406.331	5.09
406.694	5.37
407.057	5.05
407.42	5.3
407.783	4.91
408.146	5.01
408.509	4.89
408.872	4.9
409.235	5.06
409.598	5.34
409.961	5.03
410.323	5.18
410.686	4.86
411.049	5.18
411.411	4.87
411.774	4.92
412.136	5.04
412.499	5.09
412.861	5.01
413.223	5.04
413.586	5.05
413.948	5.27
414.31	5.03
414.672	5.08
415.035	5.02
415.397	5.37
415.759	4.92
416.121	5.37
416.483	5.08
416.845	5.04
417.206	5.08
417.568	5.41
417.93	4.83
418.292	5.2
418.653	5.02
419.015	5.14
419.377	5.01
419.738	5.01
420.1	5.14
420.461	5.16
420.822	5.21
421.184	5.14
421.545	5.28
421.906	4.98
422.267	5.12
422.629	5.12
422.99	5.11
423.351	5.07
423.712	5.15
424.073	5.23
424.434	5.08
424.795	5.09
425.155	5.02
425.516	5.16
425.877	5.07
426.238	5.05
426.598	5.18
426.959	5.17
427.32	5.11
427.68	4.97
428.041	5.22
428.401	5.2
428.761	5.37
429.122	5.45
429.482	5.18
429.842	5.48
430.202	5.36
430.563	5.32
430.923	5.14
431.283	5.3
431.643	5.29
432.003	5.41
432.363	5.38
432.722	5.29
433.082	5.17
433.442	5.29
433.802	5.12
434.161	5.17
434.521	5.42
434.881	5.37
435.24	5.28
435.6	5.31
435.959	5.26
436.319	5.19
436.678	5.13
437.037	5.32
437.396	5.36
437.756	5.34
438.115	5.28
438.474	5.48
438.833	5.2
439.192	5.32
439.551	5.52
439.91	5.31
440.269	5.29
440.628	5.1
440.987	5.36
441.345	5.08
441.704	5.26
442.063	5.27
442.421	5.22
442.78	5.17
443.138	5.13
443.497	5.25
443.855	5.34
444.214	5.35
444.572	5.34
444.93	5.21
445.288	5.52
445.647	5.36
446.005	5.25
446.363	5.24
446.721	5.31
447.079	5.11
447.437	5.27
447.795	5.25
448.153	5.03
448.51	5.18
448.868	5.29
449.226	5.28
449.584	5.3
449.941	5.36
450.299	5.36
450.656	5.42
451.014	5.32
451.371	5.32
451.729	5.27
452.086	5.38
452.443	5.26
452.801	5.27
453.158	5.26
453.515	5.04
453.872	5.5
454.229	5.17
454.586	5.21
454.943	5.39
455.3	5.44
455.657	5.31
456.014	5.37
456.371	5.48
456.727	5.23
457.084	5.58
457.441	5.49
457.797	5.22
458.154	5.63
458.51	5.27
458.867	5.51
459.223	5.49
459.58	5.4
459.936	5.43
460.292	5.53
460.648	5.36
461.005	5.39
461.361	5.41
461.717	5.26
462.073	5.12
462.429	5.36
462.785	5.47
463.141	5.36
463.496	5.5
463.852	5.44
464.208	5.63
464.564	5.6
464.919	5.65
465.275	5.45
465.631	5.57
465.986	5.48
466.342	5.42
466.697	5.4
467.052	5.4
467.408	5.65
467.763	5.5
468.118	5.4
468.473	5.45
468.829	5.64
469.184	5.47
469.539	5.5
469.894	5.34
470.249	5.84
470.603	5.74
470.958	5.61
471.313	5.59
471.668	5.5
472.023	5.44
472.377	5.43
472.732	5.36
473.086	5.28
473.441	5.38
473.795	5.6
474.15	5.54
474.504	5.48
474.859	5.48
475.213	5.12
475.567	5.54
475.921	5.55
476.275	5.43
476.63	5.45
476.984	5.54
477.338	5.55
477.692	5.26
478.045	5.42
478.399	5.41
478.753	5.54
479.107	5.54
479.461	5.58
479.814	5.62
480.168	5.51
480.521	5.47
480.875	5.44
481.228	5.55
481.582	5.42
481.935	5.58
482.289	5.55
482.642	5.37
482.995	5.32
483.348	5.3
483.701	5.38
484.055	5.52
484.408	5.5
484.761	5.29
485.114	5.26
485.466	5.05
485.819	5.03
486.172	5.1
486.525	5.22
486.878	5.29
487.23	5.36
487.583	5.5
487.936	5.4
488.288	5.29
488.641	5.28
488.993	5.21
489.345	5.19
489.698	5.19
490.05	5.17
490.402	5.31
490.754	5.36
491.107	5.42
491.459	5.52
491.811	5.49
492.163	5.37
492.515	5.38
492.866	5.39
493.218	5.28
493.57	5.2
493.922	5.27
494.274	5.42
494.625	5.55
494.977	5.56
495.328	5.54
495.68	5.61
496.031	5.73
496.383	5.49
496.734	5.63
497.086	5.58
497.437	5.5
497.788	5.54
498.139	5.54
498.49	5.62
498.842	5.33
499.193	5.44
499.544	5.58
499.894	5.45
500.245	5.56
500.596	5.57
500.947	5.58
501.298	5.46
501.648	5.58
501.999	5.64
502.35	5.45
502.7	5.57
503.051	5.47
503.401	5.48
503.752	5.55
504.102	5.52
504.452	5.53
504.803	5.43
505.153	5.46
505.503	5.51
505.853	5.49
506.203	5.47
506.553	5.51
506.903	5.61
507.253	5.47
507.603	5.44
507.953	5.56
508.303	5.82
508.652	5.47
509.002	5.64
509.352	5.64
509.701	5.52
510.051	5.46
510.4	5.47
510.75	5.47
511.099	5.51
511.449	5.49
511.798	5.6
512.147	5.58
512.496	5.44
512.846	5.58
513.195	5.49
513.544	5.39
513.893	5.47
514.242	5.48
514.591	5.65
514.939	5.47
515.288	5.58
515.637	5.49
515.986	5.62
516.334	5.57
516.683	5.62
517.032	5.52
517.38	5.55
517.729	5.52
518.077	5.62
518.426	5.68
518.774	5.63
519.122	5.46
519.47	5.54
519.819	5.42
520.167	5.48
520.515	5.42
520.863	5.41
521.211	5.5
521.559	5.65
521.907	5.45
522.255	5.52
522.602	5.62
522.95	5.51
523.298	5.55
523.645	5.62
523.993	5.55
524.341	5.56
524.688	5.65
525.036	5.55
525.383	5.64
525.73	5.63
526.078	5.46
526.425	5.44
526.772	5.48
527.119	5.42
527.466	5.43
527.814	5.46
528.161	5.43
528.508	5.42
528.854	5.47
529.201	5.38
529.548	5.45
529.895	5.27
530.242	5.15
530.588	5.09
530.935	5.23
531.282	5.36
531.628	5.39
531.975	5.43
532.321	5.47
532.667	5.45
533.014	5.54
533.36	5.49
533.706	5.45
534.052	5.46
534.399	5.39
534.745	5.29
535.091	5.27
535.437	5.29
535.783	5.42
536.129	5.5
536.474	5.55
536.82	5.56
537.166	5.61
537.512	5.54
537.857	5.44
538.203	5.54
538.549	5.45
538.894	5.42
539.239	5.47
539.585	5.61
539.93	5.46
540.276	5.73
540.621	5.62
540.966	5.61
541.311	5.38
541.656	5.34
542.001	5.49
542.346	5.48
542.691	5.32
543.036	5.22
543.381	5.18
543.726	5.25
544.071	5.44
544.415	5.49
544.76	5.45
545.105	5.43
545.449	5.44
545.794	5.5
546.138	5.51
546.483	5.53
546.827	5.57
547.171	5.44
547.516	5.62
547.86	5.51
548.204	5.45
548.548	5.32
548.892	5.55
549.236	5.41
549.58	5.38
549.924	5.58
550.268	5.61
550.612	5.55
550.956	5.71
551.3	5.78
551.643	5.67
551.987	5.76
552.33	5.63
552.674	5.49
553.017	5.57
553.361	5.53
553.704	5.62
554.048	5.4
554.391	5.24
554.734	5.38
555.077	5.57
555.42	5.52
555.764	5.52
556.107	5.43
556.45	5.45
556.793	5.59
557.135	5.51
557.478	5.73
557.821	5.71
558.164	5.43
558.507	5.47
558.849	5.48
559.192	5.67
559.534	5.48
559.877	5.62
560.219	5.35
560.562	5.7
560.904	5.53
561.246	5.54
561.589	5.57
561.931	5.52
562.273	5.42
562.615	5.58
562.957	5.38
563.299	5.19
563.641	5.48
563.983	5.46
564.325	5.4
564.667	5.38
565.008	5.52
565.35	5.19
565.692	5.38
566.033	5.65
566.375	5.73
566.716	5.71
567.058	5.54
567.399	5.44
567.741	5.3
568.082	5.35
568.423	5.37
568.764	5.34
569.105	5.55
569.447	5.53
569.788	5.51
570.129	5.67
570.47	5.44
570.811	5.65
571.151	5.36
571.492	5.61
571.833	5.47
572.174	5.66
572.514	5.53
572.855	5.45
573.195	5.42
573.536	5.41
573.876	5.37
574.217	5.28
574.557	5.59
574.898	5.64
575.238	5.66
575.578	5.4
575.918	5.57
576.258	5.55
576.598	5.62
576.938	5.34
577.278	5.42
577.618	5.49
577.958	5.31
578.298	5.5
578.638	5.4
578.977	5.43
579.317	5.3
579.657	5.52
579.996	5.37
580.336	5.22
580.675	5.6
581.014	5.48
581.354	5.59
581.693	5.81
582.032	5.37
582.372	5.45
582.711	5.71
583.05	5.44
583.389	5.5
583.728	5.44
584.067	5.53
584.406	5.52
584.745	5.69
585.083	5.61
585.422	5.69
585.761	5.54
586.1	5.51
586.438	5.45
586.777	5.46
587.115	5.46
587.454	5.32
587.792	5.45
588.13	5.44
588.469	5.27
588.807	5.39
589.145	5.22
589.483	5.45
589.821	5.45
590.159	5.39
590.497	5.69
590.835	5.69
591.173	5.59
591.511	5.8
591.849	5.34
592.187	5.28
592.524	5.35
592.862	5.53
593.2	5.45
593.537	5.38
593.875	5.47
594.212	5.41
594.55	5.36
594.887	5.34
595.224	5.53
595.561	5.53
595.899	5.44
596.236	5.17
596.573	5.39
596.91	5.14
597.247	5.09
597.584	5.52
597.921	5.35
598.258	5.08
598.594	5.28
598.931	5.23
599.268	5.4
599.604	5.3
599.941	5.63
600.277	5.47
600.614	5.27
600.95	5.25
601.287	5.56
601.623	5.29
601.959	5.28
602.296	5.52
602.632	5.31
602.968	5.56
603.304	5.32
603.64	5.29
603.976	5.3
604.312	5.33
604.648	5.44
604.984	5.37
605.319	5.44
605.655	5.31
605.991	5.09
606.326	5.39
606.662	5.25
606.998	4.99
607.333	5.31
607.668	5.27
608.004	5.46
608.339	5.4
608.674	5.39
609.01	5.07
609.345	5.19
609.68	5.41
610.015	5.29
610.35	5.32
610.685	5.16
611.02	5.29
611.355	5.35
611.689	5.16
612.024	5.3
612.359	5.26
612.694	5.16
613.028	5.29
613.363	5.47
613.697	5.4
614.032	5.59
614.366	5.34
614.7	5.33
615.035	5.34
615.369	5.29
615.703	5.58
616.037	5.35
616.371	4.97
616.705	5.1
617.039	4.94
617.373	5.23
617.707	5.12
618.041	5.26
618.375	5.36
618.709	5.25
619.042	4.99
619.376	5.3
619.71	5.59
620.043	5.49
620.377	5.07
620.71	5.4
621.043	5.15
621.377	5.13
621.71	5.55
622.043	5.09
622.376	4.85
622.709	5.26
623.043	5.66
623.376	5.28
623.709	5.33
624.041	5.8
624.374	5.47
624.707	5.45
625.04	5.57
625.373	4.97
625.705	4.99
626.038	5.1
626.37	5.18
626.703	5.04
627.035	5.2
627.368	5.65
627.7	5.63
628.032	5.2
628.365	5.45
628.697	5.26
629.029	4.98
629.361	5.19
629.693	5.33
630.025	5.03
630.357	5.35
630.689	5.31
631.021	5.13
631.353	5.44
631.684	5.3
632.016	5.33
632.348	5.31
632.679	5.13
633.011	5.19
633.342	5.67
633.674	5.28
634.005	5.36
634.336	5.28
634.668	5.66
634.999	5.17
635.33	5.39
635.661	5.6
635.992	5.12
636.323	5.17
636.654	5.67
636.985	5.04
637.316	5.03
637.647	5.1
637.977	5.53
638.308	5.42
638.639	5.01
638.969	5.41
639.3	5.32
639.63	4.97
639.961	5.36
640.291	5.26
640.622	5.5
640.952	4.69
641.282	5.42
641.612	5.23
641.943	4.85
642.273	5.08
642.603	5.57
642.933	5.46
643.263	5.6
643.592	4.88
643.922	5.15
644.252	4.84
644.582	5.42
644.911	4.97
645.241	5.24
645.571	5.45
645.9	4.39
646.23	5.24
646.559	5.08
646.888	5.04
647.218	4.5
647.547	5.19
647.876	4.62
648.205	5.18
648.534	5.51
648.863	4.44
649.192	4.99
649.521	4.94
649.85	4.36
650.179	5.33
650.508	4.66
650.837	4.85
651.165	4.53
651.494	5.13
651.822	5.05
652.151	5.2
652.479	5.08
652.808	4.78
653.136	4.74
653.465	4.89
653.793	4.78
654.121	5.35
654.449	5.22
654.777	5.64
655.105	5.42
655.433	4.83
655.761	5.23
656.089	4.79
656.417	5.46
656.745	4.63
657.073	4.93
657.4	6.01
657.728	5.15
658.056	5.59
658.383	5.26
658.711	5.13
659.038	5.09
659.365	5.17
659.693	5.28
660.02	5.21
660.347	5.32
660.674	4.99
661.001	5.38
661.329	4.79
661.656	5.18
661.982	5.42
662.309	5.28
662.636	5.05
662.963	5.35
663.29	5.49
663.616	5.42
663.943	4.53
664.27	5.65
664.596	5.37
664.923	5.69
665.249	5.16
665.576	4.22
665.902	5.4
666.228	5.41
666.554	5.1
666.881	4.7
667.207	5.27
667.533	5.5
667.859	5.59
668.185	5.45
668.511	5
668.837	4.57
669.162	5.25
669.488	4.37
669.814	5.42
670.139	5.68
670.465	5.45
670.791	5.52
671.116	6.2
671.442	5
671.767	5.18
672.092	5.31
672.418	5.34
672.743	5.32
673.068	5.23
673.393	5.34
673.718	5.02
674.043	4.86
674.368	4.96
674.693	5.76
675.018	5.17
675.343	5.09
675.667	5.38
675.992	5.9
676.317	5.38
676.641	5.63
676.966	5.51
677.29	5.17
677.615	4.87
677.939	5.35
678.264	6.06
678.588	5.15
678.912	5.18
679.236	6.34
679.56	4.95
679.885	5.2
680.209	5.26
680.532	4.66
680.856	5.82
681.18	5.51
681.504	4.81
681.828	5.44
682.152	5.32
682.475	5.18
682.799	5.39
683.122	5.3
683.446	4.88
683.769	5.66
684.093	4.99
684.416	5.67
684.739	5.84
685.062	5.09
685.386	5.89
685.709	4.32
686.032	5.21
686.355	5.81
686.678	4.73
687.001	5.11
687.324	5.55
687.646	5.34
687.969	4.49
688.292	4.92
688.614	5.08
688.937	5.98
689.26	4.56
689.582	5.46
689.904	4.69
690.227	5.27
690.549	5.43
690.871	5.69
691.194	5.09
691.516	4.29
691.838	5.56
