Data from 0192_forehead_Reflection__1__387.txt Node

Date: Fri Dec 15 20:17:36 CST 2023
User: ToomeyLab
Spectrometer: FLMS14357
Trigger mode: 0
Integration Time (sec): 1.000000E-2
Scans to average: 100
Electric dark correction enabled: true
Nonlinearity correction enabled: false
Boxcar width: 0
XAxis mode: Wavelengths
Number of Pixels in Spectrum: 2048
>>>>>Begin Spectral Data<<<<<
189.047	22.59
189.435	22.59
189.823	22.59
190.211	9.24
190.599	-180.7
190.987	47.71
191.375	-326.13
191.763	-250.78
192.151	101.29
192.538	214.16
192.926	53.71
193.314	193.06
193.702	73.29
194.089	16.34
194.477	140.24
194.864	39.82
195.252	45.65
195.639	112.15
196.027	28.3
196.414	1001.96
196.801	461.71
197.189	320.88
197.576	89.12
197.963	-51.89
198.351	-31.93
198.738	4.55
199.125	48.97
199.512	-100.79
199.899	2.76
200.286	-7.3
200.673	-2.27
201.06	-24.26
201.447	12.36
201.833	25.34
202.22	55.99
202.607	50.11
202.994	33.25
203.38	67.62
203.767	48.19
204.154	44.79
204.54	22.18
204.927	24.15
205.313	22.2
205.699	30
206.086	57.59
206.472	31.52
206.858	51.34
207.245	61.71
207.631	11.86
208.017	45.2
208.403	7.17
208.789	49.37
209.175	14.99
209.561	13.07
209.947	56.95
210.333	-14.67
210.719	5.69
211.105	3.7
211.491	2.14
211.876	22.41
212.262	-1.9
212.648	43.41
213.034	13.33
213.419	-49.41
213.805	-9.78
214.19	-1.35
214.576	32.99
214.961	13.06
215.346	-30.52
215.732	60.05
216.117	7.71
216.502	3.41
216.888	-6.7
217.273	23.53
217.658	26.76
218.043	32.29
218.428	-73.07
218.813	-14.91
219.198	-15.13
219.583	-6.78
219.968	9.02
220.353	4.55
220.738	38.69
221.122	21.88
221.507	-15.26
221.892	-9.13
222.276	-29.96
222.661	1.94
223.046	22.18
223.43	15.42
223.815	24.32
224.199	-13.02
224.583	-1.35
224.968	-5.66
225.352	24.48
225.736	10.16
226.121	-7.81
226.505	15.36
226.889	11.42
227.273	6.3
227.657	15.6
228.041	4.74
228.425	5.62
228.809	9
229.193	2.73
229.577	5.18
229.961	5.2
230.344	4.98
230.728	4.82
231.112	4.29
231.495	4.83
231.879	3.21
232.263	6.29
232.646	4.68
233.03	4.84
233.413	4.53
233.797	5.99
234.18	5.14
234.563	6.89
234.946	4.66
235.33	7.54
235.713	5.57
236.096	6.27
236.479	5.79
236.862	5.6
237.245	5.03
237.628	2.76
238.011	5.4
238.394	6.75
238.777	5.78
239.16	3.27
239.543	4.74
239.925	5.09
240.308	4.36
240.691	5.23
241.073	5.54
241.456	5.69
241.838	4.39
242.221	4.62
242.603	5.91
242.986	4.94
243.368	5.43
243.75	4.93
244.133	4.8
244.515	5.06
244.897	4.78
245.279	4.85
245.661	4.91
246.043	3.54
246.425	4.07
246.807	6.67
247.189	5.65
247.571	4.93
247.953	5.01
248.335	4.87
248.717	5.09
249.098	4.86
249.48	5.03
249.862	4.88
250.243	4.93
250.625	4.95
251.006	5.24
251.388	4.81
251.769	4.93
252.151	6.23
252.532	5.64
252.913	4.18
253.295	4.91
253.676	5.25
254.057	5.32
254.438	4.98
254.819	4.96
255.2	4.78
255.581	5.33
255.962	5.28
256.343	5.08
256.724	4.92
257.105	4.38
257.486	4.31
257.867	6.29
258.247	4.69
258.628	5.2
259.009	5.52
259.389	4.78
259.77	5.3
260.15	4.93
260.531	5.03
260.911	5.63
261.292	5.36
261.672	5.4
262.052	5.23
262.432	5.24
262.813	5.15
263.193	4.28
263.573	4.81
263.953	5.08
264.333	5.99
264.713	5.37
265.093	4.95
265.473	4.92
265.853	4.75
266.233	4.82
266.612	4.03
266.992	4.02
267.372	5.73
267.752	4.77
268.131	5.04
268.511	5.56
268.89	5.43
269.27	5.07
269.649	4.73
270.029	4.15
270.408	6.44
270.787	5.35
271.167	5.38
271.546	5.43
271.925	4.53
272.304	5.17
272.683	5.94
273.062	4.66
273.441	4.97
273.82	4.35
274.199	5.03
274.578	5.05
274.957	4.75
275.336	4.71
275.715	4.4
276.093	5.18
276.472	4.75
276.851	5.41
277.229	4.51
277.608	4.62
277.986	5.1
278.365	5.45
278.743	4.83
279.122	4.71
279.5	4.8
279.878	5.2
280.257	4.77
280.635	4.94
281.013	4.74
281.391	5.89
281.769	4.78
282.147	5.15
282.525	5.89
282.903	5.1
283.281	5.65
283.659	5.18
284.037	5.95
284.415	5.44
284.792	5.37
285.17	4.49
285.548	5.14
285.925	5.25
286.303	4.77
286.68	5.08
287.058	5.08
287.435	5.19
287.813	5.36
288.19	5.1
288.567	5.01
288.945	5.26
289.322	5.3
289.699	5.4
290.076	5.04
290.453	5.74
290.83	5.2
291.207	6.02
291.584	5.98
291.961	6.06
292.338	5.74
292.715	6.27
293.092	5.56
293.469	5.71
293.845	6.1
294.222	6.04
294.599	6.09
294.975	5.26
295.352	6.18
295.728	5.61
296.105	5.9
296.481	6.39
296.858	6.63
297.234	6.41
297.61	6.23
297.986	6.39
298.363	6.82
298.739	6.61
299.115	6.48
299.491	6.22
299.867	6.78
300.243	6.77
300.619	6.58
300.995	6.78
301.371	6.98
301.746	6.59
302.122	7.48
302.498	7.02
302.874	7.49
303.249	7.26
303.625	7.1
304	7.69
304.376	7.26
304.751	7.16
305.127	8.11
305.502	7.04
305.878	7.26
306.253	7.17
306.628	8.37
307.003	8.2
307.378	8.37
307.754	8.06
308.129	7.12
308.504	7.9
308.879	8.03
309.254	8.98
309.629	8.75
310.003	8.52
310.378	8.76
310.753	8.67
311.128	8.83
311.502	8.7
311.877	9
312.252	8.74
312.626	8.98
313.001	8.57
313.375	9.18
313.75	8.94
314.124	9.13
314.498	9.09
314.873	9.37
315.247	9.08
315.621	9.61
315.995	9.05
316.369	9.8
316.743	9.61
317.117	9.57
317.491	9.78
317.865	10.07
318.239	9.68
318.613	10.85
318.987	10.85
319.361	10.11
319.734	11.02
320.108	11.45
320.482	10.4
320.855	10.89
321.229	10.45
321.602	10.28
321.976	11.12
322.349	10.25
322.723	11.02
323.096	11.24
323.469	10.67
323.843	11.38
324.216	11.29
324.589	11.14
324.962	11.43
325.335	11.66
325.708	11.02
326.081	11.66
326.454	11.81
326.827	11.52
327.2	11.74
327.573	11.98
327.945	12.23
328.318	11.57
328.691	11.91
329.063	11.85
329.436	11.86
329.809	12.32
330.181	12.18
330.553	12.2
330.926	12.89
331.298	12.48
331.671	13.05
332.043	13.28
332.415	12.56
332.787	13.19
333.159	13.3
333.532	12.81
333.904	13.86
334.276	13.32
334.648	13.32
335.02	13.67
335.391	13.59
335.763	13.53
336.135	13.82
336.507	14.35
336.879	13.54
337.25	13.62
337.622	14.24
337.993	13.59
338.365	13.98
338.736	13.81
339.108	14.01
339.479	13.49
339.851	14.79
340.222	13.77
340.593	14.36
340.964	14.75
341.336	15.29
341.707	14.63
342.078	14.58
342.449	14.73
342.82	14.45
343.191	14.7
343.562	14.72
343.933	14.93
344.303	14.79
344.674	14.73
345.045	14.84
345.416	15.92
345.786	14.7
346.157	15.74
346.527	14.57
346.898	15.21
347.268	15.53
347.639	15.85
348.009	15.34
348.38	15.44
348.75	15.87
349.12	15.7
349.49	16.27
349.861	15.8
350.231	15.38
350.601	16.46
350.971	16.27
351.341	16.25
351.711	16.3
352.081	16.44
352.45	16.88
352.82	16.83
353.19	16.58
353.56	16.83
353.929	16.77
354.299	16.62
354.669	16.83
355.038	17.17
355.408	16.82
355.777	16.88
356.147	16.49
356.516	17.26
356.885	17.29
357.254	17.06
357.624	17.53
357.993	17.41
358.362	17.02
358.731	17.35
359.1	17.8
359.469	17.7
359.838	17.75
360.207	17.36
360.576	17.53
360.945	17.68
361.314	18.45
361.682	17.74
362.051	17.74
362.42	18
362.788	17.97
363.157	18.03
363.525	18.44
363.894	18.23
364.262	18.28
364.631	18.45
364.999	18.4
365.367	18.34
365.735	18.92
366.104	18.47
366.472	19
366.84	18.7
367.208	19.01
367.576	19.03
367.944	18.63
368.312	18.81
368.68	18.82
369.048	19.71
369.416	19.39
369.783	18.9
370.151	19.36
370.519	19.74
370.886	19.41
371.254	19.61
371.621	19.9
371.989	19.88
372.356	19
372.724	19.76
373.091	19.89
373.458	19.96
373.826	20.01
374.193	19.91
374.56	20.39
374.927	20.19
375.294	20.58
375.661	20.13
376.028	20.14
376.395	20.4
376.762	20.36
377.129	20.44
377.496	20.3
377.863	20.73
378.229	20.38
378.596	20.87
378.963	20.97
379.329	20.68
379.696	21.05
380.062	20.97
380.429	20.74
380.795	20.82
381.161	21.51
381.528	21.64
381.894	21.25
382.26	21.32
382.626	21.53
382.993	20.84
383.359	21.75
383.725	21.82
384.091	21.71
384.457	21.98
384.823	21.9
385.188	22.14
385.554	21.32
385.92	21.67
386.286	22.25
386.651	22.32
387.017	22.21
387.383	22.1
387.748	22.11
388.114	22.44
388.479	22.14
388.845	22.72
389.21	22.59
389.575	22.55
389.94	22.53
390.306	22.79
390.671	22.99
391.036	22.58
391.401	22.65
391.766	22.9
392.131	23.04
392.496	23.13
392.861	23.13
393.226	23.24
393.591	23.02
393.956	23.12
394.32	23.45
394.685	23.26
395.05	23.62
395.414	23.67
395.779	23.24
396.143	23.64
396.508	23.69
396.872	23.98
397.236	23.85
397.601	23.59
397.965	24.16
398.329	23.94
398.694	24.11
399.058	24.06
399.422	24.14
399.786	24.08
400.15	24.55
400.514	24.55
400.878	24.18
401.242	24.49
401.605	24.24
401.969	24.82
402.333	24.51
402.697	24.71
403.06	24.77
403.424	24.77
403.787	25.08
404.151	25.1
404.514	25.33
404.878	24.93
405.241	25.02
405.604	25.14
405.968	25.26
406.331	25.34
406.694	25.33
407.057	25.5
407.42	25.54
407.783	25.42
408.146	25.48
408.509	25.66
408.872	25.72
409.235	25.78
409.598	26.03
409.961	26.06
410.323	26
410.686	26.17
411.049	26.04
411.411	26.05
411.774	26.22
412.136	26.13
412.499	25.95
412.861	26.66
413.223	26.37
413.586	26.18
413.948	26.59
414.31	26.6
414.672	26.57
415.035	26.62
415.397	26.95
415.759	26.89
416.121	27.02
416.483	26.83
416.845	26.7
417.206	27.05
417.568	27.24
417.93	26.96
418.292	27.05
418.653	26.98
419.015	27.17
419.377	27.18
419.738	27.14
420.1	27.17
420.461	27.38
420.822	27.38
421.184	27.22
421.545	27.24
421.906	27.21
422.267	27.3
422.629	27.46
422.99	27.33
423.351	27.29
423.712	27.43
424.073	27.47
424.434	27.65
424.795	27.76
425.155	27.62
425.516	27.48
425.877	27.66
426.238	27.58
426.598	27.8
426.959	27.86
427.32	27.83
427.68	28.03
428.041	28.15
428.401	28.33
428.761	28.54
429.122	28.63
429.482	28.38
429.842	28.62
430.202	28.7
430.563	29.11
430.923	28.89
431.283	28.92
431.643	28.85
432.003	29.19
432.363	28.97
432.722	29
433.082	29.18
433.442	29.32
433.802	29.37
434.161	29.19
434.521	29.36
434.881	29.36
435.24	29.35
435.6	29.45
435.959	29.47
436.319	29.48
436.678	29.59
437.037	29.61
437.396	29.93
437.756	30.08
438.115	29.91
438.474	30.03
438.833	29.87
439.192	30.12
439.551	30.33
439.91	30.29
440.269	30.17
440.628	29.99
440.987	30.16
441.345	29.95
441.704	30.18
442.063	29.99
442.421	30.24
442.78	30.15
443.138	30.28
443.497	30.36
443.855	30.34
444.214	30.69
444.572	30.67
444.93	30.61
445.288	30.85
445.647	30.85
446.005	30.84
446.363	30.92
446.721	30.95
447.079	30.69
447.437	30.76
447.795	30.86
448.153	30.82
448.51	30.75
448.868	30.83
449.226	31.03
449.584	31.01
449.941	31.36
450.299	31.17
450.656	31.54
451.014	31.39
451.371	31.53
451.729	31.57
452.086	31.58
452.443	31.94
452.801	32.2
453.158	31.99
453.515	31.79
453.872	32.06
454.229	32.01
454.586	32.02
454.943	32.26
455.3	32.23
455.657	32.19
456.014	32.41
456.371	32.38
456.727	32.47
457.084	32.66
457.441	32.32
457.797	32.73
458.154	32.68
458.51	32.8
458.867	32.98
459.223	32.79
459.58	32.75
459.936	32.96
460.292	33.03
460.648	32.7
461.005	32.8
461.361	32.7
461.717	32.36
462.073	32.57
462.429	32.7
462.785	32.8
463.141	33.11
463.496	33.11
463.852	33.3
464.208	33.4
464.564	33.61
464.919	33.58
465.275	33.37
465.631	33.76
465.986	33.52
466.342	33.52
466.697	33.87
467.052	33.75
467.408	33.99
467.763	33.73
468.118	34.17
468.473	34.16
468.829	33.98
469.184	33.99
469.539	34.26
469.894	34.06
470.249	34.32
470.603	34.12
470.958	34.08
471.313	34.34
471.668	34.71
472.023	34.4
472.377	34.52
472.732	34.46
473.086	34.3
473.441	34.55
473.795	34.64
474.15	34.58
474.504	34.99
474.859	35.02
475.213	34.96
475.567	34.71
475.921	34.96
476.275	35.1
476.63	35.13
476.984	35.31
477.338	35.2
477.692	35.21
478.045	35.2
478.399	35.4
478.753	35.31
479.107	35.22
479.461	35.06
479.814	35.43
480.168	35.45
480.521	35.25
480.875	35.26
481.228	35.29
481.582	35.4
481.935	35.65
482.289	35.6
482.642	35.81
482.995	35.5
483.348	35.4
483.701	35.6
484.055	35.6
484.408	35.59
484.761	35.3
485.114	35.08
485.466	34.63
485.819	34.7
486.172	34.8
486.525	34.84
486.878	34.81
487.23	35.1
487.583	35.3
487.936	35.44
488.288	35.45
488.641	35.44
488.993	35.34
489.345	35.09
489.698	35.31
490.05	35.24
490.402	35.36
490.754	35.5
491.107	35.77
491.459	35.96
491.811	36.11
492.163	36.46
492.515	36.21
492.866	36.29
493.218	36.12
493.57	35.94
493.922	35.81
494.274	36
494.625	36.27
494.977	36.46
495.328	36.66
495.68	37.01
496.031	37.19
496.383	37.05
496.734	37.34
497.086	37.48
497.437	37.25
497.788	37.47
498.139	37.31
498.49	37.46
498.842	37.32
499.193	37.36
499.544	37.37
499.894	37.39
500.245	37.59
500.596	37.65
500.947	37.69
501.298	37.8
501.648	37.89
501.999	37.89
502.35	38.14
502.7	38.14
503.051	37.95
503.401	37.93
503.752	38.29
504.102	38.27
504.452	38.4
504.803	38.4
505.153	38.53
505.503	38.46
505.853	38.34
506.203	38.52
506.553	38.25
506.903	38.41
507.253	38.49
507.603	38.83
507.953	38.82
508.303	38.88
508.652	38.71
509.002	39.09
509.352	38.98
509.701	38.69
510.051	38.69
510.4	39
510.75	38.81
511.099	38.85
511.449	38.77
511.798	38.91
512.147	39
512.496	39
512.846	39.13
513.195	39.13
513.544	39.05
513.893	39.16
514.242	39.2
514.591	39.29
514.939	39.44
515.288	39.26
515.637	39.42
515.986	39.58
516.334	39.67
516.683	39.7
517.032	39.72
517.38	39.99
517.729	39.88
518.077	39.88
518.426	40.06
518.774	39.9
519.122	39.84
519.47	39.93
519.819	39.91
520.167	39.84
520.515	39.67
520.863	39.62
521.211	39.75
521.559	39.63
521.907	40.13
522.255	40.21
522.602	40.17
522.95	40.48
523.298	40.39
523.645	40.36
523.993	40.37
524.341	40.6
524.688	40.64
525.036	40.71
525.383	40.64
525.73	40.86
526.078	40.82
526.425	40.71
526.772	40.74
527.119	40.54
527.466	40.3
527.814	40.34
528.161	40.31
528.508	40.4
528.854	40.56
529.201	40.48
529.548	40.6
529.895	40.39
530.242	40.04
530.588	39.94
530.935	40.12
531.282	40.07
531.628	40.03
531.975	40.23
532.321	40.5
532.667	40.77
533.014	40.68
533.36	40.8
533.706	41.16
534.052	41
534.399	41.19
534.745	40.98
535.091	40.9
535.437	40.85
535.783	40.74
536.129	41.05
536.474	41.2
536.82	41.27
537.166	41.39
537.512	41.72
537.857	41.57
538.203	41.57
538.549	41.47
538.894	41.28
539.239	41.59
539.585	41.64
539.93	41.89
540.276	42.01
540.621	42.24
540.966	42.22
541.311	42.2
541.656	42.48
542.001	42.43
542.346	42.31
542.691	41.86
543.036	41.77
543.381	41.43
543.726	41.57
544.071	41.74
544.415	41.67
544.76	41.77
545.105	42.17
545.449	42.07
545.794	42.28
546.138	42.54
546.483	42.65
546.827	42.86
547.171	42.86
547.516	43.02
547.86	42.91
548.204	42.81
548.548	42.87
548.892	42.97
549.236	43.03
549.58	42.78
549.924	43.27
550.268	43.13
550.612	43.42
550.956	43.33
551.3	43.39
551.643	43.66
551.987	43.9
552.33	43.73
552.674	43.87
553.017	43.74
553.361	43.91
553.704	43.93
554.048	43.65
554.391	43.83
554.734	43.93
555.077	43.92
555.42	43.76
555.764	43.83
556.107	43.95
556.45	44.1
556.793	44.11
557.135	44.01
557.478	44.47
557.821	44.55
558.164	44.4
558.507	44.46
558.849	44.23
559.192	44.5
559.534	44.79
559.877	44.53
560.219	44.55
560.562	44.81
560.904	44.58
561.246	44.95
561.589	44.75
561.931	44.73
562.273	44.82
562.615	45
562.957	45.04
563.299	44.81
563.641	44.74
563.983	44.97
564.325	44.74
564.667	45.01
565.008	44.98
565.35	45.09
565.692	45.26
566.033	45.3
566.375	45.49
566.716	45.66
567.058	45.43
567.399	45.24
567.741	45.25
568.082	45.18
568.423	45.62
568.764	45.18
569.105	45.6
569.447	45.22
569.788	45.28
570.129	45.34
570.47	45.62
570.811	45.8
571.151	45.82
571.492	46.09
571.833	46.01
572.174	45.62
572.514	45.9
572.855	45.83
573.195	45.62
573.536	45.91
573.876	45.62
574.217	45.6
574.557	45.87
574.898	45.89
575.238	45.93
575.578	45.82
575.918	46.06
576.258	46.3
576.598	46.42
576.938	46.2
577.278	46.18
577.618	45.79
577.958	46.18
578.298	46.1
578.638	46.16
578.977	46.05
579.317	46.54
579.657	46.53
579.996	46.64
580.336	46.71
580.675	46.32
581.014	46.53
581.354	46.64
581.693	46.94
582.032	46.93
582.372	46.78
582.711	46.8
583.05	46.68
583.389	47.22
583.728	46.88
584.067	46.94
584.406	47.25
584.745	47.4
585.083	47.07
585.422	47.18
585.761	47.26
586.1	47.29
586.438	47.22
586.777	47.49
587.115	47.36
587.454	47.61
587.792	47.43
588.13	47.83
588.469	47.52
588.807	47.45
589.145	47.46
589.483	47.64
589.821	47.54
590.159	47.61
590.497	47.87
590.835	48.02
591.173	47.54
591.511	47.91
591.849	47.96
592.187	47.71
592.524	47.86
592.862	47.57
593.2	47.87
593.537	47.92
593.875	47.75
594.212	47.87
594.55	47.98
594.887	48.32
595.224	48.26
595.561	47.79
595.899	48.35
596.236	47.99
596.573	48.18
596.91	47.98
597.247	48.42
597.584	48.41
597.921	48.26
598.258	48.3
598.594	48.33
598.931	48.02
599.268	48.31
599.604	48.05
599.941	48.08
600.277	48.52
600.614	48.38
600.95	47.95
601.287	48.75
601.623	48.28
601.959	48.32
602.296	48.67
602.632	49.06
602.968	48.86
603.304	49.12
603.64	49.03
603.976	48.95
604.312	48.97
604.648	48.81
604.984	49.45
605.319	49.08
605.655	48.99
605.991	48.78
606.326	49.01
606.662	48.8
606.998	48.58
607.333	48.74
607.668	48.97
608.004	48.8
608.339	49.04
608.674	49.2
609.01	49.07
609.345	49.24
609.68	49.22
610.015	48.98
610.35	49.3
610.685	49.61
611.02	49.64
611.355	49.15
611.689	49.34
612.024	49.35
612.359	49.21
612.694	49.19
613.028	48.86
613.363	49.55
613.697	49.71
614.032	49.79
614.366	49.74
614.7	49.57
615.035	49.67
615.369	49.76
615.703	49.81
616.037	49.54
616.371	49.79
616.705	49.95
617.039	50.09
617.373	50.44
617.707	50.26
618.041	50.32
618.375	50.13
618.709	50.17
619.042	49.81
619.376	50.26
619.71	50.33
620.043	50.36
620.377	50.46
620.71	50.38
621.043	50.13
621.377	49.96
621.71	50.86
622.043	50.26
622.376	50.34
622.709	50.17
623.043	50.65
623.376	50.39
623.709	50.53
624.041	51.15
624.374	50.61
624.707	50.83
625.04	50.48
625.373	51.03
625.705	50.57
626.038	50.64
626.37	50.81
626.703	50.54
627.035	51.08
627.368	51.41
627.7	51.03
628.032	51.11
628.365	50.91
628.697	50.9
629.029	51.01
629.361	51.07
629.693	50.87
630.025	51.08
630.357	50.98
630.689	51.06
631.021	50.95
631.353	51.52
631.684	51.31
632.016	51.15
632.348	51.56
632.679	51.34
633.011	51.78
633.342	51.58
633.674	51.47
634.005	52.02
634.336	51.87
634.668	51.42
634.999	51.74
635.33	52
635.661	52.06
635.992	51.35
636.323	51.63
636.654	51.61
636.985	51.83
637.316	51.72
637.647	51.55
637.977	51.73
638.308	52.02
638.639	51.95
638.969	51.96
639.3	51.99
639.63	51.67
639.961	52.2
640.291	51.79
640.622	52.04
640.952	52.28
641.282	52.38
641.612	52.09
641.943	52.4
642.273	52.22
642.603	52.25
642.933	51.98
643.263	52.65
643.592	52.69
643.922	52.55
644.252	52.18
644.582	52.48
644.911	52.39
645.241	52.57
645.571	52.36
645.9	52.24
646.23	52.76
646.559	52.49
646.888	52.42
647.218	53.31
647.547	53.07
647.876	52.57
648.205	52.98
648.534	52.68
648.863	52.12
649.192	52.99
649.521	52.49
649.85	53.19
650.179	53.4
650.508	52.38
650.837	52.94
651.165	52.51
651.494	52.87
651.822	52.78
652.151	52.76
652.479	52.84
652.808	52.98
653.136	53.25
653.465	53.01
653.793	53.01
654.121	53.19
654.449	53.04
654.777	53.35
655.105	53.39
655.433	53.1
655.761	52.93
656.089	53
656.417	53.18
656.745	52.99
657.073	53.08
657.4	53.22
657.728	53.55
658.056	53.26
658.383	53.17
658.711	53.32
659.038	53.68
659.365	53.46
659.693	54.21
660.02	53.83
660.347	53.48
660.674	53.68
661.001	53.51
661.329	53.97
661.656	53.76
661.982	53.64
662.309	54.08
662.636	53.94
662.963	53.57
663.29	53.77
663.616	53.95
663.943	54.4
664.27	54.01
664.596	54.65
664.923	54.45
665.249	54.42
665.576	53.96
665.902	54.45
666.228	54.57
666.554	53.92
666.881	54.96
667.207	55.26
667.533	54.89
667.859	54.48
668.185	55.03
668.511	53.9
668.837	54.35
669.162	54.88
669.488	54.07
