Data from 0192_crown_Reflection__3__379.txt Node

Date: Fri Dec 15 20:15:48 CST 2023
User: ToomeyLab
Spectrometer: FLMS14357
Trigger mode: 0
Integration Time (sec): 1.000000E-2
Scans to average: 100
Electric dark correction enabled: true
Nonlinearity correction enabled: false
Boxcar width: 0
XAxis mode: Wavelengths
Number of Pixels in Spectrum: 2048
>>>>>Begin Spectral Data<<<<<
189.047	83.45
189.435	83.45
189.823	83.45
190.211	-15.35
190.599	79.26
190.987	57.2
191.375	1.54
191.763	25.11
192.151	41.35
192.538	322.29
192.926	18.96
193.314	97.26
193.702	-385.34
194.089	-58.69
194.477	-49.2
194.864	168.88
195.252	77.24
195.639	92.74
196.027	36.73
196.414	741.6
196.801	139.84
197.189	191.33
197.576	128.99
197.963	6.9
198.351	-43.06
198.738	48.7
199.125	33.26
199.512	-86.35
199.899	78
200.286	20.15
200.673	-7.87
201.06	15.13
201.447	-151.43
201.833	18.52
202.22	6.64
202.607	27.76
202.994	-16.83
203.38	16.28
203.767	-8.64
204.154	56.57
204.54	30
204.927	-22.89
205.313	-14.86
205.699	20.59
206.086	28.66
206.472	66.09
206.858	38
207.245	-15.84
207.631	33.58
208.017	-1.7
208.403	-25.96
208.789	19.7
209.175	-4.29
209.561	-8.16
209.947	20.87
210.333	-24.29
210.719	46.91
211.105	14.39
211.491	-83.7
211.876	13.13
212.262	-27.41
212.648	-7.41
213.034	35.83
213.419	-41.65
213.805	-1.11
214.19	-8.29
214.576	12.11
214.961	40.97
215.346	-60.47
215.732	0.14
216.117	-6.15
216.502	-2.19
216.888	3.82
217.273	34.52
217.658	-11.69
218.043	10.06
218.428	-17.66
218.813	-55.91
219.198	-36.12
219.583	0.85
219.968	12.58
220.353	-3.57
220.738	1.94
221.122	9.47
221.507	-35.22
221.892	-10.18
222.276	-18.02
222.661	8.53
223.046	1.89
223.43	2.66
223.815	8.51
224.199	-4.42
224.583	-0.27
224.968	-3.39
225.352	7.82
225.736	8.33
226.121	-15.26
226.505	5.4
226.889	16.34
227.273	5.19
227.657	10.43
228.041	6.35
228.425	3.55
228.809	11.07
229.193	7.79
229.577	7.08
229.961	9.67
230.344	8.1
230.728	8.73
231.112	9.61
231.495	7.98
231.879	7.37
232.263	8.9
232.646	10.64
233.03	7.94
233.413	7.64
233.797	8.66
234.18	8.72
234.563	8.53
234.946	7.09
235.33	10.08
235.713	8.74
236.096	8.01
236.479	8.63
236.862	7.22
237.245	9.15
237.628	7.59
238.011	10.82
238.394	10.27
238.777	9.74
239.16	7.3
239.543	10.47
239.925	8.09
240.308	8.05
240.691	10.63
241.073	10.5
241.456	9.37
241.838	7.98
242.221	8.1
242.603	10.31
242.986	9.09
243.368	8.26
243.75	9.25
244.133	8.95
244.515	8.71
244.897	8.26
245.279	8
245.661	8.06
246.043	6.95
246.425	7.52
246.807	8.66
247.189	8.49
247.571	8.01
247.953	8.53
248.335	8.57
248.717	8.24
249.098	8.25
249.48	7.98
249.862	8.09
250.243	8.31
250.625	8
251.006	7.56
251.388	7.02
251.769	7.65
252.151	8.45
252.532	7.57
252.913	7.18
253.295	7.75
253.676	8.36
254.057	8.26
254.438	7.84
254.819	6.93
255.2	6.81
255.581	6.69
255.962	6.89
256.343	7.82
256.724	7.97
257.105	7.07
257.486	6.59
257.867	7.69
258.247	6.74
258.628	7.04
259.009	8.05
259.389	7.86
259.77	7.39
260.15	7.13
260.531	6.79
260.911	8.02
261.292	7.4
261.672	7.7
262.052	7.2
262.432	7.52
262.813	7.17
263.193	6.95
263.573	6.81
263.953	6.81
264.333	7.69
264.713	7.02
265.093	6.8
265.473	6.67
265.853	6.46
266.233	7.44
266.612	6.08
266.992	5.32
267.372	6.95
267.752	6.85
268.131	7.14
268.511	7.64
268.89	7.82
269.27	6.97
269.649	6.63
270.029	6.71
270.408	7.42
270.787	7.65
271.167	7.43
271.546	7.27
271.925	6.11
272.304	6.51
272.683	6.76
273.062	6.94
273.441	7.13
273.82	6.31
274.199	6.52
274.578	6.82
274.957	6.46
275.336	6.52
275.715	6.21
276.093	6.7
276.472	6.86
276.851	6.54
277.229	6.47
277.608	5.73
277.986	6.82
278.365	7.13
278.743	6.19
279.122	6.37
279.5	6.54
279.878	6.92
280.257	6.51
280.635	5.77
281.013	6.06
281.391	6.9
281.769	7.31
282.147	6.82
282.525	6.93
282.903	6.52
283.281	7.21
283.659	6.8
284.037	6.87
284.415	6.67
284.792	6.6
285.17	5.98
285.548	5.92
285.925	6.11
286.303	6.79
286.68	6.62
287.058	6.4
287.435	6.25
287.813	6.43
288.19	6.27
288.567	6.02
288.945	6.49
289.322	6.27
289.699	6.21
290.076	6.1
290.453	5.78
290.83	6.2
291.207	6.01
291.584	6.14
291.961	6.53
292.338	6.27
292.715	6.61
293.092	6.32
293.469	5.88
293.845	5.97
294.222	5.75
294.599	6.08
294.975	6.2
295.352	6.89
295.728	5.98
296.105	6
296.481	6.53
296.858	6.45
297.234	6.11
297.61	6.36
297.986	6.2
298.363	6.69
298.739	6.08
299.115	5.79
299.491	5.85
299.867	6.12
300.243	6.1
300.619	5.98
300.995	5.92
301.371	6.41
301.746	6.11
302.122	6.36
302.498	5.91
302.874	6.32
303.249	6.12
303.625	6.27
304	6.42
304.376	5.93
304.751	5.86
305.127	6.87
305.502	5.7
305.878	5.34
306.253	5.8
306.628	6.44
307.003	5.81
307.378	6.82
307.754	6.24
308.129	5.29
308.504	6.07
308.879	5.51
309.254	6.81
309.629	6.15
310.003	6.19
310.378	6.68
310.753	6.54
311.128	6.02
311.502	5.55
311.877	6.39
312.252	5.7
312.626	6.27
313.001	5.79
313.375	6.3
313.75	5.57
314.124	6.19
314.498	5.23
314.873	5.83
315.247	6.06
315.621	5
315.995	5.25
316.369	6.2
316.743	5.62
317.117	5.89
317.491	5.5
317.865	6
318.239	5.48
318.613	5.88
318.987	6.22
319.361	5.42
319.734	5.7
320.108	5.86
320.482	6.15
320.855	5.96
321.229	6.16
321.602	5.91
321.976	6.02
322.349	5.83
322.723	5.51
323.096	6.28
323.469	5.2
323.843	5.4
324.216	6.42
324.589	6.4
324.962	5.83
325.335	5.8
325.708	5.81
326.081	5.81
326.454	6.13
326.827	5.82
327.2	6.26
327.573	6.73
327.945	5.72
328.318	5.62
328.691	5.74
329.063	5.91
329.436	5.51
329.809	5.67
330.181	6.06
330.553	5.46
330.926	5.94
331.298	6.03
331.671	5.14
332.043	6.83
332.415	6.58
332.787	5.43
333.159	6.3
333.532	6.38
333.904	5.54
334.276	6.16
334.648	6.02
335.02	5.78
335.391	5.57
335.763	5.93
336.135	6.09
336.507	6.34
336.879	5.48
337.25	5.07
337.622	5.91
337.993	6.25
338.365	6.01
338.736	6.46
339.108	6.15
339.479	6.08
339.851	6.17
340.222	6.04
340.593	6.8
340.964	5.71
341.336	6.57
341.707	5.67
342.078	6.41
342.449	6.41
342.82	6
343.191	6.03
343.562	6.09
343.933	6.23
344.303	5.95
344.674	5.97
345.045	6.08
345.416	6.27
345.786	5.64
346.157	6.17
346.527	5.61
346.898	5.75
347.268	6.53
347.639	6.59
348.009	6.2
348.38	5.77
348.75	5.93
349.12	6.08
349.49	6.41
349.861	6.43
350.231	5.54
350.601	6.19
350.971	6.1
351.341	6.44
351.711	6.56
352.081	6.25
352.45	6.14
352.82	6.59
353.19	6.25
353.56	6.14
353.929	6.63
354.299	6.09
354.669	6.25
355.038	6.73
355.408	6.19
355.777	6.44
356.147	6.3
356.516	6.6
356.885	5.9
357.254	6.03
357.624	6.86
357.993	6.62
358.362	5.83
358.731	6.15
359.1	6.53
359.469	6.61
359.838	6.61
360.207	6.32
360.576	5.88
360.945	6.37
361.314	6.79
361.682	6.42
362.051	6.23
362.42	6.5
362.788	6.12
363.157	6.53
363.525	6.52
363.894	6.35
364.262	6.48
364.631	6.49
364.999	6.49
365.367	5.88
365.735	6.93
366.104	6.59
366.472	6.85
366.84	6.43
367.208	6.38
367.576	6.71
367.944	6.81
368.312	6.08
368.68	6.01
369.048	6.56
369.416	6.42
369.783	6.13
370.151	6.52
370.519	6.85
370.886	6.83
371.254	6.31
371.621	6.9
371.989	7.04
372.356	6.49
372.724	6.56
373.091	6.47
373.458	6.62
373.826	6.43
374.193	6.59
374.56	6.62
374.927	6.61
375.294	6.91
375.661	6.51
376.028	6.44
376.395	6.49
376.762	6.83
377.129	6.71
377.496	6.53
377.863	6.31
378.229	6.36
378.596	6.94
378.963	6.67
379.329	6.55
379.696	6.81
380.062	6.88
380.429	6.74
380.795	6.68
381.161	6.73
381.528	6.79
381.894	6.92
382.26	6.6
382.626	7.04
382.993	6.71
383.359	6.82
383.725	6.61
384.091	6.78
384.457	6.85
384.823	7.1
385.188	6.99
385.554	7.12
385.92	6.81
386.286	6.94
386.651	7.31
387.017	7.1
387.383	7.03
387.748	6.59
388.114	6.92
388.479	6.74
388.845	7.12
389.21	6.95
389.575	6.89
389.94	6.71
390.306	7.02
390.671	6.72
391.036	6.61
391.401	6.75
391.766	6.84
392.131	6.69
392.496	7.22
392.861	7.01
393.226	7.11
393.591	7.03
393.956	7.03
394.32	6.86
394.685	6.86
395.05	6.87
395.414	6.71
395.779	6.74
396.143	7.08
396.508	6.93
396.872	6.92
397.236	6.86
397.601	6.6
397.965	6.88
398.329	7.19
398.694	7.09
399.058	6.95
399.422	6.71
399.786	7
400.15	7.33
400.514	6.97
400.878	6.73
401.242	7.23
401.605	7.29
401.969	7.11
402.333	7.2
402.697	7.07
403.06	7.05
403.424	7.19
403.787	6.96
404.151	7.23
404.514	7.14
404.878	7.14
405.241	7.31
405.604	7.18
405.968	7.15
406.331	7.12
406.694	7.45
407.057	7.19
407.42	7.36
407.783	6.91
408.146	6.97
408.509	7.07
408.872	7.05
409.235	6.96
409.598	7.1
409.961	6.79
410.323	7.07
410.686	7.25
411.049	6.99
411.411	7.13
411.774	7.14
412.136	7.14
412.499	6.88
412.861	6.99
413.223	7.08
413.586	7.07
413.948	7.14
414.31	7.3
414.672	6.87
415.035	7.04
415.397	7.66
415.759	7.01
416.121	7.3
416.483	6.89
416.845	7.2
417.206	7.15
417.568	7.34
417.93	7.33
418.292	7.26
418.653	7.33
419.015	7.36
419.377	7.15
419.738	7.28
420.1	7.01
420.461	7.29
420.822	7.31
421.184	7.14
421.545	7.07
421.906	6.96
422.267	7.05
422.629	7.16
422.99	7.29
423.351	7.03
423.712	7.08
424.073	7.06
424.434	7.08
424.795	7.1
425.155	7.2
425.516	7.01
425.877	7.19
426.238	7.04
426.598	7.14
426.959	7.18
427.32	7.14
427.68	7.11
428.041	7.14
428.401	7.15
428.761	7.07
429.122	7.09
429.482	7.04
429.842	7.23
430.202	7.45
430.563	7.32
430.923	7.18
431.283	7.36
431.643	7.23
432.003	7.35
432.363	7.22
432.722	7.1
433.082	7.39
433.442	7.3
433.802	7.14
434.161	7.24
434.521	7.46
434.881	7.26
435.24	7.13
435.6	7.18
435.959	7.2
436.319	7.21
436.678	7.23
437.037	7.26
437.396	7.2
437.756	7.24
438.115	7.24
438.474	7.27
438.833	7.26
439.192	7.3
439.551	7.51
439.91	7.23
440.269	7.42
440.628	7.15
440.987	7.43
441.345	7.17
441.704	7.32
442.063	7.23
442.421	7.3
442.78	7.19
443.138	7.3
443.497	7.06
443.855	7.21
444.214	7.19
444.572	7.31
444.93	7.29
445.288	7.25
445.647	7.39
446.005	7.4
446.363	7.29
446.721	7.34
447.079	7.38
447.437	7.1
447.795	7.26
448.153	7.19
448.51	7.15
448.868	7.17
449.226	7.22
449.584	7.22
449.941	7.21
450.299	7.25
450.656	7.29
451.014	7.33
451.371	7.16
451.729	7.18
452.086	7.47
452.443	7.28
452.801	7.33
453.158	7.33
453.515	7.11
453.872	7.46
454.229	7.29
454.586	7.27
454.943	7.3
455.3	7.36
455.657	7.27
456.014	7.3
456.371	7.16
456.727	7.26
457.084	7.37
457.441	7.28
457.797	7.32
458.154	7.49
458.51	7.36
458.867	7.46
459.223	7.35
459.58	7.34
459.936	7.34
460.292	7.36
460.648	7.3
461.005	7.28
461.361	7.37
461.717	7.29
462.073	7.18
462.429	7.07
462.785	7.06
463.141	7.12
463.496	7.23
463.852	7.26
464.208	7.34
464.564	7.36
464.919	7.4
465.275	7.27
465.631	7.71
465.986	7.36
466.342	7.47
466.697	7.09
467.052	7.37
467.408	7.18
467.763	7.34
468.118	7.34
468.473	7.35
468.829	7.3
469.184	7.21
469.539	7.42
469.894	7.2
470.249	7.58
470.603	7.43
470.958	7.42
471.313	7.48
471.668	7.39
472.023	7.52
472.377	7.34
472.732	7.26
473.086	7.11
473.441	7.22
473.795	7.48
474.15	7.36
474.504	7.54
474.859	7.48
475.213	7.25
475.567	7.25
475.921	7.22
476.275	7.42
476.63	7.42
476.984	7.39
477.338	7.71
477.692	7.28
478.045	7.36
478.399	7.35
478.753	7.51
479.107	7.41
479.461	7.4
479.814	7.38
480.168	7.26
480.521	7.3
480.875	7.37
481.228	7.34
481.582	7.3
481.935	7.27
482.289	7.24
482.642	7.35
482.995	7.27
483.348	7.28
483.701	7.36
484.055	7.4
484.408	7.52
484.761	7.26
485.114	7.3
485.466	7.18
485.819	7.14
486.172	6.99
486.525	6.85
486.878	6.82
487.23	6.88
487.583	6.98
487.936	7.08
488.288	7.19
488.641	7.32
488.993	7.19
489.345	7.13
489.698	7.03
490.05	7.04
490.402	7.02
490.754	6.96
491.107	7.02
491.459	7.1
491.811	7.12
492.163	7.17
492.515	7.35
492.866	7.26
493.218	7.37
493.57	7.25
493.922	7.11
494.274	7.11
494.625	7.06
494.977	7.11
495.328	7.11
495.68	7.27
496.031	7.42
496.383	7.36
496.734	7.48
497.086	7.4
497.437	7.38
497.788	7.28
498.139	7.42
498.49	7.43
498.842	7.27
499.193	7.24
499.544	7.32
499.894	7.31
500.245	7.36
500.596	7.26
500.947	7.45
501.298	7.26
501.648	7.22
501.999	7.31
502.35	7.34
502.7	7.34
503.051	7.16
503.401	7.34
503.752	7.53
504.102	7.38
504.452	7.5
504.803	7.43
505.153	7.32
505.503	7.34
505.853	7.32
506.203	7.27
506.553	7.39
506.903	7.4
507.253	7.39
507.603	7.39
507.953	7.32
508.303	7.57
508.652	7.43
509.002	7.55
509.352	7.51
509.701	7.42
510.051	7.36
510.4	7.33
510.75	7.38
511.099	7.42
511.449	7.16
511.798	7.28
512.147	7.38
512.496	7.37
512.846	7.4
513.195	7.37
513.544	7.32
513.893	7.42
514.242	7.38
514.591	7.44
514.939	7.4
515.288	7.32
515.637	7.36
515.986	7.4
516.334	7.51
516.683	7.55
517.032	7.37
517.38	7.44
517.729	7.62
518.077	7.36
518.426	7.61
518.774	7.43
519.122	7.41
519.47	7.38
519.819	7.21
520.167	7.39
520.515	7.4
520.863	7.37
521.211	7.28
521.559	7.36
521.907	7.24
522.255	7.35
522.602	7.35
522.95	7.31
523.298	7.36
523.645	7.44
523.993	7.38
524.341	7.47
524.688	7.34
525.036	7.28
525.383	7.61
525.73	7.51
526.078	7.45
526.425	7.45
526.772	7.47
527.119	7.45
527.466	7.32
527.814	7.34
528.161	7.31
528.508	7.25
528.854	7.3
529.201	7.36
529.548	7.34
529.895	7.38
530.242	7.3
530.588	7.26
530.935	7.17
531.282	7.08
531.628	7.06
531.975	7.06
532.321	7.15
532.667	7.18
533.014	7.22
533.36	7.25
533.706	7.32
534.052	7.29
534.399	7.28
534.745	7.25
535.091	7.36
535.437	7.32
535.783	7.28
536.129	7.26
536.474	7.15
536.82	7.29
537.166	7.26
537.512	7.44
537.857	7.37
538.203	7.48
538.549	7.39
538.894	7.33
539.239	7.35
539.585	7.3
539.93	7.25
540.276	7.43
540.621	7.48
540.966	7.56
541.311	7.4
541.656	7.43
542.001	7.37
542.346	7.56
542.691	7.43
543.036	7.43
543.381	7.29
543.726	7.3
544.071	7.19
544.415	7.21
544.76	7.14
545.105	7.28
545.449	7.25
545.794	7.29
546.138	7.29
546.483	7.45
546.827	7.42
547.171	7.52
547.516	7.59
547.86	7.46
548.204	7.44
548.548	7.4
548.892	7.5
549.236	7.45
549.58	7.32
549.924	7.46
550.268	7.38
550.612	7.4
550.956	7.58
551.3	7.51
551.643	7.72
551.987	7.74
552.33	7.43
552.674	7.52
553.017	7.48
553.361	7.38
553.704	7.49
554.048	7.41
554.391	7.56
554.734	7.47
555.077	7.41
555.42	7.3
555.764	7.35
556.107	7.33
556.45	7.26
556.793	7.48
557.135	7.33
557.478	7.69
557.821	7.51
558.164	7.49
558.507	7.5
558.849	7.43
559.192	7.43
559.534	7.37
559.877	7.5
560.219	7.5
560.562	7.82
560.904	7.56
561.246	7.41
561.589	7.42
561.931	7.4
562.273	7.38
562.615	7.46
562.957	7.68
563.299	7.37
563.641	7.51
563.983	7.7
564.325	7.21
564.667	7.35
565.008	7.53
565.35	7.26
565.692	7.28
566.033	7.48
566.375	7.59
566.716	7.95
567.058	7.48
567.399	7.52
567.741	7.47
568.082	7.57
568.423	7.5
568.764	7.35
569.105	7.61
569.447	7.6
569.788	7.46
570.129	7.46
570.47	7.29
570.811	7.53
571.151	7.44
571.492	7.56
571.833	7.36
572.174	7.45
572.514	7.53
572.855	7.48
573.195	7.4
573.536	7.51
573.876	7.33
574.217	7.36
574.557	7.58
574.898	7.61
575.238	7.45
575.578	7.39
575.918	7.54
576.258	7.46
576.598	7.61
576.938	7.59
577.278	7.57
577.618	7.46
577.958	7.48
578.298	7.57
578.638	7.35
578.977	7.43
579.317	7.46
579.657	7.4
579.996	7.56
580.336	7.62
580.675	7.44
581.014	7.37
581.354	7.43
581.693	7.39
582.032	7.11
582.372	7.53
582.711	7.4
583.05	7.57
583.389	7.51
583.728	7.48
584.067	7.57
584.406	7.74
584.745	7.44
585.083	7.52
585.422	7.36
585.761	7.49
586.1	7.49
586.438	7.74
586.777	7.66
587.115	7.51
587.454	7.34
587.792	7.39
588.13	7.73
588.469	7.44
588.807	7.31
589.145	7.35
589.483	7.53
589.821	7.5
590.159	7.33
590.497	7.74
590.835	7.94
591.173	7.4
591.511	7.59
591.849	7.67
592.187	7.42
592.524	7.29
592.862	7.37
593.2	7.48
593.537	7.44
593.875	7.41
594.212	7.39
594.55	7.19
594.887	7.7
595.224	7.47
595.561	7.41
595.899	7.54
596.236	7.4
596.573	7.78
596.91	7.26
597.247	7.19
597.584	7.9
597.921	7.3
598.258	7.51
598.594	7.51
598.931	7.5
599.268	7.47
599.604	7.36
599.941	7.47
600.277	7.26
600.614	7.32
600.95	7.26
601.287	7.39
601.623	7.3
601.959	7.64
602.296	7.5
602.632	7.49
602.968	7.42
603.304	7.52
603.64	7.42
603.976	7.6
604.312	7.22
604.648	7.47
604.984	7.5
605.319	7.77
605.655	7.33
605.991	7.45
606.326	7.62
606.662	7.34
606.998	7.22
607.333	7.44
607.668	7.34
608.004	7.41
608.339	7.5
608.674	7.4
609.01	7.32
609.345	7.14
609.68	7.63
610.015	7.25
610.35	7.27
610.685	7.23
611.02	7.23
611.355	7.57
611.689	7.52
612.024	7.49
612.359	7.44
612.694	7.28
613.028	7.18
613.363	7.31
613.697	7.15
614.032	7.2
614.366	7.19
614.7	7.49
615.035	7.36
615.369	7.22
615.703	7.72
616.037	7.4
616.371	6.81
616.705	7.25
617.039	7.51
617.373	7.46
617.707	7.21
618.041	7.38
618.375	7.48
618.709	7.52
619.042	7.07
619.376	7.44
619.71	7.89
620.043	7.51
620.377	7.38
620.71	7.24
621.043	7.31
621.377	7.48
621.71	7.36
622.043	7.16
622.376	7.09
622.709	7.34
623.043	7.63
623.376	7.43
623.709	7.35
624.041	7.94
624.374	7.22
624.707	7.23
625.04	7.8
625.373	7.14
625.705	7.43
626.038	7.28
626.37	7.14
626.703	7.73
627.035	7.6
627.368	7.73
627.7	7.28
628.032	7.52
628.365	7.73
628.697	7.48
629.029	7.38
629.361	7.44
629.693	7.55
630.025	7.21
630.357	7.72
630.689	7.1
631.021	7.67
631.353	7.46
631.684	7.41
632.016	7.22
632.348	7.9
632.679	7.49
633.011	7.65
633.342	7.77
633.674	7.06
634.005	7.87
634.336	7.3
634.668	7.87
634.999	6.99
635.33	7.88
635.661	7.72
635.992	7.46
636.323	7.21
636.654	7.73
636.985	7.3
637.316	7.4
637.647	7.11
637.977	7.65
638.308	7.49
638.639	7.15
638.969	7.27
639.3	7.26
639.63	6.9
639.961	7.23
640.291	7.78
640.622	8.08
640.952	7.52
641.282	7.54
641.612	7.38
641.943	7.11
642.273	7.27
642.603	7.64
642.933	7.25
643.263	7.87
643.592	7.4
643.922	7.62
644.252	7.49
644.582	7.55
644.911	7.42
645.241	7.44
645.571	7.21
645.9	7.49
646.23	7.59
646.559	7.77
646.888	7.21
647.218	7.3
647.547	8.06
647.876	6.89
648.205	7.67
648.534	7.56
648.863	6.91
649.192	7.81
649.521	7.35
649.85	7.41
650.179	7.83
650.508	6.85
650.837	7.51
651.165	7.13
651.494	7.58
651.822	7.59
652.151	7.41
652.479	7.2
652.808	7.32
653.136	7.79
653.465	7.07
653.793	7.58
654.121	7.34
654.449	7.41
654.777	8.1
655.105	7.58
655.433	7.26
655.761	7.27
656.089	7.6
656.417	8.03
656.745	7.38
657.073	7.58
657.4	8.33
657.728	7.82
658.056	7.34
658.383	7.93
658.711	7.18
659.038	7.78
659.365	7.92
659.693	7.64
660.02	7.72
660.347	7.91
660.674	7.39
661.001	7.9
661.329	7.07
661.656	7.48
661.982	7.65
662.309	7.43
662.636	7.22
662.963	7.74
663.29	7.51
663.616	7.55
663.943	7
664.27	7.43
664.596	7.58
664.923	7.45
665.249	7.73
665.576	7.57
665.902	8.34
666.228	7.93
666.554	7.77
666.881	7.13
667.207	7.77
667.533	7.81
667.859	7.07
668.185	7.91
668.511	7.12
668.837	7.06
669.162	7.69
669.488	6.95
669.814	7.25
670.139	8.35
670.465	7.75
670.791	7.69
671.116	8.04
671.442	7.42
671.767	7.51
672.092	8.13
672.418	7.8
672.743	8.04
673.068	7.38
673.393	7.59
673.718	7.03
674.043	7.79
674.368	7.83
674.693	8.26
675.018	7.78
675.343	7.23
675.667	7.56
675.992	7.88
676.317	7.77
676.641	8.13
676.966	7.6
677.29	7.44
677.615	8.25
677.939	7.74
678.264	8.18
678.588	7.66
678.912	8.12
679.236	8.39
679.56	7.47
679.885	8.45
680.209	7.94
680.532	7.8
680.856	8.1
681.18	7.51
681.504	7.64
681.828	8.17
682.152	8
682.475	8.16
682.799	7.93
683.122	7.76
683.446	7.25
683.769	8.13
684.093	7.73
684.416	8.15
684.739	7.86
685.062	8.22
685.386	8.15
685.709	6.94
686.032	7.78
686.355	7.81
686.678	7.64
687.001	7.79
687.324	7.86
687.646	7.37
687.969	8.07
688.292	7.77
688.614	7.67
688.937	8.2
689.26	7.88
689.582	8.1
689.904	7.41
690.227	7.29
690.549	7.66
690.871	8.77
691.194	7.59
691.516	7.31
691.838	7.47
692.16	7.97
692.482	7.56
692.804	7.39
