Data from 0192_crown_Reflection__4__380.txt Node

Date: Fri Dec 15 20:15:57 CST 2023
User: ToomeyLab
Spectrometer: FLMS14357
Trigger mode: 0
Integration Time (sec): 1.000000E-2
Scans to average: 100
Electric dark correction enabled: true
Nonlinearity correction enabled: false
Boxcar width: 0
XAxis mode: Wavelengths
Number of Pixels in Spectrum: 2048
>>>>>Begin Spectral Data<<<<<
189.047	76.58
189.435	76.58
189.823	76.58
190.211	-93.39
190.599	112.61
190.987	24.5
191.375	-264.39
191.763	187.02
192.151	118.61
192.538	275.15
192.926	25.83
193.314	120.28
193.702	-216.89
194.089	-307.71
194.477	13.18
194.864	274.14
195.252	90.86
195.639	101.22
196.027	13.94
196.414	600
196.801	121.52
197.189	99.14
197.576	76.04
197.963	-86.17
198.351	-77.61
198.738	51.37
199.125	12.31
199.512	-45.04
199.899	75.9
200.286	31.74
200.673	-36.76
201.06	51.93
201.447	23.26
201.833	-14.65
202.22	-38.19
202.607	38.88
202.994	-14.85
203.38	21.75
203.767	-10.79
204.154	5.66
204.54	-27.15
204.927	-42.35
205.313	-32.98
205.699	11.13
206.086	42.36
206.472	25.99
206.858	22.57
207.245	-150.26
207.631	0.17
208.017	14.96
208.403	-24.68
208.789	15.44
209.175	-4.8
209.561	-17.57
209.947	-11.67
210.333	-96.31
210.719	17.55
211.105	12.23
211.491	-3.02
211.876	-3.87
212.262	11.8
212.648	25.13
213.034	25.35
213.419	-49.41
213.805	-22.58
214.19	-13.05
214.576	5.87
214.961	-38.65
215.346	-75.69
215.732	-7.23
216.117	7.15
216.502	-4.59
216.888	22.65
217.273	19.95
217.658	13
218.043	26.13
218.428	-71.54
218.813	-53.32
219.198	-74.63
219.583	23.29
219.968	2.95
220.353	-8.31
220.738	4.7
221.122	36.83
221.507	-35.44
221.892	-28.44
222.276	-26.38
222.661	4.03
223.046	17.28
223.43	13.83
223.815	9.31
224.199	-5.21
224.583	-8.01
224.968	7.03
225.352	7.17
225.736	1.05
226.121	-6.9
226.505	9.43
226.889	12.89
227.273	-1.29
227.657	7.93
228.041	10.92
228.425	4.38
228.809	6.2
229.193	6.83
229.577	6.22
229.961	8.42
230.344	6.8
230.728	7.02
231.112	7.15
231.495	6.98
231.879	5.62
232.263	7.41
232.646	5.85
233.03	5.68
233.413	6.11
233.797	7.13
234.18	6.55
234.563	5.82
234.946	4.84
235.33	9.49
235.713	7.32
236.096	6.64
236.479	8.51
236.862	3.79
237.245	7.17
237.628	5.16
238.011	6.11
238.394	9.85
238.777	4.84
239.16	4.92
239.543	6.29
239.925	6.2
240.308	7.48
240.691	7.78
241.073	7.15
241.456	6.02
241.838	5.61
242.221	6.39
242.603	8.22
242.986	6.6
243.368	7.12
243.75	6.95
244.133	7.22
244.515	6.91
244.897	6.87
245.279	7.3
245.661	6.25
246.043	6.02
246.425	5.63
246.807	6.09
247.189	6.27
247.571	6.58
247.953	6.65
248.335	6.32
248.717	7.13
249.098	6.3
249.48	6.51
249.862	6.24
250.243	6
250.625	6.22
251.006	6.53
251.388	5.32
251.769	6.42
252.151	6.63
252.532	6.1
252.913	5.24
253.295	6.27
253.676	6.21
254.057	6.61
254.438	5.97
254.819	4.94
255.2	5.64
255.581	5.8
255.962	4.57
256.343	6.22
256.724	6.57
257.105	5.77
257.486	5.49
257.867	6.55
258.247	6.54
258.628	5.46
259.009	6.28
259.389	6.07
259.77	5.46
260.15	5.8
260.531	5.56
260.911	6.26
261.292	5.9
261.672	6.15
262.052	5.75
262.432	5.96
262.813	5.85
263.193	5.24
263.573	5.45
263.953	5.14
264.333	5.89
264.713	5.71
265.093	4.25
265.473	5.78
265.853	4.57
266.233	6.31
266.612	4.42
266.992	4.18
267.372	5.78
267.752	5.13
268.131	5.74
268.511	6.38
268.89	6.02
269.27	5.34
269.649	5.07
270.029	5.01
270.408	6.25
270.787	5.23
271.167	6.04
271.546	5.78
271.925	4.66
272.304	5.53
272.683	5.83
273.062	4.97
273.441	5.39
273.82	4.85
274.199	5.08
274.578	5.16
274.957	4.66
275.336	5.19
275.715	5.09
276.093	5.09
276.472	5.12
276.851	4.64
277.229	4.82
277.608	4.5
277.986	4.7
278.365	5.25
278.743	5.12
279.122	4.91
279.5	5.63
279.878	5.21
280.257	4.56
280.635	4.88
281.013	4.92
281.391	5.73
281.769	5.22
282.147	5.58
282.525	5.02
282.903	5.25
283.281	5.27
283.659	5.52
284.037	5.24
284.415	4.74
284.792	4.76
285.17	4.18
285.548	4.94
285.925	4.53
286.303	5.1
286.68	4.54
287.058	4.86
287.435	5.15
287.813	4.94
288.19	4.5
288.567	4.96
288.945	4.89
289.322	4.87
289.699	5.1
290.076	4.76
290.453	4.65
290.83	4.52
291.207	4.28
291.584	5.09
291.961	5.31
292.338	5.13
292.715	5.16
293.092	4.45
293.469	4.65
293.845	4.87
294.222	4.23
294.599	4.87
294.975	4.37
295.352	4.75
295.728	4.34
296.105	3.74
296.481	4.96
296.858	4.66
297.234	4.57
297.61	4.68
297.986	4.58
298.363	4.61
298.739	5.01
299.115	4.83
299.491	4.58
299.867	4.54
300.243	5.09
300.619	4.45
300.995	4.77
301.371	4.69
301.746	4.34
302.122	4.54
302.498	4.44
302.874	5.15
303.249	4.5
303.625	4.27
304	4.69
304.376	4.88
304.751	4.05
305.127	5.69
305.502	4.14
305.878	4.53
306.253	4.85
306.628	5.16
307.003	4.17
307.378	4.92
307.754	4.98
308.129	3.8
308.504	4.43
308.879	3.94
309.254	5.1
309.629	5.46
310.003	4.75
310.378	4.6
310.753	4.59
311.128	4.5
311.502	4.45
311.877	4.76
312.252	4.31
312.626	4.88
313.001	4.65
313.375	4.64
313.75	4.2
314.124	4.55
314.498	4.51
314.873	4.49
315.247	3.97
315.621	4.72
315.995	4.04
316.369	4.1
316.743	4.33
317.117	4.67
317.491	4.36
317.865	5.05
318.239	4.58
318.613	4.66
318.987	4.52
319.361	4.04
319.734	4.89
320.108	4.52
320.482	4.22
320.855	4.64
321.229	4.11
321.602	3.68
321.976	5.37
322.349	4.79
322.723	4.07
323.096	4.9
323.469	3.89
323.843	4.07
324.216	5.24
324.589	4.2
324.962	4.62
325.335	4.05
325.708	4.17
326.081	4.49
326.454	4.53
326.827	4.52
327.2	4.62
327.573	4.79
327.945	4.9
328.318	4.44
328.691	4.47
329.063	4.9
329.436	4.5
329.809	4.7
330.181	3.91
330.553	4.47
330.926	4.46
331.298	4.77
331.671	4.44
332.043	5.09
332.415	4.82
332.787	5.06
333.159	5.6
333.532	4.76
333.904	4.75
334.276	4.44
334.648	5.28
335.02	4.55
335.391	4.79
335.763	4.65
336.135	4.63
336.507	4.89
336.879	4.61
337.25	4.81
337.622	4.72
337.993	4.72
338.365	4.96
338.736	4.58
339.108	4.45
339.479	4.86
339.851	4.64
340.222	4.72
340.593	4.56
340.964	4.77
341.336	5.22
341.707	4.64
342.078	4.82
342.449	4.76
342.82	4.47
343.191	4.69
343.562	4.66
343.933	5.02
344.303	4.64
344.674	4.33
345.045	4.79
345.416	5.53
345.786	4.73
346.157	4.64
346.527	4.52
346.898	4.68
347.268	5.12
347.639	5.11
348.009	4.92
348.38	4.85
348.75	4.99
349.12	4.21
349.49	5.48
349.861	4.79
350.231	4.7
350.601	5.1
350.971	4.84
351.341	5.14
351.711	4.88
352.081	4.69
352.45	5.35
352.82	5.02
353.19	4.53
353.56	4.47
353.929	4.77
354.299	4.66
354.669	4.72
355.038	5.23
355.408	4.85
355.777	4.97
356.147	4.77
356.516	4.89
356.885	5.16
357.254	5.19
357.624	5.54
357.993	5.34
358.362	5.13
358.731	4.61
359.1	4.91
359.469	4.89
359.838	5.47
360.207	4.94
360.576	5.09
360.945	5.21
361.314	5.58
361.682	4.91
362.051	5.01
362.42	5.46
362.788	4.9
363.157	5.2
363.525	5.32
363.894	5.41
364.262	5.36
364.631	5.16
364.999	5.19
365.367	4.66
365.735	5.83
366.104	5.29
366.472	5.18
366.84	5.05
367.208	5.16
367.576	5.57
367.944	5.68
368.312	5.48
368.68	4.65
369.048	5.69
369.416	5.14
369.783	5.01
370.151	5.64
370.519	5.79
370.886	5.53
371.254	4.94
371.621	5.57
371.989	5.75
372.356	5.05
372.724	5.06
373.091	5.25
373.458	5.25
373.826	5.17
374.193	5.4
374.56	5.24
374.927	5.37
375.294	5.19
375.661	5.15
376.028	5.03
376.395	5.24
376.762	5.54
377.129	5.47
377.496	5.11
377.863	5.34
378.229	5.08
378.596	5.4
378.963	5.17
379.329	5.01
379.696	5.39
380.062	5.37
380.429	5.43
380.795	4.82
381.161	5.59
381.528	5.6
381.894	5.65
382.26	5.23
382.626	5.58
382.993	4.98
383.359	5.59
383.725	5.45
384.091	5.17
384.457	5.35
384.823	5.24
385.188	5.6
385.554	5.41
385.92	5.63
386.286	5.61
386.651	5.71
387.017	5.59
387.383	5.8
387.748	5.63
388.114	5.52
388.479	5.5
388.845	5.74
389.21	5.46
389.575	5.57
389.94	5.5
390.306	5.66
390.671	5.75
391.036	5.39
391.401	5.4
391.766	5.51
392.131	5.58
392.496	5.3
392.861	5.69
393.226	5.6
393.591	5.62
393.956	5.38
394.32	5.87
394.685	5.36
395.05	5.37
395.414	5.66
395.779	5.62
396.143	5.57
396.508	5.52
396.872	5.69
397.236	5.71
397.601	5.33
397.965	5.55
398.329	5.71
398.694	5.86
399.058	5.51
399.422	5.38
399.786	6.09
400.15	5.68
400.514	5.76
400.878	5.8
401.242	5.73
401.605	5.73
401.969	5.7
402.333	5.59
402.697	5.78
403.06	5.54
403.424	5.83
403.787	5.68
404.151	5.78
404.514	5.78
404.878	5.78
405.241	5.92
405.604	5.73
405.968	5.73
406.331	5.78
406.694	5.79
407.057	5.68
407.42	5.86
407.783	5.76
408.146	5.73
408.509	5.84
408.872	5.72
409.235	5.53
409.598	6.09
409.961	5.74
410.323	5.93
410.686	5.66
411.049	5.74
411.411	5.73
411.774	5.49
412.136	5.88
412.499	5.88
412.861	5.76
413.223	5.74
413.586	5.85
413.948	5.7
414.31	5.68
414.672	5.64
415.035	5.84
415.397	5.98
415.759	5.62
416.121	5.99
416.483	5.68
416.845	5.71
417.206	5.6
417.568	6.01
417.93	5.83
418.292	5.73
418.653	5.81
419.015	5.65
419.377	5.79
419.738	5.87
420.1	5.63
420.461	5.74
420.822	5.63
421.184	5.64
421.545	5.71
421.906	5.68
422.267	5.74
422.629	5.73
422.99	5.73
423.351	5.59
423.712	5.67
424.073	5.67
424.434	5.81
424.795	5.64
425.155	5.67
425.516	5.71
425.877	5.7
426.238	5.63
426.598	5.71
426.959	5.75
427.32	5.66
427.68	5.64
428.041	5.65
428.401	5.69
428.761	5.68
429.122	5.97
429.482	5.66
429.842	5.93
430.202	5.83
430.563	5.84
430.923	5.82
431.283	6.09
431.643	5.76
432.003	5.65
432.363	5.81
432.722	5.73
433.082	6.07
433.442	5.87
433.802	5.72
434.161	5.71
434.521	5.81
434.881	5.89
435.24	5.58
435.6	5.8
435.959	5.74
436.319	5.74
436.678	5.71
437.037	5.71
437.396	5.89
437.756	5.91
438.115	5.78
438.474	5.84
438.833	5.81
439.192	5.67
439.551	6.01
439.91	5.9
440.269	5.96
440.628	5.66
440.987	5.87
441.345	5.65
441.704	6.04
442.063	5.76
442.421	5.84
442.78	5.75
443.138	5.81
443.497	5.8
443.855	5.72
444.214	5.81
444.572	5.87
444.93	5.92
445.288	5.79
445.647	5.77
446.005	5.82
446.363	5.92
446.721	5.91
447.079	5.73
447.437	5.78
447.795	5.83
448.153	5.64
448.51	5.72
448.868	5.79
449.226	5.85
449.584	5.8
449.941	5.9
450.299	5.86
450.656	5.73
451.014	5.87
451.371	5.85
451.729	5.84
452.086	5.83
452.443	5.89
452.801	5.97
453.158	5.81
453.515	5.88
453.872	6.02
454.229	5.98
454.586	5.81
454.943	5.79
455.3	6.08
455.657	5.76
456.014	5.79
456.371	5.83
456.727	5.88
457.084	5.98
457.441	5.93
457.797	5.86
458.154	5.94
458.51	5.75
458.867	5.96
459.223	5.84
459.58	5.99
459.936	5.89
460.292	6.04
460.648	5.85
461.005	5.83
461.361	5.86
461.717	5.86
462.073	5.77
462.429	5.75
462.785	5.74
463.141	5.75
463.496	5.91
463.852	6
464.208	5.83
464.564	5.9
464.919	5.98
465.275	5.85
465.631	5.97
465.986	5.92
466.342	5.97
466.697	5.88
467.052	5.86
467.408	5.91
467.763	5.85
468.118	5.83
468.473	5.94
468.829	5.93
469.184	5.84
469.539	5.98
469.894	5.85
470.249	6.05
470.603	5.8
470.958	5.99
471.313	5.99
471.668	5.86
472.023	5.98
472.377	5.81
472.732	5.77
473.086	5.99
473.441	5.9
473.795	5.95
474.15	5.98
474.504	5.85
474.859	5.97
475.213	5.79
475.567	5.94
475.921	5.76
476.275	6.02
476.63	5.89
476.984	5.98
477.338	6.1
477.692	5.92
478.045	5.97
478.399	6
478.753	6.06
479.107	6.06
479.461	5.93
479.814	5.84
480.168	5.89
480.521	5.76
480.875	5.89
481.228	5.94
481.582	5.9
481.935	5.73
482.289	5.81
482.642	5.92
482.995	5.77
483.348	5.8
483.701	6.01
484.055	5.91
484.408	5.95
484.761	5.77
485.114	5.73
485.466	5.61
485.819	5.61
486.172	5.54
486.525	5.51
486.878	5.49
487.23	5.52
487.583	5.69
487.936	5.66
488.288	5.8
488.641	5.79
488.993	5.63
489.345	5.62
489.698	5.68
490.05	5.53
490.402	5.6
490.754	5.6
491.107	5.67
491.459	5.61
491.811	5.71
492.163	5.72
492.515	5.73
492.866	5.78
493.218	5.81
493.57	5.69
493.922	5.68
494.274	5.69
494.625	5.73
494.977	5.76
495.328	5.74
495.68	5.81
496.031	5.88
496.383	5.78
496.734	5.92
497.086	5.9
497.437	5.89
497.788	5.89
498.139	5.86
498.49	5.79
498.842	5.75
499.193	6.02
499.544	5.74
499.894	5.82
500.245	5.91
500.596	5.82
500.947	5.94
501.298	5.8
501.648	5.88
501.999	6
502.35	5.87
502.7	5.76
503.051	5.67
503.401	5.76
503.752	5.99
504.102	5.89
504.452	5.95
504.803	5.81
505.153	5.78
505.503	5.9
505.853	5.91
506.203	5.82
506.553	5.79
506.903	5.81
507.253	5.67
507.603	5.91
507.953	6.01
508.303	5.89
508.652	5.74
509.002	6.01
509.352	5.97
509.701	5.85
510.051	5.72
510.4	5.71
510.75	5.89
511.099	5.8
511.449	5.87
511.798	5.9
512.147	5.8
512.496	5.74
512.846	5.78
513.195	5.8
513.544	5.72
513.893	5.81
514.242	5.84
514.591	5.88
514.939	5.89
515.288	5.74
515.637	5.89
515.986	5.81
516.334	5.81
516.683	5.83
517.032	5.78
517.38	5.85
517.729	5.91
518.077	5.75
518.426	5.88
518.774	5.9
519.122	5.79
519.47	5.73
519.819	5.75
520.167	5.74
520.515	5.71
520.863	5.75
521.211	5.75
521.559	5.74
521.907	5.63
522.255	5.73
522.602	5.73
522.95	5.73
523.298	5.85
523.645	5.78
523.993	5.76
524.341	5.9
524.688	5.83
525.036	5.86
525.383	5.79
525.73	5.96
526.078	5.76
526.425	5.81
526.772	5.93
527.119	5.73
527.466	5.73
527.814	5.75
528.161	5.72
528.508	5.66
528.854	5.7
529.201	5.66
529.548	5.69
529.895	5.62
530.242	5.59
530.588	5.53
530.935	5.51
531.282	5.52
531.628	5.5
531.975	5.49
532.321	5.63
532.667	5.64
533.014	5.72
533.36	5.62
533.706	5.68
534.052	5.59
534.399	5.56
534.745	5.6
535.091	5.62
535.437	5.7
535.783	5.53
536.129	5.53
536.474	5.59
536.82	5.66
537.166	5.68
537.512	5.66
537.857	5.6
538.203	5.75
538.549	5.7
538.894	5.6
539.239	5.66
539.585	5.59
539.93	5.62
540.276	5.77
540.621	5.75
540.966	5.68
541.311	5.66
541.656	5.58
542.001	5.69
542.346	5.75
542.691	5.6
543.036	5.57
543.381	5.51
543.726	5.52
544.071	5.54
544.415	5.51
544.76	5.53
545.105	5.56
545.449	5.61
545.794	5.62
546.138	5.72
546.483	5.69
546.827	5.77
547.171	5.68
547.516	5.76
547.86	5.56
548.204	5.66
548.548	5.63
548.892	5.63
549.236	5.67
549.58	5.67
549.924	5.76
550.268	5.66
550.612	5.67
550.956	5.74
551.3	5.72
551.643	6
551.987	5.7
552.33	5.76
552.674	5.91
553.017	5.53
553.361	5.79
553.704	5.9
554.048	5.71
554.391	5.58
554.734	5.73
555.077	5.72
555.42	5.58
555.764	5.55
556.107	5.6
556.45	5.59
556.793	5.7
557.135	5.66
557.478	5.76
557.821	5.75
558.164	5.75
558.507	5.59
558.849	5.66
559.192	5.75
559.534	5.8
559.877	5.7
560.219	5.64
560.562	5.8
560.904	5.69
561.246	5.46
561.589	5.78
561.931	5.63
562.273	5.52
562.615	5.82
562.957	5.68
563.299	5.58
563.641	5.38
563.983	5.66
564.325	5.41
564.667	5.61
565.008	5.5
565.35	5.71
565.692	5.56
566.033	5.6
566.375	5.75
566.716	5.8
567.058	5.44
567.399	5.71
567.741	5.35
568.082	5.63
568.423	5.45
568.764	5.43
569.105	5.57
569.447	5.68
569.788	5.55
570.129	5.63
570.47	5.54
570.811	5.6
571.151	5.69
571.492	5.68
571.833	5.58
572.174	5.77
572.514	5.65
572.855	5.46
573.195	5.46
573.536	5.6
573.876	5.28
574.217	5.51
574.557	5.61
574.898	5.64
575.238	5.57
575.578	5.59
575.918	5.52
576.258	5.43
576.598	5.55
576.938	5.37
577.278	5.48
577.618	5.38
577.958	5.53
578.298	5.47
578.638	5.38
578.977	5.56
579.317	5.43
579.657	5.4
579.996	5.41
580.336	5.37
580.675	5.39
581.014	5.42
581.354	5.56
581.693	5.58
582.032	5.46
582.372	5.64
582.711	5.58
583.05	5.34
583.389	5.54
583.728	5.3
584.067	5.66
584.406	5.35
584.745	5.69
585.083	5.58
585.422	5.51
585.761	5.78
586.1	5.55
586.438	5.43
586.777	5.46
587.115	5.52
587.454	5.23
587.792	5.38
588.13	5.75
588.469	5.29
588.807	5.3
589.145	5.26
589.483	5.51
589.821	5.47
590.159	5.33
590.497	5.6
590.835	5.82
591.173	5.49
591.511	5.66
591.849	5.28
592.187	5.39
592.524	5.45
592.862	5.35
593.2	5.46
593.537	5.29
593.875	5.33
594.212	5.55
594.55	5.37
594.887	5.17
595.224	5.28
595.561	5.45
595.899	5.39
596.236	5.54
596.573	5.4
596.91	5.06
597.247	5.18
597.584	5.69
597.921	5.45
598.258	5.18
598.594	5.4
598.931	5.42
599.268	5.52
599.604	5.32
599.941	5.35
600.277	5.28
600.614	5.32
600.95	5.16
601.287	5.41
601.623	5.33
601.959	4.93
602.296	5.42
602.632	5.19
602.968	5.47
603.304	5.32
603.64	5.27
603.976	5.36
604.312	5.32
604.648	5.26
604.984	5.49
605.319	5.67
605.655	5.4
605.991	5.47
606.326	5.33
606.662	5.15
606.998	5.14
607.333	5.42
607.668	5.35
608.004	5.41
608.339	5.7
608.674	5.4
609.01	5.33
609.345	5.26
609.68	5.43
610.015	5.31
610.35	5.28
610.685	4.98
611.02	5.45
611.355	5.58
611.689	5.32
612.024	5.21
612.359	5.24
612.694	5.22
613.028	5.15
613.363	5.54
613.697	5.48
614.032	5.31
614.366	5.1
614.7	5.52
615.035	5.52
615.369	5.32
615.703	5.05
616.037	5.47
616.371	5.22
616.705	5.2
617.039	5.4
617.373	5.08
617.707	5.1
618.041	5.2
618.375	5.26
618.709	5.57
619.042	4.9
619.376	5.51
619.71	5.62
620.043	5.03
620.377	5.36
620.71	5.52
621.043	5.41
621.377	5.25
621.71	5.46
622.043	5.09
622.376	4.87
622.709	5.24
623.043	5.26
623.376	5.42
623.709	5.04
624.041	5.69
624.374	5.42
624.707	5.21
625.04	5.57
625.373	4.82
625.705	4.97
626.038	5.1
626.37	4.86
626.703	5.12
627.035	5.13
627.368	5.57
627.7	5.61
628.032	5.29
628.365	5.65
628.697	5.2
629.029	5.03
629.361	5.35
629.693	5.29
630.025	5.23
630.357	5.28
630.689	5.19
631.021	5.11
631.353	5.35
631.684	4.74
632.016	5.17
632.348	5.24
632.679	5.74
633.011	5.18
633.342	5.74
633.674	5.25
634.005	5.58
634.336	5.07
634.668	5.48
634.999	4.72
635.33	5.59
635.661	5.27
635.992	5.37
636.323	5.53
636.654	5.41
636.985	5.34
637.316	5.16
637.647	5.03
637.977	5.27
638.308	5.47
638.639	5.02
638.969	5.37
639.3	5.55
639.63	4.67
639.961	5.38
640.291	5.29
640.622	5.39
640.952	4.81
641.282	5.59
641.612	5.61
641.943	5.27
642.273	5.02
642.603	5.47
642.933	5.7
643.263	5.43
643.592	5.49
643.922	5.32
644.252	4.89
644.582	5.23
644.911	5.09
645.241	5.1
645.571	5.48
645.9	4.91
646.23	4.65
646.559	5.43
646.888	4.94
647.218	5.48
647.547	5.37
647.876	5.2
648.205	5.15
648.534	4.58
648.863	5.04
649.192	5.36
649.521	5.45
649.85	4.65
650.179	5.2
650.508	4.77
650.837	5.03
651.165	5.12
651.494	5.11
651.822	4.98
652.151	5.2
652.479	5.22
652.808	5.04
653.136	5.46
653.465	4.89
653.793	4.9
654.121	5.49
654.449	5.4
654.777	5.1
655.105	5.22
655.433	4.71
655.761	5.05
656.089	5.27
656.417	5.04
656.745	5.05
657.073	4.91
657.4	5.42
657.728	4.96
658.056	5.2
658.383	5.01
658.711	5.2
659.038	5.35
659.365	5.67
659.693	4.97
660.02	5.22
660.347	4.93
660.674	5.71
661.001	5.47
661.329	4.8
661.656	5
661.982	5.12
662.309	5.1
662.636	4.77
662.963	5.51
663.29	5.12
663.616	5.56
663.943	4.62
664.27	5.29
664.596	5.18
664.923	5.34
665.249	5.28
665.576	4.9
665.902	5.75
666.228	5.1
666.554	5.18
666.881	4.65
667.207	5.21
667.533	5.09
667.859	5.55
668.185	5.7
668.511	4.5
668.837	4.4
669.162	5.23
669.488	4.77
669.814	5.42
670.139	5.31
670.465	5.8
670.791	5.72
671.116	5.91
671.442	5.05
671.767	5.4
672.092	5.52
672.418	5.81
672.743	5.76
673.068	4.9
673.393	5.51
673.718	5.58
674.043	5.32
674.368	5.28
674.693	5.62
675.018	4.98
675.343	4.96
675.667	5.06
675.992	6.24
676.317	5.25
676.641	5.47
676.966	5.53
677.29	5.43
677.615	5.51
677.939	5.71
678.264	5.91
678.588	5.29
678.912	5.37
679.236	6.06
679.56	4.95
679.885	5.57
680.209	5.09
680.532	5.83
680.856	6.15
681.18	4.98
681.504	5.12
681.828	5.48
682.152	5.3
682.475	5.63
682.799	5.53
683.122	5.46
683.446	5.06
683.769	6.04
684.093	5.2
684.416	5.73
684.739	5.1
685.062	5.13
685.386	5.58
685.709	5.12
686.032	5.39
686.355	5.08
686.678	4.99
687.001	4.71
687.324	5.99
687.646	4.8
687.969	4.86
688.292	5.46
688.614	5.44
688.937	5.71
689.26	4.31
689.582	5.47
689.904	5.06
690.227	5.48
690.549	5.35
690.871	6.48
691.194	4.5
691.516	5.23
691.838	5.45
692.16	5.12
692.482	4.73
