Data from 0192_chest_Reflection__3__374.txt Node

Date: Fri Dec 15 20:14:13 CST 2023
User: ToomeyLab
Spectrometer: FLMS14357
Trigger mode: 0
Integration Time (sec): 1.000000E-2
Scans to average: 100
Electric dark correction enabled: true
Nonlinearity correction enabled: false
Boxcar width: 0
XAxis mode: Wavelengths
Number of Pixels in Spectrum: 2048
>>>>>Begin Spectral Data<<<<<
189.047	-11.92
189.435	-11.92
189.823	-11.92
190.211	6.03
190.599	132.18
190.987	67.82
191.375	495.48
191.763	-56.14
192.151	-34.67
192.538	301.75
192.926	10.51
193.314	57.45
193.702	167.2
194.089	116.23
194.477	-24.97
194.864	-113.04
195.252	162.56
195.639	105.43
196.027	-40.67
196.414	391.84
196.801	-56.53
197.189	300.71
197.576	190.55
197.963	-25.24
198.351	-109.3
198.738	1.4
199.125	-15.48
199.512	-117.54
199.899	42.89
200.286	18.48
200.673	16
201.06	-86.18
201.447	-107.12
201.833	-7.77
202.22	51.35
202.607	25.46
202.994	-33.25
203.38	10.85
203.767	14.35
204.154	25.85
204.54	17.95
204.927	-0.87
205.313	-32.85
205.699	12.72
206.086	45.11
206.472	-13.83
206.858	24.41
207.245	-87.43
207.631	14.49
208.017	12.48
208.403	-34.54
208.789	21.57
209.175	-14.35
209.561	-19.32
209.947	-62.9
210.333	-82.84
210.719	47.44
211.105	25.69
211.491	-73.85
211.876	-0.42
212.262	7.95
212.648	2.56
213.034	11.1
213.419	-52.06
213.805	-14.72
214.19	-89.77
214.576	-71.23
214.961	-61.41
215.346	-31.02
215.732	-12.78
216.117	-8.94
216.502	-33.5
216.888	-11.33
217.273	37.65
217.658	-24.93
218.043	-19.75
218.428	-28.51
218.813	-24.77
219.198	-77.27
219.583	-11.01
219.968	-11.32
220.353	6.11
220.738	13.77
221.122	-8.55
221.507	-66.15
221.892	-27.34
222.276	-64.78
222.661	-30.73
223.046	14.94
223.43	8.73
223.815	1.77
224.199	-0.71
224.583	-10.25
224.968	6.14
225.352	6.77
225.736	0.9
226.121	-13.73
226.505	5.37
226.889	3.54
227.273	-2.12
227.657	4.8
228.041	5.79
228.425	0.1
228.809	4.3
229.193	-0.75
229.577	1.66
229.961	3.89
230.344	2.81
230.728	1.98
231.112	3.39
231.495	2.64
231.879	1.7
232.263	3.21
232.646	3.01
233.03	2.24
233.413	1.66
233.797	1.35
234.18	4.44
234.563	2.39
234.946	2.38
235.33	1.87
235.713	2.53
236.096	2.82
236.479	5.52
236.862	1.65
237.245	4.12
237.628	2.14
238.011	2.13
238.394	2.88
238.777	2.47
239.16	0.12
239.543	1.59
239.925	2.82
240.308	3.96
240.691	4.58
241.073	2.97
241.456	1.09
241.838	2.54
242.221	2.92
242.603	3.22
242.986	3.7
243.368	3.09
243.75	3.56
244.133	3.29
244.515	3.69
244.897	3.73
245.279	3.26
245.661	2.78
246.043	3.49
246.425	1.09
246.807	4.2
247.189	3.21
247.571	3.64
247.953	3.8
248.335	3.34
248.717	3.68
249.098	3.45
249.48	3.58
249.862	3.74
250.243	3.11
250.625	3.41
251.006	3.69
251.388	2.46
251.769	4.15
252.151	3.23
252.532	3.71
252.913	2.01
253.295	2.87
253.676	3.58
254.057	3.17
254.438	3.1
254.819	3.57
255.2	2.68
255.581	4.06
255.962	2.63
256.343	3.03
256.724	2.65
257.105	4.19
257.486	2.25
257.867	4.2
258.247	2.56
258.628	3.12
259.009	3.71
259.389	3.49
259.77	2.74
260.15	2.44
260.531	2.52
260.911	3.54
261.292	3.26
261.672	3.47
262.052	3.33
262.432	3.71
262.813	3.3
263.193	3.13
263.573	3.57
263.953	3.01
264.333	3.36
264.713	3.83
265.093	2.67
265.473	3.41
265.853	2.57
266.233	2.98
266.612	1.42
266.992	2.64
267.372	3.59
267.752	2.77
268.131	3.27
268.511	3.84
268.89	3.44
269.27	2.73
269.649	2.42
270.029	3.2
270.408	3.66
270.787	2.95
271.167	3.26
271.546	3.55
271.925	2.47
272.304	3.21
272.683	3.29
273.062	3.13
273.441	3.34
273.82	2.67
274.199	3.29
274.578	3.22
274.957	3.02
275.336	3.01
275.715	2.66
276.093	2.64
276.472	3.16
276.851	2.16
277.229	2.67
277.608	2.37
277.986	2.73
278.365	3.1
278.743	2.24
279.122	3.07
279.5	3.12
279.878	3.24
280.257	3.38
280.635	3.12
281.013	3.54
281.391	3.05
281.769	3.01
282.147	3.09
282.525	3.54
282.903	2.33
283.281	3.85
283.659	3.3
284.037	3.35
284.415	3.42
284.792	3.18
285.17	2.4
285.548	2.82
285.925	2.99
286.303	3.51
286.68	2.76
287.058	3.12
287.435	3.09
287.813	3.01
288.19	3.19
288.567	2.92
288.945	3.7
289.322	3.19
289.699	3.08
290.076	2.99
290.453	3.12
290.83	2.95
291.207	2.82
291.584	3.02
291.961	3.48
292.338	3.4
292.715	3.43
293.092	3.37
293.469	3.45
293.845	3.15
294.222	2.9
294.599	3.88
294.975	3.03
295.352	3.13
295.728	3.05
296.105	3.17
296.481	3.67
296.858	3.47
297.234	2.84
297.61	3.3
297.986	3.12
298.363	3.97
298.739	3.66
299.115	3.21
299.491	3.38
299.867	3.49
300.243	3.53
300.619	3.44
300.995	3.24
301.371	3.83
301.746	3.27
302.122	3.72
302.498	3.63
302.874	4.12
303.249	3.79
303.625	3.44
304	4.35
304.376	3.36
304.751	3.22
305.127	3.97
305.502	2.89
305.878	3.19
306.253	3.15
306.628	4.17
307.003	3.69
307.378	4.15
307.754	3.09
308.129	2.95
308.504	3.37
308.879	3.29
309.254	4.11
309.629	3.91
310.003	3.41
310.378	3.99
310.753	3.83
311.128	3.6
311.502	3.59
311.877	3.96
312.252	3.62
312.626	3.56
313.001	3.62
313.375	3.54
313.75	3.53
314.124	3.61
314.498	3.83
314.873	3.61
315.247	3.49
315.621	3.93
315.995	2.9
316.369	3.71
316.743	3.27
317.117	4.16
317.491	3.71
317.865	3.46
318.239	4.02
318.613	3.88
318.987	4.02
319.361	3.06
319.734	4.04
320.108	3.63
320.482	3.67
320.855	3.87
321.229	3.7
321.602	3.42
321.976	3.68
322.349	3.45
322.723	3.9
323.096	4.11
323.469	3.19
323.843	4.03
324.216	3.9
324.589	3.63
324.962	3.5
325.335	3.13
325.708	3.76
326.081	4.01
326.454	3.94
326.827	3.38
327.2	3.52
327.573	4.29
327.945	3.7
328.318	3.7
328.691	3.49
329.063	3.64
329.436	3.36
329.809	4.34
330.181	3.17
330.553	3.82
330.926	4.16
331.298	3.84
331.671	3.34
332.043	4.11
332.415	3.64
332.787	3.96
333.159	4.04
333.532	4.69
333.904	3.69
334.276	3.33
334.648	4.15
335.02	4.13
335.391	4.16
335.763	3.39
336.135	3.8
336.507	4.04
336.879	3.84
337.25	3.41
337.622	3.8
337.993	3.67
338.365	3.94
338.736	3.81
339.108	4.32
339.479	3.77
339.851	3.64
340.222	3.99
340.593	3.98
340.964	3.95
341.336	4.49
341.707	3.64
342.078	4.18
342.449	4.18
342.82	4.24
343.191	3.91
343.562	4.11
343.933	3.8
344.303	3.82
344.674	3.95
345.045	4.2
345.416	4.45
345.786	3.31
346.157	3.87
346.527	3.77
346.898	3.66
347.268	4.17
347.639	3.99
348.009	4.05
348.38	3.73
348.75	3.77
349.12	3.95
349.49	4.7
349.861	3.83
350.231	4.01
350.601	3.97
350.971	4.02
351.341	3.91
351.711	4.07
352.081	3.99
352.45	3.71
352.82	4.31
353.19	4.22
353.56	4.02
353.929	4.49
354.299	3.81
354.669	4.02
355.038	4.28
355.408	3.68
355.777	3.99
356.147	4.25
356.516	4.27
356.885	4.1
357.254	4.43
357.624	4.27
357.993	4.26
358.362	3.94
358.731	3.9
359.1	3.78
359.469	4.11
359.838	4.16
360.207	3.72
360.576	4.1
360.945	3.9
361.314	4.45
361.682	3.97
362.051	3.7
362.42	4.08
362.788	4.1
363.157	4.2
363.525	4.56
363.894	4.22
364.262	4.35
364.631	4.32
364.999	4.49
365.367	4.04
365.735	4.8
366.104	4.59
366.472	4.14
366.84	3.99
367.208	4.23
367.576	4.59
367.944	4.6
368.312	4.27
368.68	3.83
369.048	4.51
369.416	4.05
369.783	3.97
370.151	4.34
370.519	4.95
370.886	4.7
371.254	4.43
371.621	4.49
371.989	4.66
372.356	4.02
372.724	4.39
373.091	4.07
373.458	4.32
373.826	4.27
374.193	3.95
374.56	4.64
374.927	3.97
375.294	4.29
375.661	4.21
376.028	3.78
376.395	3.89
376.762	4.39
377.129	4.45
377.496	4.15
377.863	4.53
378.229	3.9
378.596	4.18
378.963	4.06
379.329	4.4
379.696	4.24
380.062	4.4
380.429	4.01
380.795	4.28
381.161	4.39
381.528	4.59
381.894	3.96
382.26	4.18
382.626	4.65
382.993	4.08
383.359	4.86
383.725	4.24
384.091	4.39
384.457	4.67
384.823	4.66
385.188	4.32
385.554	4.29
385.92	4.41
386.286	4.45
386.651	4.61
387.017	4.49
387.383	4.63
387.748	4.46
388.114	4.61
388.479	4.27
388.845	4.64
389.21	4.42
389.575	4.47
389.94	4.4
390.306	4.33
390.671	4.5
391.036	4.2
391.401	4.4
391.766	4.33
392.131	4.44
392.496	4.37
392.861	4.3
393.226	4.6
393.591	4.47
393.956	4.27
394.32	4.6
394.685	4.13
395.05	4.29
395.414	4.38
395.779	4.29
396.143	4.31
396.508	4.58
396.872	4.76
397.236	4.37
397.601	4.24
397.965	4.47
398.329	4.56
398.694	4.27
399.058	4.4
399.422	4.41
399.786	4.88
400.15	4.74
400.514	4.4
400.878	4.59
401.242	4.59
401.605	4.54
401.969	4.65
402.333	4.4
402.697	4.66
403.06	4.66
403.424	4.79
403.787	4.59
404.151	4.67
404.514	4.42
404.878	4.41
405.241	4.67
405.604	4.58
405.968	4.86
406.331	4.48
406.694	4.73
407.057	4.68
407.42	4.83
407.783	4.36
408.146	4.56
408.509	4.56
408.872	4.57
409.235	4.6
409.598	4.76
409.961	4.42
410.323	4.81
410.686	4.69
411.049	4.78
411.411	4.62
411.774	4.58
412.136	4.36
412.499	4.79
412.861	4.66
413.223	4.63
413.586	4.47
413.948	4.55
414.31	4.63
414.672	4.62
415.035	4.47
415.397	4.67
415.759	4.38
416.121	4.79
416.483	4.55
416.845	4.78
417.206	4.58
417.568	4.77
417.93	4.48
418.292	4.65
418.653	4.69
419.015	4.87
419.377	4.66
419.738	4.69
420.1	4.61
420.461	4.65
420.822	4.58
421.184	4.58
421.545	4.54
421.906	4.61
422.267	4.58
422.629	4.5
422.99	4.54
423.351	4.56
423.712	4.6
424.073	4.65
424.434	4.69
424.795	4.56
425.155	4.73
425.516	4.55
425.877	4.63
426.238	4.46
426.598	4.72
426.959	4.6
427.32	4.56
427.68	4.55
428.041	4.63
428.401	4.66
428.761	4.66
429.122	4.65
429.482	4.59
429.842	4.75
430.202	4.78
430.563	4.86
430.923	4.61
431.283	4.95
431.643	4.62
432.003	4.67
432.363	5.05
432.722	4.69
433.082	4.66
433.442	4.62
433.802	4.61
434.161	4.8
434.521	4.94
434.881	4.86
435.24	4.77
435.6	4.77
435.959	4.72
436.319	4.81
436.678	4.8
437.037	4.72
437.396	4.89
437.756	4.92
438.115	4.68
438.474	4.89
438.833	4.63
439.192	4.86
439.551	5.01
439.91	4.87
440.269	4.85
440.628	4.77
440.987	5.04
441.345	4.66
441.704	4.79
442.063	4.75
442.421	4.76
442.78	4.73
443.138	4.75
443.497	4.74
443.855	4.8
444.214	4.78
444.572	4.93
444.93	4.71
445.288	4.84
445.647	4.89
446.005	4.86
446.363	4.95
446.721	4.83
447.079	4.65
447.437	4.82
447.795	4.89
448.153	4.67
448.51	4.78
448.868	4.81
449.226	4.81
449.584	4.8
449.941	5.04
450.299	4.99
450.656	4.8
451.014	4.88
451.371	4.89
451.729	4.83
452.086	5.06
452.443	4.98
452.801	5
453.158	4.88
453.515	4.77
453.872	5.18
454.229	4.99
454.586	4.93
454.943	5.09
455.3	5.06
455.657	4.91
456.014	4.98
456.371	4.94
456.727	5.02
457.084	5.28
457.441	4.89
457.797	4.97
458.154	5.25
458.51	5.11
458.867	5.13
459.223	5.07
459.58	4.96
459.936	5.16
460.292	5.07
460.648	5.1
461.005	4.97
461.361	5.1
461.717	5.01
462.073	4.93
462.429	5
462.785	5.05
463.141	4.99
463.496	4.94
463.852	5.06
464.208	4.96
464.564	5.19
464.919	5.17
465.275	5.15
465.631	5.25
465.986	5.08
466.342	5.13
466.697	4.98
467.052	5.1
467.408	5.17
467.763	5.11
468.118	5.14
468.473	5.03
468.829	5.13
469.184	5.13
469.539	5.1
469.894	4.93
470.249	5.17
470.603	5.13
470.958	5.48
471.313	5.41
471.668	5.28
472.023	5.09
472.377	5.25
472.732	5.16
473.086	5.12
473.441	5.04
473.795	5.29
474.15	5.15
474.504	5.15
474.859	5.36
475.213	5.24
475.567	5.28
475.921	5.33
476.275	5.27
476.63	5.34
476.984	5.44
477.338	5.22
477.692	5.19
478.045	5.21
478.399	5.17
478.753	5.26
479.107	5.35
479.461	5.22
479.814	5.35
480.168	5.43
480.521	5.23
480.875	5.35
481.228	5.41
481.582	5.45
481.935	5.36
482.289	5.24
482.642	5.35
482.995	5.31
483.348	5.16
483.701	5.21
484.055	5.35
484.408	5.47
484.761	5.13
485.114	5.17
485.466	4.97
485.819	4.99
486.172	4.98
486.525	5.09
486.878	5.23
487.23	5.27
487.583	5.28
487.936	5.28
488.288	5.23
488.641	5.23
488.993	5.15
489.345	5.14
489.698	5.16
490.05	5.16
490.402	5.21
490.754	5.27
491.107	5.34
491.459	5.38
491.811	5.49
492.163	5.36
492.515	5.38
492.866	5.39
493.218	5.25
493.57	5.21
493.922	5.24
494.274	5.35
494.625	5.5
494.977	5.46
495.328	5.58
495.68	5.53
496.031	5.62
496.383	5.51
496.734	5.65
497.086	5.61
497.437	5.65
497.788	5.45
498.139	5.46
498.49	5.57
498.842	5.41
499.193	5.59
499.544	5.58
499.894	5.58
500.245	5.67
500.596	5.56
500.947	5.71
501.298	5.5
501.648	5.7
501.999	5.82
502.35	5.61
502.7	5.67
503.051	5.5
503.401	5.67
503.752	5.79
504.102	5.83
504.452	5.73
504.803	5.68
505.153	5.73
505.503	5.8
505.853	5.78
506.203	5.68
506.553	5.76
506.903	5.88
507.253	5.82
507.603	5.78
507.953	5.9
508.303	5.82
508.652	5.82
509.002	6.05
509.352	5.81
509.701	5.76
510.051	5.85
510.4	5.77
510.75	5.83
511.099	5.82
511.449	5.81
511.798	5.9
512.147	5.82
512.496	5.89
512.846	6.03
513.195	5.84
513.544	5.91
513.893	6.06
514.242	5.94
514.591	6.02
514.939	6.02
515.288	5.88
515.637	6.12
515.986	6.15
516.334	5.99
516.683	6.12
517.032	6.04
517.38	6.27
517.729	6.12
518.077	5.89
518.426	6.16
518.774	6.15
519.122	6.09
519.47	6.14
519.819	5.99
520.167	6.04
520.515	6.13
520.863	6.1
521.211	6.23
521.559	6.23
521.907	6.19
522.255	6.18
522.602	6.25
522.95	6.07
523.298	6.24
523.645	6.3
523.993	6.21
524.341	6.29
524.688	6.25
525.036	6.25
525.383	6.25
525.73	6.41
526.078	6.33
526.425	6.26
526.772	6.33
527.119	6.34
527.466	6.21
527.814	6.33
528.161	6.33
528.508	6.35
528.854	6.35
529.201	6.29
529.548	6.23
529.895	6.22
530.242	6.04
530.588	6.05
530.935	6.17
531.282	6.27
531.628	6.27
531.975	6.47
532.321	6.49
532.667	6.57
533.014	6.55
533.36	6.57
533.706	6.49
534.052	6.51
534.399	6.47
534.745	6.43
535.091	6.46
535.437	6.45
535.783	6.55
536.129	6.53
536.474	6.71
536.82	6.76
537.166	6.77
537.512	6.8
537.857	6.71
538.203	6.87
538.549	6.7
538.894	6.7
539.239	6.92
539.585	6.81
539.93	6.75
540.276	7.03
540.621	7
540.966	6.89
541.311	6.89
541.656	6.86
542.001	6.9
542.346	6.96
542.691	6.78
543.036	6.73
543.381	6.68
543.726	6.86
544.071	6.94
544.415	7.04
544.76	7.01
545.105	7.1
545.449	7.1
545.794	7.19
546.138	7.2
546.483	7.19
546.827	7.26
547.171	7.28
547.516	7.46
547.86	7.19
548.204	7.31
548.548	7.22
548.892	7.24
549.236	7.3
549.58	7.35
549.924	7.65
550.268	7.52
550.612	7.58
550.956	7.59
551.3	7.49
551.643	7.67
551.987	7.61
552.33	7.46
552.674	7.85
553.017	7.65
553.361	7.56
553.704	7.9
554.048	7.83
554.391	7.74
554.734	7.67
555.077	7.77
555.42	7.8
555.764	7.73
556.107	7.72
556.45	7.93
556.793	7.88
557.135	7.98
557.478	8.04
557.821	8.01
558.164	8.06
558.507	8.03
558.849	7.97
559.192	8.13
559.534	8.21
559.877	8.25
560.219	8.1
560.562	8.36
560.904	8.14
561.246	8.2
561.589	8.35
561.931	8.33
562.273	8.21
562.615	8.28
562.957	8.15
563.299	8.04
563.641	8.19
563.983	8.5
564.325	8.15
564.667	8.39
565.008	8.33
565.35	8.37
565.692	8.47
566.033	8.65
566.375	8.66
566.716	8.79
567.058	8.56
567.399	8.52
567.741	8.51
568.082	8.6
568.423	8.59
568.764	8.69
569.105	8.87
569.447	8.75
569.788	8.76
570.129	8.94
570.47	8.81
570.811	9.17
571.151	9.16
571.492	9.06
571.833	8.93
572.174	8.8
572.514	9.09
572.855	8.75
573.195	9.12
573.536	8.99
573.876	8.86
574.217	8.86
574.557	9.19
574.898	9.45
575.238	9.27
575.578	9.31
575.918	9.35
576.258	9.31
576.598	9.43
576.938	9.23
577.278	9.51
577.618	9.28
577.958	9.31
578.298	9.57
578.638	9.45
578.977	9.62
579.317	9.63
579.657	9.83
579.996	9.75
580.336	9.64
580.675	9.91
581.014	9.93
581.354	9.72
581.693	9.92
582.032	9.79
582.372	9.8
582.711	10.16
583.05	9.94
583.389	10.1
583.728	9.9
584.067	10.03
584.406	10.16
584.745	10.17
585.083	10.26
585.422	10.38
585.761	9.9
586.1	10.09
586.438	10.37
586.777	10.27
587.115	10.51
587.454	10.37
587.792	10.43
588.13	10.66
588.469	10.58
588.807	10.39
589.145	10.48
589.483	10.47
589.821	10.59
590.159	10.63
590.497	10.86
590.835	10.83
591.173	10.88
591.511	10.76
591.849	10.81
592.187	10.94
592.524	10.96
592.862	11
593.2	11.05
593.537	10.78
593.875	10.93
594.212	11.03
594.55	11.1
594.887	11.37
595.224	10.97
595.561	11.04
595.899	11.29
596.236	11.22
596.573	11.13
596.91	11.31
597.247	11.27
597.584	11.41
597.921	11.4
598.258	11.26
598.594	11.31
598.931	11.35
599.268	11.56
599.604	11.43
599.941	11.62
600.277	11.64
600.614	11.62
600.95	11.52
601.287	11.64
601.623	11.58
601.959	11.55
602.296	11.87
602.632	11.83
602.968	12.07
603.304	11.99
603.64	12.04
603.976	11.96
604.312	11.87
604.648	11.93
604.984	12.17
605.319	12.13
605.655	12.14
605.991	12.18
606.326	12.05
606.662	12.04
606.998	11.99
607.333	12.35
607.668	12.28
608.004	12.56
608.339	12.74
608.674	12.53
609.01	12.69
609.345	12.31
609.68	12.64
610.015	12.5
610.35	12.77
610.685	12.8
611.02	12.74
611.355	12.65
611.689	12.95
612.024	12.87
612.359	12.76
612.694	13.02
613.028	12.68
613.363	13.07
613.697	13.1
614.032	12.92
614.366	13.11
614.7	13.18
615.035	13.1
615.369	13.27
615.703	13.03
616.037	13.13
616.371	12.83
616.705	13.49
617.039	13.57
617.373	13.19
617.707	13.12
618.041	13.74
618.375	13.53
618.709	13.37
619.042	13.39
619.376	13.75
619.71	13.94
620.043	13.75
620.377	14.02
620.71	13.91
621.043	13.55
621.377	13.87
621.71	14.2
622.043	14.03
622.376	13.57
622.709	13.78
623.043	14.35
623.376	14.27
623.709	14.26
624.041	14.25
624.374	13.99
624.707	13.99
625.04	14.05
625.373	14.09
625.705	14.11
626.038	14.57
626.37	14.58
626.703	14.43
627.035	14.93
627.368	14.97
627.7	14.8
628.032	14.29
628.365	14.93
628.697	14.61
629.029	14.6
629.361	14.63
629.693	14.71
630.025	14.88
630.357	15
630.689	14.98
631.021	14.83
631.353	14.69
631.684	15.01
632.016	14.96
632.348	14.97
632.679	15.28
633.011	15.49
633.342	15.49
633.674	15.27
634.005	15.69
634.336	15.26
634.668	15.96
634.999	15.23
635.33	15.77
635.661	15.65
635.992	15.44
636.323	15.52
636.654	16.14
636.985	15.53
637.316	15.68
637.647	15.61
637.977	15.75
638.308	15.96
638.639	15.53
638.969	15.69
639.3	15.68
639.63	15.57
639.961	16
640.291	15.9
640.622	16.07
640.952	16.01
641.282	16.42
641.612	15.82
641.943	16.17
642.273	16.56
642.603	16.34
642.933	16.7
643.263	16.54
643.592	16.44
643.922	16.54
644.252	16.64
644.582	16.51
644.911	15.8
645.241	16.74
645.571	16.29
645.9	16.14
646.23	16.96
646.559	16.88
646.888	16.46
647.218	16.78
647.547	17.24
647.876	17.05
648.205	17.33
648.534	17.03
648.863	16.5
649.192	17.15
649.521	17.02
649.85	16.88
650.179	17.29
650.508	16.91
650.837	16.96
651.165	16.67
651.494	16.9
651.822	17.48
652.151	16.88
652.479	17.67
652.808	17.19
653.136	17.17
653.465	17.02
653.793	17.39
654.121	17.44
654.449	17.94
654.777	17.59
655.105	17.76
655.433	16.95
655.761	17.63
656.089	17.96
656.417	17.98
656.745	17.47
657.073	17.81
657.4	18.53
657.728	17.82
658.056	18
658.383	18.17
658.711	18.21
659.038	18.16
659.365	18.11
659.693	17.89
660.02	17.97
660.347	18.01
660.674	18.28
661.001	18.22
661.329	17.8
661.656	18.61
661.982	18.53
662.309	18.68
662.636	18.18
662.963	19.24
663.29	19.02
663.616	18.95
663.943	17.83
664.27	18.46
664.596	18.75
664.923	18.5
665.249	18.65
665.576	18.46
665.902	19.55
666.228	18.97
666.554	19.01
666.881	18.98
667.207	19.43
667.533	18.82
667.859	19.73
668.185	18.9
668.511	18.82
668.837	18.64
669.162	18.63
669.488	19.5
669.814	19.71
670.139	19.51
670.465	19.66
670.791	19.73
671.116	19.98
671.442	19.54
671.767	19.41
672.092	19.82
672.418	19.91
672.743	19.81
673.068	19.02
673.393	19.7
673.718	19.55
674.043	19.92
674.368	20.22
674.693	20.24
675.018	19.72
675.343	19.5
675.667	20.44
675.992	20.39
676.317	20.21
676.641	19.9
676.966	19.97
677.29	19.66
677.615	20.33
677.939	20.65
678.264	20.74
678.588	20.19
678.912	20.59
679.236	21.84
679.56	19.73
679.885	20.89
680.209	20.64
680.532	20.33
680.856	20.82
681.18	20.36
681.504	20.48
681.828	20.92
682.152	20.11
682.475	21.4
682.799	20.92
683.122	20.94
683.446	20.32
683.769	21.36
684.093	21.11
684.416	21.5
