Data from 0192_crown_Reflection__1__377.txt Node

Date: Fri Dec 15 20:15:28 CST 2023
User: ToomeyLab
Spectrometer: FLMS14357
Trigger mode: 0
Integration Time (sec): 1.000000E-2
Scans to average: 100
Electric dark correction enabled: true
Nonlinearity correction enabled: false
Boxcar width: 0
XAxis mode: Wavelengths
Number of Pixels in Spectrum: 2048
>>>>>Begin Spectral Data<<<<<
189.047	30.57
189.435	30.57
189.823	30.57
190.211	64.41
190.599	-14.96
190.987	43.27
191.375	101.32
191.763	12.55
192.151	41.94
192.538	338.82
192.926	-12.49
193.314	129.25
193.702	-410.31
194.089	140.97
194.477	-175.24
194.864	-528.83
195.252	113.74
195.639	74.69
196.027	75.91
196.414	-142.09
196.801	122.47
197.189	159.32
197.576	-30.75
197.963	-162.07
198.351	-168.47
198.738	10.8
199.125	41.1
199.512	-176.23
199.899	12.37
200.286	29.21
200.673	9.88
201.06	21.68
201.447	105.97
201.833	-33.84
202.22	38.92
202.607	40.37
202.994	-59.41
203.38	17.42
203.767	-1.17
204.154	-20.82
204.54	6.19
204.927	-82.56
205.313	47.92
205.699	10.82
206.086	25.61
206.472	18.73
206.858	25.36
207.245	-102.44
207.631	-4.52
208.017	-2.91
208.403	-38.92
208.789	17.36
209.175	4.22
209.561	-46.07
209.947	33.63
210.333	-41.42
210.719	-8.07
211.105	3.05
211.491	-43.49
211.876	42.3
212.262	-2.71
212.648	27.77
213.034	3.05
213.419	-3.11
213.805	11.22
214.19	-27.44
214.576	-14.07
214.961	-34.38
215.346	-90.9
215.732	2.59
216.117	1.94
216.502	-7.26
216.888	1.67
217.273	-3.76
217.658	-10.96
218.043	-5.92
218.428	-44.53
218.813	-17.04
219.198	-49.35
219.583	4.69
219.968	-3.55
220.353	-34.48
220.738	14.25
221.122	11.57
221.507	-61.29
221.892	-10.9
222.276	-57.06
222.661	-6.58
223.046	16.32
223.43	12.03
223.815	14.49
224.199	6.05
224.583	8.12
224.968	4.85
225.352	13.48
225.736	-6.32
226.121	-7.3
226.505	6.87
226.889	9.17
227.273	-3.15
227.657	8.4
228.041	5.36
228.425	3.13
228.809	7.23
229.193	12.83
229.577	5.38
229.961	9.67
230.344	7.81
230.728	8.57
231.112	8.92
231.495	6.89
231.879	6.59
232.263	9.62
232.646	9.01
233.03	8.86
233.413	6.36
233.797	7.46
234.18	6.83
234.563	10.3
234.946	5.65
235.33	6.49
235.713	8.78
236.096	9.05
236.479	8
236.862	4.91
237.245	7.25
237.628	7.11
238.011	7.46
238.394	10.43
238.777	9.23
239.16	5.25
239.543	7.69
239.925	6.42
240.308	7.19
240.691	7.69
241.073	6.98
241.456	8.33
241.838	7.86
242.221	7.29
242.603	8.67
242.986	9.42
243.368	7.76
243.75	8.57
244.133	7.79
244.515	7.6
244.897	7.67
245.279	7.57
245.661	7.8
246.043	6.46
246.425	6.18
246.807	8.19
247.189	8.97
247.571	7.52
247.953	7.97
248.335	7.68
248.717	7.71
249.098	7.54
249.48	7.28
249.862	6.99
250.243	7.43
250.625	7.02
251.006	7
251.388	5.93
251.769	7.19
252.151	7.78
252.532	7.82
252.913	7.15
253.295	6.63
253.676	7.47
254.057	7.3
254.438	7.02
254.819	6.46
255.2	5.5
255.581	6.81
255.962	5.93
256.343	7.55
256.724	5.64
257.105	7.23
257.486	5.92
257.867	6.68
258.247	6.65
258.628	6.55
259.009	5.83
259.389	7.04
259.77	6.73
260.15	6.83
260.531	6.62
260.911	7.28
261.292	7.09
261.672	6.86
262.052	6.86
262.432	6.72
262.813	6.64
263.193	6.55
263.573	5.95
263.953	6.68
264.333	7.4
264.713	7.15
265.093	6
265.473	6.56
265.853	5.67
266.233	7.23
266.612	5.59
266.992	5.94
267.372	6.3
267.752	6.68
268.131	5.92
268.511	6.97
268.89	6.69
269.27	6.31
269.649	5.91
270.029	6.1
270.408	6.78
270.787	6.32
271.167	7.04
271.546	6.45
271.925	6.04
272.304	6.08
272.683	6.25
273.062	6.57
273.441	6.21
273.82	5.47
274.199	6.01
274.578	5.99
274.957	5.77
275.336	6.31
275.715	6.19
276.093	5.58
276.472	6.19
276.851	5.96
277.229	5.88
277.608	5.33
277.986	6.19
278.365	6.63
278.743	5.57
279.122	6.02
279.5	6.26
279.878	6.42
280.257	6.37
280.635	5.41
281.013	5.96
281.391	6.16
281.769	5.64
282.147	6.39
282.525	6.56
282.903	5.81
283.281	6.31
283.659	6.44
284.037	6.27
284.415	6.11
284.792	5.97
285.17	5.56
285.548	5.81
285.925	5.75
286.303	5.86
286.68	5.71
287.058	5.91
287.435	5.81
287.813	5.78
288.19	5.55
288.567	5.77
288.945	6
289.322	5.37
289.699	5.44
290.076	5.3
290.453	5.43
290.83	5.6
291.207	5.65
291.584	5.91
291.961	5.79
292.338	5.98
292.715	5.79
293.092	5.17
293.469	5.31
293.845	5.68
294.222	5.43
294.599	5.25
294.975	5.14
295.352	5.61
295.728	5.26
296.105	5.29
296.481	5.86
296.858	5.68
297.234	5.17
297.61	5.24
297.986	5.46
298.363	5.78
298.739	5.8
299.115	5.34
299.491	4.95
299.867	5.27
300.243	5.21
300.619	4.81
300.995	5.62
301.371	5.78
301.746	5.04
302.122	5.95
302.498	4.9
302.874	5.57
303.249	5.42
303.625	5.28
304	5.47
304.376	5.24
304.751	4.77
305.127	5.82
305.502	4.91
305.878	4.72
306.253	5.13
306.628	5.4
307.003	5.31
307.378	5.55
307.754	5.68
308.129	4.72
308.504	5.05
308.879	4.59
309.254	6.47
309.629	6.07
310.003	5.55
310.378	5.21
310.753	5.22
311.128	4.71
311.502	5.25
311.877	5.4
312.252	4.8
312.626	5.05
313.001	5
313.375	5.26
313.75	4.92
314.124	5.16
314.498	4.75
314.873	4.75
315.247	4.89
315.621	5.67
315.995	4.65
316.369	4.59
316.743	5.25
317.117	5.18
317.491	5.1
317.865	4.69
318.239	5
318.613	5.36
318.987	5.77
319.361	4.69
319.734	5.11
320.108	5.08
320.482	4.96
320.855	5.15
321.229	4.82
321.602	4.44
321.976	5.08
322.349	4.69
322.723	4.88
323.096	5.38
323.469	3.75
323.843	4.43
324.216	5.65
324.589	5.05
324.962	5.11
325.335	4.68
325.708	4.85
326.081	4.56
326.454	5.08
326.827	4.98
327.2	4.88
327.573	5.36
327.945	5.37
328.318	4.39
328.691	4.43
329.063	5.06
329.436	4.25
329.809	4.7
330.181	5.01
330.553	4.85
330.926	5.12
331.298	5.02
331.671	4.83
332.043	4.99
332.415	5.32
332.787	5.01
333.159	5.42
333.532	5.33
333.904	4.86
334.276	4.84
334.648	4.81
335.02	4.93
335.391	4.89
335.763	5.06
336.135	5.15
336.507	5.47
336.879	5.24
337.25	4.4
337.622	4.66
337.993	4.82
338.365	5.24
338.736	5.2
339.108	4.95
339.479	4.92
339.851	4.94
340.222	4.91
340.593	4.82
340.964	4.65
341.336	5.76
341.707	4.64
342.078	5.11
342.449	5.46
342.82	5.31
343.191	5.01
343.562	5.45
343.933	5.12
344.303	5.25
344.674	5.03
345.045	4.75
345.416	5.58
345.786	4.68
346.157	5.63
346.527	4.56
346.898	4.94
347.268	5.18
347.639	4.95
348.009	5.41
348.38	5.28
348.75	5.09
349.12	4.87
349.49	5.58
349.861	5.05
350.231	4.95
350.601	5.3
350.971	5.36
351.341	5.77
351.711	5.56
352.081	5.13
352.45	4.91
352.82	5.27
353.19	5.04
353.56	5.06
353.929	5.25
354.299	5.19
354.669	4.97
355.038	5.61
355.408	5.16
355.777	5.23
356.147	5.21
356.516	5.16
356.885	5.4
357.254	5.15
357.624	5.41
357.993	5.62
358.362	5.45
358.731	4.9
359.1	5.28
359.469	5.45
359.838	5.56
360.207	5.29
360.576	5.26
360.945	4.95
361.314	5.82
361.682	5.32
362.051	5.79
362.42	5.89
362.788	5.43
363.157	5.64
363.525	5.63
363.894	5.7
364.262	5.46
364.631	5.45
364.999	5.73
365.367	5.21
365.735	5.67
366.104	5.64
366.472	5.95
366.84	5.55
367.208	5.32
367.576	5.5
367.944	5.62
368.312	5.3
368.68	5.4
369.048	5.43
369.416	5.67
369.783	5.14
370.151	5.67
370.519	6.15
370.886	5.72
371.254	5.42
371.621	5.93
371.989	5.56
372.356	5.46
372.724	5.73
373.091	5.55
373.458	5.65
373.826	5.56
374.193	5.51
374.56	6.03
374.927	5.94
375.294	5.69
375.661	5.61
376.028	5.8
376.395	5.49
376.762	6.02
377.129	5.7
377.496	5.64
377.863	5.58
378.229	5.73
378.596	5.81
378.963	5.54
379.329	5.78
379.696	6.16
380.062	6.02
380.429	5.63
380.795	5.39
381.161	5.62
381.528	5.98
381.894	5.82
382.26	5.55
382.626	5.82
382.993	5.85
383.359	6.25
383.725	5.71
384.091	5.68
384.457	6.32
384.823	5.7
385.188	6.17
385.554	5.5
385.92	6.2
386.286	5.86
386.651	6.09
387.017	6.06
387.383	5.98
387.748	5.95
388.114	6.02
388.479	5.66
388.845	6.18
389.21	6.02
389.575	5.98
389.94	6.05
390.306	5.91
390.671	6.19
391.036	5.9
391.401	5.74
391.766	5.72
392.131	5.78
392.496	5.91
392.861	5.79
393.226	6.19
393.591	6.25
393.956	5.94
394.32	6.12
394.685	5.83
395.05	5.93
395.414	6.11
395.779	5.9
396.143	6.14
396.508	6.26
396.872	6.15
397.236	6.35
397.601	5.78
397.965	6.23
398.329	6.08
398.694	6.49
399.058	6.03
399.422	6.33
399.786	6.46
400.15	6.15
400.514	6.27
400.878	6.17
401.242	6.22
401.605	6.37
401.969	6.07
402.333	5.97
402.697	6.07
403.06	6.21
403.424	6.21
403.787	5.96
404.151	6.54
404.514	6.28
404.878	6.21
405.241	6.53
405.604	6.21
405.968	6.39
406.331	6.22
406.694	6.53
407.057	6.47
407.42	6.38
407.783	6.08
408.146	6.42
408.509	6.11
408.872	6.11
409.235	6.16
409.598	6.37
409.961	6.34
410.323	6.48
410.686	6.29
411.049	6.25
411.411	6.08
411.774	6.25
412.136	6.3
412.499	6.37
412.861	6.31
413.223	6.1
413.586	6.2
413.948	6.46
414.31	6.22
414.672	6.33
415.035	6.32
415.397	6.68
415.759	6.01
416.121	6.26
416.483	6.38
416.845	6.5
417.206	6.38
417.568	6.33
417.93	6.26
418.292	6.35
418.653	6.28
419.015	6.48
419.377	6.37
419.738	6.53
420.1	6.25
420.461	6.42
420.822	6.44
421.184	6.2
421.545	6.29
421.906	6.27
422.267	6.35
422.629	6.34
422.99	6.38
423.351	6.28
423.712	6.27
424.073	6.27
424.434	6.23
424.795	6.38
425.155	6.39
425.516	6.22
425.877	6.39
426.238	6.13
426.598	6.29
426.959	6.33
427.32	6.19
427.68	6.18
428.041	6.23
428.401	6.41
428.761	6.36
429.122	6.22
429.482	6.35
429.842	6.36
430.202	6.36
430.563	6.47
430.923	6.24
431.283	6.58
431.643	6.36
432.003	6.48
432.363	6.46
432.722	6.28
433.082	6.42
433.442	6.48
433.802	6.28
434.161	6.37
434.521	6.64
434.881	6.57
435.24	6.39
435.6	6.5
435.959	6.29
436.319	6.48
436.678	6.29
437.037	6.29
437.396	6.57
437.756	6.45
438.115	6.45
438.474	6.61
438.833	6.47
439.192	6.35
439.551	6.52
439.91	6.53
440.269	6.36
440.628	6.31
440.987	6.47
441.345	6.39
441.704	6.39
442.063	6.48
442.421	6.52
442.78	6.44
443.138	6.45
443.497	6.31
443.855	6.32
444.214	6.33
444.572	6.57
444.93	6.49
445.288	6.56
445.647	6.58
446.005	6.4
446.363	6.51
446.721	6.56
447.079	6.45
447.437	6.4
447.795	6.46
448.153	6.28
448.51	6.42
448.868	6.43
449.226	6.39
449.584	6.37
449.941	6.48
450.299	6.42
450.656	6.56
451.014	6.48
451.371	6.27
451.729	6.4
452.086	6.73
452.443	6.43
452.801	6.54
453.158	6.58
453.515	6.4
453.872	6.65
454.229	6.6
454.586	6.44
454.943	6.54
455.3	6.76
455.657	6.5
456.014	6.46
456.371	6.43
456.727	6.48
457.084	6.51
457.441	6.38
457.797	6.48
458.154	6.74
458.51	6.58
458.867	6.48
459.223	6.63
459.58	6.6
459.936	6.63
460.292	6.66
460.648	6.78
461.005	6.56
461.361	6.68
461.717	6.66
462.073	6.42
462.429	6.34
462.785	6.41
463.141	6.27
463.496	6.44
463.852	6.42
464.208	6.47
464.564	6.65
464.919	6.47
465.275	6.52
465.631	6.78
465.986	6.51
466.342	6.58
466.697	6.44
467.052	6.65
467.408	6.54
467.763	6.56
468.118	6.62
468.473	6.55
468.829	6.6
469.184	6.3
469.539	6.54
469.894	6.33
470.249	6.72
470.603	6.67
470.958	6.55
471.313	6.53
471.668	6.9
472.023	6.48
472.377	6.49
472.732	6.57
473.086	6.59
473.441	6.41
473.795	6.61
474.15	6.5
474.504	6.64
474.859	6.69
475.213	6.43
475.567	6.47
475.921	6.43
476.275	6.56
476.63	6.63
476.984	6.65
477.338	6.58
477.692	6.42
478.045	6.67
478.399	6.59
478.753	6.6
479.107	6.5
479.461	6.56
479.814	6.56
480.168	6.52
480.521	6.43
480.875	6.52
481.228	6.63
481.582	6.45
481.935	6.5
482.289	6.56
482.642	6.46
482.995	6.54
483.348	6.49
483.701	6.57
484.055	6.63
484.408	6.58
484.761	6.6
485.114	6.56
485.466	6.44
485.819	6.4
486.172	6.24
486.525	6.1
486.878	6.09
487.23	6.11
487.583	6.23
487.936	6.31
488.288	6.39
488.641	6.51
488.993	6.46
489.345	6.37
489.698	6.37
490.05	6.25
490.402	6.27
490.754	6.24
491.107	6.25
491.459	6.22
491.811	6.38
492.163	6.43
492.515	6.51
492.866	6.67
493.218	6.58
493.57	6.54
493.922	6.31
494.274	6.24
494.625	6.31
494.977	6.24
495.328	6.4
495.68	6.48
496.031	6.59
496.383	6.47
496.734	6.66
497.086	6.79
497.437	6.78
497.788	6.51
498.139	6.52
498.49	6.68
498.842	6.52
499.193	6.53
499.544	6.48
499.894	6.46
500.245	6.52
500.596	6.46
500.947	6.51
501.298	6.44
501.648	6.48
501.999	6.64
502.35	6.49
502.7	6.56
503.051	6.53
503.401	6.58
503.752	6.65
504.102	6.47
504.452	6.57
504.803	6.48
505.153	6.54
505.503	6.57
505.853	6.49
506.203	6.47
506.553	6.62
506.903	6.62
507.253	6.46
507.603	6.46
507.953	6.57
508.303	6.68
508.652	6.57
509.002	6.71
509.352	6.8
509.701	6.45
510.051	6.57
510.4	6.5
510.75	6.48
511.099	6.6
511.449	6.53
511.798	6.67
512.147	6.59
512.496	6.43
512.846	6.49
513.195	6.59
513.544	6.62
513.893	6.65
514.242	6.47
514.591	6.65
514.939	6.63
515.288	6.46
515.637	6.68
515.986	6.52
516.334	6.53
516.683	6.54
517.032	6.6
517.38	6.64
517.729	6.66
518.077	6.51
518.426	6.5
518.774	6.66
519.122	6.68
519.47	6.59
519.819	6.5
520.167	6.66
520.515	6.66
520.863	6.6
521.211	6.44
521.559	6.52
521.907	6.47
522.255	6.5
522.602	6.56
522.95	6.49
523.298	6.58
523.645	6.74
523.993	6.59
524.341	6.59
524.688	6.54
525.036	6.59
525.383	6.56
525.73	6.71
526.078	6.7
526.425	6.59
526.772	6.64
527.119	6.66
527.466	6.55
527.814	6.51
528.161	6.47
528.508	6.51
528.854	6.57
529.201	6.57
529.548	6.52
529.895	6.59
530.242	6.48
530.588	6.51
530.935	6.33
531.282	6.3
531.628	6.21
531.975	6.26
532.321	6.27
532.667	6.38
533.014	6.49
533.36	6.46
533.706	6.46
534.052	6.5
534.399	6.47
534.745	6.56
535.091	6.52
535.437	6.49
535.783	6.41
536.129	6.41
536.474	6.37
536.82	6.39
537.166	6.47
537.512	6.5
537.857	6.6
538.203	6.69
538.549	6.56
538.894	6.49
539.239	6.54
539.585	6.5
539.93	6.37
540.276	6.59
540.621	6.6
540.966	6.57
541.311	6.72
541.656	6.58
542.001	6.73
542.346	6.77
542.691	6.7
543.036	6.6
543.381	6.49
543.726	6.47
544.071	6.36
544.415	6.36
544.76	6.27
545.105	6.44
545.449	6.43
545.794	6.44
546.138	6.43
546.483	6.55
546.827	6.63
547.171	6.54
547.516	6.59
547.86	6.61
548.204	6.53
548.548	6.49
548.892	6.6
549.236	6.46
549.58	6.48
549.924	6.57
550.268	6.64
550.612	6.63
550.956	6.67
551.3	6.6
551.643	6.66
551.987	6.89
552.33	6.51
552.674	6.67
553.017	6.54
553.361	6.53
553.704	6.62
554.048	6.55
554.391	6.47
554.734	6.5
555.077	6.72
555.42	6.5
555.764	6.47
556.107	6.45
556.45	6.46
556.793	6.61
557.135	6.35
557.478	6.69
557.821	6.62
558.164	6.59
558.507	6.78
558.849	6.64
559.192	6.67
559.534	6.71
559.877	6.62
560.219	6.62
560.562	6.71
560.904	6.59
561.246	6.58
561.589	6.56
561.931	6.62
562.273	6.57
562.615	6.5
562.957	6.56
563.299	6.38
563.641	6.54
563.983	6.48
564.325	6.53
564.667	6.53
565.008	6.55
565.35	6.56
565.692	6.34
566.033	6.56
566.375	6.77
566.716	6.6
567.058	6.5
567.399	6.57
567.741	6.58
568.082	6.53
568.423	6.44
568.764	6.47
569.105	6.64
569.447	6.49
569.788	6.5
570.129	6.4
570.47	6.46
570.811	6.58
571.151	6.58
571.492	6.73
571.833	6.52
572.174	6.61
572.514	6.75
572.855	6.59
573.195	6.58
573.536	6.54
573.876	6.33
574.217	6.46
574.557	6.61
574.898	6.59
575.238	6.75
575.578	6.24
575.918	6.39
576.258	6.41
576.598	6.57
576.938	6.42
577.278	6.52
577.618	6.63
577.958	6.59
578.298	6.3
578.638	6.42
578.977	6.39
579.317	6.46
579.657	6.56
579.996	6.64
580.336	6.42
580.675	6.44
581.014	6.6
581.354	6.53
581.693	6.67
582.032	6.38
582.372	6.25
582.711	6.44
583.05	6.37
583.389	6.52
583.728	6.41
584.067	6.48
584.406	6.45
584.745	6.6
585.083	6.66
585.422	6.7
585.761	6.67
586.1	6.48
586.438	6.38
586.777	6.47
587.115	6.53
587.454	6.5
587.792	6.19
588.13	6.66
588.469	6.46
588.807	6.5
589.145	6.29
589.483	6.33
589.821	6.29
590.159	6.41
590.497	6.65
590.835	6.79
591.173	6.37
591.511	6.56
591.849	6.34
592.187	6.3
592.524	6.57
592.862	6.19
593.2	6.56
593.537	6.49
593.875	6.25
594.212	6.47
594.55	6.35
594.887	6.53
595.224	6.1
595.561	6.52
595.899	6.34
596.236	6.39
596.573	6.39
596.91	6.23
597.247	5.93
597.584	6.68
597.921	6.47
598.258	6.26
598.594	6.39
598.931	6.31
599.268	6.62
599.604	6.37
599.941	6.49
600.277	6.36
600.614	6.31
600.95	6.01
601.287	6.46
601.623	6.31
601.959	6.28
602.296	6.54
602.632	6.21
602.968	6.63
603.304	6.37
603.64	6.25
603.976	6.64
604.312	5.92
604.648	6.34
604.984	6.45
605.319	6.38
605.655	6.45
605.991	6.25
606.326	6.34
606.662	6.46
606.998	6.02
607.333	6.18
607.668	6.28
608.004	6.49
608.339	6.75
608.674	6.37
609.01	6.04
609.345	6.06
609.68	6.33
610.015	6.27
610.35	6.43
610.685	5.99
611.02	6.26
611.355	6.45
611.689	6.22
612.024	6.26
612.359	6.28
612.694	6.13
613.028	6.13
613.363	6.42
613.697	6.36
614.032	6.23
614.366	6.32
614.7	6.6
615.035	6.25
615.369	6.3
615.703	6.09
616.037	6.27
616.371	5.86
616.705	6.58
617.039	6.18
617.373	6.07
617.707	5.87
618.041	6.15
618.375	6.03
618.709	6.26
619.042	6.18
619.376	6.46
619.71	6.27
620.043	6.43
620.377	6.28
620.71	6.16
621.043	5.91
621.377	6.17
621.71	6.1
622.043	6.05
622.376	5.77
622.709	6.32
623.043	6.15
623.376	6.4
623.709	6.29
624.041	6.32
624.374	6.17
624.707	5.9
625.04	6.29
625.373	5.95
625.705	6.2
626.038	5.79
626.37	5.87
626.703	6.04
627.035	6.36
627.368	6.54
627.7	6.23
628.032	6.06
628.365	6.3
628.697	6.51
629.029	5.9
629.361	6.25
629.693	6.41
630.025	6.33
630.357	6.22
630.689	6.39
631.021	6.29
631.353	6.38
631.684	5.81
632.016	6.25
632.348	6.26
632.679	6.35
633.011	6.36
633.342	6.34
633.674	5.84
634.005	6.51
634.336	6.07
634.668	6.23
634.999	5.86
635.33	6.42
635.661	6.67
635.992	6.22
636.323	6.35
636.654	6.32
636.985	6.09
637.316	6.33
637.647	6.05
637.977	6.42
638.308	6.2
638.639	5.87
638.969	5.75
639.3	5.77
639.63	5.99
639.961	6.33
640.291	5.98
640.622	6.36
640.952	5.88
641.282	5.96
641.612	6.34
641.943	5.91
642.273	6
642.603	6.08
642.933	6.52
643.263	6.08
643.592	5.63
643.922	6.09
644.252	5.78
644.582	6.26
644.911	5.69
645.241	5.89
645.571	5.99
645.9	5.62
646.23	5.62
646.559	6.18
646.888	5.64
647.218	5.81
647.547	6.53
647.876	5.3
648.205	6.6
648.534	6
648.863	5.65
649.192	6.42
649.521	5.81
649.85	5.71
650.179	6.58
650.508	5.68
650.837	5.58
651.165	5.6
651.494	5.96
651.822	6.14
652.151	5.87
652.479	6.1
652.808	6
653.136	6.36
653.465	5.64
653.793	5.64
654.121	5.94
654.449	5.93
654.777	5.96
655.105	6.21
655.433	5.49
655.761	6.17
656.089	6.06
656.417	6.06
656.745	6.2
657.073	5.75
657.4	6.72
657.728	6.31
658.056	5.99
658.383	6.02
658.711	6.14
659.038	6.08
659.365	6.38
659.693	6.07
660.02	5.83
660.347	5.89
660.674	5.91
661.001	6.28
661.329	5.3
661.656	6.1
661.982	6.2
662.309	6.07
662.636	5.97
662.963	6.38
663.29	5.96
663.616	5.95
663.943	5.74
664.27	5.73
664.596	6.23
664.923	5.99
665.249	5.94
665.576	5.49
665.902	6.95
666.228	6.49
666.554	6.68
666.881	5.79
667.207	6.4
667.533	5.94
667.859	6.12
668.185	5.88
668.511	5.08
668.837	5.04
669.162	5.36
669.488	5.38
669.814	6.42
670.139	6.44
670.465	6.18
670.791	6.53
671.116	7.05
671.442	6.08
671.767	5.82
672.092	6.51
672.418	5.78
672.743	6.22
673.068	5.49
673.393	5.73
673.718	5.58
674.043	5.95
674.368	6.2
674.693	7.18
675.018	6.84
675.343	5.59
675.667	5.97
675.992	6.46
676.317	6.34
676.641	6.26
676.966	6.5
677.29	5.61
677.615	5.86
677.939	6.15
678.264	6.53
678.588	6.21
678.912	6.42
679.236	6.16
679.56	5.51
679.885	6.37
680.209	6.02
680.532	6.07
680.856	7
681.18	5.83
681.504	5.93
681.828	6.23
682.152	5.51
682.475	6.66
682.799	6.85
683.122	5.89
683.446	6
683.769	6.6
684.093	5.78
684.416	5.88
684.739	6.66
685.062	5.76
685.386	5.93
685.709	5.84
686.032	6.22
686.355	6.57
686.678	5.86
687.001	4.95
687.324	6.35
687.646	5.91
687.969	6.06
688.292	5.68
688.614	5.67
688.937	7.17
689.26	5.77
689.582	6.41
689.904	5.91
690.227	5.99
690.549	5.57
690.871	5.47
691.194	5.44
691.516	6.08
691.838	5.97
692.16	6.03
