Data from 0192_chest_Reflection__2__373.txt Node

Date: Fri Dec 15 20:14:04 CST 2023
User: ToomeyLab
Spectrometer: FLMS14357
Trigger mode: 0
Integration Time (sec): 1.000000E-2
Scans to average: 100
Electric dark correction enabled: true
Nonlinearity correction enabled: false
Boxcar width: 0
XAxis mode: Wavelengths
Number of Pixels in Spectrum: 2048
>>>>>Begin Spectral Data<<<<<
189.047	-15.34
189.435	-15.34
189.823	-15.34
190.211	-0.95
190.599	-403.1
190.987	18.25
191.375	323.59
191.763	-161.21
192.151	80.33
192.538	104.82
192.926	17.93
193.314	44.81
193.702	-334.78
194.089	293.79
194.477	100.49
194.864	-1195.19
195.252	109.1
195.639	117.99
196.027	24.05
196.414	369.49
196.801	150.13
197.189	297.39
197.576	129.2
197.963	-137.96
198.351	-80.54
198.738	5.1
199.125	22.28
199.512	-125.8
199.899	44.36
200.286	27.15
200.673	44.21
201.06	36.42
201.447	-15.38
201.833	-0.22
202.22	64.13
202.607	46.13
202.994	54.94
203.38	17.57
203.767	53.84
204.154	54.28
204.54	16.53
204.927	-24.87
205.313	-14.77
205.699	12.44
206.086	41.95
206.472	23.15
206.858	35.34
207.245	-92.83
207.631	16.05
208.017	30.32
208.403	-3.18
208.789	37.21
209.175	27.65
209.561	-16.94
209.947	-15.63
210.333	-17.16
210.719	37.8
211.105	22.06
211.491	-17.24
211.876	15.61
212.262	6.95
212.648	-37.03
213.034	37.19
213.419	59.72
213.805	-13.01
214.19	-34.33
214.576	11.19
214.961	-52.04
215.346	-91.78
215.732	21.97
216.117	-1.18
216.502	34.49
216.888	4.26
217.273	16.78
217.658	-2.56
218.043	13.2
218.428	-8.91
218.813	-28.27
219.198	-32.52
219.583	37.51
219.968	-4.01
220.353	-25.78
220.738	34.24
221.122	-6.71
221.507	2.52
221.892	-15.87
222.276	-56.07
222.661	14.68
223.046	12.15
223.43	11.33
223.815	7.45
224.199	-14.24
224.583	-15.02
224.968	-6.26
225.352	0.06
225.736	-8.94
226.121	-11.06
226.505	2.39
226.889	8.06
227.273	12.32
227.657	3.12
228.041	6.55
228.425	4.56
228.809	5.8
229.193	5.89
229.577	0.28
229.961	3.65
230.344	5.17
230.728	4.58
231.112	4.73
231.495	4.36
231.879	4.06
232.263	4.28
232.646	5.84
233.03	5.4
233.413	3.45
233.797	4.64
234.18	3.93
234.563	7.73
234.946	3.95
235.33	5.44
235.713	5.89
236.096	3.79
236.479	4.08
236.862	3.14
237.245	5.67
237.628	3.78
238.011	6.09
238.394	4.83
238.777	3.39
239.16	3.55
239.543	4.31
239.925	6.28
240.308	5.9
240.691	5.36
241.073	6.65
241.456	5.21
241.838	3.8
242.221	3.89
242.603	5.17
242.986	4.73
243.368	4.87
243.75	4.89
244.133	4.7
244.515	4.53
244.897	4.37
245.279	4.37
245.661	3.87
246.043	2.53
246.425	3.27
246.807	6.22
247.189	4.16
247.571	4.26
247.953	5.58
248.335	4.59
248.717	4.55
249.098	4.48
249.48	4.45
249.862	4.86
250.243	4.55
250.625	4.27
251.006	4.84
251.388	3.86
251.769	3.87
252.151	5.83
252.532	5.21
252.913	4.21
253.295	4.46
253.676	4.16
254.057	4.43
254.438	3.78
254.819	3.9
255.2	3.9
255.581	4.91
255.962	4.09
256.343	4.18
256.724	4.5
257.105	4.59
257.486	4.65
257.867	5.46
258.247	4.11
258.628	4.33
259.009	3.75
259.389	4.55
259.77	3.49
260.15	3.84
260.531	3.54
260.911	4.64
261.292	3.98
261.672	4.21
262.052	4.09
262.432	4.33
262.813	4.15
263.193	4.62
263.573	4.03
263.953	4.2
264.333	4.16
264.713	4.88
265.093	3.71
265.473	3.46
265.853	2.34
266.233	4.08
266.612	2.67
266.992	2.72
267.372	4.33
267.752	4.32
268.131	4.48
268.511	4.2
268.89	4.5
269.27	3.71
269.649	3.58
270.029	4.08
270.408	5.45
270.787	4.46
271.167	4.58
271.546	4.55
271.925	3.14
272.304	3.06
272.683	4.66
273.062	3.48
273.441	4.34
273.82	3.73
274.199	4.44
274.578	4.14
274.957	4.1
275.336	3.85
275.715	3.81
276.093	3.29
276.472	3.77
276.851	3.82
277.229	3.87
277.608	3.17
277.986	3.86
278.365	3.96
278.743	3.66
279.122	4.02
279.5	3.98
279.878	3.99
280.257	3.57
280.635	3.7
281.013	3.74
281.391	4.89
281.769	4.46
282.147	3.99
282.525	4.39
282.903	3.94
283.281	4.38
283.659	4.48
284.037	4.02
284.415	4.45
284.792	4.04
285.17	3.28
285.548	3.59
285.925	3.98
286.303	4.08
286.68	4.09
287.058	3.91
287.435	4.06
287.813	4.27
288.19	3.78
288.567	3.66
288.945	4.17
289.322	4.14
289.699	3.21
290.076	3.51
290.453	3.36
290.83	3.71
291.207	4.13
291.584	3.49
291.961	3.89
292.338	3.77
292.715	4.15
293.092	3.79
293.469	4.28
293.845	4.01
294.222	3.44
294.599	4.12
294.975	3.86
295.352	4.21
295.728	3.47
296.105	3.93
296.481	4.54
296.858	3.8
297.234	4.32
297.61	3.84
297.986	3.86
298.363	4
298.739	4.07
299.115	3.98
299.491	3.91
299.867	3.77
300.243	4.15
300.619	3.72
300.995	3.54
301.371	4.07
301.746	3.96
302.122	4.23
302.498	4.1
302.874	4.26
303.249	4.36
303.625	4.37
304	4.05
304.376	4.19
304.751	3.62
305.127	5.08
305.502	3.9
305.878	3.75
306.253	3.62
306.628	4.21
307.003	3.99
307.378	4.96
307.754	4.02
308.129	3.92
308.504	4.08
308.879	3.95
309.254	4.66
309.629	4.37
310.003	4.12
310.378	4.74
310.753	4.68
311.128	4.44
311.502	4.18
311.877	4.08
312.252	3.52
312.626	4.08
313.001	3.62
313.375	4.55
313.75	3.89
314.124	4.31
314.498	4.18
314.873	3.94
315.247	4.01
315.621	4.44
315.995	3.44
316.369	4.47
316.743	3.85
317.117	4.45
317.491	3.57
317.865	4.16
318.239	4.63
318.613	4.15
318.987	4.7
319.361	3.59
319.734	4.03
320.108	4.4
320.482	3.84
320.855	4.07
321.229	4.1
321.602	3.88
321.976	4.61
322.349	4.39
322.723	3.97
323.096	3.81
323.469	3.26
323.843	3.88
324.216	4.52
324.589	3.7
324.962	4.9
325.335	4.02
325.708	4.11
326.081	3.75
326.454	4.25
326.827	3.96
327.2	4.24
327.573	4.8
327.945	4.47
328.318	3.65
328.691	3.66
329.063	3.91
329.436	3.76
329.809	4.83
330.181	3.58
330.553	3.75
330.926	5.18
331.298	4.25
331.671	3.82
332.043	4.76
332.415	4.34
332.787	4.23
333.159	4.84
333.532	5.04
333.904	4.01
334.276	4.38
334.648	4.18
335.02	4.46
335.391	4.64
335.763	4.01
336.135	4.76
336.507	4.43
336.879	4.45
337.25	4.03
337.622	3.99
337.993	4.28
338.365	4.41
338.736	4.28
339.108	3.81
339.479	4.19
339.851	4.09
340.222	3.92
340.593	4.23
340.964	4.41
341.336	5.09
341.707	3.8
342.078	5.05
342.449	3.99
342.82	4.26
343.191	4.28
343.562	4.5
343.933	4.47
344.303	3.98
344.674	4.09
345.045	4.02
345.416	4.52
345.786	3.7
346.157	4.55
346.527	3.63
346.898	3.93
347.268	4.78
347.639	3.95
348.009	4.62
348.38	4.38
348.75	4.3
349.12	4.5
349.49	5.01
349.861	4.23
350.231	4.14
350.601	4.28
350.971	4.33
351.341	4.21
351.711	4.32
352.081	4.85
352.45	4.1
352.82	4.21
353.19	4.27
353.56	4.31
353.929	4.29
354.299	4.48
354.669	3.85
355.038	4.79
355.408	4.38
355.777	4.8
356.147	3.71
356.516	4.34
356.885	4.35
357.254	4.42
357.624	4.48
357.993	4.41
358.362	4.08
358.731	4.22
359.1	4.13
359.469	4.52
359.838	4.62
360.207	4.08
360.576	4.23
360.945	4.47
361.314	4.54
361.682	3.86
362.051	4.17
362.42	4.6
362.788	4.41
363.157	4.53
363.525	4.61
363.894	4.41
364.262	4.52
364.631	4.44
364.999	4.21
365.367	4.21
365.735	5.03
366.104	4.46
366.472	4.33
366.84	4.39
367.208	4.6
367.576	4.72
367.944	4.67
368.312	4.39
368.68	4.19
369.048	4.55
369.416	4.44
369.783	4.25
370.151	4.69
370.519	4.99
370.886	4.54
371.254	4.16
371.621	4.57
371.989	4.77
372.356	3.87
372.724	4.5
373.091	4.34
373.458	4.82
373.826	4.39
374.193	4.27
374.56	4.24
374.927	4.81
375.294	4.3
375.661	4.16
376.028	4.27
376.395	4.54
376.762	4.62
377.129	4.52
377.496	4.32
377.863	4.51
378.229	4.44
378.596	4.34
378.963	4.47
379.329	4.21
379.696	4.76
380.062	4.61
380.429	4.49
380.795	4.33
381.161	4.72
381.528	4.95
381.894	4.3
382.26	4.24
382.626	4.61
382.993	4.24
383.359	4.7
383.725	4.48
384.091	4.46
384.457	4.75
384.823	4.31
385.188	4.87
385.554	4.28
385.92	4.8
386.286	4.62
386.651	4.66
387.017	4.67
387.383	4.7
387.748	4.34
388.114	4.71
388.479	4.44
388.845	4.89
389.21	4.85
389.575	4.43
389.94	4.67
390.306	4.57
390.671	4.97
391.036	4.23
391.401	4.14
391.766	4.56
392.131	4.46
392.496	4.72
392.861	4.85
393.226	4.54
393.591	4.36
393.956	4.41
394.32	4.63
394.685	4.65
395.05	4.42
395.414	4.28
395.779	4.44
396.143	4.65
396.508	4.75
396.872	4.63
397.236	4.68
397.601	4.39
397.965	4.67
398.329	4.71
398.694	4.6
399.058	4.53
399.422	4.34
399.786	4.65
400.15	4.68
400.514	4.78
400.878	4.58
401.242	5.04
401.605	4.76
401.969	4.71
402.333	4.83
402.697	4.38
403.06	4.67
403.424	4.6
403.787	4.43
404.151	4.82
404.514	4.73
404.878	4.49
405.241	4.8
405.604	4.64
405.968	4.91
406.331	4.58
406.694	4.94
407.057	4.77
407.42	4.81
407.783	4.41
408.146	4.78
408.509	4.39
408.872	4.37
409.235	4.6
409.598	4.74
409.961	4.9
410.323	4.84
410.686	4.62
411.049	4.37
411.411	4.64
411.774	5.05
412.136	4.58
412.499	4.7
412.861	4.8
413.223	4.76
413.586	4.7
413.948	4.81
414.31	4.87
414.672	4.43
415.035	4.56
415.397	5.07
415.759	4.73
416.121	5.06
416.483	4.49
416.845	4.62
417.206	4.82
417.568	4.8
417.93	4.47
418.292	4.79
418.653	4.76
419.015	4.77
419.377	4.86
419.738	4.67
420.1	4.87
420.461	4.77
420.822	4.67
421.184	4.78
421.545	4.69
421.906	4.6
422.267	4.56
422.629	4.68
422.99	4.61
423.351	4.68
423.712	4.66
424.073	4.65
424.434	4.58
424.795	4.78
425.155	4.77
425.516	4.77
425.877	4.72
426.238	4.5
426.598	4.75
426.959	4.57
427.32	4.59
427.68	4.61
428.041	4.66
428.401	4.74
428.761	4.66
429.122	4.82
429.482	4.86
429.842	4.77
430.202	4.83
430.563	4.89
430.923	4.51
431.283	4.84
431.643	4.79
432.003	4.78
432.363	5.05
432.722	4.66
433.082	4.68
433.442	4.84
433.802	4.65
434.161	4.79
434.521	4.84
434.881	4.9
435.24	4.71
435.6	4.84
435.959	4.69
436.319	4.74
436.678	4.82
437.037	4.61
437.396	4.8
437.756	4.91
438.115	4.77
438.474	4.99
438.833	4.82
439.192	4.78
439.551	4.87
439.91	4.94
440.269	4.73
440.628	4.77
440.987	4.85
441.345	4.65
441.704	4.76
442.063	4.78
442.421	4.84
442.78	4.77
443.138	4.78
443.497	4.78
443.855	4.67
444.214	4.98
444.572	4.84
444.93	4.76
445.288	4.8
445.647	4.83
446.005	4.79
446.363	4.77
446.721	5
447.079	4.83
447.437	4.89
447.795	4.87
448.153	4.73
448.51	4.82
448.868	4.69
449.226	4.77
449.584	4.81
449.941	4.94
450.299	4.85
450.656	4.86
451.014	4.88
451.371	4.84
451.729	4.79
452.086	5.06
452.443	4.91
452.801	4.92
453.158	4.98
453.515	4.77
453.872	5.02
454.229	4.75
454.586	4.92
454.943	4.91
455.3	5.04
455.657	4.97
456.014	4.81
456.371	4.93
456.727	4.93
457.084	5.17
457.441	4.96
457.797	5.05
458.154	5.06
458.51	5.19
458.867	5.08
459.223	5.07
459.58	4.99
459.936	5
460.292	4.91
460.648	5.04
461.005	4.89
461.361	5
461.717	4.91
462.073	4.87
462.429	4.98
462.785	4.97
463.141	4.91
463.496	4.95
463.852	5.2
464.208	5.06
464.564	5.31
464.919	5.07
465.275	5.15
465.631	5.22
465.986	5.17
466.342	5.01
466.697	4.84
467.052	5.12
467.408	5.25
467.763	5.06
468.118	5.01
468.473	4.87
468.829	5.11
469.184	4.96
469.539	5.04
469.894	4.96
470.249	5.12
470.603	5.21
470.958	5.29
471.313	5.13
471.668	5.16
472.023	5.14
472.377	4.96
472.732	4.99
473.086	5.03
473.441	4.83
473.795	5.3
474.15	5.17
474.504	5.18
474.859	5.12
475.213	4.96
475.567	4.98
475.921	5.13
476.275	5.17
476.63	5.23
476.984	5.18
477.338	5.23
477.692	5.03
478.045	5.03
478.399	5.21
478.753	5.21
479.107	5.17
479.461	5.09
479.814	5.29
480.168	5.09
480.521	5.09
480.875	5.07
481.228	5.17
481.582	5.19
481.935	5.06
482.289	5.21
482.642	5.11
482.995	5.08
483.348	4.94
483.701	5.09
484.055	5.16
484.408	5.12
484.761	5.02
485.114	5
485.466	4.84
485.819	4.87
486.172	4.85
486.525	4.83
486.878	4.92
487.23	4.96
487.583	5.04
487.936	5.07
488.288	5.05
488.641	5.06
488.993	4.98
489.345	4.92
489.698	4.92
490.05	4.89
490.402	4.98
490.754	5.04
491.107	5.16
491.459	5.12
491.811	5.08
492.163	5.19
492.515	5.14
492.866	5.07
493.218	5.1
493.57	5.08
493.922	5.01
494.274	5.1
494.625	5.22
494.977	5.21
495.328	5.36
495.68	5.27
496.031	5.32
496.383	5.35
496.734	5.4
497.086	5.41
497.437	5.36
497.788	5.36
498.139	5.31
498.49	5.41
498.842	5.2
499.193	5.17
499.544	5.24
499.894	5.29
500.245	5.32
500.596	5.21
500.947	5.45
501.298	5.29
501.648	5.47
501.999	5.51
502.35	5.3
502.7	5.35
503.051	5.18
503.401	5.45
503.752	5.49
504.102	5.27
504.452	5.51
504.803	5.25
505.153	5.45
505.503	5.43
505.853	5.41
506.203	5.47
506.553	5.42
506.903	5.39
507.253	5.42
507.603	5.4
507.953	5.56
508.303	5.68
508.652	5.38
509.002	5.61
509.352	5.63
509.701	5.4
510.051	5.4
510.4	5.51
510.75	5.41
511.099	5.46
511.449	5.5
511.798	5.37
512.147	5.61
512.496	5.59
512.846	5.58
513.195	5.53
513.544	5.52
513.893	5.62
514.242	5.6
514.591	5.69
514.939	5.52
515.288	5.61
515.637	5.68
515.986	5.6
516.334	5.74
516.683	5.76
517.032	5.65
517.38	5.66
517.729	5.64
518.077	5.48
518.426	5.76
518.774	5.71
519.122	5.48
519.47	5.64
519.819	5.6
520.167	5.58
520.515	5.61
520.863	5.69
521.211	5.61
521.559	5.7
521.907	5.63
522.255	5.75
522.602	5.82
522.95	5.82
523.298	5.79
523.645	5.81
523.993	5.82
524.341	5.91
524.688	5.91
525.036	5.78
525.383	5.79
525.73	5.9
526.078	5.96
526.425	5.78
526.772	5.84
527.119	5.81
527.466	5.7
527.814	5.84
528.161	5.79
528.508	5.91
528.854	5.82
529.201	5.81
529.548	5.77
529.895	5.74
530.242	5.62
530.588	5.66
530.935	5.66
531.282	5.69
531.628	5.75
531.975	5.79
532.321	5.87
532.667	5.9
533.014	5.94
533.36	6.04
533.706	5.86
534.052	6.01
534.399	5.85
534.745	6
535.091	5.95
535.437	5.93
535.783	5.91
536.129	5.95
536.474	6.06
536.82	6.13
537.166	6.1
537.512	6.17
537.857	6.08
538.203	6.21
538.549	6.17
538.894	6.13
539.239	6.09
539.585	6.12
539.93	6.11
540.276	6.28
540.621	6.42
540.966	6.38
541.311	6.27
541.656	6.23
542.001	6.43
542.346	6.54
542.691	6.21
543.036	6.14
543.381	6.1
543.726	6.22
544.071	6.25
544.415	6.3
544.76	6.28
545.105	6.32
545.449	6.34
545.794	6.37
546.138	6.51
546.483	6.55
546.827	6.46
547.171	6.51
547.516	6.72
547.86	6.44
548.204	6.53
548.548	6.54
548.892	6.63
549.236	6.52
549.58	6.52
549.924	6.71
550.268	6.66
550.612	6.69
550.956	6.92
551.3	6.74
551.643	6.98
551.987	6.83
552.33	6.8
552.674	6.88
553.017	6.72
553.361	6.68
553.704	7.1
554.048	6.78
554.391	6.82
554.734	6.95
555.077	6.97
555.42	6.87
555.764	6.97
556.107	6.9
556.45	6.74
556.793	6.88
557.135	6.93
557.478	7.26
557.821	7.08
558.164	7.06
558.507	7.12
558.849	7.18
559.192	7.24
559.534	7.2
559.877	7.18
560.219	7.1
560.562	7.6
560.904	7.22
561.246	7.34
561.589	7.3
561.931	7.08
562.273	7.11
562.615	7.31
562.957	7.41
563.299	7.4
563.641	7.42
563.983	7.61
564.325	7.38
564.667	7.53
565.008	7.36
565.35	7.47
565.692	7.34
566.033	7.43
566.375	7.78
566.716	7.59
567.058	7.48
567.399	7.53
567.741	7.56
568.082	7.54
568.423	7.67
568.764	7.71
569.105	7.86
569.447	7.69
569.788	7.8
570.129	7.94
570.47	7.8
570.811	8
571.151	7.86
571.492	7.92
571.833	7.97
572.174	7.9
572.514	7.98
572.855	7.88
573.195	7.96
573.536	7.89
573.876	7.9
574.217	8
574.557	8.19
574.898	8.09
575.238	8.26
575.578	7.93
575.918	8.2
576.258	8.38
576.598	8.27
576.938	8.23
577.278	8.27
577.618	8.3
577.958	8.3
578.298	8.33
578.638	8.26
578.977	8.36
579.317	8.43
579.657	8.31
579.996	8.38
580.336	8.39
580.675	8.31
581.014	8.68
581.354	8.53
581.693	8.57
582.032	8.59
582.372	8.46
582.711	8.77
583.05	8.66
583.389	8.93
583.728	8.63
584.067	8.8
584.406	8.9
584.745	8.92
585.083	9.2
585.422	8.87
585.761	8.86
586.1	8.81
586.438	9.07
586.777	9.03
587.115	8.88
587.454	9
587.792	8.8
588.13	9.11
588.469	9.07
588.807	9.48
589.145	9.04
589.483	9.25
589.821	9.38
590.159	9.1
590.497	9.27
590.835	9.68
591.173	9.51
591.511	9.57
591.849	9.27
592.187	9.52
592.524	9.6
592.862	9.33
593.2	9.57
593.537	9.49
593.875	9.25
594.212	9.4
594.55	9.57
594.887	9.77
595.224	9.66
595.561	9.56
595.899	9.74
596.236	9.85
596.573	9.82
596.91	9.71
597.247	9.68
597.584	10.19
597.921	9.96
598.258	9.76
598.594	9.98
598.931	9.73
599.268	9.96
599.604	9.86
599.941	9.95
600.277	10.05
600.614	10.16
600.95	10.14
601.287	10.39
601.623	10.11
601.959	10.08
602.296	10.44
602.632	10.25
602.968	10.43
603.304	10.34
603.64	10.57
603.976	10.55
604.312	10.09
604.648	10.46
604.984	10.57
605.319	10.35
605.655	10.31
605.991	10.65
606.326	10.62
606.662	10.67
606.998	10.51
607.333	10.69
607.668	10.63
608.004	10.83
608.339	11
608.674	10.96
609.01	10.58
609.345	10.75
609.68	11.19
610.015	11.05
610.35	10.95
610.685	10.91
611.02	11.34
611.355	11.24
611.689	11.17
612.024	11.24
612.359	11.04
612.694	11
613.028	11.09
613.363	11.13
613.697	11.63
614.032	11.35
614.366	11.16
614.7	11.56
615.035	11.64
615.369	11.43
615.703	11.38
616.037	11.73
616.371	11.4
616.705	11.27
617.039	11.38
617.373	11.49
617.707	11.35
618.041	11.59
618.375	11.96
618.709	12.27
619.042	11.61
619.376	12.15
619.71	12.17
620.043	11.88
620.377	12.08
620.71	11.83
621.043	11.69
621.377	11.76
621.71	12.25
622.043	12.02
622.376	11.68
622.709	12.04
623.043	12.11
623.376	12.35
623.709	12.42
624.041	12.67
624.374	12.41
624.707	12.36
625.04	12.69
625.373	12.13
625.705	12.34
626.038	12.76
626.37	12.21
626.703	12.68
627.035	12.92
627.368	13.11
627.7	12.79
628.032	13.1
628.365	13.18
628.697	13.1
629.029	12.57
629.361	12.62
629.693	12.91
630.025	12.82
630.357	13.11
630.689	12.98
631.021	12.99
631.353	13.26
631.684	12.88
632.016	12.98
632.348	13.26
632.679	13.4
633.011	13.43
633.342	13.96
633.674	13.04
634.005	13.83
634.336	13.67
634.668	13.97
634.999	13.3
635.33	13.77
635.661	14.01
635.992	13.75
636.323	13.73
636.654	13.78
636.985	13.7
637.316	13.84
637.647	13.69
637.977	13.84
638.308	14.19
638.639	13.74
638.969	13.82
639.3	13.9
639.63	13.85
639.961	14.06
640.291	13.88
640.622	13.94
640.952	14.15
641.282	14.73
641.612	14.52
641.943	14.12
642.273	14.33
642.603	14.22
642.933	14.23
643.263	14.76
643.592	14.64
643.922	14.03
644.252	14.08
644.582	14.29
644.911	14.16
645.241	14.69
645.571	14.58
645.9	14.35
646.23	14.48
646.559	15
646.888	14.42
647.218	14.85
647.547	15.57
647.876	14.99
648.205	15.27
648.534	14.51
648.863	15.04
649.192	15.64
649.521	15.07
649.85	14.76
650.179	15.01
650.508	14.71
650.837	15.34
651.165	14.39
651.494	15.3
651.822	15.46
652.151	14.87
652.479	15.19
652.808	14.95
653.136	15.42
653.465	14.77
653.793	14.92
654.121	15.26
654.449	15.25
654.777	15.59
655.105	15.83
655.433	15.16
655.761	15.89
656.089	15.76
656.417	15.67
656.745	15.35
657.073	15.88
657.4	16.73
657.728	15.94
658.056	16.23
658.383	16.28
658.711	16.09
659.038	16.45
659.365	16.62
659.693	16.36
660.02	15.91
660.347	16.39
660.674	15.83
661.001	16.37
661.329	16.1
661.656	16.52
661.982	16.42
662.309	16.29
662.636	16.49
662.963	16.43
663.29	16.19
663.616	17.02
663.943	16.36
664.27	16.52
664.596	16.86
664.923	16.96
665.249	16.79
665.576	17.08
665.902	17.12
666.228	17.3
666.554	16.95
666.881	16.97
667.207	16.83
667.533	17.19
667.859	16.79
668.185	17.45
668.511	17.29
668.837	16.08
669.162	17.17
669.488	16.98
669.814	17.64
670.139	17.51
670.465	17.51
670.791	16.83
671.116	18.08
671.442	16.93
671.767	18.33
672.092	17.62
672.418	17.87
672.743	17.63
673.068	17.13
673.393	17.78
673.718	17.71
674.043	17.56
674.368	17.56
674.693	18.44
675.018	18.66
675.343	17.94
675.667	17.49
675.992	18.51
676.317	18.31
676.641	18.11
676.966	18.38
677.29	18.75
677.615	17.59
677.939	18.5
678.264	18.11
678.588	18.37
678.912	18.25
679.236	18.87
679.56	17.39
679.885	18.59
680.209	18.68
680.532	17.84
680.856	19.18
681.18	18.89
681.504	18.47
681.828	18.83
682.152	18.91
682.475	18.87
682.799	19.33
683.122	19.6
683.446	18.15
683.769	19.41
684.093	18.35
684.416	19.18
684.739	19.43
685.062	18.67
685.386	19.78
685.709	19.48
