Data from 0192_chest_Reflection__1__372.txt Node

Date: Fri Dec 15 20:13:52 CST 2023
User: ToomeyLab
Spectrometer: FLMS14357
Trigger mode: 0
Integration Time (sec): 1.000000E-2
Scans to average: 100
Electric dark correction enabled: true
Nonlinearity correction enabled: false
Boxcar width: 0
XAxis mode: Wavelengths
Number of Pixels in Spectrum: 2048
>>>>>Begin Spectral Data<<<<<
189.047	21.16
189.435	21.16
189.823	21.16
190.211	47.38
190.599	11.65
190.987	48.51
191.375	50.39
191.763	131.88
192.151	90.17
192.538	183.31
192.926	72.48
193.314	-14.65
193.702	-488.07
194.089	-15.77
194.477	103.85
194.864	294.51
195.252	81.48
195.639	122.99
196.027	8.86
196.414	776.35
196.801	-20.14
197.189	138.33
197.576	-6.09
197.963	22.8
198.351	-11.97
198.738	-28.15
199.125	6.45
199.512	-127.04
199.899	17.47
200.286	46.18
200.673	23.96
201.06	7.59
201.447	-165.96
201.833	-4.9
202.22	10.08
202.607	50.32
202.994	-4.33
203.38	9.44
203.767	-16.35
204.154	10.97
204.54	-2.89
204.927	-64.07
205.313	-24.52
205.699	13.38
206.086	18.51
206.472	38.31
206.858	6.15
207.245	-31.13
207.631	-7.91
208.017	-44.7
208.403	30.34
208.789	25.42
209.175	17.39
209.561	-20.13
209.947	-23.09
210.333	-65.65
210.719	5.94
211.105	2.72
211.491	-71.82
211.876	-20.98
212.262	33.3
212.648	-15.03
213.034	-10.96
213.419	-2.69
213.805	-16.8
214.19	-84.11
214.576	-7.63
214.961	-66.52
215.346	-83.34
215.732	-9.84
216.117	-11.54
216.502	-26.49
216.888	-15.2
217.273	22.44
217.658	-27.98
218.043	-3.75
218.428	-98.94
218.813	-52.24
219.198	-30.51
219.583	9.62
219.968	12.1
220.353	-10.46
220.738	10.58
221.122	-38.48
221.507	-58.55
221.892	-12.92
222.276	-31.26
222.661	-21.46
223.046	2.48
223.43	-5.16
223.815	18.34
224.199	-28.12
224.583	-4.29
224.968	-0.19
225.352	-0.06
225.736	-15.36
226.121	-7.58
226.505	4.63
226.889	9.41
227.273	-6.36
227.657	0.45
228.041	-0.1
228.425	-0.89
228.809	0.29
229.193	1.97
229.577	-1.24
229.961	0.8
230.344	1.74
230.728	0.78
231.112	2.03
231.495	1.25
231.879	0.47
232.263	1.29
232.646	1.9
233.03	2.85
233.413	-0.73
233.797	-0.19
234.18	-0.49
234.563	-0.79
234.946	1.79
235.33	1.2
235.713	-0.1
236.096	1.3
236.479	1.08
236.862	-1.02
237.245	3.05
237.628	0.63
238.011	1.54
238.394	2.02
238.777	0.68
239.16	1.29
239.543	1.26
239.925	2.62
240.308	0.19
240.691	3.53
241.073	2.05
241.456	0.71
241.838	0.98
242.221	-0.56
242.603	2.5
242.986	1.08
243.368	1.3
243.75	2.02
244.133	0.84
244.515	1.68
244.897	1.44
245.279	2.13
245.661	1.11
246.043	-1.38
246.425	-0.33
246.807	2.53
247.189	1.45
247.571	1.47
247.953	1.4
248.335	1.02
248.717	1.45
249.098	1.14
249.48	1.53
249.862	1.44
250.243	1.13
250.625	1.06
251.006	2.1
251.388	-0.05
251.769	1.06
252.151	2.05
252.532	1.37
252.913	0.72
253.295	1.04
253.676	1.85
254.057	1.73
254.438	0.92
254.819	0.93
255.2	1.57
255.581	2.01
255.962	0.89
256.343	1.32
256.724	0.36
257.105	0.44
257.486	-0.04
257.867	1.07
258.247	1.03
258.628	0.47
259.009	1.17
259.389	1.58
259.77	1.48
260.15	0.82
260.531	0.81
260.911	1.7
261.292	1.14
261.672	1.37
262.052	1.45
262.432	1.64
262.813	1.29
263.193	0.91
263.573	0.72
263.953	0.86
264.333	1.36
264.713	1.87
265.093	0.92
265.473	2.03
265.853	-0.09
266.233	1.51
266.612	-0.26
266.992	-0.25
267.372	1.32
267.752	1.07
268.131	0.69
268.511	2.11
268.89	1.62
269.27	1.76
269.649	1.03
270.029	0.74
270.408	1.97
270.787	1.88
271.167	1.57
271.546	1.16
271.925	0.86
272.304	1.04
272.683	1.53
273.062	0.92
273.441	1.18
273.82	0.78
274.199	0.85
274.578	1.48
274.957	1.11
275.336	1.48
275.715	0.5
276.093	1.12
276.472	1.35
276.851	1.04
277.229	1.22
277.608	0.46
277.986	0.81
278.365	1.39
278.743	1.4
279.122	1.12
279.5	1.06
279.878	1.31
280.257	1
280.635	0.63
281.013	0.85
281.391	2
281.769	1.55
282.147	1.67
282.525	1.15
282.903	1.08
283.281	1.03
283.659	1.38
284.037	1.39
284.415	1.85
284.792	1.68
285.17	0.38
285.548	1.26
285.925	0.95
286.303	1.68
286.68	0.88
287.058	1.14
287.435	1.05
287.813	1.39
288.19	1.15
288.567	1
288.945	1.61
289.322	1.24
289.699	1.39
290.076	1.38
290.453	1.42
290.83	0.87
291.207	0.95
291.584	1.57
291.961	2.11
292.338	1.4
292.715	1.73
293.092	1
293.469	1.51
293.845	1.68
294.222	1.01
294.599	1.43
294.975	1.4
295.352	1.77
295.728	0.93
296.105	1.2
296.481	1.07
296.858	1.54
297.234	1.06
297.61	0.77
297.986	1.36
298.363	1.81
298.739	1.53
299.115	1.46
299.491	1.3
299.867	1.29
300.243	1.53
300.619	1.12
300.995	1.03
301.371	1.59
301.746	1.12
302.122	1.53
302.498	1.36
302.874	1.58
303.249	1.5
303.625	1.39
304	1.75
304.376	1.72
304.751	0.99
305.127	2.16
305.502	0.91
305.878	0.95
306.253	1.5
306.628	1.99
307.003	1.06
307.378	2.15
307.754	1.27
308.129	0.75
308.504	1.1
308.879	1.07
309.254	2.66
309.629	2.17
310.003	1.63
310.378	1.62
310.753	1.62
311.128	1.66
311.502	1.7
311.877	1.96
312.252	1.58
312.626	1.63
313.001	1.55
313.375	1.7
313.75	1.2
314.124	1.94
314.498	1.72
314.873	1.5
315.247	1.1
315.621	1.3
315.995	1.17
316.369	1.88
316.743	1.03
317.117	2.17
317.491	1.05
317.865	1.79
318.239	1.74
318.613	2.12
318.987	1.7
319.361	1.09
319.734	2.28
320.108	2.04
320.482	1.62
320.855	1.67
321.229	1.88
321.602	1.17
321.976	1.36
322.349	1.2
322.723	1.85
323.096	1.86
323.469	0.97
323.843	1.67
324.216	1.69
324.589	1.42
324.962	2.04
325.335	1.65
325.708	1.75
326.081	1.44
326.454	2.07
326.827	1.3
327.2	1.61
327.573	1.91
327.945	1.61
328.318	1.74
328.691	1.67
329.063	2
329.436	1.55
329.809	2.13
330.181	1.88
330.553	2.19
330.926	1.56
331.298	2.27
331.671	1.14
332.043	2.22
332.415	2.06
332.787	1.54
333.159	2.13
333.532	2.06
333.904	1.82
334.276	2.09
334.648	2.14
335.02	1.78
335.391	1.56
335.763	1.74
336.135	2.07
336.507	1.54
336.879	1.38
337.25	1.08
337.622	1.48
337.993	1.58
338.365	1.95
338.736	1.89
339.108	1.9
339.479	2.08
339.851	1.6
340.222	1.76
340.593	1.52
340.964	1.33
341.336	2.43
341.707	1.63
342.078	2.12
342.449	1.71
342.82	1.52
343.191	1.72
343.562	1.73
343.933	2.16
344.303	1.55
344.674	1.72
345.045	2.09
345.416	2.01
345.786	1.45
346.157	2.11
346.527	1.47
346.898	1.76
347.268	2.41
347.639	1.64
348.009	2.42
348.38	2.06
348.75	1.72
349.12	1.55
349.49	2.05
349.861	2.15
350.231	1.65
350.601	1.53
350.971	2.04
351.341	2.04
351.711	1.88
352.081	1.97
352.45	1.56
352.82	2.17
353.19	1.83
353.56	1.49
353.929	1.92
354.299	2.02
354.669	1.75
355.038	2.72
355.408	1.89
355.777	2.37
356.147	1.83
356.516	2.74
356.885	2.26
357.254	1.97
357.624	2.2
357.993	2.04
358.362	1.79
358.731	1.95
359.1	1.81
359.469	1.99
359.838	2.21
360.207	1.89
360.576	1.87
360.945	2.15
361.314	2.65
361.682	1.68
362.051	1.71
362.42	2.12
362.788	1.63
363.157	2.12
363.525	2.17
363.894	2.19
364.262	2.13
364.631	2.06
364.999	2.14
365.367	1.88
365.735	2.6
366.104	2.17
366.472	2.2
366.84	2.01
367.208	1.69
367.576	2.14
367.944	2.24
368.312	1.84
368.68	1.83
369.048	2.16
369.416	1.97
369.783	2.01
370.151	2.16
370.519	2.2
370.886	2.14
371.254	1.85
371.621	1.85
371.989	1.98
372.356	1.16
372.724	1.9
373.091	2.19
373.458	1.81
373.826	1.65
374.193	2.25
374.56	2.29
374.927	2.14
375.294	1.82
375.661	2.03
376.028	2.01
376.395	1.9
376.762	2.18
377.129	1.95
377.496	1.94
377.863	2.24
378.229	1.54
378.596	1.97
378.963	1.68
379.329	1.79
379.696	1.93
380.062	2.12
380.429	1.74
380.795	1.71
381.161	2.27
381.528	2.37
381.894	1.82
382.26	1.99
382.626	2.33
382.993	1.9
383.359	2.31
383.725	2.02
384.091	2.04
384.457	2.29
384.823	2.12
385.188	2.07
385.554	1.85
385.92	2.04
386.286	2.49
386.651	2.24
387.017	2.28
387.383	2.24
387.748	2.06
388.114	2.2
388.479	2.22
388.845	2.18
389.21	2.34
389.575	2.33
389.94	2.37
390.306	2.32
390.671	2.41
391.036	1.86
391.401	1.81
391.766	2.23
392.131	2.04
392.496	2.14
392.861	2.25
393.226	2.04
393.591	2.23
393.956	2.28
394.32	2.15
394.685	2.01
395.05	2.13
395.414	2.24
395.779	2.03
396.143	2.06
396.508	2.13
396.872	2.34
397.236	2.16
397.601	1.97
397.965	2.27
398.329	1.94
398.694	2.22
399.058	2.24
399.422	2.05
399.786	2.48
400.15	2.16
400.514	2.06
400.878	2.26
401.242	2.41
401.605	2.18
401.969	2.31
402.333	2.07
402.697	2.2
403.06	2.14
403.424	2.26
403.787	2.07
404.151	2.48
404.514	2.54
404.878	2.33
405.241	2.55
405.604	2.26
405.968	2.27
406.331	2.31
406.694	2.44
407.057	2.21
407.42	2.36
407.783	1.93
408.146	2.37
408.509	2.19
408.872	2.08
409.235	2.25
409.598	2.46
409.961	2.22
410.323	2.29
410.686	2.17
411.049	2.04
411.411	2.25
411.774	2.37
412.136	2.02
412.499	2.24
412.861	2.26
413.223	2.32
413.586	2.55
413.948	2.2
414.31	2.34
414.672	2.05
415.035	2.26
415.397	2.6
415.759	2.09
416.121	2.4
416.483	2.31
416.845	2.26
417.206	2.16
417.568	2.33
417.93	2.14
418.292	2.24
418.653	2.33
419.015	2.33
419.377	2.41
419.738	2.47
420.1	2.2
420.461	2.32
420.822	2.36
421.184	2.22
421.545	2.4
421.906	2.21
422.267	2.35
422.629	2.31
422.99	2.2
423.351	2.37
423.712	2.32
424.073	2.26
424.434	2.29
424.795	2.27
425.155	2.34
425.516	2.22
425.877	2.2
426.238	2.23
426.598	2.28
426.959	2.31
427.32	2.24
427.68	2.35
428.041	2.26
428.401	2.37
428.761	2.41
429.122	2.36
429.482	2.26
429.842	2.33
430.202	2.57
430.563	2.34
430.923	2.29
431.283	2.47
431.643	2.46
432.003	2.49
432.363	2.38
432.722	2.24
433.082	2.29
433.442	2.3
433.802	2.35
434.161	2.29
434.521	2.69
434.881	2.66
435.24	2.34
435.6	2.43
435.959	2.37
436.319	2.4
436.678	2.51
437.037	2.42
437.396	2.38
437.756	2.46
438.115	2.36
438.474	2.53
438.833	2.19
439.192	2.41
439.551	2.6
439.91	2.5
440.269	2.43
440.628	2.34
440.987	2.39
441.345	2.26
441.704	2.41
442.063	2.33
442.421	2.3
442.78	2.32
443.138	2.38
443.497	2.36
443.855	2.38
444.214	2.46
444.572	2.63
444.93	2.38
445.288	2.52
445.647	2.52
446.005	2.39
446.363	2.5
446.721	2.51
447.079	2.43
447.437	2.35
447.795	2.47
448.153	2.3
448.51	2.39
448.868	2.41
449.226	2.41
449.584	2.38
449.941	2.6
450.299	2.43
450.656	2.42
451.014	2.43
451.371	2.39
451.729	2.39
452.086	2.72
452.443	2.4
452.801	2.52
453.158	2.5
453.515	2.22
453.872	2.6
454.229	2.42
454.586	2.35
454.943	2.53
455.3	2.55
455.657	2.59
456.014	2.52
456.371	2.55
456.727	2.59
457.084	2.76
457.441	2.58
457.797	2.43
458.154	2.66
458.51	2.63
458.867	2.56
459.223	2.67
459.58	2.55
459.936	2.57
460.292	2.64
460.648	2.51
461.005	2.43
461.361	2.56
461.717	2.47
462.073	2.44
462.429	2.47
462.785	2.55
463.141	2.51
463.496	2.58
463.852	2.72
464.208	2.55
464.564	2.57
464.919	2.6
465.275	2.49
465.631	2.71
465.986	2.43
466.342	2.56
466.697	2.51
467.052	2.61
467.408	2.51
467.763	2.58
468.118	2.6
468.473	2.44
468.829	2.6
469.184	2.44
469.539	2.54
469.894	2.37
470.249	2.67
470.603	2.59
470.958	2.66
471.313	2.73
471.668	2.69
472.023	2.6
472.377	2.63
472.732	2.54
473.086	2.54
473.441	2.6
473.795	2.69
474.15	2.64
474.504	2.68
474.859	2.75
475.213	2.57
475.567	2.51
475.921	2.45
476.275	2.72
476.63	2.71
476.984	2.8
477.338	2.65
477.692	2.46
478.045	2.42
478.399	2.55
478.753	2.63
479.107	2.57
479.461	2.58
479.814	2.62
480.168	2.76
480.521	2.61
480.875	2.5
481.228	2.65
481.582	2.57
481.935	2.65
482.289	2.61
482.642	2.68
482.995	2.55
483.348	2.58
483.701	2.7
484.055	2.64
484.408	2.66
484.761	2.44
485.114	2.56
485.466	2.44
485.819	2.48
486.172	2.47
486.525	2.53
486.878	2.56
487.23	2.54
487.583	2.56
487.936	2.65
488.288	2.57
488.641	2.59
488.993	2.54
489.345	2.53
489.698	2.56
490.05	2.51
490.402	2.59
490.754	2.64
491.107	2.61
491.459	2.67
491.811	2.66
492.163	2.68
492.515	2.64
492.866	2.68
493.218	2.63
493.57	2.58
493.922	2.61
494.274	2.7
494.625	2.77
494.977	2.77
495.328	2.76
495.68	2.76
496.031	2.87
496.383	2.76
496.734	2.91
497.086	2.8
497.437	2.78
497.788	2.84
498.139	2.65
498.49	2.87
498.842	2.65
499.193	2.76
499.544	2.8
499.894	2.77
500.245	2.76
500.596	2.7
500.947	2.9
501.298	2.74
501.648	2.78
501.999	2.97
502.35	2.88
502.7	2.81
503.051	2.69
503.401	2.75
503.752	2.68
504.102	2.83
504.452	2.79
504.803	2.72
505.153	2.82
505.503	2.78
505.853	2.76
506.203	2.67
506.553	2.85
506.903	2.73
507.253	2.79
507.603	2.9
507.953	2.97
508.303	2.97
508.652	2.79
509.002	2.84
509.352	2.9
509.701	2.78
510.051	2.83
510.4	2.81
510.75	2.82
511.099	2.87
511.449	2.94
511.798	2.88
512.147	2.9
512.496	2.72
512.846	2.91
513.195	2.9
513.544	2.96
513.893	3.01
514.242	2.89
514.591	3.11
514.939	2.98
515.288	2.83
515.637	3.09
515.986	2.99
516.334	2.99
516.683	2.91
517.032	3.08
517.38	2.98
517.729	2.96
518.077	2.88
518.426	3.04
518.774	3.05
519.122	2.94
519.47	3.07
519.819	2.84
520.167	2.96
520.515	2.94
520.863	2.99
521.211	3.04
521.559	3.09
521.907	3.02
522.255	3.03
522.602	3.03
522.95	2.99
523.298	3.03
523.645	2.99
523.993	3.02
524.341	3.21
524.688	3.18
525.036	2.98
525.383	3.1
525.73	3.29
526.078	3.07
526.425	3.11
526.772	3.08
527.119	3.14
527.466	2.94
527.814	3.08
528.161	3.16
528.508	3.14
528.854	3.11
529.201	3.02
529.548	3.04
529.895	2.98
530.242	2.96
530.588	2.98
530.935	3.01
531.282	3.04
531.628	3.05
531.975	3.15
532.321	3.15
532.667	3.17
533.014	3.21
533.36	3.2
533.706	3.18
534.052	3.22
534.399	3.15
534.745	3.15
535.091	3.17
535.437	3.15
535.783	3.15
536.129	3.24
536.474	3.27
536.82	3.33
537.166	3.42
537.512	3.32
537.857	3.34
538.203	3.4
538.549	3.17
538.894	3.28
539.239	3.31
539.585	3.35
539.93	3.22
540.276	3.45
540.621	3.44
540.966	3.38
541.311	3.3
541.656	3.29
542.001	3.42
542.346	3.49
542.691	3.39
543.036	3.24
543.381	3.2
543.726	3.29
544.071	3.4
544.415	3.37
544.76	3.35
545.105	3.5
545.449	3.44
545.794	3.5
546.138	3.51
546.483	3.48
546.827	3.48
547.171	3.52
547.516	3.64
547.86	3.48
548.204	3.5
548.548	3.39
548.892	3.6
549.236	3.56
549.58	3.49
549.924	3.67
550.268	3.62
550.612	3.6
550.956	3.74
551.3	3.73
551.643	3.79
551.987	3.9
552.33	3.71
552.674	3.87
553.017	3.67
553.361	3.72
553.704	3.99
554.048	3.62
554.391	3.79
554.734	3.68
555.077	3.57
555.42	3.65
555.764	3.85
556.107	3.77
556.45	3.63
556.793	3.86
557.135	3.76
557.478	4.01
557.821	3.99
558.164	3.95
558.507	3.87
558.849	3.97
559.192	3.87
559.534	3.9
559.877	3.79
560.219	3.9
560.562	4.2
560.904	3.9
561.246	4
561.589	3.94
561.931	3.99
562.273	3.85
562.615	4.11
562.957	3.91
563.299	3.94
563.641	4.02
563.983	4.08
564.325	3.98
564.667	3.89
565.008	4.15
565.35	4.15
565.692	4.02
566.033	3.97
566.375	4.19
566.716	4.08
567.058	4.1
567.399	4.17
567.741	4.15
568.082	4.14
568.423	4.17
568.764	4.04
569.105	4.17
569.447	4.33
569.788	4.28
570.129	4.44
570.47	4.19
570.811	4.37
571.151	4.46
571.492	4.19
571.833	4.38
572.174	4.22
572.514	4.44
572.855	4.26
573.195	4.22
573.536	4.38
573.876	4.21
574.217	4.15
574.557	4.48
574.898	4.53
575.238	4.47
575.578	4.49
575.918	4.61
576.258	4.69
576.598	4.49
576.938	4.36
577.278	4.5
577.618	4.52
577.958	4.52
578.298	4.5
578.638	4.61
578.977	4.68
579.317	4.57
579.657	4.64
579.996	4.78
580.336	4.62
580.675	4.61
581.014	4.84
581.354	4.83
581.693	4.84
582.032	4.76
582.372	4.6
582.711	4.73
583.05	4.82
583.389	4.87
583.728	4.85
584.067	5.09
584.406	4.93
584.745	4.98
585.083	5.22
585.422	4.99
585.761	4.84
586.1	4.99
586.438	5.01
586.777	5.11
587.115	5.2
587.454	5.19
587.792	4.82
588.13	5.16
588.469	4.96
588.807	5.17
589.145	5.12
589.483	5.11
589.821	5.11
590.159	5.33
590.497	5.24
590.835	5.47
591.173	5.1
591.511	5.36
591.849	5.15
592.187	5.38
592.524	5.25
592.862	5.21
593.2	5.55
593.537	5.39
593.875	5.11
594.212	5.27
594.55	5.29
594.887	5.4
595.224	5.26
595.561	5.52
595.899	5.26
596.236	5.4
596.573	5.3
596.91	5.13
597.247	5.32
597.584	5.67
597.921	5.54
598.258	5.42
598.594	5.5
598.931	5.36
599.268	5.5
599.604	5.48
599.941	5.48
600.277	5.64
600.614	5.47
600.95	5.16
601.287	5.82
601.623	5.85
601.959	5.64
602.296	5.65
602.632	5.61
602.968	5.93
603.304	5.77
603.64	5.71
603.976	5.58
604.312	5.54
604.648	5.58
604.984	5.84
605.319	6.03
605.655	5.86
605.991	5.97
606.326	6.04
606.662	5.85
606.998	5.77
607.333	5.87
607.668	5.98
608.004	6.1
608.339	6.2
608.674	6.23
609.01	5.78
609.345	5.91
609.68	6.28
610.015	6.01
610.35	5.9
610.685	6.28
611.02	6
611.355	6.3
611.689	6.17
612.024	6.13
612.359	6.01
612.694	6.23
613.028	6.04
613.363	6.42
613.697	6.26
614.032	6.39
614.366	6.34
614.7	6.46
615.035	6.37
615.369	6.34
615.703	6.48
616.037	6.37
616.371	6.09
616.705	6.38
617.039	6.22
617.373	6.42
617.707	6.24
618.041	6.45
618.375	6.53
618.709	6.67
619.042	6.52
619.376	6.93
619.71	6.65
620.043	6.25
620.377	6.53
620.71	6.58
621.043	6.25
621.377	6.56
621.71	6.3
622.043	6.33
622.376	6.36
622.709	6.7
623.043	6.79
623.376	7.1
623.709	6.56
624.041	6.97
624.374	6.88
624.707	6.57
625.04	7.02
625.373	6.26
625.705	6.94
626.038	7.02
626.37	7.08
626.703	6.69
627.035	6.87
627.368	7.42
627.7	7.12
628.032	6.81
628.365	7.17
628.697	7.14
629.029	7.07
629.361	7.08
629.693	7.12
630.025	7.01
630.357	7.11
630.689	7.32
631.021	7.18
631.353	7.36
631.684	7.27
632.016	7.19
632.348	7.48
632.679	7.43
633.011	7.46
633.342	7.77
633.674	7.33
634.005	7.85
634.336	7.24
634.668	7.98
634.999	7.19
635.33	7.74
635.661	7.59
635.992	7.35
636.323	7.62
636.654	7.58
636.985	7.51
637.316	7.27
637.647	7.36
637.977	7.92
638.308	7.78
638.639	7.33
638.969	7.58
639.3	7.48
639.63	7.24
639.961	7.66
640.291	7.8
640.622	8.25
640.952	7.61
641.282	8.4
641.612	7.86
641.943	7.32
642.273	7.71
642.603	8.02
642.933	7.66
643.263	8.07
643.592	7.98
643.922	8.09
644.252	7.95
644.582	7.54
644.911	7.87
645.241	7.64
645.571	8.19
645.9	8.08
646.23	8.43
646.559	7.61
646.888	7.68
647.218	8.11
647.547	8.14
647.876	8.23
648.205	8.42
648.534	8.15
648.863	8.09
649.192	8.71
649.521	8.43
649.85	8.29
650.179	8.52
650.508	8.06
650.837	8.02
651.165	7.87
651.494	8.29
651.822	7.98
652.151	8.01
652.479	8.47
652.808	7.88
653.136	8.39
653.465	7.84
653.793	7.72
654.121	8.46
654.449	8.62
654.777	8.52
655.105	8.89
655.433	8.2
655.761	8.15
656.089	8.93
656.417	8.76
656.745	8.7
657.073	8.72
657.4	9.31
657.728	8
658.056	8.36
658.383	8.7
658.711	8.9
659.038	9.09
659.365	9.21
659.693	8.69
660.02	8.71
660.347	9.14
660.674	8.69
661.001	9.49
661.329	7.92
661.656	8.89
661.982	8.96
662.309	8.85
662.636	9.12
662.963	9.6
663.29	9.33
663.616	9.48
663.943	8.92
664.27	8.82
664.596	9.52
664.923	9.26
665.249	8.99
665.576	9.53
665.902	9.81
666.228	9.49
666.554	9.66
666.881	9
667.207	9.21
667.533	9.09
667.859	9.84
668.185	9.51
668.511	8.71
668.837	7.71
669.162	9.62
669.488	8.12
669.814	9.57
670.139	9.97
670.465	9.13
670.791	9.59
671.116	10.44
671.442	9.37
671.767	9.82
672.092	9.51
672.418	9.91
672.743	10.14
673.068	9.5
673.393	9.85
673.718	9.71
674.043	9.78
674.368	9.1
674.693	10.63
675.018	9.08
675.343	9.06
675.667	9.23
675.992	9.61
676.317	9.56
676.641	9.39
676.966	9.69
677.29	9.54
677.615	9.91
677.939	10.09
678.264	10.86
678.588	9.93
678.912	10.75
679.236	10.42
679.56	9.19
679.885	10.04
680.209	9.92
680.532	9.89
680.856	10.53
681.18	10.22
681.504	10.03
681.828	10.21
682.152	9.74
682.475	10.41
682.799	9.79
683.122	10.54
683.446	9.86
683.769	10.7
684.093	10.18
684.416	11.02
684.739	10.56
685.062	10.05
685.386	10.71
685.709	10.16
686.032	10.42
686.355	10.76
686.678	10.3
687.001	10.29
687.324	10.9
687.646	10.51
687.969	10.24
688.292	10.57
688.614	10.14
688.937	10.46
689.26	10.69
689.582	11.03
689.904	10.51
690.227	10.8
690.549	10.83
690.871	10.91
