Data from 0192_forehead_Reflection__4__390.txt Node

Date: Fri Dec 15 20:18:03 CST 2023
User: ToomeyLab
Spectrometer: FLMS14357
Trigger mode: 0
Integration Time (sec): 1.000000E-2
Scans to average: 100
Electric dark correction enabled: true
Nonlinearity correction enabled: false
Boxcar width: 0
XAxis mode: Wavelengths
Number of Pixels in Spectrum: 2048
>>>>>Begin Spectral Data<<<<<
189.047	31.5
189.435	31.5
189.823	31.5
190.211	-40.59
190.599	-351.14
190.987	62.55
191.375	129.77
191.763	-23.84
192.151	0.21
192.538	295.33
192.926	-35.25
193.314	134.93
193.702	-36.89
194.089	11.85
194.477	-55.3
194.864	96.8
195.252	78.24
195.639	77.94
196.027	-0.31
196.414	189.07
196.801	408.56
197.189	152.07
197.576	71.95
197.963	-121.83
198.351	-77.06
198.738	57.9
199.125	29.63
199.512	155.66
199.899	8.69
200.286	34.62
200.673	19.22
201.06	30.63
201.447	-33.7
201.833	-14.45
202.22	47.34
202.607	52.05
202.994	45.31
203.38	32.83
203.767	63.44
204.154	7.95
204.54	51.22
204.927	-4.29
205.313	16.34
205.699	42.44
206.086	53.19
206.472	27.92
206.858	24.95
207.245	-32.67
207.631	61.5
208.017	1.04
208.403	16.25
208.789	80
209.175	35.69
209.561	-17.11
209.947	-25.39
210.333	21.13
210.719	66.15
211.105	21.62
211.491	2.24
211.876	49.56
212.262	34.89
212.648	42.56
213.034	37
213.419	-24.3
213.805	21.99
214.19	-28.79
214.576	13.07
214.961	-17.33
215.346	-34.41
215.732	43.89
216.117	31.18
216.502	-2.77
216.888	13.77
217.273	20.06
217.658	5.06
218.043	10.96
218.428	-41.45
218.813	-45.74
219.198	-25.92
219.583	9.91
219.968	-9.42
220.353	7.91
220.738	15.56
221.122	16.02
221.507	-51.95
221.892	8.19
222.276	-17.32
222.661	-14.27
223.046	17
223.43	21.14
223.815	9.87
224.199	15.37
224.583	3.86
224.968	-3.62
225.352	8.16
225.736	4.79
226.121	-2.99
226.505	14.95
226.889	6.58
227.273	-5.12
227.657	10.32
228.041	0.34
228.425	6.43
228.809	8.76
229.193	6.74
229.577	2.89
229.961	3.15
230.344	4.43
230.728	3.62
231.112	4.66
231.495	4.56
231.879	3.02
232.263	4.75
232.646	5.27
233.03	4.95
233.413	4.26
233.797	3.87
234.18	4.36
234.563	8.06
234.946	5.31
235.33	7.69
235.713	4.64
236.096	3.95
236.479	4.78
236.862	3.19
237.245	7.41
237.628	5.6
238.011	5.48
238.394	4.3
238.777	5.96
239.16	0.75
239.543	5.63
239.925	7.34
240.308	4.99
240.691	5.81
241.073	4.96
241.456	5.31
241.838	4.71
242.221	3.25
242.603	4.87
242.986	5.42
243.368	5.14
243.75	4.75
244.133	4.06
244.515	4.62
244.897	5.04
245.279	4.49
245.661	4.19
246.043	3.19
246.425	3.6
246.807	5.22
247.189	4.35
247.571	5.26
247.953	4.58
248.335	4.56
248.717	4.69
249.098	4.27
249.48	4.19
249.862	4.37
250.243	4.51
250.625	4.17
251.006	4.53
251.388	3.08
251.769	4.38
252.151	5.69
252.532	4.63
252.913	3.63
253.295	4.04
253.676	4.83
254.057	4.5
254.438	4.66
254.819	4.51
255.2	4.79
255.581	5.93
255.962	4.74
256.343	5.63
256.724	3.61
257.105	5.06
257.486	5.06
257.867	5.38
258.247	4.66
258.628	4.57
259.009	3.17
259.389	5.02
259.77	4.56
260.15	4.78
260.531	3.77
260.911	5.22
261.292	4.65
261.672	4.8
262.052	4.55
262.432	4.85
262.813	4.86
263.193	4.61
263.573	4.84
263.953	4.09
264.333	5.22
264.713	4.58
265.093	4.15
265.473	4.73
265.853	4.32
266.233	5.9
266.612	3.51
266.992	3.61
267.372	4.39
267.752	4.73
268.131	4.62
268.511	5.22
268.89	5.03
269.27	3.99
269.649	4.31
270.029	4.26
270.408	5.04
270.787	4.48
271.167	4.49
271.546	4.75
271.925	4.1
272.304	4.85
272.683	4.51
273.062	4.61
273.441	4.63
273.82	4.13
274.199	4.85
274.578	4.73
274.957	4.71
275.336	4.95
275.715	4.7
276.093	3.8
276.472	5.07
276.851	4.4
277.229	4.45
277.608	4.12
277.986	4.14
278.365	4.59
278.743	3.94
279.122	4.53
279.5	4.77
279.878	4.65
280.257	4.39
280.635	3.98
281.013	4.56
281.391	5.47
281.769	4.97
282.147	4.9
282.525	5.36
282.903	4.61
283.281	4.25
283.659	4.5
284.037	4.79
284.415	4.67
284.792	5.14
285.17	4.48
285.548	4.55
285.925	4.86
286.303	4.68
286.68	4.74
287.058	4.67
287.435	4.65
287.813	4.59
288.19	4.53
288.567	4.66
288.945	5.47
289.322	4.71
289.699	4.73
290.076	5.45
290.453	5.01
290.83	4.06
291.207	4.58
291.584	5.15
291.961	5.3
292.338	5.35
292.715	5.41
293.092	5.47
293.469	5.19
293.845	5.49
294.222	4.84
294.599	5.25
294.975	5.25
295.352	5.22
295.728	5.21
296.105	5.48
296.481	5.75
296.858	5.67
297.234	5.74
297.61	5.93
297.986	5.76
298.363	6.17
298.739	5.86
299.115	5.98
299.491	5.72
299.867	6.3
300.243	6.05
300.619	5.79
300.995	6.11
301.371	6.85
301.746	6.59
302.122	6.78
302.498	6.29
302.874	6.3
303.249	6.43
303.625	6.2
304	6.73
304.376	6.81
304.751	5.9
305.127	7.34
305.502	6.42
305.878	6.24
306.253	6.53
306.628	7.69
307.003	6.52
307.378	6.9
307.754	7.05
308.129	6.66
308.504	7.31
308.879	6.9
309.254	8.07
309.629	7.69
310.003	7.7
310.378	7.78
310.753	7.89
311.128	7.8
311.502	7.86
311.877	8.06
312.252	7.44
312.626	8.3
313.001	7.67
313.375	8.59
313.75	8.12
314.124	8.47
314.498	8.15
314.873	8.39
315.247	7.84
315.621	8.88
315.995	8.3
316.369	9.05
316.743	9.08
317.117	9.17
317.491	8.11
317.865	9.22
318.239	9.06
318.613	9.56
318.987	9.39
319.361	9.26
319.734	10.36
320.108	9.46
320.482	9
320.855	9.83
321.229	9.67
321.602	9.61
321.976	10.76
322.349	10.13
322.723	10.17
323.096	10.57
323.469	9.91
323.843	10.6
324.216	10.99
324.589	10.01
324.962	10.65
325.335	10.75
325.708	10.35
326.081	10.41
326.454	11
326.827	10.77
327.2	11.3
327.573	11.93
327.945	11.39
328.318	10.6
328.691	10.71
329.063	11.48
329.436	11.1
329.809	11.41
330.181	11.64
330.553	11.3
330.926	11.52
331.298	11.59
331.671	11.78
332.043	12.14
332.415	11.66
332.787	11.92
333.159	12.37
333.532	12.66
333.904	11.9
334.276	11.91
334.648	12.37
335.02	12.41
335.391	12.24
335.763	11.62
336.135	12.37
336.507	12.98
336.879	12.95
337.25	12.52
337.622	12.86
337.993	12.44
338.365	13.42
338.736	12.48
339.108	13.25
339.479	12.97
339.851	12.99
340.222	12.69
340.593	13.04
340.964	13.21
341.336	13.87
341.707	12.86
342.078	13.42
342.449	13.65
342.82	13.52
343.191	13.7
343.562	13.58
343.933	14.12
344.303	13.72
344.674	13.28
345.045	14.19
345.416	13.94
345.786	13.71
346.157	14.18
346.527	13.54
346.898	13.59
347.268	14.09
347.639	14.38
348.009	14.7
348.38	14.29
348.75	14.31
349.12	14.27
349.49	15.03
349.861	15.14
350.231	14.42
350.601	14.41
350.971	14.91
351.341	14.72
351.711	14.77
352.081	15.01
352.45	15.36
352.82	14.95
353.19	14.9
353.56	14.73
353.929	15.22
354.299	15.49
354.669	15.23
355.038	15.74
355.408	15.44
355.777	15.29
356.147	15.18
356.516	15.74
356.885	15.63
357.254	15.68
357.624	16.22
357.993	16.07
358.362	15.86
358.731	15.42
359.1	15.86
359.469	15.9
359.838	16.09
360.207	16.33
360.576	16.39
360.945	16.2
361.314	16.83
361.682	16.15
362.051	16.45
362.42	16.67
362.788	16.59
363.157	16.55
363.525	16.76
363.894	16.81
364.262	16.54
364.631	16.46
364.999	17.16
365.367	16.53
365.735	17.81
366.104	16.94
366.472	17
366.84	16.87
367.208	17.35
367.576	17.54
367.944	17.29
368.312	17.79
368.68	17.3
369.048	17.71
369.416	17.68
369.783	17.46
370.151	18.25
370.519	18.05
370.886	18.37
371.254	18.09
371.621	18.4
371.989	18.33
372.356	17.8
372.724	18.4
373.091	18.31
373.458	18.23
373.826	18.44
374.193	18.26
374.56	18.37
374.927	18.76
375.294	19.08
375.661	19.15
376.028	18.58
376.395	18.43
376.762	19.11
377.129	18.89
377.496	18.73
377.863	18.88
378.229	18.79
378.596	19.62
378.963	19.08
379.329	18.98
379.696	19.18
380.062	19.36
380.429	19.44
380.795	19.41
381.161	19.61
381.528	19.66
381.894	19.26
382.26	19.32
382.626	19.94
382.993	19.67
383.359	20.13
383.725	19.55
384.091	19.84
384.457	20.13
384.823	20.6
385.188	20.09
385.554	20.05
385.92	20.5
386.286	20.13
386.651	20.63
387.017	20.91
387.383	20.43
387.748	20.44
388.114	20.81
388.479	20.73
388.845	21.27
389.21	20.82
389.575	20.56
389.94	21.07
390.306	20.89
390.671	21.35
391.036	20.79
391.401	21.09
391.766	21.03
392.131	21.06
392.496	21.33
392.861	21.28
393.226	21.79
393.591	21.62
393.956	21.53
394.32	21.31
394.685	21.27
395.05	21.55
395.414	21.68
395.779	21.62
396.143	21.87
396.508	21.81
396.872	21.83
397.236	22.05
397.601	22.06
397.965	21.78
398.329	22.13
398.694	22.24
399.058	22.44
399.422	22.2
399.786	22.16
400.15	22.62
400.514	22.6
400.878	22.24
401.242	22.69
401.605	22.79
401.969	22.52
402.333	22.51
402.697	22.54
403.06	22.66
403.424	22.95
403.787	23.14
404.151	23.26
404.514	23.13
404.878	23.05
405.241	23.28
405.604	23.38
405.968	23.04
406.331	23.38
406.694	23.27
407.057	23.48
407.42	23.44
407.783	23.69
408.146	23.56
408.509	23.45
408.872	23.56
409.235	23.72
409.598	23.86
409.961	23.76
410.323	23.97
410.686	24.01
411.049	23.78
411.411	23.61
411.774	24.04
412.136	24.11
412.499	23.98
412.861	24.12
413.223	24.2
413.586	24.13
413.948	24.33
414.31	24.41
414.672	24.25
415.035	24.51
415.397	24.73
415.759	24.45
416.121	24.86
416.483	24.72
416.845	24.64
417.206	24.7
417.568	24.99
417.93	24.71
418.292	24.94
418.653	24.94
419.015	24.91
419.377	25.13
419.738	24.81
420.1	24.88
420.461	25.06
420.822	25.07
421.184	24.69
421.545	24.96
421.906	24.95
422.267	25.12
422.629	25.03
422.99	25.09
423.351	24.88
423.712	24.99
424.073	25.15
424.434	25.21
424.795	25.22
425.155	25.26
425.516	25.3
425.877	25.25
426.238	25.35
426.598	25.58
426.959	25.46
427.32	25.6
427.68	25.59
428.041	25.88
428.401	25.81
428.761	25.83
429.122	26.13
429.482	26.15
429.842	26.16
430.202	26.27
430.563	26.31
430.923	26.61
431.283	26.63
431.643	26.52
432.003	26.57
432.363	26.85
432.722	26.78
433.082	26.77
433.442	26.73
433.802	26.7
434.161	26.87
434.521	27.02
434.881	26.84
435.24	27.04
435.6	26.86
435.959	26.85
436.319	27.08
436.678	27.08
437.037	27.09
437.396	27.43
437.756	27.29
438.115	27.21
438.474	27.7
438.833	27.32
439.192	27.39
439.551	27.65
439.91	27.55
440.269	27.81
440.628	27.3
440.987	27.93
441.345	27.56
441.704	27.6
442.063	27.61
442.421	27.74
442.78	27.58
443.138	27.85
443.497	27.85
443.855	27.83
444.214	27.95
444.572	28.25
444.93	28.28
445.288	28.21
445.647	28.2
446.005	28.2
446.363	28.6
446.721	28.41
447.079	28.19
447.437	28.19
447.795	28.24
448.153	28.06
448.51	28.13
448.868	28.21
449.226	28.23
449.584	28.45
449.941	28.5
450.299	28.61
450.656	28.69
451.014	28.64
451.371	28.77
451.729	29.15
452.086	29.24
452.443	29.12
452.801	29.08
453.158	29.39
453.515	29.06
453.872	29.35
454.229	29.3
454.586	29.43
454.943	29.53
455.3	29.35
455.657	29.52
456.014	29.62
456.371	29.68
456.727	29.78
457.084	29.97
457.441	29.8
457.797	29.72
458.154	29.9
458.51	29.92
458.867	30.11
459.223	29.94
459.58	30.13
459.936	29.88
460.292	30.06
460.648	30.25
461.005	29.96
461.361	29.99
461.717	29.75
462.073	29.96
462.429	29.81
462.785	29.94
463.141	30.09
463.496	30.36
463.852	30.37
464.208	30.43
464.564	30.69
464.919	30.7
465.275	30.72
465.631	30.99
465.986	30.95
466.342	30.95
466.697	31.1
467.052	30.99
467.408	30.97
467.763	31.17
468.118	31.2
468.473	31.43
468.829	31.14
469.184	31.21
469.539	31.44
469.894	31.11
470.249	31.4
470.603	31.29
470.958	31.36
471.313	31.54
471.668	31.77
472.023	31.42
472.377	31.63
472.732	31.62
473.086	31.54
473.441	31.65
473.795	31.85
474.15	31.62
474.504	31.78
474.859	32.04
475.213	32.12
475.567	31.88
475.921	32
476.275	32.27
476.63	32.14
476.984	32.12
477.338	32.41
477.692	32.33
478.045	32.19
478.399	32.21
478.753	32.3
479.107	32.21
479.461	32
479.814	32.29
480.168	32.51
480.521	32.38
480.875	32.37
481.228	32.39
481.582	32.47
481.935	32.75
482.289	32.67
482.642	32.71
482.995	32.37
483.348	32.41
483.701	32.65
484.055	32.48
484.408	32.53
484.761	32.11
485.114	31.98
485.466	31.61
485.819	31.65
486.172	31.58
486.525	31.65
486.878	31.68
487.23	31.93
487.583	32.07
487.936	32.37
488.288	32.36
488.641	32.48
488.993	32.23
489.345	32.25
489.698	32.1
490.05	32.16
490.402	32.36
490.754	32.5
491.107	32.49
491.459	32.91
491.811	32.95
492.163	33.25
492.515	33.08
492.866	33.11
493.218	32.77
493.57	32.78
493.922	32.64
494.274	32.84
494.625	33.02
494.977	33.25
495.328	33.34
495.68	33.75
496.031	33.77
496.383	33.94
496.734	34.12
497.086	34.18
497.437	34.1
497.788	34.19
498.139	34.25
498.49	34.3
498.842	33.99
499.193	34.06
499.544	34.2
499.894	34.17
500.245	34.52
500.596	34.39
500.947	34.35
501.298	34.47
501.648	34.72
501.999	34.63
502.35	34.78
502.7	34.7
503.051	34.6
503.401	34.86
503.752	34.85
504.102	35.07
504.452	35.06
504.803	35.09
505.153	35.06
505.503	35.07
505.853	34.92
506.203	35.21
506.553	34.91
506.903	35.23
507.253	35.12
507.603	35.34
507.953	35.3
508.303	35.46
508.652	35.45
509.002	35.63
509.352	35.52
509.701	35.28
510.051	35.28
510.4	35.65
510.75	35.26
511.099	35.21
511.449	35.47
511.798	35.43
512.147	35.6
512.496	35.72
512.846	35.61
513.195	35.67
513.544	35.66
513.893	35.76
514.242	35.87
514.591	35.84
514.939	35.96
515.288	35.91
515.637	36.01
515.986	35.97
516.334	36.28
516.683	36.29
517.032	36.37
517.38	36.42
517.729	36.61
518.077	36.32
518.426	36.38
518.774	36.4
519.122	36.24
519.47	36.18
519.819	36.17
520.167	36.22
520.515	36.07
520.863	36.09
521.211	36.11
521.559	36.18
521.907	36.21
522.255	36.44
522.602	36.56
522.95	36.7
523.298	36.63
523.645	37.02
523.993	36.92
524.341	36.92
524.688	36.86
525.036	37.12
525.383	36.86
525.73	37.06
526.078	37.1
526.425	36.93
526.772	37.06
527.119	36.94
527.466	36.63
527.814	36.81
528.161	36.72
528.508	36.92
528.854	36.83
529.201	36.76
529.548	36.8
529.895	36.66
530.242	36.33
530.588	36.24
530.935	36.4
531.282	36.47
531.628	36.39
531.975	36.62
532.321	36.98
532.667	37.01
533.014	37.21
533.36	37.2
533.706	37.4
534.052	37.36
534.399	37.36
534.745	37.14
535.091	37.1
535.437	37.09
535.783	37.09
536.129	37.27
536.474	37.32
536.82	37.72
537.166	37.65
537.512	37.8
537.857	37.85
538.203	37.96
538.549	37.67
538.894	37.62
539.239	38
539.585	37.86
539.93	38.09
540.276	38.15
540.621	38.37
540.966	38.44
541.311	38.54
541.656	38.56
542.001	38.64
542.346	38.57
542.691	38.17
543.036	38.07
543.381	37.72
543.726	37.8
544.071	37.88
544.415	38.11
544.76	38.11
545.105	38.2
545.449	38.3
545.794	38.41
546.138	38.64
546.483	38.84
546.827	39.07
547.171	38.89
547.516	39.08
547.86	39.06
548.204	38.94
548.548	38.96
548.892	39.04
549.236	39.1
549.58	38.98
549.924	39.44
550.268	39.51
550.612	39.58
550.956	39.48
551.3	39.56
551.643	39.92
551.987	39.7
552.33	39.8
552.674	39.98
553.017	39.79
553.361	40.11
553.704	39.98
554.048	39.88
554.391	39.93
554.734	39.88
555.077	39.82
555.42	40
555.764	40.06
556.107	40.23
556.45	40.16
556.793	40.22
557.135	40.36
557.478	40.59
557.821	40.53
558.164	40.44
558.507	40.48
558.849	40.42
559.192	40.53
559.534	40.62
559.877	40.6
560.219	40.54
560.562	41.09
560.904	40.54
561.246	40.57
561.589	40.86
561.931	40.84
562.273	41.06
562.615	41
562.957	40.94
563.299	40.85
563.641	40.91
563.983	41.02
564.325	40.8
564.667	41.1
565.008	41.28
565.35	41.1
565.692	41.15
566.033	41.35
566.375	41.43
566.716	41.48
567.058	41.33
567.399	41.13
567.741	41.27
568.082	41.07
568.423	41.28
568.764	41.27
569.105	41.43
569.447	41.32
569.788	41.12
570.129	41.53
570.47	41.61
570.811	41.58
571.151	41.43
571.492	41.46
571.833	41.48
572.174	41.51
572.514	41.79
572.855	41.73
573.195	41.55
573.536	41.51
573.876	41.42
574.217	41.68
574.557	41.65
574.898	41.83
575.238	41.7
575.578	41.82
575.918	41.74
576.258	41.95
576.598	42.28
576.938	42
577.278	42.13
577.618	41.78
577.958	42.2
578.298	42.16
578.638	41.97
578.977	42
579.317	42.25
579.657	42.28
579.996	42.35
580.336	42.61
580.675	42.33
581.014	42.66
581.354	42.44
581.693	42.87
582.032	42.81
582.372	42.53
582.711	42.67
583.05	42.54
583.389	43.12
583.728	43.12
584.067	42.71
584.406	43.11
584.745	43.25
585.083	43.04
585.422	42.78
585.761	42.74
586.1	43.29
586.438	42.91
586.777	43.17
587.115	43.01
587.454	43.07
587.792	42.99
588.13	43.44
588.469	43.16
588.807	43.79
589.145	43.36
589.483	43.37
589.821	43.56
590.159	43.38
590.497	43.85
590.835	43.62
591.173	43.49
591.511	43.55
591.849	43.48
592.187	43.51
592.524	43.61
592.862	43.57
593.2	43.49
593.537	43.68
593.875	43.57
594.212	43.48
594.55	43.79
594.887	44.5
595.224	43.86
595.561	43.99
595.899	44.01
596.236	43.74
596.573	43.66
596.91	43.9
597.247	44.15
597.584	44.12
597.921	43.87
598.258	43.71
598.594	43.93
598.931	43.57
599.268	43.9
599.604	43.81
599.941	44.07
600.277	43.9
600.614	43.91
600.95	43.75
601.287	44.29
601.623	44.2
601.959	44.15
602.296	44.33
602.632	44.61
602.968	44.37
603.304	44.57
603.64	44.43
603.976	44.51
604.312	44.3
604.648	44.63
604.984	44.7
605.319	44.65
605.655	44.3
605.991	44.25
606.326	44.48
606.662	44.48
606.998	44.18
607.333	44.24
607.668	44.3
608.004	44.34
608.339	44.78
608.674	44.63
609.01	44.98
609.345	44.84
609.68	45
610.015	44.71
610.35	44.82
610.685	45.05
611.02	44.95
611.355	44.82
611.689	44.92
612.024	44.88
612.359	44.65
612.694	44.51
613.028	45.04
613.363	45
613.697	44.99
614.032	45.23
614.366	45.23
614.7	45.66
615.035	45.59
615.369	45.05
615.703	45.59
616.037	45.29
616.371	45.08
616.705	45.32
617.039	45.84
617.373	45.53
617.707	45.34
618.041	45.56
618.375	45.21
618.709	45.95
619.042	45.3
619.376	46.06
619.71	45.44
620.043	46.05
620.377	45.79
620.71	45.75
621.043	45.71
621.377	45.83
621.71	46.08
622.043	45.57
622.376	45.68
622.709	45.8
623.043	45.88
623.376	46.16
623.709	46.02
624.041	46.47
624.374	45.92
624.707	45.88
625.04	46.45
625.373	46.04
625.705	45.75
626.038	45.96
626.37	46.35
626.703	46.29
627.035	46.23
627.368	46.9
627.7	46.37
628.032	46.34
628.365	46.38
628.697	46.51
629.029	46.38
629.361	46.23
629.693	46.06
630.025	46.45
630.357	46.29
630.689	46.51
631.021	46.44
631.353	46.64
631.684	46.27
632.016	46.53
632.348	46.73
632.679	46.18
633.011	46.59
633.342	46.62
633.674	46.97
634.005	47.05
634.336	47.17
634.668	46.89
634.999	46.79
635.33	46.79
635.661	47.26
635.992	46.81
636.323	46.81
636.654	47.18
636.985	46.78
637.316	47.14
637.647	46.82
637.977	46.94
638.308	47.05
638.639	47.46
638.969	46.72
639.3	47.22
639.63	46.82
639.961	47.48
640.291	47.69
640.622	47.32
640.952	46.96
641.282	47.88
641.612	47.36
641.943	47.27
642.273	47.48
642.603	47.57
642.933	47.68
643.263	47.71
643.592	48.29
643.922	47.42
644.252	47.31
644.582	47.25
644.911	47.67
645.241	48.07
645.571	47.88
645.9	47.69
646.23	48.26
646.559	48.54
646.888	47.7
647.218	47.81
647.547	48.39
647.876	47.77
648.205	48.37
648.534	47.45
648.863	47.59
649.192	48.18
649.521	47.97
649.85	48.39
650.179	47.97
650.508	47.88
650.837	48.24
651.165	48.62
651.494	48.19
651.822	48.05
652.151	48.07
652.479	48.37
652.808	48.45
653.136	48.77
653.465	47.94
653.793	48.41
654.121	48.77
654.449	48.31
654.777	48.59
655.105	48.86
655.433	48.45
655.761	49.06
656.089	48.6
656.417	49.46
656.745	48.19
657.073	48.59
657.4	49.16
657.728	48.9
658.056	49.01
658.383	48.69
658.711	49.3
659.038	49.17
659.365	49.06
659.693	49.29
660.02	48.62
660.347	49.21
660.674	48.81
661.001	48.25
661.329	48.59
661.656	48.71
661.982	49.06
662.309	48.75
662.636	49.09
662.963	49.22
663.29	49.23
663.616	49.26
663.943	49.06
664.27	49.05
664.596	49.15
664.923	48.9
665.249	49.73
665.576	49.08
665.902	49.43
666.228	49.21
666.554	49.79
666.881	49.19
667.207	49.45
667.533	49.18
667.859	49.9
668.185	49.76
668.511	48.91
668.837	49.18
669.162	49.13
669.488	49.52
