Data from 0192_crown_Reflection__0__376.txt Node

Date: Fri Dec 15 20:15:19 CST 2023
User: ToomeyLab
Spectrometer: FLMS14357
Trigger mode: 0
Integration Time (sec): 1.000000E-2
Scans to average: 100
Electric dark correction enabled: true
Nonlinearity correction enabled: false
Boxcar width: 0
XAxis mode: Wavelengths
Number of Pixels in Spectrum: 2048
>>>>>Begin Spectral Data<<<<<
189.047	-107.01
189.435	-107.01
189.823	-107.01
190.211	3.67
190.599	30.88
190.987	54.89
191.375	-195.81
191.763	419.75
192.151	-15.81
192.538	408.87
192.926	-79.01
193.314	129.08
193.702	113.29
194.089	-401.38
194.477	100.86
194.864	-1233.87
195.252	60.74
195.639	123.55
196.027	40.69
196.414	647.31
196.801	179.78
197.189	64.55
197.576	102.76
197.963	2.68
198.351	-71.57
198.738	-16.64
199.125	1.19
199.512	-39.82
199.899	26.92
200.286	31.46
200.673	-20.27
201.06	3.53
201.447	-291.78
201.833	-38.19
202.22	9.99
202.607	2.59
202.994	6.57
203.38	45.12
203.767	22.58
204.154	19.96
204.54	8.64
204.927	-40.07
205.313	-37.37
205.699	35.55
206.086	24.34
206.472	7.3
206.858	37.44
207.245	-17.66
207.631	20.42
208.017	50.59
208.403	-6.74
208.789	54.98
209.175	1.18
209.561	-37.45
209.947	47.54
210.333	-70.68
210.719	-5.14
211.105	29.85
211.491	-46.64
211.876	-3.89
212.262	-12.11
212.648	54.09
213.034	8.21
213.419	-91.46
213.805	3.95
214.19	-56.92
214.576	-36.11
214.961	-17.03
215.346	-119.33
215.732	16.23
216.117	8.59
216.502	-51.65
216.888	-11.8
217.273	8.56
217.658	-28.98
218.043	-5.14
218.428	-80.21
218.813	-29.48
219.198	-59.36
219.583	0.87
219.968	13.33
220.353	-53.51
220.738	1.15
221.122	5.38
221.507	-22
221.892	-17.39
222.276	-63.28
222.661	6.95
223.046	16.35
223.43	4.06
223.815	-0.79
224.199	-6.19
224.583	7.02
224.968	2.77
225.352	-1.6
225.736	-7.29
226.121	-14.26
226.505	7.25
226.889	-0.98
227.273	1.9
227.657	5.78
228.041	8.12
228.425	4.06
228.809	8.85
229.193	4.38
229.577	3.56
229.961	4.57
230.344	5.47
230.728	4.26
231.112	5.18
231.495	4.86
231.879	4.32
232.263	6.19
232.646	4.37
233.03	4.44
233.413	3.7
233.797	5
234.18	2.81
234.563	3.88
234.946	5.45
235.33	3.87
235.713	4.69
236.096	4.67
236.479	6.16
236.862	1.54
237.245	5.26
237.628	2.96
238.011	5.4
238.394	3.85
238.777	3.37
239.16	0.93
239.543	2.74
239.925	4.61
240.308	4.76
240.691	6.81
241.073	5.93
241.456	3.13
241.838	2.8
242.221	3.53
242.603	4.72
242.986	3.73
243.368	4.62
243.75	4.97
244.133	4.49
244.515	4.86
244.897	4.85
245.279	4.57
245.661	3.92
246.043	3.38
246.425	2.89
246.807	5.23
247.189	4.72
247.571	4.2
247.953	4.14
248.335	4.13
248.717	4.71
249.098	4.28
249.48	4.24
249.862	4.35
250.243	4.34
250.625	4.4
251.006	4.26
251.388	3.48
251.769	3.64
252.151	4.78
252.532	2.55
252.913	3.19
253.295	3.23
253.676	3.83
254.057	4.1
254.438	4.24
254.819	3.89
255.2	4.33
255.581	3.73
255.962	3.45
256.343	5.1
256.724	3.25
257.105	3.8
257.486	4.58
257.867	3.41
258.247	3.68
258.628	4.15
259.009	4.17
259.389	3.72
259.77	3.22
260.15	2.83
260.531	3.01
260.911	4.01
261.292	3.74
261.672	4.01
262.052	3.93
262.432	4.39
262.813	3.79
263.193	4.11
263.573	3.65
263.953	3.61
264.333	3.96
264.713	4.29
265.093	2.97
265.473	3.24
265.853	3.19
266.233	3.84
266.612	1.4
266.992	2.45
267.372	4.62
267.752	2.87
268.131	4.37
268.511	3.84
268.89	3.91
269.27	3.18
269.649	3
270.029	3.19
270.408	4.41
270.787	4.04
271.167	4.36
271.546	4.4
271.925	3.65
272.304	3.57
272.683	3.95
273.062	3.34
273.441	3.97
273.82	3.17
274.199	3.66
274.578	3.62
274.957	3.72
275.336	3.75
275.715	3.1
276.093	3.89
276.472	3.42
276.851	2.76
277.229	3.47
277.608	3.44
277.986	3.71
278.365	3.4
278.743	3.15
279.122	3.21
279.5	3.56
279.878	4.07
280.257	3.28
280.635	2.73
281.013	3.58
281.391	3.84
281.769	3.04
282.147	3.53
282.525	4.28
282.903	2.99
283.281	3.26
283.659	3.14
284.037	3.31
284.415	3.79
284.792	3.8
285.17	2.59
285.548	3.37
285.925	3
286.303	3.37
286.68	3.5
287.058	3.19
287.435	3.38
287.813	3.68
288.19	3.53
288.567	3.68
288.945	3.49
289.322	4.09
289.699	2.94
290.076	3.24
290.453	3.34
290.83	2.97
291.207	3.22
291.584	3.14
291.961	3.66
292.338	3.33
292.715	3.99
293.092	3.14
293.469	3.29
293.845	3.78
294.222	3.26
294.599	3.11
294.975	2.78
295.352	3.45
295.728	3.24
296.105	2.84
296.481	3.7
296.858	3.6
297.234	3.28
297.61	2.85
297.986	2.99
298.363	3.91
298.739	3.64
299.115	3.17
299.491	3.05
299.867	3.26
300.243	3.18
300.619	3
300.995	2.93
301.371	3.53
301.746	3
302.122	3.96
302.498	3.14
302.874	2.97
303.249	3.33
303.625	3.66
304	3.86
304.376	3.26
304.751	3.24
305.127	3.33
305.502	2.63
305.878	2.7
306.253	3.03
306.628	3.63
307.003	3.58
307.378	3.85
307.754	3.42
308.129	2.85
308.504	3.41
308.879	2.98
309.254	3.6
309.629	3.98
310.003	3.83
310.378	3.59
310.753	3.78
311.128	3.18
311.502	3.2
311.877	3.66
312.252	3.02
312.626	3.42
313.001	3.72
313.375	3.43
313.75	2.89
314.124	3.54
314.498	3.22
314.873	3.2
315.247	2.89
315.621	3.27
315.995	3.23
316.369	3.07
316.743	3.13
317.117	3.83
317.491	3.15
317.865	3.15
318.239	3.4
318.613	3.41
318.987	3.29
319.361	2.82
319.734	3.83
320.108	3.49
320.482	2.96
320.855	3.89
321.229	3.21
321.602	2.86
321.976	3.47
322.349	3.08
322.723	3.05
323.096	3.78
323.469	2.79
323.843	3.09
324.216	3.88
324.589	3.29
324.962	3.73
325.335	3.19
325.708	3.11
326.081	3.29
326.454	3.69
326.827	3.05
327.2	3.69
327.573	4.03
327.945	3.2
328.318	3.24
328.691	2.51
329.063	3.42
329.436	3.38
329.809	3.58
330.181	3.42
330.553	3.03
330.926	3.13
331.298	3.68
331.671	2.89
332.043	3.45
332.415	3.1
332.787	3.7
333.159	4.05
333.532	3.28
333.904	3.43
334.276	3.36
334.648	3.64
335.02	3.29
335.391	3.28
335.763	2.75
336.135	3.42
336.507	4.03
336.879	3.29
337.25	3.14
337.622	3.22
337.993	3.29
338.365	3.8
338.736	3.6
339.108	3.53
339.479	2.83
339.851	3.4
340.222	3.43
340.593	3.45
340.964	3.17
341.336	3.89
341.707	3.02
342.078	4.37
342.449	4.08
342.82	3.16
343.191	3.76
343.562	3.43
343.933	3.78
344.303	3.93
344.674	3.28
345.045	3.75
345.416	3.26
345.786	3.24
346.157	3.83
346.527	3.22
346.898	3.01
347.268	3.83
347.639	3.78
348.009	3.71
348.38	3.15
348.75	3.29
349.12	3.36
349.49	3.99
349.861	3.3
350.231	3.79
350.601	3.87
350.971	3.79
351.341	3.5
351.711	3.52
352.081	3.62
352.45	3.13
352.82	3.72
353.19	3.25
353.56	3.05
353.929	3.68
354.299	3.49
354.669	3.39
355.038	3.71
355.408	3.64
355.777	3.66
356.147	3.25
356.516	3.38
356.885	3.45
357.254	3.59
357.624	4.2
357.993	3.84
358.362	3.32
358.731	3.08
359.1	3.82
359.469	3.72
359.838	3.77
360.207	3.45
360.576	3.75
360.945	3.53
361.314	4.03
361.682	3.35
362.051	3.59
362.42	3.44
362.788	3.43
363.157	3.68
363.525	3.76
363.894	3.85
364.262	3.66
364.631	3.78
364.999	4.01
365.367	3.1
365.735	4.5
366.104	3.75
366.472	4
366.84	3.77
367.208	3.76
367.576	4.07
367.944	3.98
368.312	3.47
368.68	3.62
369.048	3.86
369.416	3.68
369.783	3.49
370.151	3.85
370.519	3.92
370.886	3.98
371.254	3.37
371.621	4.02
371.989	4.27
372.356	3.17
372.724	4.08
373.091	3.57
373.458	3.62
373.826	3.75
374.193	3.69
374.56	3.96
374.927	4.03
375.294	3.57
375.661	3.45
376.028	3.46
376.395	3.31
376.762	3.96
377.129	4.01
377.496	3.88
377.863	3.77
378.229	3.3
378.596	4.02
378.963	3.74
379.329	3.59
379.696	4.07
380.062	3.54
380.429	3.9
380.795	3.82
381.161	3.87
381.528	4.08
381.894	3.78
382.26	3.75
382.626	4.07
382.993	3.5
383.359	4.41
383.725	3.53
384.091	3.75
384.457	4.24
384.823	4.19
385.188	4.14
385.554	3.82
385.92	4.01
386.286	4.05
386.651	4.09
387.017	4.14
387.383	4
387.748	3.93
388.114	4.13
388.479	3.86
388.845	4.1
389.21	4.13
389.575	3.84
389.94	4.25
390.306	3.96
390.671	4.25
391.036	3.78
391.401	3.95
391.766	4.25
392.131	4.07
392.496	4.12
392.861	3.9
393.226	4.12
393.591	4.04
393.956	3.85
394.32	3.98
394.685	3.88
395.05	3.92
395.414	4.18
395.779	3.98
396.143	4.01
396.508	3.91
396.872	4.19
397.236	4.04
397.601	3.86
397.965	4.22
398.329	4.21
398.694	4.03
399.058	3.94
399.422	3.82
399.786	4.27
400.15	4.23
400.514	4.1
400.878	4.26
401.242	4.45
401.605	4.23
401.969	4.27
402.333	4.13
402.697	4.11
403.06	4.31
403.424	4.2
403.787	4.07
404.151	4.26
404.514	4
404.878	4.26
405.241	4.34
405.604	4.15
405.968	4.36
406.331	4.26
406.694	4.38
407.057	3.98
407.42	4.37
407.783	4.02
408.146	4.29
408.509	4.07
408.872	4.01
409.235	4.51
409.598	4.39
409.961	4.23
410.323	4.27
410.686	4.23
411.049	4.07
411.411	3.92
411.774	4.27
412.136	4.02
412.499	3.94
412.861	4.32
413.223	4.17
413.586	4.33
413.948	4.2
414.31	4.16
414.672	3.96
415.035	4.36
415.397	4.16
415.759	4.06
416.121	4.33
416.483	4.36
416.845	4.29
417.206	4.23
417.568	4.24
417.93	4.05
418.292	4.2
418.653	4.09
419.015	4.21
419.377	4.27
419.738	4.22
420.1	4.2
420.461	4.24
420.822	4.17
421.184	4.15
421.545	4.2
421.906	4.09
422.267	4.26
422.629	4.18
422.99	4.14
423.351	4.07
423.712	4.13
424.073	4.22
424.434	4.28
424.795	4.14
425.155	4.22
425.516	4.1
425.877	4.16
426.238	4.05
426.598	4.23
426.959	4.13
427.32	4.1
427.68	4.18
428.041	4.17
428.401	4.17
428.761	4.18
429.122	4.32
429.482	4.2
429.842	4.34
430.202	4.25
430.563	4.15
430.923	4.22
431.283	4.39
431.643	4.24
432.003	4.22
432.363	4.52
432.722	4.29
433.082	4.28
433.442	4.15
433.802	4.19
434.161	4.14
434.521	4.52
434.881	4.43
435.24	4.16
435.6	4.17
435.959	4.17
436.319	4.28
436.678	4.18
437.037	4.18
437.396	4.28
437.756	4.28
438.115	4.26
438.474	4.46
438.833	4.12
439.192	4.11
439.551	4.4
439.91	4.18
440.269	4.32
440.628	4.24
440.987	4.28
441.345	4.07
441.704	4.31
442.063	4.27
442.421	4.27
442.78	4.15
443.138	4.15
443.497	4.27
443.855	4.32
444.214	4.33
444.572	4.26
444.93	4.32
445.288	4.33
445.647	4.51
446.005	4.27
446.363	4.35
446.721	4.26
447.079	4.2
447.437	4.17
447.795	4.12
448.153	4.2
448.51	4.14
448.868	4.19
449.226	4.21
449.584	4.3
449.941	4.37
450.299	4.37
450.656	4.3
451.014	4.32
451.371	4.29
451.729	4.39
452.086	4.57
452.443	4.26
452.801	4.55
453.158	4.32
453.515	4.18
453.872	4.42
454.229	4.2
454.586	4.25
454.943	4.34
455.3	4.51
455.657	4.23
456.014	4.39
456.371	4.3
456.727	4.33
457.084	4.5
457.441	4.38
457.797	4.53
458.154	4.57
458.51	4.42
458.867	4.52
459.223	4.46
459.58	4.39
459.936	4.34
460.292	4.31
460.648	4.23
461.005	4.25
461.361	4.41
461.717	4.22
462.073	4.34
462.429	4.28
462.785	4.45
463.141	4.19
463.496	4.45
463.852	4.34
464.208	4.38
464.564	4.51
464.919	4.29
465.275	4.33
465.631	4.38
465.986	4.3
466.342	4.29
466.697	4.27
467.052	4.44
467.408	4.43
467.763	4.3
468.118	4.53
468.473	4.35
468.829	4.34
469.184	4.33
469.539	4.45
469.894	4.29
470.249	4.52
470.603	4.55
470.958	4.47
471.313	4.46
471.668	4.62
472.023	4.33
472.377	4.17
472.732	4.26
473.086	4.43
473.441	4.33
473.795	4.34
474.15	4.47
474.504	4.41
474.859	4.45
475.213	4.36
475.567	4.22
475.921	4.26
476.275	4.38
476.63	4.36
476.984	4.56
477.338	4.5
477.692	4.34
478.045	4.22
478.399	4.3
478.753	4.44
479.107	4.18
479.461	4.37
479.814	4.45
480.168	4.61
480.521	4.45
480.875	4.44
481.228	4.45
481.582	4.35
481.935	4.39
482.289	4.3
482.642	4.3
482.995	4.21
483.348	4.35
483.701	4.31
484.055	4.42
484.408	4.36
484.761	4.11
485.114	4.21
485.466	4.03
485.819	4.04
486.172	4.08
486.525	4.14
486.878	4.19
487.23	4.25
487.583	4.23
487.936	4.31
488.288	4.23
488.641	4.26
488.993	4.1
489.345	4.13
489.698	4.1
490.05	4.15
490.402	4.23
490.754	4.21
491.107	4.34
491.459	4.37
491.811	4.3
492.163	4.35
492.515	4.27
492.866	4.32
493.218	4.26
493.57	4.19
493.922	4.15
494.274	4.3
494.625	4.34
494.977	4.32
495.328	4.41
495.68	4.48
496.031	4.48
496.383	4.37
496.734	4.52
497.086	4.58
497.437	4.5
497.788	4.54
498.139	4.44
498.49	4.57
498.842	4.26
499.193	4.45
499.544	4.42
499.894	4.36
500.245	4.4
500.596	4.32
500.947	4.39
501.298	4.35
501.648	4.46
501.999	4.53
502.35	4.58
502.7	4.45
503.051	4.33
503.401	4.22
503.752	4.45
504.102	4.44
504.452	4.44
504.803	4.24
505.153	4.28
505.503	4.38
505.853	4.35
506.203	4.45
506.553	4.6
506.903	4.46
507.253	4.42
507.603	4.31
507.953	4.5
508.303	4.63
508.652	4.39
509.002	4.53
509.352	4.48
509.701	4.28
510.051	4.34
510.4	4.43
510.75	4.46
511.099	4.44
511.449	4.37
511.798	4.29
512.147	4.38
512.496	4.38
512.846	4.36
513.195	4.47
513.544	4.34
513.893	4.5
514.242	4.3
514.591	4.61
514.939	4.38
515.288	4.39
515.637	4.49
515.986	4.42
516.334	4.5
516.683	4.55
517.032	4.45
517.38	4.64
517.729	4.48
518.077	4.37
518.426	4.41
518.774	4.53
519.122	4.44
519.47	4.51
519.819	4.38
520.167	4.37
520.515	4.33
520.863	4.4
521.211	4.41
521.559	4.49
521.907	4.31
522.255	4.44
522.602	4.46
522.95	4.3
523.298	4.41
523.645	4.44
523.993	4.33
524.341	4.44
524.688	4.36
525.036	4.41
525.383	4.47
525.73	4.73
526.078	4.41
526.425	4.31
526.772	4.4
527.119	4.42
527.466	4.34
527.814	4.37
528.161	4.26
528.508	4.39
528.854	4.31
529.201	4.33
529.548	4.27
529.895	4.29
530.242	4.17
530.588	4.15
530.935	4.19
531.282	4.23
531.628	4.25
531.975	4.32
532.321	4.36
532.667	4.41
533.014	4.4
533.36	4.43
533.706	4.3
534.052	4.36
534.399	4.18
534.745	4.32
535.091	4.3
535.437	4.3
535.783	4.3
536.129	4.33
536.474	4.36
536.82	4.44
537.166	4.44
537.512	4.4
537.857	4.4
538.203	4.42
538.549	4.28
538.894	4.37
539.239	4.42
539.585	4.37
539.93	4.37
540.276	4.53
540.621	4.46
540.966	4.57
541.311	4.35
541.656	4.39
542.001	4.37
542.346	4.32
542.691	4.32
543.036	4.32
543.381	4.2
543.726	4.29
544.071	4.34
544.415	4.31
544.76	4.35
545.105	4.41
545.449	4.39
545.794	4.46
546.138	4.43
546.483	4.47
546.827	4.48
547.171	4.42
547.516	4.62
547.86	4.39
548.204	4.34
548.548	4.32
548.892	4.43
549.236	4.4
549.58	4.32
549.924	4.49
550.268	4.51
550.612	4.44
550.956	4.56
551.3	4.45
551.643	4.76
551.987	4.65
552.33	4.58
552.674	4.52
553.017	4.43
553.361	4.41
553.704	4.45
554.048	4.42
554.391	4.42
554.734	4.33
555.077	4.44
555.42	4.4
555.764	4.42
556.107	4.41
556.45	4.46
556.793	4.55
557.135	4.62
557.478	4.51
557.821	4.58
558.164	4.33
558.507	4.32
558.849	4.58
559.192	4.45
559.534	4.6
559.877	4.55
560.219	4.61
560.562	4.7
560.904	4.58
561.246	4.4
561.589	4.47
561.931	4.54
562.273	4.4
562.615	4.52
562.957	4.44
563.299	4.4
563.641	4.54
563.983	4.66
564.325	4.43
564.667	4.49
565.008	4.44
565.35	4.58
565.692	4.41
566.033	4.47
566.375	4.62
566.716	4.79
567.058	4.56
567.399	4.38
567.741	4.35
568.082	4.41
568.423	4.53
568.764	4.57
569.105	4.47
569.447	4.7
569.788	4.35
570.129	4.57
570.47	4.5
570.811	4.59
571.151	4.44
571.492	4.62
571.833	4.44
572.174	4.42
572.514	4.65
572.855	4.48
573.195	4.34
573.536	4.49
573.876	4.28
574.217	4.43
574.557	4.64
574.898	4.59
575.238	4.48
575.578	4.39
575.918	4.68
576.258	4.51
576.598	4.53
576.938	4.36
577.278	4.49
577.618	4.43
577.958	4.39
578.298	4.6
578.638	4.38
578.977	4.48
579.317	4.52
579.657	4.46
579.996	4.44
580.336	4.61
580.675	4.69
581.014	4.62
581.354	4.75
581.693	4.44
582.032	4.67
582.372	4.44
582.711	4.59
583.05	4.34
583.389	4.45
583.728	4.16
584.067	4.66
584.406	4.59
584.745	4.45
585.083	4.68
585.422	4.47
585.761	4.57
586.1	4.58
586.438	4.42
586.777	4.69
587.115	4.58
587.454	4.61
587.792	4.36
588.13	4.67
588.469	4.68
588.807	4.49
589.145	4.22
589.483	4.46
589.821	4.42
590.159	4.66
590.497	4.73
590.835	4.89
591.173	4.48
591.511	4.57
591.849	4.61
592.187	4.58
592.524	4.58
592.862	4.48
593.2	4.7
593.537	4.55
593.875	4.43
594.212	4.54
594.55	4.58
594.887	4.93
595.224	4.4
595.561	4.58
595.899	4.64
596.236	4.33
596.573	4.45
596.91	4.31
597.247	4.25
597.584	4.76
597.921	4.53
598.258	4.29
598.594	4.73
598.931	4.48
599.268	4.71
599.604	4.37
599.941	4.63
600.277	4.47
600.614	4.45
600.95	4.27
601.287	4.58
601.623	4.45
601.959	4.35
602.296	4.54
602.632	4.45
602.968	4.66
603.304	4.42
603.64	4.33
603.976	4.22
604.312	4.38
604.648	4.16
604.984	4.86
605.319	4.54
605.655	4.41
605.991	4.37
606.326	4.73
606.662	4.44
606.998	4.38
607.333	4.45
607.668	4.61
608.004	4.6
608.339	4.71
608.674	4.58
609.01	4.52
609.345	4.37
609.68	4.7
610.015	4.27
610.35	4.37
610.685	4.31
611.02	4.47
611.355	4.58
611.689	4.59
612.024	4.6
612.359	4.54
612.694	4.46
613.028	4.41
613.363	4.58
613.697	4.79
614.032	4.61
614.366	4.5
614.7	4.84
615.035	4.74
615.369	4.46
615.703	4.39
616.037	4.72
616.371	4.37
616.705	4.51
617.039	4.47
617.373	4.34
617.707	4.54
618.041	4.28
618.375	4.52
618.709	4.42
619.042	4.62
619.376	4.95
619.71	4.79
620.043	4.73
620.377	4.53
620.71	4.91
621.043	4.4
621.377	4.43
621.71	4.7
622.043	4.48
622.376	4.26
622.709	4.59
623.043	4.57
623.376	4.94
623.709	4.58
624.041	4.86
624.374	4.89
624.707	4.43
625.04	4.68
625.373	4.02
625.705	4.45
626.038	4.33
626.37	4.12
626.703	4.56
627.035	4.38
627.368	4.69
627.7	4.45
628.032	4.28
628.365	4.9
628.697	4.56
629.029	4.6
629.361	4.48
629.693	4.75
630.025	4.37
630.357	4.74
630.689	4.58
631.021	4.61
631.353	4.61
631.684	4.38
632.016	4.27
632.348	4.64
632.679	4.89
633.011	4.87
633.342	4.89
633.674	4.53
634.005	4.81
634.336	4.55
634.668	5
634.999	4.69
635.33	4.86
635.661	4.94
635.992	4.74
636.323	4.68
636.654	4.86
636.985	4.41
637.316	4.43
637.647	4.3
637.977	4.71
638.308	4.62
638.639	4.26
638.969	4.15
639.3	4.4
639.63	4.25
639.961	4.89
640.291	4.85
640.622	4.64
640.952	4.53
641.282	4.66
641.612	4.63
641.943	4.58
642.273	4.79
642.603	4.98
642.933	4.66
643.263	4.88
643.592	4.44
643.922	4.2
644.252	4.41
644.582	4.17
644.911	4.32
645.241	4.68
645.571	4.65
645.9	4.13
646.23	4.82
646.559	4.91
646.888	4.68
647.218	4.53
647.547	5.32
647.876	4.45
648.205	4.77
648.534	4.52
648.863	4.02
649.192	4.71
649.521	4.25
649.85	4.48
650.179	4.71
650.508	4.06
650.837	4.22
651.165	4.42
651.494	4.78
651.822	4.3
652.151	4.6
652.479	4.29
652.808	4.21
653.136	4.77
653.465	4.15
653.793	4.08
654.121	4.2
654.449	4.87
654.777	4.74
655.105	4.78
655.433	4.21
655.761	4.18
656.089	4.64
656.417	4.67
656.745	4.76
657.073	4.45
657.4	5.2
657.728	4.35
658.056	4.8
658.383	4.72
658.711	4.66
659.038	4.7
659.365	4.72
659.693	4.83
660.02	4.33
660.347	4.3
660.674	4.99
661.001	4.61
661.329	4
661.656	4.34
661.982	5.12
662.309	5.37
662.636	4.55
662.963	5.3
663.29	4.96
663.616	4.81
663.943	4.45
664.27	4.05
664.596	5.14
664.923	4.83
665.249	4.62
665.576	4.31
665.902	5.17
666.228	5.26
666.554	5.48
666.881	4.46
667.207	4.73
667.533	4.39
667.859	5.17
668.185	4.76
668.511	4.2
668.837	4.35
669.162	4.61
669.488	4.18
669.814	4.75
670.139	5.14
670.465	4.49
670.791	5.21
671.116	5.49
671.442	4.59
671.767	5.1
672.092	4.66
672.418	4.8
672.743	4.92
673.068	4.49
673.393	4.72
673.718	4.6
674.043	4.93
674.368	4.7
674.693	5.64
675.018	5.14
675.343	4.74
675.667	4.68
675.992	4.95
676.317	4.63
676.641	4.59
676.966	4.73
677.29	4.23
677.615	5.05
677.939	5.44
678.264	5.25
678.588	5.15
678.912	5.34
679.236	5.33
679.56	4.39
679.885	5.08
680.209	4.9
680.532	4.72
680.856	5.24
681.18	5.08
681.504	5
681.828	5.04
682.152	4.51
682.475	5.56
682.799	5.04
683.122	4.59
683.446	4.51
683.769	5.23
684.093	4.62
684.416	5.86
684.739	5.14
685.062	4.47
685.386	5.34
685.709	4.89
686.032	5.06
686.355	5.71
686.678	4.66
687.001	5.05
687.324	5.5
687.646	4.36
687.969	3.46
688.292	4.84
688.614	5.44
688.937	4.98
689.26	4.79
689.582	5.45
689.904	4.89
690.227	4.97
690.549	3.93
690.871	5.53
691.194	5.14
691.516	4.34
691.838	5.17
692.16	4.68
