Data from 0192_chest_Reflection__0__371.txt Node

Date: Fri Dec 15 20:13:40 CST 2023
User: ToomeyLab
Spectrometer: FLMS14357
Trigger mode: 0
Integration Time (sec): 1.000000E-2
Scans to average: 100
Electric dark correction enabled: true
Nonlinearity correction enabled: false
Boxcar width: 0
XAxis mode: Wavelengths
Number of Pixels in Spectrum: 2048
>>>>>Begin Spectral Data<<<<<
189.047	22.09
189.435	22.09
189.823	22.09
190.211	-39.29
190.599	-42.25
190.987	75.35
191.375	306.39
191.763	-67
192.151	107.53
192.538	263.05
192.926	37.89
193.314	135.39
193.702	199.38
194.089	-50.98
194.477	18.13
194.864	546.68
195.252	124.81
195.639	133.68
196.027	34.97
196.414	622.02
196.801	-0.95
197.189	263.77
197.576	159.13
197.963	-47.3
198.351	-32.86
198.738	30.11
199.125	42.14
199.512	-219.2
199.899	32.12
200.286	38.36
200.673	10.08
201.06	-15.43
201.447	-165.87
201.833	-30.76
202.22	10.1
202.607	3.84
202.994	-7.79
203.38	22.89
203.767	-12.77
204.154	13.88
204.54	38.05
204.927	-84.61
205.313	-36.2
205.699	16.52
206.086	21.86
206.472	6.82
206.858	34.36
207.245	-121.58
207.631	18.6
208.017	67.33
208.403	-21.1
208.789	30.13
209.175	9.49
209.561	-18.22
209.947	3.2
210.333	-78.68
210.719	47.94
211.105	10.45
211.491	-96.4
211.876	32.28
212.262	-52.39
212.648	-28.67
213.034	36.42
213.419	-74.31
213.805	8.4
214.19	-52.17
214.576	-11.32
214.961	-37.91
215.346	-46.12
215.732	-9.5
216.117	-3.94
216.502	-9.8
216.888	3.04
217.273	6.97
217.658	6.91
218.043	19.09
218.428	-24.3
218.813	-23.39
219.198	-15.96
219.583	10.22
219.968	9.81
220.353	-7.02
220.738	28.34
221.122	0.91
221.507	-8.32
221.892	-40.12
222.276	-24.96
222.661	-18.78
223.046	8.74
223.43	0.78
223.815	-2.08
224.199	-15.84
224.583	5.83
224.968	3.28
225.352	13.1
225.736	-11.45
226.121	-12.66
226.505	-0.37
226.889	4.94
227.273	-0.92
227.657	10.37
228.041	3.9
228.425	0.52
228.809	6.35
229.193	2.67
229.577	3.5
229.961	5.15
230.344	3.31
230.728	3.91
231.112	4.51
231.495	3.2
231.879	3.57
232.263	2.91
232.646	3.57
233.03	4.61
233.413	3.46
233.797	4.23
234.18	4.05
234.563	1.36
234.946	3.55
235.33	3.91
235.713	5.62
236.096	4.22
236.479	4.2
236.862	0.77
237.245	4.45
237.628	3.11
238.011	4.16
238.394	3.57
238.777	4.86
239.16	2.18
239.543	4.04
239.925	6.57
240.308	4.25
240.691	4.82
241.073	6.15
241.456	2.73
241.838	3.19
242.221	3.27
242.603	4.87
242.986	4.51
243.368	4.71
243.75	4.85
244.133	4.46
244.515	5.2
244.897	4.28
245.279	4.31
245.661	3.98
246.043	3.59
246.425	2.83
246.807	5.24
247.189	4.87
247.571	4.96
247.953	4.7
248.335	3.91
248.717	4.54
249.098	4.38
249.48	4.56
249.862	4.32
250.243	4.99
250.625	4.72
251.006	4.67
251.388	3.4
251.769	4.96
252.151	5.75
252.532	4.35
252.913	3.47
253.295	3.92
253.676	4.11
254.057	4.72
254.438	4.6
254.819	3.85
255.2	3.61
255.581	4.75
255.962	3.93
256.343	4.82
256.724	3.85
257.105	4.54
257.486	4.03
257.867	4.95
258.247	4.51
258.628	3.6
259.009	3.84
259.389	4.31
259.77	3.48
260.15	4.2
260.531	3.62
260.911	4.68
261.292	4.54
261.672	4.61
262.052	4.4
262.432	4.65
262.813	4.38
263.193	4.02
263.573	4.07
263.953	4.16
264.333	4.56
264.713	3.95
265.093	3.35
265.473	4.26
265.853	3.29
266.233	3.89
266.612	2.49
266.992	3.52
267.372	3.84
267.752	3.52
268.131	3.9
268.511	4.71
268.89	4.42
269.27	3.68
269.649	3.32
270.029	3.09
270.408	4.58
270.787	4.24
271.167	4.24
271.546	3.63
271.925	4.19
272.304	4.11
272.683	3.71
273.062	3.96
273.441	3.91
273.82	3.45
274.199	4.37
274.578	4.41
274.957	3.89
275.336	4.04
275.715	3.48
276.093	3.78
276.472	4.22
276.851	3.84
277.229	3.74
277.608	2.87
277.986	4.18
278.365	4.43
278.743	3.47
279.122	4.14
279.5	3.51
279.878	4.48
280.257	3.39
280.635	3.37
281.013	4.4
281.391	3.93
281.769	4.19
282.147	4.18
282.525	4.74
282.903	3.83
283.281	4.27
283.659	4.06
284.037	4.58
284.415	3.87
284.792	4.14
285.17	3.54
285.548	3.69
285.925	3.96
286.303	3.68
286.68	3.42
287.058	3.9
287.435	3.78
287.813	4.12
288.19	3.99
288.567	3.7
288.945	4.54
289.322	4.12
289.699	4.03
290.076	4.06
290.453	4.14
290.83	3.94
291.207	3.61
291.584	4.23
291.961	4.22
292.338	4.42
292.715	4.79
293.092	4.33
293.469	4.29
293.845	4.81
294.222	3.9
294.599	4.46
294.975	3.78
295.352	4.84
295.728	3.98
296.105	4.71
296.481	5.31
296.858	4.73
297.234	4.6
297.61	4.56
297.986	4.31
298.363	4.73
298.739	4.86
299.115	4.55
299.491	4.85
299.867	4.76
300.243	5.15
300.619	4.44
300.995	4.22
301.371	4.84
301.746	4.41
302.122	5.49
302.498	4.43
302.874	5.28
303.249	5
303.625	5.34
304	4.96
304.376	4.68
304.751	4.67
305.127	5.24
305.502	4.13
305.878	4.75
306.253	4.86
306.628	5.44
307.003	4.72
307.378	5.44
307.754	5.2
308.129	4.51
308.504	4.96
308.879	4.67
309.254	5.65
309.629	5.9
310.003	5.09
310.378	5.72
310.753	5.2
311.128	5.15
311.502	5.1
311.877	6.02
312.252	4.88
312.626	5.05
313.001	5.21
313.375	5.21
313.75	5.13
314.124	5.4
314.498	5.57
314.873	5.04
315.247	5.44
315.621	5.61
315.995	5.04
316.369	5.61
316.743	5.84
317.117	5.37
317.491	4.93
317.865	5.24
318.239	5.64
318.613	5.49
318.987	5.57
319.361	4.77
319.734	5.72
320.108	5.22
320.482	5.03
320.855	5.7
321.229	5.53
321.602	5.74
321.976	5.57
322.349	5.46
322.723	5.61
323.096	5.47
323.469	4.75
323.843	5.39
324.216	6.26
324.589	5.64
324.962	5.75
325.335	5.43
325.708	5.53
326.081	5.43
326.454	5.25
326.827	5.74
327.2	5.39
327.573	6.04
327.945	5.61
328.318	5.57
328.691	4.88
329.063	5.63
329.436	5.47
329.809	5.82
330.181	5.48
330.553	4.82
330.926	5.57
331.298	5.76
331.671	5.45
332.043	6.12
332.415	6.09
332.787	6.27
333.159	6.15
333.532	5.42
333.904	5.82
334.276	6.1
334.648	6
335.02	5.71
335.391	6.05
335.763	5.39
336.135	5.15
336.507	6.06
336.879	5.88
337.25	5.61
337.622	5.58
337.993	5.65
338.365	5.74
338.736	6.27
339.108	6.1
339.479	5.81
339.851	5.83
340.222	5.61
340.593	5.68
340.964	5.89
341.336	6.46
341.707	5.93
342.078	6.3
342.449	5.83
342.82	5.57
343.191	6.22
343.562	6.07
343.933	6.34
344.303	5.96
344.674	6.52
345.045	6.19
345.416	6.45
345.786	5.9
346.157	6.51
346.527	5.7
346.898	5.89
347.268	6.54
347.639	5.95
348.009	6.3
348.38	5.75
348.75	6.11
349.12	5.9
349.49	6.51
349.861	6.21
350.231	5.96
350.601	5.93
350.971	6.33
351.341	6.4
351.711	5.77
352.081	5.93
352.45	5.85
352.82	6.07
353.19	6.35
353.56	6.25
353.929	6.11
354.299	6.23
354.669	5.98
355.038	5.87
355.408	6.33
355.777	6.45
356.147	5.8
356.516	6.24
356.885	6.24
357.254	5.76
357.624	6.4
357.993	6.34
358.362	5.82
358.731	6.22
359.1	6.06
359.469	6.14
359.838	6.5
360.207	6.03
360.576	6.01
360.945	6.17
361.314	6.37
361.682	5.72
362.051	6.14
362.42	6.56
362.788	6.31
363.157	6.22
363.525	6.64
363.894	6.15
364.262	6.18
364.631	6.44
364.999	6.25
365.367	5.99
365.735	6.65
366.104	6.53
366.472	6.61
366.84	6.02
367.208	6.07
367.576	6.19
367.944	6.31
368.312	6.05
368.68	6.32
369.048	6.26
369.416	6.35
369.783	6.14
370.151	6.61
370.519	6.69
370.886	6.23
371.254	6.33
371.621	6.8
371.989	6.71
372.356	6.16
372.724	6.41
373.091	6.45
373.458	6.58
373.826	6.46
374.193	6.18
374.56	6.27
374.927	6.55
375.294	6.46
375.661	6.46
376.028	6.26
376.395	6.36
376.762	6.63
377.129	6.28
377.496	6.41
377.863	6.33
378.229	6.07
378.596	6.59
378.963	6.16
379.329	6.8
379.696	6.57
380.062	6.44
380.429	6.56
380.795	6.44
381.161	6.67
381.528	6.77
381.894	6.68
382.26	6.33
382.626	6.98
382.993	6.2
383.359	6.68
383.725	6.36
384.091	6.54
384.457	6.67
384.823	6.69
385.188	6.97
385.554	6.48
385.92	6.69
386.286	6.82
386.651	6.82
387.017	6.71
387.383	6.54
387.748	6.48
388.114	6.66
388.479	6.64
388.845	6.74
389.21	6.67
389.575	6.39
389.94	6.4
390.306	6.76
390.671	6.71
391.036	6.22
391.401	6.53
391.766	6.7
392.131	6.52
392.496	6.58
392.861	6.62
393.226	6.79
393.591	6.81
393.956	6.71
394.32	6.65
394.685	6.71
395.05	6.7
395.414	6.75
395.779	6.75
396.143	6.87
396.508	6.7
396.872	6.95
397.236	6.75
397.601	6.56
397.965	6.74
398.329	6.55
398.694	6.96
399.058	7.09
399.422	6.39
399.786	7.1
400.15	6.92
400.514	6.89
400.878	6.88
401.242	7.09
401.605	7.14
401.969	6.78
402.333	6.99
402.697	6.92
403.06	6.8
403.424	6.82
403.787	6.94
404.151	6.9
404.514	6.85
404.878	6.61
405.241	7.11
405.604	6.99
405.968	6.96
406.331	6.81
406.694	7.05
407.057	6.75
407.42	6.71
407.783	6.65
408.146	6.7
408.509	7.03
408.872	6.91
409.235	7.03
409.598	7.14
409.961	7.1
410.323	7.02
410.686	7.23
411.049	6.84
411.411	6.86
411.774	6.85
412.136	6.96
412.499	6.97
412.861	6.86
413.223	6.87
413.586	7.09
413.948	6.99
414.31	6.97
414.672	6.8
415.035	6.75
415.397	6.96
415.759	6.82
416.121	7.34
416.483	6.72
416.845	7.14
417.206	6.97
417.568	7.09
417.93	6.76
418.292	6.95
418.653	7.1
419.015	7.03
419.377	7.07
419.738	7.03
420.1	6.93
420.461	7.05
420.822	7.12
421.184	6.98
421.545	6.95
421.906	6.77
422.267	7.05
422.629	6.85
422.99	6.98
423.351	6.9
423.712	6.97
424.073	7.05
424.434	6.94
424.795	6.98
425.155	7.05
425.516	6.88
425.877	7
426.238	6.93
426.598	6.98
426.959	7.04
427.32	6.93
427.68	7
428.041	7.1
428.401	7.15
428.761	7.18
429.122	7.18
429.482	6.9
429.842	7.28
430.202	7.02
430.563	7.28
430.923	6.92
431.283	7.27
431.643	7.19
432.003	7.17
432.363	7.34
432.722	7.05
433.082	7.25
433.442	7.15
433.802	7.03
434.161	7.14
434.521	7.39
434.881	7.25
435.24	7.2
435.6	7.22
435.959	7.25
436.319	7.16
436.678	7.15
437.037	7.08
437.396	7.22
437.756	7.31
438.115	7.21
438.474	7.4
438.833	7.16
439.192	7.18
439.551	7.26
439.91	7.29
440.269	7.22
440.628	7.12
440.987	7.33
441.345	7.01
441.704	7.17
442.063	7.06
442.421	7.22
442.78	7.15
443.138	7.25
443.497	7.32
443.855	7.2
444.214	7.18
444.572	7.38
444.93	7.37
445.288	7.37
445.647	7.36
446.005	7.34
446.363	7.41
446.721	7.42
447.079	7.23
447.437	7.12
447.795	7.3
448.153	7.21
448.51	7.23
448.868	7.23
449.226	7.37
449.584	7.25
449.941	7.37
450.299	7.5
450.656	7.47
451.014	7.37
451.371	7.51
451.729	7.37
452.086	7.61
452.443	7.42
452.801	7.68
453.158	7.67
453.515	7.23
453.872	7.51
454.229	7.32
454.586	7.31
454.943	7.55
455.3	7.5
455.657	7.34
456.014	7.47
456.371	7.44
456.727	7.5
457.084	7.67
457.441	7.61
457.797	7.64
458.154	7.73
458.51	7.66
458.867	7.76
459.223	7.63
459.58	7.43
459.936	7.66
460.292	7.47
460.648	7.52
461.005	7.59
461.361	7.46
461.717	7.43
462.073	7.42
462.429	7.46
462.785	7.59
463.141	7.46
463.496	7.51
463.852	7.63
464.208	7.58
464.564	7.68
464.919	7.65
465.275	7.7
465.631	7.72
465.986	7.61
466.342	7.52
466.697	7.61
467.052	7.75
467.408	7.8
467.763	7.85
468.118	7.72
468.473	7.74
468.829	7.67
469.184	7.72
469.539	7.72
469.894	7.59
470.249	7.89
470.603	7.7
470.958	7.74
471.313	7.79
471.668	7.86
472.023	7.88
472.377	7.88
472.732	7.78
473.086	7.71
473.441	7.72
473.795	7.86
474.15	7.82
474.504	7.86
474.859	7.77
475.213	7.61
475.567	7.83
475.921	7.84
476.275	7.87
476.63	7.88
476.984	8.08
477.338	7.96
477.692	7.81
478.045	7.83
478.399	7.83
478.753	8.09
479.107	7.8
479.461	7.89
479.814	7.93
480.168	7.75
480.521	7.79
480.875	7.77
481.228	7.89
481.582	8
481.935	7.86
482.289	7.86
482.642	7.88
482.995	7.83
483.348	7.78
483.701	7.94
484.055	7.92
484.408	7.91
484.761	7.73
485.114	7.72
485.466	7.49
485.819	7.43
486.172	7.47
486.525	7.51
486.878	7.59
487.23	7.67
487.583	7.77
487.936	7.84
488.288	7.75
488.641	7.8
488.993	7.59
489.345	7.66
489.698	7.58
490.05	7.63
490.402	7.76
490.754	7.78
491.107	7.85
491.459	7.95
491.811	7.9
492.163	7.9
492.515	7.92
492.866	7.97
493.218	7.82
493.57	7.74
493.922	7.72
494.274	7.92
494.625	8.04
494.977	8.04
495.328	8.07
495.68	8.13
496.031	8.26
496.383	8.19
496.734	8.36
497.086	8.33
497.437	8.19
497.788	8.18
498.139	8.15
498.49	8.28
498.842	8.13
499.193	8.25
499.544	8.2
499.894	8.12
500.245	8.24
500.596	8.23
500.947	8.29
501.298	8.26
501.648	8.28
501.999	8.39
502.35	8.36
502.7	8.43
503.051	8.29
503.401	8.3
503.752	8.45
504.102	8.32
504.452	8.5
504.803	8.29
505.153	8.36
505.503	8.37
505.853	8.42
506.203	8.55
506.553	8.42
506.903	8.45
507.253	8.54
507.603	8.54
507.953	8.45
508.303	8.67
508.652	8.47
509.002	8.57
509.352	8.57
509.701	8.5
510.051	8.37
510.4	8.42
510.75	8.5
511.099	8.42
511.449	8.46
511.798	8.56
512.147	8.53
512.496	8.56
512.846	8.64
513.195	8.55
513.544	8.62
513.893	8.7
514.242	8.55
514.591	8.66
514.939	8.71
515.288	8.54
515.637	8.68
515.986	8.79
516.334	8.86
516.683	8.74
517.032	8.66
517.38	8.8
517.729	8.93
518.077	8.73
518.426	8.9
518.774	8.92
519.122	8.81
519.47	8.86
519.819	8.67
520.167	8.72
520.515	8.72
520.863	8.78
521.211	8.79
521.559	8.8
521.907	8.96
522.255	8.83
522.602	8.97
522.95	8.96
523.298	8.87
523.645	8.95
523.993	8.77
524.341	9.09
524.688	9.17
525.036	9.02
525.383	9.22
525.73	9.19
526.078	9.07
526.425	9.02
526.772	9.12
527.119	9.09
527.466	8.9
527.814	9.05
528.161	9.08
528.508	9.03
528.854	9.13
529.201	9
529.548	9.02
529.895	8.94
530.242	8.85
530.588	8.78
530.935	8.85
531.282	8.93
531.628	8.98
531.975	9.12
532.321	9.13
532.667	9.23
533.014	9.35
533.36	9.34
533.706	9.28
534.052	9.25
534.399	9.22
534.745	9.31
535.091	9.18
535.437	9.21
535.783	9.26
536.129	9.23
536.474	9.34
536.82	9.41
537.166	9.48
537.512	9.52
537.857	9.54
538.203	9.52
538.549	9.5
538.894	9.5
539.239	9.63
539.585	9.56
539.93	9.55
540.276	9.71
540.621	9.74
540.966	9.76
541.311	9.66
541.656	9.68
542.001	9.74
542.346	9.94
542.691	9.62
543.036	9.55
543.381	9.38
543.726	9.52
544.071	9.66
544.415	9.73
544.76	9.74
545.105	9.77
545.449	9.82
545.794	9.95
546.138	9.91
546.483	10.14
546.827	10.16
547.171	10.01
547.516	10.25
547.86	10.1
548.204	10.1
548.548	10.05
548.892	10.19
549.236	10.08
549.58	10.03
549.924	10.21
550.268	10.26
550.612	10.35
550.956	10.48
551.3	10.42
551.643	10.63
551.987	10.69
552.33	10.54
552.674	10.63
553.017	10.47
553.361	10.52
553.704	10.61
554.048	10.49
554.391	10.3
554.734	10.47
555.077	10.7
555.42	10.51
555.764	10.67
556.107	10.55
556.45	10.61
556.793	10.54
557.135	10.71
557.478	11.12
557.821	10.79
558.164	10.89
558.507	11
558.849	10.97
559.192	10.84
559.534	10.92
559.877	11.09
560.219	10.96
560.562	11.47
560.904	10.92
561.246	11.23
561.589	11.11
561.931	11.21
562.273	11.1
562.615	11.25
562.957	11.17
563.299	11.08
563.641	11.23
563.983	11.2
564.325	11.3
564.667	11.11
565.008	11.31
565.35	11.35
565.692	11.1
566.033	11.38
566.375	11.55
566.716	11.71
567.058	11.32
567.399	11.55
567.741	11.31
568.082	11.51
568.423	11.44
568.764	11.45
569.105	11.54
569.447	11.6
569.788	11.68
570.129	11.81
570.47	11.71
570.811	11.85
571.151	11.81
571.492	11.95
571.833	11.87
572.174	11.91
572.514	11.97
572.855	11.99
573.195	11.86
573.536	11.88
573.876	11.81
574.217	11.88
574.557	12.17
574.898	12.18
575.238	12.14
575.578	12.1
575.918	12.34
576.258	12.4
576.598	12.37
576.938	12.25
577.278	12.28
577.618	12.25
577.958	12.29
578.298	12.52
578.638	12.15
578.977	12.16
579.317	12.4
579.657	12.49
579.996	12.66
580.336	12.85
580.675	12.58
581.014	12.81
581.354	12.64
581.693	12.89
582.032	12.72
582.372	12.64
582.711	12.78
583.05	12.66
583.389	13.24
583.728	12.9
584.067	13.22
584.406	12.97
584.745	13.1
585.083	13.24
585.422	12.84
585.761	13.14
586.1	12.99
586.438	13.05
586.777	13.17
587.115	13.36
587.454	13.4
587.792	13.04
588.13	13.05
588.469	13.43
588.807	13.32
589.145	13.39
589.483	13.41
589.821	13.53
590.159	13.43
590.497	13.86
590.835	13.97
591.173	13.67
591.511	13.88
591.849	13.52
592.187	13.77
592.524	13.53
592.862	13.8
593.2	13.58
593.537	13.85
593.875	13.82
594.212	13.73
594.55	13.98
594.887	14.21
595.224	13.81
595.561	14
595.899	13.85
596.236	14.01
596.573	14.1
596.91	13.98
597.247	14.05
597.584	14.27
597.921	14.2
598.258	13.96
598.594	14.27
598.931	14.1
599.268	14.37
599.604	14.24
599.941	14.41
600.277	14.41
600.614	14.47
600.95	14.26
601.287	14.69
601.623	14.32
601.959	14.41
602.296	14.69
602.632	14.76
602.968	14.89
603.304	14.59
603.64	14.98
603.976	15.02
604.312	14.7
604.648	14.7
604.984	14.8
605.319	14.92
605.655	15
605.991	14.83
606.326	14.8
606.662	15.01
606.998	14.63
607.333	14.86
607.668	14.99
608.004	15
608.339	15.31
608.674	15.42
609.01	15.41
609.345	15.13
609.68	15.34
610.015	15.29
610.35	15.38
610.685	15.51
611.02	15.33
611.355	15.45
611.689	15.43
612.024	15.3
612.359	15.33
612.694	15.4
613.028	15.44
613.363	15.51
613.697	15.63
614.032	15.84
614.366	15.73
614.7	16.15
615.035	15.89
615.369	15.69
615.703	15.56
616.037	15.92
616.371	15.73
616.705	15.79
617.039	16.35
617.373	15.86
617.707	16.04
618.041	15.84
618.375	16.24
618.709	16.53
619.042	15.89
619.376	16.14
619.71	16.35
620.043	16.51
620.377	16.37
620.71	16.42
621.043	16.42
621.377	16.53
621.71	16.66
622.043	16.47
622.376	16.41
622.709	16.68
623.043	17.01
623.376	16.93
623.709	17
624.041	17.13
624.374	16.58
624.707	16.99
625.04	16.82
625.373	16.34
625.705	16.92
626.038	16.72
626.37	16.72
626.703	16.92
627.035	17.1
627.368	17.45
627.7	17.28
628.032	17.14
628.365	17.59
628.697	17.31
629.029	17.04
629.361	17.14
629.693	17.2
630.025	17.2
630.357	17.34
630.689	17.57
631.021	17.79
631.353	17.55
631.684	17.7
632.016	17.64
632.348	17.9
632.679	17.49
633.011	17.56
633.342	17.87
633.674	17.55
634.005	18.06
634.336	17.89
634.668	18.53
634.999	17.62
635.33	18.42
635.661	18.25
635.992	17.78
636.323	17.89
636.654	18.61
636.985	17.65
637.316	18.38
637.647	17.71
637.977	18.33
638.308	18.27
638.639	18.08
638.969	18.48
639.3	18.11
639.63	18.44
639.961	18.16
640.291	18.31
640.622	19.06
640.952	18.15
641.282	18.6
641.612	18.47
641.943	18.32
642.273	18.42
642.603	18.82
642.933	18.67
643.263	18.8
643.592	18.8
643.922	18.77
644.252	18.41
644.582	18.78
644.911	18.9
645.241	18.86
645.571	19.2
645.9	18.9
646.23	19.38
646.559	19.12
646.888	18.98
647.218	19.22
647.547	19.19
647.876	18.67
648.205	19.21
648.534	19.15
648.863	19.02
649.192	19.44
649.521	19.09
649.85	19.18
650.179	19.26
650.508	19.04
650.837	19.36
651.165	19.34
651.494	19.46
651.822	19.21
652.151	19.66
652.479	19.25
652.808	19.44
653.136	19.61
653.465	19.44
653.793	19.33
654.121	19.78
654.449	19.61
654.777	19.69
655.105	19.9
655.433	19.66
655.761	19.7
656.089	19.85
656.417	20.32
656.745	19.63
657.073	19.43
657.4	20.6
657.728	19.87
658.056	20.05
658.383	20.19
658.711	20.45
659.038	20.05
659.365	20.77
659.693	20.42
660.02	20.3
660.347	20.49
660.674	20.71
661.001	20.35
661.329	19.91
661.656	20.67
661.982	20.68
662.309	20.51
662.636	20.84
662.963	20.92
663.29	21.06
663.616	20.58
663.943	20.47
664.27	21.39
664.596	20.88
664.923	20.51
665.249	21.03
665.576	20.48
665.902	21.48
666.228	21.3
666.554	21.24
666.881	21.23
667.207	21.81
667.533	21.09
667.859	21.72
668.185	21.64
668.511	20.56
668.837	20.6
669.162	21.1
669.488	21.05
669.814	21.54
670.139	21.63
670.465	21.66
670.791	21.78
671.116	21.96
671.442	21.68
671.767	22.22
672.092	22.17
672.418	21.62
672.743	21.5
673.068	21.16
673.393	21.63
673.718	21.49
674.043	21.15
674.368	21.38
674.693	22.25
675.018	22.16
675.343	21.57
675.667	22.31
675.992	22.29
676.317	22.05
676.641	22.04
676.966	21.85
677.29	22.01
677.615	22.5
677.939	22.61
678.264	22.61
678.588	22.5
678.912	22.45
679.236	22.48
679.56	21.79
679.885	22.17
680.209	22.36
680.532	22.34
680.856	22.44
681.18	22.76
681.504	22.15
681.828	22.62
682.152	22.29
682.475	22.42
682.799	22.88
683.122	22.5
