Data from 1890-1_forehead_Reflection__1__132.txt Node

Date: Fri Sep 30 18:49:57 CDT 2022
User: ToomeyLab
Spectrometer: FLMS14357
Trigger mode: 0
Integration Time (sec): 1.000000E-2
Scans to average: 100
Electric dark correction enabled: true
Nonlinearity correction enabled: false
Boxcar width: 0
XAxis mode: Wavelengths
Number of Pixels in Spectrum: 2048
>>>>>Begin Spectral Data<<<<<
189.047	-208.89
189.435	-208.89
189.823	-208.89
190.211	-25.28
190.599	182.37
190.987	47.02
191.375	103.64
191.763	48.37
192.151	882.04
192.538	184.19
192.926	-639.26
193.314	39.51
193.702	80.83
194.089	49.82
194.477	-109.27
194.864	189.72
195.252	-105.79
195.639	82.17
196.027	-23.8
196.414	538.23
196.801	39.54
197.189	-364.23
197.576	-26.17
197.963	-1155.59
198.351	30.8
198.738	27.4
199.125	43.14
199.512	45.53
199.899	17.26
200.286	20.39
200.673	43.67
201.06	35.97
201.447	46.05
201.833	52.8
202.22	78.65
202.607	61.78
202.994	73.2
203.38	43.74
203.767	21.96
204.154	29.95
204.54	31.84
204.927	28.94
205.313	0.78
205.699	40.39
206.086	-18.8
206.472	23.02
206.858	46.49
207.245	34.79
207.631	2.68
208.017	-13.51
208.403	26.51
208.789	31.35
209.175	37.91
209.561	-6.16
209.947	20.87
210.333	52.28
210.719	33.29
211.105	32.4
211.491	12.2
211.876	35.97
212.262	70.36
212.648	45.54
213.034	11.18
213.419	47.99
213.805	39.27
214.19	2.54
214.576	10.17
214.961	12.37
215.346	28.31
215.732	17.62
216.117	36.42
216.502	37.27
216.888	15.65
217.273	0.19
217.658	21.77
218.043	20.21
218.428	8.34
218.813	14.14
219.198	25.24
219.583	23.71
219.968	28.05
220.353	26.98
220.738	29.89
221.122	28.71
221.507	34.02
221.892	11.26
222.276	-0.11
222.661	12.4
223.046	-9.84
223.43	-1.41
223.815	5.22
224.199	9.92
224.583	4.25
224.968	11.65
225.352	9.43
225.736	8.39
226.121	11.9
226.505	4.58
226.889	6.75
227.273	-4.38
227.657	5.81
228.041	3.52
228.425	8.06
228.809	3.98
229.193	5.36
229.577	2.65
229.961	3.3
230.344	2.05
230.728	2.28
231.112	1.71
231.495	1.67
231.879	4.42
232.263	2.08
232.646	1.12
233.03	3.16
233.413	2.12
233.797	3.77
234.18	2.44
234.563	2.86
234.946	3.62
235.33	1.75
235.713	4.27
236.096	2.6
236.479	5.1
236.862	1.21
237.245	3.72
237.628	2.54
238.011	4.44
238.394	2.74
238.777	1.5
239.16	1.75
239.543	3.4
239.925	0.6
240.308	1.78
240.691	3.85
241.073	3.27
241.456	3.02
241.838	2.86
242.221	2.34
242.603	2.56
242.986	2.32
243.368	1.45
243.75	1.53
244.133	2.13
244.515	2.13
244.897	1.95
245.279	2.38
245.661	2.4
246.043	1.8
246.425	1.96
246.807	2.85
247.189	3.27
247.571	1.74
247.953	2.18
248.335	1.89
248.717	1.88
249.098	2.33
249.48	2.08
249.862	1.91
250.243	1.84
250.625	2.47
251.006	2.54
251.388	1.37
251.769	2.51
252.151	2.66
252.532	2.48
252.913	2.19
253.295	2.81
253.676	1.96
254.057	2.12
254.438	1.92
254.819	2.94
255.2	2.54
255.581	2.5
255.962	3.19
256.343	2.64
256.724	2.86
257.105	3.45
257.486	4.01
257.867	3
258.247	2.64
258.628	2.7
259.009	3.23
259.389	2.99
259.77	2.6
260.15	2.41
260.531	2.44
260.911	2.15
261.292	2.05
261.672	1.99
262.052	1.92
262.432	1.92
262.813	2.64
263.193	1.78
263.573	2.03
263.953	2.26
264.333	2.87
264.713	2.09
265.093	2.05
265.473	3.04
265.853	2.06
266.233	2.18
266.612	2.53
266.992	1.75
267.372	1.89
267.752	1.52
268.131	2.24
268.511	2.03
268.89	1.96
269.27	2.54
269.649	2.26
270.029	2.64
270.408	2.01
270.787	2.58
271.167	2.6
271.546	2.19
271.925	3.12
272.304	2.82
272.683	1.84
273.062	2.39
273.441	2
273.82	2.2
274.199	2.25
274.578	2.02
274.957	2.1
275.336	1.64
275.715	2.51
276.093	2.43
276.472	1.79
276.851	2.61
277.229	2.1
277.608	2.57
277.986	2.05
278.365	1.71
278.743	1.94
279.122	2.82
279.5	2.53
279.878	2.23
280.257	2.04
280.635	2.47
281.013	2.99
281.391	2.64
281.769	2.2
282.147	1.88
282.525	2.6
282.903	2.29
283.281	1.68
283.659	2.3
284.037	2.23
284.415	2.31
284.792	2.46
285.17	1.85
285.548	2.32
285.925	2.37
286.303	2.34
286.68	1.66
287.058	2.16
287.435	2.28
287.813	1.89
288.19	2.21
288.567	1.97
288.945	1.83
289.322	2.11
289.699	2.57
290.076	2.03
290.453	1.75
290.83	2.11
291.207	1.8
291.584	2.01
291.961	2.22
292.338	2.15
292.715	2.49
293.092	2.07
293.469	2.48
293.845	3.18
294.222	2.49
294.599	2.83
294.975	2.83
295.352	2.9
295.728	2.54
296.105	2.51
296.481	2.29
296.858	2.68
297.234	2.67
297.61	2.9
297.986	2.06
298.363	2.45
298.739	2.48
299.115	2.39
299.491	2.35
299.867	2.86
300.243	2.55
300.619	2.46
300.995	3.22
301.371	2.77
301.746	2.79
302.122	2.99
302.498	3.13
302.874	2.97
303.249	3.47
303.625	3.15
304	3.09
304.376	3.14
304.751	3.46
305.127	3.11
305.502	3.38
305.878	3.33
306.253	2.99
306.628	3.52
307.003	3.51
307.378	3.21
307.754	3.4
308.129	3.36
308.504	3.78
308.879	3.74
309.254	3.47
309.629	4.13
310.003	3.76
310.378	3.78
310.753	3.59
311.128	3.43
311.502	3.67
311.877	4.15
312.252	4.01
312.626	3.91
313.001	3.92
313.375	3.83
313.75	4.25
314.124	4.28
314.498	3.67
314.873	4.36
315.247	4.03
315.621	4.53
315.995	4.92
316.369	3.99
316.743	4.42
317.117	4.72
317.491	5.34
317.865	5.19
318.239	4.84
318.613	5.31
318.987	4.42
319.361	4.68
319.734	4.65
320.108	5.37
320.482	4.3
320.855	4.96
321.229	5.32
321.602	5.47
321.976	5.27
322.349	5.08
322.723	5.42
323.096	5.76
323.469	5.14
323.843	5.12
324.216	4.95
324.589	5.53
324.962	5.75
325.335	5.46
325.708	5.34
326.081	5.95
326.454	5.1
326.827	5.59
327.2	5.63
327.573	5.54
327.945	5.42
328.318	5.61
328.691	5.89
329.063	5.43
329.436	5.42
329.809	6.2
330.181	5.97
330.553	5.93
330.926	5.92
331.298	5.89
331.671	6.04
332.043	5.59
332.415	5.98
332.787	5.98
333.159	6.07
333.532	6.87
333.904	6.5
334.276	6.2
334.648	6.15
335.02	6.67
335.391	6.54
335.763	5.88
336.135	6.3
336.507	6.59
336.879	6.47
337.25	5.51
337.622	6.74
337.993	6.44
338.365	6.28
338.736	6.35
339.108	7.02
339.479	6.47
339.851	6.17
340.222	7.21
340.593	6.45
340.964	6.47
341.336	6.97
341.707	6.4
342.078	6.9
342.449	7.04
342.82	6.76
343.191	7.15
343.562	6.95
343.933	6.93
344.303	7.24
344.674	7.05
345.045	6.86
345.416	7.5
345.786	6.81
346.157	7.44
346.527	7.37
346.898	7.54
347.268	6.9
347.639	7.07
348.009	7.83
348.38	7.47
348.75	8.03
349.12	7.66
349.49	7.64
349.861	7.55
350.231	7.48
350.601	7.63
350.971	7.68
351.341	7.96
351.711	7.99
352.081	7.71
352.45	7.69
352.82	8.01
353.19	8.17
353.56	7.91
353.929	7.45
354.299	8.25
354.669	8.26
355.038	8.39
355.408	8.36
355.777	8
356.147	7.95
356.516	8.08
356.885	7.95
357.254	8.41
357.624	8.09
357.993	7.84
358.362	8.44
358.731	8.17
359.1	8.29
359.469	8.17
359.838	8.51
360.207	8.21
360.576	8.12
360.945	8.56
361.314	8.64
361.682	8.28
362.051	8.64
362.42	8.73
362.788	8.61
363.157	8.72
363.525	8.38
363.894	8.62
364.262	8.86
364.631	9.24
364.999	8.76
365.367	9.15
365.735	8.95
366.104	8.64
366.472	9.27
366.84	9.12
367.208	9.27
367.576	9.43
367.944	9.07
368.312	9.05
368.68	9.04
369.048	9.21
369.416	9.33
369.783	9.48
370.151	9.25
370.519	9.21
370.886	9.53
371.254	9.41
371.621	9.98
371.989	9.69
372.356	9.83
372.724	9.76
373.091	9.57
373.458	9.32
373.826	10.06
374.193	9.9
374.56	9.83
374.927	10.16
375.294	10.26
375.661	9.65
376.028	9.87
376.395	9.9
376.762	10.08
377.129	10.39
377.496	10.45
377.863	10.01
378.229	10.15
378.596	10.13
378.963	10.16
379.329	10.1
379.696	10.35
380.062	10.27
380.429	10.13
380.795	10.5
381.161	9.98
381.528	10.48
381.894	10.64
382.26	10.47
382.626	10.58
382.993	10.56
383.359	10.62
383.725	10.37
384.091	10.6
384.457	10.78
384.823	11.12
385.188	10.9
385.554	11.04
385.92	11.06
386.286	10.89
386.651	10.88
387.017	10.91
387.383	10.92
387.748	10.72
388.114	11.01
388.479	11.01
388.845	10.91
389.21	11.13
389.575	11.04
389.94	11.23
390.306	11.19
390.671	11.22
391.036	11.52
391.401	11.33
391.766	11.46
392.131	11.54
392.496	11.83
392.861	11.64
393.226	11.44
393.591	11.53
393.956	11.67
394.32	11.47
394.685	11.6
395.05	11.81
395.414	11.52
395.779	11.63
396.143	11.82
396.508	11.6
396.872	11.66
397.236	11.68
397.601	12.01
397.965	11.8
398.329	11.78
398.694	12.25
399.058	12.16
399.422	12.35
399.786	12.01
400.15	12.23
400.514	12.17
400.878	12.05
401.242	12.3
401.605	12.25
401.969	12.17
402.333	12.63
402.697	12.45
403.06	12.6
403.424	12.41
403.787	12.37
404.151	12.58
404.514	12.57
404.878	12.54
405.241	12.81
405.604	12.71
405.968	12.7
406.331	12.57
406.694	12.9
407.057	12.4
407.42	12.88
407.783	12.67
408.146	12.66
408.509	12.95
408.872	12.9
409.235	12.92
409.598	13.08
409.961	13.05
410.323	13.04
410.686	13.36
411.049	13
411.411	13.14
411.774	13.28
412.136	13.37
412.499	13.32
412.861	13.22
413.223	13.12
413.586	13.32
413.948	13.53
414.31	13.55
414.672	13.44
415.035	13.62
415.397	13.83
415.759	13.49
416.121	13.48
416.483	13.6
416.845	13.83
417.206	13.74
417.568	13.73
417.93	13.67
418.292	13.7
418.653	13.56
419.015	13.76
419.377	13.78
419.738	13.71
420.1	13.67
420.461	13.73
420.822	13.64
421.184	13.76
421.545	13.7
421.906	13.72
422.267	13.67
422.629	13.76
422.99	13.68
423.351	13.73
423.712	13.72
424.073	13.91
424.434	13.94
424.795	13.91
425.155	13.99
425.516	13.89
425.877	13.95
426.238	14.04
426.598	14.13
426.959	14.06
427.32	14.26
427.68	14.22
428.041	14.37
428.401	14.34
428.761	14.58
429.122	14.55
429.482	14.63
429.842	14.66
430.202	14.71
430.563	14.82
430.923	14.86
431.283	14.72
431.643	14.88
432.003	14.97
432.363	14.86
432.722	14.79
433.082	15.03
433.442	14.92
433.802	14.88
434.161	14.94
434.521	14.92
434.881	15.07
435.24	15.04
435.6	15.06
435.959	15.01
436.319	15.12
436.678	15.19
437.037	15.24
437.396	15.42
437.756	15.27
438.115	15.21
438.474	15.62
438.833	15.44
439.192	15.3
439.551	15.35
439.91	15.39
440.269	15.42
440.628	15.47
440.987	15.61
441.345	15.52
441.704	15.62
442.063	15.57
442.421	15.51
442.78	15.59
443.138	15.54
443.497	15.74
443.855	15.76
444.214	15.8
444.572	15.86
444.93	15.88
445.288	15.94
445.647	15.95
446.005	15.98
446.363	16.03
446.721	15.89
447.079	15.95
447.437	16.03
447.795	15.83
448.153	15.78
448.51	15.94
448.868	15.85
449.226	15.91
449.584	16.03
449.941	16.13
450.299	16.05
450.656	16.15
451.014	16.44
451.371	16.4
451.729	16.42
452.086	16.6
452.443	16.56
452.801	16.58
453.158	16.37
453.515	16.39
453.872	16.74
454.229	16.81
454.586	16.75
454.943	16.62
455.3	16.69
455.657	16.81
456.014	16.66
456.371	16.93
456.727	16.9
457.084	16.92
457.441	16.89
457.797	17.04
458.154	16.88
458.51	17
458.867	16.97
459.223	17.16
459.58	17.22
459.936	17.28
460.292	17.23
460.648	17.04
461.005	17.12
461.361	17.01
461.717	17
462.073	16.87
462.429	17.04
462.785	17.19
463.141	17.33
463.496	17.23
463.852	17.41
464.208	17.58
464.564	17.52
464.919	17.45
465.275	17.65
465.631	17.81
465.986	17.72
466.342	17.69
466.697	17.89
467.052	17.67
467.408	17.69
467.763	17.91
468.118	17.93
468.473	17.98
468.829	17.99
469.184	17.81
469.539	18.08
469.894	18.14
470.249	17.97
470.603	18.1
470.958	18.13
471.313	18.26
471.668	18.03
472.023	18.19
472.377	18.07
472.732	18.27
473.086	18.12
473.441	18.38
473.795	18.22
474.15	18.26
474.504	18.48
474.859	18.33
475.213	18.35
475.567	18.51
475.921	18.46
476.275	18.44
476.63	18.75
476.984	18.83
477.338	18.72
477.692	18.79
478.045	18.73
478.399	18.86
478.753	18.76
479.107	18.71
479.461	18.61
479.814	18.6
480.168	18.79
480.521	18.69
480.875	18.78
481.228	18.76
481.582	18.81
481.935	18.95
482.289	19.03
482.642	18.79
482.995	18.87
483.348	18.8
483.701	18.84
484.055	18.78
484.408	18.52
484.761	18.49
485.114	18.26
485.466	18.19
485.819	18.14
486.172	18.14
486.525	18.31
486.878	18.4
487.23	18.48
487.583	18.59
487.936	18.79
488.288	18.75
488.641	18.63
488.993	18.54
489.345	18.52
489.698	18.58
490.05	18.65
490.402	18.68
490.754	18.84
491.107	18.97
491.459	19.02
491.811	19.22
492.163	19.48
492.515	19.28
492.866	19.07
493.218	18.96
493.57	18.9
493.922	18.99
494.274	19.06
494.625	19.26
494.977	19.53
495.328	19.67
495.68	19.68
496.031	19.85
496.383	19.89
496.734	20.06
497.086	19.85
497.437	20.17
497.788	20.09
498.139	20.02
498.49	19.93
498.842	19.96
499.193	20.03
499.544	20.01
499.894	20.14
500.245	20.07
500.596	20.22
500.947	20.05
501.298	20.34
501.648	20.31
501.999	20.44
502.35	20.46
502.7	20.41
503.051	20.52
503.401	20.7
503.752	20.48
504.102	20.82
504.452	20.61
504.803	20.77
505.153	20.89
505.503	20.7
505.853	20.88
506.203	20.68
506.553	20.66
506.903	20.9
507.253	20.97
507.603	20.97
507.953	20.91
508.303	21.1
508.652	20.98
509.002	21.01
509.352	21.08
509.701	21.03
510.051	20.97
510.4	21
510.75	20.8
511.099	20.91
511.449	21.01
511.798	20.87
512.147	21.13
512.496	21.03
512.846	21.18
513.195	21.24
513.544	21.2
513.893	21.23
514.242	21.16
514.591	21.2
514.939	21.36
515.288	21.38
515.637	21.23
515.986	21.66
516.334	21.5
516.683	21.43
517.032	21.59
517.38	21.56
517.729	21.72
518.077	21.59
518.426	21.45
518.774	21.72
519.122	21.61
519.47	21.43
519.819	21.46
520.167	21.47
520.515	21.31
520.863	21.56
521.211	21.49
521.559	21.58
521.907	21.71
522.255	21.75
522.602	21.75
522.95	21.92
523.298	21.87
523.645	21.89
523.993	22.14
524.341	22.05
524.688	22.14
525.036	22.04
525.383	22.02
525.73	22.19
526.078	22.2
526.425	22.11
526.772	22.03
527.119	21.87
527.466	21.81
527.814	21.87
528.161	21.79
528.508	22.09
528.854	21.98
529.201	21.95
529.548	21.77
529.895	21.6
530.242	21.6
530.588	21.58
530.935	21.6
531.282	21.63
531.628	21.78
531.975	21.92
532.321	21.96
532.667	22.22
533.014	22.4
533.36	22.3
533.706	22.36
534.052	22.51
534.399	22.27
534.745	22.15
535.091	22.07
535.437	22.21
535.783	22.29
536.129	22.5
536.474	22.32
536.82	22.72
537.166	22.78
537.512	22.88
537.857	22.87
538.203	22.61
538.549	22.62
538.894	22.73
539.239	22.85
539.585	22.94
539.93	22.97
540.276	23.13
540.621	23.35
540.966	23.22
541.311	23.26
541.656	23.32
542.001	23.14
542.346	23.06
542.691	22.82
543.036	22.72
543.381	22.62
543.726	22.7
544.071	22.85
544.415	22.88
544.76	23.04
545.105	23.06
545.449	23.26
545.794	23.33
546.138	23.35
546.483	23.38
546.827	23.5
547.171	23.7
547.516	23.58
547.86	23.65
548.204	23.77
548.548	23.54
548.892	23.51
549.236	23.86
549.58	23.83
549.924	23.92
550.268	24.18
550.612	24.09
550.956	24.11
551.3	24.32
551.643	24.33
551.987	24.15
552.33	24.7
552.674	24.32
553.017	24.31
553.361	24.33
553.704	24.55
554.048	24.34
554.391	24.48
554.734	24.35
555.077	24.52
555.42	24.52
555.764	24.64
556.107	24.66
556.45	24.65
556.793	24.66
557.135	24.79
557.478	24.95
557.821	24.99
558.164	25.17
558.507	25.07
558.849	24.98
559.192	24.75
559.534	24.93
559.877	24.89
560.219	25.18
560.562	25.11
560.904	25
561.246	25.31
561.589	25.03
561.931	25.05
562.273	25.37
562.615	25.25
562.957	25.15
563.299	25.22
563.641	25.08
563.983	25.34
564.325	25.39
564.667	25.57
565.008	25.28
565.35	25.41
565.692	25.6
566.033	25.43
566.375	25.4
566.716	25.47
567.058	25.48
567.399	25.59
567.741	25.36
568.082	25.31
568.423	25.62
568.764	25.44
569.105	25.42
569.447	25.51
569.788	25.69
570.129	25.59
570.47	25.76
570.811	25.67
571.151	25.9
571.492	26.07
571.833	25.77
572.174	25.58
572.514	26.01
572.855	25.93
573.195	25.85
573.536	25.68
573.876	25.74
574.217	25.69
574.557	25.87
574.898	26.02
575.238	26.05
575.578	26.01
575.918	25.81
576.258	26.1
576.598	25.95
576.938	26.05
577.278	26.16
577.618	26.16
577.958	26.3
578.298	26.31
578.638	26.25
578.977	26.47
579.317	26.36
579.657	26.31
579.996	26.42
580.336	26.62
580.675	26.42
581.014	26.49
581.354	26.82
581.693	26.76
582.032	26.54
582.372	26.81
582.711	26.7
583.05	26.97
583.389	26.75
583.728	27.05
584.067	26.91
584.406	26.99
584.745	27.05
585.083	26.83
585.422	26.91
585.761	27.08
586.1	26.95
586.438	27.3
586.777	27.41
587.115	27.17
587.454	27.11
587.792	27.07
588.13	27.22
588.469	27
588.807	27.38
589.145	27.28
589.483	27.39
589.821	27.3
590.159	27.48
590.497	27.24
590.835	27.44
591.173	27.2
591.511	27.36
591.849	27.52
592.187	27.37
592.524	27.53
592.862	27.62
593.2	27.49
593.537	27.34
593.875	27.66
594.212	27.46
594.55	27.75
594.887	27.96
595.224	27.55
595.561	27.63
595.899	27.58
596.236	27.86
596.573	27.78
596.91	27.67
597.247	27.64
597.584	27.6
597.921	27.82
598.258	27.76
598.594	27.59
598.931	27.57
599.268	27.52
599.604	27.59
599.941	27.71
600.277	27.67
600.614	28.03
600.95	28.03
601.287	27.9
601.623	28.04
601.959	28.07
602.296	28.27
602.632	27.94
602.968	28.08
603.304	28.29
603.64	28.22
603.976	28.31
604.312	28.4
604.648	28.16
604.984	28.32
605.319	27.96
605.655	28.09
605.991	28.17
606.326	28
606.662	28.03
606.998	28.15
607.333	28.11
607.668	28.3
608.004	28.46
608.339	28.4
608.674	28.39
609.01	28.38
609.345	28.32
609.68	28.74
610.015	28.66
610.35	28.76
610.685	28.49
611.02	28.46
611.355	28.49
611.689	28.23
612.024	28.73
612.359	28.75
612.694	28.84
613.028	28.83
613.363	28.69
613.697	28.77
614.032	28.59
614.366	29.34
614.7	28.84
615.035	28.95
615.369	28.98
615.703	29.4
616.037	28.98
616.371	29.08
616.705	28.83
617.039	28.94
617.373	29.21
617.707	29.19
618.041	29.75
618.375	29.17
618.709	29.17
619.042	29.1
619.376	29.71
619.71	29.5
620.043	29.4
620.377	29.18
620.71	29.5
621.043	29.67
621.377	29.21
621.71	29.35
622.043	29.31
622.376	29.33
622.709	29.55
623.043	29.59
623.376	29.38
623.709	29.46
624.041	29.4
624.374	29.63
624.707	29.25
625.04	29.93
625.373	29.7
625.705	30.18
626.038	29.85
626.37	29.66
626.703	29.85
627.035	29.53
627.368	30.04
627.7	29.82
628.032	29.61
628.365	29.68
628.697	29.75
629.029	29.84
629.361	29.98
629.693	29.94
630.025	30.17
630.357	29.75
630.689	30.18
631.021	30.09
631.353	29.86
631.684	30.27
632.016	30.14
632.348	29.87
632.679	30.3
633.011	30.33
633.342	29.9
633.674	30.04
634.005	30.33
634.336	30.36
634.668	30.26
634.999	30.33
635.33	30.43
635.661	30.51
635.992	30.29
636.323	30.09
636.654	30.48
636.985	30.31
637.316	30.64
637.647	30.44
637.977	30.64
638.308	30.65
638.639	30.07
638.969	30.34
639.3	30.66
639.63	30.27
639.961	30.31
640.291	30.98
640.622	30.9
640.952	30.75
641.282	30.37
641.612	30.89
641.943	30.85
642.273	30.72
642.603	30.72
642.933	30.2
643.263	31.09
643.592	30.69
643.922	30.43
644.252	31.06
644.582	30.85
644.911	31.21
645.241	31.58
645.571	30.94
645.9	30.71
646.23	30.92
646.559	30.73
646.888	30.69
647.218	31
647.547	31.42
647.876	31.31
648.205	31.05
648.534	30.94
648.863	31.54
649.192	31.27
649.521	31
649.85	31.6
650.179	31.21
650.508	31.24
650.837	31.1
651.165	31.27
651.494	31.53
651.822	31.33
652.151	31.38
652.479	31.29
652.808	31.34
653.136	31.65
653.465	31.13
653.793	31.33
654.121	31
654.449	31.53
654.777	31.98
655.105	31.9
655.433	31.65
655.761	32.07
656.089	31.88
656.417	31.59
656.745	31.09
657.073	31.62
657.4	31.57
657.728	31.65
658.056	31.71
658.383	31.59
658.711	31.88
659.038	31.76
659.365	31.69
659.693	31.82
660.02	31.82
660.347	31.86
660.674	31.63
661.001	31.93
661.329	31.98
661.656	31.95
661.982	31.83
662.309	31.98
662.636	31.92
662.963	32.24
663.29	31.31
663.616	32.07
663.943	32.09
664.27	31.81
664.596	31.79
664.923	32.2
665.249	31.94
665.576	32.73
665.902	32.07
666.228	32.55
666.554	32.55
666.881	31.8
667.207	32.06
667.533	31.81
667.859	32.73
668.185	32.32
668.511	32.12
668.837	32.41
669.162	32.64
669.488	32.18
669.814	32.79
670.139	32.19
670.465	32.64
670.791	32.9
671.116	32.46
671.442	32.07
671.767	32.32
672.092	32.55
672.418	31.69
672.743	32.71
