Data from 1890-1_crown_Reflection__1__127.txt Node

Date: Fri Sep 30 18:48:25 CDT 2022
User: ToomeyLab
Spectrometer: FLMS14357
Trigger mode: 0
Integration Time (sec): 1.000000E-2
Scans to average: 100
Electric dark correction enabled: true
Nonlinearity correction enabled: false
Boxcar width: 0
XAxis mode: Wavelengths
Number of Pixels in Spectrum: 2048
>>>>>Begin Spectral Data<<<<<
189.047	-744.28
189.435	-744.28
189.823	-744.28
190.211	-39.61
190.599	-25.48
190.987	57.3
191.375	83.89
191.763	169.66
192.151	840.12
192.538	-40.45
192.926	-1520.74
193.314	26.55
193.702	10.35
194.089	-1.48
194.477	-83.78
194.864	67.74
195.252	310.55
195.639	-1.05
196.027	96.25
196.414	465.88
196.801	18.41
197.189	192.87
197.576	352.03
197.963	-161.98
198.351	16.7
198.738	-14.45
199.125	37.12
199.512	38.35
199.899	-40.98
200.286	3.94
200.673	23.46
201.06	38.2
201.447	13.47
201.833	32.54
202.22	42.69
202.607	29.13
202.994	71.79
203.38	23.04
203.767	21.29
204.154	30.33
204.54	33.92
204.927	25.9
205.313	-7.35
205.699	24.35
206.086	-16.58
206.472	0.25
206.858	14.86
207.245	7.54
207.631	-4.85
208.017	-21.96
208.403	9.94
208.789	32.96
209.175	52.65
209.561	-5.78
209.947	-10.57
210.333	-43.68
210.719	-19.21
211.105	23.8
211.491	23.26
211.876	-21.18
212.262	-8.77
212.648	8.23
213.034	-4.58
213.419	16.4
213.805	8.81
214.19	24.19
214.576	-4.37
214.961	9.29
215.346	-2.84
215.732	16.48
216.117	-11.34
216.502	8.17
216.888	21.6
217.273	1.32
217.658	21.44
218.043	-1.43
218.428	24.85
218.813	17.88
219.198	19.52
219.583	6.96
219.968	28.4
220.353	8.75
220.738	25.36
221.122	20.13
221.507	11.86
221.892	5.47
222.276	-5.1
222.661	14.26
223.046	7.21
223.43	6.16
223.815	3.96
224.199	14.56
224.583	4.61
224.968	7.15
225.352	1.68
225.736	10.91
226.121	8.05
226.505	-4.69
226.889	9.46
227.273	-0.5
227.657	11.61
228.041	4.5
228.425	6.13
228.809	9.89
229.193	9.45
229.577	6.46
229.961	8.15
230.344	7.48
230.728	7.44
231.112	8.25
231.495	7.15
231.879	9.18
232.263	6.34
232.646	6.61
233.03	8.17
233.413	5.99
233.797	7.95
234.18	7.34
234.563	6.46
234.946	8.38
235.33	5.96
235.713	8.94
236.096	7.73
236.479	7.81
236.862	6.41
237.245	6.64
237.628	7.2
238.011	8
238.394	7.03
238.777	5.68
239.16	8.51
239.543	7.06
239.925	6.04
240.308	5.28
240.691	5.81
241.073	6.55
241.456	8.38
241.838	6.55
242.221	7.21
242.603	7.6
242.986	7
243.368	6.52
243.75	6.75
244.133	7.38
244.515	7.06
244.897	7.38
245.279	7.44
245.661	6.73
246.043	6.58
246.425	6.4
246.807	7.41
247.189	7.77
247.571	7.47
247.953	6.97
248.335	6.88
248.717	6.7
249.098	7.03
249.48	6.66
249.862	6.51
250.243	6.61
250.625	7
251.006	6.86
251.388	5.91
251.769	6.62
252.151	7.52
252.532	7.47
252.913	6.5
253.295	6.43
253.676	6.34
254.057	6.94
254.438	6.69
254.819	6.79
255.2	6.21
255.581	7.75
255.962	7.12
256.343	6.52
256.724	7.78
257.105	8.27
257.486	8.03
257.867	6.49
258.247	7.22
258.628	6.7
259.009	6.82
259.389	6.3
259.77	6.91
260.15	6.41
260.531	7.01
260.911	6.61
261.292	6.14
261.672	6.16
262.052	6.09
262.432	6.17
262.813	6.59
263.193	6.23
263.573	6.34
263.953	5.83
264.333	6.85
264.713	5.78
265.093	5.96
265.473	5.92
265.853	6.83
266.233	6.21
266.612	6.44
266.992	6.42
267.372	6.18
267.752	6.26
268.131	6
268.511	6.08
268.89	5.59
269.27	6.53
269.649	6.35
270.029	6.34
270.408	5.91
270.787	5.89
271.167	6.08
271.546	6.07
271.925	6.69
272.304	6.14
272.683	6.05
273.062	6.03
273.441	5.86
273.82	5.45
274.199	6.07
274.578	5.48
274.957	6.06
275.336	5.77
275.715	5.65
276.093	5.92
276.472	5.59
276.851	5.86
277.229	5.73
277.608	5.76
277.986	5.85
278.365	6.03
278.743	5.6
279.122	6.32
279.5	5.66
279.878	5.91
280.257	6
280.635	6.28
281.013	6.18
281.391	5.67
281.769	5.43
282.147	5.49
282.525	6.01
282.903	5.65
283.281	5.73
283.659	5.81
284.037	5.39
284.415	6.11
284.792	5.63
285.17	5.09
285.548	5.96
285.925	5.6
286.303	5.6
286.68	5.11
287.058	5.55
287.435	5.52
287.813	5.53
288.19	5.58
288.567	5.42
288.945	5.03
289.322	4.82
289.699	5.82
290.076	5.35
290.453	5.73
290.83	5.32
291.207	5.2
291.584	5.38
291.961	5.49
292.338	5.54
292.715	5.65
293.092	5.1
293.469	5.27
293.845	5.85
294.222	5.43
294.599	5.85
294.975	5.46
295.352	5.02
295.728	5.45
296.105	5.62
296.481	5.08
296.858	5.46
297.234	5.64
297.61	5.08
297.986	4.68
298.363	5.35
298.739	5.01
299.115	5.03
299.491	5.26
299.867	5.24
300.243	5.06
300.619	4.9
300.995	5.57
301.371	4.74
301.746	5.05
302.122	5.5
302.498	5.31
302.874	4.92
303.249	5.02
303.625	5.24
304	5.33
304.376	5.29
304.751	5.39
305.127	5.38
305.502	5.5
305.878	5.1
306.253	4.74
306.628	5.24
307.003	4.72
307.378	5.23
307.754	4.77
308.129	4.97
308.504	5.05
308.879	5.09
309.254	4.86
309.629	4.97
310.003	4.76
310.378	4.82
310.753	5.12
311.128	4.78
311.502	5.26
311.877	5.33
312.252	5.16
312.626	5.16
313.001	4.82
313.375	5.09
313.75	5.37
314.124	4.98
314.498	4.74
314.873	4.95
315.247	4.72
315.621	5.13
315.995	5.32
316.369	4.97
316.743	4.84
317.117	5.4
317.491	5.68
317.865	5.82
318.239	5.16
318.613	5.29
318.987	4.69
319.361	4.78
319.734	4.44
320.108	5.2
320.482	5.2
320.855	5.05
321.229	5.32
321.602	4.51
321.976	5.02
322.349	4.78
322.723	4.61
323.096	5.33
323.469	4.98
323.843	5.33
324.216	4.81
324.589	5.34
324.962	5
325.335	4.93
325.708	4.87
326.081	5.3
326.454	4.53
326.827	4.66
327.2	4.95
327.573	5.01
327.945	5.12
328.318	4.83
328.691	4.98
329.063	4.79
329.436	5
329.809	5.81
330.181	5.21
330.553	4.66
330.926	5.01
331.298	5.12
331.671	5.24
332.043	5.36
332.415	4.77
332.787	4.68
333.159	4.51
333.532	5.47
333.904	5.14
334.276	5.35
334.648	4.85
335.02	5.18
335.391	4.96
335.763	4.9
336.135	5.12
336.507	5.12
336.879	4.81
337.25	4.41
337.622	5.29
337.993	4.89
338.365	4.63
338.736	5.37
339.108	4.87
339.479	4.98
339.851	4.61
340.222	5.42
340.593	4.84
340.964	4.84
341.336	5.03
341.707	4.81
342.078	5.39
342.449	5.17
342.82	5.21
343.191	5
343.562	5.02
343.933	4.94
344.303	4.93
344.674	4.93
345.045	4.33
345.416	4.96
345.786	4.92
346.157	5.65
346.527	5.36
346.898	5.43
347.268	4.9
347.639	4.73
348.009	5.14
348.38	5.25
348.75	5.66
349.12	5.63
349.49	5.24
349.861	4.74
350.231	5.19
350.601	5.05
350.971	5.01
351.341	5.25
351.711	5.01
352.081	5.07
352.45	5.01
352.82	5.16
353.19	5.23
353.56	4.9
353.929	4.7
354.299	5.31
354.669	4.94
355.038	5.09
355.408	5.51
355.777	5.08
356.147	4.98
356.516	5.51
356.885	4.95
357.254	5.33
357.624	5.56
357.993	4.85
358.362	5.37
358.731	5.01
359.1	5.33
359.469	4.98
359.838	5.43
360.207	5.32
360.576	5.46
360.945	5.36
361.314	5.31
361.682	5.22
362.051	5.13
362.42	5.35
362.788	5.3
363.157	5.27
363.525	5.04
363.894	5.37
364.262	5.51
364.631	5.59
364.999	5.3
365.367	5.56
365.735	5.13
366.104	5.19
366.472	5.52
366.84	5.77
367.208	5.71
367.576	5.89
367.944	5.53
368.312	5.16
368.68	5.28
369.048	5.53
369.416	5.64
369.783	5.32
370.151	5.49
370.519	5.42
370.886	5.52
371.254	5.64
371.621	5.74
371.989	5.57
372.356	5.32
372.724	5.62
373.091	5.14
373.458	5.36
373.826	5.71
374.193	5.49
374.56	5.31
374.927	5.76
375.294	5.69
375.661	5.3
376.028	5.48
376.395	5.63
376.762	5.46
377.129	5.63
377.496	5.34
377.863	5.59
378.229	6.11
378.596	5.41
378.963	5.76
379.329	5.69
379.696	5.59
380.062	5.75
380.429	5.54
380.795	5.63
381.161	5.55
381.528	5.65
381.894	5.5
382.26	5.25
382.626	5.2
382.993	5.68
383.359	5.39
383.725	5.12
384.091	5.69
384.457	5.87
384.823	5.68
385.188	5.81
385.554	5.73
385.92	5.82
386.286	5.74
386.651	5.84
387.017	5.85
387.383	5.67
387.748	5.43
388.114	5.86
388.479	5.89
388.845	5.53
389.21	5.61
389.575	5.76
389.94	5.6
390.306	5.74
390.671	5.81
391.036	5.88
391.401	5.73
391.766	5.62
392.131	5.64
392.496	5.79
392.861	5.84
393.226	5.77
393.591	5.59
393.956	5.96
394.32	5.85
394.685	5.66
395.05	5.85
395.414	5.93
395.779	5.7
396.143	5.83
396.508	5.67
396.872	5.73
397.236	5.89
397.601	5.85
397.965	5.78
398.329	5.66
398.694	6.09
399.058	5.88
399.422	6.06
399.786	5.74
400.15	5.81
400.514	5.94
400.878	5.77
401.242	5.88
401.605	5.92
401.969	5.79
402.333	6.05
402.697	5.96
403.06	6
403.424	5.88
403.787	6.09
404.151	6.24
404.514	6.06
404.878	5.9
405.241	5.84
405.604	6.1
405.968	5.95
406.331	6.04
406.694	5.95
407.057	5.92
407.42	5.93
407.783	5.88
408.146	5.83
408.509	5.98
408.872	5.91
409.235	5.8
409.598	6.2
409.961	5.85
410.323	6.19
410.686	6.09
411.049	5.91
411.411	6.01
411.774	6.05
412.136	6.24
412.499	5.9
412.861	5.82
413.223	5.92
413.586	5.92
413.948	6.43
414.31	6.14
414.672	6.05
415.035	6.11
415.397	6.15
415.759	5.92
416.121	6.01
416.483	6.03
416.845	6.12
417.206	5.94
417.568	6.07
417.93	5.86
418.292	6.04
418.653	6.1
419.015	5.98
419.377	5.96
419.738	5.79
420.1	6.05
420.461	6.08
420.822	6.04
421.184	5.84
421.545	5.89
421.906	5.86
422.267	5.85
422.629	5.87
422.99	5.83
423.351	5.87
423.712	5.79
424.073	5.85
424.434	5.99
424.795	5.87
425.155	5.78
425.516	5.98
425.877	6.02
426.238	5.86
426.598	5.99
426.959	5.91
427.32	5.92
427.68	5.97
428.041	6.01
428.401	5.97
428.761	6.19
429.122	6.07
429.482	5.98
429.842	6.02
430.202	6.04
430.563	6.24
430.923	5.9
431.283	5.99
431.643	6.11
432.003	6.06
432.363	6.22
432.722	6.26
433.082	6.28
433.442	6.14
433.802	6.12
434.161	5.98
434.521	6.11
434.881	6.03
435.24	6.02
435.6	6.14
435.959	6.06
436.319	6.11
436.678	6.08
437.037	6.25
437.396	6.09
437.756	5.92
438.115	6.14
438.474	6.2
438.833	6.09
439.192	6.07
439.551	5.99
439.91	6.07
440.269	6.01
440.628	6.13
440.987	6.09
441.345	6.11
441.704	6
442.063	6.08
442.421	5.99
442.78	6.05
443.138	5.96
443.497	6.05
443.855	6.16
444.214	6.05
444.572	6.23
444.93	6.12
445.288	6.03
445.647	6.09
446.005	6.13
446.363	6.24
446.721	6.04
447.079	6.11
447.437	6.09
447.795	5.93
448.153	5.96
448.51	6
448.868	6.01
449.226	6.06
449.584	6.16
449.941	6.07
450.299	6.11
450.656	6.1
451.014	6.4
451.371	6.16
451.729	6.17
452.086	6.25
452.443	6.11
452.801	6.09
453.158	6
453.515	6.06
453.872	6.21
454.229	6.1
454.586	6.26
454.943	6.17
455.3	6.23
455.657	6.35
456.014	6.14
456.371	6.14
456.727	6.21
457.084	6.01
457.441	6.3
457.797	6.34
458.154	5.96
458.51	6.15
458.867	6.18
459.223	6.12
459.58	6.21
459.936	6.3
460.292	6.19
460.648	6.17
461.005	6.09
461.361	6.08
461.717	6.08
462.073	6.03
462.429	6.12
462.785	6.16
463.141	6.21
463.496	6.09
463.852	6.29
464.208	6.22
464.564	6.14
464.919	6.13
465.275	6.2
465.631	6.34
465.986	6.13
466.342	6.36
466.697	6.23
467.052	6.23
467.408	6.08
467.763	6
468.118	6.23
468.473	6.26
468.829	6.09
469.184	6.22
469.539	6.25
469.894	6.3
470.249	6.21
470.603	6.21
470.958	6.33
471.313	6.25
471.668	6.29
472.023	6.25
472.377	6.21
472.732	6.14
473.086	6.16
473.441	6.26
473.795	6.16
474.15	6.32
474.504	6.26
474.859	6.29
475.213	6.28
475.567	6.2
475.921	6.12
476.275	6.18
476.63	6.1
476.984	6.19
477.338	6.14
477.692	6.33
478.045	6.25
478.399	6.15
478.753	6.27
479.107	6.12
479.461	6.1
479.814	6.12
480.168	6.17
480.521	6.14
480.875	6.35
481.228	6.17
481.582	6.19
481.935	6.32
482.289	6.19
482.642	6.12
482.995	6.13
483.348	6.23
483.701	6.13
484.055	6.07
484.408	6
484.761	5.94
485.114	5.83
485.466	5.81
485.819	5.82
486.172	5.86
486.525	5.86
486.878	5.9
487.23	5.98
487.583	5.95
487.936	6
488.288	6.02
488.641	5.92
488.993	5.88
489.345	5.87
489.698	5.85
490.05	5.91
490.402	5.95
490.754	6.03
491.107	6.03
491.459	6.08
491.811	6.08
492.163	6.15
492.515	6.05
492.866	6
493.218	5.91
493.57	5.89
493.922	5.97
494.274	5.99
494.625	6.09
494.977	6.06
495.328	6.13
495.68	6.18
496.031	6.24
496.383	6.24
496.734	6.34
497.086	6.16
497.437	6.15
497.788	6.21
498.139	6.02
498.49	6.01
498.842	6.11
499.193	6.1
499.544	6.09
499.894	6.17
500.245	6.06
500.596	6.13
500.947	6.09
501.298	6.34
501.648	6.12
501.999	6.2
502.35	6.12
502.7	6.04
503.051	6.23
503.401	6.24
503.752	6.18
504.102	6.28
504.452	6.11
504.803	6.15
505.153	6.31
505.503	6.12
505.853	6.16
506.203	5.95
506.553	6.12
506.903	6.15
507.253	6.13
507.603	6.15
507.953	6.18
508.303	6.34
508.652	6.19
509.002	6.24
509.352	6.27
509.701	6.16
510.051	6.24
510.4	6.1
510.75	6.13
511.099	5.98
511.449	6.09
511.798	6.08
512.147	6.19
512.496	6.12
512.846	6.06
513.195	6.07
513.544	6.16
513.893	6.14
514.242	6.16
514.591	6.24
514.939	6.12
515.288	6.16
515.637	6.17
515.986	6.05
516.334	6.06
516.683	6.06
517.032	6.09
517.38	6.11
517.729	6.3
518.077	6.14
518.426	6.16
518.774	6.11
519.122	6.1
519.47	6.06
519.819	6.13
520.167	6.08
520.515	6.09
520.863	6.04
521.211	6.06
521.559	6.1
521.907	6.16
522.255	6.05
522.602	6.12
522.95	6.15
523.298	6.15
523.645	6.11
523.993	6.19
524.341	6.19
524.688	6.13
525.036	6.22
525.383	6.08
525.73	6.18
526.078	6.28
526.425	6.05
526.772	6.07
527.119	5.94
527.466	6.02
527.814	6.01
528.161	5.97
528.508	6.04
528.854	5.98
529.201	5.96
529.548	5.91
529.895	5.84
530.242	5.81
530.588	5.84
530.935	5.83
531.282	5.8
531.628	5.88
531.975	5.92
532.321	5.9
532.667	5.99
533.014	5.98
533.36	6.03
533.706	6.06
534.052	6.1
534.399	5.86
534.745	5.89
535.091	5.89
535.437	5.95
535.783	5.97
536.129	6
536.474	6.01
536.82	5.98
537.166	6.09
537.512	6.02
537.857	6.04
538.203	5.95
538.549	5.99
538.894	6
539.239	6.01
539.585	5.93
539.93	6.04
540.276	6.07
540.621	6.22
540.966	6.21
541.311	6.11
541.656	6.12
542.001	6.01
542.346	6.03
542.691	5.85
543.036	5.9
543.381	5.85
543.726	5.82
544.071	5.9
544.415	5.85
544.76	5.89
545.105	5.97
545.449	5.98
545.794	5.94
546.138	5.99
546.483	6.05
546.827	6
547.171	6.02
547.516	5.92
547.86	5.97
548.204	6.01
548.548	6.02
548.892	5.98
549.236	6.01
549.58	6.1
549.924	6.23
550.268	6.02
550.612	6.09
550.956	6.08
551.3	6.14
551.643	6.11
551.987	6.04
552.33	6.15
552.674	6.22
553.017	6.08
553.361	5.99
553.704	6.31
554.048	6
554.391	6.11
554.734	6.05
555.077	6.31
555.42	6.26
555.764	6.08
556.107	6.09
556.45	6.19
556.793	6.03
557.135	6.19
557.478	6.03
557.821	6.1
558.164	6.22
558.507	6.35
558.849	6.14
559.192	6.07
559.534	6.11
559.877	6.12
560.219	6.14
560.562	6.27
560.904	6.11
561.246	6.11
561.589	5.93
561.931	6.09
562.273	6.1
562.615	6.28
562.957	6.26
563.299	6.15
563.641	6.12
563.983	5.91
564.325	6.2
564.667	6.26
565.008	6.04
565.35	6
565.692	6.19
566.033	6.01
566.375	5.98
566.716	6.2
567.058	6.1
567.399	6.01
567.741	6.02
568.082	6.19
568.423	6.11
568.764	5.95
569.105	6.02
569.447	5.93
569.788	6.2
570.129	6.16
570.47	6.11
570.811	6.13
571.151	6.09
571.492	6.21
571.833	6.13
572.174	5.87
572.514	6.18
572.855	6.03
573.195	6.16
573.536	6.1
573.876	5.97
574.217	5.89
574.557	6.04
574.898	5.99
575.238	6.17
575.578	6.18
575.918	6
576.258	6.14
576.598	6.01
576.938	6.13
577.278	6.15
577.618	6.03
577.958	6.08
578.298	6.2
578.638	6.16
578.977	6.21
579.317	6.03
579.657	6.23
579.996	5.91
580.336	6.35
580.675	6.17
581.014	6
581.354	6.07
581.693	6.26
582.032	6.14
582.372	6.06
582.711	5.96
583.05	6.05
583.389	6.12
583.728	6.11
584.067	6.14
584.406	6.09
584.745	6.25
585.083	5.88
585.422	6.33
585.761	6.12
586.1	6.03
586.438	6.27
586.777	6.4
587.115	6.18
587.454	6.13
587.792	5.74
588.13	6.21
588.469	6.07
588.807	6.2
589.145	5.76
589.483	6.2
589.821	6.01
590.159	6.14
590.497	5.98
590.835	6.19
591.173	6.09
591.511	5.81
591.849	6.28
592.187	6.09
592.524	6.04
592.862	6.2
593.2	6.17
593.537	5.89
593.875	6.21
594.212	5.91
594.55	6.2
594.887	6.28
595.224	6.14
595.561	6.05
595.899	6.09
596.236	6.03
596.573	5.91
596.91	6.1
597.247	5.83
597.584	5.95
597.921	5.96
598.258	5.84
598.594	5.82
598.931	6.1
599.268	5.8
599.604	5.86
599.941	5.85
600.277	5.69
600.614	5.84
600.95	6.02
601.287	5.81
601.623	5.95
601.959	6.07
602.296	6.09
602.632	5.94
602.968	6.27
603.304	6.02
603.64	5.95
603.976	6.01
604.312	5.83
604.648	6.11
604.984	6.03
605.319	5.98
605.655	6.04
605.991	6.09
606.326	5.94
606.662	5.87
606.998	5.9
607.333	5.91
607.668	5.72
608.004	6.01
608.339	5.68
608.674	5.97
609.01	5.75
609.345	5.77
609.68	6.13
610.015	6.18
610.35	5.78
610.685	5.65
611.02	5.77
611.355	5.56
611.689	5.86
612.024	6
612.359	6.11
612.694	5.85
613.028	5.92
613.363	5.81
613.697	5.82
614.032	5.97
614.366	5.84
614.7	5.84
615.035	6.22
615.369	5.94
615.703	5.79
616.037	5.85
616.371	5.88
616.705	5.48
617.039	6.04
617.373	5.94
617.707	5.79
618.041	5.62
618.375	6.1
618.709	5.96
619.042	5.64
619.376	6.14
619.71	5.88
620.043	6.3
620.377	6.12
620.71	5.89
621.043	6.11
621.377	6.15
621.71	5.76
622.043	6.03
622.376	5.64
622.709	5.73
623.043	5.87
623.376	5.57
623.709	5.85
624.041	5.66
624.374	5.96
624.707	5.6
625.04	5.94
625.373	6.15
625.705	5.95
626.038	5.82
626.37	6.02
626.703	5.86
627.035	5.98
627.368	6.03
627.7	5.67
628.032	5.91
628.365	5.64
628.697	5.9
629.029	5.63
629.361	5.76
629.693	6.04
630.025	5.8
630.357	5.87
630.689	5.77
631.021	5.69
631.353	5.93
631.684	5.92
632.016	6.11
632.348	5.77
632.679	5.6
633.011	6.03
633.342	5.88
633.674	6.11
634.005	6.1
634.336	5.9
634.668	5.64
634.999	5.97
635.33	6.08
635.661	5.83
635.992	5.83
636.323	6
636.654	5.49
636.985	5.72
637.316	6.27
637.647	5.8
637.977	6.07
638.308	5.86
638.639	5.5
638.969	5.7
639.3	5.81
639.63	5.51
639.961	5.98
640.291	5.71
640.622	5.91
640.952	5.93
641.282	5.83
641.612	6.06
641.943	5.67
642.273	6.16
642.603	5.28
642.933	5.23
643.263	5.89
643.592	5.85
643.922	5.56
644.252	6.14
644.582	5.66
644.911	6.5
645.241	6.04
645.571	5.96
645.9	6
646.23	5.5
646.559	5.56
646.888	5.72
647.218	5.6
647.547	5.54
647.876	5.73
648.205	5.75
648.534	5.47
648.863	5.84
649.192	5.63
649.521	5.86
649.85	5.81
650.179	5.45
650.508	5.2
650.837	6.07
651.165	5.69
651.494	5.79
651.822	6.2
652.151	6.01
652.479	6.04
652.808	5.65
653.136	5.86
653.465	5.54
653.793	5.65
654.121	5.51
654.449	5.78
654.777	5.56
655.105	5.93
655.433	6.13
655.761	6.41
656.089	6.21
656.417	5.77
656.745	5.6
657.073	5.72
657.4	5.91
657.728	6.14
658.056	5.38
658.383	6.04
658.711	5.74
659.038	5.39
659.365	5.74
659.693	5.33
660.02	5.75
660.347	5.89
660.674	5.73
661.001	5.89
661.329	5.83
661.656	5.7
661.982	5.87
662.309	6.31
662.636	6.04
662.963	5.47
663.29	5.2
663.616	5.64
663.943	5.6
664.27	5.75
664.596	5.21
664.923	5.85
665.249	6.14
665.576	6.18
665.902	5.85
666.228	6.18
666.554	5.65
666.881	6.38
667.207	5.87
667.533	5.51
667.859	6.28
668.185	5.59
668.511	5.6
668.837	5.73
669.162	5.65
669.488	5.19
669.814	5.93
670.139	5.57
670.465	5.75
670.791	5.64
671.116	5.39
671.442	5.9
671.767	5.8
672.092	5.58
672.418	5.26
672.743	5.65
673.068	5.86
673.393	5.71
673.718	4.97
674.043	6.32
674.368	5.82
674.693	5.35
675.018	5.78
675.343	5.53
675.667	5.79
675.992	6.41
676.317	5.71
676.641	5.88
676.966	5.64
677.29	5.36
677.615	5.53
677.939	5.93
678.264	5.21
678.588	6.01
678.912	6.03
679.236	5.93
679.56	6.21
679.885	6.16
680.209	5.36
680.532	5.77
680.856	5.49
681.18	5.83
681.504	5.57
681.828	5.66
682.152	5.55
682.475	5.87
682.799	5.01
683.122	5.68
683.446	5.76
683.769	6.67
684.093	6.17
684.416	5.77
684.739	5.83
685.062	5.49
685.386	5.91
685.709	5.75
686.032	5.8
686.355	5.84
686.678	5.76
687.001	5.69
687.324	5.58
687.646	4.99
687.969	5.67
688.292	5.91
688.614	5.31
688.937	5.56
689.26	5.19
689.582	5.25
689.904	5.77
690.227	5.87
690.549	5.13
690.871	6.47
691.194	5.82
691.516	5.8
691.838	5.46
692.16	6.3
692.482	6.09
692.804	6.06
693.126	5.34
693.448	5.38
