Data from 1890-1_forehead_Reflection__4__135.txt Node

Date: Fri Sep 30 18:50:27 CDT 2022
User: ToomeyLab
Spectrometer: FLMS14357
Trigger mode: 0
Integration Time (sec): 1.000000E-2
Scans to average: 100
Electric dark correction enabled: true
Nonlinearity correction enabled: false
Boxcar width: 0
XAxis mode: Wavelengths
Number of Pixels in Spectrum: 2048
>>>>>Begin Spectral Data<<<<<
189.047	-575.32
189.435	-575.32
189.823	-575.32
190.211	-50.87
190.599	65.27
190.987	75.95
191.375	206.68
191.763	4.44
192.151	-259.88
192.538	627.1
192.926	958.52
193.314	56.58
193.702	4.88
194.089	-117.74
194.477	-14.16
194.864	165.42
195.252	-21.72
195.639	51.15
196.027	-110.49
196.414	0.32
196.801	124.5
197.189	-97.55
197.576	153.82
197.963	-597.44
198.351	8.63
198.738	31.7
199.125	80.03
199.512	32.52
199.899	37.77
200.286	61.02
200.673	48.91
201.06	42.44
201.447	44.9
201.833	50.26
202.22	57.46
202.607	73.81
202.994	73.41
203.38	19.16
203.767	13.81
204.154	34.67
204.54	63.01
204.927	58.57
205.313	56.18
205.699	28.9
206.086	9.84
206.472	41.39
206.858	35.57
207.245	16.07
207.631	0.92
208.017	1.22
208.403	48.25
208.789	26.22
209.175	49.03
209.561	5.84
209.947	34.75
210.333	-18.09
210.719	12.87
211.105	28.04
211.491	41.26
211.876	32.21
212.262	49.91
212.648	34.6
213.034	-10.27
213.419	51.37
213.805	21.42
214.19	17.97
214.576	14.27
214.961	22.72
215.346	32
215.732	8.24
216.117	58.45
216.502	54.81
216.888	31.62
217.273	22.08
217.658	37.48
218.043	3.48
218.428	40.49
218.813	14.99
219.198	24.48
219.583	27.08
219.968	38.65
220.353	12.13
220.738	30.29
221.122	22.53
221.507	19.04
221.892	27
222.276	-7.98
222.661	24.11
223.046	7.17
223.43	-0.46
223.815	8.56
224.199	10.92
224.583	11.03
224.968	21.01
225.352	11.4
225.736	22.31
226.121	15.91
226.505	11.07
226.889	7.95
227.273	7.37
227.657	11.29
228.041	2.23
228.425	10.44
228.809	6.07
229.193	7.17
229.577	2.92
229.961	5.34
230.344	5.05
230.728	4.27
231.112	4.53
231.495	4.14
231.879	5.44
232.263	4.18
232.646	5.34
233.03	5.16
233.413	4.98
233.797	6.04
234.18	5.39
234.563	7.04
234.946	5.94
235.33	5.78
235.713	6.46
236.096	4.04
236.479	6.12
236.862	5.87
237.245	7.4
237.628	4.94
238.011	7.02
238.394	5.69
238.777	3.82
239.16	4.84
239.543	4.42
239.925	3.79
240.308	4.29
240.691	6.38
241.073	5.47
241.456	5.2
241.838	5.29
242.221	4.55
242.603	5.71
242.986	5.61
243.368	4.1
243.75	4.35
244.133	4.61
244.515	4.55
244.897	4.84
245.279	5.55
245.661	4.97
246.043	5
246.425	4.78
246.807	4.97
247.189	5.04
247.571	5.44
247.953	5.11
248.335	4.44
248.717	4.42
249.098	4.52
249.48	4.51
249.862	4.74
250.243	4.25
250.625	4.95
251.006	4.68
251.388	4
251.769	5.26
252.151	5.45
252.532	4.8
252.913	4.59
253.295	5.18
253.676	4.42
254.057	4.73
254.438	4.36
254.819	5.78
255.2	5.63
255.581	5.88
255.962	5.35
256.343	4.98
256.724	6.34
257.105	5.44
257.486	6.29
257.867	5.7
258.247	5.09
258.628	5.07
259.009	5.3
259.389	4.97
259.77	5.82
260.15	4.89
260.531	5.38
260.911	4.64
261.292	4.39
261.672	4.4
262.052	4.32
262.432	4.3
262.813	4.99
263.193	3.76
263.573	4.58
263.953	4.54
264.333	4.79
264.713	4.18
265.093	4.89
265.473	5.39
265.853	5.34
266.233	4.58
266.612	5.76
266.992	4.36
267.372	4.14
267.752	4.52
268.131	5.15
268.511	4.8
268.89	4.33
269.27	4.84
269.649	4.15
270.029	4.86
270.408	4.07
270.787	4.41
271.167	4.9
271.546	4.48
271.925	5.44
272.304	4.71
272.683	4.26
273.062	4.38
273.441	4.42
273.82	4.24
274.199	4.42
274.578	4.17
274.957	4.38
275.336	4.57
275.715	4.63
276.093	4.5
276.472	4.37
276.851	4.04
277.229	4.34
277.608	4.31
277.986	4.99
278.365	4.93
278.743	4.05
279.122	4.91
279.5	4.93
279.878	4.4
280.257	4.41
280.635	4.64
281.013	4.91
281.391	4.47
281.769	4.83
282.147	4.6
282.525	4.61
282.903	4.85
283.281	4.37
283.659	4.58
284.037	4.3
284.415	4.95
284.792	4.92
285.17	4.73
285.548	4.33
285.925	4.72
286.303	4.24
286.68	4.28
287.058	4.46
287.435	4.41
287.813	4.38
288.19	4.56
288.567	4.39
288.945	4.27
289.322	4.59
289.699	4.84
290.076	4.5
290.453	4.85
290.83	4.89
291.207	4.62
291.584	4.76
291.961	4.73
292.338	4.9
292.715	4.96
293.092	4.38
293.469	4.83
293.845	5.43
294.222	4.84
294.599	5.62
294.975	5.23
295.352	5.17
295.728	4.64
296.105	5.35
296.481	5.22
296.858	5.7
297.234	5.33
297.61	5.04
297.986	4.89
298.363	5.35
298.739	5.26
299.115	5.17
299.491	5.51
299.867	5.24
300.243	5.47
300.619	5.35
300.995	6.01
301.371	5.69
301.746	5.98
302.122	6.17
302.498	6.35
302.874	5.94
303.249	6.2
303.625	6.21
304	6.28
304.376	5.88
304.751	6.51
305.127	6.63
305.502	6.27
305.878	6.79
306.253	6.61
306.628	6.72
307.003	6.42
307.378	6.97
307.754	7.34
308.129	7.17
308.504	6.75
308.879	7.45
309.254	6.78
309.629	6.95
310.003	6.87
310.378	6.69
310.753	6.9
311.128	7.1
311.502	7.5
311.877	7.35
312.252	7.33
312.626	7.51
313.001	7.64
313.375	7.54
313.75	8.02
314.124	7.77
314.498	7.47
314.873	7.9
315.247	8.26
315.621	7.65
315.995	8.69
316.369	8.29
316.743	8.73
317.117	9.31
317.491	9.03
317.865	9.11
318.239	8.95
318.613	8.72
318.987	8.73
319.361	8.84
319.734	8.94
320.108	9.53
320.482	8.93
320.855	9.38
321.229	9.5
321.602	9.82
321.976	9.76
322.349	10.09
322.723	9.37
323.096	10.1
323.469	9.83
323.843	9.53
324.216	10.04
324.589	10.44
324.962	10.05
325.335	10.01
325.708	10.05
326.081	10.69
326.454	10.44
326.827	10.04
327.2	10.43
327.573	10.33
327.945	10.31
328.318	10.11
328.691	10.9
329.063	10.56
329.436	10.89
329.809	11.12
330.181	11.09
330.553	10.9
330.926	11.19
331.298	11.48
331.671	11.03
332.043	11.08
332.415	11.32
332.787	11.03
333.159	11.25
333.532	11.66
333.904	11.31
334.276	11.67
334.648	11.43
335.02	11.65
335.391	11.92
335.763	11.33
336.135	11.82
336.507	12.23
336.879	12.15
337.25	11.47
337.622	12.38
337.993	11.97
338.365	12.08
338.736	12.23
339.108	12.38
339.479	12.47
339.851	12.36
340.222	12.39
340.593	12.2
340.964	12.73
341.336	12.54
341.707	12.43
342.078	12.96
342.449	12.8
342.82	12.89
343.191	12.68
343.562	13.2
343.933	13.34
344.303	13.21
344.674	13.01
345.045	12.79
345.416	13.18
345.786	13.21
346.157	13.67
346.527	13.39
346.898	13.3
347.268	12.97
347.639	13.24
348.009	13.57
348.38	14.12
348.75	14.18
349.12	13.55
349.49	14.04
349.861	13.7
350.231	13.87
350.601	13.98
350.971	13.92
351.341	13.81
351.711	13.91
352.081	13.78
352.45	14.57
352.82	14.11
353.19	14.72
353.56	14.36
353.929	14.26
354.299	14.52
354.669	14.65
355.038	14.91
355.408	14.73
355.777	14.17
356.147	14.6
356.516	15.27
356.885	14.57
357.254	15.38
357.624	14.72
357.993	14.58
358.362	15.23
358.731	15.24
359.1	15.19
359.469	15.42
359.838	15.1
360.207	15.27
360.576	15.35
360.945	15.61
361.314	15.24
361.682	15.67
362.051	15.72
362.42	15.5
362.788	15.61
363.157	15.59
363.525	15.45
363.894	15.46
364.262	15.78
364.631	16
364.999	15.81
365.367	16.06
365.735	15.93
366.104	15.78
366.472	16.38
366.84	16.54
367.208	16.56
367.576	16.81
367.944	16
368.312	16.75
368.68	16.7
369.048	16.43
369.416	16.8
369.783	16.39
370.151	16.79
370.519	16.84
370.886	17.15
371.254	16.83
371.621	17.15
371.989	17.24
372.356	17.4
372.724	16.93
373.091	17
373.458	17.14
373.826	17.66
374.193	17.42
374.56	17.73
374.927	18.18
375.294	17.65
375.661	17.48
376.028	17.87
376.395	17.41
376.762	17.64
377.129	18.27
377.496	18
377.863	17.86
378.229	18.12
378.596	18.05
378.963	18.23
379.329	17.95
379.696	18.27
380.062	18.4
380.429	18.39
380.795	18.07
381.161	18.14
381.528	18.52
381.894	18.17
382.26	18.72
382.626	18.67
382.993	18.76
383.359	18.73
383.725	18.21
384.091	18.94
384.457	19.1
384.823	19.14
385.188	19.12
385.554	19.12
385.92	19.22
386.286	19.26
386.651	19.25
387.017	19.26
387.383	19.2
387.748	19.14
388.114	19.46
388.479	19.26
388.845	19.31
389.21	19.46
389.575	19.72
389.94	19.69
390.306	19.97
390.671	19.9
391.036	19.66
391.401	19.85
391.766	19.92
392.131	19.94
392.496	20.2
392.861	20.23
393.226	20.15
393.591	20.23
393.956	20.21
394.32	20.48
394.685	20.28
395.05	20.63
395.414	20.37
395.779	20.59
396.143	20.48
396.508	20.63
396.872	20.54
397.236	20.37
397.601	20.68
397.965	21.07
398.329	20.69
398.694	20.83
399.058	21.17
399.422	20.97
399.786	21.04
400.15	20.92
400.514	20.88
400.878	21.16
401.242	21.24
401.605	21.2
401.969	21.38
402.333	21.3
402.697	21.45
403.06	21.55
403.424	21.45
403.787	21.69
404.151	21.74
404.514	21.89
404.878	21.46
405.241	21.73
405.604	21.83
405.968	21.89
406.331	21.81
406.694	21.89
407.057	21.89
407.42	22.01
407.783	21.95
408.146	22
408.509	22.11
408.872	22.16
409.235	22.13
409.598	22.49
409.961	22.21
410.323	22.43
410.686	22.65
411.049	22.43
411.411	22.63
411.774	22.66
412.136	22.67
412.499	22.61
412.861	22.59
413.223	22.93
413.586	22.58
413.948	23.04
414.31	23.18
414.672	23.04
415.035	22.92
415.397	23.32
415.759	23.29
416.121	23.2
416.483	23.15
416.845	23.38
417.206	23.39
417.568	23.32
417.93	23.13
418.292	23.62
418.653	23.32
419.015	23.37
419.377	23.45
419.738	23.33
420.1	23.46
420.461	23.42
420.822	23.45
421.184	23.5
421.545	23.49
421.906	23.28
422.267	23.42
422.629	23.49
422.99	23.37
423.351	23.45
423.712	23.54
424.073	23.67
424.434	23.84
424.795	23.83
425.155	23.87
425.516	23.79
425.877	23.87
426.238	23.81
426.598	24.02
426.959	24.11
427.32	24.18
427.68	24.26
428.041	24.44
428.401	24.49
428.761	24.6
429.122	24.77
429.482	24.72
429.842	24.77
430.202	24.88
430.563	25.21
430.923	24.91
431.283	25.06
431.643	25.17
432.003	25.21
432.363	25.26
432.722	25.32
433.082	25.58
433.442	25.35
433.802	25.59
434.161	25.34
434.521	25.27
434.881	25.37
435.24	25.47
435.6	25.54
435.959	25.55
436.319	25.55
436.678	25.62
437.037	25.86
437.396	26.01
437.756	25.98
438.115	25.72
438.474	26.05
438.833	26.13
439.192	26.07
439.551	26.02
439.91	26.06
440.269	26
440.628	25.99
440.987	26.24
441.345	26.07
441.704	26.1
442.063	26.18
442.421	26.1
442.78	26.32
443.138	26.12
443.497	26.31
443.855	26.5
444.214	26.36
444.572	26.82
444.93	26.51
445.288	26.69
445.647	26.81
446.005	26.8
446.363	26.96
446.721	26.76
447.079	26.74
447.437	26.85
447.795	26.66
448.153	26.75
448.51	26.68
448.868	26.77
449.226	26.85
449.584	26.9
449.941	27.06
450.299	27.02
450.656	27.19
451.014	27.44
451.371	27.59
451.729	27.45
452.086	27.75
452.443	27.7
452.801	27.64
453.158	27.71
453.515	27.8
453.872	27.87
454.229	27.91
454.586	27.97
454.943	27.73
455.3	27.95
455.657	28.25
456.014	28.07
456.371	28.06
456.727	28.05
457.084	28.34
457.441	28.2
457.797	28.31
458.154	28.38
458.51	28.53
458.867	28.81
459.223	28.81
459.58	28.67
459.936	28.73
460.292	28.59
460.648	28.41
461.005	28.46
461.361	28.4
461.717	28.04
462.073	28.17
462.429	28.61
462.785	28.63
463.141	28.76
463.496	28.86
463.852	29.15
464.208	29.14
464.564	29.13
464.919	29.14
465.275	29.1
465.631	29.51
465.986	29.27
466.342	29.38
466.697	29.2
467.052	29.64
467.408	29.6
467.763	29.41
468.118	29.61
468.473	29.76
468.829	29.49
469.184	29.79
469.539	29.69
469.894	29.89
470.249	29.79
470.603	29.76
470.958	30.05
471.313	29.91
471.668	29.89
472.023	30.08
472.377	30.09
472.732	30.21
473.086	30.15
473.441	30.3
473.795	30.29
474.15	30.3
474.504	30.43
474.859	30.4
475.213	30.28
475.567	30.42
475.921	30.56
476.275	30.46
476.63	30.51
476.984	30.75
477.338	30.5
477.692	30.81
478.045	30.7
478.399	30.54
478.753	30.71
479.107	30.86
479.461	30.7
479.814	30.74
480.168	30.84
480.521	30.85
480.875	30.94
481.228	31.07
481.582	30.95
481.935	31.36
482.289	31.21
482.642	31
482.995	31.11
483.348	31.13
483.701	30.87
484.055	30.88
484.408	30.69
484.761	30.61
485.114	30.35
485.466	30.29
485.819	30.34
486.172	30.28
486.525	30.33
486.878	30.39
487.23	30.64
487.583	30.82
487.936	31.06
488.288	31.07
488.641	30.85
488.993	30.8
489.345	30.79
489.698	30.78
490.05	30.78
490.402	30.99
490.754	31.14
491.107	31.31
491.459	31.47
491.811	31.67
492.163	31.81
492.515	31.67
492.866	31.57
493.218	31.32
493.57	31.37
493.922	31.34
494.274	31.58
494.625	31.8
494.977	31.9
495.328	32.22
495.68	32.34
496.031	32.6
496.383	32.56
496.734	32.85
497.086	32.63
497.437	32.76
497.788	32.86
498.139	32.73
498.49	32.58
498.842	32.63
499.193	32.72
499.544	32.77
499.894	32.75
500.245	32.85
500.596	32.98
500.947	33.12
501.298	33.24
501.648	33.12
501.999	33.43
502.35	33.27
502.7	33.37
503.051	33.45
503.401	33.68
503.752	33.39
504.102	33.76
504.452	33.79
504.803	33.82
505.153	33.99
505.503	33.67
505.853	33.71
506.203	33.62
506.553	33.65
506.903	33.81
507.253	33.99
507.603	34.03
507.953	34.05
508.303	34.3
508.652	34.16
509.002	34.23
509.352	34.32
509.701	34.23
510.051	34.14
510.4	34.09
510.75	34.01
511.099	34.23
511.449	34.03
511.798	34.09
512.147	34.37
512.496	34.29
512.846	34.35
513.195	34.39
513.544	34.2
513.893	34.36
514.242	34.38
514.591	34.61
514.939	34.64
515.288	34.71
515.637	34.62
515.986	34.76
516.334	34.98
516.683	34.8
517.032	34.98
517.38	34.99
517.729	35.18
518.077	34.97
518.426	35.08
518.774	35.2
519.122	35.17
519.47	34.89
519.819	34.87
520.167	34.84
520.515	34.72
520.863	34.74
521.211	34.93
521.559	35.02
521.907	35.16
522.255	35.19
522.602	35.49
522.95	35.55
523.298	35.7
523.645	35.4
523.993	35.74
524.341	35.86
524.688	35.76
525.036	35.76
525.383	35.83
525.73	35.88
526.078	35.99
526.425	35.9
526.772	35.66
527.119	35.36
527.466	35.4
527.814	35.34
528.161	35.36
528.508	35.64
528.854	35.58
529.201	35.59
529.548	35.5
529.895	35.13
530.242	35.18
530.588	35.32
530.935	35.23
531.282	35.18
531.628	35.37
531.975	35.56
532.321	35.69
532.667	35.84
533.014	36.03
533.36	36.21
533.706	36.25
534.052	36.2
534.399	36.04
534.745	35.9
535.091	35.84
535.437	36.01
535.783	36.02
536.129	36.26
536.474	36.4
536.82	36.54
537.166	36.61
537.512	36.7
537.857	36.75
538.203	36.5
538.549	36.54
538.894	36.51
539.239	36.8
539.585	36.92
539.93	37.18
540.276	37.06
540.621	37.37
540.966	37.38
541.311	37.49
541.656	37.49
542.001	37.24
542.346	37.13
542.691	36.91
543.036	36.65
543.381	36.68
543.726	36.74
544.071	36.73
544.415	36.89
544.76	37.08
545.105	37.21
545.449	37.35
545.794	37.44
546.138	37.53
546.483	37.71
546.827	37.91
547.171	37.96
547.516	37.92
547.86	37.91
548.204	38.06
548.548	37.68
548.892	38.05
549.236	37.99
549.58	38.27
549.924	38.29
550.268	38.55
550.612	38.54
550.956	38.75
551.3	38.87
551.643	38.86
551.987	38.67
552.33	38.98
552.674	38.79
553.017	39.06
553.361	38.84
553.704	39.02
554.048	38.89
554.391	39.06
554.734	39.02
555.077	39.12
555.42	39.25
555.764	39.11
556.107	39.2
556.45	39.35
556.793	39.21
557.135	39.18
557.478	39.57
557.821	39.4
558.164	39.44
558.507	39.69
558.849	39.54
559.192	39.57
559.534	39.57
559.877	39.86
560.219	39.68
560.562	39.92
560.904	39.78
561.246	39.87
561.589	39.89
561.931	39.88
562.273	39.84
562.615	40.21
562.957	39.9
563.299	39.95
563.641	39.86
563.983	40.19
564.325	40.19
564.667	40.39
565.008	40.09
565.35	40.31
565.692	40.42
566.033	40.27
566.375	40.34
566.716	40.47
567.058	40.39
567.399	40.34
567.741	40.39
568.082	40.36
568.423	40.29
568.764	40.34
569.105	40.44
569.447	40.62
569.788	40.56
570.129	40.68
570.47	40.83
570.811	40.51
571.151	40.95
571.492	40.99
571.833	40.79
572.174	40.88
572.514	40.92
572.855	41.03
573.195	40.83
573.536	40.83
573.876	40.86
574.217	40.65
574.557	40.93
574.898	40.9
575.238	41.1
575.578	41.29
575.918	41.03
576.258	41.25
576.598	41.37
576.938	41.18
577.278	41.26
577.618	41.62
577.958	41.27
578.298	41.55
578.638	41.53
578.977	41.57
579.317	41.58
579.657	41.75
579.996	41.66
580.336	41.94
580.675	41.8
581.014	42.08
581.354	42.07
581.693	42.05
582.032	42.15
582.372	42.4
582.711	42.47
583.05	42.4
583.389	42.4
583.728	42.35
584.067	42.67
584.406	42.75
584.745	42.32
585.083	42.3
585.422	42.67
585.761	42.59
586.1	42.96
586.438	42.91
586.777	43.2
587.115	42.79
587.454	42.81
587.792	42.61
588.13	42.92
588.469	42.66
588.807	43.17
589.145	42.92
589.483	43.17
589.821	42.94
590.159	43.19
590.497	42.93
590.835	42.79
591.173	42.74
591.511	42.65
591.849	42.72
592.187	42.93
592.524	43.24
592.862	43.51
593.2	43.36
593.537	43.17
593.875	43.32
594.212	43.45
594.55	43.68
594.887	43.48
595.224	43.29
595.561	43.36
595.899	43.35
596.236	43.34
596.573	43.61
596.91	43.6
597.247	43.26
597.584	43.53
597.921	43.68
598.258	43.31
598.594	43.56
598.931	43.51
599.268	43.46
599.604	43.51
599.941	43.4
600.277	43.59
600.614	43.69
600.95	44.03
601.287	43.71
601.623	44.11
601.959	44.01
602.296	44.36
602.632	44.37
602.968	44.41
603.304	44.05
603.64	44.41
603.976	44.27
604.312	44.23
604.648	44.63
604.984	44.39
605.319	44.23
605.655	43.9
605.991	44.25
606.326	43.95
606.662	44.13
606.998	43.8
607.333	44.08
607.668	44.16
608.004	44.56
608.339	44.5
608.674	44.73
609.01	44.71
609.345	44.39
609.68	44.87
610.015	44.84
610.35	44.96
610.685	44.55
611.02	44.31
611.355	44.6
611.689	44.42
612.024	44.6
612.359	44.63
612.694	44.99
613.028	44.92
613.363	44.97
613.697	44.89
614.032	44.92
614.366	45.39
614.7	45.23
615.035	45.07
615.369	45.32
615.703	45.15
616.037	45.39
616.371	45.29
616.705	45.55
617.039	45.71
617.373	45.51
617.707	45.57
618.041	45.75
618.375	45.44
618.709	45.94
619.042	45.61
619.376	45.71
619.71	45.72
620.043	46.2
620.377	46.44
620.71	45.99
621.043	46.4
621.377	45.51
621.71	45.75
622.043	45.68
622.376	45.93
622.709	45.98
623.043	46.27
623.376	46.37
623.709	46.19
624.041	46.42
624.374	46.24
624.707	45.74
625.04	46.59
625.373	46.36
625.705	46.4
626.038	46.37
626.37	46.17
626.703	46.8
627.035	46.18
627.368	46.15
627.7	46.59
628.032	46.28
628.365	46.56
628.697	46.34
629.029	46.31
629.361	46.67
629.693	46.72
630.025	46.23
630.357	46.51
630.689	46.7
631.021	46.46
631.353	46.59
631.684	46.93
632.016	46.85
632.348	47.1
632.679	46.98
633.011	46.89
633.342	46.9
633.674	46.75
634.005	46.82
634.336	46.95
634.668	47
634.999	46.74
635.33	47.41
635.661	46.98
635.992	46.79
636.323	47.11
636.654	46.69
636.985	46.98
637.316	47.65
637.647	47.18
637.977	47.45
638.308	47.43
638.639	46.9
638.969	47.2
639.3	47.24
639.63	47.04
639.961	47.54
640.291	47.64
640.622	47.43
640.952	47.42
641.282	47.8
641.612	47.96
641.943	47.51
642.273	47.23
642.603	47.62
642.933	48.08
643.263	47.91
643.592	47.86
643.922	47.35
644.252	47.62
644.582	48.12
644.911	48.86
645.241	48.11
645.571	47.66
645.9	48.32
646.23	48.03
646.559	47.59
646.888	48.01
647.218	48.04
647.547	47.81
647.876	48.01
648.205	48.63
648.534	47.82
648.863	47.9
649.192	48.57
649.521	48.63
649.85	48.28
650.179	48.41
650.508	48.06
650.837	48.55
651.165	48.13
651.494	47.89
651.822	48.07
652.151	48.48
652.479	48.3
652.808	48.26
653.136	48.07
653.465	48.18
653.793	48.17
654.121	48.67
654.449	48.68
654.777	48.54
655.105	48.68
655.433	48.58
655.761	49.57
656.089	48.9
656.417	48.6
656.745	48.42
657.073	48.75
657.4	48.51
657.728	49
658.056	49.15
658.383	48.56
658.711	49.13
659.038	48.48
659.365	48.46
659.693	48.99
660.02	48.58
660.347	48.92
660.674	49.04
661.001	49.24
661.329	49.26
661.656	49.1
661.982	49.3
662.309	49.55
662.636	49.04
662.963	49.15
663.29	48.46
663.616	49.47
663.943	49.03
664.27	48.81
664.596	49.23
664.923	49.29
665.249	49.8
665.576	49.55
665.902	49.5
666.228	49.52
666.554	49.2
666.881	49.01
667.207	49.18
667.533	49.94
667.859	49.83
668.185	49.73
668.511	50.4
668.837	50.03
669.162	49.85
669.488	49.58
669.814	48.98
