Data from 1890-1_crown_Reflection__2__128.txt Node

Date: Fri Sep 30 18:48:35 CDT 2022
User: ToomeyLab
Spectrometer: FLMS14357
Trigger mode: 0
Integration Time (sec): 1.000000E-2
Scans to average: 100
Electric dark correction enabled: true
Nonlinearity correction enabled: false
Boxcar width: 0
XAxis mode: Wavelengths
Number of Pixels in Spectrum: 2048
>>>>>Begin Spectral Data<<<<<
189.047	-477.68
189.435	-477.68
189.823	-477.68
190.211	98.73
190.599	53.43
190.987	93.93
191.375	59.44
191.763	127.98
192.151	-493.41
192.538	-290.76
192.926	-551.11
193.314	-25.24
193.702	144.27
194.089	197.31
194.477	-237.84
194.864	106.69
195.252	237.44
195.639	91.24
196.027	36.42
196.414	281.83
196.801	22.8
197.189	83.51
197.576	159.51
197.963	1147.6
198.351	13.57
198.738	-38.13
199.125	43.09
199.512	22.3
199.899	14.17
200.286	14.73
200.673	44.64
201.06	14.79
201.447	39.75
201.833	34.86
202.22	23.91
202.607	27.9
202.994	67.48
203.38	38.99
203.767	-9.76
204.154	44.76
204.54	16.57
204.927	41.18
205.313	-43.3
205.699	19.24
206.086	41.87
206.472	-1.27
206.858	20.37
207.245	7.06
207.631	1.94
208.017	-29.76
208.403	40.66
208.789	19.65
209.175	12.55
209.561	-11.23
209.947	21.78
210.333	-52.94
210.719	6.24
211.105	-4.8
211.491	14.44
211.876	24.86
212.262	31.23
212.648	25.13
213.034	-13.36
213.419	33.18
213.805	21.22
214.19	10.44
214.576	-29.45
214.961	-16.5
215.346	14.6
215.732	-7.93
216.117	-7.24
216.502	0.35
216.888	12.41
217.273	6.78
217.658	19.17
218.043	-5.98
218.428	-4.48
218.813	24.23
219.198	5.35
219.583	29.63
219.968	9.16
220.353	14.34
220.738	6.7
221.122	19.3
221.507	18.63
221.892	12.55
222.276	-0.82
222.661	20.75
223.046	-1.93
223.43	0.17
223.815	8.69
224.199	13.86
224.583	-7.31
224.968	1.85
225.352	8.66
225.736	12.09
226.121	4.48
226.505	-1.93
226.889	4.3
227.273	7.74
227.657	10.38
228.041	7.52
228.425	9.13
228.809	8.19
229.193	6.8
229.577	5.66
229.961	6.55
230.344	5.1
230.728	4.84
231.112	5.62
231.495	4.75
231.879	7.32
232.263	5.48
232.646	3.53
233.03	6.98
233.413	5.25
233.797	6.02
234.18	5.25
234.563	5.8
234.946	5.57
235.33	4.58
235.713	6.26
236.096	5.78
236.479	5.34
236.862	6.24
237.245	5.61
237.628	4.97
238.011	7.85
238.394	5.76
238.777	4.33
239.16	4.24
239.543	4.69
239.925	6.63
240.308	5.08
240.691	6.63
241.073	7.15
241.456	4.96
241.838	6.41
242.221	5.72
242.603	5.79
242.986	5.69
243.368	4.16
243.75	5.25
244.133	5.66
244.515	5.38
244.897	5.48
245.279	4.86
245.661	5.34
246.043	5.18
246.425	5.13
246.807	5.59
247.189	5.51
247.571	5.85
247.953	5.56
248.335	4.98
248.717	5.3
249.098	5.24
249.48	5.15
249.862	5.06
250.243	5
250.625	5.75
251.006	5.14
251.388	3.86
251.769	6.59
252.151	6.34
252.532	6.01
252.913	5.06
253.295	5.19
253.676	4.62
254.057	5.29
254.438	4.8
254.819	6.36
255.2	5.29
255.581	6.72
255.962	5.78
256.343	5.11
256.724	6.22
257.105	5.75
257.486	5.51
257.867	6.14
258.247	4.97
258.628	5.95
259.009	5.62
259.389	5.18
259.77	5.35
260.15	5.4
260.531	5.2
260.911	4.92
261.292	4.87
261.672	5.03
262.052	4.87
262.432	4.84
262.813	5.28
263.193	4.6
263.573	5.02
263.953	4.74
264.333	5.33
264.713	4.19
265.093	4.15
265.473	4.33
265.853	4.58
266.233	4.51
266.612	4.83
266.992	4.84
267.372	4.3
267.752	4.61
268.131	4.7
268.511	4.57
268.89	4.88
269.27	4.99
269.649	4.69
270.029	4.77
270.408	4.69
270.787	4.94
271.167	4.83
271.546	4.93
271.925	5.17
272.304	4.42
272.683	4.89
273.062	4.96
273.441	4.48
273.82	4.48
274.199	4.9
274.578	4.58
274.957	4.34
275.336	4.5
275.715	4.54
276.093	5.13
276.472	4.33
276.851	4.84
277.229	5.01
277.608	5.12
277.986	4.44
278.365	4.92
278.743	4.66
279.122	5.19
279.5	5.46
279.878	4.78
280.257	4.81
280.635	4.96
281.013	5.41
281.391	4.71
281.769	5.03
282.147	4.81
282.525	5.21
282.903	4.46
283.281	4.47
283.659	5.07
284.037	4.44
284.415	5.03
284.792	4.86
285.17	4.2
285.548	4.91
285.925	4.69
286.303	4.55
286.68	3.99
287.058	4.82
287.435	4.46
287.813	4.82
288.19	4.85
288.567	4.84
288.945	3.91
289.322	4.7
289.699	4.7
290.076	4.83
290.453	4.77
290.83	4.84
291.207	4.16
291.584	4.3
291.961	4.34
292.338	4.86
292.715	5.27
293.092	4.12
293.469	4.68
293.845	5.47
294.222	5.1
294.599	5.08
294.975	4.21
295.352	4.66
295.728	4.94
296.105	4.38
296.481	4.65
296.858	5.03
297.234	4.77
297.61	4.53
297.986	4.58
298.363	4.69
298.739	4.43
299.115	4.48
299.491	4.67
299.867	4.74
300.243	4.51
300.619	4.58
300.995	5.66
301.371	4.81
301.746	4.45
302.122	4.76
302.498	4.83
302.874	4.93
303.249	5.01
303.625	4.97
304	5.06
304.376	4.62
304.751	4.72
305.127	4.6
305.502	4.83
305.878	4.8
306.253	4.43
306.628	4.67
307.003	4.83
307.378	4.53
307.754	4.68
308.129	4.93
308.504	4.71
308.879	4.8
309.254	4.54
309.629	4.82
310.003	4.58
310.378	4.5
310.753	4.55
311.128	4.23
311.502	4.79
311.877	4.82
312.252	4.9
312.626	4.65
313.001	4.83
313.375	4.57
313.75	4.9
314.124	4.94
314.498	4.42
314.873	4.81
315.247	4.73
315.621	5.02
315.995	5.18
316.369	4.46
316.743	4.59
317.117	5.3
317.491	5.8
317.865	5.57
318.239	5
318.613	5.12
318.987	4.82
319.361	5.01
319.734	4.3
320.108	5.01
320.482	4.68
320.855	4.76
321.229	4.76
321.602	5.1
321.976	4.67
322.349	4.67
322.723	5.08
323.096	5.48
323.469	5.26
323.843	5.02
324.216	5.28
324.589	4.48
324.962	5.35
325.335	4.71
325.708	4.81
326.081	5.14
326.454	5.34
326.827	4.87
327.2	4.79
327.573	4.85
327.945	4.96
328.318	4.9
328.691	5.07
329.063	4.67
329.436	4.99
329.809	4.93
330.181	5
330.553	4.65
330.926	4.69
331.298	5.07
331.671	5.19
332.043	4.93
332.415	5.21
332.787	4.77
333.159	5.43
333.532	5.26
333.904	5.36
334.276	5.26
334.648	4.3
335.02	5.03
335.391	5.18
335.763	5.15
336.135	5.33
336.507	5.23
336.879	5.17
337.25	4.75
337.622	5.11
337.993	5
338.365	5.28
338.736	4.95
339.108	4.67
339.479	5.12
339.851	4.72
340.222	5.31
340.593	5.16
340.964	4.54
341.336	5.09
341.707	4.71
342.078	5.01
342.449	5.17
342.82	4.89
343.191	4.85
343.562	5.32
343.933	5
344.303	5.03
344.674	5.34
345.045	4.9
345.416	4.91
345.786	5.21
346.157	5.44
346.527	4.98
346.898	5
347.268	4.83
347.639	4.93
348.009	5.17
348.38	5.61
348.75	5.73
349.12	4.92
349.49	5.42
349.861	5
350.231	5.17
350.601	5.41
350.971	4.94
351.341	5.37
351.711	5.23
352.081	4.96
352.45	5.52
352.82	5.36
353.19	5.69
353.56	4.92
353.929	4.84
354.299	5.34
354.669	4.99
355.038	5.23
355.408	5.55
355.777	5.24
356.147	5.15
356.516	5.43
356.885	4.99
357.254	5.21
357.624	5.3
357.993	4.97
358.362	5.07
358.731	4.91
359.1	5.14
359.469	5
359.838	5.74
360.207	5.39
360.576	5.36
360.945	5.4
361.314	5.22
361.682	5.12
362.051	5.43
362.42	5.37
362.788	5.28
363.157	5.3
363.525	5.03
363.894	5.24
364.262	5.35
364.631	5.84
364.999	5.27
365.367	5.35
365.735	4.98
366.104	5.03
366.472	5.7
366.84	5.62
367.208	5.6
367.576	5.79
367.944	5.26
368.312	5.35
368.68	5.33
369.048	5.3
369.416	5.63
369.783	5.5
370.151	5.53
370.519	5.33
370.886	5.61
371.254	5.64
371.621	5.58
371.989	5.76
372.356	5.67
372.724	5.74
373.091	5.53
373.458	5.36
373.826	5.66
374.193	5.82
374.56	5.64
374.927	5.9
375.294	5.94
375.661	5.19
376.028	5.45
376.395	5.32
376.762	5.36
377.129	6.22
377.496	5.61
377.863	5.51
378.229	5.93
378.596	5.68
378.963	5.61
379.329	5.41
379.696	5.63
380.062	5.75
380.429	5.64
380.795	5.51
381.161	5.81
381.528	5.81
381.894	5.69
382.26	5.52
382.626	5.41
382.993	5.58
383.359	5.58
383.725	5.66
384.091	5.72
384.457	5.91
384.823	5.68
385.188	5.7
385.554	5.87
385.92	5.83
386.286	5.87
386.651	5.9
387.017	5.59
387.383	5.85
387.748	5.57
388.114	5.72
388.479	5.73
388.845	5.73
389.21	5.79
389.575	6.06
389.94	5.63
390.306	6.28
390.671	5.73
391.036	6
391.401	5.66
391.766	6.09
392.131	5.66
392.496	5.76
392.861	6.03
393.226	5.75
393.591	5.84
393.956	5.99
394.32	5.7
394.685	5.76
395.05	5.98
395.414	5.81
395.779	5.76
396.143	6.11
396.508	5.91
396.872	6.02
397.236	5.8
397.601	6.02
397.965	5.92
398.329	5.87
398.694	6
399.058	5.98
399.422	6.1
399.786	6.05
400.15	5.97
400.514	6.06
400.878	5.97
401.242	5.91
401.605	6.07
401.969	6.09
402.333	5.96
402.697	6.07
403.06	6
403.424	6.07
403.787	6.36
404.151	6.33
404.514	5.94
404.878	6.02
405.241	6.07
405.604	6.1
405.968	6.11
406.331	6.17
406.694	6.17
407.057	6.18
407.42	5.97
407.783	6
408.146	5.93
408.509	6.2
408.872	6.34
409.235	6.29
409.598	6.4
409.961	6.37
410.323	6.59
410.686	6.2
411.049	6.15
411.411	6.3
411.774	6.3
412.136	6.54
412.499	6.11
412.861	6.06
413.223	6.16
413.586	6.24
413.948	6.26
414.31	6.35
414.672	6.2
415.035	6.35
415.397	6.43
415.759	6.3
416.121	6.26
416.483	6.14
416.845	6.31
417.206	6.4
417.568	6.39
417.93	6.22
418.292	6.25
418.653	6.11
419.015	6.14
419.377	6.29
419.738	6.21
420.1	6.24
420.461	6.23
420.822	6.11
421.184	6.17
421.545	6.05
421.906	6.11
422.267	6.1
422.629	6.15
422.99	6.17
423.351	6.14
423.712	6.23
424.073	6.27
424.434	6.36
424.795	6.3
425.155	6.27
425.516	6.14
425.877	6.3
426.238	6.19
426.598	6.27
426.959	6.27
427.32	6.41
427.68	6.44
428.041	6.37
428.401	6.5
428.761	6.53
429.122	6.41
429.482	6.35
429.842	6.27
430.202	6.28
430.563	6.46
430.923	6.42
431.283	6.36
431.643	6.62
432.003	6.32
432.363	6.55
432.722	6.62
433.082	6.54
433.442	6.39
433.802	6.48
434.161	6.35
434.521	6.42
434.881	6.25
435.24	6.48
435.6	6.48
435.959	6.48
436.319	6.54
436.678	6.46
437.037	6.6
437.396	6.63
437.756	6.51
438.115	6.43
438.474	6.54
438.833	6.55
439.192	6.68
439.551	6.63
439.91	6.43
440.269	6.29
440.628	6.49
440.987	6.5
441.345	6.48
441.704	6.55
442.063	6.54
442.421	6.56
442.78	6.65
443.138	6.43
443.497	6.66
443.855	6.61
444.214	6.56
444.572	6.6
444.93	6.55
445.288	6.62
445.647	6.69
446.005	6.52
446.363	6.73
446.721	6.5
447.079	6.51
447.437	6.51
447.795	6.43
448.153	6.47
448.51	6.5
448.868	6.52
449.226	6.63
449.584	6.5
449.941	6.67
450.299	6.72
450.656	6.74
451.014	6.83
451.371	6.8
451.729	6.67
452.086	6.77
452.443	6.86
452.801	6.85
453.158	6.73
453.515	6.67
453.872	6.78
454.229	6.87
454.586	6.91
454.943	6.82
455.3	6.87
455.657	7.06
456.014	6.48
456.371	6.9
456.727	7.02
457.084	6.73
457.441	6.96
457.797	6.68
458.154	6.65
458.51	6.83
458.867	6.66
459.223	6.81
459.58	6.83
459.936	6.94
460.292	6.89
460.648	6.67
461.005	6.73
461.361	6.57
461.717	6.61
462.073	6.75
462.429	6.81
462.785	6.97
463.141	7.09
463.496	6.88
463.852	6.94
464.208	7.05
464.564	6.75
464.919	7.03
465.275	6.88
465.631	7.09
465.986	6.98
466.342	7
466.697	6.91
467.052	7.01
467.408	7.09
467.763	6.8
468.118	6.99
468.473	6.93
468.829	6.89
469.184	6.99
469.539	7.18
469.894	7.11
470.249	7.14
470.603	7.02
470.958	7.05
471.313	7.01
471.668	7.16
472.023	6.95
472.377	7
472.732	7.15
473.086	6.93
473.441	7.11
473.795	7
474.15	7.03
474.504	7.04
474.859	7.07
475.213	7.11
475.567	7.16
475.921	7.02
476.275	7.07
476.63	7.16
476.984	7.1
477.338	7.13
477.692	7.1
478.045	7.12
478.399	7.1
478.753	7.21
479.107	7.1
479.461	7.08
479.814	7.11
480.168	7.12
480.521	7.08
480.875	7.14
481.228	7.11
481.582	7.14
481.935	7.17
482.289	7.17
482.642	7.03
482.995	7.1
483.348	7.05
483.701	7.05
484.055	6.92
484.408	6.78
484.761	6.74
485.114	6.48
485.466	6.46
485.819	6.57
486.172	6.84
486.525	6.98
486.878	7.08
487.23	7.06
487.583	7.06
487.936	7.08
488.288	6.99
488.641	6.77
488.993	6.8
489.345	6.73
489.698	6.83
490.05	6.93
490.402	7.02
490.754	7.13
491.107	7.21
491.459	7.14
491.811	7.19
492.163	7.22
492.515	7.01
492.866	6.87
493.218	6.7
493.57	6.81
493.922	7.05
494.274	7.21
494.625	7.27
494.977	7.35
495.328	7.36
495.68	7.32
496.031	7.38
496.383	7.36
496.734	7.4
497.086	7.31
497.437	7.29
497.788	7.28
498.139	7.23
498.49	7.22
498.842	7.23
499.193	7.36
499.544	7.38
499.894	7.34
500.245	7.31
500.596	7.4
500.947	7.32
501.298	7.49
501.648	7.5
501.999	7.44
502.35	7.34
502.7	7.58
503.051	7.37
503.401	7.45
503.752	7.41
504.102	7.53
504.452	7.39
504.803	7.57
505.153	7.59
505.503	7.38
505.853	7.38
506.203	7.38
506.553	7.42
506.903	7.52
507.253	7.54
507.603	7.61
507.953	7.55
508.303	7.64
508.652	7.53
509.002	7.58
509.352	7.69
509.701	7.42
510.051	7.61
510.4	7.44
510.75	7.51
511.099	7.42
511.449	7.53
511.798	7.42
512.147	7.5
512.496	7.57
512.846	7.47
513.195	7.61
513.544	7.47
513.893	7.58
514.242	7.54
514.591	7.63
514.939	7.57
515.288	7.66
515.637	7.53
515.986	7.66
516.334	7.64
516.683	7.57
517.032	7.6
517.38	7.59
517.729	7.73
518.077	7.69
518.426	7.61
518.774	7.62
519.122	7.59
519.47	7.48
519.819	7.54
520.167	7.48
520.515	7.45
520.863	7.48
521.211	7.73
521.559	7.67
521.907	7.61
522.255	7.72
522.602	7.8
522.95	7.8
523.298	7.88
523.645	7.71
523.993	7.84
524.341	7.95
524.688	7.73
525.036	7.69
525.383	7.61
525.73	7.76
526.078	7.71
526.425	7.56
526.772	7.6
527.119	7.46
527.466	7.49
527.814	7.55
528.161	7.61
528.508	7.69
528.854	7.64
529.201	7.57
529.548	7.47
529.895	7.24
530.242	7.14
530.588	7.29
530.935	7.5
531.282	7.63
531.628	7.79
531.975	7.79
532.321	7.76
532.667	7.78
533.014	7.85
533.36	7.76
533.706	7.77
534.052	7.71
534.399	7.51
534.745	7.43
535.091	7.4
535.437	7.6
535.783	7.75
536.129	7.91
536.474	7.94
536.82	8.04
537.166	7.96
537.512	7.81
537.857	7.83
538.203	7.69
538.549	7.6
538.894	7.72
539.239	7.99
539.585	8.04
539.93	8.01
540.276	8.1
540.621	7.96
540.966	8.03
541.311	7.81
541.656	7.92
542.001	7.79
542.346	7.79
542.691	7.52
543.036	7.46
543.381	7.58
543.726	7.78
544.071	7.91
544.415	7.94
544.76	7.93
545.105	7.9
545.449	7.99
545.794	8.09
546.138	8.06
546.483	8.19
546.827	8.09
547.171	8.07
547.516	8.04
547.86	8.05
548.204	8.03
548.548	7.92
548.892	7.98
549.236	8.1
549.58	8.28
549.924	8.22
550.268	8.33
550.612	8.41
550.956	8.3
551.3	8.25
551.643	8.33
551.987	8.26
552.33	8.38
552.674	8.45
553.017	8.21
553.361	8.11
553.704	8.23
554.048	8.17
554.391	8.25
554.734	8.04
555.077	8.33
555.42	8.45
555.764	8.51
556.107	8.45
556.45	8.48
556.793	8.32
557.135	8.31
557.478	8.44
557.821	8.44
558.164	8.54
558.507	8.55
558.849	8.52
559.192	8.4
559.534	8.62
559.877	8.35
560.219	8.41
560.562	8.41
560.904	8.25
561.246	8.46
561.589	8.29
561.931	8.31
562.273	8.57
562.615	8.4
562.957	8.49
563.299	8.52
563.641	8.42
563.983	8.42
564.325	8.53
564.667	8.64
565.008	8.39
565.35	8.45
565.692	8.43
566.033	8.34
566.375	8.44
566.716	8.61
567.058	8.44
567.399	8.41
567.741	8.33
568.082	8.47
568.423	8.46
568.764	8.69
569.105	8.65
569.447	8.57
569.788	8.56
570.129	8.51
570.47	8.63
570.811	8.64
571.151	8.71
571.492	8.63
571.833	8.53
572.174	8.5
572.514	8.82
572.855	8.61
573.195	8.63
573.536	8.58
573.876	8.67
574.217	8.6
574.557	8.65
574.898	8.76
575.238	8.68
575.578	8.89
575.918	8.65
576.258	8.72
576.598	8.59
576.938	8.65
577.278	8.74
577.618	8.66
577.958	8.88
578.298	8.89
578.638	8.79
578.977	8.73
579.317	8.86
579.657	8.66
579.996	8.8
580.336	9.07
580.675	8.85
581.014	8.74
581.354	8.75
581.693	8.99
582.032	8.9
582.372	8.7
582.711	8.85
583.05	8.84
583.389	9.04
583.728	8.82
584.067	9.06
584.406	8.91
584.745	8.86
585.083	8.72
585.422	8.96
585.761	8.81
586.1	8.97
586.438	9.11
586.777	9.19
587.115	9.13
587.454	9.17
587.792	8.82
588.13	8.99
588.469	8.98
588.807	9.09
589.145	8.91
589.483	9.11
589.821	8.89
590.159	9.22
590.497	8.93
590.835	9.06
591.173	8.98
591.511	9.08
591.849	9.01
592.187	9.07
592.524	9.18
592.862	9.05
593.2	9.04
593.537	9.01
593.875	9.19
594.212	9.13
594.55	9.06
594.887	9.16
595.224	9.13
595.561	9.07
595.899	8.92
596.236	9.21
596.573	8.84
596.91	8.98
597.247	8.93
597.584	9.18
597.921	8.89
598.258	8.97
598.594	8.74
598.931	8.83
599.268	9
599.604	9.05
599.941	9.13
600.277	9.02
600.614	9.25
600.95	9.36
601.287	9.28
601.623	9.14
601.959	9.2
602.296	9.22
602.632	9.13
602.968	9.34
603.304	9.24
603.64	9.35
603.976	9.11
604.312	9.13
604.648	9.3
604.984	9.08
605.319	9.07
605.655	9.25
605.991	8.94
606.326	9.16
606.662	9.09
606.998	9.13
607.333	9.26
607.668	9.15
608.004	9.47
608.339	9.52
608.674	9.56
609.01	9.41
609.345	9.06
609.68	9.71
610.015	9.5
610.35	9.06
610.685	9.18
611.02	9.09
611.355	8.87
611.689	9.01
612.024	9.25
612.359	9.29
612.694	9.67
613.028	9.53
613.363	9.26
613.697	9.46
614.032	9.79
614.366	9.54
614.7	9.18
615.035	9.38
615.369	9.31
615.703	9.65
616.037	9.23
616.371	9.56
616.705	9.46
617.039	9.69
617.373	9.48
617.707	9.25
618.041	9.51
618.375	9.39
618.709	9.8
619.042	9.31
619.376	9.85
619.71	9.74
620.043	9.87
620.377	9.64
620.71	9.81
621.043	9.62
621.377	9.43
621.71	9.26
622.043	9.1
622.376	9.22
622.709	9.44
623.043	10.01
623.376	9.32
623.709	9.38
624.041	9.65
624.374	9.74
624.707	9
625.04	9.59
625.373	9.61
625.705	9.27
626.038	9.4
626.37	9.45
626.703	9.79
627.035	9.57
627.368	9.38
627.7	9.57
628.032	9.35
628.365	9.26
628.697	9.92
629.029	9.35
629.361	9.65
629.693	9.79
630.025	9.63
630.357	9.57
630.689	9.63
631.021	9.67
631.353	9.74
631.684	9.84
632.016	9.85
632.348	9.99
632.679	9.73
633.011	9.81
633.342	9.88
633.674	9.91
634.005	10.02
634.336	9.71
634.668	9.87
634.999	9.85
635.33	9.98
635.661	9.87
635.992	10.1
636.323	9.62
636.654	9.43
636.985	9.45
637.316	10.09
637.647	9.75
637.977	9.92
638.308	9.71
638.639	9.65
638.969	9.98
639.3	9.77
639.63	9.53
639.961	9.93
640.291	9.79
640.622	9.95
640.952	10.37
641.282	9.65
641.612	9.57
641.943	9.7
642.273	10.25
642.603	9.75
642.933	9.45
643.263	10.48
643.592	10.08
643.922	10.06
644.252	9.76
644.582	10.07
644.911	10.17
645.241	10.14
645.571	9.43
645.9	10.2
646.23	9.85
646.559	9.94
646.888	10.11
647.218	9.9
647.547	9.9
647.876	9.85
648.205	10
648.534	9.97
648.863	9.95
649.192	9.97
649.521	9.87
649.85	10.19
650.179	10.22
650.508	10.25
650.837	10.26
651.165	10.12
651.494	10.15
651.822	10.62
652.151	9.91
652.479	10.03
652.808	9.96
653.136	10.37
653.465	9.9
653.793	10.34
654.121	9.74
654.449	10.06
654.777	9.78
655.105	10.23
655.433	9.93
655.761	10.93
656.089	10.31
656.417	10.32
656.745	9.73
657.073	10.22
657.4	10.16
657.728	10.5
658.056	10.55
658.383	10.21
658.711	10.49
659.038	10.14
659.365	9.91
659.693	9.99
660.02	9.99
660.347	10.37
660.674	10.53
661.001	10.46
661.329	10.36
661.656	9.92
661.982	10.38
662.309	10.61
662.636	10.5
662.963	9.92
663.29	9.81
663.616	9.98
663.943	10.2
664.27	10
664.596	10.07
664.923	10.34
665.249	10.55
665.576	10.2
665.902	10.3
666.228	10.49
666.554	10.03
666.881	10.47
667.207	10.19
667.533	10.32
667.859	10.89
668.185	10.82
668.511	10.6
668.837	10.06
669.162	10.56
669.488	10.46
669.814	10.4
670.139	9.72
670.465	10.62
670.791	10.32
671.116	9.89
671.442	10.46
671.767	10.28
672.092	9.8
672.418	9.97
672.743	10.72
673.068	10.54
673.393	10.61
673.718	9.81
674.043	10.9
674.368	11.02
674.693	10.54
675.018	10.82
675.343	10.55
675.667	11.19
675.992	10.37
676.317	11.09
676.641	10.65
676.966	10.08
677.29	9.82
677.615	10.28
677.939	10.28
678.264	10.07
678.588	10.52
678.912	10.61
679.236	9.91
679.56	10.25
679.885	10.5
680.209	10.26
680.532	10.26
680.856	10.67
681.18	10.59
681.504	10.76
681.828	10.6
682.152	9.99
682.475	10.15
682.799	10.34
683.122	10.71
683.446	10.65
683.769	11.08
684.093	11.26
684.416	11.33
684.739	10.68
685.062	10.36
685.386	10.59
685.709	10.86
686.032	10.8
686.355	10.29
686.678	10.55
687.001	11.25
687.324	11.45
687.646	10.85
687.969	11.02
688.292	11.03
688.614	10.25
688.937	11.25
689.26	10.26
689.582	10.86
689.904	10.75
690.227	10.95
690.549	10.2
