Data from 1890-1_chest_Reflection__4__125.txt Node

Date: Fri Sep 30 18:45:46 CDT 2022
User: ToomeyLab
Spectrometer: FLMS14357
Trigger mode: 0
Integration Time (sec): 1.000000E-2
Scans to average: 100
Electric dark correction enabled: true
Nonlinearity correction enabled: false
Boxcar width: 0
XAxis mode: Wavelengths
Number of Pixels in Spectrum: 2048
>>>>>Begin Spectral Data<<<<<
189.047	-1009.44
189.435	-1009.44
189.823	-1009.44
190.211	50.76
190.599	0.19
190.987	9.8
191.375	133.87
191.763	130.16
192.151	1076.65
192.538	165.5
192.926	2505.19
193.314	21.41
193.702	-17.71
194.089	64.88
194.477	159.85
194.864	168.37
195.252	132.99
195.639	244.53
196.027	-124.18
196.414	1101.11
196.801	25.96
197.189	-189.28
197.576	103.08
197.963	-78.59
198.351	-28.04
198.738	-37.37
199.125	55.63
199.512	-8.38
199.899	16.48
200.286	21.06
200.673	39.12
201.06	40.74
201.447	45.26
201.833	62.66
202.22	45.47
202.607	40.04
202.994	53.43
203.38	9.32
203.767	14.82
204.154	25
204.54	38.02
204.927	39.59
205.313	-12.27
205.699	25.04
206.086	6.96
206.472	33.98
206.858	29.64
207.245	16.4
207.631	-3.96
208.017	-23.41
208.403	0.74
208.789	27.11
209.175	22.53
209.561	16.75
209.947	15.25
210.333	-9.92
210.719	20.64
211.105	8.08
211.491	-0.61
211.876	38.32
212.262	25.11
212.648	14.42
213.034	-7.66
213.419	26.55
213.805	-11.89
214.19	24.98
214.576	20.6
214.961	8.3
215.346	24.88
215.732	11.07
216.117	-2.94
216.502	10.39
216.888	41.11
217.273	32.46
217.658	18.8
218.043	1.51
218.428	10.93
218.813	13.14
219.198	35.82
219.583	28.54
219.968	15.02
220.353	10.64
220.738	23.12
221.122	-1.8
221.507	23.23
221.892	9.41
222.276	-0.04
222.661	4.04
223.046	0.55
223.43	-4.44
223.815	6.92
224.199	2.62
224.583	-1.86
224.968	6.88
225.352	8.19
225.736	10.25
226.121	6.81
226.505	6.23
226.889	4.94
227.273	0.17
227.657	9.66
228.041	4.6
228.425	8.01
228.809	6.82
229.193	8.34
229.577	3
229.961	5.24
230.344	3.49
230.728	3.66
231.112	4.47
231.495	5.22
231.879	7.72
232.263	4.36
232.646	3.24
233.03	4.97
233.413	5.7
233.797	5.99
234.18	3.49
234.563	5.05
234.946	6.64
235.33	2.61
235.713	5.35
236.096	4.8
236.479	5.5
236.862	5.41
237.245	4.56
237.628	3.64
238.011	6.02
238.394	5.1
238.777	3.43
239.16	3.37
239.543	5
239.925	3.31
240.308	3.33
240.691	3.93
241.073	6.03
241.456	3.33
241.838	5.07
242.221	4.56
242.603	4.1
242.986	4.85
243.368	3.88
243.75	4.37
244.133	4.53
244.515	4.06
244.897	4.29
245.279	4.24
245.661	4.97
246.043	4.66
246.425	4.03
246.807	3.97
247.189	4.9
247.571	4.69
247.953	4.37
248.335	3.73
248.717	3.93
249.098	4.07
249.48	4.2
249.862	4.22
250.243	3.87
250.625	4.1
251.006	4.14
251.388	2.84
251.769	5.65
252.151	4
252.532	5.06
252.913	4.12
253.295	4.49
253.676	3.83
254.057	4.28
254.438	3.61
254.819	5.24
255.2	4.45
255.581	4.69
255.962	4.63
256.343	4.17
256.724	4.73
257.105	4.9
257.486	5.26
257.867	4.55
258.247	3.14
258.628	3.74
259.009	4.7
259.389	3.95
259.77	4.41
260.15	3.71
260.531	4.54
260.911	4.22
261.292	3.68
261.672	3.93
262.052	3.75
262.432	3.73
262.813	4.24
263.193	3.62
263.573	4.16
263.953	3.52
264.333	3.95
264.713	3.51
265.093	4.1
265.473	3.87
265.853	4.42
266.233	3.58
266.612	4.15
266.992	3.9
267.372	2.98
267.752	3.44
268.131	3.62
268.511	3.58
268.89	3.64
269.27	4.14
269.649	3.91
270.029	3.86
270.408	3.78
270.787	3.78
271.167	3.27
271.546	4.06
271.925	4.4
272.304	4.13
272.683	3.8
273.062	4.05
273.441	3.62
273.82	3.57
274.199	3.93
274.578	3.73
274.957	3.79
275.336	3.39
275.715	3.57
276.093	3.77
276.472	3.34
276.851	3.66
277.229	4.16
277.608	4.14
277.986	3.42
278.365	4.25
278.743	3.5
279.122	3.2
279.5	3.88
279.878	3.46
280.257	4.39
280.635	4.38
281.013	4.35
281.391	3.76
281.769	3.56
282.147	3.48
282.525	3.74
282.903	3.53
283.281	2.98
283.659	3.74
284.037	3.62
284.415	3.68
284.792	3.82
285.17	3.25
285.548	3.97
285.925	3.91
286.303	3.39
286.68	3.3
287.058	3.66
287.435	3.45
287.813	3.5
288.19	3.54
288.567	3.66
288.945	3.09
289.322	3.62
289.699	3.45
290.076	3.63
290.453	3.42
290.83	3.88
291.207	3.43
291.584	3.61
291.961	3.73
292.338	3.65
292.715	3.86
293.092	2.94
293.469	3.51
293.845	4.22
294.222	3.5
294.599	4.07
294.975	3.83
295.352	3.66
295.728	3.71
296.105	3.87
296.481	3.65
296.858	4.04
297.234	3.58
297.61	3.35
297.986	3.52
298.363	3.62
298.739	3.5
299.115	3.57
299.491	3.75
299.867	3.83
300.243	3.64
300.619	3.38
300.995	4.02
301.371	3.36
301.746	2.93
302.122	4.14
302.498	3.56
302.874	3.87
303.249	3.72
303.625	3.81
304	3.76
304.376	3.71
304.751	3.8
305.127	3.45
305.502	3.91
305.878	3.8
306.253	3.57
306.628	3.39
307.003	3.73
307.378	3.73
307.754	3.55
308.129	4.15
308.504	3.89
308.879	3.73
309.254	3.11
309.629	3.81
310.003	3.32
310.378	3.53
310.753	3.35
311.128	3.61
311.502	3.76
311.877	3.66
312.252	3.77
312.626	3.83
313.001	3.77
313.375	3.53
313.75	3.76
314.124	3.69
314.498	3.59
314.873	3.56
315.247	3.61
315.621	4.16
315.995	4.24
316.369	3.55
316.743	4.25
317.117	4.32
317.491	4.35
317.865	3.88
318.239	3.85
318.613	4.02
318.987	3.61
319.361	4.08
319.734	3.19
320.108	3.94
320.482	3.37
320.855	4.15
321.229	3.61
321.602	3.85
321.976	3.48
322.349	3.47
322.723	3.42
323.096	3.65
323.469	4.21
323.843	3.48
324.216	3.92
324.589	4.18
324.962	3.84
325.335	3.5
325.708	3.95
326.081	3.82
326.454	3.59
326.827	3.73
327.2	3.71
327.573	3.44
327.945	3.55
328.318	3.67
328.691	3.81
329.063	3.86
329.436	3.52
329.809	4.24
330.181	3.76
330.553	3.59
330.926	3.52
331.298	3.73
331.671	3.74
332.043	3.17
332.415	3.71
332.787	4.02
333.159	3.67
333.532	4.07
333.904	3.65
334.276	3.98
334.648	3.22
335.02	3.84
335.391	3.64
335.763	3.75
336.135	4.02
336.507	4.08
336.879	3.65
337.25	3.23
337.622	3.92
337.993	3.61
338.365	3.53
338.736	3.65
339.108	3.52
339.479	3.94
339.851	3.39
340.222	4.07
340.593	3.75
340.964	3.7
341.336	3.99
341.707	3.74
342.078	3.75
342.449	3.91
342.82	3.63
343.191	3.75
343.562	3.73
343.933	3.73
344.303	3.67
344.674	3.77
345.045	3.45
345.416	4.04
345.786	3.96
346.157	3.89
346.527	3.85
346.898	3.69
347.268	3.37
347.639	3.41
348.009	3.43
348.38	4.27
348.75	4.07
349.12	3.83
349.49	3.82
349.861	3.66
350.231	3.64
350.601	4.01
350.971	3.43
351.341	3.85
351.711	3.54
352.081	3.62
352.45	4.02
352.82	4.25
353.19	4.18
353.56	3.73
353.929	3.56
354.299	3.84
354.669	3.8
355.038	3.84
355.408	3.96
355.777	3.43
356.147	3.71
356.516	4.14
356.885	3.64
357.254	4.05
357.624	3.77
357.993	3.67
358.362	4.31
358.731	3.68
359.1	3.68
359.469	3.55
359.838	3.98
360.207	3.92
360.576	3.73
360.945	4
361.314	4
361.682	3.52
362.051	3.73
362.42	3.9
362.788	3.67
363.157	3.7
363.525	3.53
363.894	3.68
364.262	3.94
364.631	4.17
364.999	3.58
365.367	3.92
365.735	3.42
366.104	3.49
366.472	3.69
366.84	4.17
367.208	4.13
367.576	4.04
367.944	3.71
368.312	3.33
368.68	3.68
369.048	3.3
369.416	3.89
369.783	3.99
370.151	3.69
370.519	3.99
370.886	3.89
371.254	3.8
371.621	4.14
371.989	4.04
372.356	3.87
372.724	4
373.091	3.49
373.458	3.8
373.826	3.96
374.193	3.99
374.56	3.94
374.927	4.15
375.294	4.1
375.661	3.66
376.028	3.7
376.395	4.1
376.762	4
377.129	4.19
377.496	4.22
377.863	3.83
378.229	3.91
378.596	4
378.963	4.14
379.329	3.83
379.696	3.9
380.062	4.18
380.429	4.11
380.795	3.72
381.161	3.79
381.528	3.75
381.894	3.91
382.26	3.78
382.626	3.97
382.993	4.07
383.359	3.72
383.725	3.5
384.091	3.72
384.457	3.95
384.823	4.11
385.188	4.22
385.554	3.79
385.92	4.06
386.286	4.14
386.651	4.18
387.017	3.79
387.383	3.92
387.748	3.59
388.114	4.03
388.479	3.87
388.845	3.85
389.21	3.96
389.575	3.83
389.94	3.92
390.306	3.94
390.671	4.18
391.036	4.09
391.401	3.77
391.766	4.29
392.131	3.87
392.496	4.11
392.861	4.02
393.226	3.85
393.591	3.96
393.956	4.18
394.32	4.11
394.685	3.82
395.05	3.96
395.414	3.84
395.779	3.84
396.143	4.1
396.508	3.89
396.872	4.08
397.236	3.89
397.601	4.04
397.965	3.78
398.329	3.87
398.694	3.89
399.058	3.87
399.422	4.31
399.786	3.88
400.15	4.04
400.514	4.15
400.878	4.07
401.242	4.03
401.605	3.99
401.969	4.06
402.333	4
402.697	4.01
403.06	3.72
403.424	3.79
403.787	4.19
404.151	3.91
404.514	4.06
404.878	3.66
405.241	3.86
405.604	3.98
405.968	4.01
406.331	3.99
406.694	4.01
407.057	3.84
407.42	3.96
407.783	3.86
408.146	3.88
408.509	4.01
408.872	3.96
409.235	4.04
409.598	4.2
409.961	4.08
410.323	4
410.686	4.01
411.049	3.92
411.411	4.07
411.774	4.08
412.136	4.21
412.499	4.02
412.861	4
413.223	3.9
413.586	4.15
413.948	4.23
414.31	4.1
414.672	3.92
415.035	4.05
415.397	4.13
415.759	4.02
416.121	3.95
416.483	3.94
416.845	3.91
417.206	4.25
417.568	4.07
417.93	3.96
418.292	4
418.653	3.95
419.015	4.09
419.377	3.98
419.738	3.96
420.1	4
420.461	4.07
420.822	4.09
421.184	4.11
421.545	3.91
421.906	3.82
422.267	3.95
422.629	3.98
422.99	3.97
423.351	3.99
423.712	3.94
424.073	4.06
424.434	3.99
424.795	3.86
425.155	3.9
425.516	4.04
425.877	4.02
426.238	3.98
426.598	4
426.959	3.94
427.32	4.1
427.68	4.12
428.041	3.91
428.401	3.94
428.761	4.23
429.122	4.02
429.482	4.11
429.842	4.02
430.202	4.2
430.563	4.16
430.923	4.18
431.283	4.08
431.643	4.12
432.003	3.94
432.363	4.02
432.722	4.16
433.082	4.16
433.442	4.04
433.802	4.13
434.161	4.05
434.521	4.04
434.881	4.05
435.24	4
435.6	4.23
435.959	4.08
436.319	4.11
436.678	4.26
437.037	4.27
437.396	4.17
437.756	3.98
438.115	3.97
438.474	4.16
438.833	4.21
439.192	4.14
439.551	4.03
439.91	4
440.269	3.94
440.628	4.12
440.987	4.21
441.345	4.25
441.704	4.14
442.063	4.27
442.421	4.15
442.78	4.19
443.138	4.13
443.497	4.27
443.855	4.21
444.214	4.15
444.572	4.18
444.93	4.18
445.288	4.24
445.647	4.17
446.005	4.22
446.363	4.18
446.721	4.13
447.079	4.18
447.437	4.13
447.795	4.12
448.153	4.11
448.51	4.05
448.868	4.16
449.226	4.15
449.584	4.1
449.941	4.14
450.299	4.19
450.656	4.1
451.014	4.38
451.371	4.3
451.729	4.21
452.086	4.38
452.443	4.29
452.801	4.24
453.158	4.17
453.515	4.15
453.872	4.33
454.229	4.27
454.586	4.37
454.943	4.21
455.3	4.22
455.657	4.32
456.014	4.03
456.371	4.27
456.727	4.33
457.084	4.21
457.441	4.25
457.797	4.26
458.154	4.05
458.51	4.1
458.867	4.33
459.223	4.29
459.58	4.27
459.936	4.45
460.292	4.23
460.648	4.18
461.005	4.22
461.361	4.18
461.717	4.13
462.073	4.17
462.429	4.2
462.785	4.31
463.141	4.35
463.496	4.26
463.852	4.24
464.208	4.28
464.564	3.94
464.919	4.23
465.275	4.33
465.631	4.25
465.986	4.26
466.342	4.37
466.697	4.46
467.052	4.42
467.408	4.42
467.763	4.17
468.118	4.39
468.473	4.35
468.829	4.27
469.184	4.34
469.539	4.38
469.894	4.35
470.249	4.41
470.603	4.48
470.958	4.47
471.313	4.37
471.668	4.37
472.023	4.36
472.377	4.28
472.732	4.31
473.086	4.34
473.441	4.52
473.795	4.38
474.15	4.35
474.504	4.4
474.859	4.43
475.213	4.51
475.567	4.35
475.921	4.29
476.275	4.42
476.63	4.45
476.984	4.26
477.338	4.25
477.692	4.61
478.045	4.32
478.399	4.46
478.753	4.42
479.107	4.43
479.461	4.43
479.814	4.41
480.168	4.5
480.521	4.44
480.875	4.54
481.228	4.44
481.582	4.46
481.935	4.41
482.289	4.44
482.642	4.46
482.995	4.51
483.348	4.35
483.701	4.48
484.055	4.35
484.408	4.21
484.761	4.26
485.114	4.24
485.466	4.18
485.819	4.11
486.172	4.15
486.525	4.2
486.878	4.2
487.23	4.28
487.583	4.22
487.936	4.37
488.288	4.4
488.641	4.23
488.993	4.29
489.345	4.27
489.698	4.23
490.05	4.28
490.402	4.26
490.754	4.32
491.107	4.26
491.459	4.33
491.811	4.34
492.163	4.53
492.515	4.43
492.866	4.33
493.218	4.3
493.57	4.27
493.922	4.28
494.274	4.31
494.625	4.42
494.977	4.49
495.328	4.49
495.68	4.45
496.031	4.47
496.383	4.55
496.734	4.56
497.086	4.55
497.437	4.48
497.788	4.59
498.139	4.57
498.49	4.52
498.842	4.55
499.193	4.58
499.544	4.51
499.894	4.56
500.245	4.53
500.596	4.5
500.947	4.5
501.298	4.69
501.648	4.53
501.999	4.57
502.35	4.68
502.7	4.55
503.051	4.63
503.401	4.63
503.752	4.5
504.102	4.63
504.452	4.7
504.803	4.63
505.153	4.77
505.503	4.68
505.853	4.63
506.203	4.5
506.553	4.66
506.903	4.74
507.253	4.73
507.603	4.72
507.953	4.8
508.303	4.78
508.652	4.77
509.002	4.78
509.352	4.77
509.701	4.76
510.051	4.81
510.4	4.74
510.75	4.64
511.099	4.62
511.449	4.69
511.798	4.61
512.147	4.76
512.496	4.73
512.846	4.75
513.195	4.87
513.544	4.68
513.893	4.79
514.242	4.71
514.591	4.85
514.939	4.7
515.288	4.9
515.637	4.7
515.986	4.77
516.334	4.85
516.683	4.7
517.032	4.74
517.38	4.68
517.729	4.93
518.077	4.84
518.426	4.78
518.774	4.84
519.122	4.75
519.47	4.79
519.819	4.83
520.167	4.83
520.515	4.81
520.863	4.78
521.211	4.79
521.559	4.74
521.907	4.91
522.255	4.85
522.602	4.86
522.95	4.89
523.298	5
523.645	4.78
523.993	4.99
524.341	5.01
524.688	4.97
525.036	4.86
525.383	4.71
525.73	4.92
526.078	5.03
526.425	4.89
526.772	4.91
527.119	4.83
527.466	4.88
527.814	4.92
528.161	4.85
528.508	4.87
528.854	4.88
529.201	4.87
529.548	4.86
529.895	4.82
530.242	4.82
530.588	4.82
530.935	4.81
531.282	4.85
531.628	4.84
531.975	4.93
532.321	4.83
532.667	4.99
533.014	4.99
533.36	4.94
533.706	5.14
534.052	5.07
534.399	5.04
534.745	4.97
535.091	4.92
535.437	5
535.783	5.03
536.129	5.04
536.474	5.08
536.82	5.12
537.166	5.14
537.512	5.1
537.857	5.25
538.203	5.11
538.549	5.09
538.894	5.12
539.239	5.22
539.585	5.19
539.93	5.2
540.276	5.23
540.621	5.42
540.966	5.33
541.311	5.27
541.656	5.32
542.001	5.41
542.346	5.29
542.691	5.19
543.036	5.13
543.381	5.18
543.726	5.17
544.071	5.21
544.415	5.23
544.76	5.18
545.105	5.28
545.449	5.37
545.794	5.36
546.138	5.35
546.483	5.56
546.827	5.4
547.171	5.49
547.516	5.39
547.86	5.32
548.204	5.46
548.548	5.53
548.892	5.55
549.236	5.4
549.58	5.62
549.924	5.51
550.268	5.79
550.612	5.63
550.956	5.76
551.3	5.66
551.643	5.66
551.987	5.67
552.33	5.83
552.674	5.84
553.017	5.6
553.361	5.6
553.704	5.81
554.048	5.63
554.391	5.79
554.734	5.67
555.077	5.78
555.42	5.8
555.764	5.8
556.107	6
556.45	5.76
556.793	5.57
557.135	5.9
557.478	5.97
557.821	5.99
558.164	6.11
558.507	5.95
558.849	5.89
559.192	6.08
559.534	6.02
559.877	5.93
560.219	5.95
560.562	6.1
560.904	5.91
561.246	6.08
561.589	6.04
561.931	6.3
562.273	6.1
562.615	6.16
562.957	6.2
563.299	6.16
563.641	6.04
563.983	6.05
564.325	6.11
564.667	6.39
565.008	6.02
565.35	6.11
565.692	6.33
566.033	6.22
566.375	6.16
566.716	6.28
567.058	6.23
567.399	6.21
567.741	6.4
568.082	6.3
568.423	6.46
568.764	6.28
569.105	6.32
569.447	6.31
569.788	6.5
570.129	6.47
570.47	6.45
570.811	6.54
571.151	6.49
571.492	6.66
571.833	6.62
572.174	6.37
572.514	6.52
572.855	6.39
573.195	6.57
573.536	6.54
573.876	6.82
574.217	6.55
574.557	6.6
574.898	6.66
575.238	6.77
575.578	6.72
575.918	6.77
576.258	6.86
576.598	6.83
576.938	6.69
577.278	6.94
577.618	6.84
577.958	6.8
578.298	6.79
578.638	7.04
578.977	6.93
579.317	6.85
579.657	7
579.996	6.92
580.336	7.08
580.675	7.2
581.014	6.87
581.354	6.96
581.693	7.14
582.032	7.01
582.372	7.2
582.711	7.05
583.05	7.33
583.389	7.01
583.728	7.12
584.067	7.41
584.406	7.03
584.745	7.42
585.083	7.21
585.422	7.14
585.761	7.41
586.1	7.44
586.438	7.62
586.777	7.53
587.115	7.42
587.454	7.68
587.792	7.31
588.13	7.46
588.469	7.48
588.807	7.64
589.145	7.53
589.483	7.82
589.821	7.4
590.159	7.73
590.497	7.53
590.835	7.45
591.173	7.39
591.511	7.5
591.849	7.71
592.187	7.61
592.524	7.8
592.862	7.94
593.2	7.79
593.537	7.78
593.875	7.94
594.212	7.67
594.55	7.86
594.887	8.19
595.224	7.85
595.561	8
595.899	7.91
596.236	8.13
596.573	8.03
596.91	7.95
597.247	7.79
597.584	8.2
597.921	8.06
598.258	7.99
598.594	7.83
598.931	8.06
599.268	7.93
599.604	8.07
599.941	8.07
600.277	8.28
600.614	8.49
600.95	8.58
601.287	8.32
601.623	8.25
601.959	8.4
602.296	8.32
602.632	8.61
602.968	8.56
603.304	8.31
603.64	8.57
603.976	8.31
604.312	8.48
604.648	8.54
604.984	8.79
605.319	8.68
605.655	8.57
605.991	8.71
606.326	8.7
606.662	8.57
606.998	8.56
607.333	8.61
607.668	8.76
608.004	8.84
608.339	9.08
608.674	8.98
609.01	8.78
609.345	8.71
609.68	8.96
610.015	9.18
610.35	9.03
610.685	8.81
611.02	8.89
611.355	8.87
611.689	8.97
612.024	9.15
612.359	9.22
612.694	9.24
613.028	9.24
613.363	9.02
613.697	9.23
614.032	9.2
614.366	9.27
614.7	9.05
615.035	9.59
615.369	9.5
615.703	9.59
616.037	9.3
616.371	9.22
616.705	9.59
617.039	9.63
617.373	9.57
617.707	9.15
618.041	9.56
618.375	9.38
618.709	9.55
619.042	9.78
619.376	9.94
619.71	9.6
620.043	9.73
620.377	9.78
620.71	9.83
621.043	9.89
621.377	9.87
621.71	9.76
622.043	9.7
622.376	9.84
622.709	9.83
623.043	10.1
623.376	9.55
623.709	10.19
624.041	10.11
624.374	9.81
624.707	9.7
625.04	9.91
625.373	10.06
625.705	10.14
626.038	10.18
626.37	10.02
626.703	10.6
627.035	10.23
627.368	10.43
627.7	10.05
628.032	10.33
628.365	10.35
628.697	10.62
629.029	10.04
629.361	10.42
629.693	10.68
630.025	10.49
630.357	10.55
630.689	10.48
631.021	10.37
631.353	10.56
631.684	10.51
632.016	10.99
632.348	10.75
632.679	10.57
633.011	10.94
633.342	10.46
633.674	10.94
634.005	10.71
634.336	11.11
634.668	10.69
634.999	11
635.33	11.2
635.661	10.9
635.992	10.9
636.323	10.98
636.654	10.94
636.985	11.16
637.316	11.19
637.647	10.99
637.977	11.14
638.308	11.31
638.639	11.02
638.969	11.37
639.3	11.32
639.63	11.17
639.961	11.55
640.291	11.38
640.622	11.25
640.952	11.78
641.282	11.53
641.612	11.68
641.943	11.53
642.273	11.57
642.603	11.85
642.933	11.23
643.263	11.86
643.592	11.83
643.922	11.44
644.252	11.82
644.582	12.05
644.911	11.61
645.241	12.02
645.571	11.45
645.9	11.77
646.23	11.79
646.559	11.6
646.888	11.76
647.218	11.89
647.547	11.95
647.876	11.7
648.205	12.06
648.534	12.22
648.863	12.16
649.192	11.98
649.521	12.53
649.85	12.49
650.179	11.93
650.508	12.17
650.837	12.59
651.165	12.1
651.494	12.25
651.822	12.15
652.151	12.39
652.479	12.81
652.808	13
653.136	12.71
653.465	12.76
653.793	12.46
654.121	12.5
654.449	12.67
654.777	12.36
655.105	13.08
655.433	13.01
655.761	13.39
656.089	13.16
656.417	12.58
656.745	12.79
657.073	12.67
657.4	13.18
657.728	12.94
658.056	12.9
658.383	13.14
658.711	12.93
659.038	13.03
659.365	12.69
659.693	12.98
660.02	13.29
660.347	13.31
660.674	13.02
661.001	13.31
661.329	13.59
661.656	13.08
661.982	13.25
662.309	13.43
662.636	13.25
662.963	13.1
663.29	13.14
663.616	13.25
663.943	13.05
664.27	13.47
664.596	13.38
664.923	13.84
665.249	13.31
665.576	13.51
665.902	13.63
666.228	14.25
666.554	13.92
666.881	13.42
667.207	13.31
667.533	13.63
667.859	14.23
668.185	14.02
668.511	13.72
668.837	13.68
669.162	14.02
669.488	14.08
669.814	14.26
670.139	13.69
670.465	14.77
670.791	13.94
671.116	14.05
671.442	14.25
671.767	14.72
672.092	14.08
672.418	13.81
672.743	14.41
673.068	14.46
673.393	14.28
673.718	14.05
674.043	14.7
674.368	15.08
674.693	14.34
675.018	14.15
675.343	14.18
675.667	14.91
675.992	14.14
676.317	14.49
676.641	14.2
676.966	14.06
677.29	13.74
677.615	14.24
677.939	14.49
678.264	14.61
678.588	14.66
678.912	15.03
679.236	14.7
679.56	14.71
679.885	15.35
680.209	15.19
680.532	15.06
680.856	14.85
681.18	15.33
681.504	15.28
681.828	15.07
682.152	14.61
682.475	15.55
682.799	15.1
683.122	15.42
683.446	15.43
683.769	16.15
684.093	15.59
684.416	15.92
684.739	15.04
685.062	15.42
685.386	15.84
685.709	15.53
686.032	15.42
686.355	16.08
686.678	14.87
687.001	16.11
687.324	16.43
687.646	15.6
687.969	15.49
688.292	15.96
688.614	15.26
