Data from 1890-1_forehead_Reflection__0__131.txt Node

Date: Fri Sep 30 18:49:41 CDT 2022
User: ToomeyLab
Spectrometer: FLMS14357
Trigger mode: 0
Integration Time (sec): 1.000000E-2
Scans to average: 100
Electric dark correction enabled: true
Nonlinearity correction enabled: false
Boxcar width: 0
XAxis mode: Wavelengths
Number of Pixels in Spectrum: 2048
>>>>>Begin Spectral Data<<<<<
189.047	329.76
189.435	329.76
189.823	329.76
190.211	37.44
190.599	-17.95
190.987	35.88
191.375	21.28
191.763	73.67
192.151	1183.83
192.538	589.94
192.926	-420
193.314	41.73
193.702	-25.33
194.089	-3.89
194.477	-400.64
194.864	198.58
195.252	184.59
195.639	43.87
196.027	-52.47
196.414	504.11
196.801	70.78
197.189	-90.87
197.576	138.82
197.963	-422.04
198.351	-8.3
198.738	64.16
199.125	51.55
199.512	-6.49
199.899	30.2
200.286	57.5
200.673	47.61
201.06	21.29
201.447	35.25
201.833	60.05
202.22	28.88
202.607	63.35
202.994	66.64
203.38	25.02
203.767	26.02
204.154	42.81
204.54	50.43
204.927	17.01
205.313	-19.94
205.699	25.45
206.086	-7.64
206.472	10.71
206.858	29.21
207.245	15.48
207.631	-0.33
208.017	54.95
208.403	21.02
208.789	23.69
209.175	49.62
209.561	10.82
209.947	27.33
210.333	-58.5
210.719	4.93
211.105	13.67
211.491	37.83
211.876	35.57
212.262	9.33
212.648	40.55
213.034	-3.18
213.419	31
213.805	19.47
214.19	5.47
214.576	10.37
214.961	26
215.346	24.65
215.732	46.79
216.117	25.45
216.502	28.96
216.888	5.32
217.273	19.18
217.658	9.79
218.043	0.64
218.428	14
218.813	17.16
219.198	32.39
219.583	19.14
219.968	30.34
220.353	8.28
220.738	34.57
221.122	27.36
221.507	20.67
221.892	18.04
222.276	3.48
222.661	25.01
223.046	13.98
223.43	5.05
223.815	9.17
224.199	4.11
224.583	3.98
224.968	20.88
225.352	10.77
225.736	9.13
226.121	10.75
226.505	2.21
226.889	6.56
227.273	3.64
227.657	11.99
228.041	3.24
228.425	8.39
228.809	9.11
229.193	7.36
229.577	3.02
229.961	4.28
230.344	3.82
230.728	4.11
231.112	3.88
231.495	4.34
231.879	6.54
232.263	4.54
232.646	4.09
233.03	4.47
233.413	5.42
233.797	6.23
234.18	4.54
234.563	5.24
234.946	4.18
235.33	5.08
235.713	6.09
236.096	4.88
236.479	5.24
236.862	6.08
237.245	4.31
237.628	3.16
238.011	6.52
238.394	5.15
238.777	2.75
239.16	4.57
239.543	6.37
239.925	4.93
240.308	4.01
240.691	6.29
241.073	4.23
241.456	4.75
241.838	5.35
242.221	4.74
242.603	5.1
242.986	4.76
243.368	3.67
243.75	4.18
244.133	4.81
244.515	4.24
244.897	4.88
245.279	4.48
245.661	5.56
246.043	4.4
246.425	4.37
246.807	4.82
247.189	5.02
247.571	4.56
247.953	4.86
248.335	4.34
248.717	4.39
249.098	4.25
249.48	4.36
249.862	4.46
250.243	4.52
250.625	4.73
251.006	5.06
251.388	4.35
251.769	5.41
252.151	5.03
252.532	5.12
252.913	4.4
253.295	4.87
253.676	4.48
254.057	4.51
254.438	4.13
254.819	5.91
255.2	4.58
255.581	5.41
255.962	5.28
256.343	4.42
256.724	5.8
257.105	5.83
257.486	5.65
257.867	5.37
258.247	4.02
258.628	5.14
259.009	5.67
259.389	4.53
259.77	5.28
260.15	4.5
260.531	5.09
260.911	4.48
261.292	4.29
261.672	4.3
262.052	4.26
262.432	3.89
262.813	5.06
263.193	3.88
263.573	4.33
263.953	4
264.333	4.43
264.713	4.39
265.093	4.18
265.473	4.69
265.853	5.6
266.233	4.21
266.612	4.3
266.992	3.86
267.372	3.92
267.752	4.23
268.131	4.64
268.511	4.45
268.89	3.63
269.27	4.26
269.649	4.68
270.029	4.87
270.408	4.19
270.787	4.03
271.167	4.2
271.546	5.06
271.925	4.91
272.304	4.56
272.683	3.88
273.062	4.57
273.441	4.21
273.82	3.75
274.199	4.2
274.578	4.17
274.957	4.43
275.336	4.12
275.715	4.61
276.093	4.36
276.472	4.23
276.851	4.33
277.229	4.46
277.608	4.17
277.986	4.12
278.365	4.71
278.743	4.07
279.122	4.72
279.5	4.61
279.878	4.34
280.257	4.67
280.635	5.23
281.013	4.82
281.391	4.46
281.769	4.71
282.147	4.42
282.525	4.47
282.903	4.57
283.281	4.16
283.659	4.21
284.037	4.32
284.415	4.25
284.792	4.53
285.17	4.43
285.548	4.31
285.925	4.22
286.303	4.47
286.68	4.24
287.058	4.16
287.435	4.38
287.813	4.2
288.19	4.32
288.567	4.31
288.945	4.12
289.322	3.81
289.699	4.98
290.076	4.31
290.453	4.39
290.83	4.51
291.207	4.25
291.584	4.41
291.961	4.49
292.338	4.53
292.715	4.81
293.092	4.47
293.469	4.94
293.845	4.98
294.222	4.84
294.599	5.57
294.975	5.12
295.352	5.08
295.728	5.01
296.105	5.13
296.481	5.19
296.858	5.6
297.234	5.17
297.61	5.02
297.986	4.69
298.363	5.27
298.739	4.83
299.115	4.85
299.491	5.09
299.867	5.07
300.243	5.2
300.619	5.21
300.995	6
301.371	5.86
301.746	5.19
302.122	5.67
302.498	5.74
302.874	6.2
303.249	5.76
303.625	5.89
304	5.91
304.376	6.07
304.751	5.9
305.127	6.33
305.502	5.76
305.878	5.87
306.253	5.77
306.628	6.4
307.003	5.8
307.378	6.42
307.754	5.91
308.129	6.04
308.504	6.19
308.879	6.7
309.254	6.45
309.629	6.46
310.003	6.16
310.378	6.09
310.753	6.47
311.128	6.43
311.502	6.85
311.877	6.85
312.252	6.8
312.626	7.2
313.001	6.9
313.375	6.79
313.75	7.31
314.124	6.9
314.498	6.9
314.873	7
315.247	7.2
315.621	7.74
315.995	7.69
316.369	7.25
316.743	7.49
317.117	8.14
317.491	7.89
317.865	8.19
318.239	7.96
318.613	7.81
318.987	7.86
319.361	8
319.734	7.66
320.108	8.05
320.482	7.66
320.855	7.96
321.229	8.62
321.602	8.15
321.976	8.39
322.349	8.37
322.723	7.9
323.096	8.75
323.469	8.85
323.843	8.45
324.216	8.65
324.589	9.31
324.962	9.31
325.335	8.73
325.708	8.81
326.081	8.99
326.454	8.87
326.827	8.76
327.2	9
327.573	8.98
327.945	9.27
328.318	9.19
328.691	9.09
329.063	9.22
329.436	9.26
329.809	9.54
330.181	9.45
330.553	9.26
330.926	9.67
331.298	9
331.671	9.49
332.043	9.24
332.415	9.95
332.787	9.67
333.159	9.65
333.532	9.65
333.904	9.72
334.276	9.91
334.648	9.95
335.02	9.72
335.391	10.15
335.763	9.94
336.135	9.69
336.507	10.04
336.879	10.11
337.25	10.17
337.622	10.71
337.993	10.04
338.365	10.13
338.736	10.16
339.108	10.53
339.479	10.56
339.851	10.41
340.222	10.67
340.593	10.44
340.964	10.47
341.336	10.8
341.707	10.61
342.078	10.61
342.449	11.03
342.82	10.63
343.191	10.41
343.562	10.94
343.933	11.13
344.303	11
344.674	10.88
345.045	11.04
345.416	10.92
345.786	10.94
346.157	11.09
346.527	11.12
346.898	11.27
347.268	10.76
347.639	11.1
348.009	11.63
348.38	11.65
348.75	11.43
349.12	11.23
349.49	11.55
349.861	11.24
350.231	11.32
350.601	11.65
350.971	11.42
351.341	11.79
351.711	11.35
352.081	11.46
352.45	12.01
352.82	11.62
353.19	11.78
353.56	11.72
353.929	12.01
354.299	11.69
354.669	11.72
355.038	12.22
355.408	12.22
355.777	11.74
356.147	12.09
356.516	12.65
356.885	12.22
357.254	12.52
357.624	12.23
357.993	11.99
358.362	12.69
358.731	12.43
359.1	12.32
359.469	11.94
359.838	12.55
360.207	12.44
360.576	12.35
360.945	12.55
361.314	12.45
361.682	12.65
362.051	12.8
362.42	12.65
362.788	12.65
363.157	13.1
363.525	12.46
363.894	12.97
364.262	12.85
364.631	13.31
364.999	13.05
365.367	13.38
365.735	12.93
366.104	12.97
366.472	13.5
366.84	13.42
367.208	12.94
367.576	13.55
367.944	13.43
368.312	13.4
368.68	13.38
369.048	13.53
369.416	13.97
369.783	13.56
370.151	13.56
370.519	13.6
370.886	13.85
371.254	13.43
371.621	14.02
371.989	14.15
372.356	14.03
372.724	13.86
373.091	13.68
373.458	13.89
373.826	13.82
374.193	13.86
374.56	14.5
374.927	14.1
375.294	14.13
375.661	13.79
376.028	13.9
376.395	14.17
376.762	13.97
377.129	14.41
377.496	14.84
377.863	14.02
378.229	14.56
378.596	14.71
378.963	14.67
379.329	14.29
379.696	14.65
380.062	14.4
380.429	14.45
380.795	14.49
381.161	14.59
381.528	14.67
381.894	14.63
382.26	14.85
382.626	14.64
382.993	14.85
383.359	14.83
383.725	14.89
384.091	14.81
384.457	15.06
384.823	15.26
385.188	15.09
385.554	15.26
385.92	15.2
386.286	15.18
386.651	15.47
387.017	15.24
387.383	14.96
387.748	15.07
388.114	15.71
388.479	15.41
388.845	15.48
389.21	15.4
389.575	15.56
389.94	15.52
390.306	15.55
390.671	15.49
391.036	15.69
391.401	15.5
391.766	15.96
392.131	15.93
392.496	15.92
392.861	15.75
393.226	15.6
393.591	15.95
393.956	16.11
394.32	15.87
394.685	15.98
395.05	16.16
395.414	16.21
395.779	15.91
396.143	16.22
396.508	16.23
396.872	16.21
397.236	16.1
397.601	16.22
397.965	16.27
398.329	16.22
398.694	16.5
399.058	16.67
399.422	16.66
399.786	16.57
400.15	16.78
400.514	16.54
400.878	16.75
401.242	16.56
401.605	16.72
401.969	16.58
402.333	16.58
402.697	16.96
403.06	16.92
403.424	16.95
403.787	17.23
404.151	17.26
404.514	17.17
404.878	16.86
405.241	16.87
405.604	17.28
405.968	17.24
406.331	17.1
406.694	17.09
407.057	17.21
407.42	17.25
407.783	17.22
408.146	17
408.509	17.31
408.872	17.18
409.235	17.26
409.598	17.8
409.961	17.53
410.323	17.59
410.686	17.76
411.049	17.4
411.411	17.64
411.774	17.48
412.136	17.76
412.499	17.64
412.861	17.65
413.223	17.64
413.586	17.75
413.948	18.1
414.31	17.9
414.672	18.08
415.035	18.25
415.397	18.23
415.759	17.93
416.121	17.87
416.483	18.01
416.845	18.01
417.206	18.11
417.568	18.1
417.93	17.9
418.292	18.16
418.653	18.3
419.015	18.38
419.377	18.26
419.738	18.05
420.1	18.17
420.461	18.36
420.822	18.25
421.184	18.27
421.545	18.15
421.906	18.13
422.267	18.2
422.629	18.18
422.99	18.12
423.351	18.18
423.712	18.3
424.073	18.38
424.434	18.48
424.795	18.41
425.155	18.42
425.516	18.42
425.877	18.48
426.238	18.5
426.598	18.61
426.959	18.71
427.32	18.52
427.68	18.81
428.041	18.86
428.401	18.9
428.761	19.05
429.122	19.02
429.482	19.06
429.842	19.17
430.202	19.17
430.563	19.24
430.923	19.13
431.283	19.26
431.643	19.3
432.003	19.31
432.363	19.42
432.722	19.57
433.082	19.37
433.442	19.46
433.802	19.58
434.161	19.4
434.521	19.48
434.881	19.36
435.24	19.51
435.6	19.55
435.959	19.71
436.319	19.82
436.678	19.64
437.037	19.69
437.396	19.94
437.756	19.62
438.115	19.92
438.474	20.1
438.833	19.98
439.192	19.97
439.551	19.93
439.91	19.85
440.269	19.93
440.628	19.93
440.987	20.1
441.345	20.15
441.704	20.18
442.063	20.07
442.421	20.02
442.78	20.08
443.138	19.96
443.497	20.3
443.855	20.27
444.214	20.3
444.572	20.44
444.93	20.5
445.288	20.44
445.647	20.5
446.005	20.52
446.363	20.66
446.721	20.46
447.079	20.54
447.437	20.46
447.795	20.36
448.153	20.35
448.51	20.43
448.868	20.39
449.226	20.52
449.584	20.5
449.941	20.79
450.299	20.71
450.656	20.81
451.014	21.01
451.371	20.91
451.729	21.08
452.086	21.05
452.443	21.11
452.801	21.1
453.158	21.17
453.515	21.13
453.872	21.33
454.229	21.41
454.586	21.35
454.943	21.23
455.3	21.32
455.657	21.53
456.014	21.34
456.371	21.54
456.727	21.5
457.084	21.51
457.441	21.64
457.797	21.65
458.154	21.61
458.51	21.72
458.867	21.65
459.223	21.88
459.58	21.77
459.936	21.82
460.292	21.86
460.648	21.66
461.005	21.81
461.361	21.62
461.717	21.51
462.073	21.4
462.429	21.57
462.785	21.84
463.141	22
463.496	21.99
463.852	21.89
464.208	22.2
464.564	22.11
464.919	22.28
465.275	22.21
465.631	22.37
465.986	22.28
466.342	22.45
466.697	22.57
467.052	22.52
467.408	22.5
467.763	22.44
468.118	22.29
468.473	22.54
468.829	22.35
469.184	22.4
469.539	22.46
469.894	22.62
470.249	22.68
470.603	22.75
470.958	22.81
471.313	22.81
471.668	22.78
472.023	22.79
472.377	22.91
472.732	22.95
473.086	22.9
473.441	23.15
473.795	22.87
474.15	23.03
474.504	23.19
474.859	23.06
475.213	23.11
475.567	23.22
475.921	23.18
476.275	23.07
476.63	23.11
476.984	23.31
477.338	23.24
477.692	23.27
478.045	23.27
478.399	23.36
478.753	23.37
479.107	23.5
479.461	23.45
479.814	23.28
480.168	23.4
480.521	23.27
480.875	23.51
481.228	23.45
481.582	23.57
481.935	23.6
482.289	23.46
482.642	23.45
482.995	23.49
483.348	23.38
483.701	23.39
484.055	23.36
484.408	23.14
484.761	22.94
485.114	22.76
485.466	22.83
485.819	22.74
486.172	22.79
486.525	22.9
486.878	23.06
487.23	23.16
487.583	23.27
487.936	23.35
488.288	23.24
488.641	23.22
488.993	23.27
489.345	23.18
489.698	23.28
490.05	23.24
490.402	23.33
490.754	23.45
491.107	23.58
491.459	23.71
491.811	23.77
492.163	24.03
492.515	23.83
492.866	23.7
493.218	23.53
493.57	23.62
493.922	23.67
494.274	23.73
494.625	23.99
494.977	24.06
495.328	24.19
495.68	24.26
496.031	24.46
496.383	24.71
496.734	24.73
497.086	24.58
497.437	24.6
497.788	24.69
498.139	24.49
498.49	24.6
498.842	24.51
499.193	24.69
499.544	24.76
499.894	24.76
500.245	24.79
500.596	24.97
500.947	25.06
501.298	25.1
501.648	25.21
501.999	25.08
502.35	25.15
502.7	25.24
503.051	25.27
503.401	25.27
503.752	25.2
504.102	25.48
504.452	25.23
504.803	25.56
505.153	25.61
505.503	25.39
505.853	25.39
506.203	25.44
506.553	25.47
506.903	25.49
507.253	25.7
507.603	25.72
507.953	25.58
508.303	25.7
508.652	25.72
509.002	25.6
509.352	25.77
509.701	25.63
510.051	25.85
510.4	25.73
510.75	25.57
511.099	25.61
511.449	25.65
511.798	25.56
512.147	25.86
512.496	25.83
512.846	25.85
513.195	25.93
513.544	25.88
513.893	25.88
514.242	25.96
514.591	26.18
514.939	26.13
515.288	26.24
515.637	26.15
515.986	26.26
516.334	26.31
516.683	26.19
517.032	26.29
517.38	26.39
517.729	26.34
518.077	26.35
518.426	26.17
518.774	26.3
519.122	26.44
519.47	26.21
519.819	26.24
520.167	26.11
520.515	26.12
520.863	26.25
521.211	26.32
521.559	26.29
521.907	26.32
522.255	26.38
522.602	26.65
522.95	26.75
523.298	26.84
523.645	26.75
523.993	26.87
524.341	26.93
524.688	26.79
525.036	26.79
525.383	26.81
525.73	26.81
526.078	26.79
526.425	26.75
526.772	26.7
527.119	26.52
527.466	26.48
527.814	26.54
528.161	26.54
528.508	26.73
528.854	26.73
529.201	26.71
529.548	26.46
529.895	26.28
530.242	26.35
530.588	26.39
530.935	26.47
531.282	26.56
531.628	26.64
531.975	26.83
532.321	26.91
532.667	27.03
533.014	27.19
533.36	27.32
533.706	27.21
534.052	27.28
534.399	27.11
534.745	26.97
535.091	26.93
535.437	27.09
535.783	27.1
536.129	27.25
536.474	27.24
536.82	27.52
537.166	27.64
537.512	27.46
537.857	27.54
538.203	27.48
538.549	27.43
538.894	27.45
539.239	27.55
539.585	27.81
539.93	27.92
540.276	27.98
540.621	28.24
540.966	28.29
541.311	28.07
541.656	28.04
542.001	27.92
542.346	27.83
542.691	27.51
543.036	27.5
543.381	27.61
543.726	27.67
544.071	27.71
544.415	27.76
544.76	27.81
545.105	27.94
545.449	27.99
545.794	28.1
546.138	28.18
546.483	28.36
546.827	28.37
547.171	28.63
547.516	28.34
547.86	28.57
548.204	28.53
548.548	28.34
548.892	28.43
549.236	28.61
549.58	28.84
549.924	28.86
550.268	28.98
550.612	28.76
550.956	29.01
551.3	28.98
551.643	29.13
551.987	29.15
552.33	29.25
552.674	29.07
553.017	29.21
553.361	29.16
553.704	29.46
554.048	28.94
554.391	29.42
554.734	29.17
555.077	29.28
555.42	29.38
555.764	29.36
556.107	29.34
556.45	29.5
556.793	29.58
557.135	29.48
557.478	29.7
557.821	29.76
558.164	29.82
558.507	29.81
558.849	29.82
559.192	30.01
559.534	29.96
559.877	29.75
560.219	29.7
560.562	29.97
560.904	29.89
561.246	30.17
561.589	30.15
561.931	29.87
562.273	30.04
562.615	29.99
562.957	30.09
563.299	30.21
563.641	30.05
563.983	29.98
564.325	30.42
564.667	30.36
565.008	30.1
565.35	30.38
565.692	30.29
566.033	30.24
566.375	30.35
566.716	30.32
567.058	30.13
567.399	30.2
567.741	30.2
568.082	30.26
568.423	30.36
568.764	30.44
569.105	30.27
569.447	30.5
569.788	30.52
570.129	30.63
570.47	30.4
570.811	30.63
571.151	30.6
571.492	30.71
571.833	30.59
572.174	30.45
572.514	30.96
572.855	30.65
573.195	30.7
573.536	30.68
573.876	30.8
574.217	30.58
574.557	30.66
574.898	30.89
575.238	30.93
575.578	30.86
575.918	30.77
576.258	31.02
576.598	30.94
576.938	30.93
577.278	31
577.618	31.18
577.958	31.12
578.298	31.22
578.638	30.89
578.977	31.18
579.317	31.35
579.657	31.21
579.996	31.17
580.336	31.44
580.675	31.37
581.014	31.37
581.354	31.67
581.693	31.55
582.032	31.68
582.372	31.66
582.711	31.55
583.05	31.85
583.389	31.61
583.728	31.82
584.067	31.96
584.406	31.81
584.745	31.91
585.083	31.97
585.422	32.29
585.761	31.79
586.1	32.03
586.438	32.39
586.777	32.07
587.115	32.23
587.454	32.25
587.792	31.83
588.13	32.54
588.469	32.08
588.807	32.47
589.145	32.07
589.483	32.1
589.821	32.45
590.159	32.21
590.497	32.06
590.835	32.34
591.173	32.22
591.511	32.13
591.849	32.39
592.187	32.31
592.524	32.55
592.862	32.65
593.2	32.49
593.537	32.28
593.875	32.55
594.212	32.61
594.55	32.78
594.887	32.58
595.224	32.59
595.561	32.5
595.899	32.44
596.236	32.64
596.573	32.54
596.91	32.66
597.247	32.66
597.584	32.83
597.921	32.66
598.258	32.46
598.594	32.45
598.931	32.58
599.268	32.45
599.604	32.68
599.941	32.47
600.277	32.92
600.614	33.01
600.95	33.28
601.287	32.92
601.623	32.94
601.959	32.93
602.296	33.2
602.632	33.25
602.968	33.28
603.304	33.16
603.64	33.24
603.976	33.29
604.312	33.09
604.648	33.15
604.984	33.23
605.319	33.07
605.655	33.05
605.991	32.95
606.326	32.9
606.662	33.13
606.998	32.95
607.333	33
607.668	33.18
608.004	33.45
608.339	33.27
608.674	33.44
609.01	33.58
609.345	33.46
609.68	33.7
610.015	33.73
610.35	33.57
610.685	33.4
611.02	33.15
611.355	33.45
611.689	33.37
612.024	33.72
612.359	33.65
612.694	33.76
613.028	34.02
613.363	34.1
613.697	33.86
614.032	33.87
614.366	34.18
614.7	33.72
615.035	34.06
615.369	34.07
615.703	34.09
616.037	34.06
616.371	33.9
616.705	34.25
617.039	33.9
617.373	34.09
617.707	34.21
618.041	34.34
618.375	34.15
618.709	34.08
619.042	34.11
619.376	34.19
619.71	34.06
620.043	34.54
620.377	34.73
620.71	34.56
621.043	34.3
621.377	34.93
621.71	34.03
622.043	34.27
622.376	34.64
622.709	33.98
623.043	34.86
623.376	34.33
623.709	34.76
624.041	34.81
624.374	34.64
624.707	34.16
625.04	34.64
625.373	34.86
625.705	34.81
626.038	34.63
626.37	34.86
626.703	35.09
627.035	34.42
627.368	34.35
627.7	34.56
628.032	34.87
628.365	34.87
628.697	35.01
629.029	34.62
629.361	34.7
629.693	34.79
630.025	35.16
630.357	35.06
630.689	35.31
631.021	34.81
631.353	35.05
631.684	35.32
632.016	35.38
632.348	35.42
632.679	35.34
633.011	35.39
633.342	34.92
633.674	35.09
634.005	35.25
634.336	35.2
634.668	35.3
634.999	35.32
635.33	35.38
635.661	35.4
635.992	35.29
636.323	35.39
636.654	34.99
636.985	35.53
637.316	35.45
637.647	35.11
637.977	35.62
638.308	35.72
638.639	35.7
638.969	35.62
639.3	35.13
639.63	35.18
639.961	35.49
640.291	35.88
640.622	35.55
640.952	35.56
641.282	35.56
641.612	35.81
641.943	36.02
642.273	35.66
642.603	35.45
642.933	35.36
643.263	35.7
643.592	36.12
643.922	35.66
644.252	35.7
644.582	36.19
644.911	35.97
645.241	35.9
645.571	35.77
645.9	36.36
646.23	36.28
646.559	36.33
646.888	36.31
647.218	35.54
647.547	36.45
647.876	35.99
648.205	36.31
648.534	36.06
648.863	35.83
649.192	36.17
649.521	36.06
649.85	36.2
650.179	36.36
650.508	36.21
650.837	36.4
651.165	36.27
651.494	36.63
651.822	36.61
652.151	36.62
652.479	36.22
652.808	36.96
653.136	36.65
653.465	36.32
653.793	36.36
654.121	36.13
654.449	36.75
654.777	36.7
655.105	36.54
655.433	36.76
655.761	36.78
656.089	37.49
656.417	36.62
656.745	36.49
657.073	36.32
657.4	36.81
657.728	36.69
658.056	36.82
658.383	36.41
658.711	36.67
659.038	36.81
659.365	37.1
659.693	36.89
660.02	37.16
660.347	36.92
660.674	36.91
661.001	36.94
661.329	37.21
661.656	37.3
661.982	37.12
662.309	37.2
662.636	37.02
662.963	36.94
663.29	36.3
663.616	37.35
663.943	36.98
664.27	36.87
664.596	36.58
664.923	36.9
665.249	37.54
665.576	36.94
665.902	37.28
666.228	38.05
666.554	37.43
666.881	36.93
667.207	36.69
667.533	36.41
667.859	37.2
668.185	37.54
668.511	37.55
668.837	37.42
669.162	36.97
669.488	37.48
669.814	37.3
670.139	36.86
670.465	37.74
670.791	37.08
