Data from 1890-1_crown_Reflection__3__129.txt Node

Date: Fri Sep 30 18:48:46 CDT 2022
User: ToomeyLab
Spectrometer: FLMS14357
Trigger mode: 0
Integration Time (sec): 1.000000E-2
Scans to average: 100
Electric dark correction enabled: true
Nonlinearity correction enabled: false
Boxcar width: 0
XAxis mode: Wavelengths
Number of Pixels in Spectrum: 2048
>>>>>Begin Spectral Data<<<<<
189.047	-612.34
189.435	-612.34
189.823	-612.34
190.211	202.79
190.599	49.19
190.987	70.65
191.375	134.23
191.763	198.68
192.151	-439.52
192.538	20.12
192.926	1731.85
193.314	11.22
193.702	78.09
194.089	-33.78
194.477	242.73
194.864	63.15
195.252	139.19
195.639	191.12
196.027	12.85
196.414	310.58
196.801	26.02
197.189	72.9
197.576	88.64
197.963	101.6
198.351	-26.99
198.738	-71.51
199.125	34.04
199.512	-2.79
199.899	26.71
200.286	-22.61
200.673	45.37
201.06	28.97
201.447	-3.16
201.833	22.86
202.22	32.17
202.607	22.09
202.994	53.94
203.38	8.3
203.767	25.34
204.154	15.6
204.54	35.17
204.927	29.58
205.313	-20.38
205.699	-10.42
206.086	-31.15
206.472	9.82
206.858	30.8
207.245	29.65
207.631	3.09
208.017	-10.55
208.403	33.26
208.789	18.65
209.175	15.94
209.561	-24.84
209.947	-10.52
210.333	-59.93
210.719	17.97
211.105	16.21
211.491	-13.56
211.876	0.46
212.262	21.71
212.648	33.99
213.034	-21.75
213.419	-1.12
213.805	12.02
214.19	9.14
214.576	14.91
214.961	12.46
215.346	19.87
215.732	7.24
216.117	-11.78
216.502	26.76
216.888	19.54
217.273	-10.41
217.658	36.28
218.043	14.27
218.428	2.93
218.813	42.18
219.198	8.02
219.583	-0.67
219.968	14.27
220.353	1.59
220.738	15.02
221.122	2.4
221.507	11.93
221.892	12.14
222.276	-12.77
222.661	9.89
223.046	-14.57
223.43	5.98
223.815	12.94
224.199	3.84
224.583	0.22
224.968	16.54
225.352	11
225.736	17.24
226.121	9.32
226.505	5.03
226.889	7.8
227.273	4.2
227.657	8.71
228.041	6.95
228.425	12.38
228.809	9.02
229.193	12.45
229.577	7.35
229.961	10.05
230.344	8.55
230.728	8.51
231.112	8.15
231.495	8.64
231.879	9.7
232.263	8.56
232.646	7.56
233.03	8.18
233.413	9.4
233.797	8.66
234.18	9.63
234.563	8.27
234.946	10.42
235.33	9.55
235.713	10.14
236.096	8.03
236.479	8.85
236.862	8.53
237.245	9.02
237.628	10.37
238.011	10.18
238.394	8.66
238.777	5.35
239.16	8.52
239.543	7.8
239.925	7.16
240.308	7.37
240.691	7.27
241.073	9.42
241.456	7.66
241.838	8.27
242.221	8.36
242.603	8.06
242.986	8.65
243.368	8.16
243.75	7.99
244.133	8.55
244.515	8.02
244.897	8.36
245.279	8.93
245.661	7.66
246.043	8.37
246.425	7.1
246.807	6.95
247.189	8.08
247.571	8.48
247.953	8.8
248.335	7.83
248.717	7.96
249.098	8.03
249.48	7.54
249.862	7.8
250.243	7.85
250.625	7.71
251.006	8.34
251.388	6.71
251.769	8.14
252.151	7.66
252.532	8.46
252.913	7.91
253.295	7.63
253.676	7.65
254.057	7.88
254.438	7.37
254.819	8.36
255.2	7.28
255.581	7.24
255.962	7.59
256.343	8.47
256.724	8.2
257.105	8.27
257.486	6.95
257.867	8.07
258.247	7.54
258.628	7.87
259.009	8.2
259.389	6.85
259.77	7.77
260.15	7.27
260.531	7.93
260.911	7.61
261.292	7.39
261.672	7.31
262.052	7.21
262.432	6.98
262.813	7.81
263.193	7.38
263.573	7.23
263.953	6.77
264.333	7.8
264.713	7.16
265.093	6.71
265.473	7.32
265.853	7.55
266.233	6.62
266.612	6.92
266.992	7.14
267.372	6.74
267.752	7.25
268.131	7.42
268.511	6.68
268.89	6.62
269.27	7.33
269.649	6.82
270.029	7.21
270.408	7.25
270.787	7.37
271.167	7.31
271.546	7.1
271.925	7.24
272.304	7.43
272.683	7.3
273.062	6.99
273.441	6.86
273.82	6.46
274.199	7.02
274.578	6.62
274.957	7.06
275.336	6.53
275.715	6.56
276.093	6.89
276.472	6.66
276.851	6.68
277.229	6.81
277.608	6.72
277.986	6.98
278.365	7
278.743	7.02
279.122	7.03
279.5	7.27
279.878	6.59
280.257	6.61
280.635	7.06
281.013	7.27
281.391	6.8
281.769	7.26
282.147	6.52
282.525	6.89
282.903	6.65
283.281	5.94
283.659	6.68
284.037	6.7
284.415	6.44
284.792	6.85
285.17	6.54
285.548	6.52
285.925	6.42
286.303	6.36
286.68	6.01
287.058	6.44
287.435	6.74
287.813	6.55
288.19	6.58
288.567	6.42
288.945	6.1
289.322	6.46
289.699	6.35
290.076	6.66
290.453	6.65
290.83	6.34
291.207	6.22
291.584	5.94
291.961	6.38
292.338	6.65
292.715	6.46
293.092	6.06
293.469	6.35
293.845	6.8
294.222	6.34
294.599	6.71
294.975	6.4
295.352	6.53
295.728	6.81
296.105	6.49
296.481	6.31
296.858	6.37
297.234	6.39
297.61	6.34
297.986	5.8
298.363	6.49
298.739	6.03
299.115	6.08
299.491	6.28
299.867	6.15
300.243	5.99
300.619	5.65
300.995	6.53
301.371	5.89
301.746	5.89
302.122	6.5
302.498	6.36
302.874	6.51
303.249	6.21
303.625	6.5
304	6.05
304.376	5.99
304.751	6.58
305.127	6.17
305.502	6.62
305.878	6.42
306.253	5.81
306.628	6.3
307.003	6
307.378	6.02
307.754	5.96
308.129	6.39
308.504	5.8
308.879	6.25
309.254	6.03
309.629	6.23
310.003	6.19
310.378	5.79
310.753	6.03
311.128	6
311.502	6.34
311.877	6.31
312.252	6.17
312.626	6.28
313.001	6.01
313.375	6.01
313.75	6.37
314.124	6.25
314.498	5.86
314.873	6.1
315.247	5.65
315.621	6.33
315.995	6.21
316.369	5.55
316.743	6.17
317.117	6.66
317.491	6.92
317.865	6.72
318.239	6.43
318.613	6.34
318.987	6.04
319.361	6.05
319.734	5.48
320.108	5.94
320.482	5.74
320.855	5.94
321.229	6.48
321.602	6.1
321.976	6.2
322.349	6.07
322.723	5.58
323.096	5.99
323.469	5.72
323.843	6.14
324.216	5.91
324.589	6.22
324.962	6.34
325.335	5.44
325.708	5.93
326.081	6.18
326.454	5.89
326.827	5.43
327.2	5.74
327.573	5.6
327.945	5.97
328.318	5.6
328.691	6.11
329.063	5.95
329.436	5.46
329.809	6.27
330.181	6.24
330.553	5.85
330.926	6.1
331.298	5.3
331.671	5.53
332.043	5.9
332.415	5.98
332.787	5.86
333.159	5.79
333.532	6.23
333.904	5.86
334.276	6.08
334.648	6.22
335.02	5.92
335.391	6.18
335.763	5.98
336.135	5.81
336.507	6.35
336.879	6.06
337.25	5.44
337.622	5.99
337.993	6.05
338.365	6.19
338.736	5.78
339.108	6.16
339.479	6.34
339.851	5.56
340.222	6.12
340.593	5.81
340.964	5.8
341.336	6.19
341.707	5.9
342.078	6.1
342.449	5.84
342.82	5.78
343.191	6.02
343.562	5.68
343.933	5.82
344.303	5.88
344.674	6.17
345.045	5.84
345.416	6.2
345.786	6.22
346.157	6.25
346.527	6.19
346.898	6.07
347.268	5.88
347.639	5.73
348.009	6.1
348.38	6.24
348.75	6.49
349.12	6.44
349.49	6.32
349.861	5.59
350.231	6.36
350.601	6.15
350.971	6.11
351.341	6.23
351.711	6.42
352.081	6.23
352.45	6.61
352.82	6.47
353.19	6.3
353.56	5.82
353.929	5.9
354.299	6.2
354.669	6.03
355.038	6.35
355.408	6.46
355.777	5.87
356.147	6.01
356.516	6.23
356.885	6.17
357.254	6.34
357.624	6.1
357.993	5.61
358.362	6.34
358.731	5.95
359.1	6
359.469	6.13
359.838	6.61
360.207	6.21
360.576	6.06
360.945	6.31
361.314	5.78
361.682	6.14
362.051	6.17
362.42	6.31
362.788	6.29
363.157	6.38
363.525	6.12
363.894	6.28
364.262	6.18
364.631	6.63
364.999	6.2
365.367	6.44
365.735	6.07
366.104	6.14
366.472	6.51
366.84	6.59
367.208	6.36
367.576	6.97
367.944	6.31
368.312	6.55
368.68	6.51
369.048	6.03
369.416	6.64
369.783	6.21
370.151	6.4
370.519	6.47
370.886	6.52
371.254	6.34
371.621	6.7
371.989	6.58
372.356	6.38
372.724	6.44
373.091	6.44
373.458	6.63
373.826	6.61
374.193	6.65
374.56	6.76
374.927	7.07
375.294	6.68
375.661	6.28
376.028	6.38
376.395	6.71
376.762	6.32
377.129	6.85
377.496	6.65
377.863	6.17
378.229	6.62
378.596	6.53
378.963	6.64
379.329	6.53
379.696	6.61
380.062	6.66
380.429	6.71
380.795	6.34
381.161	6.52
381.528	6.54
381.894	6.55
382.26	6.48
382.626	6.39
382.993	6.48
383.359	6.44
383.725	6.01
384.091	6.52
384.457	6.77
384.823	7.02
385.188	6.45
385.554	6.78
385.92	6.99
386.286	6.78
386.651	6.74
387.017	6.79
387.383	6.61
387.748	6.2
388.114	6.76
388.479	6.51
388.845	6.77
389.21	6.62
389.575	6.55
389.94	6.84
390.306	6.86
390.671	6.79
391.036	6.91
391.401	6.69
391.766	6.84
392.131	6.68
392.496	6.77
392.861	6.91
393.226	6.88
393.591	6.56
393.956	6.85
394.32	6.87
394.685	6.55
395.05	6.72
395.414	6.73
395.779	6.63
396.143	6.91
396.508	6.69
396.872	6.7
397.236	6.55
397.601	6.85
397.965	6.84
398.329	6.54
398.694	6.89
399.058	6.88
399.422	7.17
399.786	6.81
400.15	6.94
400.514	6.85
400.878	6.9
401.242	6.73
401.605	6.76
401.969	6.82
402.333	7
402.697	7.1
403.06	6.89
403.424	6.82
403.787	7.03
404.151	7
404.514	7.11
404.878	6.95
405.241	7.1
405.604	7.1
405.968	7.07
406.331	6.82
406.694	6.85
407.057	6.89
407.42	7.06
407.783	6.94
408.146	6.87
408.509	6.93
408.872	6.75
409.235	7.21
409.598	7.29
409.961	6.7
410.323	7.08
410.686	7.07
411.049	6.82
411.411	7.13
411.774	6.97
412.136	7.01
412.499	6.97
412.861	6.94
413.223	6.84
413.586	7.07
413.948	7.32
414.31	7
414.672	6.87
415.035	7.09
415.397	7.21
415.759	6.86
416.121	6.87
416.483	7.07
416.845	7.12
417.206	7.08
417.568	7.25
417.93	6.72
418.292	7
418.653	6.95
419.015	6.96
419.377	7.03
419.738	6.85
420.1	7.11
420.461	7.07
420.822	6.94
421.184	7.01
421.545	6.83
421.906	6.74
422.267	6.87
422.629	6.98
422.99	6.88
423.351	6.92
423.712	6.9
424.073	6.95
424.434	7.01
424.795	6.92
425.155	6.91
425.516	6.95
425.877	7.05
426.238	6.99
426.598	7.07
426.959	6.96
427.32	7.01
427.68	7.01
428.041	7
428.401	7.02
428.761	7.25
429.122	7.04
429.482	7.11
429.842	7.12
430.202	7.07
430.563	7.18
430.923	7.06
431.283	6.99
431.643	7.17
432.003	7.06
432.363	7.06
432.722	7.29
433.082	7.28
433.442	7.28
433.802	7.12
434.161	7.15
434.521	7.12
434.881	7
435.24	7.09
435.6	7.18
435.959	7.19
436.319	7.2
436.678	7.13
437.037	7.27
437.396	7.38
437.756	7.05
438.115	7.05
438.474	7.25
438.833	7.24
439.192	7.23
439.551	7.13
439.91	7.11
440.269	6.94
440.628	7.22
440.987	7.29
441.345	7.11
441.704	7.2
442.063	7.25
442.421	7.13
442.78	7.16
443.138	7.08
443.497	7.13
443.855	7.26
444.214	7.22
444.572	7.31
444.93	7.21
445.288	7.18
445.647	7.18
446.005	7.21
446.363	7.38
446.721	7.07
447.079	7.02
447.437	7.2
447.795	7.15
448.153	7.04
448.51	7.07
448.868	7
449.226	7.18
449.584	7.08
449.941	7.24
450.299	7.18
450.656	7.19
451.014	7.33
451.371	7.23
451.729	7.21
452.086	7.17
452.443	7.24
452.801	7.28
453.158	7.1
453.515	7.31
453.872	7.28
454.229	7.24
454.586	7.31
454.943	7.23
455.3	7.21
455.657	7.3
456.014	6.98
456.371	7.32
456.727	7.21
457.084	6.98
457.441	7.22
457.797	7.3
458.154	7.14
458.51	7.17
458.867	7.42
459.223	7.31
459.58	7.34
459.936	7.33
460.292	7.25
460.648	7.26
461.005	7.27
461.361	7.16
461.717	7.1
462.073	7.16
462.429	7.18
462.785	7.19
463.141	7.22
463.496	7.17
463.852	7.14
464.208	7.3
464.564	7.14
464.919	7.18
465.275	7.26
465.631	7.28
465.986	7.28
466.342	7.35
466.697	7.35
467.052	7.4
467.408	7.21
467.763	7.08
468.118	7.38
468.473	7.34
468.829	7.27
469.184	7.32
469.539	7.31
469.894	7.29
470.249	7.21
470.603	7.27
470.958	7.31
471.313	7.25
471.668	7.29
472.023	7.33
472.377	7.28
472.732	7.4
473.086	7.38
473.441	7.33
473.795	7.17
474.15	7.35
474.504	7.33
474.859	7.29
475.213	7.2
475.567	7.33
475.921	7.25
476.275	7.07
476.63	7.26
476.984	7.41
477.338	7.21
477.692	7.36
478.045	7.33
478.399	7.22
478.753	7.45
479.107	7.27
479.461	7.24
479.814	7.16
480.168	7.37
480.521	7.14
480.875	7.28
481.228	7.24
481.582	7.2
481.935	7.2
482.289	7.19
482.642	7.17
482.995	7.14
483.348	7.22
483.701	7.21
484.055	7.12
484.408	7.08
484.761	7.02
485.114	6.94
485.466	6.89
485.819	6.88
486.172	6.86
486.525	6.94
486.878	6.96
487.23	7.01
487.583	7.05
487.936	7.09
488.288	7.08
488.641	7.07
488.993	6.97
489.345	6.98
489.698	7
490.05	6.97
490.402	6.99
490.754	7.04
491.107	7.05
491.459	7.09
491.811	7.09
492.163	7.14
492.515	7.17
492.866	7.08
493.218	6.97
493.57	6.97
493.922	7.01
494.274	7.03
494.625	7.18
494.977	7.19
495.328	7.27
495.68	7.27
496.031	7.32
496.383	7.27
496.734	7.28
497.086	7.23
497.437	7.28
497.788	7.26
498.139	7.12
498.49	7.11
498.842	7.25
499.193	7.23
499.544	7.23
499.894	7.26
500.245	7.16
500.596	7.24
500.947	7.22
501.298	7.35
501.648	7.17
501.999	7.28
502.35	7.28
502.7	7.29
503.051	7.35
503.401	7.45
503.752	7.08
504.102	7.39
504.452	7.24
504.803	7.29
505.153	7.35
505.503	7.26
505.853	7.27
506.203	7.16
506.553	7.21
506.903	7.24
507.253	7.37
507.603	7.33
507.953	7.35
508.303	7.42
508.652	7.36
509.002	7.51
509.352	7.38
509.701	7.29
510.051	7.34
510.4	7.23
510.75	7.24
511.099	7.26
511.449	7.28
511.798	7.19
512.147	7.36
512.496	7.28
512.846	7.13
513.195	7.43
513.544	7.28
513.893	7.34
514.242	7.38
514.591	7.27
514.939	7.24
515.288	7.37
515.637	7.18
515.986	7.34
516.334	7.44
516.683	7.18
517.032	7.18
517.38	7.25
517.729	7.33
518.077	7.19
518.426	7.29
518.774	7.34
519.122	7.25
519.47	7.29
519.819	7.24
520.167	7.3
520.515	7.21
520.863	7.23
521.211	7.29
521.559	7.34
521.907	7.37
522.255	7.17
522.602	7.24
522.95	7.39
523.298	7.35
523.645	7.29
523.993	7.41
524.341	7.37
524.688	7.38
525.036	7.34
525.383	7.11
525.73	7.3
526.078	7.32
526.425	7.15
526.772	7.31
527.119	7.2
527.466	7.1
527.814	7.14
528.161	7.11
528.508	7.22
528.854	7.04
529.201	7.12
529.548	7.13
529.895	7.04
530.242	7.01
530.588	7
530.935	7.02
531.282	7.12
531.628	7.08
531.975	7.11
532.321	7.15
532.667	7.19
533.014	7.21
533.36	7.19
533.706	7.24
534.052	7.23
534.399	7.16
534.745	7.13
535.091	7.1
535.437	7.16
535.783	7.17
536.129	7.18
536.474	7.15
536.82	7.12
537.166	7.28
537.512	7.31
537.857	7.34
538.203	7.22
538.549	7.2
538.894	7.29
539.239	7.28
539.585	7.21
539.93	7.35
540.276	7.34
540.621	7.27
540.966	7.33
541.311	7.48
541.656	7.37
542.001	7.23
542.346	7.34
542.691	7.14
543.036	7.06
543.381	7.08
543.726	7.11
544.071	7.18
544.415	7.15
544.76	7.17
545.105	7.17
545.449	7.26
545.794	7.26
546.138	7.17
546.483	7.35
546.827	7.3
547.171	7.32
547.516	7.2
547.86	7.19
548.204	7.34
548.548	7.32
548.892	7.32
549.236	7.31
549.58	7.41
549.924	7.25
550.268	7.36
550.612	7.37
550.956	7.34
551.3	7.42
551.643	7.46
551.987	7.32
552.33	7.45
552.674	7.38
553.017	7.36
553.361	7.32
553.704	7.59
554.048	7.43
554.391	7.44
554.734	7.29
555.077	7.37
555.42	7.43
555.764	7.43
556.107	7.49
556.45	7.48
556.793	7.29
557.135	7.41
557.478	7.4
557.821	7.37
558.164	7.5
558.507	7.61
558.849	7.4
559.192	7.54
559.534	7.49
559.877	7.57
560.219	7.52
560.562	7.39
560.904	7.33
561.246	7.25
561.589	7.31
561.931	7.34
562.273	7.59
562.615	7.36
562.957	7.36
563.299	7.36
563.641	7.35
563.983	7.38
564.325	7.44
564.667	7.57
565.008	7.18
565.35	7.5
565.692	7.55
566.033	7.27
566.375	7.24
566.716	7.35
567.058	7.39
567.399	7.38
567.741	7.31
568.082	7.45
568.423	7.45
568.764	7.4
569.105	7.23
569.447	7.41
569.788	7.46
570.129	7.48
570.47	7.49
570.811	7.29
571.151	7.45
571.492	7.38
571.833	7.49
572.174	7.33
572.514	7.35
572.855	7.43
573.195	7.55
573.536	7.44
573.876	7.64
574.217	7.21
574.557	7.39
574.898	7.56
575.238	7.51
575.578	7.39
575.918	7.21
576.258	7.48
576.598	7.49
576.938	7.46
577.278	7.43
577.618	7.38
577.958	7.47
578.298	7.48
578.638	7.62
578.977	7.55
579.317	7.28
579.657	7.57
579.996	7.27
580.336	7.59
580.675	7.53
581.014	7.3
581.354	7.48
581.693	7.59
582.032	7.48
582.372	7.48
582.711	7.44
583.05	7.53
583.389	7.4
583.728	7.5
584.067	7.36
584.406	7.39
584.745	7.41
585.083	7.29
585.422	7.49
585.761	7.55
586.1	7.36
586.438	7.51
586.777	7.65
587.115	7.52
587.454	7.56
587.792	7.24
588.13	7.52
588.469	7.22
588.807	7.39
589.145	7.41
589.483	7.56
589.821	7.59
590.159	7.57
590.497	7.35
590.835	7.35
591.173	7.47
591.511	7.27
591.849	7.45
592.187	7.55
592.524	7.61
592.862	7.69
593.2	7.48
593.537	7.23
593.875	7.66
594.212	7.26
594.55	7.27
594.887	7.68
595.224	7.21
595.561	7.23
595.899	7.32
596.236	7.6
596.573	7.27
596.91	7.54
597.247	7.22
597.584	7.54
597.921	7.48
598.258	7.31
598.594	7.43
598.931	7.29
599.268	7.24
599.604	7.34
599.941	7.3
600.277	7.17
600.614	7.54
600.95	7.46
601.287	7.26
601.623	7.63
601.959	7.58
602.296	7.47
602.632	7.41
602.968	7.66
603.304	7.33
603.64	7.24
603.976	7.19
604.312	7.34
604.648	7.59
604.984	7.43
605.319	7.32
605.655	7.45
605.991	7.36
606.326	7.38
606.662	7.32
606.998	7.51
607.333	7.39
607.668	7.5
608.004	7.4
608.339	7.42
608.674	7.58
609.01	7.46
609.345	7.26
609.68	7.59
610.015	7.56
610.35	7.28
610.685	7.25
611.02	7.14
611.355	7.38
611.689	7.32
612.024	7.58
612.359	7.55
612.694	7.49
613.028	7.39
613.363	7.25
613.697	7.26
614.032	7.55
614.366	7.37
614.7	7.31
615.035	7.52
615.369	7.32
615.703	7.34
616.037	7.31
616.371	7.47
616.705	7.13
617.039	7.37
617.373	7.63
617.707	7.32
618.041	7.29
618.375	7.64
618.709	7.45
619.042	7.33
619.376	7.8
619.71	7.48
620.043	7.82
620.377	7.59
620.71	7.36
621.043	7.49
621.377	7.73
621.71	7.2
622.043	7.24
622.376	7.28
622.709	7.47
623.043	7.44
623.376	7.24
623.709	7.52
624.041	7.23
624.374	7.25
624.707	7.32
625.04	7.42
625.373	7.8
625.705	7.27
626.038	7.46
626.37	7.28
626.703	7.21
627.035	7.22
627.368	7.72
627.7	7.71
628.032	7.53
628.365	7.47
628.697	7.56
629.029	7.14
629.361	7.55
629.693	7.6
630.025	7.57
630.357	7.45
630.689	7.52
631.021	7.38
631.353	7.28
631.684	7.79
632.016	8.04
632.348	7.35
632.679	7.31
633.011	7.51
633.342	7.36
633.674	7.67
634.005	7.62
634.336	7.61
634.668	7.42
634.999	7.45
635.33	8.02
635.661	7.17
635.992	7.65
636.323	7.55
636.654	7.46
636.985	7.46
637.316	7.6
637.647	7.13
637.977	7.81
638.308	7.17
638.639	7.26
638.969	7.68
639.3	7.36
639.63	7.27
639.961	7.64
640.291	7.42
640.622	7.65
640.952	7.84
641.282	7.47
641.612	7.09
641.943	7.4
642.273	7.94
642.603	7.33
642.933	6.94
643.263	7.46
643.592	7.75
643.922	7.39
644.252	7.49
644.582	7.7
644.911	7.84
645.241	7.41
645.571	7.24
645.9	7.03
646.23	7.29
646.559	7.26
646.888	7.36
647.218	7.3
647.547	7.28
647.876	7.08
648.205	7.44
648.534	7.22
648.863	7.73
649.192	6.92
649.521	7.73
649.85	7.03
650.179	7.6
650.508	7.51
650.837	7.79
651.165	7.43
651.494	6.83
651.822	7.89
652.151	7.5
652.479	7.7
652.808	7.35
653.136	7.29
653.465	7.17
653.793	6.86
654.121	7.28
654.449	7.37
654.777	7.37
655.105	7.52
655.433	7.43
655.761	8.12
656.089	7.93
656.417	7.41
656.745	7.29
657.073	7.37
657.4	7.77
657.728	7.35
658.056	7.52
658.383	7.5
658.711	7.42
659.038	7.15
659.365	7.18
659.693	7.05
660.02	7.35
660.347	7.68
660.674	7.17
661.001	7.59
661.329	7.83
661.656	7.57
661.982	7.67
662.309	7.69
662.636	7.51
662.963	7.37
663.29	7.26
663.616	7.06
663.943	7.4
664.27	6.98
664.596	7.53
664.923	7.51
665.249	7.47
665.576	7.86
665.902	7.25
666.228	7.82
666.554	7.55
666.881	7.39
667.207	7.19
667.533	6.96
667.859	7.28
668.185	7.96
668.511	7.56
668.837	7.51
669.162	7.79
669.488	7.54
669.814	7.22
670.139	7.18
670.465	7.84
670.791	7.51
671.116	7.12
671.442	7.6
671.767	7.48
672.092	7.77
672.418	7.64
672.743	7.12
673.068	7.76
673.393	7.71
673.718	7.42
674.043	7.81
674.368	7.79
674.693	7.3
675.018	7.31
675.343	7.49
675.667	8.14
675.992	7.06
676.317	7.37
676.641	7.59
676.966	7.35
677.29	7.07
677.615	7.41
677.939	7.91
678.264	7.09
678.588	7.72
678.912	7.74
679.236	7.79
679.56	7.19
679.885	7.72
680.209	7.65
680.532	7.21
680.856	7.86
681.18	7.94
681.504	7.2
681.828	7.79
682.152	7.2
682.475	7.19
682.799	7.3
683.122	7.08
683.446	7.85
683.769	7.81
684.093	7.56
684.416	7.52
684.739	7.31
685.062	7.62
685.386	7.75
685.709	7.47
686.032	7.64
686.355	7.56
686.678	7.26
687.001	7.78
687.324	7.56
687.646	7.49
687.969	7.3
688.292	8.44
688.614	7.01
688.937	7.49
689.26	7.85
689.582	7.44
689.904	7.49
690.227	7.58
690.549	7.28
690.871	7.88
691.194	7.55
691.516	7.62
691.838	7.07
692.16	7.75
