Data from 1890-1_chest_Reflection__1__122.txt Node

Date: Fri Sep 30 18:45:12 CDT 2022
User: ToomeyLab
Spectrometer: FLMS14357
Trigger mode: 0
Integration Time (sec): 1.000000E-2
Scans to average: 100
Electric dark correction enabled: true
Nonlinearity correction enabled: false
Boxcar width: 0
XAxis mode: Wavelengths
Number of Pixels in Spectrum: 2048
>>>>>Begin Spectral Data<<<<<
189.047	449.91
189.435	449.91
189.823	449.91
190.211	-11.57
190.599	-43.08
190.987	63.56
191.375	131.27
191.763	42.24
192.151	258.08
192.538	-801.85
192.926	82.22
193.314	51.31
193.702	176.05
194.089	-71.31
194.477	-49.29
194.864	329.84
195.252	-165.56
195.639	17.48
196.027	-152.89
196.414	642.18
196.801	45.61
197.189	27.44
197.576	222.45
197.963	230.35
198.351	7.96
198.738	-12.03
199.125	63.88
199.512	5.03
199.899	-16.85
200.286	-20.27
200.673	38.32
201.06	25.24
201.447	46.54
201.833	62.03
202.22	45.68
202.607	37.26
202.994	66.51
203.38	-2
203.767	26.06
204.154	28.88
204.54	31.18
204.927	25.2
205.313	-13.74
205.699	8.6
206.086	-43.52
206.472	34.89
206.858	36.31
207.245	5.51
207.631	-1.61
208.017	-58.14
208.403	29.62
208.789	-11.64
209.175	62.99
209.561	13.99
209.947	-5.44
210.333	13.44
210.719	-8.12
211.105	-9.81
211.491	-5.78
211.876	37.21
212.262	44.55
212.648	37.51
213.034	9.51
213.419	29.6
213.805	3.41
214.19	22.32
214.576	22.97
214.961	-16.81
215.346	11.33
215.732	3.24
216.117	2.87
216.502	36.1
216.888	14.11
217.273	10.05
217.658	33.83
218.043	23.17
218.428	14.86
218.813	28.19
219.198	8.68
219.583	17.81
219.968	19.91
220.353	9.29
220.738	18.44
221.122	1.51
221.507	16.57
221.892	14.27
222.276	-17.18
222.661	2.38
223.046	4.3
223.43	7.54
223.815	15.36
224.199	4.12
224.583	7.58
224.968	3.13
225.352	-1
225.736	11.99
226.121	5.78
226.505	8.42
226.889	9.72
227.273	1.66
227.657	7.87
228.041	4.77
228.425	6.34
228.809	6.9
229.193	5.21
229.577	3.38
229.961	4.22
230.344	3.41
230.728	3.29
231.112	4.27
231.495	3.5
231.879	4.03
232.263	4.04
232.646	4.22
233.03	4.43
233.413	3.48
233.797	4.09
234.18	4.32
234.563	2.75
234.946	3.58
235.33	3.4
235.713	5.37
236.096	4.79
236.479	4.98
236.862	3.86
237.245	4.56
237.628	2.9
238.011	5.95
238.394	3.58
238.777	1.79
239.16	2.28
239.543	4.3
239.925	2.34
240.308	2.52
240.691	5.13
241.073	4.54
241.456	3.66
241.838	4.33
242.221	2.95
242.603	4.07
242.986	3.96
243.368	3.54
243.75	3.74
244.133	3.83
244.515	3.77
244.897	4.08
245.279	4.23
245.661	4.7
246.043	4.59
246.425	3.37
246.807	3.74
247.189	4.13
247.571	4.11
247.953	4
248.335	3.73
248.717	3.62
249.098	3.85
249.48	3.67
249.862	3.58
250.243	3.8
250.625	4.05
251.006	3.64
251.388	3.06
251.769	4.63
252.151	3.73
252.532	4.83
252.913	3.58
253.295	3.62
253.676	3.52
254.057	3.8
254.438	3.49
254.819	4.67
255.2	4.16
255.581	3.69
255.962	3.45
256.343	3.76
256.724	4.65
257.105	4.81
257.486	3.44
257.867	4.95
258.247	4.64
258.628	3.38
259.009	4.16
259.389	4.22
259.77	4.2
260.15	3.53
260.531	4.15
260.911	3.89
261.292	3.48
261.672	3.48
262.052	3.43
262.432	3.57
262.813	4.21
263.193	3.38
263.573	3.54
263.953	2.99
264.333	3.97
264.713	3.11
265.093	3.41
265.473	4.67
265.853	3.61
266.233	2.84
266.612	3.9
266.992	2.76
267.372	3.74
267.752	3.5
268.131	3.39
268.511	3.21
268.89	3.1
269.27	4.06
269.649	2.86
270.029	3.73
270.408	3.36
270.787	3.75
271.167	4.03
271.546	3.97
271.925	3.92
272.304	3.59
272.683	3.02
273.062	3.56
273.441	3.34
273.82	3.42
274.199	3.45
274.578	3.08
274.957	3.34
275.336	3.26
275.715	3.39
276.093	3.79
276.472	3.31
276.851	3.1
277.229	3.47
277.608	3.4
277.986	3.24
278.365	3.6
278.743	2.87
279.122	3.43
279.5	3.71
279.878	3.47
280.257	3.67
280.635	4.08
281.013	3.92
281.391	2.94
281.769	2.99
282.147	3.35
282.525	3.34
282.903	3.19
283.281	3.2
283.659	3.96
284.037	3.4
284.415	3.46
284.792	3.02
285.17	3.05
285.548	3.55
285.925	3.11
286.303	3
286.68	3.13
287.058	3.17
287.435	3.23
287.813	3.22
288.19	3.14
288.567	3.18
288.945	2.82
289.322	3.24
289.699	3.39
290.076	3.32
290.453	3.11
290.83	3.42
291.207	3.13
291.584	3.12
291.961	3.09
292.338	3.48
292.715	3.48
293.092	3.24
293.469	3.29
293.845	3.58
294.222	2.85
294.599	3.88
294.975	3.57
295.352	3.45
295.728	3.27
296.105	3.48
296.481	3.43
296.858	3.36
297.234	3.4
297.61	3.13
297.986	3.12
298.363	3.44
298.739	2.88
299.115	3.25
299.491	3.41
299.867	3.33
300.243	2.81
300.619	2.94
300.995	3.71
301.371	2.96
301.746	3.02
302.122	3.64
302.498	3.02
302.874	3.49
303.249	3.5
303.625	3.24
304	3.53
304.376	3.86
304.751	3.18
305.127	3.22
305.502	3.63
305.878	3.38
306.253	3.2
306.628	3.2
307.003	3.36
307.378	3.52
307.754	2.84
308.129	3.26
308.504	3.07
308.879	3.53
309.254	3.15
309.629	3.08
310.003	2.67
310.378	3.28
310.753	3.4
311.128	2.88
311.502	3.37
311.877	3.2
312.252	3.23
312.626	3.61
313.001	2.89
313.375	3.03
313.75	3.54
314.124	3.28
314.498	2.89
314.873	2.96
315.247	3
315.621	3.23
315.995	3.55
316.369	2.75
316.743	3.49
317.117	4.03
317.491	4.26
317.865	3.82
318.239	3.43
318.613	3.29
318.987	3.55
319.361	3.01
319.734	3.1
320.108	3.24
320.482	2.98
320.855	3.29
321.229	3.03
321.602	3.16
321.976	3.42
322.349	3.07
322.723	2.87
323.096	3.61
323.469	3.84
323.843	3.27
324.216	2.92
324.589	3.98
324.962	3.6
325.335	3.76
325.708	3.45
326.081	3.76
326.454	3.6
326.827	3.28
327.2	3.43
327.573	3.24
327.945	3.37
328.318	3.64
328.691	3.32
329.063	3.1
329.436	3.23
329.809	3.53
330.181	3.48
330.553	3.41
330.926	3.69
331.298	3.36
331.671	3.17
332.043	3.43
332.415	3.33
332.787	2.87
333.159	3.44
333.532	3.42
333.904	3.04
334.276	3.62
334.648	3.48
335.02	3.58
335.391	3.33
335.763	3.15
336.135	3.59
336.507	3.34
336.879	3.61
337.25	2.9
337.622	3.53
337.993	3.42
338.365	3.44
338.736	3.63
339.108	3.53
339.479	3.55
339.851	2.86
340.222	3.33
340.593	3.11
340.964	2.94
341.336	3.45
341.707	3.1
342.078	3.25
342.449	3
342.82	3
343.191	3.16
343.562	3.21
343.933	3.21
344.303	3.32
344.674	3.42
345.045	3.25
345.416	3.48
345.786	3.3
346.157	3.31
346.527	3.33
346.898	3.41
347.268	3.01
347.639	3.18
348.009	3.25
348.38	3.44
348.75	3.82
349.12	3.55
349.49	3.6
349.861	3.19
350.231	3.53
350.601	3.05
350.971	3.15
351.341	3.39
351.711	3.16
352.081	3.39
352.45	3.56
352.82	3.29
353.19	3.64
353.56	3.19
353.929	3.42
354.299	3.34
354.669	3.36
355.038	3.77
355.408	3.7
355.777	2.88
356.147	3.23
356.516	3.91
356.885	3.15
357.254	3.4
357.624	3.2
357.993	3.04
358.362	3.48
358.731	3.26
359.1	3.16
359.469	3.06
359.838	3.59
360.207	3.35
360.576	3.23
360.945	3.29
361.314	3.45
361.682	3.04
362.051	3.03
362.42	3.2
362.788	3.18
363.157	3.42
363.525	3.02
363.894	3.2
364.262	3.36
364.631	3.53
364.999	3.16
365.367	3.39
365.735	3
366.104	3.36
366.472	3.62
366.84	3.52
367.208	3.22
367.576	3.9
367.944	3.5
368.312	3.13
368.68	3.03
369.048	3.16
369.416	3.28
369.783	3.32
370.151	3.2
370.519	3.47
370.886	3.65
371.254	3.5
371.621	3.74
371.989	3.51
372.356	3.3
372.724	3.59
373.091	3.25
373.458	3.41
373.826	3.68
374.193	3.73
374.56	3.64
374.927	3.93
375.294	3.53
375.661	3.16
376.028	3.29
376.395	3.5
376.762	3.14
377.129	3.5
377.496	3.64
377.863	3.07
378.229	3.74
378.596	3.46
378.963	3.59
379.329	3.4
379.696	3.66
380.062	3.51
380.429	3.48
380.795	3.41
381.161	3.51
381.528	3.4
381.894	3.29
382.26	3.29
382.626	3.33
382.993	3.48
383.359	3.3
383.725	3.15
384.091	3.51
384.457	3.41
384.823	3.76
385.188	3.6
385.554	3.53
385.92	3.66
386.286	3.73
386.651	3.49
387.017	3.46
387.383	3.33
387.748	3.32
388.114	3.56
388.479	3.43
388.845	3.24
389.21	3.5
389.575	3.72
389.94	3.25
390.306	3.57
390.671	3.46
391.036	3.51
391.401	3.37
391.766	3.68
392.131	3.34
392.496	3.65
392.861	3.62
393.226	3.45
393.591	3.35
393.956	3.72
394.32	3.62
394.685	3.25
395.05	3.72
395.414	3.45
395.779	3.35
396.143	3.55
396.508	3.44
396.872	3.63
397.236	3.49
397.601	3.28
397.965	3.33
398.329	3.41
398.694	3.65
399.058	3.51
399.422	3.53
399.786	3.38
400.15	3.7
400.514	3.41
400.878	3.51
401.242	3.49
401.605	3.49
401.969	3.49
402.333	3.51
402.697	3.59
403.06	3.3
403.424	3.47
403.787	3.6
404.151	3.65
404.514	3.42
404.878	3.41
405.241	3.61
405.604	3.6
405.968	3.54
406.331	3.58
406.694	3.59
407.057	3.43
407.42	3.54
407.783	3.48
408.146	3.59
408.509	3.43
408.872	3.74
409.235	3.59
409.598	3.92
409.961	3.44
410.323	3.78
410.686	3.7
411.049	3.5
411.411	3.47
411.774	3.82
412.136	3.6
412.499	3.48
412.861	3.57
413.223	3.53
413.586	3.53
413.948	3.8
414.31	3.69
414.672	3.76
415.035	3.71
415.397	3.59
415.759	3.53
416.121	3.67
416.483	3.68
416.845	3.45
417.206	3.56
417.568	3.6
417.93	3.4
418.292	3.62
418.653	3.44
419.015	3.66
419.377	3.48
419.738	3.56
420.1	3.65
420.461	3.54
420.822	3.42
421.184	3.55
421.545	3.5
421.906	3.36
422.267	3.43
422.629	3.54
422.99	3.51
423.351	3.5
423.712	3.47
424.073	3.49
424.434	3.58
424.795	3.51
425.155	3.46
425.516	3.6
425.877	3.54
426.238	3.44
426.598	3.56
426.959	3.47
427.32	3.61
427.68	3.6
428.041	3.58
428.401	3.52
428.761	3.76
429.122	3.66
429.482	3.58
429.842	3.61
430.202	3.51
430.563	3.55
430.923	3.68
431.283	3.59
431.643	3.72
432.003	3.74
432.363	3.65
432.722	3.83
433.082	3.76
433.442	3.58
433.802	3.8
434.161	3.68
434.521	3.73
434.881	3.55
435.24	3.65
435.6	3.64
435.959	3.56
436.319	3.61
436.678	3.66
437.037	3.79
437.396	3.7
437.756	3.6
438.115	3.59
438.474	3.5
438.833	3.65
439.192	3.59
439.551	3.7
439.91	3.67
440.269	3.42
440.628	3.62
440.987	3.75
441.345	3.64
441.704	3.62
442.063	3.74
442.421	3.65
442.78	3.71
443.138	3.58
443.497	3.63
443.855	3.8
444.214	3.63
444.572	3.72
444.93	3.62
445.288	3.7
445.647	3.67
446.005	3.71
446.363	3.88
446.721	3.53
447.079	3.7
447.437	3.72
447.795	3.65
448.153	3.69
448.51	3.66
448.868	3.63
449.226	3.6
449.584	3.59
449.941	3.59
450.299	3.73
450.656	3.78
451.014	3.93
451.371	3.72
451.729	3.81
452.086	3.76
452.443	3.87
452.801	3.8
453.158	3.68
453.515	3.79
453.872	3.75
454.229	3.76
454.586	3.78
454.943	3.76
455.3	3.7
455.657	3.75
456.014	3.69
456.371	3.76
456.727	3.86
457.084	3.64
457.441	3.7
457.797	3.71
458.154	3.51
458.51	3.87
458.867	3.98
459.223	3.86
459.58	3.82
459.936	3.84
460.292	3.65
460.648	3.69
461.005	3.74
461.361	3.78
461.717	3.72
462.073	3.67
462.429	3.76
462.785	3.76
463.141	3.74
463.496	3.86
463.852	3.88
464.208	3.93
464.564	3.74
464.919	3.72
465.275	3.87
465.631	3.92
465.986	3.81
466.342	3.9
466.697	3.88
467.052	3.82
467.408	3.85
467.763	3.75
468.118	3.88
468.473	3.87
468.829	3.78
469.184	3.92
469.539	3.93
469.894	3.97
470.249	3.79
470.603	3.92
470.958	3.89
471.313	3.82
471.668	3.8
472.023	3.9
472.377	3.81
472.732	3.92
473.086	3.91
473.441	4.11
473.795	3.86
474.15	3.88
474.504	4.09
474.859	3.99
475.213	3.91
475.567	4.03
475.921	3.72
476.275	3.63
476.63	4.02
476.984	3.94
477.338	4
477.692	3.99
478.045	3.81
478.399	3.85
478.753	4.06
479.107	3.95
479.461	4.01
479.814	3.9
480.168	3.81
480.521	3.77
480.875	3.99
481.228	3.79
481.582	3.89
481.935	3.89
482.289	4.06
482.642	3.85
482.995	3.86
483.348	3.9
483.701	3.94
484.055	3.88
484.408	3.81
484.761	3.75
485.114	3.68
485.466	3.7
485.819	3.62
486.172	3.73
486.525	3.75
486.878	3.84
487.23	3.85
487.583	3.88
487.936	3.89
488.288	3.88
488.641	3.75
488.993	3.77
489.345	3.73
489.698	3.75
490.05	3.78
490.402	3.84
490.754	3.89
491.107	3.86
491.459	3.98
491.811	3.93
492.163	3.94
492.515	3.93
492.866	3.87
493.218	3.79
493.57	3.8
493.922	3.82
494.274	3.84
494.625	3.93
494.977	4.02
495.328	4
495.68	3.91
496.031	4
496.383	3.99
496.734	4.17
497.086	4.09
497.437	4.08
497.788	4.11
498.139	4.08
498.49	3.93
498.842	4
499.193	4.13
499.544	4.05
499.894	4.02
500.245	3.97
500.596	4
500.947	4.03
501.298	4.23
501.648	3.98
501.999	4.14
502.35	4.18
502.7	4.05
503.051	4.16
503.401	4.11
503.752	3.94
504.102	4.2
504.452	4.11
504.803	4.23
505.153	4.27
505.503	4.13
505.853	4.19
506.203	3.96
506.553	4.07
506.903	4.18
507.253	4.19
507.603	4.26
507.953	4.12
508.303	4.18
508.652	4.27
509.002	4.29
509.352	4.27
509.701	4.23
510.051	4.23
510.4	4.15
510.75	4.15
511.099	4.08
511.449	4.24
511.798	4.18
512.147	4.21
512.496	4.21
512.846	4.22
513.195	4.28
513.544	4.15
513.893	4.28
514.242	4.14
514.591	4.31
514.939	4.27
515.288	4.3
515.637	4.15
515.986	4.4
516.334	4.39
516.683	4.14
517.032	4.33
517.38	4.28
517.729	4.3
518.077	4.27
518.426	4.31
518.774	4.41
519.122	4.13
519.47	4.3
519.819	4.32
520.167	4.31
520.515	4.24
520.863	4.37
521.211	4.31
521.559	4.34
521.907	4.36
522.255	4.25
522.602	4.55
522.95	4.45
523.298	4.54
523.645	4.38
523.993	4.46
524.341	4.56
524.688	4.46
525.036	4.35
525.383	4.36
525.73	4.37
526.078	4.4
526.425	4.36
526.772	4.4
527.119	4.26
527.466	4.27
527.814	4.34
528.161	4.33
528.508	4.34
528.854	4.35
529.201	4.38
529.548	4.35
529.895	4.29
530.242	4.26
530.588	4.31
530.935	4.36
531.282	4.38
531.628	4.37
531.975	4.38
532.321	4.39
532.667	4.47
533.014	4.54
533.36	4.49
533.706	4.56
534.052	4.59
534.399	4.48
534.745	4.46
535.091	4.4
535.437	4.52
535.783	4.51
536.129	4.58
536.474	4.54
536.82	4.57
537.166	4.66
537.512	4.69
537.857	4.79
538.203	4.58
538.549	4.57
538.894	4.63
539.239	4.66
539.585	4.76
539.93	4.76
540.276	4.67
540.621	4.9
540.966	4.77
541.311	4.74
541.656	4.81
542.001	4.7
542.346	4.82
542.691	4.59
543.036	4.59
543.381	4.59
543.726	4.62
544.071	4.77
544.415	4.7
544.76	4.75
545.105	4.74
545.449	4.76
545.794	4.92
546.138	4.9
546.483	4.96
546.827	4.86
547.171	4.93
547.516	4.83
547.86	4.93
548.204	4.94
548.548	4.87
548.892	4.91
549.236	4.98
549.58	5.11
549.924	4.97
550.268	5.2
550.612	5.17
550.956	5.08
551.3	5.01
551.643	5.22
551.987	5.17
552.33	5.25
552.674	5.2
553.017	4.96
553.361	5.09
553.704	5.33
554.048	5.04
554.391	5.21
554.734	5.2
555.077	5.22
555.42	5.33
555.764	5.21
556.107	5.29
556.45	5.44
556.793	5.3
557.135	5.39
557.478	5.44
557.821	5.35
558.164	5.37
558.507	5.7
558.849	5.55
559.192	5.46
559.534	5.53
559.877	5.54
560.219	5.46
560.562	5.47
560.904	5.41
561.246	5.64
561.589	5.49
561.931	5.4
562.273	5.59
562.615	5.64
562.957	5.61
563.299	5.52
563.641	5.66
563.983	5.55
564.325	5.73
564.667	5.83
565.008	5.66
565.35	5.63
565.692	5.9
566.033	5.57
566.375	5.6
566.716	5.75
567.058	5.82
567.399	5.7
567.741	5.8
568.082	5.96
568.423	5.93
568.764	5.94
569.105	5.88
569.447	5.98
569.788	6.01
570.129	6.15
570.47	5.96
570.811	6.08
571.151	6
571.492	6.05
571.833	5.99
572.174	5.84
572.514	6.03
572.855	5.92
573.195	6.06
573.536	6.02
573.876	6.1
574.217	5.96
574.557	6.09
574.898	6.11
575.238	6.42
575.578	6.23
575.918	6.06
576.258	6.22
576.598	6.26
576.938	6.27
577.278	6.33
577.618	6.39
577.958	6.36
578.298	6.43
578.638	6.44
578.977	6.41
579.317	6.3
579.657	6.41
579.996	6.45
580.336	6.65
580.675	6.47
581.014	6.21
581.354	6.78
581.693	6.69
582.032	6.64
582.372	6.54
582.711	6.58
583.05	6.79
583.389	6.64
583.728	6.86
584.067	6.83
584.406	6.59
584.745	6.61
585.083	6.72
585.422	6.81
585.761	6.85
586.1	7.04
586.438	6.96
586.777	7.16
587.115	7
587.454	6.89
587.792	6.83
588.13	7.17
588.469	7.16
588.807	6.88
589.145	6.92
589.483	7.21
589.821	7.18
590.159	7.34
590.497	7.14
590.835	7.24
591.173	7.03
591.511	7.08
591.849	7.31
592.187	7.25
592.524	7.31
592.862	7.26
593.2	7.25
593.537	7.23
593.875	7.33
594.212	7.1
594.55	7.46
594.887	7.59
595.224	7.44
595.561	7.37
595.899	7.49
596.236	7.63
596.573	7.29
596.91	7.72
597.247	7.35
597.584	7.68
597.921	7.5
598.258	7.49
598.594	7.31
598.931	7.59
599.268	7.52
599.604	7.67
599.941	7.55
600.277	7.6
600.614	7.89
600.95	8.02
601.287	7.81
601.623	7.98
601.959	7.67
602.296	8.1
602.632	8.11
602.968	8.13
603.304	7.86
603.64	8.05
603.976	7.88
604.312	7.99
604.648	8.31
604.984	8.21
605.319	8.03
605.655	8.12
605.991	8.14
606.326	8.28
606.662	8.2
606.998	8.08
607.333	8.33
607.668	8.29
608.004	8.38
608.339	8.38
608.674	8.5
609.01	8.4
609.345	8.53
609.68	8.55
610.015	8.52
610.35	8.45
610.685	8.3
611.02	8.47
611.355	8.45
611.689	8.29
612.024	8.64
612.359	8.69
612.694	8.52
613.028	8.86
613.363	8.75
613.697	8.64
614.032	9.1
614.366	8.71
614.7	8.86
615.035	9.04
615.369	8.91
615.703	8.88
616.037	9.13
616.371	9.05
616.705	8.76
617.039	9.31
617.373	9.21
617.707	8.92
618.041	9.24
618.375	9.15
618.709	9.4
619.042	9.12
619.376	9.66
619.71	9.37
620.043	9.37
620.377	9.52
620.71	9.41
621.043	9.44
621.377	9.3
621.71	9.17
622.043	9.48
622.376	9.44
622.709	9.57
623.043	9.67
623.376	9.33
623.709	9.9
624.041	9.66
624.374	9.7
624.707	9.38
625.04	9.78
625.373	9.8
625.705	9.7
626.038	9.72
626.37	9.78
626.703	10.03
627.035	9.64
627.368	9.9
627.7	9.8
628.032	9.99
628.365	9.88
628.697	10.14
629.029	9.96
629.361	9.95
629.693	10.11
630.025	10.19
630.357	10.2
630.689	10.27
631.021	10.33
631.353	10.25
631.684	10.33
632.016	10.32
632.348	10.12
632.679	10.16
633.011	10.24
633.342	10.54
633.674	10.43
634.005	10.64
634.336	10.75
634.668	10.69
634.999	10.57
635.33	10.77
635.661	10.51
635.992	10.72
636.323	10.6
636.654	10.28
636.985	10.56
637.316	10.86
637.647	10.67
637.977	10.99
638.308	10.81
638.639	10.39
638.969	10.99
639.3	10.79
639.63	11.14
639.961	11.36
640.291	11.05
640.622	11.25
640.952	11.16
641.282	11.19
641.612	11.34
641.943	11.2
642.273	11.47
642.603	11.06
642.933	10.97
643.263	11.67
643.592	11.26
643.922	11.24
644.252	11.31
644.582	11.46
644.911	11.53
645.241	11.41
645.571	11.54
645.9	11.84
646.23	11.58
646.559	11.26
646.888	11.65
647.218	11.21
647.547	11.79
647.876	12
648.205	11.54
648.534	11.41
648.863	12.05
649.192	11.61
649.521	11.91
649.85	11.75
650.179	11.89
650.508	11.73
650.837	12.33
651.165	11.69
651.494	11.92
651.822	12.33
652.151	12.04
652.479	12.39
652.808	12.3
653.136	12.31
653.465	12.16
653.793	12.1
654.121	12.22
654.449	12.27
654.777	12.51
655.105	12.6
655.433	12.32
655.761	13.17
656.089	13.06
656.417	12.48
656.745	12.48
657.073	12.42
657.4	13.16
657.728	12.74
658.056	12.77
658.383	12.48
658.711	12.67
659.038	12.61
659.365	13.07
659.693	12.58
660.02	13.09
660.347	12.98
660.674	13.06
661.001	12.97
661.329	12.82
661.656	13.06
661.982	13
662.309	13.24
662.636	12.94
662.963	12.67
663.29	13.2
663.616	13.17
663.943	13.43
664.27	13.05
664.596	13.56
664.923	13.17
665.249	13.66
665.576	13.61
665.902	13.31
666.228	13.99
666.554	13.77
666.881	13.54
667.207	13.41
667.533	13.4
667.859	14.11
668.185	13.5
668.511	13.93
668.837	13.82
669.162	14.52
669.488	13.78
669.814	13.74
670.139	13.94
670.465	14.76
670.791	14.13
671.116	13.71
671.442	14.15
671.767	14.26
672.092	13.86
672.418	13.89
672.743	14.34
673.068	14.63
673.393	14.66
673.718	13.57
674.043	14.95
674.368	14.82
674.693	13.3
675.018	13.68
675.343	14.3
675.667	14.63
675.992	14.24
676.317	14.4
676.641	14.1
676.966	14.34
677.29	13.79
677.615	14.6
677.939	15
678.264	13.98
678.588	14.56
678.912	14.82
679.236	14.55
679.56	14.84
679.885	14.89
680.209	14.99
680.532	15.08
680.856	15.07
681.18	14.73
681.504	15.21
681.828	14.61
682.152	14.42
682.475	14.87
682.799	14.72
683.122	15.26
683.446	15.18
683.769	15.7
684.093	15.46
684.416	15.24
684.739	15.66
685.062	15.35
685.386	15.77
685.709	15.54
686.032	15.41
686.355	15.89
686.678	15.74
687.001	15.92
687.324	15.49
687.646	15.16
687.969	15.35
688.292	15.93
688.614	15.35
688.937	16.29
689.26	15.31
