Data from 1890-1_chest_Reflection__2__123.txt Node

Date: Fri Sep 30 18:45:24 CDT 2022
User: ToomeyLab
Spectrometer: FLMS14357
Trigger mode: 0
Integration Time (sec): 1.000000E-2
Scans to average: 100
Electric dark correction enabled: true
Nonlinearity correction enabled: false
Boxcar width: 0
XAxis mode: Wavelengths
Number of Pixels in Spectrum: 2048
>>>>>Begin Spectral Data<<<<<
189.047	-525.05
189.435	-525.05
189.823	-525.05
190.211	-28.64
190.599	272.59
190.987	45.33
191.375	123.75
191.763	55.26
192.151	2004.19
192.538	532.85
192.926	1282.22
193.314	19.05
193.702	156.46
194.089	73.71
194.477	329.09
194.864	226.73
195.252	-87.38
195.639	-15.69
196.027	31.93
196.414	1030.81
196.801	93.06
197.189	101.14
197.576	50.32
197.963	-16.29
198.351	26.9
198.738	58.37
199.125	70.21
199.512	32.56
199.899	29.05
200.286	31.47
200.673	49.19
201.06	48.55
201.447	24.27
201.833	40.18
202.22	60.18
202.607	56.83
202.994	55.56
203.38	34.77
203.767	67.57
204.154	44.82
204.54	58.75
204.927	40.37
205.313	-1.64
205.699	27.34
206.086	1.49
206.472	25.76
206.858	33.02
207.245	22.55
207.631	55.47
208.017	7.96
208.403	39.92
208.789	-6.03
209.175	64.37
209.561	10.57
209.947	20.88
210.333	-33.59
210.719	-6.88
211.105	8.68
211.491	18.08
211.876	39.38
212.262	40.57
212.648	46.03
213.034	2.75
213.419	42.88
213.805	20.03
214.19	13.21
214.576	19.88
214.961	15.17
215.346	32.91
215.732	27.09
216.117	38.35
216.502	39.68
216.888	26.92
217.273	24.98
217.658	24.09
218.043	17.32
218.428	13.28
218.813	15.33
219.198	40.97
219.583	25.75
219.968	20.4
220.353	13.79
220.738	4.12
221.122	9.46
221.507	25.5
221.892	25.37
222.276	-4.45
222.661	14.79
223.046	-5.8
223.43	5.19
223.815	28.35
224.199	16.06
224.583	8.29
224.968	6.28
225.352	1.67
225.736	13.34
226.121	11.35
226.505	1.37
226.889	6.2
227.273	1.07
227.657	10.47
228.041	8.48
228.425	7.55
228.809	5.56
229.193	5.74
229.577	4.74
229.961	4.64
230.344	3.79
230.728	3.95
231.112	4.45
231.495	5.06
231.879	7.04
232.263	3.98
232.646	5.74
233.03	4.48
233.413	4.53
233.797	3.41
234.18	4.59
234.563	5.88
234.946	5.12
235.33	3.18
235.713	6.02
236.096	5.02
236.479	5.65
236.862	6.09
237.245	6.21
237.628	4.66
238.011	5.62
238.394	4.29
238.777	2.37
239.16	4.14
239.543	5.44
239.925	4.76
240.308	5.61
240.691	4.37
241.073	5.4
241.456	4.4
241.838	4.93
242.221	4.15
242.603	4.42
242.986	4.33
243.368	3.47
243.75	3.56
244.133	4.4
244.515	4.1
244.897	4.22
245.279	4.83
245.661	4.07
246.043	3.54
246.425	4.29
246.807	4.37
247.189	4.34
247.571	3.96
247.953	4.38
248.335	3.94
248.717	3.75
249.098	3.92
249.48	3.74
249.862	3.77
250.243	3.77
250.625	4.1
251.006	4.29
251.388	2.93
251.769	4.22
252.151	4.61
252.532	4.61
252.913	4.17
253.295	4.39
253.676	3.64
254.057	4.09
254.438	3.28
254.819	4.96
255.2	4.22
255.581	4.95
255.962	4.62
256.343	3.38
256.724	3.88
257.105	4.14
257.486	4.86
257.867	4.76
258.247	3.69
258.628	4.52
259.009	4.43
259.389	3.83
259.77	5.44
260.15	3.87
260.531	4.21
260.911	3.63
261.292	3.55
261.672	3.46
262.052	3.77
262.432	3.65
262.813	4.38
263.193	3.73
263.573	3.77
263.953	3.79
264.333	4.34
264.713	2.94
265.093	3.89
265.473	4.34
265.853	3.55
266.233	3.4
266.612	4.22
266.992	3.48
267.372	3.31
267.752	3.78
268.131	3.71
268.511	3.43
268.89	3.04
269.27	4.2
269.649	4.27
270.029	4.22
270.408	4.13
270.787	3.5
271.167	4.08
271.546	3.98
271.925	4.3
272.304	4.21
272.683	3.66
273.062	3.64
273.441	3.74
273.82	3.22
274.199	3.93
274.578	3.68
274.957	3.79
275.336	3.74
275.715	3.48
276.093	3.68
276.472	3.65
276.851	3.72
277.229	3.55
277.608	3.61
277.986	3.65
278.365	3.88
278.743	3.52
279.122	3.52
279.5	3.71
279.878	4.03
280.257	4.1
280.635	4.1
281.013	3.98
281.391	3.27
281.769	3.65
282.147	3.37
282.525	3.97
282.903	3.69
283.281	3.3
283.659	3.73
284.037	3.51
284.415	3.73
284.792	3.96
285.17	3.46
285.548	3.35
285.925	3.71
286.303	3.64
286.68	3.25
287.058	3.23
287.435	3.5
287.813	3.52
288.19	3.57
288.567	3.48
288.945	3.3
289.322	3.52
289.699	3.81
290.076	3.23
290.453	3.75
290.83	3.87
291.207	3.31
291.584	3.49
291.961	3.18
292.338	3.61
292.715	4.04
293.092	3.37
293.469	3.57
293.845	4.28
294.222	3.84
294.599	3.9
294.975	4.27
295.352	4.02
295.728	4.14
296.105	3.67
296.481	3.21
296.858	3.96
297.234	3.8
297.61	3.52
297.986	3.27
298.363	3.76
298.739	3.53
299.115	3.54
299.491	3.59
299.867	3.54
300.243	3.51
300.619	3.31
300.995	4.08
301.371	3.53
301.746	3.38
302.122	3.58
302.498	3.77
302.874	4.01
303.249	3.89
303.625	3.85
304	3.57
304.376	3.74
304.751	3.89
305.127	3.65
305.502	3.53
305.878	3.96
306.253	3.66
306.628	3.7
307.003	3.67
307.378	3.92
307.754	3.7
308.129	4.03
308.504	3.81
308.879	4.01
309.254	3.51
309.629	3.7
310.003	3.56
310.378	3.39
310.753	3.86
311.128	3.76
311.502	3.68
311.877	3.3
312.252	3.91
312.626	3.7
313.001	3.73
313.375	3.61
313.75	3.74
314.124	3.61
314.498	3.62
314.873	3.84
315.247	3.78
315.621	4.21
315.995	4.23
316.369	3.49
316.743	3.93
317.117	3.93
317.491	4.5
317.865	4.42
318.239	4.24
318.613	4.42
318.987	4.12
319.361	3.73
319.734	3.74
320.108	4.01
320.482	3.45
320.855	4.52
321.229	3.71
321.602	3.66
321.976	4.23
322.349	3.82
322.723	3.34
323.096	4.24
323.469	4.7
323.843	4.06
324.216	4.02
324.589	3.95
324.962	4.04
325.335	3.63
325.708	3.58
326.081	4.14
326.454	4.05
326.827	3.77
327.2	3.67
327.573	3.64
327.945	3.33
328.318	3.49
328.691	3.85
329.063	3.77
329.436	3.63
329.809	4.38
330.181	3.59
330.553	3.63
330.926	4.28
331.298	4.32
331.671	3.75
332.043	3.9
332.415	3.38
332.787	3.97
333.159	3.72
333.532	4.46
333.904	4.08
334.276	3.91
334.648	3.41
335.02	3.95
335.391	4.37
335.763	3.67
336.135	3.81
336.507	4.49
336.879	3.91
337.25	3.64
337.622	4.1
337.993	3.9
338.365	3.61
338.736	3.89
339.108	3.79
339.479	3.81
339.851	3.57
340.222	4.17
340.593	4.1
340.964	3.79
341.336	4.21
341.707	3.5
342.078	3.92
342.449	4.14
342.82	3.99
343.191	3.81
343.562	3.94
343.933	3.77
344.303	3.99
344.674	3.84
345.045	3.93
345.416	3.82
345.786	3.8
346.157	4.37
346.527	3.61
346.898	3.52
347.268	3.5
347.639	3.72
348.009	4.01
348.38	4.41
348.75	4.33
349.12	4.1
349.49	3.81
349.861	3.87
350.231	4.01
350.601	4.25
350.971	3.97
351.341	3.76
351.711	3.49
352.081	4.2
352.45	4.17
352.82	4.24
353.19	4.05
353.56	3.78
353.929	3.47
354.299	3.72
354.669	3.94
355.038	3.78
355.408	4.28
355.777	3.9
356.147	4.08
356.516	4.59
356.885	4.01
357.254	4.05
357.624	3.88
357.993	3.38
358.362	3.88
358.731	4.06
359.1	3.85
359.469	3.36
359.838	4.1
360.207	3.86
360.576	3.74
360.945	3.78
361.314	3.86
361.682	3.98
362.051	3.58
362.42	3.83
362.788	3.86
363.157	3.86
363.525	3.47
363.894	3.84
364.262	4.11
364.631	4.33
364.999	3.82
365.367	4.08
365.735	3.72
366.104	3.65
366.472	4.21
366.84	3.99
367.208	3.93
367.576	4.58
367.944	4
368.312	3.92
368.68	4.13
369.048	3.75
369.416	3.86
369.783	4.02
370.151	3.79
370.519	4.06
370.886	4.3
371.254	3.78
371.621	4.2
371.989	4.1
372.356	4.04
372.724	3.62
373.091	3.85
373.458	3.85
373.826	4
374.193	4.32
374.56	4.21
374.927	4.4
375.294	4.15
375.661	3.93
376.028	3.96
376.395	3.85
376.762	3.94
377.129	4.12
377.496	4.17
377.863	3.71
378.229	4.24
378.596	4.27
378.963	4.37
379.329	3.89
379.696	4.23
380.062	4.3
380.429	4.41
380.795	4.11
381.161	3.98
381.528	4.04
381.894	3.96
382.26	3.94
382.626	4.11
382.993	4.25
383.359	3.93
383.725	3.84
384.091	4.06
384.457	3.9
384.823	4.03
385.188	4.33
385.554	4.13
385.92	4.04
386.286	4.43
386.651	4.15
387.017	3.99
387.383	3.9
387.748	3.6
388.114	4.14
388.479	3.9
388.845	3.68
389.21	4.03
389.575	4.2
389.94	4.21
390.306	4.29
390.671	4.37
391.036	4.55
391.401	3.96
391.766	4.09
392.131	4.1
392.496	4.02
392.861	4.19
393.226	4.04
393.591	4.04
393.956	4.29
394.32	4.2
394.685	4.05
395.05	4.23
395.414	3.96
395.779	4
396.143	4.27
396.508	4.05
396.872	4.22
397.236	3.94
397.601	4.13
397.965	4.22
398.329	4.13
398.694	4.23
399.058	4.4
399.422	4.32
399.786	4.13
400.15	4.27
400.514	4.21
400.878	4.18
401.242	4.01
401.605	4.13
401.969	4.21
402.333	4.21
402.697	4.16
403.06	4.41
403.424	4.16
403.787	4.42
404.151	4.23
404.514	4.32
404.878	4.15
405.241	4.25
405.604	4.27
405.968	4.24
406.331	4.11
406.694	4.22
407.057	4.21
407.42	4.21
407.783	4.21
408.146	4.05
408.509	4.17
408.872	4.32
409.235	4.14
409.598	4.3
409.961	4.22
410.323	4.41
410.686	4.4
411.049	4.15
411.411	4.17
411.774	4.34
412.136	4.29
412.499	4.17
412.861	4.43
413.223	3.82
413.586	4.13
413.948	4.47
414.31	4.59
414.672	4.26
415.035	4.54
415.397	4.21
415.759	4.23
416.121	4.21
416.483	4.26
416.845	4.3
417.206	4.33
417.568	4.29
417.93	4.06
418.292	4.31
418.653	4.16
419.015	4.32
419.377	4.24
419.738	4.14
420.1	4.36
420.461	4.12
420.822	4.08
421.184	4.22
421.545	4.07
421.906	4.05
422.267	4.04
422.629	4.15
422.99	4.13
423.351	4.14
423.712	4.14
424.073	4.22
424.434	4.17
424.795	4.18
425.155	4.08
425.516	4.18
425.877	4.26
426.238	4.17
426.598	4.19
426.959	4.13
427.32	4.15
427.68	4.34
428.041	4.2
428.401	4.19
428.761	4.42
429.122	4.34
429.482	4.34
429.842	4.43
430.202	4.29
430.563	4.34
430.923	4.4
431.283	4.29
431.643	4.45
432.003	4.21
432.363	4.35
432.722	4.2
433.082	4.57
433.442	4.29
433.802	4.41
434.161	4.28
434.521	4.36
434.881	4.32
435.24	4.33
435.6	4.41
435.959	4.28
436.319	4.29
436.678	4.32
437.037	4.42
437.396	4.48
437.756	4.39
438.115	4.25
438.474	4.44
438.833	4.42
439.192	4.38
439.551	4.49
439.91	4.38
440.269	4.13
440.628	4.38
440.987	4.48
441.345	4.37
441.704	4.42
442.063	4.4
442.421	4.4
442.78	4.39
443.138	4.13
443.497	4.36
443.855	4.43
444.214	4.41
444.572	4.58
444.93	4.38
445.288	4.46
445.647	4.39
446.005	4.47
446.363	4.44
446.721	4.35
447.079	4.37
447.437	4.27
447.795	4.28
448.153	4.37
448.51	4.32
448.868	4.31
449.226	4.36
449.584	4.38
449.941	4.4
450.299	4.42
450.656	4.38
451.014	4.56
451.371	4.45
451.729	4.6
452.086	4.52
452.443	4.61
452.801	4.71
453.158	4.44
453.515	4.53
453.872	4.65
454.229	4.46
454.586	4.58
454.943	4.67
455.3	4.52
455.657	4.6
456.014	4.47
456.371	4.61
456.727	4.4
457.084	4.35
457.441	4.53
457.797	4.58
458.154	4.41
458.51	4.51
458.867	4.63
459.223	4.54
459.58	4.66
459.936	4.73
460.292	4.53
460.648	4.4
461.005	4.52
461.361	4.49
461.717	4.37
462.073	4.46
462.429	4.53
462.785	4.51
463.141	4.61
463.496	4.6
463.852	4.56
464.208	4.61
464.564	4.6
464.919	4.57
465.275	4.71
465.631	4.68
465.986	4.67
466.342	4.58
466.697	4.82
467.052	4.85
467.408	4.52
467.763	4.63
468.118	4.67
468.473	4.61
468.829	4.6
469.184	4.61
469.539	4.69
469.894	4.83
470.249	4.78
470.603	4.72
470.958	4.85
471.313	4.6
471.668	4.69
472.023	4.64
472.377	4.64
472.732	4.79
473.086	4.71
473.441	4.89
473.795	4.52
474.15	4.74
474.504	4.7
474.859	4.75
475.213	4.74
475.567	4.81
475.921	4.72
476.275	4.68
476.63	4.7
476.984	4.85
477.338	4.76
477.692	4.81
478.045	4.81
478.399	4.8
478.753	4.86
479.107	4.75
479.461	4.8
479.814	4.72
480.168	4.74
480.521	4.67
480.875	4.76
481.228	4.83
481.582	4.87
481.935	4.79
482.289	4.83
482.642	4.76
482.995	4.83
483.348	4.76
483.701	4.81
484.055	4.7
484.408	4.62
484.761	4.58
485.114	4.54
485.466	4.46
485.819	4.47
486.172	4.54
486.525	4.59
486.878	4.57
487.23	4.62
487.583	4.66
487.936	4.69
488.288	4.73
488.641	4.62
488.993	4.65
489.345	4.59
489.698	4.59
490.05	4.61
490.402	4.67
490.754	4.74
491.107	4.68
491.459	4.73
491.811	4.78
492.163	4.91
492.515	4.76
492.866	4.72
493.218	4.66
493.57	4.66
493.922	4.63
494.274	4.8
494.625	4.81
494.977	4.85
495.328	4.97
495.68	4.85
496.031	4.91
496.383	4.95
496.734	5
497.086	4.97
497.437	5.05
497.788	5.03
498.139	5.01
498.49	4.91
498.842	5
499.193	5.03
499.544	4.99
499.894	5.02
500.245	4.94
500.596	5.02
500.947	4.94
501.298	5.23
501.648	5.05
501.999	5.11
502.35	5.08
502.7	5.05
503.051	5.09
503.401	5.22
503.752	5.09
504.102	5.23
504.452	5.08
504.803	5.16
505.153	5.24
505.503	5.16
505.853	5.22
506.203	5.08
506.553	5.09
506.903	5.17
507.253	5.13
507.603	5.25
507.953	5.2
508.303	5.34
508.652	5.27
509.002	5.32
509.352	5.28
509.701	5.18
510.051	5.28
510.4	5.15
510.75	5.27
511.099	5.18
511.449	5.23
511.798	5.2
512.147	5.3
512.496	5.22
512.846	5.21
513.195	5.31
513.544	5.32
513.893	5.29
514.242	5.27
514.591	5.31
514.939	5.29
515.288	5.31
515.637	5.26
515.986	5.41
516.334	5.36
516.683	5.32
517.032	5.47
517.38	5.31
517.729	5.43
518.077	5.31
518.426	5.4
518.774	5.41
519.122	5.3
519.47	5.41
519.819	5.42
520.167	5.43
520.515	5.37
520.863	5.37
521.211	5.49
521.559	5.51
521.907	5.41
522.255	5.35
522.602	5.64
522.95	5.55
523.298	5.56
523.645	5.57
523.993	5.77
524.341	5.74
524.688	5.6
525.036	5.6
525.383	5.39
525.73	5.66
526.078	5.62
526.425	5.48
526.772	5.63
527.119	5.51
527.466	5.46
527.814	5.54
528.161	5.48
528.508	5.6
528.854	5.53
529.201	5.59
529.548	5.5
529.895	5.49
530.242	5.44
530.588	5.43
530.935	5.48
531.282	5.47
531.628	5.5
531.975	5.58
532.321	5.6
532.667	5.72
533.014	5.8
533.36	5.72
533.706	5.68
534.052	5.8
534.399	5.71
534.745	5.69
535.091	5.63
535.437	5.66
535.783	5.76
536.129	5.72
536.474	5.77
536.82	5.87
537.166	5.93
537.512	5.84
537.857	5.91
538.203	5.91
538.549	5.76
538.894	5.87
539.239	5.93
539.585	5.99
539.93	5.92
540.276	5.97
540.621	6.11
540.966	6.21
541.311	6.02
541.656	6.17
542.001	6.03
542.346	6.07
542.691	5.97
543.036	5.94
543.381	5.92
543.726	5.97
544.071	6.01
544.415	5.99
544.76	6.09
545.105	6.1
545.449	6.11
545.794	6.21
546.138	6.21
546.483	6.3
546.827	6.29
547.171	6.31
547.516	6.35
547.86	6.26
548.204	6.37
548.548	6.34
548.892	6.32
549.236	6.39
549.58	6.56
549.924	6.5
550.268	6.6
550.612	6.45
550.956	6.61
551.3	6.52
551.643	6.66
551.987	6.5
552.33	6.62
552.674	6.6
553.017	6.67
553.361	6.49
553.704	6.82
554.048	6.55
554.391	6.8
554.734	6.69
555.077	6.76
555.42	6.75
555.764	6.74
556.107	6.88
556.45	6.9
556.793	6.86
557.135	6.89
557.478	6.94
557.821	6.95
558.164	6.91
558.507	7.11
558.849	6.99
559.192	6.99
559.534	7.04
559.877	7.02
560.219	7.14
560.562	7.11
560.904	7
561.246	7.1
561.589	7
561.931	7.11
562.273	7
562.615	7.21
562.957	7.07
563.299	7.23
563.641	7.14
563.983	7.06
564.325	7.27
564.667	7.38
565.008	7.3
565.35	7.24
565.692	7.53
566.033	7.27
566.375	7.39
566.716	7.49
567.058	7.53
567.399	7.24
567.741	7.36
568.082	7.51
568.423	7.43
568.764	7.54
569.105	7.35
569.447	7.38
569.788	7.65
570.129	7.54
570.47	7.75
570.811	7.61
571.151	7.72
571.492	7.6
571.833	7.64
572.174	7.48
572.514	7.85
572.855	7.54
573.195	7.69
573.536	7.69
573.876	7.7
574.217	7.75
574.557	7.8
574.898	7.98
575.238	8
575.578	7.99
575.918	7.72
576.258	8.02
576.598	8.04
576.938	8.03
577.278	8.01
577.618	7.9
577.958	8.03
578.298	8.09
578.638	8.31
578.977	8.24
579.317	8.15
579.657	8.1
579.996	8.23
580.336	8.35
580.675	8.24
581.014	8.19
581.354	8.38
581.693	8.37
582.032	8.38
582.372	8.34
582.711	8.38
583.05	8.5
583.389	8.42
583.728	8.4
584.067	8.54
584.406	8.64
584.745	8.6
585.083	8.49
585.422	8.64
585.761	8.52
586.1	8.67
586.438	8.8
586.777	9.13
587.115	8.82
587.454	8.99
587.792	8.59
588.13	8.62
588.469	8.94
588.807	8.65
589.145	8.81
589.483	9.34
589.821	9.07
590.159	9.11
590.497	9.01
590.835	9.19
591.173	8.96
591.511	9.1
591.849	9.18
592.187	8.97
592.524	9.02
592.862	9.21
593.2	9.38
593.537	9.09
593.875	9.31
594.212	9.36
594.55	9.31
594.887	9.57
595.224	9.31
595.561	9.26
595.899	9.33
596.236	9.32
596.573	9.35
596.91	9.5
597.247	9.25
597.584	9.54
597.921	9.55
598.258	9.31
598.594	9.39
598.931	9.53
599.268	9.48
599.604	9.47
599.941	9.57
600.277	9.56
600.614	9.83
600.95	9.93
601.287	9.53
601.623	9.7
601.959	9.97
602.296	9.92
602.632	9.8
602.968	10.13
603.304	10.08
603.64	10.04
603.976	10.11
604.312	9.88
604.648	10.06
604.984	10.13
605.319	10.16
605.655	9.91
605.991	9.98
606.326	10.12
606.662	10.14
606.998	10.02
607.333	10.19
607.668	10.29
608.004	10.46
608.339	10.26
608.674	10.36
609.01	10.44
609.345	10.3
609.68	10.36
610.015	10.54
610.35	10.47
610.685	10.4
611.02	10.27
611.355	10.37
611.689	10.57
612.024	10.79
612.359	10.75
612.694	10.9
613.028	10.8
613.363	10.89
613.697	10.74
614.032	10.99
614.366	11.03
614.7	10.88
615.035	10.85
615.369	10.85
615.703	10.99
616.037	11
616.371	11.15
616.705	11.04
617.039	11.32
617.373	11.18
617.707	11.05
618.041	11.44
618.375	11.12
618.709	11.29
619.042	11.16
619.376	11.46
619.71	11.55
620.043	11.69
620.377	11.8
620.71	11.39
621.043	11.59
621.377	11.69
621.71	11.37
622.043	11.3
622.376	11.46
622.709	11.54
623.043	11.83
623.376	11.42
623.709	11.74
624.041	11.45
624.374	11.87
624.707	11.66
625.04	12.14
625.373	11.93
625.705	11.57
626.038	11.91
626.37	11.79
626.703	12.15
627.035	12.03
627.368	12.29
627.7	12.11
628.032	12.09
628.365	12.06
628.697	12.15
629.029	12.16
629.361	12.17
629.693	12.47
630.025	12.07
630.357	12.37
630.689	12.6
631.021	12.16
631.353	12.09
631.684	12.48
632.016	12.52
632.348	12.63
632.679	12.28
633.011	12.84
633.342	12.75
633.674	12.67
634.005	12.73
634.336	12.89
634.668	12.57
634.999	12.77
635.33	13.14
635.661	12.56
635.992	12.64
636.323	12.61
636.654	12.66
636.985	13
637.316	13.16
637.647	12.75
637.977	12.84
638.308	12.87
638.639	12.74
638.969	13.15
639.3	13.13
639.63	12.83
639.961	13.33
640.291	13.21
640.622	13.35
640.952	13.42
641.282	13.5
641.612	13.65
641.943	13.64
642.273	13.37
642.603	13.12
642.933	13.07
643.263	13.78
643.592	13.71
643.922	12.96
644.252	13.71
644.582	13.65
644.911	13.62
645.241	14.04
645.571	13.31
645.9	13.88
646.23	14.24
646.559	13.36
646.888	13.95
647.218	13.9
647.547	13.89
647.876	14.07
648.205	13.99
648.534	13.92
648.863	13.89
649.192	14.13
649.521	14.05
649.85	13.99
650.179	14.16
650.508	14.43
650.837	14.99
651.165	14.21
651.494	14.16
651.822	14.58
652.151	14.15
652.479	14.16
652.808	14.58
653.136	14.39
653.465	14.36
653.793	14.13
654.121	14.49
654.449	14.59
654.777	14.49
655.105	14.78
655.433	14.38
655.761	15.21
656.089	15.34
656.417	14.25
656.745	14.69
657.073	14.34
657.4	14.84
657.728	15.23
658.056	14.84
658.383	14.84
658.711	14.92
659.038	14.62
659.365	14.91
659.693	15.06
660.02	15.36
660.347	14.98
660.674	15.23
661.001	15.03
661.329	15.08
661.656	14.87
661.982	15.41
662.309	15.39
662.636	15.33
662.963	15.26
663.29	15.29
663.616	15.28
663.943	15.74
664.27	15.1
664.596	15.46
664.923	15.59
665.249	15.45
665.576	15.7
665.902	15.04
666.228	16.12
666.554	15.74
666.881	14.95
667.207	15.51
667.533	15.71
667.859	15.57
668.185	16.27
668.511	16.37
668.837	15.63
669.162	16.63
669.488	15.97
669.814	15.73
670.139	16.15
670.465	16.46
670.791	16.17
671.116	16.07
671.442	16.2
671.767	16.5
672.092	16
672.418	16.18
672.743	15.8
673.068	16.61
673.393	16.28
673.718	16.39
674.043	17.11
674.368	17
674.693	16.61
675.018	16.34
675.343	16.71
675.667	17.42
675.992	16.68
676.317	17.24
676.641	16.37
676.966	17.14
677.29	15.96
677.615	16.48
677.939	16.88
678.264	16.41
678.588	16.82
678.912	16.75
679.236	16.58
679.56	16.63
679.885	16.81
680.209	16.27
680.532	17
680.856	17.37
681.18	16.7
681.504	17.2
681.828	17.33
682.152	16.55
682.475	17.14
682.799	17.22
683.122	17.31
683.446	17.93
683.769	17.92
684.093	17.68
684.416	17.88
684.739	17.65
685.062	17.92
685.386	17.59
685.709	17.61
686.032	17.99
686.355	17.98
686.678	17.51
687.001	17.87
