Data from 1890-1_chest_Reflection__0__121.txt Node

Date: Fri Sep 30 18:45:01 CDT 2022
User: ToomeyLab
Spectrometer: FLMS14357
Trigger mode: 0
Integration Time (sec): 1.000000E-2
Scans to average: 100
Electric dark correction enabled: true
Nonlinearity correction enabled: false
Boxcar width: 0
XAxis mode: Wavelengths
Number of Pixels in Spectrum: 2048
>>>>>Begin Spectral Data<<<<<
189.047	-680.58
189.435	-680.58
189.823	-680.58
190.211	66.39
190.599	10.95
190.987	113.15
191.375	43.27
191.763	198.3
192.151	1740.12
192.538	-178.64
192.926	327.41
193.314	32.66
193.702	143.69
194.089	43.67
194.477	-186.62
194.864	-44.39
195.252	-119.75
195.639	-83.85
196.027	-57.15
196.414	1504.9
196.801	115.39
197.189	-187.68
197.576	101.71
197.963	2169.33
198.351	32.63
198.738	63.97
199.125	78.28
199.512	32.02
199.899	26.78
200.286	13.88
200.673	34.9
201.06	62.82
201.447	44.57
201.833	49.36
202.22	41.08
202.607	40.88
202.994	61.12
203.38	12.74
203.767	10.3
204.154	45.59
204.54	51.09
204.927	36.91
205.313	6.62
205.699	12.08
206.086	-32.34
206.472	-18.42
206.858	33.93
207.245	21.38
207.631	1.02
208.017	-59.58
208.403	8.63
208.789	5.42
209.175	15.68
209.561	-13.51
209.947	-20.36
210.333	-41.77
210.719	-8.97
211.105	7.49
211.491	7.49
211.876	0.5
212.262	28.5
212.648	27.58
213.034	-18.24
213.419	26.26
213.805	6.64
214.19	-18.83
214.576	21.39
214.961	7.98
215.346	21.52
215.732	9.89
216.117	16.45
216.502	16.59
216.888	22.22
217.273	3.83
217.658	15.28
218.043	0.86
218.428	17.9
218.813	-3.72
219.198	24.83
219.583	28.22
219.968	18.89
220.353	5.98
220.738	0.18
221.122	8.54
221.507	19.8
221.892	1.57
222.276	15.8
222.661	3.6
223.046	6.81
223.43	8.1
223.815	12.3
224.199	1
224.583	-2.47
224.968	3.49
225.352	5.57
225.736	11.87
226.121	10.89
226.505	4.31
226.889	3.19
227.273	-2.4
227.657	2.73
228.041	0.7
228.425	7.06
228.809	4.62
229.193	6.06
229.577	2.33
229.961	3.66
230.344	1.1
230.728	2.65
231.112	3.54
231.495	3.57
231.879	5.31
232.263	4.17
232.646	3.46
233.03	3.25
233.413	4.06
233.797	3.84
234.18	3.37
234.563	5.58
234.946	5.37
235.33	3.96
235.713	5.03
236.096	3.76
236.479	5.57
236.862	4.89
237.245	4.63
237.628	2.22
238.011	6.1
238.394	4.64
238.777	1.55
239.16	2.81
239.543	3.06
239.925	5.7
240.308	2.07
240.691	4.24
241.073	4.36
241.456	2.61
241.838	3.56
242.221	3.81
242.603	3.63
242.986	3.55
243.368	2.29
243.75	2.99
244.133	3.51
244.515	3.41
244.897	3.84
245.279	3.84
245.661	3.75
246.043	2.97
246.425	2.82
246.807	3.75
247.189	2.75
247.571	3.11
247.953	3.57
248.335	2.72
248.717	2.96
249.098	3.28
249.48	3
249.862	3.11
250.243	3.11
250.625	2.97
251.006	3.21
251.388	2.75
251.769	3.31
252.151	4.05
252.532	4.51
252.913	3.27
253.295	3.15
253.676	2.86
254.057	3.3
254.438	3.48
254.819	3.11
255.2	2.96
255.581	3.79
255.962	3.39
256.343	2.66
256.724	3.75
257.105	3.94
257.486	3.26
257.867	4.24
258.247	2.65
258.628	3.79
259.009	4.76
259.389	3.52
259.77	3.7
260.15	2.72
260.531	3.61
260.911	3.17
261.292	3.1
261.672	2.88
262.052	2.83
262.432	2.74
262.813	3.41
263.193	2.81
263.573	3.48
263.953	3.15
264.333	3.45
264.713	2.3
265.093	3.42
265.473	3.7
265.853	3.18
266.233	3.01
266.612	2.54
266.992	2.43
267.372	2.59
267.752	2.31
268.131	3.4
268.511	2.77
268.89	2.52
269.27	3.22
269.649	2.37
270.029	3.16
270.408	3.27
270.787	2.62
271.167	2.57
271.546	3.01
271.925	3.17
272.304	3.18
272.683	2.95
273.062	2.85
273.441	2.43
273.82	2.47
274.199	3.12
274.578	3
274.957	3.13
275.336	2.94
275.715	2.97
276.093	2.96
276.472	2.95
276.851	3.23
277.229	2.68
277.608	2.69
277.986	2.68
278.365	2.77
278.743	2.93
279.122	2.98
279.5	3.29
279.878	3
280.257	2.68
280.635	3.03
281.013	2.88
281.391	2.82
281.769	2.72
282.147	2.68
282.525	2.89
282.903	2.61
283.281	2.63
283.659	3.18
284.037	2.75
284.415	2.82
284.792	3.11
285.17	2.39
285.548	3.18
285.925	3.09
286.303	2.73
286.68	2.7
287.058	2.79
287.435	2.94
287.813	2.65
288.19	2.74
288.567	2.9
288.945	2.35
289.322	2.32
289.699	2.39
290.076	2.66
290.453	2.79
290.83	2.98
291.207	2.62
291.584	2.89
291.961	2.87
292.338	3.01
292.715	3.15
293.092	2.52
293.469	2.76
293.845	3.29
294.222	3.04
294.599	4.02
294.975	3.57
295.352	3.33
295.728	2.63
296.105	3.17
296.481	3.13
296.858	3.11
297.234	3.04
297.61	3.08
297.986	2.56
298.363	3.12
298.739	2.67
299.115	2.69
299.491	2.97
299.867	3.18
300.243	2.6
300.619	2.98
300.995	3.7
301.371	3.16
301.746	3.2
302.122	3.08
302.498	3.09
302.874	3.24
303.249	3.36
303.625	3.37
304	2.95
304.376	3.16
304.751	3.11
305.127	2.74
305.502	3.25
305.878	3.16
306.253	3.16
306.628	2.74
307.003	2.9
307.378	3.7
307.754	3.59
308.129	3.02
308.504	2.95
308.879	3.1
309.254	2.97
309.629	2.99
310.003	3.17
310.378	3.22
310.753	3.66
311.128	2.6
311.502	3.09
311.877	3.18
312.252	3.33
312.626	3.21
313.001	2.81
313.375	2.71
313.75	3.35
314.124	3.23
314.498	3.4
314.873	3.21
315.247	2.93
315.621	3.19
315.995	3.56
316.369	2.75
316.743	3.39
317.117	3.74
317.491	3.68
317.865	3.98
318.239	3.57
318.613	3.63
318.987	3.44
319.361	3.14
319.734	2.87
320.108	3.17
320.482	3.35
320.855	3.63
321.229	3.3
321.602	3.55
321.976	3.87
322.349	3.28
322.723	2.83
323.096	3.73
323.469	3.94
323.843	2.75
324.216	3.43
324.589	3.59
324.962	3.66
325.335	3.21
325.708	2.96
326.081	3.69
326.454	3.54
326.827	3.38
327.2	3.28
327.573	3.39
327.945	2.95
328.318	3.13
328.691	3.75
329.063	3.5
329.436	3.41
329.809	3.71
330.181	3.35
330.553	3.55
330.926	3.53
331.298	2.78
331.671	3.89
332.043	3.47
332.415	3.14
332.787	3.28
333.159	3.36
333.532	3.82
333.904	3.38
334.276	3.35
334.648	3.62
335.02	3.23
335.391	4.06
335.763	3.36
336.135	2.87
336.507	4.02
336.879	3.25
337.25	3.2
337.622	3.69
337.993	3.17
338.365	3.18
338.736	3.43
339.108	3.63
339.479	3.74
339.851	3.53
340.222	3.86
340.593	3.3
340.964	2.85
341.336	3.35
341.707	3.35
342.078	3.7
342.449	3.38
342.82	2.76
343.191	3.31
343.562	3.25
343.933	3.49
344.303	3.68
344.674	3.13
345.045	2.99
345.416	3.91
345.786	3.46
346.157	3.59
346.527	3.32
346.898	3.01
347.268	3.12
347.639	3.19
348.009	3.49
348.38	3.79
348.75	3.82
349.12	3.85
349.49	3.75
349.861	3.12
350.231	3.01
350.601	3.63
350.971	3.28
351.341	3.52
351.711	3.38
352.081	3.53
352.45	3.82
352.82	3.74
353.19	3.59
353.56	3.15
353.929	3.19
354.299	3.47
354.669	3.27
355.038	3.51
355.408	3.41
355.777	3.13
356.147	3.48
356.516	3.72
356.885	3.19
357.254	3.78
357.624	3.57
357.993	2.86
358.362	3.25
358.731	3.38
359.1	3.34
359.469	2.99
359.838	3.54
360.207	3.41
360.576	3.17
360.945	3.56
361.314	3.25
361.682	3.37
362.051	3.23
362.42	3.19
362.788	3.29
363.157	3.61
363.525	3.13
363.894	3.42
364.262	3.68
364.631	3.69
364.999	3.36
365.367	3.57
365.735	3.34
366.104	3.05
366.472	3.67
366.84	3.48
367.208	3.56
367.576	3.85
367.944	3.7
368.312	3.26
368.68	3.57
369.048	3.39
369.416	3.47
369.783	3.55
370.151	3.73
370.519	3.49
370.886	3.44
371.254	3.25
371.621	3.67
371.989	3.85
372.356	3.44
372.724	3.83
373.091	3.55
373.458	3.39
373.826	3.65
374.193	3.74
374.56	4.02
374.927	4.12
375.294	3.8
375.661	3.58
376.028	3.09
376.395	3.37
376.762	3.53
377.129	3.78
377.496	3.57
377.863	3.29
378.229	3.89
378.596	3.86
378.963	3.64
379.329	3.43
379.696	3.91
380.062	3.69
380.429	3.59
380.795	3.56
381.161	3.29
381.528	3.72
381.894	3.57
382.26	3.46
382.626	3.65
382.993	3.78
383.359	3.25
383.725	3.39
384.091	3.32
384.457	3.84
384.823	3.82
385.188	3.72
385.554	3.68
385.92	3.71
386.286	3.54
386.651	3.54
387.017	3.45
387.383	3.86
387.748	3.49
388.114	3.69
388.479	3.72
388.845	3.34
389.21	3.45
389.575	3.75
389.94	3.63
390.306	3.72
390.671	3.6
391.036	3.81
391.401	3.37
391.766	3.7
392.131	3.81
392.496	3.78
392.861	3.82
393.226	3.46
393.591	3.42
393.956	3.78
394.32	3.81
394.685	3.58
395.05	3.91
395.414	3.65
395.779	3.61
396.143	3.87
396.508	3.59
396.872	3.86
397.236	3.87
397.601	3.75
397.965	3.74
398.329	3.45
398.694	4.05
399.058	3.73
399.422	3.85
399.786	3.61
400.15	3.56
400.514	3.63
400.878	3.56
401.242	3.54
401.605	3.76
401.969	3.76
402.333	3.62
402.697	3.96
403.06	3.54
403.424	3.88
403.787	3.83
404.151	3.63
404.514	3.83
404.878	3.65
405.241	3.81
405.604	3.91
405.968	3.73
406.331	3.64
406.694	3.67
407.057	3.76
407.42	3.96
407.783	3.64
408.146	3.5
408.509	3.69
408.872	3.65
409.235	3.96
409.598	3.82
409.961	3.77
410.323	4.08
410.686	4.25
411.049	3.45
411.411	3.98
411.774	3.88
412.136	4.02
412.499	3.73
412.861	3.74
413.223	3.76
413.586	3.67
413.948	3.93
414.31	3.92
414.672	3.8
415.035	3.86
415.397	3.84
415.759	3.95
416.121	4
416.483	3.64
416.845	3.93
417.206	3.85
417.568	3.8
417.93	3.64
418.292	3.73
418.653	3.61
419.015	3.87
419.377	3.87
419.738	3.83
420.1	3.9
420.461	3.72
420.822	3.81
421.184	3.79
421.545	3.64
421.906	3.55
422.267	3.75
422.629	3.75
422.99	3.72
423.351	3.71
423.712	3.68
424.073	3.71
424.434	3.76
424.795	3.66
425.155	3.66
425.516	3.75
425.877	3.77
426.238	3.71
426.598	3.8
426.959	3.8
427.32	3.88
427.68	3.78
428.041	3.71
428.401	3.87
428.761	4.06
429.122	3.88
429.482	3.93
429.842	3.93
430.202	3.79
430.563	3.97
430.923	3.87
431.283	4.06
431.643	3.92
432.003	3.78
432.363	3.9
432.722	3.94
433.082	3.99
433.442	3.76
433.802	3.92
434.161	3.88
434.521	3.85
434.881	3.77
435.24	3.92
435.6	3.98
435.959	3.91
436.319	3.91
436.678	3.94
437.037	3.96
437.396	4.03
437.756	3.84
438.115	3.74
438.474	4.04
438.833	3.95
439.192	4.02
439.551	3.94
439.91	3.95
440.269	3.71
440.628	3.87
440.987	3.88
441.345	3.99
441.704	3.89
442.063	4.02
442.421	3.91
442.78	3.8
443.138	3.87
443.497	3.95
443.855	3.96
444.214	3.89
444.572	3.98
444.93	3.93
445.288	3.92
445.647	3.94
446.005	3.96
446.363	4.06
446.721	3.88
447.079	3.99
447.437	3.86
447.795	3.83
448.153	3.84
448.51	3.85
448.868	3.88
449.226	3.87
449.584	3.9
449.941	3.79
450.299	4.03
450.656	4.12
451.014	4.03
451.371	4.05
451.729	4
452.086	4.02
452.443	4.01
452.801	4.07
453.158	3.98
453.515	3.96
453.872	4.11
454.229	3.99
454.586	4.25
454.943	4.03
455.3	4.08
455.657	4.19
456.014	3.81
456.371	4.01
456.727	4.18
457.084	4.02
457.441	4.14
457.797	4.13
458.154	3.86
458.51	3.9
458.867	4.08
459.223	3.96
459.58	4.12
459.936	4.28
460.292	4.04
460.648	3.84
461.005	4.07
461.361	3.99
461.717	3.96
462.073	4.01
462.429	3.97
462.785	4.05
463.141	4.15
463.496	4.17
463.852	4.09
464.208	4.15
464.564	4.02
464.919	3.95
465.275	4.05
465.631	4.13
465.986	3.98
466.342	4.08
466.697	4.24
467.052	4.23
467.408	4.03
467.763	4.02
468.118	4.33
468.473	4.17
468.829	4.09
469.184	4.21
469.539	4.13
469.894	4.24
470.249	4.36
470.603	4.38
470.958	4.09
471.313	4.15
471.668	4.15
472.023	4.13
472.377	4.09
472.732	4.27
473.086	4.16
473.441	4.28
473.795	4.12
474.15	4.17
474.504	4.26
474.859	4.26
475.213	4.36
475.567	4.2
475.921	4.09
476.275	4.05
476.63	4.14
476.984	4.26
477.338	4.32
477.692	4.25
478.045	4.17
478.399	4.22
478.753	4.29
479.107	4.15
479.461	4.27
479.814	4.26
480.168	4.25
480.521	4.22
480.875	4.23
481.228	4.07
481.582	4.24
481.935	4.23
482.289	4.28
482.642	4.28
482.995	4.18
483.348	4.21
483.701	4.2
484.055	4.11
484.408	4.14
484.761	4.08
485.114	3.94
485.466	3.93
485.819	3.95
486.172	4.02
486.525	4.1
486.878	4.13
487.23	4.2
487.583	4.08
487.936	4.19
488.288	4.15
488.641	4.05
488.993	4.04
489.345	4.06
489.698	4.08
490.05	4.09
490.402	4.13
490.754	4.26
491.107	4.14
491.459	4.25
491.811	4.33
492.163	4.27
492.515	4.25
492.866	4.16
493.218	4.05
493.57	4.09
493.922	4.16
494.274	4.23
494.625	4.24
494.977	4.38
495.328	4.43
495.68	4.36
496.031	4.4
496.383	4.46
496.734	4.51
497.086	4.39
497.437	4.52
497.788	4.46
498.139	4.28
498.49	4.28
498.842	4.35
499.193	4.39
499.544	4.38
499.894	4.35
500.245	4.32
500.596	4.31
500.947	4.49
501.298	4.5
501.648	4.42
501.999	4.39
502.35	4.4
502.7	4.43
503.051	4.5
503.401	4.6
503.752	4.42
504.102	4.51
504.452	4.54
504.803	4.56
505.153	4.64
505.503	4.52
505.853	4.57
506.203	4.34
506.553	4.43
506.903	4.58
507.253	4.54
507.603	4.67
507.953	4.59
508.303	4.53
508.652	4.59
509.002	4.66
509.352	4.59
509.701	4.48
510.051	4.7
510.4	4.54
510.75	4.56
511.099	4.54
511.449	4.55
511.798	4.57
512.147	4.69
512.496	4.6
512.846	4.58
513.195	4.51
513.544	4.62
513.893	4.53
514.242	4.55
514.591	4.66
514.939	4.63
515.288	4.69
515.637	4.57
515.986	4.79
516.334	4.66
516.683	4.56
517.032	4.55
517.38	4.64
517.729	4.78
518.077	4.72
518.426	4.77
518.774	4.76
519.122	4.66
519.47	4.61
519.819	4.74
520.167	4.65
520.515	4.54
520.863	4.67
521.211	4.73
521.559	4.74
521.907	4.76
522.255	4.63
522.602	4.81
522.95	4.73
523.298	4.77
523.645	4.63
523.993	4.86
524.341	4.76
524.688	4.84
525.036	4.73
525.383	4.76
525.73	4.79
526.078	4.9
526.425	4.7
526.772	4.8
527.119	4.65
527.466	4.64
527.814	4.73
528.161	4.63
528.508	4.77
528.854	4.71
529.201	4.73
529.548	4.64
529.895	4.6
530.242	4.58
530.588	4.62
530.935	4.69
531.282	4.68
531.628	4.76
531.975	4.76
532.321	4.83
532.667	4.9
533.014	4.93
533.36	4.87
533.706	4.84
534.052	4.82
534.399	4.79
534.745	4.79
535.091	4.75
535.437	4.88
535.783	4.81
536.129	4.93
536.474	4.95
536.82	4.92
537.166	5.06
537.512	5.03
537.857	5.05
538.203	4.98
538.549	4.87
538.894	5.03
539.239	5.1
539.585	5.06
539.93	5.13
540.276	5.14
540.621	5.16
540.966	5.15
541.311	5.23
541.656	5.18
542.001	5.06
542.346	5.1
542.691	4.98
543.036	4.95
543.381	5
543.726	5.06
544.071	5.15
544.415	5.13
544.76	5.2
545.105	5.13
545.449	5.19
545.794	5.19
546.138	5.27
546.483	5.36
546.827	5.29
547.171	5.29
547.516	5.31
547.86	5.28
548.204	5.27
548.548	5.29
548.892	5.24
549.236	5.39
549.58	5.52
549.924	5.39
550.268	5.62
550.612	5.59
550.956	5.46
551.3	5.64
551.643	5.46
551.987	5.55
552.33	5.59
552.674	5.76
553.017	5.53
553.361	5.57
553.704	5.73
554.048	5.46
554.391	5.68
554.734	5.59
555.077	5.63
555.42	5.69
555.764	5.57
556.107	5.69
556.45	5.71
556.793	5.63
557.135	5.68
557.478	5.8
557.821	5.73
558.164	5.9
558.507	5.89
558.849	5.79
559.192	5.82
559.534	5.85
559.877	5.88
560.219	5.85
560.562	5.93
560.904	5.84
561.246	5.89
561.589	5.91
561.931	5.94
562.273	6.05
562.615	5.98
562.957	6.02
563.299	6.08
563.641	5.78
563.983	5.93
564.325	6
564.667	6.26
565.008	6.07
565.35	6.09
565.692	6.13
566.033	5.97
566.375	5.91
566.716	6.15
567.058	6.02
567.399	6.09
567.741	6.09
568.082	6.09
568.423	6.18
568.764	6.21
569.105	6.21
569.447	6.08
569.788	6.3
570.129	6.24
570.47	6.11
570.811	6.14
571.151	6.32
571.492	6.4
571.833	6.45
572.174	6.14
572.514	6.49
572.855	6.3
573.195	6.3
573.536	6.4
573.876	6.49
574.217	6.44
574.557	6.49
574.898	6.52
575.238	6.5
575.578	6.55
575.918	6.39
576.258	6.69
576.598	6.59
576.938	6.69
577.278	6.78
577.618	6.84
577.958	6.75
578.298	6.74
578.638	6.74
578.977	6.77
579.317	6.58
579.657	6.81
579.996	6.67
580.336	7.05
580.675	6.86
581.014	6.89
581.354	6.87
581.693	7.02
582.032	6.79
582.372	7.02
582.711	7.07
583.05	7.17
583.389	7
583.728	6.91
584.067	7.03
584.406	6.97
584.745	7.07
585.083	6.81
585.422	7.26
585.761	6.9
586.1	7.18
586.438	7.38
586.777	7.33
587.115	7.28
587.454	7.09
587.792	6.99
588.13	7.35
588.469	7.18
588.807	7.37
589.145	7.34
589.483	7.46
589.821	7.31
590.159	7.61
590.497	7.35
590.835	7.46
591.173	7.37
591.511	7.46
591.849	7.6
592.187	7.67
592.524	7.47
592.862	7.66
593.2	7.39
593.537	7.5
593.875	7.86
594.212	7.74
594.55	7.71
594.887	7.97
595.224	7.77
595.561	7.59
595.899	7.48
596.236	7.78
596.573	7.69
596.91	7.88
597.247	7.81
597.584	7.84
597.921	7.69
598.258	7.78
598.594	7.55
598.931	7.81
599.268	7.69
599.604	7.92
599.941	7.68
600.277	7.92
600.614	7.89
600.95	8.12
601.287	7.99
601.623	8.12
601.959	7.98
602.296	7.98
602.632	8.12
602.968	8.4
603.304	8.16
603.64	8.41
603.976	8.16
604.312	8.1
604.648	8.23
604.984	8.36
605.319	8.33
605.655	8.14
605.991	8.26
606.326	8.28
606.662	8.37
606.998	8.4
607.333	8.26
607.668	8.47
608.004	8.66
608.339	8.56
608.674	8.62
609.01	8.31
609.345	8.19
609.68	8.61
610.015	8.8
610.35	8.61
610.685	8.51
611.02	8.49
611.355	8.59
611.689	8.54
612.024	8.85
612.359	8.8
612.694	8.93
613.028	8.84
613.363	8.84
613.697	8.89
614.032	9.2
614.366	9.13
614.7	8.79
615.035	9.18
615.369	9.13
615.703	9.02
616.037	8.98
616.371	9.17
616.705	8.86
617.039	9.21
617.373	9.16
617.707	8.84
618.041	9.44
618.375	9.18
618.709	9.42
619.042	8.88
619.376	9.11
619.71	9.26
620.043	9.79
620.377	9.41
620.71	9.39
621.043	9.74
621.377	9.43
621.71	9.21
622.043	9.44
622.376	9.35
622.709	9.65
623.043	9.55
623.376	9.63
623.709	9.67
624.041	9.94
624.374	9.99
624.707	9.39
625.04	9.49
625.373	10.12
625.705	9.47
626.038	10.03
626.37	9.63
626.703	10.16
627.035	9.81
627.368	9.72
627.7	9.89
628.032	9.77
628.365	9.66
628.697	10.19
629.029	10.08
629.361	9.9
629.693	10.45
630.025	10.01
630.357	10.27
630.689	10.58
631.021	10.24
631.353	10.09
631.684	10.32
632.016	10.65
632.348	10.22
632.679	10.26
633.011	10.34
633.342	10.38
633.674	10.58
634.005	10.63
634.336	10.34
634.668	10.84
634.999	10.59
635.33	11.07
635.661	10.66
635.992	10.75
636.323	10.62
636.654	10.33
636.985	10.45
637.316	10.83
637.647	10.64
637.977	10.79
638.308	10.54
638.639	10.66
638.969	10.84
639.3	10.68
639.63	10.54
639.961	11.2
640.291	11.12
640.622	11.04
640.952	11.3
641.282	10.96
641.612	10.67
641.943	11.25
642.273	11.33
642.603	11.28
642.933	11.12
643.263	11.38
643.592	11.14
643.922	11.16
644.252	11.47
644.582	11.35
644.911	11.85
645.241	11.49
645.571	11.35
645.9	11.27
646.23	11.46
646.559	11.14
646.888	12
647.218	11.6
647.547	11.61
647.876	11.46
648.205	11.77
648.534	11.52
648.863	11.74
649.192	11.62
649.521	11.7
649.85	11.69
650.179	11.87
650.508	11.73
650.837	12.1
651.165	11.53
651.494	11.85
651.822	12.14
652.151	11.66
652.479	11.81
652.808	12.38
653.136	12.05
653.465	12.04
653.793	11.7
654.121	12.09
654.449	12.27
654.777	12.32
655.105	12.33
655.433	11.91
655.761	12.52
656.089	12.38
656.417	12.03
656.745	12.25
657.073	12.44
657.4	13.06
657.728	12.08
658.056	12.69
658.383	12.53
658.711	12.5
659.038	12.52
659.365	12.25
659.693	12.53
660.02	12.49
660.347	13.1
660.674	12.77
661.001	12.95
661.329	12.61
661.656	12.44
661.982	12.81
662.309	12.97
662.636	13.04
662.963	12.51
663.29	12.56
663.616	12.66
663.943	12.65
664.27	13.05
664.596	13.1
664.923	13.1
665.249	13.26
665.576	13.25
665.902	13.08
666.228	13.74
666.554	13.25
666.881	13.28
667.207	13.1
667.533	13.07
667.859	13.41
668.185	13.46
668.511	13.25
668.837	13.53
669.162	13.34
669.488	13.14
669.814	13.38
670.139	13.41
670.465	13.2
670.791	13.56
671.116	13.77
671.442	13.99
671.767	13.87
672.092	13.37
672.418	13.19
672.743	13.97
673.068	14.34
673.393	13.71
673.718	13.06
674.043	14.07
674.368	14.26
674.693	13.67
675.018	13.65
675.343	14.36
675.667	14.32
675.992	13.64
676.317	14.27
676.641	13.79
676.966	13.62
677.29	13.79
677.615	13.59
677.939	13.82
678.264	13.78
678.588	13.96
678.912	14.52
679.236	13.68
679.56	14.29
679.885	14.44
680.209	14.32
680.532	14.7
680.856	14.46
681.18	14.81
681.504	14.62
681.828	14.42
682.152	14.27
682.475	14.34
682.799	14.6
683.122	14.48
683.446	14.63
683.769	15.64
684.093	14.9
684.416	15.06
684.739	15.01
685.062	14.89
685.386	15.25
685.709	14.84
686.032	14.88
686.355	14.72
686.678	14.64
687.001	14.81
687.324	15.02
687.646	15.11
