Data from 815644_chest_Reflection__3__27.txt Node

Date: Fri Sep 16 14:29:21 CDT 2022
User: ToomeyLab
Spectrometer: FLMS14357
Trigger mode: 0
Integration Time (sec): 1.000000E-2
Scans to average: 100
Electric dark correction enabled: true
Nonlinearity correction enabled: false
Boxcar width: 0
XAxis mode: Wavelengths
Number of Pixels in Spectrum: 2048
>>>>>Begin Spectral Data<<<<<
189.047	79.98
189.435	79.98
189.823	79.98
190.211	-2124.66
190.599	-22.89
190.987	22.96
191.375	296.34
191.763	157.25
192.151	-79.66
192.538	6500
192.926	-24.4
193.314	160.85
193.702	82.58
194.089	75.29
194.477	162.56
194.864	53.48
195.252	-3.09
195.639	16.23
196.027	5.44
196.414	-11.74
196.801	50.1
197.189	62.13
197.576	52.42
197.963	-981.44
198.351	-27.3
198.738	-14.03
199.125	18.55
199.512	-73.98
199.899	2.51
200.286	4.8
200.673	43.74
201.06	26.86
201.447	6.97
201.833	14.5
202.22	12.98
202.607	9.18
202.994	13.72
203.38	21.29
203.767	8.26
204.154	18.98
204.54	-23.1
204.927	-32.87
205.313	38.6
205.699	25.62
206.086	22.19
206.472	16.22
206.858	11.54
207.245	0.17
207.631	5.77
208.017	17.22
208.403	2.12
208.789	-1.99
209.175	16.68
209.561	-15.18
209.947	-18.8
210.333	32.84
210.719	27.44
211.105	16.51
211.491	20.72
211.876	46.92
212.262	-10.2
212.648	-18.3
213.034	-16.86
213.419	-17.01
213.805	-14.05
214.19	33.82
214.576	11.63
214.961	0.95
215.346	6.87
215.732	-14.15
216.117	6.45
216.502	4.9
216.888	-37.03
217.273	22.63
217.658	28.11
218.043	-3.71
218.428	22.32
218.813	-0.6
219.198	18.12
219.583	-5.35
219.968	21.39
220.353	-10.38
220.738	8.07
221.122	-10.55
221.507	9.65
221.892	7.86
222.276	5.06
222.661	12.86
223.046	6.99
223.43	3.11
223.815	-0.9
224.199	2.21
224.583	14.36
224.968	10.39
225.352	4.08
225.736	8.94
226.121	6.43
226.505	0.72
226.889	7.34
227.273	5.43
227.657	9.54
228.041	3.48
228.425	-3.95
228.809	8.23
229.193	4.09
229.577	5.81
229.961	4.93
230.344	5.73
230.728	5.7
231.112	5.45
231.495	5.43
231.879	5.89
232.263	4.87
232.646	4.33
233.03	4.89
233.413	6.33
233.797	4.4
234.18	6.84
234.563	8.31
234.946	6.17
235.33	5.38
235.713	5.72
236.096	4.21
236.479	4.47
236.862	5.92
237.245	6.4
237.628	6.39
238.011	6.91
238.394	4.68
238.777	6.28
239.16	5.74
239.543	7.37
239.925	4.76
240.308	5.19
240.691	5.64
241.073	5.11
241.456	4.68
241.838	4.38
242.221	4.87
242.603	5.43
242.986	3.99
243.368	5.13
243.75	5.17
244.133	5.24
244.515	4.84
244.897	5.11
245.279	4.83
245.661	5.08
246.043	5.28
246.425	5.08
246.807	5.22
247.189	4.26
247.571	4.57
247.953	4.96
248.335	5.26
248.717	4.93
249.098	4.95
249.48	4.69
249.862	4.86
250.243	4.96
250.625	4.77
251.006	4.81
251.388	5.44
251.769	3.3
252.151	5.32
252.532	3.63
252.913	4.6
253.295	4.75
253.676	4.77
254.057	4.38
254.438	4.31
254.819	3.98
255.2	3.46
255.581	5.59
255.962	4.43
256.343	5.5
256.724	4.09
257.105	2.91
257.486	5.32
257.867	4.74
258.247	5.1
258.628	5.04
259.009	4.95
259.389	4.5
259.77	3.99
260.15	4.96
260.531	4.78
260.911	4.69
261.292	4.43
261.672	4.49
262.052	4.36
262.432	4.42
262.813	4.96
263.193	4.7
263.573	4.43
263.953	4.72
264.333	4.86
264.713	3.91
265.093	3.71
265.473	4.23
265.853	5
266.233	3.91
266.612	5.57
266.992	3.2
267.372	4.84
267.752	4.51
268.131	4.11
268.511	4.58
268.89	5.05
269.27	3.85
269.649	4.44
270.029	4.83
270.408	4.76
270.787	3.98
271.167	4.28
271.546	4.92
271.925	4.34
272.304	4.57
272.683	3.77
273.062	4.13
273.441	4.49
273.82	4.29
274.199	4.29
274.578	4.57
274.957	4.48
275.336	4.64
275.715	4.92
276.093	4.59
276.472	4.6
276.851	3.95
277.229	4.56
277.608	4.71
277.986	4.42
278.365	3.85
278.743	4.33
279.122	4.61
279.5	4.39
279.878	4.41
280.257	4.89
280.635	4.5
281.013	4.03
281.391	4.22
281.769	4.61
282.147	4.78
282.525	3.92
282.903	4.76
283.281	4.39
283.659	4.27
284.037	4.51
284.415	4.79
284.792	4.4
285.17	4.43
285.548	4.08
285.925	4.24
286.303	4.9
286.68	4.25
287.058	4.19
287.435	4.57
287.813	4.83
288.19	4.32
288.567	4.42
288.945	4.46
289.322	4.88
289.699	4.02
290.076	4.12
290.453	4.55
290.83	4.65
291.207	4.14
291.584	3.76
291.961	4.21
292.338	4.47
292.715	4.54
293.092	4.55
293.469	4.51
293.845	4.59
294.222	4.28
294.599	4.1
294.975	4.47
295.352	4.45
295.728	4.44
296.105	4.51
296.481	4.27
296.858	4.78
297.234	4.53
297.61	4.91
297.986	4.68
298.363	4.41
298.739	4.14
299.115	4.35
299.491	4.59
299.867	4.32
300.243	4.3
300.619	4.6
300.995	4.39
301.371	4.82
301.746	4.27
302.122	4.54
302.498	4.33
302.874	4.53
303.249	4.47
303.625	4.1
304	4.24
304.376	3.6
304.751	4.68
305.127	4.32
305.502	4.71
305.878	4.35
306.253	4.87
306.628	5.08
307.003	4.39
307.378	4.86
307.754	4.32
308.129	4.72
308.504	4.83
308.879	5.11
309.254	4.46
309.629	4.49
310.003	4.18
310.378	3.96
310.753	4.39
311.128	4.43
311.502	3.87
311.877	4.56
312.252	4.84
312.626	4.83
313.001	4.54
313.375	4.65
313.75	4.57
314.124	4.27
314.498	4.54
314.873	4.82
315.247	3.89
315.621	4.6
315.995	4.63
316.369	4.39
316.743	4.9
317.117	4.39
317.491	4.57
317.865	4.77
318.239	4.83
318.613	4.14
318.987	4.5
319.361	4.27
319.734	4.59
320.108	4.62
320.482	4.71
320.855	4.05
321.229	4.72
321.602	4.68
321.976	4.95
322.349	4.02
322.723	4
323.096	4.59
323.469	4.93
323.843	4.97
324.216	5.01
324.589	4.77
324.962	4.49
325.335	5.17
325.708	4.88
326.081	4.71
326.454	4.71
326.827	4.5
327.2	4.4
327.573	4.21
327.945	4.49
328.318	4.49
328.691	4.44
329.063	4.56
329.436	4.18
329.809	3.98
330.181	5.08
330.553	4.53
330.926	4.28
331.298	4.6
331.671	4.78
332.043	4.56
332.415	4.49
332.787	4.84
333.159	4.62
333.532	5.38
333.904	4.95
334.276	4.62
334.648	4.48
335.02	4.56
335.391	4.64
335.763	4.22
336.135	3.75
336.507	4.85
336.879	4.72
337.25	4.09
337.622	4.87
337.993	5.41
338.365	4.82
338.736	5.31
339.108	4.82
339.479	5.08
339.851	4.78
340.222	4.58
340.593	4.38
340.964	5.19
341.336	4.66
341.707	4.56
342.078	5.06
342.449	4.73
342.82	4.65
343.191	4.65
343.562	4.81
343.933	4.51
344.303	5.06
344.674	4.39
345.045	4.96
345.416	4.78
345.786	4.84
346.157	4.98
346.527	4.78
346.898	4.57
347.268	5.09
347.639	4.81
348.009	4.96
348.38	5.22
348.75	4.58
349.12	4.47
349.49	5.23
349.861	5.09
350.231	4.56
350.601	4.7
350.971	5.09
351.341	5.21
351.711	4.82
352.081	4.53
352.45	5.23
352.82	4.75
353.19	4.56
353.56	4.93
353.929	4.71
354.299	4.94
354.669	4.52
355.038	4.63
355.408	4.96
355.777	4.57
356.147	5.1
356.516	5.1
356.885	4.89
357.254	5.14
357.624	5.1
357.993	4.81
358.362	4.68
358.731	4.89
359.1	4.88
359.469	4.77
359.838	4.53
360.207	5.09
360.576	4.92
360.945	4.87
361.314	4.57
361.682	4.44
362.051	5.14
362.42	5.21
362.788	5.04
363.157	4.99
363.525	4.89
363.894	5.11
364.262	4.62
364.631	4.8
364.999	4.81
365.367	4.81
365.735	5.08
366.104	4.91
366.472	4.88
366.84	5.09
367.208	5.13
367.576	4.76
367.944	4.86
368.312	4.51
368.68	4.88
369.048	5.02
369.416	5.05
369.783	4.88
370.151	5.15
370.519	4.97
370.886	4.82
371.254	5
371.621	4.89
371.989	4.73
372.356	5.01
372.724	5.04
373.091	4.87
373.458	4.91
373.826	4.93
374.193	5.05
374.56	4.77
374.927	4.93
375.294	4.99
375.661	4.83
376.028	5.29
376.395	4.67
376.762	5.57
377.129	4.78
377.496	5.22
377.863	5.16
378.229	5.18
378.596	4.92
378.963	4.96
379.329	4.96
379.696	5.31
380.062	4.95
380.429	4.88
380.795	5.15
381.161	5.22
381.528	5.22
381.894	5.34
382.26	5.32
382.626	5
382.993	5.13
383.359	4.89
383.725	5.08
384.091	5.27
384.457	4.87
384.823	4.92
385.188	4.9
385.554	4.85
385.92	5.02
386.286	5.15
386.651	5.07
387.017	5.08
387.383	4.66
387.748	4.74
388.114	4.85
388.479	5.29
388.845	5.2
389.21	5.3
389.575	5.14
389.94	5.14
390.306	5.21
390.671	5.23
391.036	5.13
391.401	4.96
391.766	5.23
392.131	5.05
392.496	5.17
392.861	4.98
393.226	5.24
393.591	5.02
393.956	5.08
394.32	4.98
394.685	4.76
395.05	5.25
395.414	4.92
395.779	5.36
396.143	5.28
396.508	5.1
396.872	5.22
397.236	4.99
397.601	5.02
397.965	4.88
398.329	5.07
398.694	5
399.058	5.14
399.422	5.16
399.786	5.31
400.15	5.1
400.514	5.27
400.878	5.23
401.242	5.17
401.605	5.13
401.969	4.93
402.333	5.15
402.697	5.3
403.06	5.3
403.424	5.12
403.787	5.21
404.151	5.15
404.514	5.02
404.878	5.18
405.241	5.14
405.604	5.4
405.968	5.35
406.331	5.11
406.694	5.23
407.057	5.25
407.42	5.04
407.783	5.26
408.146	5.48
408.509	5.32
408.872	5.24
409.235	5.39
409.598	5.12
409.961	5.22
410.323	5.34
410.686	5.44
411.049	5.18
411.411	5.3
411.774	5.31
412.136	5.28
412.499	5.27
412.861	5.41
413.223	5.41
413.586	5.24
413.948	5.34
414.31	5.47
414.672	5.37
415.035	5.51
415.397	5.22
415.759	5.56
416.121	5.39
416.483	5.38
416.845	5.44
417.206	5.44
417.568	5.44
417.93	5.54
418.292	5.41
418.653	5.24
419.015	5.34
419.377	5.27
419.738	5.33
420.1	5.21
420.461	5.43
420.822	5.26
421.184	5.31
421.545	5.35
421.906	5.32
422.267	5.35
422.629	5.22
422.99	5.19
423.351	5.23
423.712	5.15
424.073	5.31
424.434	5.27
424.795	5.21
425.155	5.36
425.516	5.22
425.877	5.26
426.238	5.3
426.598	5.31
426.959	5.31
427.32	5.29
427.68	5.34
428.041	5.22
428.401	5.31
428.761	5.63
429.122	5.38
429.482	5.35
429.842	5.43
430.202	5.42
430.563	5.48
430.923	5.46
431.283	5.8
431.643	5.54
432.003	5.48
432.363	5.61
432.722	5.55
433.082	5.48
433.442	5.66
433.802	5.59
434.161	5.44
434.521	5.59
434.881	5.54
435.24	5.43
435.6	5.62
435.959	5.43
436.319	5.42
436.678	5.59
437.037	5.43
437.396	5.49
437.756	5.56
438.115	5.65
438.474	5.58
438.833	5.56
439.192	5.51
439.551	5.41
439.91	5.54
440.269	5.53
440.628	5.47
440.987	5.52
441.345	5.5
441.704	5.56
442.063	5.64
442.421	5.52
442.78	5.54
443.138	5.48
443.497	5.46
443.855	5.47
444.214	5.51
444.572	5.57
444.93	5.65
445.288	5.5
445.647	5.54
446.005	5.43
446.363	5.63
446.721	5.62
447.079	5.43
447.437	5.55
447.795	5.58
448.153	5.52
448.51	5.53
448.868	5.41
449.226	5.49
449.584	5.58
449.941	5.57
450.299	5.51
450.656	5.61
451.014	5.61
451.371	5.74
451.729	5.68
452.086	5.67
452.443	5.56
452.801	5.72
453.158	5.77
453.515	5.6
453.872	5.71
454.229	5.6
454.586	5.58
454.943	5.58
455.3	5.69
455.657	5.63
456.014	5.69
456.371	5.52
456.727	5.74
457.084	5.71
457.441	5.71
457.797	5.68
458.154	5.83
458.51	5.84
458.867	5.67
459.223	5.8
459.58	5.84
459.936	5.78
460.292	5.86
460.648	5.59
461.005	5.79
461.361	5.62
461.717	5.61
462.073	5.7
462.429	5.71
462.785	5.61
463.141	5.71
463.496	5.81
463.852	5.84
464.208	5.74
464.564	5.8
464.919	5.73
465.275	5.83
465.631	5.89
465.986	5.78
466.342	5.83
466.697	5.9
467.052	5.84
467.408	5.83
467.763	5.94
468.118	5.82
468.473	5.91
468.829	5.8
469.184	5.74
469.539	5.84
469.894	5.92
470.249	5.97
470.603	5.9
470.958	5.65
471.313	5.92
471.668	5.82
472.023	5.85
472.377	5.98
472.732	5.99
473.086	5.85
473.441	5.61
473.795	5.95
474.15	5.76
474.504	5.94
474.859	5.94
475.213	5.92
475.567	5.76
475.921	6
476.275	5.96
476.63	5.92
476.984	6.01
477.338	5.93
477.692	5.87
478.045	5.89
478.399	5.95
478.753	5.94
479.107	5.91
479.461	6.04
479.814	5.95
480.168	5.97
480.521	6.09
480.875	5.97
481.228	5.85
481.582	6.01
481.935	5.99
482.289	5.91
482.642	5.94
482.995	5.87
483.348	5.97
483.701	5.99
484.055	5.88
484.408	5.93
484.761	5.86
485.114	5.78
485.466	5.66
485.819	5.67
486.172	5.64
486.525	5.65
486.878	5.66
487.23	5.76
487.583	5.83
487.936	5.83
488.288	5.8
488.641	5.86
488.993	5.81
489.345	5.8
489.698	5.79
490.05	5.75
490.402	5.74
490.754	5.89
491.107	5.87
491.459	5.93
491.811	5.95
492.163	5.93
492.515	6.02
492.866	5.92
493.218	5.88
493.57	5.87
493.922	5.88
494.274	5.9
494.625	5.95
494.977	5.98
495.328	6.06
495.68	6.07
496.031	6.11
496.383	6.09
496.734	6.01
497.086	6.05
497.437	6.26
497.788	6.13
498.139	6.08
498.49	6.19
498.842	6.13
499.193	6.16
499.544	6.14
499.894	6.16
500.245	6.17
500.596	6.15
500.947	6.21
501.298	6.08
501.648	6.26
501.999	6.29
502.35	6.28
502.7	6.3
503.051	6.25
503.401	6.1
503.752	6.33
504.102	6.39
504.452	6.1
504.803	6.29
505.153	6.25
505.503	6.34
505.853	6.29
506.203	6.27
506.553	6.19
506.903	6.32
507.253	6.29
507.603	6.34
507.953	6.34
508.303	6.3
508.652	6.27
509.002	6.4
509.352	6.39
509.701	6.31
510.051	6.39
510.4	6.25
510.75	6.44
511.099	6.37
511.449	6.33
511.798	6.32
512.147	6.32
512.496	6.33
512.846	6.36
513.195	6.37
513.544	6.4
513.893	6.36
514.242	6.37
514.591	6.47
514.939	6.47
515.288	6.58
515.637	6.46
515.986	6.46
516.334	6.45
516.683	6.47
517.032	6.66
517.38	6.63
517.729	6.58
518.077	6.39
518.426	6.61
518.774	6.5
519.122	6.55
519.47	6.5
519.819	6.5
520.167	6.52
520.515	6.42
520.863	6.54
521.211	6.48
521.559	6.5
521.907	6.5
522.255	6.5
522.602	6.63
522.95	6.64
523.298	6.59
523.645	6.6
523.993	6.66
524.341	6.68
524.688	6.81
525.036	6.75
525.383	6.78
525.73	6.82
526.078	6.75
526.425	6.71
526.772	6.63
527.119	6.58
527.466	6.7
527.814	6.65
528.161	6.63
528.508	6.64
528.854	6.68
529.201	6.52
529.548	6.6
529.895	6.58
530.242	6.59
530.588	6.54
530.935	6.58
531.282	6.53
531.628	6.54
531.975	6.64
532.321	6.67
532.667	6.69
533.014	6.87
533.36	6.72
533.706	6.85
534.052	6.85
534.399	6.81
534.745	6.78
535.091	6.78
535.437	6.77
535.783	6.75
536.129	6.83
536.474	6.82
536.82	6.82
537.166	6.97
537.512	6.96
537.857	6.98
538.203	6.93
538.549	6.9
538.894	6.89
539.239	6.94
539.585	6.92
539.93	6.98
540.276	7.26
540.621	7.09
540.966	7.06
541.311	7.13
541.656	7.06
542.001	7.16
542.346	7.2
542.691	7.08
543.036	7
543.381	6.89
543.726	6.96
544.071	6.93
544.415	7.01
544.76	7.06
545.105	7.14
545.449	7.19
545.794	7.2
546.138	7.21
546.483	7.26
546.827	7.3
547.171	7.42
547.516	7.24
547.86	7.36
548.204	7.37
548.548	7.34
548.892	7.2
549.236	7.32
549.58	7.42
549.924	7.46
550.268	7.52
550.612	7.63
550.956	7.45
551.3	7.68
551.643	7.62
551.987	7.69
552.33	7.67
552.674	7.59
553.017	7.6
553.361	7.74
553.704	7.65
554.048	7.74
554.391	7.74
554.734	7.65
555.077	7.77
555.42	7.72
555.764	7.76
556.107	7.89
556.45	7.61
556.793	7.9
557.135	7.82
557.478	7.59
557.821	7.74
558.164	8.1
558.507	8.02
558.849	7.85
559.192	8.01
559.534	8.13
559.877	7.7
560.219	7.75
560.562	7.99
560.904	7.98
561.246	7.89
561.589	8.02
561.931	8.02
562.273	8.01
562.615	8.07
562.957	8.08
563.299	8.09
563.641	8.04
563.983	8.12
564.325	8.09
564.667	8.23
565.008	8.36
565.35	8.17
565.692	8.2
566.033	8.33
566.375	8.27
566.716	8.37
567.058	8.25
567.399	8.33
567.741	8.19
568.082	8.46
568.423	8.33
568.764	8.33
569.105	8.31
569.447	8.49
569.788	8.43
570.129	8.53
570.47	8.53
570.811	8.64
571.151	8.49
571.492	8.52
571.833	8.58
572.174	8.61
572.514	8.64
572.855	8.64
573.195	8.64
573.536	8.78
573.876	8.69
574.217	8.7
574.557	8.65
574.898	8.7
575.238	8.77
575.578	8.72
575.918	8.83
576.258	8.72
576.598	8.6
576.938	8.96
577.278	8.73
577.618	8.94
577.958	8.85
578.298	8.71
578.638	8.87
578.977	8.97
579.317	9.13
579.657	9.16
579.996	8.97
580.336	9.16
580.675	8.91
581.014	9.08
581.354	9.11
581.693	9.05
582.032	9.25
582.372	9.42
582.711	9.2
583.05	9.27
583.389	9.42
583.728	9.32
584.067	9.39
584.406	9.57
584.745	9.65
585.083	9.35
585.422	9.66
585.761	9.53
586.1	9.31
586.438	9.73
586.777	9.45
587.115	9.66
587.454	9.7
587.792	9.67
588.13	9.75
588.469	9.56
588.807	9.65
589.145	9.48
589.483	9.75
589.821	9.73
590.159	9.83
590.497	9.54
590.835	9.81
591.173	9.87
591.511	9.84
591.849	9.83
592.187	9.85
592.524	9.82
592.862	9.81
593.2	9.67
593.537	9.87
593.875	9.93
594.212	10.15
594.55	10.02
594.887	10.27
595.224	9.97
595.561	10.13
595.899	10.24
596.236	10.23
596.573	10.28
596.91	10.23
597.247	10.17
597.584	10.34
597.921	10.27
598.258	10.25
598.594	10.07
598.931	10.3
599.268	10.27
599.604	10.1
599.941	10.22
600.277	10.46
600.614	10.49
600.95	10.31
601.287	10.25
601.623	10.54
601.959	10.63
602.296	10.25
602.632	10.35
602.968	10.55
603.304	10.57
603.64	10.56
603.976	10.77
604.312	10.66
604.648	10.76
604.984	10.86
605.319	10.94
605.655	10.92
605.991	10.82
606.326	10.71
606.662	10.85
606.998	10.67
607.333	10.73
607.668	10.9
608.004	10.82
608.339	10.81
608.674	11
609.01	10.98
609.345	11.16
609.68	11.08
610.015	11.28
610.35	11.25
610.685	11.29
611.02	11.2
611.355	11.52
611.689	11.03
612.024	11.24
612.359	11.19
612.694	11.06
613.028	11.11
613.363	11.04
613.697	11.55
614.032	11.21
614.366	11.05
614.7	11.38
615.035	11.4
615.369	11.19
615.703	11.53
616.037	11.59
616.371	11.28
616.705	11.52
617.039	11.96
617.373	11.59
617.707	11.48
618.041	11.67
618.375	11.9
618.709	11.62
619.042	11.7
619.376	12
619.71	11.84
620.043	11.62
620.377	11.67
620.71	12.07
621.043	12.32
621.377	12.08
621.71	12.01
622.043	11.94
622.376	11.86
622.709	11.98
623.043	11.98
623.376	12.05
623.709	11.75
624.041	12.34
624.374	12.26
624.707	11.99
625.04	12.22
625.373	12.15
625.705	12.35
626.038	12.62
626.37	12.4
626.703	12.42
627.035	12.41
627.368	12.52
627.7	12.51
628.032	12.43
628.365	12.55
628.697	12.46
629.029	12.58
629.361	12.46
629.693	12.63
630.025	12.61
630.357	12.5
630.689	12.59
631.021	12.69
631.353	12.87
631.684	12.68
632.016	12.86
632.348	12.88
632.679	12.81
633.011	12.87
633.342	12.79
633.674	13.22
634.005	13.24
634.336	12.86
634.668	13.07
634.999	13.11
635.33	13.15
635.661	13.23
635.992	13.14
636.323	13.29
636.654	13.03
636.985	13.39
637.316	13.15
637.647	13.35
637.977	12.93
638.308	13.37
638.639	13.51
638.969	13.43
639.3	13.55
639.63	13.08
639.961	13.62
640.291	13.43
640.622	13.39
640.952	13.85
641.282	13.74
641.612	13.34
641.943	13.64
642.273	13.93
642.603	13.71
642.933	13.61
643.263	14.04
643.592	13.2
643.922	13.27
644.252	13.71
644.582	14.12
644.911	14.11
645.241	14.12
645.571	14.5
645.9	13.91
646.23	13.84
646.559	13.7
646.888	13.77
647.218	14.46
647.547	14.23
647.876	14.05
648.205	14.2
648.534	14.26
648.863	14.11
649.192	14.14
649.521	13.83
649.85	14.55
650.179	13.8
650.508	14.42
650.837	14.55
651.165	14.18
651.494	14.48
651.822	14.19
652.151	14.14
652.479	14.56
652.808	14.3
653.136	14.4
653.465	14.28
653.793	14.33
654.121	14.76
654.449	14.28
654.777	14.87
655.105	14.91
655.433	14.59
655.761	14.67
656.089	14.54
656.417	14.71
656.745	14.6
657.073	14.45
657.4	14.94
657.728	14.77
658.056	14.47
658.383	14.9
658.711	14.89
659.038	15
659.365	15.34
659.693	14.6
660.02	14.98
660.347	15.19
660.674	14.89
661.001	15.32
661.329	14.97
661.656	15.04
661.982	15.18
662.309	14.91
662.636	15.02
662.963	15.33
663.29	15.37
663.616	15.25
663.943	15.17
664.27	14.84
664.596	15.41
664.923	15.41
665.249	15.39
665.576	15.29
665.902	15.87
666.228	15.24
666.554	16.23
666.881	16.11
667.207	15.9
667.533	15.66
667.859	16.04
668.185	15.35
668.511	16.01
668.837	15.55
669.162	15.91
669.488	16.07
669.814	15.89
670.139	16.07
670.465	15.72
670.791	16.06
671.116	15.63
671.442	16.66
671.767	15.78
672.092	15.84
672.418	15.7
672.743	16.07
673.068	16.74
673.393	15.66
673.718	15.8
674.043	16.4
674.368	16.09
674.693	17.19
675.018	16.08
675.343	16.27
675.667	15.5
675.992	16.25
676.317	16
676.641	15.85
676.966	16.33
677.29	16.35
677.615	16.46
677.939	15.99
678.264	16.41
678.588	16.11
678.912	16.19
679.236	16.64
679.56	17.29
679.885	16.73
680.209	16.13
680.532	16.83
680.856	16.67
681.18	17.02
681.504	16.94
681.828	17.08
682.152	16.68
682.475	16.98
682.799	16.53
683.122	16.77
683.446	16.87
683.769	16.92
684.093	16.73
684.416	16.83
684.739	16.4
685.062	17.05
685.386	16.39
685.709	16.88
686.032	17.17
686.355	17.22
