Data from 815644_forehead_Reflection__2__31.txt Node

Date: Fri Sep 16 14:32:14 CDT 2022
User: ToomeyLab
Spectrometer: FLMS14357
Trigger mode: 0
Integration Time (sec): 1.000000E-2
Scans to average: 100
Electric dark correction enabled: true
Nonlinearity correction enabled: false
Boxcar width: 0
XAxis mode: Wavelengths
Number of Pixels in Spectrum: 2048
>>>>>Begin Spectral Data<<<<<
189.047	-5.69
189.435	-5.69
189.823	-5.69
190.211	1526.03
190.599	-10.78
190.987	58.42
191.375	236.34
191.763	26.68
192.151	-95.87
192.538	2505.88
192.926	140.98
193.314	80.09
193.702	-4.45
194.089	51.99
194.477	13.88
194.864	82.68
195.252	-61.21
195.639	-415.71
196.027	21.51
196.414	1.46
196.801	27.31
197.189	152.31
197.576	-215.17
197.963	-460.39
198.351	-59.92
198.738	-2.67
199.125	59.97
199.512	-38.3
199.899	-11.3
200.286	-6.07
200.673	22.21
201.06	8.69
201.447	19.86
201.833	-6.92
202.22	15.47
202.607	-11.86
202.994	45.55
203.38	14.77
203.767	-14.27
204.154	40.59
204.54	24.39
204.927	-13.07
205.313	19.88
205.699	43.37
206.086	30.22
206.472	12.22
206.858	8.84
207.245	23.4
207.631	23.17
208.017	31.37
208.403	10.24
208.789	8.04
209.175	23.83
209.561	4.95
209.947	5.16
210.333	6.08
210.719	3.78
211.105	50.31
211.491	29.77
211.876	18.72
212.262	15.56
212.648	10.81
213.034	0.53
213.419	1.35
213.805	-23.25
214.19	17.01
214.576	-6.01
214.961	-11.9
215.346	6.97
215.732	-22.27
216.117	30.57
216.502	22.95
216.888	-29.65
217.273	12.85
217.658	-28.26
218.043	-68.04
218.428	26.03
218.813	3.4
219.198	24.54
219.583	-10.21
219.968	22.22
220.353	7.71
220.738	7.66
221.122	-13.23
221.507	19.65
221.892	-5.16
222.276	10.32
222.661	10.9
223.046	4.45
223.43	6.68
223.815	-10.43
224.199	12.33
224.583	13.83
224.968	5.4
225.352	-5.49
225.736	8.71
226.121	9.83
226.505	6.55
226.889	4.4
227.273	5.19
227.657	8.22
228.041	1.31
228.425	-5.86
228.809	3.75
229.193	2.41
229.577	2.09
229.961	1.69
230.344	1.93
230.728	1.75
231.112	1.92
231.495	1.06
231.879	3.47
232.263	2.02
232.646	1.47
233.03	1.98
233.413	3.17
233.797	0.2
234.18	2.87
234.563	0.33
234.946	1.87
235.33	1.97
235.713	1.94
236.096	0.37
236.479	1.11
236.862	1.16
237.245	2.83
237.628	3.32
238.011	4.31
238.394	1.11
238.777	3.2
239.16	2.51
239.543	2.68
239.925	3.75
240.308	-0.66
240.691	2.84
241.073	1.6
241.456	1.27
241.838	1.16
242.221	0.45
242.603	1.51
242.986	1.25
243.368	1.62
243.75	1.73
244.133	1.82
244.515	1.43
244.897	1.93
245.279	1.89
245.661	1.78
246.043	1.81
246.425	0.94
246.807	1.97
247.189	0.91
247.571	1.47
247.953	1.32
248.335	1.44
248.717	1.53
249.098	1.56
249.48	1.4
249.862	1.73
250.243	1.99
250.625	2.14
251.006	1.88
251.388	2.46
251.769	0.33
252.151	1.1
252.532	1.32
252.913	1.94
253.295	1.45
253.676	2.21
254.057	0.73
254.438	0.37
254.819	0.47
255.2	0.61
255.581	2.03
255.962	1.69
256.343	1.02
256.724	1.36
257.105	0.62
257.486	1.81
257.867	1.17
258.247	2.17
258.628	1.25
259.009	2.13
259.389	2.22
259.77	1.29
260.15	1.15
260.531	1.12
260.911	1.41
261.292	1.47
261.672	1.59
262.052	1.18
262.432	1.22
262.813	2.11
263.193	1.56
263.573	1.5
263.953	1.77
264.333	1.44
264.713	1.17
265.093	0.75
265.473	1.29
265.853	1.91
266.233	0.95
266.612	2.6
266.992	0.59
267.372	1.84
267.752	1.33
268.131	1.95
268.511	1.9
268.89	1.61
269.27	1.1
269.649	1.36
270.029	1.86
270.408	1.79
270.787	1.47
271.167	1.32
271.546	2.05
271.925	2.1
272.304	1.46
272.683	1.4
273.062	1.39
273.441	1.66
273.82	1.22
274.199	1.51
274.578	1.74
274.957	2.01
275.336	1.39
275.715	1.92
276.093	1.51
276.472	1.31
276.851	1.35
277.229	1.57
277.608	1.65
277.986	2.06
278.365	0.85
278.743	1.6
279.122	1.71
279.5	0.96
279.878	1.6
280.257	2.11
280.635	1.8
281.013	1.38
281.391	1.78
281.769	2.07
282.147	1.63
282.525	1.02
282.903	1.47
283.281	1.36
283.659	1.92
284.037	1.64
284.415	1.84
284.792	2.21
285.17	1.6
285.548	1.4
285.925	1.36
286.303	1.79
286.68	1.53
287.058	1.49
287.435	1.35
287.813	1.72
288.19	1.23
288.567	1.27
288.945	1.17
289.322	1.97
289.699	1.32
290.076	1.35
290.453	1.32
290.83	1.64
291.207	1.36
291.584	0.91
291.961	1.52
292.338	1.68
292.715	1.26
293.092	1.35
293.469	1.41
293.845	1.78
294.222	1.48
294.599	1.37
294.975	1.42
295.352	1.94
295.728	1.4
296.105	1.42
296.481	1.04
296.858	1.44
297.234	1.84
297.61	1.86
297.986	1.96
298.363	1.56
298.739	1.24
299.115	1.73
299.491	1.56
299.867	1.34
300.243	1.46
300.619	1.3
300.995	1.21
301.371	1.33
301.746	1.14
302.122	1.77
302.498	1.25
302.874	1.78
303.249	1.94
303.625	1.26
304	1.56
304.376	1.6
304.751	2.47
305.127	1.67
305.502	2.18
305.878	1.31
306.253	1.93
306.628	1.42
307.003	1.74
307.378	2.46
307.754	1.51
308.129	2.13
308.504	2.03
308.879	2.32
309.254	1.95
309.629	1.36
310.003	1.99
310.378	1.55
310.753	1.43
311.128	1.77
311.502	1.61
311.877	1.95
312.252	2.04
312.626	1.94
313.001	1.74
313.375	1.8
313.75	1.8
314.124	1.91
314.498	1.78
314.873	1.97
315.247	1.59
315.621	1.72
315.995	1.64
316.369	2.19
316.743	1.81
317.117	1.74
317.491	1.55
317.865	2.34
318.239	2.13
318.613	1.94
318.987	1.26
319.361	1.72
319.734	2.05
320.108	1.89
320.482	2.3
320.855	1.91
321.229	2.1
321.602	2.41
321.976	2.25
322.349	1.92
322.723	2.22
323.096	1.76
323.469	1.91
323.843	2.64
324.216	2.68
324.589	2.17
324.962	1.83
325.335	2.84
325.708	2.4
326.081	2.54
326.454	2.18
326.827	1.91
327.2	2.01
327.573	1.24
327.945	2.3
328.318	2.1
328.691	1.81
329.063	1.59
329.436	2.31
329.809	1.84
330.181	2.16
330.553	2.61
330.926	2.28
331.298	2.57
331.671	1.7
332.043	1.95
332.415	2.04
332.787	1.92
333.159	2.26
333.532	3.13
333.904	2.41
334.276	2.45
334.648	2.22
335.02	2.4
335.391	3.34
335.763	2.19
336.135	1.63
336.507	2.39
336.879	2.8
337.25	1.53
337.622	2.4
337.993	2.52
338.365	2.51
338.736	2.81
339.108	2.31
339.479	2.65
339.851	2.55
340.222	2.69
340.593	2.32
340.964	2.82
341.336	2.3
341.707	2.62
342.078	3.08
342.449	2.63
342.82	2.37
343.191	2.56
343.562	2.34
343.933	2.99
344.303	2.47
344.674	2.16
345.045	2.55
345.416	2.2
345.786	3.02
346.157	2.92
346.527	2.53
346.898	2.55
347.268	2.76
347.639	2.28
348.009	2.46
348.38	2.55
348.75	2.26
349.12	2.75
349.49	3.25
349.861	3.16
350.231	3.02
350.601	2.97
350.971	2.77
351.341	3.19
351.711	2.86
352.081	2.46
352.45	3.21
352.82	3.17
353.19	2.73
353.56	2.88
353.929	2.91
354.299	2.83
354.669	3.04
355.038	2.8
355.408	3.02
355.777	2.61
356.147	2.77
356.516	3.08
356.885	2.82
357.254	3.03
357.624	2.74
357.993	2.8
358.362	2.64
358.731	3.08
359.1	2.7
359.469	2.87
359.838	2.77
360.207	3.19
360.576	3.06
360.945	3
361.314	3.07
361.682	2.69
362.051	2.8
362.42	3.25
362.788	3.32
363.157	3.13
363.525	2.87
363.894	2.98
364.262	3.01
364.631	3.14
364.999	2.97
365.367	3.17
365.735	3.25
366.104	3.22
366.472	3.42
366.84	3.5
367.208	3.36
367.576	3.08
367.944	3.18
368.312	2.82
368.68	3.34
369.048	3.43
369.416	3.18
369.783	3.46
370.151	3.32
370.519	3.37
370.886	2.96
371.254	3.3
371.621	3.6
371.989	3.36
372.356	3.42
372.724	3.46
373.091	3.43
373.458	3.48
373.826	3.15
374.193	3.79
374.56	3.28
374.927	3.5
375.294	3.65
375.661	3.61
376.028	3.94
376.395	3.15
376.762	3.86
377.129	3.63
377.496	3.57
377.863	3.56
378.229	3.61
378.596	3.32
378.963	3.75
379.329	3.36
379.696	3.92
380.062	3.51
380.429	3.6
380.795	3.89
381.161	4.18
381.528	3.92
381.894	3.96
382.26	3.78
382.626	3.76
382.993	3.61
383.359	3.65
383.725	3.82
384.091	3.86
384.457	3.39
384.823	3.84
385.188	3.6
385.554	3.45
385.92	3.74
386.286	3.9
386.651	3.92
387.017	3.81
387.383	3.74
387.748	3.6
388.114	3.68
388.479	4.18
388.845	3.88
389.21	4.26
389.575	3.88
389.94	4.26
390.306	3.83
390.671	4.06
391.036	3.77
391.401	4.11
391.766	3.99
392.131	4.19
392.496	3.9
392.861	4.06
393.226	4.07
393.591	4.08
393.956	4.14
394.32	4.63
394.685	4.12
395.05	4.4
395.414	4.1
395.779	4.28
396.143	4.32
396.508	3.91
396.872	4.28
397.236	4.35
397.601	4.46
397.965	4.15
398.329	4.15
398.694	4.53
399.058	4.26
399.422	4.39
399.786	4.44
400.15	4.61
400.514	4.38
400.878	4.62
401.242	4.21
401.605	4.4
401.969	4.33
402.333	4.49
402.697	4.42
403.06	4.62
403.424	4.39
403.787	4.44
404.151	4.47
404.514	4.45
404.878	4.48
405.241	4.44
405.604	4.86
405.968	4.26
406.331	4.76
406.694	4.46
407.057	4.6
407.42	4.69
407.783	4.61
408.146	4.85
408.509	4.78
408.872	4.81
409.235	4.79
409.598	4.63
409.961	4.85
410.323	4.7
410.686	5.12
411.049	4.76
411.411	4.72
411.774	4.95
412.136	4.72
412.499	4.85
412.861	4.96
413.223	4.89
413.586	4.97
413.948	4.92
414.31	5.03
414.672	4.75
415.035	5.37
415.397	4.84
415.759	5.13
416.121	4.84
416.483	4.94
416.845	4.96
417.206	5.18
417.568	5.15
417.93	5.15
418.292	4.94
418.653	5.01
419.015	4.96
419.377	4.96
419.738	4.99
420.1	5.11
420.461	5.15
420.822	4.96
421.184	5.1
421.545	5.03
421.906	5.1
422.267	5.24
422.629	5.06
422.99	5.07
423.351	5.16
423.712	5.14
424.073	5.2
424.434	5.29
424.795	5.18
425.155	5.23
425.516	5.15
425.877	5.16
426.238	5.23
426.598	5.24
426.959	5.4
427.32	5.31
427.68	5.5
428.041	5.45
428.401	5.59
428.761	5.63
429.122	5.78
429.482	5.58
429.842	5.62
430.202	5.78
430.563	5.62
430.923	5.79
431.283	5.79
431.643	5.82
432.003	5.8
432.363	5.9
432.722	5.98
433.082	6.13
433.442	6.03
433.802	5.8
434.161	5.83
434.521	5.99
434.881	5.75
435.24	5.8
435.6	5.94
435.959	6
436.319	5.95
436.678	6.13
437.037	5.98
437.396	6.07
437.756	6.14
438.115	6.11
438.474	6.13
438.833	6.03
439.192	6.17
439.551	6.16
439.91	6.11
440.269	6.27
440.628	6.2
440.987	6.14
441.345	6.15
441.704	6.25
442.063	6.27
442.421	6.22
442.78	6.21
443.138	6.28
443.497	6.3
443.855	6.29
444.214	6.37
444.572	6.49
444.93	6.41
445.288	6.3
445.647	6.55
446.005	6.45
446.363	6.45
446.721	6.44
447.079	6.38
447.437	6.53
447.795	6.48
448.153	6.52
448.51	6.39
448.868	6.49
449.226	6.55
449.584	6.65
449.941	6.67
450.299	6.64
450.656	6.77
451.014	6.87
451.371	6.8
451.729	6.76
452.086	6.8
452.443	7.01
452.801	6.83
453.158	6.98
453.515	6.87
453.872	6.83
454.229	6.89
454.586	6.94
454.943	6.92
455.3	7.19
455.657	7.06
456.014	7.19
456.371	7.17
456.727	7.01
457.084	7.18
457.441	7.12
457.797	7.39
458.154	7.24
458.51	7.28
458.867	7.27
459.223	7.38
459.58	7.34
459.936	7.25
460.292	7.36
460.648	7.19
461.005	7.25
461.361	7.13
461.717	7.13
462.073	7.25
462.429	7.33
462.785	7.48
463.141	7.42
463.496	7.63
463.852	7.67
464.208	7.59
464.564	7.7
464.919	7.69
465.275	7.98
465.631	7.85
465.986	7.71
466.342	7.77
466.697	7.78
467.052	7.8
467.408	7.86
467.763	7.76
468.118	7.72
468.473	7.76
468.829	7.94
469.184	7.9
469.539	7.96
469.894	8.01
470.249	8.07
470.603	8.2
470.958	8.05
471.313	8.08
471.668	8.16
472.023	7.99
472.377	8.12
472.732	8.1
473.086	8.26
473.441	8.03
473.795	8.2
474.15	8.07
474.504	8.29
474.859	8.34
475.213	8.39
475.567	8.21
475.921	8.51
476.275	8.53
476.63	8.5
476.984	8.48
477.338	8.57
477.692	8.34
478.045	8.46
478.399	8.45
478.753	8.34
479.107	8.57
479.461	8.49
479.814	8.57
480.168	8.53
480.521	8.62
480.875	8.59
481.228	8.58
481.582	8.58
481.935	8.66
482.289	8.62
482.642	8.71
482.995	8.6
483.348	8.56
483.701	8.55
484.055	8.53
484.408	8.52
484.761	8.34
485.114	8.14
485.466	8
485.819	8.04
486.172	8.13
486.525	8.29
486.878	8.4
487.23	8.51
487.583	8.67
487.936	8.63
488.288	8.6
488.641	8.51
488.993	8.43
489.345	8.39
489.698	8.46
490.05	8.5
490.402	8.57
490.754	8.7
491.107	8.83
491.459	8.95
491.811	8.96
492.163	9.02
492.515	8.89
492.866	8.77
493.218	8.64
493.57	8.64
493.922	8.78
494.274	8.92
494.625	9.04
494.977	9.24
495.328	9.29
495.68	9.32
496.031	9.53
496.383	9.53
496.734	9.59
497.086	9.6
497.437	9.55
497.788	9.62
498.139	9.43
498.49	9.49
498.842	9.48
499.193	9.53
499.544	9.57
499.894	9.62
500.245	9.66
500.596	9.64
500.947	9.75
501.298	9.75
501.648	9.78
501.999	9.78
502.35	9.85
502.7	10
503.051	9.96
503.401	9.8
503.752	10
504.102	9.98
504.452	10.02
504.803	10.22
505.153	10.11
505.503	10.16
505.853	10.15
506.203	10.13
506.553	9.99
506.903	10.01
507.253	10.14
507.603	10.22
507.953	10.33
508.303	10.31
508.652	10.27
509.002	10.31
509.352	10.3
509.701	10.27
510.051	10.43
510.4	10.25
510.75	10.22
511.099	10.33
511.449	10.17
511.798	10.27
512.147	10.24
512.496	10.44
512.846	10.39
513.195	10.4
513.544	10.45
513.893	10.42
514.242	10.48
514.591	10.51
514.939	10.57
515.288	10.72
515.637	10.74
515.986	10.71
516.334	10.67
516.683	10.82
517.032	10.85
517.38	10.99
517.729	10.89
518.077	10.95
518.426	10.89
518.774	10.8
519.122	10.86
519.47	10.8
519.819	10.66
520.167	10.56
520.515	10.64
520.863	10.76
521.211	10.87
521.559	10.85
521.907	10.94
522.255	10.89
522.602	11.04
522.95	11.1
523.298	11.11
523.645	11.14
523.993	11.29
524.341	11.18
524.688	11.31
525.036	11.32
525.383	11.18
525.73	11.29
526.078	11.23
526.425	11.22
526.772	11.23
527.119	11.05
527.466	11.01
527.814	11.03
528.161	11.16
528.508	11.22
528.854	11.16
529.201	11.13
529.548	10.99
529.895	10.84
530.242	10.73
530.588	10.71
530.935	10.82
531.282	10.99
531.628	11.07
531.975	11.18
532.321	11.36
532.667	11.41
533.014	11.61
533.36	11.59
533.706	11.54
534.052	11.54
534.399	11.48
534.745	11.29
535.091	11.23
535.437	11.27
535.783	11.41
536.129	11.59
536.474	11.63
536.82	11.77
537.166	11.87
537.512	11.9
537.857	11.73
538.203	11.69
538.549	11.65
538.894	11.71
539.239	11.91
539.585	11.99
539.93	12.08
540.276	12.22
540.621	12.41
540.966	12.22
541.311	12.33
541.656	12.21
542.001	12.1
542.346	12.09
542.691	11.88
543.036	11.69
543.381	11.65
543.726	11.82
544.071	11.91
544.415	12.03
544.76	12
545.105	12.17
545.449	12.31
545.794	12.39
546.138	12.4
546.483	12.5
546.827	12.61
547.171	12.49
547.516	12.42
547.86	12.57
548.204	12.62
548.548	12.49
548.892	12.43
549.236	12.68
549.58	12.81
549.924	12.95
550.268	12.88
550.612	13.09
550.956	13.14
551.3	13.15
551.643	13.33
551.987	13.29
552.33	13.17
552.674	13.15
553.017	13.32
553.361	13.33
553.704	13.31
554.048	13.34
554.391	13.12
554.734	13.29
555.077	13.3
555.42	13.3
555.764	13.41
556.107	13.54
556.45	13.55
556.793	13.6
557.135	13.49
557.478	13.67
557.821	13.79
558.164	13.81
558.507	13.72
558.849	13.7
559.192	13.6
559.534	13.9
559.877	13.56
560.219	13.72
560.562	13.88
560.904	13.89
561.246	13.83
561.589	14.08
561.931	14.06
562.273	14.14
562.615	13.99
562.957	13.97
563.299	14.16
563.641	13.98
563.983	14.04
564.325	13.97
564.667	14.15
565.008	14.19
565.35	14.13
565.692	14.03
566.033	14.4
566.375	14.22
566.716	14.33
567.058	14.11
567.399	14.14
567.741	14.06
568.082	14.19
568.423	14.05
568.764	14.11
569.105	14.29
569.447	14.47
569.788	14.3
570.129	14.48
570.47	14.63
570.811	14.48
571.151	14.5
571.492	14.49
571.833	14.52
572.174	14.7
572.514	14.59
572.855	14.68
573.195	14.69
573.536	14.37
573.876	14.61
574.217	14.5
574.557	14.62
574.898	14.65
575.238	14.74
575.578	14.8
575.918	14.78
576.258	14.82
576.598	14.68
576.938	14.8
577.278	14.81
577.618	14.88
577.958	14.81
578.298	14.96
578.638	14.92
578.977	14.97
579.317	15.15
579.657	15.16
579.996	15.06
580.336	15.37
580.675	15.16
581.014	15.29
581.354	15.24
581.693	15.2
582.032	15.51
582.372	15.27
582.711	15.62
583.05	15.69
583.389	15.64
583.728	15.72
584.067	15.61
584.406	15.9
584.745	15.88
585.083	15.65
585.422	15.75
585.761	15.71
586.1	15.76
586.438	15.93
586.777	15.56
587.115	15.83
587.454	15.8
587.792	15.79
588.13	15.87
588.469	15.94
588.807	15.61
589.145	15.83
589.483	15.99
589.821	16.01
590.159	15.86
590.497	15.8
590.835	16.22
591.173	16.3
591.511	16.1
591.849	16.01
592.187	16.01
592.524	16.13
592.862	16.13
593.2	16.06
593.537	16.21
593.875	16.44
594.212	16.34
594.55	16.16
594.887	16.4
595.224	16.27
595.561	16.52
595.899	16.46
596.236	16.53
596.573	16.24
596.91	16.39
597.247	16.43
597.584	16.53
597.921	16.45
598.258	16.12
598.594	16.11
598.931	16.17
599.268	16.27
599.604	16.37
599.941	16.56
600.277	16.44
600.614	16.84
600.95	16.85
601.287	16.64
601.623	17.1
601.959	17.07
602.296	16.66
602.632	16.98
602.968	16.8
603.304	16.72
603.64	16.94
603.976	16.96
604.312	17.04
604.648	16.88
604.984	16.75
605.319	16.89
605.655	16.77
605.991	16.67
606.326	16.77
606.662	16.71
606.998	16.89
607.333	16.97
607.668	17.24
608.004	17.13
608.339	16.89
608.674	17.28
609.01	17.17
609.345	17.48
609.68	17.11
610.015	17.55
610.35	17.19
610.685	17.41
611.02	17.21
611.355	17.28
611.689	17.21
612.024	17.31
612.359	17.26
612.694	17.24
613.028	17.46
613.363	17.49
613.697	17.69
614.032	17.82
614.366	17.55
614.7	17.6
615.035	17.65
615.369	17.64
615.703	18.02
616.037	18.19
616.371	18.12
616.705	17.7
617.039	17.9
617.373	17.74
617.707	18.15
618.041	18.12
618.375	18
618.709	17.71
619.042	18.07
619.376	17.88
619.71	17.99
620.043	18.24
620.377	18.01
620.71	18.37
621.043	18.06
621.377	18.28
621.71	18.13
622.043	18.02
622.376	18.46
622.709	18.46
623.043	18.28
623.376	18.16
623.709	18.28
624.041	18.9
624.374	18.25
624.707	18.58
625.04	18.57
625.373	18.49
625.705	18.8
626.038	19.03
626.37	18.86
626.703	18.35
627.035	18.59
627.368	18.97
627.7	18.71
628.032	18.46
628.365	18.3
628.697	18.41
629.029	18.64
629.361	18.5
629.693	18.56
630.025	18.63
630.357	19.05
630.689	18.9
631.021	18.84
631.353	18.77
631.684	19.07
632.016	18.9
632.348	19.24
632.679	18.84
633.011	18.79
633.342	18.8
633.674	19.67
634.005	19.03
634.336	18.86
634.668	18.96
634.999	18.97
635.33	19.01
635.661	18.88
635.992	18.93
636.323	19.17
636.654	19.49
636.985	19.33
637.316	19.1
637.647	18.96
637.977	19.3
638.308	19.4
638.639	19.44
638.969	19.41
639.3	19.49
639.63	19.3
639.961	19.85
640.291	19.49
640.622	19.38
640.952	19.68
641.282	19.76
641.612	19.54
641.943	19.29
642.273	19.39
642.603	20.1
642.933	19.66
643.263	19.82
643.592	19.67
643.922	19.29
644.252	19.91
644.582	19.56
644.911	20.06
645.241	20.36
645.571	20.21
645.9	20.15
646.23	19.77
646.559	19.69
646.888	19.89
647.218	19.82
647.547	20.38
647.876	20.49
648.205	20.22
648.534	20.23
648.863	19.81
649.192	20.36
649.521	20.1
649.85	20.28
650.179	19.97
650.508	20.36
650.837	20.35
651.165	20.32
651.494	20.52
651.822	20.14
652.151	20.31
652.479	20.27
652.808	20.75
653.136	20.03
653.465	20.71
653.793	20.62
654.121	20.42
654.449	20.69
654.777	20.53
655.105	20.63
655.433	20.48
655.761	21.09
656.089	20.67
656.417	20.78
656.745	20.75
657.073	20.99
657.4	20.85
657.728	20.96
658.056	20.44
658.383	20.88
658.711	20.92
659.038	20.58
659.365	21.27
659.693	20.51
660.02	20.83
660.347	20.72
660.674	20.84
661.001	20.81
661.329	20.56
661.656	20.74
661.982	20.69
662.309	20.84
662.636	20.91
662.963	21.42
663.29	21.23
663.616	21.38
663.943	21.14
664.27	20.84
664.596	21.43
664.923	20.95
665.249	21.36
665.576	20.94
665.902	21.29
666.228	21.39
666.554	21.52
666.881	22.09
667.207	21.34
667.533	22.03
667.859	21.37
668.185	21.36
668.511	21.64
668.837	21.54
669.162	21.73
669.488	21.5
669.814	21.48
670.139	21.68
670.465	21.73
670.791	21.54
671.116	21.33
671.442	21.51
671.767	21.88
672.092	21.66
672.418	21.57
672.743	21.75
673.068	22.03
673.393	21.27
673.718	22.18
674.043	21.47
674.368	21.27
674.693	22.55
675.018	21.95
675.343	21.99
675.667	21.52
675.992	21.97
676.317	21.74
676.641	21.68
676.966	21.65
677.29	22.25
677.615	22.07
677.939	22.18
678.264	22.12
678.588	21.66
678.912	20.86
679.236	22
679.56	22.67
679.885	22.57
680.209	21.72
680.532	22.09
