Data from 815644_chest_Reflection__2__26.txt Node

Date: Fri Sep 16 14:29:05 CDT 2022
User: ToomeyLab
Spectrometer: FLMS14357
Trigger mode: 0
Integration Time (sec): 1.000000E-2
Scans to average: 100
Electric dark correction enabled: true
Nonlinearity correction enabled: false
Boxcar width: 0
XAxis mode: Wavelengths
Number of Pixels in Spectrum: 2048
>>>>>Begin Spectral Data<<<<<
189.047	-172.87
189.435	-172.87
189.823	-172.87
190.211	-800.68
190.599	-100.05
190.987	95.17
191.375	300.21
191.763	105.63
192.151	-90.22
192.538	-13367.65
192.926	-224.35
193.314	469.02
193.702	130.6
194.089	105.68
194.477	-29.67
194.864	183.12
195.252	41.77
195.639	-540.05
196.027	13.09
196.414	55.78
196.801	9.43
197.189	9.85
197.576	259.89
197.963	-343.63
198.351	-79.23
198.738	35.26
199.125	55.02
199.512	18.8
199.899	22.34
200.286	-7.9
200.673	8.99
201.06	7.27
201.447	-12.88
201.833	-13.55
202.22	21.44
202.607	6.03
202.994	32.28
203.38	-13.99
203.767	9.69
204.154	37.02
204.54	9.73
204.927	-11.41
205.313	28.91
205.699	6.99
206.086	8.36
206.472	-8.39
206.858	49.72
207.245	13.72
207.631	5.46
208.017	13.87
208.403	13.46
208.789	-13.95
209.175	31.11
209.561	4.75
209.947	7.62
210.333	12.11
210.719	5.97
211.105	14.32
211.491	22.56
211.876	21.7
212.262	22.01
212.648	16.22
213.034	-9.93
213.419	-12.09
213.805	34.1
214.19	0.71
214.576	15.58
214.961	8.57
215.346	3.33
215.732	-33.34
216.117	30.06
216.502	8.5
216.888	-6.51
217.273	9.09
217.658	10.04
218.043	-25.67
218.428	12.28
218.813	6.45
219.198	19.54
219.583	-12.64
219.968	28.83
220.353	-0.68
220.738	20.65
221.122	-12.29
221.507	26.57
221.892	11.07
222.276	33.42
222.661	24.98
223.046	25.86
223.43	12.17
223.815	4.37
224.199	15.05
224.583	8.06
224.968	6.1
225.352	2.48
225.736	10.7
226.121	10.38
226.505	10.08
226.889	12.8
227.273	10.52
227.657	11.53
228.041	6.74
228.425	0.28
228.809	8.91
229.193	5.74
229.577	3.77
229.961	4.62
230.344	5.08
230.728	4.97
231.112	4.68
231.495	4.05
231.879	5.65
232.263	3.94
232.646	2.81
233.03	3.94
233.413	5.31
233.797	4.15
234.18	6.88
234.563	3.62
234.946	3.6
235.33	4.78
235.713	4.23
236.096	2.73
236.479	6.02
236.862	4.52
237.245	4.64
237.628	5.17
238.011	5.68
238.394	6.3
238.777	4.55
239.16	3.56
239.543	6.62
239.925	2.99
240.308	3.85
240.691	4.53
241.073	4.87
241.456	4.02
241.838	3.76
242.221	4.97
242.603	4.05
242.986	3.61
243.368	4.47
243.75	3.81
244.133	4.04
244.515	3.71
244.897	4.32
245.279	4.22
245.661	4.7
246.043	4.47
246.425	3.78
246.807	4.01
247.189	4.65
247.571	3.73
247.953	3.95
248.335	4.1
248.717	3.97
249.098	4.04
249.48	3.79
249.862	3.72
250.243	3.95
250.625	4.28
251.006	4.33
251.388	3.87
251.769	3.11
252.151	4.02
252.532	3.53
252.913	4.4
253.295	3.75
253.676	4.02
254.057	3.31
254.438	3.47
254.819	2.99
255.2	2.64
255.581	4.83
255.962	4.52
256.343	4.42
256.724	3.54
257.105	2.97
257.486	4.16
257.867	2.72
258.247	4.65
258.628	3.82
259.009	4.61
259.389	4.29
259.77	3.69
260.15	4.28
260.531	3.47
260.911	3.63
261.292	3.79
261.672	3.76
262.052	3.36
262.432	3.33
262.813	4.02
263.193	3.52
263.573	4.09
263.953	3.63
264.333	3.99
264.713	2.96
265.093	2.54
265.473	3.42
265.853	4.04
266.233	3.51
266.612	4.21
266.992	2.41
267.372	3.88
267.752	3.41
268.131	4.14
268.511	4.04
268.89	4.13
269.27	3.25
269.649	3.29
270.029	3.56
270.408	4.11
270.787	3.53
271.167	3.59
271.546	4.03
271.925	3.99
272.304	3.78
272.683	3.67
273.062	3.6
273.441	3.59
273.82	3.44
274.199	3.44
274.578	3.59
274.957	3.87
275.336	3.75
275.715	4.1
276.093	3.62
276.472	3.2
276.851	3.81
277.229	3.37
277.608	3.93
277.986	3.86
278.365	2.96
278.743	3.99
279.122	3.34
279.5	3.14
279.878	3.91
280.257	3.59
280.635	4.09
281.013	3.44
281.391	4.07
281.769	4.31
282.147	3.66
282.525	3.37
282.903	3.95
283.281	3.29
283.659	4.06
284.037	3.47
284.415	3.52
284.792	4.06
285.17	4.16
285.548	3.15
285.925	3.33
286.303	3.77
286.68	3.34
287.058	3.09
287.435	3.33
287.813	3.7
288.19	3.5
288.567	3.3
288.945	3.61
289.322	3.55
289.699	3.63
290.076	3.23
290.453	3.46
290.83	3.52
291.207	3.62
291.584	3.27
291.961	3.62
292.338	3.58
292.715	3.33
293.092	3.49
293.469	3.53
293.845	3.36
294.222	3.31
294.599	3.24
294.975	3.11
295.352	3.81
295.728	3.5
296.105	3.89
296.481	3.61
296.858	3.22
297.234	3.45
297.61	3.71
297.986	3.66
298.363	3.2
298.739	3.16
299.115	3.64
299.491	3.7
299.867	3.35
300.243	3.6
300.619	3.99
300.995	3.15
301.371	3.49
301.746	3.51
302.122	3.76
302.498	3.55
302.874	3.16
303.249	3.38
303.625	3.56
304	3.31
304.376	3.15
304.751	3.63
305.127	3.36
305.502	3.69
305.878	3.23
306.253	3.62
306.628	3.44
307.003	3.84
307.378	3.65
307.754	3.86
308.129	4.37
308.504	3.73
308.879	3.3
309.254	3.39
309.629	3.25
310.003	3.32
310.378	2.6
310.753	3.34
311.128	3.6
311.502	3.38
311.877	3.29
312.252	3.79
312.626	3.52
313.001	3.47
313.375	3.42
313.75	3.58
314.124	3.26
314.498	3.09
314.873	4.04
315.247	3.59
315.621	3.62
315.995	3.47
316.369	3.66
316.743	3.62
317.117	3.37
317.491	3.26
317.865	3.96
318.239	3.59
318.613	3.33
318.987	3.36
319.361	3.54
319.734	3.94
320.108	3.38
320.482	3.64
320.855	3.5
321.229	3.46
321.602	3.31
321.976	3.55
322.349	3.25
322.723	3.15
323.096	3.82
323.469	3.46
323.843	3.42
324.216	3.86
324.589	3.88
324.962	3.43
325.335	3.84
325.708	3.49
326.081	4.12
326.454	4
326.827	3.24
327.2	3.43
327.573	2.99
327.945	3.77
328.318	3.12
328.691	3.52
329.063	3.32
329.436	3.46
329.809	3.15
330.181	3.4
330.553	3.36
330.926	3.24
331.298	3.59
331.671	3.34
332.043	3.12
332.415	3.39
332.787	3.34
333.159	3.18
333.532	3.77
333.904	3.46
334.276	3.08
334.648	3.02
335.02	3.65
335.391	3.92
335.763	3.48
336.135	3.32
336.507	3.49
336.879	3.54
337.25	3.13
337.622	3.64
337.993	3.54
338.365	3.51
338.736	3.44
339.108	3.63
339.479	4.02
339.851	3.67
340.222	3.64
340.593	3.59
340.964	3.73
341.336	3.72
341.707	3.38
342.078	3.57
342.449	3.8
342.82	3.72
343.191	3.24
343.562	3.64
343.933	3.55
344.303	4.1
344.674	3.25
345.045	3.78
345.416	3.26
345.786	3.71
346.157	3.56
346.527	3.61
346.898	3.25
347.268	3.81
347.639	3.46
348.009	3.29
348.38	3.32
348.75	3.19
349.12	3.71
349.49	3.88
349.861	3.78
350.231	3.29
350.601	3.36
350.971	3.72
351.341	4.13
351.711	3.64
352.081	3.43
352.45	3.98
352.82	3.9
353.19	3.27
353.56	3.72
353.929	3.54
354.299	3.31
354.669	3.43
355.038	3.5
355.408	3.78
355.777	3.17
356.147	3.53
356.516	3.56
356.885	3.15
357.254	3.39
357.624	3.41
357.993	3.41
358.362	3.35
358.731	3.93
359.1	3.43
359.469	3.5
359.838	3.39
360.207	3.84
360.576	3.73
360.945	3.79
361.314	3.25
361.682	3.04
362.051	3.84
362.42	3.9
362.788	3.83
363.157	3.72
363.525	3.54
363.894	3.62
364.262	3.33
364.631	3.69
364.999	3.76
365.367	3.55
365.735	3.72
366.104	3.82
366.472	3.53
366.84	3.72
367.208	4.01
367.576	3.47
367.944	3.61
368.312	3.43
368.68	3.58
369.048	3.76
369.416	3.55
369.783	3.39
370.151	3.64
370.519	3.43
370.886	3.8
371.254	3.6
371.621	3.7
371.989	3.53
372.356	3.62
372.724	3.84
373.091	3.51
373.458	3.42
373.826	3.5
374.193	3.96
374.56	3.51
374.927	3.48
375.294	4.03
375.661	3.73
376.028	3.94
376.395	3.37
376.762	3.94
377.129	3.57
377.496	3.76
377.863	3.54
378.229	3.78
378.596	3.31
378.963	3.78
379.329	3.67
379.696	3.91
380.062	3.43
380.429	3.86
380.795	3.9
381.161	4.11
381.528	3.92
381.894	3.85
382.26	3.42
382.626	3.62
382.993	3.49
383.359	3.72
383.725	3.73
384.091	3.63
384.457	3.54
384.823	3.59
385.188	3.62
385.554	3.56
385.92	3.85
386.286	3.86
386.651	3.69
387.017	3.74
387.383	3.26
387.748	3.51
388.114	3.48
388.479	3.72
388.845	3.78
389.21	4.1
389.575	3.63
389.94	3.81
390.306	3.71
390.671	3.95
391.036	3.62
391.401	3.81
391.766	3.58
392.131	3.86
392.496	3.73
392.861	3.68
393.226	3.77
393.591	3.67
393.956	3.73
394.32	3.78
394.685	3.59
395.05	3.88
395.414	3.55
395.779	3.72
396.143	3.91
396.508	3.71
396.872	3.81
397.236	3.61
397.601	3.78
397.965	3.62
398.329	3.61
398.694	3.68
399.058	3.96
399.422	3.81
399.786	3.87
400.15	4.1
400.514	3.56
400.878	3.88
401.242	3.69
401.605	3.72
401.969	3.77
402.333	3.75
402.697	3.73
403.06	4.27
403.424	3.77
403.787	3.8
404.151	3.96
404.514	3.68
404.878	3.78
405.241	3.78
405.604	3.89
405.968	3.92
406.331	3.75
406.694	3.72
407.057	3.68
407.42	3.61
407.783	3.83
408.146	3.95
408.509	3.85
408.872	3.85
409.235	4.2
409.598	3.56
409.961	3.58
410.323	4.13
410.686	3.89
411.049	3.63
411.411	3.83
411.774	3.89
412.136	3.84
412.499	3.77
412.861	3.85
413.223	3.91
413.586	4.01
413.948	3.82
414.31	4.06
414.672	3.68
415.035	3.99
415.397	3.72
415.759	3.99
416.121	4.05
416.483	4.01
416.845	4.01
417.206	4.12
417.568	3.84
417.93	4.11
418.292	3.84
418.653	3.75
419.015	3.75
419.377	3.84
419.738	3.81
420.1	3.89
420.461	3.86
420.822	3.78
421.184	3.82
421.545	3.78
421.906	3.74
422.267	3.92
422.629	3.73
422.99	3.78
423.351	3.79
423.712	3.7
424.073	3.88
424.434	3.84
424.795	3.81
425.155	3.83
425.516	3.88
425.877	3.75
426.238	3.83
426.598	3.75
426.959	3.98
427.32	3.8
427.68	3.92
428.041	3.84
428.401	3.91
428.761	4.07
429.122	3.99
429.482	4
429.842	3.98
430.202	3.9
430.563	3.91
430.923	3.85
431.283	4.1
431.643	4.16
432.003	4.09
432.363	3.97
432.722	4.08
433.082	3.93
433.442	4.06
433.802	3.9
434.161	4.02
434.521	3.96
434.881	3.93
435.24	3.93
435.6	3.98
435.959	4.04
436.319	3.99
436.678	3.99
437.037	3.89
437.396	4
437.756	4.09
438.115	3.98
438.474	3.96
438.833	3.92
439.192	3.98
439.551	4.01
439.91	4.06
440.269	4.07
440.628	3.93
440.987	3.84
441.345	4.01
441.704	4.03
442.063	4.05
442.421	3.92
442.78	4
443.138	3.93
443.497	3.98
443.855	3.96
444.214	3.92
444.572	4.03
444.93	4.08
445.288	3.92
445.647	3.97
446.005	3.93
446.363	4
446.721	3.94
447.079	3.86
447.437	3.97
447.795	3.99
448.153	3.98
448.51	3.9
448.868	3.99
449.226	3.99
449.584	4.01
449.941	4.03
450.299	4
450.656	4.03
451.014	4.09
451.371	4.03
451.729	3.99
452.086	4.09
452.443	4
452.801	4.15
453.158	4.11
453.515	3.98
453.872	4.02
454.229	4.06
454.586	3.99
454.943	3.93
455.3	4.2
455.657	3.96
456.014	4.19
456.371	4.08
456.727	4.14
457.084	4.26
457.441	4.12
457.797	4.17
458.154	4.17
458.51	4.18
458.867	4.08
459.223	4.2
459.58	4.16
459.936	4.2
460.292	4.17
460.648	4.02
461.005	4.09
461.361	3.92
461.717	3.99
462.073	4.11
462.429	4.08
462.785	4.2
463.141	4.09
463.496	4.16
463.852	4.21
464.208	4.17
464.564	4.16
464.919	4.19
465.275	4.25
465.631	4.2
465.986	4.24
466.342	4.3
466.697	4.18
467.052	4.29
467.408	4.23
467.763	4.29
468.118	4.16
468.473	4.28
468.829	4.16
469.184	4.14
469.539	4.23
469.894	4.22
470.249	4.21
470.603	4.16
470.958	4.16
471.313	4.34
471.668	4.19
472.023	4.15
472.377	4.41
472.732	4.33
473.086	4.09
473.441	4.15
473.795	4.31
474.15	4.11
474.504	4.34
474.859	4.23
475.213	4.28
475.567	4.04
475.921	4.33
476.275	4.28
476.63	4.36
476.984	4.37
477.338	4.3
477.692	4.18
478.045	4.26
478.399	4.35
478.753	4.24
479.107	4.15
479.461	4.18
479.814	4.28
480.168	4.28
480.521	4.2
480.875	4.24
481.228	4.24
481.582	4.3
481.935	4.28
482.289	4.35
482.642	4.29
482.995	4.32
483.348	4.28
483.701	4.3
484.055	4.22
484.408	4.24
484.761	4.13
485.114	4.02
485.466	3.99
485.819	4.03
486.172	3.99
486.525	4.07
486.878	4.1
487.23	4.14
487.583	4.15
487.936	4.18
488.288	4.19
488.641	4.15
488.993	4.18
489.345	4.04
489.698	4.1
490.05	4.14
490.402	4.08
490.754	4.21
491.107	4.2
491.459	4.22
491.811	4.21
492.163	4.34
492.515	4.22
492.866	4.18
493.218	4.15
493.57	4.11
493.922	4.16
494.274	4.2
494.625	4.23
494.977	4.29
495.328	4.34
495.68	4.3
496.031	4.3
496.383	4.42
496.734	4.42
497.086	4.38
497.437	4.36
497.788	4.36
498.139	4.45
498.49	4.32
498.842	4.46
499.193	4.36
499.544	4.41
499.894	4.32
500.245	4.37
500.596	4.34
500.947	4.5
501.298	4.33
501.648	4.46
501.999	4.49
502.35	4.47
502.7	4.47
503.051	4.5
503.401	4.4
503.752	4.54
504.102	4.57
504.452	4.47
504.803	4.59
505.153	4.43
505.503	4.51
505.853	4.48
506.203	4.47
506.553	4.48
506.903	4.48
507.253	4.46
507.603	4.54
507.953	4.58
508.303	4.64
508.652	4.46
509.002	4.54
509.352	4.59
509.701	4.55
510.051	4.57
510.4	4.44
510.75	4.44
511.099	4.48
511.449	4.48
511.798	4.57
512.147	4.44
512.496	4.59
512.846	4.55
513.195	4.62
513.544	4.55
513.893	4.65
514.242	4.58
514.591	4.53
514.939	4.64
515.288	4.71
515.637	4.64
515.986	4.58
516.334	4.56
516.683	4.64
517.032	4.75
517.38	4.84
517.729	4.75
518.077	4.59
518.426	4.75
518.774	4.6
519.122	4.66
519.47	4.63
519.819	4.6
520.167	4.58
520.515	4.57
520.863	4.65
521.211	4.66
521.559	4.66
521.907	4.65
522.255	4.67
522.602	4.74
522.95	4.7
523.298	4.73
523.645	4.8
523.993	4.83
524.341	4.83
524.688	4.82
525.036	4.79
525.383	4.82
525.73	4.79
526.078	4.69
526.425	4.67
526.772	4.68
527.119	4.71
527.466	4.73
527.814	4.73
528.161	4.7
528.508	4.8
528.854	4.79
529.201	4.76
529.548	4.77
529.895	4.6
530.242	4.62
530.588	4.61
530.935	4.64
531.282	4.68
531.628	4.71
531.975	4.69
532.321	4.76
532.667	4.78
533.014	4.9
533.36	4.85
533.706	4.88
534.052	4.85
534.399	4.89
534.745	4.8
535.091	4.72
535.437	4.79
535.783	4.8
536.129	4.89
536.474	4.91
536.82	4.88
537.166	4.97
537.512	4.96
537.857	4.93
538.203	4.91
538.549	4.92
538.894	4.87
539.239	4.99
539.585	4.93
539.93	4.88
540.276	5.09
540.621	5.21
540.966	5.13
541.311	5.12
541.656	5.14
542.001	5.06
542.346	5.06
542.691	4.97
543.036	4.94
543.381	4.92
543.726	4.92
544.071	5.01
544.415	4.95
544.76	5.03
545.105	5.12
545.449	5.05
545.794	5.12
546.138	5.09
546.483	5.23
546.827	5.29
547.171	5.28
547.516	5.09
547.86	5.24
548.204	5.26
548.548	5.28
548.892	5.13
549.236	5.23
549.58	5.28
549.924	5.35
550.268	5.41
550.612	5.48
550.956	5.34
551.3	5.51
551.643	5.48
551.987	5.45
552.33	5.48
552.674	5.39
553.017	5.52
553.361	5.48
553.704	5.42
554.048	5.49
554.391	5.59
554.734	5.4
555.077	5.56
555.42	5.58
555.764	5.68
556.107	5.64
556.45	5.42
556.793	5.74
557.135	5.6
557.478	5.63
557.821	5.55
558.164	5.94
558.507	5.62
558.849	5.53
559.192	5.77
559.534	5.85
559.877	5.5
560.219	5.73
560.562	5.9
560.904	5.58
561.246	5.79
561.589	5.79
561.931	5.82
562.273	5.86
562.615	5.88
562.957	5.85
563.299	5.89
563.641	5.96
563.983	6.05
564.325	5.85
564.667	5.67
565.008	5.93
565.35	6.01
565.692	5.92
566.033	5.99
566.375	5.83
566.716	5.94
567.058	5.95
567.399	6.1
567.741	5.86
568.082	6.11
568.423	5.79
568.764	6.02
569.105	6.12
569.447	6.18
569.788	6.13
570.129	6.27
570.47	6.29
570.811	6.26
571.151	6.2
571.492	6.26
571.833	6.17
572.174	6.17
572.514	6.24
572.855	6.28
573.195	6.13
573.536	6.24
573.876	6.28
574.217	6.22
574.557	6.24
574.898	6.34
575.238	6.4
575.578	6.25
575.918	6.45
576.258	6.43
576.598	6.31
576.938	6.31
577.278	6.35
577.618	6.34
577.958	6.51
578.298	6.52
578.638	6.4
578.977	6.39
579.317	6.55
579.657	6.47
579.996	6.56
580.336	6.77
580.675	6.62
581.014	6.74
581.354	6.56
581.693	6.5
582.032	6.72
582.372	6.68
582.711	6.95
583.05	6.64
583.389	6.76
583.728	6.69
584.067	6.97
584.406	6.92
584.745	7.1
585.083	6.83
585.422	7.19
585.761	7.1
586.1	6.87
586.438	7.05
586.777	6.7
587.115	7.12
587.454	7.11
587.792	6.95
588.13	7.21
588.469	6.84
588.807	7.03
589.145	7
589.483	7.14
589.821	7.33
590.159	7.14
590.497	7.04
590.835	7.19
591.173	7.27
591.511	7.24
591.849	7.3
592.187	7.06
592.524	7.15
592.862	7.44
593.2	7.11
593.537	7.35
593.875	7.32
594.212	7.37
594.55	7.27
594.887	7.4
595.224	7.34
595.561	7.34
595.899	7.49
596.236	7.58
596.573	7.37
596.91	7.53
597.247	7.54
597.584	7.53
597.921	7.57
598.258	7.45
598.594	7.2
598.931	7.36
599.268	7.65
599.604	7.47
599.941	7.55
600.277	7.56
600.614	7.86
600.95	7.8
601.287	7.65
601.623	7.84
601.959	7.72
602.296	7.52
602.632	7.91
602.968	7.86
603.304	7.81
603.64	7.83
603.976	8.03
604.312	7.96
604.648	7.98
604.984	7.76
605.319	8.03
605.655	8.25
605.991	8.08
606.326	8.02
606.662	8.01
606.998	7.91
607.333	7.85
607.668	8.15
608.004	7.91
608.339	8.2
608.674	8.01
609.01	8.37
609.345	8.42
609.68	8.32
610.015	8.38
610.35	8.4
610.685	8.41
611.02	8.33
611.355	8.37
611.689	8.21
612.024	8.27
612.359	8.33
612.694	8.38
613.028	8.38
613.363	8.53
613.697	8.55
614.032	8.5
614.366	8.35
614.7	8.67
615.035	8.62
615.369	8.49
615.703	8.62
616.037	8.72
616.371	8.84
616.705	8.71
617.039	8.95
617.373	8.65
617.707	8.71
618.041	8.88
618.375	8.8
618.709	8.54
619.042	8.87
619.376	8.96
619.71	9.05
620.043	8.76
620.377	8.89
620.71	9.22
621.043	9.12
621.377	9.49
621.71	8.82
622.043	8.7
622.376	9.08
622.709	9.19
623.043	9.34
623.376	9.06
623.709	8.84
624.041	9.46
624.374	9.3
624.707	9.18
625.04	9.19
625.373	9.2
625.705	9.51
626.038	9.68
626.37	9.63
626.703	9.17
627.035	9.38
627.368	9.94
627.7	9.75
628.032	9.46
628.365	9.46
628.697	9.56
629.029	9.71
629.361	9.33
629.693	9.83
630.025	9.64
630.357	9.76
630.689	9.74
631.021	9.64
631.353	9.76
631.684	9.39
632.016	9.85
632.348	9.91
632.679	9.83
633.011	9.63
633.342	9.82
633.674	10.09
634.005	10.13
634.336	10.06
634.668	9.9
634.999	9.61
635.33	9.98
635.661	9.87
635.992	9.72
636.323	9.97
636.654	10.06
636.985	10.15
637.316	10.48
637.647	10.2
637.977	9.94
638.308	10.23
638.639	10.41
638.969	10.35
639.3	10.42
639.63	10.11
639.961	10.75
640.291	10.13
640.622	10.34
640.952	10.57
641.282	10.59
641.612	10.44
641.943	10.63
642.273	10.66
642.603	10.78
642.933	10.71
643.263	10.6
643.592	10.66
643.922	10.42
644.252	10.74
644.582	10.49
644.911	10.57
645.241	10.69
645.571	11.11
645.9	11.12
646.23	10.51
646.559	10.77
646.888	10.58
647.218	11.07
647.547	10.84
647.876	11.22
648.205	10.91
648.534	10.78
648.863	10.84
649.192	10.83
649.521	11.06
649.85	11.47
650.179	10.97
650.508	11.39
650.837	11.19
651.165	10.98
651.494	11.36
651.822	11.12
652.151	11.37
652.479	11.21
652.808	11.39
653.136	11.34
653.465	11.3
653.793	11.25
654.121	11.5
654.449	11.55
654.777	11.46
655.105	11.15
655.433	11.59
655.761	12
656.089	11.72
656.417	11.6
656.745	11.51
657.073	11.84
657.4	11.7
657.728	12.14
658.056	11.49
658.383	11.73
658.711	11.6
659.038	11.78
659.365	11.83
659.693	11.44
660.02	12.11
660.347	12.01
660.674	11.69
661.001	11.92
661.329	11.67
661.656	11.68
661.982	12.01
662.309	11.77
662.636	11.62
662.963	12.33
663.29	11.94
663.616	12.09
663.943	11.85
664.27	12.16
664.596	12.25
664.923	11.99
665.249	12.2
665.576	12.25
665.902	12.69
666.228	12
666.554	13.06
666.881	12.33
667.207	12.27
667.533	12.33
667.859	12.88
668.185	12.74
668.511	12.53
668.837	12.59
669.162	12.68
669.488	12.92
669.814	12.55
670.139	12.49
670.465	13.16
670.791	12.8
671.116	12.78
671.442	13.15
671.767	12.76
672.092	12.71
672.418	12.89
672.743	12.88
673.068	13.37
673.393	12.43
673.718	13.41
674.043	12.92
674.368	13.13
674.693	13.46
675.018	12.83
675.343	13.51
675.667	12.86
675.992	13.38
676.317	13.11
676.641	12.63
676.966	13.07
677.29	12.7
677.615	12.83
677.939	13.07
678.264	13.5
678.588	12.87
678.912	13.67
679.236	13.49
679.56	13.61
679.885	13.33
680.209	13.03
680.532	13.42
680.856	13.44
681.18	13.68
681.504	13.13
681.828	13.29
682.152	13.7
682.475	13.58
682.799	13.73
683.122	13.33
683.446	13.87
683.769	13.65
684.093	13.9
684.416	13.77
684.739	13.04
685.062	13.69
685.386	13.91
685.709	13.62
686.032	14.24
686.355	13.78
686.678	14.17
687.001	13.57
687.324	14.01
687.646	14.59
687.969	14.19
688.292	14.06
688.614	13.9
