Data from 815644_forehead_Reflection__4__33.txt Node

Date: Fri Sep 16 14:33:14 CDT 2022
User: ToomeyLab
Spectrometer: FLMS14357
Trigger mode: 0
Integration Time (sec): 1.000000E-2
Scans to average: 100
Electric dark correction enabled: true
Nonlinearity correction enabled: false
Boxcar width: 0
XAxis mode: Wavelengths
Number of Pixels in Spectrum: 2048
>>>>>Begin Spectral Data<<<<<
189.047	378.33
189.435	378.33
189.823	378.33
190.211	102.05
190.599	173.91
190.987	73.84
191.375	220.27
191.763	114.15
192.151	166.87
192.538	-4361.76
192.926	-31.5
193.314	-227.85
193.702	76.22
194.089	55.89
194.477	27.91
194.864	69.47
195.252	55.83
195.639	65.71
196.027	76.83
196.414	24.45
196.801	25.76
197.189	109.73
197.576	92.97
197.963	-602.08
198.351	-46.49
198.738	35.85
199.125	48.08
199.512	-35.78
199.899	29.55
200.286	2.55
200.673	-7.56
201.06	25.38
201.447	35.75
201.833	52.33
202.22	-16.36
202.607	-30.16
202.994	18.27
203.38	-30.6
203.767	42.46
204.154	42.61
204.54	36.22
204.927	-1.14
205.313	28.34
205.699	35.16
206.086	22.98
206.472	25.38
206.858	20.89
207.245	5.37
207.631	2.37
208.017	51.73
208.403	-3.95
208.789	-3.71
209.175	23.49
209.561	-15
209.947	-3.51
210.333	25.66
210.719	16.21
211.105	-8.17
211.491	20.4
211.876	23.44
212.262	13.54
212.648	18.79
213.034	51.89
213.419	8.34
213.805	28.17
214.19	44.33
214.576	12.82
214.961	9.65
215.346	-14.52
215.732	-16.75
216.117	15.97
216.502	5.93
216.888	-17.95
217.273	-13.58
217.658	1.79
218.043	-53.01
218.428	10.78
218.813	8.93
219.198	7.88
219.583	2.28
219.968	11.94
220.353	12.69
220.738	21.75
221.122	-12.4
221.507	14.36
221.892	11.62
222.276	19.52
222.661	24.2
223.046	12.9
223.43	5.8
223.815	-6.51
224.199	5.48
224.583	3.54
224.968	6.63
225.352	13.43
225.736	12.81
226.121	5.32
226.505	11.44
226.889	15.06
227.273	4.81
227.657	2.47
228.041	4.08
228.425	1.06
228.809	10.31
229.193	3.62
229.577	5.16
229.961	3.67
230.344	5.14
230.728	4.96
231.112	4.42
231.495	4.18
231.879	5.24
232.263	3.77
232.646	4.47
233.03	6.23
233.413	7.19
233.797	5.46
234.18	7.09
234.563	5.81
234.946	5.66
235.33	6.72
235.713	3
236.096	4.66
236.479	4.49
236.862	5.11
237.245	4.71
237.628	7.24
238.011	6.29
238.394	7.1
238.777	5.62
239.16	5.5
239.543	5.02
239.925	5.83
240.308	4.13
240.691	7.53
241.073	4.79
241.456	3.85
241.838	3.8
242.221	5.21
242.603	4.45
242.986	4.58
243.368	4.74
243.75	4.12
244.133	4.52
244.515	4.87
244.897	4.8
245.279	4.54
245.661	4.66
246.043	5.33
246.425	3.53
246.807	5.43
247.189	4.49
247.571	4.61
247.953	4.33
248.335	4.24
248.717	4.27
249.098	4.25
249.48	4.28
249.862	4.45
250.243	4.93
250.625	4.64
251.006	5.23
251.388	5.23
251.769	2.84
252.151	4.88
252.532	3.9
252.913	5.22
253.295	4.29
253.676	4.6
254.057	4.03
254.438	4.16
254.819	3.52
255.2	4
255.581	4.65
255.962	4.16
256.343	5.74
256.724	3.99
257.105	3.47
257.486	4.8
257.867	3.67
258.247	5.24
258.628	4.85
259.009	4.65
259.389	4.08
259.77	3.17
260.15	4.42
260.531	3.85
260.911	3.98
261.292	3.72
261.672	4.1
262.052	3.99
262.432	3.88
262.813	4.69
263.193	4.28
263.573	3.89
263.953	3.86
264.333	4.09
264.713	3.36
265.093	3.85
265.473	4.26
265.853	4.75
266.233	3.81
266.612	4.68
266.992	3.3
267.372	4.23
267.752	3.73
268.131	4.52
268.511	4.26
268.89	4.54
269.27	3.56
269.649	4.09
270.029	4.02
270.408	4.88
270.787	4.41
271.167	4.11
271.546	4.62
271.925	3.97
272.304	3.7
272.683	3.79
273.062	4.06
273.441	4.28
273.82	3.93
274.199	4.2
274.578	4.29
274.957	4.43
275.336	4.37
275.715	4.85
276.093	4.49
276.472	3.64
276.851	3.61
277.229	3.77
277.608	4.27
277.986	4.38
278.365	3.66
278.743	4.24
279.122	4.1
279.5	4.29
279.878	4.32
280.257	4.57
280.635	4.89
281.013	3.93
281.391	4.05
281.769	4.81
282.147	4.4
282.525	4.05
282.903	4.19
283.281	4
283.659	4.33
284.037	4.05
284.415	4.28
284.792	4.66
285.17	4.48
285.548	3.79
285.925	3.99
286.303	4.1
286.68	4.2
287.058	4.07
287.435	3.98
287.813	4.31
288.19	3.72
288.567	3.54
288.945	4.1
289.322	4.69
289.699	3.82
290.076	3.87
290.453	4.02
290.83	4.04
291.207	3.8
291.584	3.23
291.961	4.1
292.338	4.19
292.715	3.78
293.092	4.23
293.469	4.17
293.845	4.38
294.222	4.01
294.599	3.99
294.975	3.9
295.352	4.28
295.728	3.88
296.105	4.62
296.481	4.42
296.858	4.09
297.234	3.69
297.61	4.13
297.986	4.24
298.363	4.1
298.739	4.13
299.115	4.42
299.491	4.45
299.867	4.2
300.243	4.5
300.619	4.37
300.995	4.04
301.371	4.81
301.746	3.86
302.122	4.5
302.498	4.32
302.874	4.51
303.249	4.84
303.625	4.51
304	3.87
304.376	4.25
304.751	4.64
305.127	4.53
305.502	4.43
305.878	4.26
306.253	4.65
306.628	4.17
307.003	4.45
307.378	4.88
307.754	5.11
308.129	4.87
308.504	4.76
308.879	5.07
309.254	5.1
309.629	4.22
310.003	5.03
310.378	4.27
310.753	4.28
311.128	4.8
311.502	4.21
311.877	4.84
312.252	4.85
312.626	4.54
313.001	4.69
313.375	4.76
313.75	4.85
314.124	4.22
314.498	4.97
314.873	5.09
315.247	4.44
315.621	4.92
315.995	4.92
316.369	5.27
316.743	5.17
317.117	4.96
317.491	4.89
317.865	5.32
318.239	5.09
318.613	4.78
318.987	4.95
319.361	4.19
319.734	4.8
320.108	4.92
320.482	5.69
320.855	4.93
321.229	4.68
321.602	5.6
321.976	5.29
322.349	5.18
322.723	4.77
323.096	5.38
323.469	4.72
323.843	5.52
324.216	5.27
324.589	5.21
324.962	5.05
325.335	5.84
325.708	5.52
326.081	5.5
326.454	5.25
326.827	5.24
327.2	4.85
327.573	5.33
327.945	5.69
328.318	5.05
328.691	5.1
329.063	5.47
329.436	5.36
329.809	5.22
330.181	5.52
330.553	5.56
330.926	5.54
331.298	5.66
331.671	5.42
332.043	5.34
332.415	5.66
332.787	5.75
333.159	5
333.532	6.1
333.904	5.61
334.276	5.67
334.648	5.56
335.02	5.82
335.391	6.25
335.763	5.95
336.135	5.45
336.507	5.95
336.879	6.07
337.25	5.54
337.622	6.05
337.993	6.42
338.365	6.01
338.736	6.7
339.108	5.77
339.479	6.3
339.851	6.61
340.222	5.93
340.593	6.34
340.964	6.37
341.336	6.21
341.707	5.99
342.078	6.51
342.449	6.46
342.82	6.22
343.191	6.56
343.562	6.31
343.933	6.1
344.303	6.61
344.674	5.87
345.045	6.61
345.416	5.99
345.786	6.93
346.157	6.36
346.527	6.22
346.898	6.48
347.268	6.45
347.639	6.15
348.009	6.34
348.38	6.58
348.75	6.14
349.12	6.32
349.49	6.81
349.861	6.95
350.231	6.46
350.601	6.89
350.971	6.64
351.341	6.84
351.711	6.95
352.081	6.49
352.45	7.24
352.82	7.31
353.19	6.86
353.56	7.13
353.929	6.92
354.299	6.65
354.669	6.82
355.038	6.79
355.408	7.11
355.777	6.79
356.147	7.06
356.516	7.17
356.885	7.06
357.254	7.08
357.624	6.99
357.993	7.03
358.362	7.08
358.731	7.31
359.1	7.05
359.469	7.29
359.838	7.03
360.207	7.41
360.576	7.22
360.945	7.22
361.314	7.44
361.682	7
362.051	7.45
362.42	7.68
362.788	7.42
363.157	7.67
363.525	7.26
363.894	7.58
364.262	7.59
364.631	7.8
364.999	7.75
365.367	7.53
365.735	7.9
366.104	7.78
366.472	8.14
366.84	8.08
367.208	8.18
367.576	7.8
367.944	8.07
368.312	7.57
368.68	8.2
369.048	8.24
369.416	8.02
369.783	8.07
370.151	8.02
370.519	8.29
370.886	8.33
371.254	7.95
371.621	8.16
371.989	8.13
372.356	8.43
372.724	8.33
373.091	8.21
373.458	8.6
373.826	8.51
374.193	8.76
374.56	8.35
374.927	8.41
375.294	8.7
375.661	8.74
376.028	9.3
376.395	8.43
376.762	9.15
377.129	8.61
377.496	9.01
377.863	8.74
378.229	8.98
378.596	8.69
378.963	9.05
379.329	8.9
379.696	9.19
380.062	9.06
380.429	9.09
380.795	9.22
381.161	9.12
381.528	9.47
381.894	9.22
382.26	9.32
382.626	9.49
382.993	8.98
383.359	9.45
383.725	9.34
384.091	9.51
384.457	9.24
384.823	9.44
385.188	9.7
385.554	9.45
385.92	9.52
386.286	9.42
386.651	9.94
387.017	9.55
387.383	9.37
387.748	9.56
388.114	9.61
388.479	9.71
388.845	9.73
389.21	10.18
389.575	9.96
389.94	10.09
390.306	9.99
390.671	10.04
391.036	10.02
391.401	10.22
391.766	10.11
392.131	10.28
392.496	10.02
392.861	10.12
393.226	10.23
393.591	10.33
393.956	10.46
394.32	10.62
394.685	10.25
395.05	10.69
395.414	10.24
395.779	10.58
396.143	10.68
396.508	10.36
396.872	10.37
397.236	10.59
397.601	10.61
397.965	10.63
398.329	10.58
398.694	10.89
399.058	10.84
399.422	10.8
399.786	10.89
400.15	10.99
400.514	10.94
400.878	10.96
401.242	10.99
401.605	10.91
401.969	10.96
402.333	11.08
402.697	11.17
403.06	11.42
403.424	11.29
403.787	11.24
404.151	11.3
404.514	11.23
404.878	11.23
405.241	11.19
405.604	11.33
405.968	11.38
406.331	11.23
406.694	11.42
407.057	11.48
407.42	11.34
407.783	11.5
408.146	11.7
408.509	11.62
408.872	11.81
409.235	11.69
409.598	11.6
409.961	11.88
410.323	12
410.686	12.07
411.049	11.9
411.411	11.85
411.774	11.93
412.136	12
412.499	11.87
412.861	12.13
413.223	12.09
413.586	12.03
413.948	12.35
414.31	12.26
414.672	12.25
415.035	12.35
415.397	12.41
415.759	12.39
416.121	12.64
416.483	12.65
416.845	12.51
417.206	12.42
417.568	12.49
417.93	12.54
418.292	12.41
418.653	12.37
419.015	12.63
419.377	12.53
419.738	12.47
420.1	12.48
420.461	12.72
420.822	12.5
421.184	12.6
421.545	12.68
421.906	12.71
422.267	12.73
422.629	12.71
422.99	12.61
423.351	12.76
423.712	12.86
424.073	13.01
424.434	13.06
424.795	13.12
425.155	12.98
425.516	13.12
425.877	13.18
426.238	13.08
426.598	13.17
426.959	13.33
427.32	13.37
427.68	13.59
428.041	13.59
428.401	13.59
428.761	13.93
429.122	13.92
429.482	13.83
429.842	14.09
430.202	14
430.563	14.2
430.923	14.18
431.283	14.42
431.643	14.43
432.003	14.4
432.363	14.44
432.722	14.51
433.082	14.56
433.442	14.62
433.802	14.45
434.161	14.6
434.521	14.68
434.881	14.45
435.24	14.58
435.6	14.65
435.959	14.71
436.319	14.73
436.678	14.99
437.037	14.86
437.396	14.94
437.756	15.22
438.115	15.11
438.474	15.06
438.833	15.18
439.192	15.11
439.551	15.3
439.91	15.11
440.269	15.42
440.628	15.21
440.987	15.22
441.345	15.33
441.704	15.26
442.063	15.4
442.421	15.6
442.78	15.36
443.138	15.41
443.497	15.59
443.855	15.63
444.214	15.5
444.572	15.88
444.93	15.93
445.288	15.94
445.647	15.94
446.005	15.9
446.363	16.03
446.721	16.06
447.079	15.98
447.437	15.92
447.795	15.93
448.153	15.98
448.51	16
448.868	16.01
449.226	16.19
449.584	16.29
449.941	16.24
450.299	16.38
450.656	16.57
451.014	16.58
451.371	16.71
451.729	16.6
452.086	16.79
452.443	16.93
452.801	17.14
453.158	17.33
453.515	17.15
453.872	17.01
454.229	17.05
454.586	17.24
454.943	17.1
455.3	17.35
455.657	17.28
456.014	17.5
456.371	17.29
456.727	17.45
457.084	17.69
457.441	17.67
457.797	17.78
458.154	17.9
458.51	17.9
458.867	17.71
459.223	17.82
459.58	17.94
459.936	17.97
460.292	18.02
460.648	17.72
461.005	17.98
461.361	17.68
461.717	17.77
462.073	17.78
462.429	17.84
462.785	18.11
463.141	18.32
463.496	18.54
463.852	18.57
464.208	18.52
464.564	18.59
464.919	18.59
465.275	18.82
465.631	18.98
465.986	19
466.342	19
466.697	18.89
467.052	18.95
467.408	18.95
467.763	19.09
468.118	18.92
468.473	19.12
468.829	19.18
469.184	19.07
469.539	19.31
469.894	19.49
470.249	19.44
470.603	19.52
470.958	19.4
471.313	19.62
471.668	19.42
472.023	19.71
472.377	19.67
472.732	19.85
473.086	19.94
473.441	19.73
473.795	19.74
474.15	19.7
474.504	20.1
474.859	19.87
475.213	20.05
475.567	19.97
475.921	20.24
476.275	20.22
476.63	20.31
476.984	20.5
477.338	20.45
477.692	20.23
478.045	20.45
478.399	20.39
478.753	20.48
479.107	20.35
479.461	20.52
479.814	20.54
480.168	20.66
480.521	20.66
480.875	20.79
481.228	20.74
481.582	20.79
481.935	20.83
482.289	20.8
482.642	20.8
482.995	20.88
483.348	20.71
483.701	20.86
484.055	20.73
484.408	20.67
484.761	20.34
485.114	20.12
485.466	19.99
485.819	19.97
486.172	20.13
486.525	20.28
486.878	20.52
487.23	20.67
487.583	20.83
487.936	20.87
488.288	20.89
488.641	20.74
488.993	20.61
489.345	20.61
489.698	20.7
490.05	20.78
490.402	20.87
490.754	21.12
491.107	21.34
491.459	21.53
491.811	21.58
492.163	21.67
492.515	21.75
492.866	21.35
493.218	21.18
493.57	21.16
493.922	21.34
494.274	21.54
494.625	21.73
494.977	21.91
495.328	22.25
495.68	22.41
496.031	22.6
496.383	22.74
496.734	22.66
497.086	22.74
497.437	22.77
497.788	22.71
498.139	22.66
498.49	22.72
498.842	22.73
499.193	22.73
499.544	22.88
499.894	22.64
500.245	22.92
500.596	22.95
500.947	23.17
501.298	23.21
501.648	23.39
501.999	23.38
502.35	23.34
502.7	23.56
503.051	23.65
503.401	23.55
503.752	23.78
504.102	23.72
504.452	23.87
504.803	23.89
505.153	23.92
505.503	23.86
505.853	23.79
506.203	23.96
506.553	23.88
506.903	23.91
507.253	24.12
507.603	24.27
507.953	24.27
508.303	24.19
508.652	24.19
509.002	24.3
509.352	24.32
509.701	24.19
510.051	24.32
510.4	24.08
510.75	24.3
511.099	24.27
511.449	24.37
511.798	24.34
512.147	24.39
512.496	24.57
512.846	24.61
513.195	24.53
513.544	24.56
513.893	24.69
514.242	24.74
514.591	24.71
514.939	24.84
515.288	24.86
515.637	25.1
515.986	25.18
516.334	25.08
516.683	25.22
517.032	25.26
517.38	25.37
517.729	25.34
518.077	25.25
518.426	25.49
518.774	25.38
519.122	25.32
519.47	25.36
519.819	25.14
520.167	25.05
520.515	24.97
520.863	25.28
521.211	25.25
521.559	25.38
521.907	25.49
522.255	25.6
522.602	25.79
522.95	25.94
523.298	25.92
523.645	26.02
523.993	26.07
524.341	26.22
524.688	26.19
525.036	26.17
525.383	26.32
525.73	26.19
526.078	26.21
526.425	26.12
526.772	26.03
527.119	25.8
527.466	25.75
527.814	25.99
528.161	25.89
528.508	26.07
528.854	26.07
529.201	26.06
529.548	25.71
529.895	25.67
530.242	25.53
530.588	25.53
530.935	25.7
531.282	25.86
531.628	25.96
531.975	26.13
532.321	26.33
532.667	26.57
533.014	26.63
533.36	26.68
533.706	26.7
534.052	26.79
534.399	26.58
534.745	26.44
535.091	26.24
535.437	26.43
535.783	26.6
536.129	26.85
536.474	26.97
536.82	27.14
537.166	27.32
537.512	27.39
537.857	27.33
538.203	27.14
538.549	27.03
538.894	27.11
539.239	27.42
539.585	27.51
539.93	27.67
540.276	27.99
540.621	28.02
540.966	27.99
541.311	28.04
541.656	28.08
542.001	27.98
542.346	27.78
542.691	27.38
543.036	27.18
543.381	27.12
543.726	27.41
544.071	27.58
544.415	27.66
544.76	27.77
545.105	27.93
545.449	28.08
545.794	28.23
546.138	28.36
546.483	28.58
546.827	28.55
547.171	28.65
547.516	28.6
547.86	28.5
548.204	28.62
548.548	28.48
548.892	28.47
549.236	28.71
549.58	28.97
549.924	29.2
550.268	29.26
550.612	29.43
550.956	29.59
551.3	29.69
551.643	29.93
551.987	29.78
552.33	29.85
552.674	29.67
553.017	29.96
553.361	29.91
553.704	29.89
554.048	29.98
554.391	29.78
554.734	29.74
555.077	29.88
555.42	29.96
555.764	30.24
556.107	30.14
556.45	30.13
556.793	30.4
557.135	30.39
557.478	30.33
557.821	30.3
558.164	30.64
558.507	30.57
558.849	30.67
559.192	30.63
559.534	30.92
559.877	30.67
560.219	30.63
560.562	30.7
560.904	30.98
561.246	30.83
561.589	30.93
561.931	30.98
562.273	31.01
562.615	31.08
562.957	31.26
563.299	31.07
563.641	31.05
563.983	31.03
564.325	31.12
564.667	31.31
565.008	31.31
565.35	31.24
565.692	31.46
566.033	31.37
566.375	31.68
566.716	31.69
567.058	31.39
567.399	31.54
567.741	31.4
568.082	31.35
568.423	31.37
568.764	31.3
569.105	31.63
569.447	32.06
569.788	31.79
570.129	31.94
570.47	31.79
570.811	31.92
571.151	31.97
571.492	31.67
571.833	32.05
572.174	32.25
572.514	32.05
572.855	31.92
573.195	31.77
573.536	31.84
573.876	32.17
574.217	32.01
574.557	32.15
574.898	32.05
575.238	32.33
575.578	32.18
575.918	32.42
576.258	32.41
576.598	32.3
576.938	32.47
577.278	32.41
577.618	32.61
577.958	32.67
578.298	32.76
578.638	32.7
578.977	33.07
579.317	32.87
579.657	32.81
579.996	33.11
580.336	33.15
580.675	33.01
581.014	33.3
581.354	33.37
581.693	33.34
582.032	33.5
582.372	33.5
582.711	33.8
583.05	33.82
583.389	33.48
583.728	33.59
584.067	33.86
584.406	33.78
584.745	33.96
585.083	33.93
585.422	33.81
585.761	34.01
586.1	34.04
586.438	34.55
586.777	33.76
587.115	34.38
587.454	34.47
587.792	34.08
588.13	34.34
588.469	34.06
588.807	34.22
589.145	34.23
589.483	34.14
589.821	34.42
590.159	34.38
590.497	34.44
590.835	34.55
591.173	34.61
591.511	34.4
591.849	34.43
592.187	34.3
592.524	34.6
592.862	34.73
593.2	34.53
593.537	34.89
593.875	35.07
594.212	34.81
594.55	35.03
594.887	35.02
595.224	35
595.561	34.95
595.899	34.86
596.236	35.04
596.573	35.17
596.91	35.26
597.247	35.14
597.584	34.96
597.921	34.88
598.258	34.78
598.594	34.99
598.931	34.52
599.268	34.86
599.604	35.12
599.941	35.14
600.277	35.17
600.614	35.29
600.95	35.48
601.287	35.47
601.623	35.59
601.959	35.7
602.296	35.82
602.632	35.84
602.968	35.72
603.304	35.45
603.64	35.79
603.976	35.88
604.312	36.08
604.648	35.74
604.984	35.81
605.319	35.97
605.655	35.58
605.991	35.59
606.326	35.52
606.662	35.56
606.998	35.74
607.333	35.75
607.668	35.92
608.004	35.67
608.339	36.09
608.674	36.37
609.01	36.28
609.345	36.6
609.68	36.7
610.015	36.41
610.35	36.61
610.685	36.64
611.02	36.58
611.355	36.35
611.689	36.45
612.024	36.33
612.359	36.35
612.694	36.26
613.028	36.65
613.363	36.95
613.697	37.15
614.032	36.76
614.366	36.73
614.7	37.15
615.035	37.06
615.369	36.81
615.703	37.27
616.037	37.28
616.371	37.17
616.705	37.43
617.039	37.34
617.373	37.26
617.707	37.9
618.041	37.64
618.375	37.64
618.709	37
619.042	37.63
619.376	37.43
619.71	38.19
620.043	37.64
620.377	37.81
620.71	37.42
621.043	37.82
621.377	38.05
621.71	38.13
622.043	38.02
622.376	37.81
622.709	37.84
623.043	37.99
623.376	37.67
623.709	38.01
624.041	38
624.374	37.9
624.707	38.12
625.04	38.2
625.373	38.32
625.705	38
626.038	38.39
626.37	38.53
626.703	38.3
627.035	38.7
627.368	38.43
627.7	38.4
628.032	38.12
628.365	38.52
628.697	38.16
629.029	38.44
629.361	38.16
629.693	38.72
630.025	38.82
630.357	38.57
630.689	38.63
631.021	38.68
631.353	39.04
631.684	38.32
632.016	39.08
632.348	39.13
632.679	38.79
633.011	39.08
633.342	39.16
633.674	39.19
634.005	39.03
634.336	38.83
634.668	39.33
634.999	39.1
635.33	39.48
635.661	39
635.992	39.23
636.323	39.04
636.654	39.37
636.985	39.43
637.316	39.44
637.647	38.85
637.977	39.42
638.308	39.54
638.639	39.82
638.969	39.78
639.3	39.58
639.63	39.32
639.961	39.77
640.291	39.82
640.622	39.57
640.952	40.11
641.282	39.88
641.612	40.09
641.943	39.86
642.273	39.83
642.603	40.4
642.933	39.81
643.263	40.05
643.592	40.1
643.922	39.81
644.252	40.1
644.582	40.36
644.911	39.66
645.241	40.09
645.571	40.21
645.9	40.88
646.23	40.4
646.559	40.71
646.888	40.21
647.218	40.53
647.547	40.95
647.876	40.53
648.205	40.63
648.534	40.39
648.863	40.46
649.192	41.15
649.521	40.33
649.85	40.51
650.179	40.77
650.508	40.72
650.837	40.91
651.165	40.72
651.494	40.85
651.822	40.45
652.151	40.97
652.479	41.23
652.808	41.29
653.136	40.93
653.465	41.18
653.793	40.83
654.121	40.88
654.449	40.79
654.777	41.15
655.105	40.82
655.433	41.45
655.761	40.91
656.089	41.03
656.417	40.91
656.745	41.22
657.073	41.48
657.4	41
657.728	41.64
658.056	41.26
658.383	40.99
658.711	41.89
659.038	41.34
659.365	41.28
659.693	40.98
660.02	41.67
660.347	41.55
660.674	41.24
661.001	41.19
661.329	41.4
661.656	41.06
661.982	41.27
662.309	41.52
662.636	41.28
662.963	42.47
663.29	42.23
663.616	41.78
663.943	41.89
664.27	41.64
664.596	41.43
664.923	41.9
665.249	41.96
665.576	42.03
665.902	42.43
666.228	42.36
666.554	42.36
666.881	42.04
667.207	42.34
667.533	41.92
667.859	42.57
668.185	42.18
668.511	42.16
668.837	42.2
669.162	42.01
669.488	42.68
669.814	42.37
670.139	42.77
670.465	42.75
670.791	42.07
671.116	42.67
671.442	42.41
671.767	42.27
672.092	41.96
672.418	42.4
672.743	42.17
673.068	43.19
673.393	42.18
673.718	42.91
