Data from 815644_chest_Reflection__4__28.txt Node

Date: Fri Sep 16 14:29:48 CDT 2022
User: ToomeyLab
Spectrometer: FLMS14357
Trigger mode: 0
Integration Time (sec): 1.000000E-2
Scans to average: 100
Electric dark correction enabled: true
Nonlinearity correction enabled: false
Boxcar width: 0
XAxis mode: Wavelengths
Number of Pixels in Spectrum: 2048
>>>>>Begin Spectral Data<<<<<
189.047	-57.74
189.435	-57.74
189.823	-57.74
190.211	-3326.71
190.599	-172.08
190.987	52.12
191.375	175.84
191.763	131.91
192.151	70.22
192.538	-1955.88
192.926	128.43
193.314	491.39
193.702	119.81
194.089	29.38
194.477	33.28
194.864	-196.65
195.252	-17.96
195.639	584.55
196.027	52.77
196.414	10.75
196.801	25.08
197.189	72.27
197.576	-116.91
197.963	-632.83
198.351	-52.53
198.738	-8.45
199.125	23.62
199.512	-80.73
199.899	-3.38
200.286	13.69
200.673	16.15
201.06	19.25
201.447	-0.16
201.833	17.95
202.22	10.72
202.607	-61.26
202.994	23.97
203.38	-8.56
203.767	-6.98
204.154	4.79
204.54	-24.27
204.927	0.84
205.313	59.2
205.699	51.34
206.086	11.38
206.472	11
206.858	38.78
207.245	14.56
207.631	48.67
208.017	3.91
208.403	-5.8
208.789	37.96
209.175	-0.98
209.561	22.91
209.947	-2.57
210.333	8.55
210.719	17.75
211.105	5.08
211.491	27.93
211.876	8.98
212.262	19.3
212.648	16.99
213.034	18.41
213.419	2.1
213.805	9.76
214.19	18.1
214.576	-5.82
214.961	-21.08
215.346	-24.24
215.732	-49.15
216.117	33.09
216.502	-18.56
216.888	-57.15
217.273	6.8
217.658	-15.91
218.043	-49.93
218.428	19.51
218.813	6.71
219.198	3.96
219.583	5.18
219.968	12.71
220.353	4.34
220.738	10.29
221.122	-8.18
221.507	22.48
221.892	-2.98
222.276	16.45
222.661	11.67
223.046	6.79
223.43	11.87
223.815	-4.69
224.199	2.78
224.583	2.37
224.968	1.67
225.352	3.04
225.736	1.62
226.121	5.18
226.505	4.51
226.889	4.7
227.273	1.9
227.657	6.68
228.041	1.55
228.425	-1.66
228.809	6.02
229.193	1.98
229.577	2.12
229.961	2.67
230.344	4.16
230.728	3.12
231.112	2.98
231.495	3.02
231.879	3.48
232.263	2.95
232.646	2.49
233.03	3.12
233.413	3.52
233.797	3.3
234.18	2.6
234.563	3.66
234.946	2.3
235.33	2.65
235.713	3.27
236.096	3.1
236.479	4.16
236.862	3.42
237.245	2.1
237.628	4.12
238.011	3.85
238.394	3.71
238.777	4.79
239.16	3.76
239.543	4.67
239.925	3.71
240.308	2.38
240.691	3.08
241.073	2.41
241.456	2.71
241.838	2.55
242.221	3.2
242.603	2.82
242.986	1.7
243.368	3.05
243.75	2.94
244.133	3.11
244.515	3.09
244.897	2.82
245.279	3.55
245.661	3.55
246.043	2.42
246.425	3.21
246.807	2.3
247.189	2.34
247.571	2.46
247.953	2.71
248.335	2.94
248.717	2.72
249.098	2.91
249.48	2.83
249.862	2.69
250.243	3.25
250.625	3.25
251.006	3.57
251.388	3.54
251.769	2.4
252.151	3.15
252.532	1.67
252.913	3.03
253.295	2.63
253.676	2.77
254.057	3.02
254.438	2.24
254.819	2.11
255.2	1.85
255.581	2.31
255.962	1.41
256.343	1.81
256.724	2.21
257.105	1.79
257.486	2.26
257.867	2.39
258.247	2.36
258.628	3.39
259.009	2.3
259.389	2.63
259.77	2.66
260.15	2.21
260.531	2.19
260.911	2.21
261.292	2.38
261.672	2.62
262.052	2.39
262.432	2.78
262.813	2.95
263.193	3.25
263.573	3.02
263.953	2.92
264.333	2.79
264.713	1.63
265.093	2.43
265.473	2.61
265.853	2.89
266.233	3.08
266.612	3.75
266.992	1.4
267.372	2.93
267.752	2.52
268.131	2.53
268.511	2.55
268.89	2.39
269.27	2.6
269.649	2.39
270.029	2.88
270.408	2.55
270.787	2.68
271.167	2.25
271.546	3.19
271.925	2.29
272.304	3.23
272.683	1.84
273.062	2.38
273.441	2.71
273.82	1.82
274.199	2.52
274.578	2.35
274.957	2.89
275.336	2.65
275.715	2.71
276.093	2.23
276.472	2.35
276.851	2.06
277.229	2.05
277.608	2.88
277.986	2.68
278.365	1.79
278.743	2.97
279.122	2.6
279.5	2.07
279.878	2.63
280.257	2.57
280.635	3.09
281.013	1.98
281.391	2.16
281.769	2.64
282.147	2.94
282.525	2.37
282.903	2.38
283.281	2.07
283.659	2.49
284.037	2.41
284.415	2.43
284.792	2.87
285.17	2.59
285.548	2.29
285.925	2.48
286.303	2.97
286.68	2.29
287.058	2.6
287.435	2.15
287.813	2.79
288.19	2.44
288.567	2.66
288.945	2.58
289.322	2.42
289.699	2.3
290.076	2.35
290.453	2.49
290.83	2.35
291.207	2.76
291.584	1.89
291.961	2.78
292.338	2.45
292.715	2.31
293.092	2.71
293.469	2.55
293.845	2.7
294.222	2.53
294.599	2.38
294.975	2.14
295.352	2.74
295.728	2.3
296.105	2.55
296.481	2.24
296.858	2.2
297.234	2.47
297.61	2.58
297.986	2.59
298.363	2.25
298.739	2.13
299.115	2.65
299.491	2.41
299.867	2.27
300.243	2.11
300.619	2.42
300.995	2.34
301.371	2.85
301.746	2.3
302.122	2.45
302.498	2.54
302.874	2.08
303.249	2.46
303.625	2.56
304	2.36
304.376	2.43
304.751	2.3
305.127	2.59
305.502	2.09
305.878	2.16
306.253	2.22
306.628	2.33
307.003	2.78
307.378	2.46
307.754	2.59
308.129	3.2
308.504	2.6
308.879	2.87
309.254	2.28
309.629	2.53
310.003	2.26
310.378	2.52
310.753	2.13
311.128	2.49
311.502	2.41
311.877	2.11
312.252	2.47
312.626	2.18
313.001	2.45
313.375	2.73
313.75	2.52
314.124	2.31
314.498	2.48
314.873	3.23
315.247	2.54
315.621	2.26
315.995	2.39
316.369	2.73
316.743	2.5
317.117	2.38
317.491	2.53
317.865	2.77
318.239	2.94
318.613	1.99
318.987	2.12
319.361	2.62
319.734	2.51
320.108	2.54
320.482	2.45
320.855	2.07
321.229	2.22
321.602	2.84
321.976	2.05
322.349	2.98
322.723	2.61
323.096	2.32
323.469	2.24
323.843	2.98
324.216	2.92
324.589	2.68
324.962	1.83
325.335	2.6
325.708	2.59
326.081	2.46
326.454	2.84
326.827	2.21
327.2	2.61
327.573	2.18
327.945	2.73
328.318	2.67
328.691	2.56
329.063	2.33
329.436	2.67
329.809	1.8
330.181	2.85
330.553	2.69
330.926	2.2
331.298	2.89
331.671	2.93
332.043	2.03
332.415	2.69
332.787	2.78
333.159	2.22
333.532	2.91
333.904	2.54
334.276	2.51
334.648	2.66
335.02	2.58
335.391	2.46
335.763	2.54
336.135	2.19
336.507	2.6
336.879	3.34
337.25	2.08
337.622	2.55
337.993	2.92
338.365	2.62
338.736	3.01
339.108	2.62
339.479	3.1
339.851	2.69
340.222	2.7
340.593	2.15
340.964	3.08
341.336	2.46
341.707	2.42
342.078	2.72
342.449	2.54
342.82	2.81
343.191	2.56
343.562	2.96
343.933	2.67
344.303	2.79
344.674	2.46
345.045	2.84
345.416	2.98
345.786	2.76
346.157	2.69
346.527	2.76
346.898	2.4
347.268	2.49
347.639	2.2
348.009	2.46
348.38	2.6
348.75	2.28
349.12	2.57
349.49	2.55
349.861	2.71
350.231	2.53
350.601	2.47
350.971	2.76
351.341	3.19
351.711	2.56
352.081	2.17
352.45	2.92
352.82	3.24
353.19	2.41
353.56	2.81
353.929	2.38
354.299	2.65
354.669	2.82
355.038	2.47
355.408	2.98
355.777	2.53
356.147	2.6
356.516	2.66
356.885	2.68
357.254	2.76
357.624	2.62
357.993	2.19
358.362	2.45
358.731	3.02
359.1	2.53
359.469	2.49
359.838	2.73
360.207	2.93
360.576	2.61
360.945	2.76
361.314	2.72
361.682	2.32
362.051	2.73
362.42	2.81
362.788	2.78
363.157	2.5
363.525	2.68
363.894	2.92
364.262	2.66
364.631	2.81
364.999	2.67
365.367	2.46
365.735	2.79
366.104	3.03
366.472	2.96
366.84	3.08
367.208	3.13
367.576	2.71
367.944	2.73
368.312	2.66
368.68	2.89
369.048	3.19
369.416	2.79
369.783	3.04
370.151	2.72
370.519	2.72
370.886	3.05
371.254	2.9
371.621	2.83
371.989	2.56
372.356	3.04
372.724	3.13
373.091	2.85
373.458	2.56
373.826	2.71
374.193	2.98
374.56	2.61
374.927	2.5
375.294	2.81
375.661	2.68
376.028	2.87
376.395	2.58
376.762	3.28
377.129	2.62
377.496	2.71
377.863	2.48
378.229	3.08
378.596	2.69
378.963	2.99
379.329	2.59
379.696	3.03
380.062	2.7
380.429	2.8
380.795	3.02
381.161	2.75
381.528	3.02
381.894	2.8
382.26	3.04
382.626	2.95
382.993	2.74
383.359	2.95
383.725	2.85
384.091	3.15
384.457	2.51
384.823	2.59
385.188	2.68
385.554	2.69
385.92	3.07
386.286	2.88
386.651	3.04
387.017	2.82
387.383	2.6
387.748	2.51
388.114	2.51
388.479	2.92
388.845	3.15
389.21	3.17
389.575	3.14
389.94	2.92
390.306	2.76
390.671	2.86
391.036	2.68
391.401	2.94
391.766	2.89
392.131	2.85
392.496	2.61
392.861	2.82
393.226	2.85
393.591	2.89
393.956	2.85
394.32	2.97
394.685	2.76
395.05	3.1
395.414	2.53
395.779	2.98
396.143	2.93
396.508	2.82
396.872	2.82
397.236	2.86
397.601	2.67
397.965	2.69
398.329	2.98
398.694	2.89
399.058	3.14
399.422	2.81
399.786	3.01
400.15	3.08
400.514	2.78
400.878	3.03
401.242	2.94
401.605	2.84
401.969	2.93
402.333	2.64
402.697	2.93
403.06	3.24
403.424	3.09
403.787	2.87
404.151	2.78
404.514	2.86
404.878	2.95
405.241	2.8
405.604	3.05
405.968	3
406.331	2.71
406.694	2.83
407.057	2.97
407.42	2.83
407.783	3.02
408.146	3.18
408.509	2.87
408.872	3.06
409.235	2.99
409.598	2.92
409.961	3.13
410.323	3.1
410.686	3.18
411.049	2.93
411.411	2.79
411.774	3.03
412.136	2.85
412.499	2.78
412.861	2.93
413.223	2.91
413.586	3.12
413.948	3.21
414.31	3.21
414.672	2.89
415.035	3.15
415.397	2.9
415.759	3.2
416.121	2.89
416.483	3.1
416.845	3.1
417.206	3.22
417.568	3.13
417.93	3.3
418.292	3.1
418.653	2.94
419.015	2.97
419.377	3.1
419.738	2.88
420.1	3.02
420.461	3.05
420.822	2.91
421.184	3.04
421.545	2.91
421.906	2.96
422.267	3.07
422.629	2.86
422.99	2.91
423.351	2.93
423.712	2.89
424.073	3.04
424.434	3.04
424.795	2.91
425.155	3.02
425.516	3.04
425.877	2.81
426.238	2.96
426.598	3.03
426.959	2.95
427.32	3.02
427.68	3.09
428.041	3.02
428.401	3.02
428.761	3.3
429.122	3.11
429.482	3.01
429.842	3.05
430.202	3.09
430.563	3.06
430.923	3.14
431.283	3.32
431.643	3.28
432.003	3.1
432.363	3.28
432.722	3.17
433.082	3.17
433.442	3.11
433.802	3.08
434.161	3.07
434.521	3.12
434.881	3.1
435.24	3.01
435.6	3.2
435.959	3.15
436.319	2.94
436.678	3.31
437.037	3.08
437.396	3.2
437.756	3.2
438.115	2.95
438.474	3.11
438.833	3.11
439.192	3.16
439.551	3.09
439.91	3.08
440.269	3.15
440.628	3.17
440.987	3.17
441.345	3.13
441.704	3.21
442.063	3.21
442.421	3.07
442.78	3.08
443.138	3.28
443.497	3.1
443.855	3.16
444.214	3.22
444.572	3.26
444.93	3.25
445.288	3.23
445.647	3.14
446.005	3.01
446.363	3.06
446.721	3.23
447.079	3.07
447.437	3.19
447.795	3.07
448.153	3.13
448.51	3.13
448.868	3.12
449.226	3.26
449.584	3.21
449.941	3.09
450.299	3.2
450.656	3.13
451.014	3.21
451.371	3.24
451.729	3.23
452.086	3.2
452.443	3.12
452.801	3.27
453.158	3.18
453.515	3.2
453.872	3.11
454.229	3.07
454.586	3.16
454.943	3.16
455.3	3.32
455.657	3.22
456.014	3.29
456.371	3.19
456.727	3.21
457.084	3.34
457.441	3.26
457.797	3.21
458.154	3.28
458.51	3.31
458.867	3.07
459.223	3.27
459.58	3.35
459.936	3.25
460.292	3.23
460.648	3.24
461.005	3.25
461.361	3.1
461.717	3.2
462.073	3.19
462.429	3.27
462.785	3.25
463.141	3.31
463.496	3.41
463.852	3.3
464.208	3.31
464.564	3.33
464.919	3.43
465.275	3.4
465.631	3.34
465.986	3.32
466.342	3.34
466.697	3.41
467.052	3.55
467.408	3.39
467.763	3.41
468.118	3.29
468.473	3.39
468.829	3.37
469.184	3.29
469.539	3.44
469.894	3.42
470.249	3.44
470.603	3.52
470.958	3.35
471.313	3.41
471.668	3.39
472.023	3.28
472.377	3.37
472.732	3.42
473.086	3.48
473.441	3.19
473.795	3.58
474.15	3.24
474.504	3.45
474.859	3.42
475.213	3.39
475.567	3.1
475.921	3.43
476.275	3.48
476.63	3.54
476.984	3.43
477.338	3.48
477.692	3.35
478.045	3.43
478.399	3.35
478.753	3.35
479.107	3.27
479.461	3.34
479.814	3.42
480.168	3.29
480.521	3.41
480.875	3.45
481.228	3.42
481.582	3.37
481.935	3.4
482.289	3.39
482.642	3.32
482.995	3.38
483.348	3.32
483.701	3.39
484.055	3.24
484.408	3.39
484.761	3.18
485.114	3.15
485.466	3.06
485.819	3.11
486.172	3.19
486.525	3.31
486.878	3.28
487.23	3.34
487.583	3.39
487.936	3.32
488.288	3.37
488.641	3.22
488.993	3.24
489.345	3.2
489.698	3.22
490.05	3.26
490.402	3.29
490.754	3.41
491.107	3.37
491.459	3.5
491.811	3.39
492.163	3.33
492.515	3.38
492.866	3.28
493.218	3.22
493.57	3.22
493.922	3.33
494.274	3.44
494.625	3.44
494.977	3.5
495.328	3.46
495.68	3.46
496.031	3.48
496.383	3.46
496.734	3.59
497.086	3.56
497.437	3.49
497.788	3.48
498.139	3.45
498.49	3.57
498.842	3.49
499.193	3.51
499.544	3.53
499.894	3.42
500.245	3.49
500.596	3.56
500.947	3.54
501.298	3.57
501.648	3.53
501.999	3.54
502.35	3.63
502.7	3.66
503.051	3.57
503.401	3.49
503.752	3.65
504.102	3.69
504.452	3.57
504.803	3.72
505.153	3.69
505.503	3.57
505.853	3.55
506.203	3.63
506.553	3.6
506.903	3.63
507.253	3.63
507.603	3.71
507.953	3.67
508.303	3.65
508.652	3.59
509.002	3.68
509.352	3.62
509.701	3.67
510.051	3.65
510.4	3.55
510.75	3.63
511.099	3.61
511.449	3.57
511.798	3.55
512.147	3.45
512.496	3.71
512.846	3.59
513.195	3.69
513.544	3.65
513.893	3.71
514.242	3.68
514.591	3.72
514.939	3.77
515.288	3.7
515.637	3.72
515.986	3.68
516.334	3.79
516.683	3.71
517.032	3.84
517.38	3.79
517.729	3.86
518.077	3.8
518.426	3.83
518.774	3.69
519.122	3.75
519.47	3.62
519.819	3.65
520.167	3.58
520.515	3.56
520.863	3.74
521.211	3.74
521.559	3.75
521.907	3.74
522.255	3.7
522.602	3.77
522.95	3.92
523.298	3.79
523.645	3.77
523.993	3.75
524.341	3.86
524.688	3.87
525.036	3.88
525.383	3.84
525.73	3.91
526.078	3.8
526.425	3.77
526.772	3.69
527.119	3.68
527.466	3.71
527.814	3.75
528.161	3.72
528.508	3.85
528.854	3.78
529.201	3.72
529.548	3.74
529.895	3.62
530.242	3.64
530.588	3.62
530.935	3.66
531.282	3.76
531.628	3.77
531.975	3.83
532.321	3.87
532.667	3.91
533.014	4
533.36	3.89
533.706	3.88
534.052	3.83
534.399	3.82
534.745	3.76
535.091	3.7
535.437	3.73
535.783	3.81
536.129	3.96
536.474	3.96
536.82	3.95
537.166	4.01
537.512	4.01
537.857	4.02
538.203	3.89
538.549	3.86
538.894	3.87
539.239	4.08
539.585	4.04
539.93	4.04
540.276	4.24
540.621	4.23
540.966	4.04
541.311	4.09
541.656	4.04
542.001	4
542.346	3.93
542.691	3.92
543.036	3.85
543.381	3.88
543.726	3.9
544.071	4.03
544.415	4.02
544.76	4.02
545.105	4.09
545.449	4.16
545.794	4.16
546.138	4.14
546.483	4.13
546.827	4.12
547.171	4.17
547.516	4.05
547.86	4.17
548.204	4.17
548.548	4.1
548.892	4.11
549.236	4.13
549.58	4.31
549.924	4.31
550.268	4.22
550.612	4.31
550.956	4.33
551.3	4.4
551.643	4.49
551.987	4.53
552.33	4.31
552.674	4.28
553.017	4.39
553.361	4.4
553.704	4.42
554.048	4.47
554.391	4.31
554.734	4.41
555.077	4.43
555.42	4.56
555.764	4.53
556.107	4.52
556.45	4.38
556.793	4.58
557.135	4.4
557.478	4.51
557.821	4.43
558.164	4.63
558.507	4.35
558.849	4.38
559.192	4.48
559.534	4.71
559.877	4.51
560.219	4.41
560.562	4.72
560.904	4.57
561.246	4.62
561.589	4.86
561.931	4.73
562.273	4.69
562.615	4.72
562.957	4.69
563.299	4.59
563.641	4.71
563.983	4.84
564.325	4.68
564.667	4.57
565.008	4.69
565.35	4.69
565.692	4.76
566.033	4.85
566.375	4.86
566.716	4.69
567.058	4.87
567.399	4.81
567.741	4.61
568.082	4.86
568.423	4.58
568.764	4.78
569.105	4.91
569.447	4.84
569.788	5
570.129	5.03
570.47	4.82
570.811	4.96
571.151	4.97
571.492	4.84
571.833	4.87
572.174	5.12
572.514	5.08
572.855	4.91
573.195	5
573.536	5
573.876	5.06
574.217	4.98
574.557	4.9
574.898	4.99
575.238	5.14
575.578	5.07
575.918	5.23
576.258	5.1
576.598	5.07
576.938	5.13
577.278	5.08
577.618	5.13
577.958	5.18
578.298	5.17
578.638	5.18
578.977	5.17
579.317	5.2
579.657	5.17
579.996	5.31
580.336	5.42
580.675	5.23
581.014	5.58
581.354	5.46
581.693	5.1
582.032	5.37
582.372	5.43
582.711	5.59
583.05	5.49
583.389	5.37
583.728	5.27
584.067	5.52
584.406	5.66
584.745	5.65
585.083	5.49
585.422	5.52
585.761	5.56
586.1	5.45
586.438	5.7
586.777	5.45
587.115	5.7
587.454	5.65
587.792	5.66
588.13	5.83
588.469	5.75
588.807	5.33
589.145	5.53
589.483	5.72
589.821	5.89
590.159	5.69
590.497	5.66
590.835	5.77
591.173	5.83
591.511	5.75
591.849	5.83
592.187	5.7
592.524	5.75
592.862	5.96
593.2	5.58
593.537	5.94
593.875	5.85
594.212	5.84
594.55	5.8
594.887	5.92
595.224	5.87
595.561	5.97
595.899	5.87
596.236	6.03
596.573	5.99
596.91	6.13
597.247	6.07
597.584	6.02
597.921	6.3
598.258	5.82
598.594	5.8
598.931	5.88
599.268	5.95
599.604	6.04
599.941	6.1
600.277	6.21
600.614	6.24
600.95	6.16
601.287	6.27
601.623	6.39
601.959	6.46
602.296	6.31
602.632	6.31
602.968	6.38
603.304	6.26
603.64	6.37
603.976	6.48
604.312	6.44
604.648	6.57
604.984	6.49
605.319	6.57
605.655	6.62
605.991	6.31
606.326	6.38
606.662	6.39
606.998	6.41
607.333	6.54
607.668	6.67
608.004	6.49
608.339	6.59
608.674	6.63
609.01	6.76
609.345	6.86
609.68	6.55
610.015	6.63
610.35	6.66
610.685	6.83
611.02	6.56
611.355	6.74
611.689	6.87
612.024	6.85
612.359	6.7
612.694	6.76
613.028	6.94
613.363	6.78
613.697	6.91
614.032	7.11
614.366	6.7
614.7	7.06
615.035	7.02
615.369	6.94
615.703	7.02
616.037	7.14
616.371	7.23
616.705	7.12
617.039	7.23
617.373	6.95
617.707	7.25
618.041	7.24
618.375	7.35
618.709	7.1
619.042	7.07
619.376	6.93
619.71	7.57
620.043	7.09
620.377	7.72
620.71	7.5
621.043	7.42
621.377	7.53
621.71	7.32
622.043	7.24
622.376	7.48
622.709	7.38
623.043	7.33
623.376	7.26
623.709	7.11
624.041	7.77
624.374	7.31
624.707	7.55
625.04	7.82
625.373	7.16
625.705	7.52
626.038	7.69
626.37	7.61
626.703	7.56
627.035	7.73
627.368	7.82
627.7	8.15
628.032	7.62
628.365	7.46
628.697	7.64
629.029	7.76
629.361	7.73
629.693	7.83
630.025	7.76
630.357	7.83
630.689	7.94
631.021	7.81
631.353	7.82
631.684	7.76
632.016	7.87
632.348	8.07
632.679	7.85
633.011	8.09
633.342	7.73
633.674	8.1
634.005	8.14
634.336	7.92
634.668	7.9
634.999	7.88
635.33	8.03
635.661	7.87
635.992	8.05
636.323	8.03
636.654	8.31
636.985	8.34
637.316	8.32
637.647	8.37
637.977	8.07
638.308	8.41
638.639	8.4
638.969	8.67
639.3	8.74
639.63	8.01
639.961	8.39
640.291	8.65
640.622	8.55
640.952	8.6
641.282	8.66
641.612	8.34
641.943	8.57
642.273	8.35
642.603	8.73
642.933	8.83
643.263	8.46
643.592	8.23
643.922	8.39
644.252	8.65
644.582	8.82
644.911	8.95
645.241	8.78
645.571	9.01
645.9	9.14
646.23	8.68
646.559	8.5
646.888	8.37
647.218	8.54
647.547	8.93
647.876	9.06
648.205	8.89
648.534	8.87
648.863	8.9
649.192	9.32
649.521	8.74
649.85	9.2
650.179	9.03
650.508	9.34
650.837	8.92
651.165	8.66
651.494	9.49
651.822	9.1
652.151	9
652.479	9.4
652.808	9.33
653.136	9.13
653.465	9.26
653.793	9.14
654.121	9.39
654.449	9.25
654.777	9.3
655.105	9.73
655.433	9.4
655.761	9.54
656.089	9.43
656.417	9.08
656.745	9.58
657.073	9.72
657.4	9.39
657.728	9.6
658.056	8.88
658.383	9.5
658.711	9.74
659.038	9.74
659.365	9.65
659.693	9.27
660.02	9.58
660.347	9.55
660.674	9.73
661.001	9.67
661.329	9.47
661.656	9.62
661.982	9.82
662.309	10.07
662.636	10.05
662.963	10.15
663.29	10.28
663.616	10.1
663.943	9.76
664.27	9.55
664.596	10.15
664.923	9.62
665.249	10.1
665.576	9.76
665.902	9.9
666.228	9.9
666.554	10.47
666.881	10.43
667.207	10.41
667.533	9.71
667.859	10.3
668.185	10.53
668.511	10.08
668.837	10.14
669.162	10.13
669.488	10.99
669.814	10.09
670.139	10.33
670.465	10.34
670.791	10.29
671.116	10.76
671.442	10.67
671.767	10.41
672.092	10.79
672.418	10.44
672.743	10.5
673.068	10.79
673.393	9.85
673.718	11.44
674.043	10.93
674.368	10.55
674.693	11.74
675.018	10.73
675.343	10.69
675.667	10.96
675.992	10.83
676.317	10.55
676.641	10.61
676.966	11.04
677.29	10.83
677.615	11.1
677.939	11.2
678.264	10.7
678.588	10.94
678.912	10.29
679.236	10.81
679.56	11.53
679.885	10.85
680.209	11.16
680.532	11.14
680.856	10.62
681.18	11.02
681.504	10.73
681.828	10.87
682.152	11.39
682.475	11.29
682.799	11.25
683.122	11.19
683.446	10.95
683.769	10.82
684.093	10.71
684.416	11.04
684.739	11.12
685.062	11.25
685.386	11.32
685.709	11.48
686.032	11.9
686.355	11.66
686.678	11.61
687.001	10.91
687.324	11.41
687.646	12.31
687.969	12.29
688.292	11.32
688.614	11.49
688.937	11.53
689.26	11.68
689.582	11.27
689.904	11.74
690.227	11.75
690.549	12.28
