Data from 815644_chest_Reflection__0__24.txt Node

Date: Fri Sep 16 14:28:34 CDT 2022
User: ToomeyLab
Spectrometer: FLMS14357
Trigger mode: 0
Integration Time (sec): 1.000000E-2
Scans to average: 100
Electric dark correction enabled: true
Nonlinearity correction enabled: false
Boxcar width: 0
XAxis mode: Wavelengths
Number of Pixels in Spectrum: 2048
>>>>>Begin Spectral Data<<<<<
189.047	-46.08
189.435	-46.08
189.823	-46.08
190.211	-4519.18
190.599	-39.57
190.987	83.65
191.375	170.56
191.763	123.16
192.151	-135.53
192.538	1535.29
192.926	-97.5
193.314	170.69
193.702	82.02
194.089	36.06
194.477	40.18
194.864	136.92
195.252	-80.93
195.639	-1426.7
196.027	77.96
196.414	31.33
196.801	52.61
197.189	137.17
197.576	-32.34
197.963	-534.9
198.351	-0.09
198.738	2.52
199.125	37.94
199.512	-36.98
199.899	-11.99
200.286	-9.61
200.673	2.87
201.06	25.54
201.447	22.8
201.833	1.72
202.22	6.45
202.607	-39.44
202.994	69.17
203.38	13.04
203.767	5.77
204.154	35.88
204.54	-66.66
204.927	-10.27
205.313	80.09
205.699	35.19
206.086	17.03
206.472	10.54
206.858	16.14
207.245	-11.28
207.631	3.97
208.017	9.33
208.403	-2.95
208.789	-5.32
209.175	-0.46
209.561	20.75
209.947	29.16
210.333	-0.74
210.719	-13.17
211.105	28.52
211.491	29.97
211.876	35.58
212.262	30.91
212.648	14.47
213.034	3.55
213.419	-13.44
213.805	-21.39
214.19	37.86
214.576	-7.42
214.961	-3.6
215.346	3.3
215.732	-26.69
216.117	8.44
216.502	15.34
216.888	-24.63
217.273	-7.57
217.658	30.71
218.043	-30.5
218.428	14.65
218.813	-4.25
219.198	8.7
219.583	3.15
219.968	-5.76
220.353	-27.73
220.738	15.14
221.122	-20.66
221.507	25.76
221.892	10.9
222.276	12.17
222.661	19.84
223.046	11.79
223.43	9.76
223.815	-9.89
224.199	0.42
224.583	3.7
224.968	8.06
225.352	3.49
225.736	10.01
226.121	12.46
226.505	2.48
226.889	2.61
227.273	6.16
227.657	10.46
228.041	4.31
228.425	0.75
228.809	9.19
229.193	7.77
229.577	6.15
229.961	4.54
230.344	6.77
230.728	6.46
231.112	6.05
231.495	4.98
231.879	5.51
232.263	4.31
232.646	4.9
233.03	5.64
233.413	6.83
233.797	4.47
234.18	6.05
234.563	4.29
234.946	5.22
235.33	5.39
235.713	6.1
236.096	5.91
236.479	6.12
236.862	7.11
237.245	6.75
237.628	7.13
238.011	5.72
238.394	3.53
238.777	5.5
239.16	4.94
239.543	6.64
239.925	5.29
240.308	5.92
240.691	6.48
241.073	5.11
241.456	5.22
241.838	2.46
242.221	5.66
242.603	5.54
242.986	4.89
243.368	5.61
243.75	5
244.133	5.63
244.515	5.18
244.897	5.8
245.279	5.03
245.661	4.6
246.043	5.05
246.425	5.04
246.807	5.46
247.189	5.32
247.571	5.17
247.953	4.88
248.335	5.51
248.717	5.18
249.098	5.18
249.48	5.11
249.862	5.01
250.243	5.25
250.625	5.41
251.006	5.68
251.388	5.95
251.769	3.89
252.151	5.64
252.532	5.16
252.913	5.82
253.295	5.14
253.676	5.36
254.057	5.44
254.438	4.03
254.819	4.84
255.2	4.48
255.581	5.6
255.962	5.1
256.343	4.61
256.724	5.18
257.105	4.38
257.486	4.34
257.867	5.03
258.247	5.99
258.628	5.58
259.009	5.16
259.389	4.68
259.77	4.36
260.15	4.7
260.531	4.57
260.911	4.88
261.292	4.65
261.672	4.76
262.052	4.52
262.432	4.74
262.813	4.55
263.193	4.39
263.573	5.13
263.953	4.67
264.333	4.96
264.713	3.82
265.093	3.84
265.473	5.04
265.853	5.46
266.233	4.57
266.612	5.43
266.992	4.02
267.372	4.81
267.752	4.28
268.131	5.21
268.511	5.11
268.89	5.19
269.27	4.86
269.649	4.6
270.029	4.64
270.408	4.78
270.787	4.43
271.167	4.37
271.546	4.86
271.925	5.07
272.304	4.51
272.683	3.99
273.062	4.47
273.441	4.7
273.82	4.88
274.199	4.75
274.578	4.55
274.957	4.64
275.336	4.64
275.715	5.17
276.093	4.04
276.472	4.26
276.851	5.09
277.229	4.57
277.608	4.55
277.986	4.47
278.365	4.17
278.743	4.8
279.122	4.51
279.5	4.62
279.878	4.9
280.257	5.15
280.635	4.45
281.013	4.71
281.391	5.2
281.769	4.69
282.147	4.45
282.525	4.29
282.903	4.83
283.281	4.29
283.659	4.66
284.037	4.78
284.415	4.87
284.792	4.87
285.17	4.96
285.548	4.3
285.925	4.43
286.303	5.02
286.68	4.48
287.058	4.33
287.435	4.48
287.813	4.86
288.19	4.55
288.567	4.52
288.945	4.44
289.322	4.63
289.699	4.4
290.076	3.97
290.453	4.96
290.83	4.7
291.207	4.62
291.584	3.98
291.961	4.63
292.338	4.71
292.715	4.18
293.092	4.64
293.469	4.76
293.845	4.3
294.222	4.38
294.599	4.22
294.975	4.38
295.352	4.81
295.728	4.53
296.105	4.84
296.481	4.5
296.858	4.14
297.234	4.64
297.61	5
297.986	4.93
298.363	4.74
298.739	4.33
299.115	4.86
299.491	4.53
299.867	4.48
300.243	4.64
300.619	5.01
300.995	5.2
301.371	4.63
301.746	4.16
302.122	5.02
302.498	4.84
302.874	4.99
303.249	5.38
303.625	4.25
304	4.81
304.376	4.59
304.751	4.71
305.127	4.42
305.502	4.59
305.878	4.74
306.253	4.8
306.628	4.76
307.003	4.69
307.378	4.77
307.754	5.04
308.129	5.24
308.504	4.86
308.879	4.98
309.254	4.72
309.629	4.72
310.003	5.25
310.378	4.53
310.753	4.44
311.128	4.6
311.502	4.58
311.877	5.13
312.252	5.48
312.626	4.95
313.001	4.63
313.375	5.18
313.75	4.77
314.124	4.47
314.498	4.67
314.873	5.01
315.247	5.45
315.621	5.42
315.995	4.59
316.369	5.26
316.743	5.4
317.117	4.76
317.491	5.07
317.865	5.04
318.239	5.05
318.613	4.57
318.987	4.58
319.361	4.54
319.734	4.69
320.108	5.44
320.482	5.24
320.855	4.87
321.229	4.83
321.602	5.09
321.976	5.05
322.349	5.14
322.723	4.66
323.096	4.96
323.469	5
323.843	5.61
324.216	5.33
324.589	5.05
324.962	5.08
325.335	5.53
325.708	5.06
326.081	5.01
326.454	5.26
326.827	4.79
327.2	5.41
327.573	4.91
327.945	5.29
328.318	4.96
328.691	5.02
329.063	4.68
329.436	4.45
329.809	4.7
330.181	4.95
330.553	5.12
330.926	4.88
331.298	5.4
331.671	5.19
332.043	5.28
332.415	5.1
332.787	5.26
333.159	5.26
333.532	5.68
333.904	5.43
334.276	5.25
334.648	5.33
335.02	5.26
335.391	5.1
335.763	5.49
336.135	4.97
336.507	5.52
336.879	5.88
337.25	4.52
337.622	5.68
337.993	5.35
338.365	5.04
338.736	6
339.108	5.53
339.479	5.5
339.851	5.45
340.222	5.27
340.593	5.82
340.964	5.3
341.336	5.36
341.707	5.14
342.078	5.62
342.449	5.3
342.82	5.19
343.191	5.38
343.562	5.41
343.933	5.71
344.303	5.93
344.674	5.19
345.045	5.55
345.416	5.1
345.786	5.67
346.157	5.62
346.527	5.54
346.898	5.17
347.268	5.57
347.639	5.61
348.009	5.67
348.38	5.59
348.75	5.17
349.12	5.61
349.49	5.56
349.861	5.9
350.231	5.66
350.601	5.28
350.971	5.42
351.341	5.85
351.711	5.68
352.081	5.35
352.45	5.93
352.82	5.77
353.19	5.6
353.56	5.75
353.929	5.98
354.299	5.4
354.669	5.75
355.038	5.57
355.408	5.77
355.777	5.42
356.147	5.41
356.516	5.49
356.885	5.97
357.254	5.81
357.624	5.35
357.993	5.84
358.362	5.11
358.731	5.91
359.1	5.91
359.469	5.68
359.838	5.55
360.207	5.77
360.576	5.58
360.945	5.57
361.314	5.52
361.682	5.4
362.051	5.75
362.42	6.06
362.788	6.11
363.157	5.82
363.525	5.81
363.894	6.04
364.262	5.77
364.631	5.66
364.999	5.77
365.367	5.72
365.735	6.04
366.104	5.87
366.472	6.11
366.84	5.89
367.208	6.16
367.576	5.95
367.944	5.88
368.312	5.89
368.68	5.99
369.048	6.15
369.416	5.9
369.783	5.79
370.151	5.8
370.519	5.77
370.886	5.92
371.254	5.92
371.621	6.08
371.989	5.66
372.356	6.06
372.724	6.11
373.091	5.95
373.458	5.96
373.826	6.03
374.193	6.36
374.56	5.88
374.927	5.84
375.294	5.81
375.661	6
376.028	6.35
376.395	6.02
376.762	6.43
377.129	5.96
377.496	6.04
377.863	6.17
378.229	6.27
378.596	5.86
378.963	6.32
379.329	5.99
379.696	6.51
380.062	6.05
380.429	6.09
380.795	6.28
381.161	6.29
381.528	6.37
381.894	6.03
382.26	6.06
382.626	6.42
382.993	6.06
383.359	6.04
383.725	6.32
384.091	6.4
384.457	6.02
384.823	6.17
385.188	6.16
385.554	6.2
385.92	6.1
386.286	6.23
386.651	6.25
387.017	6.26
387.383	5.96
387.748	6.12
388.114	6.13
388.479	6.37
388.845	6.22
389.21	6.63
389.575	6.2
389.94	6.3
390.306	6.39
390.671	6.39
391.036	6.4
391.401	6.24
391.766	6.41
392.131	6.59
392.496	6.36
392.861	6.61
393.226	6.55
393.591	6.38
393.956	6.47
394.32	6.32
394.685	6.38
395.05	6.56
395.414	6.27
395.779	6.51
396.143	6.58
396.508	6.21
396.872	6.39
397.236	6.32
397.601	6.55
397.965	6.04
398.329	6.54
398.694	6.64
399.058	6.67
399.422	6.76
399.786	6.59
400.15	6.8
400.514	6.67
400.878	6.7
401.242	6.5
401.605	6.52
401.969	6.47
402.333	6.51
402.697	6.71
403.06	6.84
403.424	6.51
403.787	6.61
404.151	6.78
404.514	6.53
404.878	6.5
405.241	6.72
405.604	6.79
405.968	6.95
406.331	6.78
406.694	6.63
407.057	6.69
407.42	6.63
407.783	6.85
408.146	6.95
408.509	6.77
408.872	6.83
409.235	6.87
409.598	6.65
409.961	6.77
410.323	6.88
410.686	6.77
411.049	6.94
411.411	6.69
411.774	6.92
412.136	6.79
412.499	7.18
412.861	6.87
413.223	6.85
413.586	7.12
413.948	6.94
414.31	7.1
414.672	6.72
415.035	6.92
415.397	6.7
415.759	7.02
416.121	7.15
416.483	6.89
416.845	7.15
417.206	6.93
417.568	7.05
417.93	7.09
418.292	7.06
418.653	6.85
419.015	6.94
419.377	7.02
419.738	6.94
420.1	7.1
420.461	7.01
420.822	6.92
421.184	6.93
421.545	6.9
421.906	6.88
422.267	6.86
422.629	6.83
422.99	6.9
423.351	6.99
423.712	6.84
424.073	6.85
424.434	6.94
424.795	7.01
425.155	7.07
425.516	7.08
425.877	6.9
426.238	6.97
426.598	7.01
426.959	6.99
427.32	7.02
427.68	7.18
428.041	7.01
428.401	7.15
428.761	7.3
429.122	7.24
429.482	7.14
429.842	7.12
430.202	7.29
430.563	7.38
430.923	7.26
431.283	7.31
431.643	7.25
432.003	7.38
432.363	7.25
432.722	7.37
433.082	7.41
433.442	7.5
433.802	7.21
434.161	7.36
434.521	7.4
434.881	7.37
435.24	7.28
435.6	7.36
435.959	7.36
436.319	7.35
436.678	7.39
437.037	7.19
437.396	7.38
437.756	7.56
438.115	7.4
438.474	7.44
438.833	7.37
439.192	7.27
439.551	7.53
439.91	7.39
440.269	7.56
440.628	7.46
440.987	7.43
441.345	7.6
441.704	7.49
442.063	7.47
442.421	7.5
442.78	7.47
443.138	7.44
443.497	7.54
443.855	7.48
444.214	7.49
444.572	7.57
444.93	7.55
445.288	7.62
445.647	7.66
446.005	7.54
446.363	7.6
446.721	7.5
447.079	7.54
447.437	7.67
447.795	7.6
448.153	7.56
448.51	7.45
448.868	7.53
449.226	7.56
449.584	7.55
449.941	7.58
450.299	7.55
450.656	7.73
451.014	7.7
451.371	7.75
451.729	7.62
452.086	7.6
452.443	7.67
452.801	7.72
453.158	7.72
453.515	7.76
453.872	7.81
454.229	7.74
454.586	7.63
454.943	7.66
455.3	7.89
455.657	7.76
456.014	7.91
456.371	7.89
456.727	7.93
457.084	8.01
457.441	7.81
457.797	8.09
458.154	7.99
458.51	7.99
458.867	8
459.223	7.94
459.58	8.03
459.936	8
460.292	7.98
460.648	7.82
461.005	8.05
461.361	7.78
461.717	7.93
462.073	7.9
462.429	7.75
462.785	7.96
463.141	7.92
463.496	7.95
463.852	8.02
464.208	8.11
464.564	8.15
464.919	8.09
465.275	8.23
465.631	8.21
465.986	7.96
466.342	8.2
466.697	8.47
467.052	8.19
467.408	8.25
467.763	8.22
468.118	8.24
468.473	8.3
468.829	8.19
469.184	8.23
469.539	8.24
469.894	8.25
470.249	8.2
470.603	8.34
470.958	8.22
471.313	8.31
471.668	8.32
472.023	8.25
472.377	8.35
472.732	8.34
473.086	8.33
473.441	8.2
473.795	8.31
474.15	8.23
474.504	8.49
474.859	8.49
475.213	8.39
475.567	8.18
475.921	8.46
476.275	8.42
476.63	8.45
476.984	8.43
477.338	8.68
477.692	8.54
478.045	8.52
478.399	8.55
478.753	8.42
479.107	8.42
479.461	8.53
479.814	8.49
480.168	8.43
480.521	8.36
480.875	8.45
481.228	8.46
481.582	8.44
481.935	8.53
482.289	8.47
482.642	8.54
482.995	8.58
483.348	8.5
483.701	8.46
484.055	8.42
484.408	8.55
484.761	8.44
485.114	8.29
485.466	8.27
485.819	8.21
486.172	8.13
486.525	8.12
486.878	8.17
487.23	8.26
487.583	8.35
487.936	8.38
488.288	8.43
488.641	8.45
488.993	8.38
489.345	8.42
489.698	8.36
490.05	8.33
490.402	8.37
490.754	8.5
491.107	8.46
491.459	8.54
491.811	8.51
492.163	8.61
492.515	8.65
492.866	8.62
493.218	8.57
493.57	8.58
493.922	8.52
494.274	8.52
494.625	8.57
494.977	8.6
495.328	8.64
495.68	8.83
496.031	8.93
496.383	8.83
496.734	8.96
497.086	8.95
497.437	8.86
497.788	8.91
498.139	9.06
498.49	9.06
498.842	8.96
499.193	8.9
499.544	9.09
499.894	8.93
500.245	9.19
500.596	9.02
500.947	8.96
501.298	9.06
501.648	9.19
501.999	9.12
502.35	9.16
502.7	9.26
503.051	9.21
503.401	9.1
503.752	9.33
504.102	9.25
504.452	9.24
504.803	9.33
505.153	9.35
505.503	9.39
505.853	9.26
506.203	9.36
506.553	9.19
506.903	9.26
507.253	9.35
507.603	9.41
507.953	9.33
508.303	9.45
508.652	9.33
509.002	9.28
509.352	9.36
509.701	9.45
510.051	9.49
510.4	9.3
510.75	9.4
511.099	9.4
511.449	9.34
511.798	9.48
512.147	9.41
512.496	9.5
512.846	9.51
513.195	9.44
513.544	9.52
513.893	9.55
514.242	9.57
514.591	9.44
514.939	9.6
515.288	9.64
515.637	9.54
515.986	9.6
516.334	9.58
516.683	9.78
517.032	9.83
517.38	9.75
517.729	9.76
518.077	9.73
518.426	9.79
518.774	9.72
519.122	9.8
519.47	9.7
519.819	9.74
520.167	9.68
520.515	9.7
520.863	9.72
521.211	9.78
521.559	9.68
521.907	9.64
522.255	9.75
522.602	9.95
522.95	9.92
523.298	9.91
523.645	10.07
523.993	9.96
524.341	9.92
524.688	10.14
525.036	9.95
525.383	10.09
525.73	10.1
526.078	10.13
526.425	10.07
526.772	10.07
527.119	10
527.466	10.11
527.814	10.07
528.161	9.91
528.508	10.05
528.854	10.03
529.201	10.08
529.548	10.07
529.895	10.02
530.242	10.01
530.588	10
530.935	9.89
531.282	9.86
531.628	9.82
531.975	9.86
532.321	10.05
532.667	10.12
533.014	10.25
533.36	10.28
533.706	10.32
534.052	10.43
534.399	10.4
534.745	10.36
535.091	10.3
535.437	10.25
535.783	10.25
536.129	10.24
536.474	10.24
536.82	10.31
537.166	10.54
537.512	10.58
537.857	10.61
538.203	10.61
538.549	10.52
538.894	10.52
539.239	10.61
539.585	10.52
539.93	10.51
540.276	10.74
540.621	10.86
540.966	10.83
541.311	10.92
541.656	10.92
542.001	10.86
542.346	10.93
542.691	10.79
543.036	10.76
543.381	10.69
543.726	10.62
544.071	10.63
544.415	10.65
544.76	10.75
545.105	10.88
545.449	10.89
545.794	11.02
546.138	10.87
546.483	11.1
546.827	11.18
547.171	11.18
547.516	11.07
547.86	11.18
548.204	11.26
548.548	11.15
548.892	11.19
549.236	11.32
549.58	11.37
549.924	11.33
550.268	11.3
550.612	11.51
550.956	11.28
551.3	11.44
551.643	11.62
551.987	11.82
552.33	11.57
552.674	11.51
553.017	11.74
553.361	11.88
553.704	11.77
554.048	11.76
554.391	11.77
554.734	11.9
555.077	11.79
555.42	11.76
555.764	11.78
556.107	12
556.45	11.68
556.793	11.91
557.135	12.08
557.478	11.87
557.821	11.94
558.164	12.09
558.507	12.11
558.849	12.1
559.192	12.11
559.534	12.34
559.877	11.97
560.219	12.11
560.562	12.19
560.904	12.14
561.246	12.23
561.589	12.49
561.931	12.44
562.273	12.39
562.615	12.35
562.957	12.35
563.299	12.34
563.641	12.45
563.983	12.4
564.325	12.52
564.667	12.33
565.008	12.59
565.35	12.59
565.692	12.67
566.033	12.67
566.375	12.56
566.716	12.52
567.058	12.6
567.399	12.74
567.741	12.59
568.082	12.92
568.423	12.53
568.764	12.64
569.105	12.84
569.447	12.8
569.788	13
570.129	12.77
570.47	13.08
570.811	12.94
571.151	13
571.492	12.91
571.833	13.1
572.174	13.18
572.514	12.95
572.855	13.01
573.195	13.4
573.536	13.16
573.876	13.16
574.217	13.08
574.557	13.17
574.898	13.15
575.238	13.25
575.578	13.06
575.918	13.22
576.258	13.34
576.598	13.3
576.938	13.53
577.278	13.41
577.618	13.5
577.958	13.5
578.298	13.48
578.638	13.34
578.977	13.49
579.317	13.64
579.657	13.6
579.996	13.77
580.336	13.78
580.675	13.5
581.014	13.77
581.354	14.03
581.693	13.79
582.032	13.85
582.372	13.9
582.711	14.17
583.05	14.12
583.389	13.94
583.728	14.15
584.067	14.2
584.406	14.01
584.745	14.07
585.083	14.14
585.422	14.18
585.761	14.62
586.1	14.12
586.438	14.64
586.777	14.25
587.115	14.54
587.454	14.42
587.792	14.22
588.13	14.34
588.469	14.41
588.807	14.38
589.145	14.3
589.483	14.53
589.821	14.89
590.159	14.62
590.497	14.73
590.835	14.89
591.173	14.67
591.511	14.67
591.849	14.56
592.187	14.57
592.524	14.75
592.862	14.79
593.2	14.69
593.537	14.82
593.875	14.79
594.212	15.06
594.55	15.12
594.887	15.08
595.224	14.84
595.561	15.29
595.899	15.18
596.236	15.16
596.573	15.13
596.91	15.31
597.247	15.12
597.584	15.21
597.921	15.1
598.258	15.29
598.594	15
598.931	15.23
599.268	15.24
599.604	15.07
599.941	15.15
600.277	15.38
600.614	15.13
600.95	15.41
601.287	15.43
601.623	15.69
601.959	15.51
602.296	15.45
602.632	15.72
602.968	15.76
603.304	15.8
603.64	15.74
603.976	16.06
604.312	15.93
604.648	15.93
604.984	15.92
605.319	15.97
605.655	16.17
605.991	15.84
606.326	15.81
606.662	15.83
606.998	15.8
607.333	15.78
607.668	16
608.004	15.95
608.339	15.85
608.674	16.27
609.01	16.23
609.345	16.34
609.68	16.42
610.015	16.27
610.35	16.33
610.685	16.68
611.02	16.54
611.355	16.57
611.689	16.41
612.024	16.3
612.359	16.35
612.694	16.25
613.028	16.13
613.363	16.58
613.697	16.82
614.032	16.52
614.366	16.75
614.7	16.68
615.035	16.67
615.369	16.82
615.703	16.75
616.037	16.86
616.371	16.71
616.705	16.75
617.039	16.91
617.373	16.97
617.707	17.15
618.041	16.76
618.375	17.14
618.709	17.03
619.042	17.05
619.376	16.91
619.71	17.43
620.043	17.13
620.377	17.37
620.71	17.25
621.043	17.3
621.377	17.37
621.71	17.18
622.043	17.19
622.376	17.35
622.709	17.7
623.043	17.42
623.376	17.37
623.709	17.26
624.041	17.76
624.374	17.5
624.707	17.54
625.04	17.88
625.373	17.57
625.705	17.74
626.038	18.02
626.37	17.65
626.703	17.6
627.035	17.88
627.368	17.78
627.7	17.9
628.032	17.95
628.365	17.74
628.697	17.91
629.029	18.08
629.361	17.94
629.693	18.17
630.025	18.32
630.357	17.77
630.689	17.78
631.021	18.17
631.353	18.31
631.684	17.77
632.016	18.16
632.348	18.59
632.679	18.26
633.011	18.49
633.342	18.17
633.674	18.36
634.005	18.7
634.336	18.29
634.668	18.42
634.999	18.33
635.33	18.62
635.661	18.42
635.992	18.63
636.323	18.65
636.654	18.46
636.985	19
637.316	18.47
637.647	18.68
637.977	18.48
638.308	18.97
638.639	19.01
638.969	19.21
639.3	18.86
639.63	18.55
639.961	19.45
640.291	19.32
640.622	18.77
640.952	19.33
641.282	19.21
641.612	19.22
641.943	18.84
642.273	19.11
642.603	19.59
642.933	19.44
643.263	19.14
643.592	19.27
643.922	18.8
644.252	19.45
644.582	19.34
644.911	19.5
645.241	19.44
645.571	19.79
645.9	19.74
646.23	19.32
646.559	19.32
646.888	19.21
647.218	19.8
647.547	19.64
647.876	19.93
648.205	20.08
648.534	20.25
648.863	19.78
649.192	20.07
649.521	19.78
649.85	19.78
650.179	19.76
650.508	20.12
650.837	20.11
651.165	19.79
651.494	20.43
651.822	19.92
652.151	20.2
652.479	20.46
652.808	20.2
653.136	19.92
653.465	20.63
653.793	20.21
654.121	20.18
654.449	20.12
654.777	20.63
655.105	20.35
655.433	20.28
655.761	20.66
656.089	20.37
656.417	20.38
656.745	20.2
657.073	20.13
657.4	20.45
657.728	20.6
658.056	20.57
658.383	20.73
658.711	21.04
659.038	20.54
659.365	20.69
659.693	20.93
660.02	21.16
660.347	21
660.674	20.87
661.001	21.06
661.329	20.74
661.656	20.86
661.982	20.61
662.309	21.22
662.636	20.95
662.963	21.2
663.29	21.14
663.616	21.6
663.943	20.88
664.27	20.76
664.596	21.17
664.923	21.04
665.249	21.56
665.576	21.31
665.902	21.25
666.228	21.31
666.554	22.01
666.881	21.61
667.207	21.65
667.533	21.62
667.859	21.69
668.185	22.43
668.511	22.17
668.837	21.81
669.162	21.76
669.488	22.28
669.814	21.6
670.139	21.6
670.465	21.94
670.791	21.78
671.116	21.58
671.442	21.96
671.767	21.89
672.092	21.71
672.418	21.93
672.743	21.88
673.068	22.81
673.393	21.91
673.718	22.27
674.043	21.94
674.368	22.27
674.693	22.7
675.018	21.85
675.343	22.86
675.667	21.93
675.992	22.72
676.317	22.33
676.641	21.3
676.966	22.46
677.29	22.16
677.615	22.56
677.939	22.28
678.264	22.71
678.588	22.35
678.912	21.87
679.236	22.43
679.56	22.41
679.885	22.25
680.209	22.2
680.532	22.78
680.856	22.88
681.18	22.46
681.504	22.73
681.828	22.66
682.152	23.17
682.475	23.35
