Data from 815644_forehead_Reflection__3__32.txt Node

Date: Fri Sep 16 14:32:40 CDT 2022
User: ToomeyLab
Spectrometer: FLMS14357
Trigger mode: 0
Integration Time (sec): 1.000000E-2
Scans to average: 100
Electric dark correction enabled: true
Nonlinearity correction enabled: false
Boxcar width: 0
XAxis mode: Wavelengths
Number of Pixels in Spectrum: 2048
>>>>>Begin Spectral Data<<<<<
189.047	136.92
189.435	136.92
189.823	136.92
190.211	-552.74
190.599	45.12
190.987	33.65
191.375	254.13
191.763	83.57
192.151	-282.07
192.538	-7973.53
192.926	-35.81
193.314	321.14
193.702	34.67
194.089	6.31
194.477	137.19
194.864	79.33
195.252	74.38
195.639	-1057.85
196.027	27.19
196.414	16.15
196.801	-18.95
197.189	87.17
197.576	-72.23
197.963	-293.49
198.351	16.59
198.738	44.26
199.125	60.35
199.512	-38.24
199.899	21.57
200.286	-3.88
200.673	26.43
201.06	41.47
201.447	49.38
201.833	22.91
202.22	32.27
202.607	25.74
202.994	74.5
203.38	60.04
203.767	9.4
204.154	25.79
204.54	8.79
204.927	36.11
205.313	38.65
205.699	55.46
206.086	26.84
206.472	21.21
206.858	44.24
207.245	9.14
207.631	17.53
208.017	24.19
208.403	-26.15
208.789	11.08
209.175	18.16
209.561	18.58
209.947	13.1
210.333	18.75
210.719	15.66
211.105	8.75
211.491	20.67
211.876	49.63
212.262	65.16
212.648	11.75
213.034	13.96
213.419	-2.39
213.805	51.97
214.19	35.37
214.576	10.32
214.961	17.63
215.346	8.21
215.732	-23.94
216.117	18.68
216.502	19.27
216.888	25.19
217.273	-0.04
217.658	39.52
218.043	-29.97
218.428	19.59
218.813	10.1
219.198	22
219.583	20.64
219.968	40.03
220.353	29.27
220.738	28.03
221.122	3.9
221.507	28.77
221.892	25.87
222.276	21.65
222.661	27.24
223.046	8.64
223.43	18.22
223.815	3.11
224.199	18.73
224.583	8.04
224.968	6.72
225.352	6.7
225.736	19
226.121	9.35
226.505	7.22
226.889	15.52
227.273	7.5
227.657	11.95
228.041	3.86
228.425	-1.15
228.809	7.3
229.193	5.51
229.577	3.64
229.961	3.29
230.344	5.17
230.728	3.74
231.112	4.05
231.495	3.12
231.879	7.05
232.263	4.49
232.646	3.81
233.03	4.23
233.413	5.58
233.797	4.99
234.18	4.98
234.563	4.83
234.946	4.7
235.33	3.85
235.713	3.78
236.096	3.11
236.479	5.43
236.862	3.94
237.245	5.04
237.628	5.69
238.011	3.96
238.394	4.39
238.777	5.32
239.16	3.77
239.543	4.83
239.925	5.44
240.308	5.42
240.691	5.65
241.073	4.98
241.456	3.98
241.838	3.63
242.221	3.62
242.603	3.7
242.986	3.31
243.368	3.64
243.75	3.66
244.133	3.65
244.515	3.76
244.897	3.83
245.279	4.23
245.661	4.15
246.043	3.91
246.425	3.58
246.807	3.62
247.189	3.53
247.571	2.72
247.953	3.3
248.335	3.82
248.717	3.44
249.098	3.37
249.48	3.53
249.862	3.45
250.243	3.9
250.625	3.62
251.006	3.39
251.388	3.96
251.769	3.39
252.151	3.67
252.532	3.56
252.913	4.03
253.295	3.79
253.676	3.56
254.057	3.26
254.438	3.27
254.819	2.83
255.2	2.78
255.581	3.92
255.962	3.95
256.343	4.62
256.724	3.07
257.105	3.95
257.486	4.16
257.867	3.98
258.247	4.19
258.628	5.03
259.009	3.92
259.389	3.8
259.77	4.01
260.15	3.67
260.531	3.32
260.911	3.21
261.292	3.08
261.672	3.18
262.052	3.02
262.432	3.13
262.813	3.96
263.193	3.44
263.573	3.74
263.953	3.68
264.333	3.6
264.713	2.99
265.093	2.71
265.473	3.14
265.853	3.91
266.233	3.32
266.612	4.93
266.992	2.72
267.372	3.66
267.752	2.78
268.131	3.12
268.511	3.8
268.89	3.94
269.27	2.76
269.649	3.69
270.029	3.59
270.408	3.92
270.787	3.89
271.167	2.76
271.546	3.61
271.925	3.72
272.304	3.54
272.683	2.9
273.062	3.47
273.441	3.63
273.82	3.2
274.199	3.56
274.578	3.35
274.957	3.58
275.336	3.57
275.715	3.34
276.093	4.15
276.472	3.49
276.851	3.54
277.229	3.97
277.608	3.29
277.986	3.39
278.365	2.78
278.743	3.5
279.122	3.68
279.5	3.45
279.878	3.62
280.257	3.43
280.635	3.61
281.013	3.54
281.391	3.42
281.769	3.76
282.147	3.3
282.525	2.9
282.903	3.79
283.281	3
283.659	3.32
284.037	3.41
284.415	3.99
284.792	3.58
285.17	3.49
285.548	3.01
285.925	3.44
286.303	3.51
286.68	2.99
287.058	2.98
287.435	3.2
287.813	3.71
288.19	3.05
288.567	3.3
288.945	2.95
289.322	3.63
289.699	3.1
290.076	3.31
290.453	3.53
290.83	3.56
291.207	3.29
291.584	3.1
291.961	3.33
292.338	3.37
292.715	3
293.092	3.47
293.469	3.53
293.845	3
294.222	3.6
294.599	3.41
294.975	3.23
295.352	3.82
295.728	3.13
296.105	3.98
296.481	3.74
296.858	3.2
297.234	3.93
297.61	3.63
297.986	3.52
298.363	3.3
298.739	3.2
299.115	3.55
299.491	3.79
299.867	3.34
300.243	3.05
300.619	3.69
300.995	3.38
301.371	3.42
301.746	3.17
302.122	4.07
302.498	3.45
302.874	4
303.249	3.83
303.625	3.32
304	3.56
304.376	3.77
304.751	3.85
305.127	3.22
305.502	3.61
305.878	3.55
306.253	3.78
306.628	3.29
307.003	4.05
307.378	3.9
307.754	3.94
308.129	4.68
308.504	3.94
308.879	3.79
309.254	3.9
309.629	3.39
310.003	3.64
310.378	3.77
310.753	3.42
311.128	4.07
311.502	3.25
311.877	3.72
312.252	3.78
312.626	3.93
313.001	3.52
313.375	3.92
313.75	3.71
314.124	3.44
314.498	3.89
314.873	4.62
315.247	4.12
315.621	3.96
315.995	3.63
316.369	4.14
316.743	4.03
317.117	4.01
317.491	4.03
317.865	4.25
318.239	4.52
318.613	3.93
318.987	3.25
319.361	3.35
319.734	4.18
320.108	3.76
320.482	4.41
320.855	4.04
321.229	4.2
321.602	4.33
321.976	4.24
322.349	4.14
322.723	4.3
323.096	4.15
323.469	4.16
323.843	4.78
324.216	5.03
324.589	4.68
324.962	4.24
325.335	4.56
325.708	4.41
326.081	4.61
326.454	4.15
326.827	4.67
327.2	4.64
327.573	4.12
327.945	4.52
328.318	4.94
328.691	4.63
329.063	4.74
329.436	3.85
329.809	4.66
330.181	4.47
330.553	4.61
330.926	4.63
331.298	5.26
331.671	4.65
332.043	4.45
332.415	4.75
332.787	4.89
333.159	4.47
333.532	5.32
333.904	5.2
334.276	4.9
334.648	4.49
335.02	4.7
335.391	5.32
335.763	4.51
336.135	4.31
336.507	5.05
336.879	5.07
337.25	4.52
337.622	4.67
337.993	5.1
338.365	4.96
338.736	5.6
339.108	5.02
339.479	5.24
339.851	5.25
340.222	5.22
340.593	5.3
340.964	5.34
341.336	5.08
341.707	5.22
342.078	5.25
342.449	5.16
342.82	4.92
343.191	5.08
343.562	5.11
343.933	5.13
344.303	5.44
344.674	5.03
345.045	5.78
345.416	5.23
345.786	5.37
346.157	5.46
346.527	5.33
346.898	5.24
347.268	5.36
347.639	5.08
348.009	5.76
348.38	5.6
348.75	5.01
349.12	5.61
349.49	5.83
349.861	5.78
350.231	5.45
350.601	5.6
350.971	5.36
351.341	5.84
351.711	5.76
352.081	5.46
352.45	6.28
352.82	5.92
353.19	5.5
353.56	5.63
353.929	6.39
354.299	5.92
354.669	5.97
355.038	6.14
355.408	6.1
355.777	5.84
356.147	5.92
356.516	6.08
356.885	5.89
357.254	6.14
357.624	6.17
357.993	5.86
358.362	5.65
358.731	6.34
359.1	6.02
359.469	5.8
359.838	6.2
360.207	6.3
360.576	6.4
360.945	6.1
361.314	6.13
361.682	5.91
362.051	6.39
362.42	6.81
362.788	6.53
363.157	6.19
363.525	6.29
363.894	6.36
364.262	6.27
364.631	6.52
364.999	6.35
365.367	6.66
365.735	6.64
366.104	6.64
366.472	6.62
366.84	6.67
367.208	6.91
367.576	6.79
367.944	6.66
368.312	6.8
368.68	6.85
369.048	6.89
369.416	6.57
369.783	6.89
370.151	7.09
370.519	6.91
370.886	6.76
371.254	6.66
371.621	7.39
371.989	6.99
372.356	7.43
372.724	7.5
373.091	6.9
373.458	6.97
373.826	7.12
374.193	7.33
374.56	6.86
374.927	7.05
375.294	7.29
375.661	7.26
376.028	7.57
376.395	7.25
376.762	7.71
377.129	7.03
377.496	7.34
377.863	7.37
378.229	7.54
378.596	7.39
378.963	7.39
379.329	7.44
379.696	7.8
380.062	7.54
380.429	7.72
380.795	7.87
381.161	8.03
381.528	7.81
381.894	7.78
382.26	7.82
382.626	7.85
382.993	7.83
383.359	7.81
383.725	7.86
384.091	7.74
384.457	7.49
384.823	7.73
385.188	7.95
385.554	8.11
385.92	8.06
386.286	7.88
386.651	8.14
387.017	8.07
387.383	7.76
387.748	7.91
388.114	7.93
388.479	7.97
388.845	8.29
389.21	8.51
389.575	8.24
389.94	8.56
390.306	8.32
390.671	8.49
391.036	8.44
391.401	8.48
391.766	8.49
392.131	8.58
392.496	8.34
392.861	8.66
393.226	8.45
393.591	8.5
393.956	8.6
394.32	8.81
394.685	8.49
395.05	8.83
395.414	8.52
395.779	8.44
396.143	8.59
396.508	8.46
396.872	8.64
397.236	8.82
397.601	8.8
397.965	8.88
398.329	8.91
398.694	8.88
399.058	9.24
399.422	9.04
399.786	9.07
400.15	9.28
400.514	9.08
400.878	9.47
401.242	9.11
401.605	8.92
401.969	9.03
402.333	9.27
402.697	9.17
403.06	9.38
403.424	9.26
403.787	9.43
404.151	9.59
404.514	9.35
404.878	9.45
405.241	9.31
405.604	9.46
405.968	9.45
406.331	9.4
406.694	9.62
407.057	9.41
407.42	9.4
407.783	9.85
408.146	9.84
408.509	9.52
408.872	9.67
409.235	9.77
409.598	9.96
409.961	9.96
410.323	9.86
410.686	9.97
411.049	9.74
411.411	9.66
411.774	10.06
412.136	9.75
412.499	9.98
412.861	10.16
413.223	10.12
413.586	10.21
413.948	10.11
414.31	10.38
414.672	9.91
415.035	10.46
415.397	10.07
415.759	10.09
416.121	10.29
416.483	10.16
416.845	10.64
417.206	10.37
417.568	10.54
417.93	10.6
418.292	10.53
418.653	10.34
419.015	10.56
419.377	10.46
419.738	10.32
420.1	10.6
420.461	10.51
420.822	10.42
421.184	10.45
421.545	10.51
421.906	10.54
422.267	10.55
422.629	10.38
422.99	10.47
423.351	10.64
423.712	10.49
424.073	10.78
424.434	10.68
424.795	10.85
425.155	10.84
425.516	10.92
425.877	10.75
426.238	10.97
426.598	10.83
426.959	10.96
427.32	10.99
427.68	11.15
428.041	11.03
428.401	11.18
428.761	11.49
429.122	11.36
429.482	11.36
429.842	11.68
430.202	11.64
430.563	11.55
430.923	11.56
431.283	11.88
431.643	11.86
432.003	11.89
432.363	11.81
432.722	11.91
433.082	11.98
433.442	12.07
433.802	12.18
434.161	12.01
434.521	12.01
434.881	11.91
435.24	11.99
435.6	12.04
435.959	11.96
436.319	12.08
436.678	12.38
437.037	12.29
437.396	12.35
437.756	12.57
438.115	12.27
438.474	12.5
438.833	12.53
439.192	12.4
439.551	12.43
439.91	12.44
440.269	12.68
440.628	12.62
440.987	12.59
441.345	12.6
441.704	12.79
442.063	12.7
442.421	12.59
442.78	12.61
443.138	12.73
443.497	12.75
443.855	12.93
444.214	13
444.572	13.02
444.93	13.03
445.288	13.19
445.647	13.1
446.005	13.07
446.363	13.09
446.721	13.18
447.079	13.02
447.437	13.14
447.795	13.18
448.153	13.15
448.51	13.13
448.868	13.16
449.226	13.2
449.584	13.36
449.941	13.39
450.299	13.47
450.656	13.48
451.014	13.58
451.371	13.8
451.729	13.67
452.086	13.72
452.443	14
452.801	13.99
453.158	14.19
453.515	13.99
453.872	14.06
454.229	13.98
454.586	14.05
454.943	14.03
455.3	14.25
455.657	13.95
456.014	14.33
456.371	14.26
456.727	14.27
457.084	14.58
457.441	14.49
457.797	14.43
458.154	14.47
458.51	14.65
458.867	14.56
459.223	14.55
459.58	14.75
459.936	14.73
460.292	14.76
460.648	14.61
461.005	14.63
461.361	14.37
461.717	14.44
462.073	14.48
462.429	14.51
462.785	14.74
463.141	14.8
463.496	14.99
463.852	15.13
464.208	15.08
464.564	15.08
464.919	15.11
465.275	15.24
465.631	15.26
465.986	15.3
466.342	15.43
466.697	15.47
467.052	15.48
467.408	15.44
467.763	15.49
468.118	15.6
468.473	15.5
468.829	15.65
469.184	15.55
469.539	15.71
469.894	15.76
470.249	15.82
470.603	15.88
470.958	15.77
471.313	16.08
471.668	15.78
472.023	16.01
472.377	16.09
472.732	16.09
473.086	15.96
473.441	16.02
473.795	16.12
474.15	16.12
474.504	16.3
474.859	16.38
475.213	16.37
475.567	16.2
475.921	16.34
476.275	16.5
476.63	16.51
476.984	16.52
477.338	16.59
477.692	16.7
478.045	16.57
478.399	16.54
478.753	16.51
479.107	16.62
479.461	16.81
479.814	16.73
480.168	16.61
480.521	16.78
480.875	16.76
481.228	16.83
481.582	16.85
481.935	16.87
482.289	16.89
482.642	16.92
482.995	16.78
483.348	16.74
483.701	16.76
484.055	16.78
484.408	16.73
484.761	16.47
485.114	16.35
485.466	16.21
485.819	16.15
486.172	16.18
486.525	16.24
486.878	16.38
487.23	16.63
487.583	16.69
487.936	16.79
488.288	16.88
488.641	16.77
488.993	16.7
489.345	16.62
489.698	16.63
490.05	16.75
490.402	16.76
490.754	16.95
491.107	17.14
491.459	17.27
491.811	17.33
492.163	17.52
492.515	17.51
492.866	17.25
493.218	17.17
493.57	17.02
493.922	17.08
494.274	17.31
494.625	17.49
494.977	17.55
495.328	17.85
495.68	17.96
496.031	18.09
496.383	18.34
496.734	18.36
497.086	18.29
497.437	18.24
497.788	18.45
498.139	18.34
498.49	18.35
498.842	18.2
499.193	18.35
499.544	18.29
499.894	18.36
500.245	18.52
500.596	18.54
500.947	18.65
501.298	18.59
501.648	18.83
501.999	18.81
502.35	18.83
502.7	18.97
503.051	18.97
503.401	18.86
503.752	19.08
504.102	19.18
504.452	19.08
504.803	19.27
505.153	19.3
505.503	19.27
505.853	19.14
506.203	19.19
506.553	19.06
506.903	19.21
507.253	19.28
507.603	19.52
507.953	19.42
508.303	19.55
508.652	19.38
509.002	19.65
509.352	19.51
509.701	19.55
510.051	19.57
510.4	19.37
510.75	19.54
511.099	19.45
511.449	19.64
511.798	19.47
512.147	19.42
512.496	19.68
512.846	19.79
513.195	19.64
513.544	19.68
513.893	19.73
514.242	19.82
514.591	19.88
514.939	19.75
515.288	20.03
515.637	19.99
515.986	20
516.334	20.05
516.683	20.18
517.032	20.17
517.38	20.32
517.729	20.35
518.077	20.47
518.426	20.4
518.774	20.39
519.122	20.25
519.47	20.24
519.819	20.13
520.167	20.02
520.515	19.97
520.863	19.98
521.211	20.21
521.559	20.22
521.907	20.35
522.255	20.37
522.602	20.68
522.95	20.69
523.298	20.64
523.645	20.85
523.993	20.85
524.341	20.83
524.688	20.87
525.036	20.79
525.383	20.91
525.73	21
526.078	20.86
526.425	20.98
526.772	20.88
527.119	20.6
527.466	20.73
527.814	20.6
528.161	20.71
528.508	20.66
528.854	20.84
529.201	20.77
529.548	20.59
529.895	20.47
530.242	20.42
530.588	20.3
530.935	20.38
531.282	20.45
531.628	20.46
531.975	20.68
532.321	20.9
532.667	21.02
533.014	21.2
533.36	21.25
533.706	21.31
534.052	21.24
534.399	21.3
534.745	21.07
535.091	20.9
535.437	20.99
535.783	20.96
536.129	21.29
536.474	21.35
536.82	21.45
537.166	21.52
537.512	21.75
537.857	21.7
538.203	21.5
538.549	21.6
538.894	21.49
539.239	21.73
539.585	21.89
539.93	21.94
540.276	22.19
540.621	22.3
540.966	22.29
541.311	22.3
541.656	22.25
542.001	22.12
542.346	21.95
542.691	21.82
543.036	21.57
543.381	21.48
543.726	21.55
544.071	21.63
544.415	21.8
544.76	21.99
545.105	22.09
545.449	22.33
545.794	22.24
546.138	22.47
546.483	22.53
546.827	22.6
547.171	22.62
547.516	22.62
547.86	22.7
548.204	22.74
548.548	22.68
548.892	22.55
549.236	22.69
549.58	23.01
549.924	23.08
550.268	23.08
550.612	23.23
550.956	23.25
551.3	23.48
551.643	23.6
551.987	23.73
552.33	23.66
552.674	23.6
553.017	23.56
553.361	23.81
553.704	23.66
554.048	23.77
554.391	23.72
554.734	23.63
555.077	23.57
555.42	23.66
555.764	23.71
556.107	23.72
556.45	23.97
556.793	24.01
557.135	24.16
557.478	24.09
557.821	24.05
558.164	24.25
558.507	24.32
558.849	24.13
559.192	24.19
559.534	24.46
559.877	24.21
560.219	24.12
560.562	24.49
560.904	24.37
561.246	24.47
561.589	24.49
561.931	24.63
562.273	24.45
562.615	24.58
562.957	24.53
563.299	24.64
563.641	24.54
563.983	24.69
564.325	24.66
564.667	24.78
565.008	24.79
565.35	24.98
565.692	24.69
566.033	24.94
566.375	24.78
566.716	24.94
567.058	24.78
567.399	24.87
567.741	24.7
568.082	24.95
568.423	24.66
568.764	24.78
569.105	24.94
569.447	24.93
569.788	25.11
570.129	25.25
570.47	25.22
570.811	25.23
571.151	25.24
571.492	25.16
571.833	25.32
572.174	25.43
572.514	25.36
572.855	25.3
573.195	25.43
573.536	25.25
573.876	25.39
574.217	25.19
574.557	25.4
574.898	25.47
575.238	25.53
575.578	25.34
575.918	25.59
576.258	25.59
576.598	25.6
576.938	25.67
577.278	25.62
577.618	25.63
577.958	25.66
578.298	25.85
578.638	25.8
578.977	25.86
579.317	25.92
579.657	26.03
579.996	26.1
580.336	26.11
580.675	26.08
581.014	26.43
581.354	26.2
581.693	26.2
582.032	26.33
582.372	26.4
582.711	26.64
583.05	26.36
583.389	26.48
583.728	26.76
584.067	26.84
584.406	26.9
584.745	26.68
585.083	27.01
585.422	26.6
585.761	27
586.1	26.64
586.438	27.11
586.777	26.67
587.115	27.02
587.454	26.95
587.792	27.06
588.13	27.19
588.469	26.93
588.807	26.81
589.145	27.15
589.483	27.12
589.821	27.32
590.159	26.81
590.497	27.21
590.835	27.42
591.173	27.34
591.511	27.23
591.849	27.33
592.187	27.06
592.524	27.17
592.862	27.19
593.2	26.92
593.537	27.43
593.875	27.57
594.212	27.51
594.55	27.43
594.887	27.7
595.224	27.66
595.561	27.6
595.899	27.3
596.236	27.76
596.573	27.4
596.91	27.67
597.247	27.58
597.584	27.51
597.921	27.65
598.258	27.44
598.594	27.27
598.931	27.21
599.268	27.4
599.604	27.34
599.941	27.66
600.277	27.64
600.614	27.75
600.95	27.74
601.287	27.8
601.623	27.92
601.959	28.28
602.296	27.87
602.632	28.23
602.968	28.04
603.304	28.19
603.64	28.03
603.976	28.4
604.312	27.97
604.648	28.12
604.984	28.32
605.319	28.31
605.655	28.29
605.991	28.23
606.326	28.04
606.662	27.95
606.998	28.04
607.333	27.94
607.668	28.21
608.004	28.25
608.339	28.66
608.674	28.94
609.01	28.81
609.345	28.84
609.68	28.56
610.015	28.95
610.35	28.77
610.685	28.76
611.02	28.52
611.355	28.77
611.689	28.69
612.024	28.73
612.359	28.69
612.694	28.74
613.028	28.7
613.363	28.78
613.697	28.99
614.032	28.9
614.366	28.92
614.7	29.25
615.035	29.06
615.369	28.9
615.703	29.14
616.037	29.41
616.371	29.1
616.705	29.52
617.039	29.51
617.373	29.44
617.707	29.59
618.041	29.34
618.375	29.8
618.709	29.12
619.042	29.68
619.376	29.28
619.71	29.89
620.043	29.52
620.377	29.56
620.71	29.83
621.043	30.02
621.377	29.97
621.71	29.56
622.043	29.66
622.376	29.59
622.709	29.89
623.043	29.93
623.376	29.64
623.709	29.81
624.041	29.94
624.374	29.71
624.707	30.09
625.04	30.26
625.373	29.62
625.705	30.27
626.038	30.22
626.37	30.14
626.703	30.17
627.035	30.19
627.368	30.32
627.7	29.89
628.032	29.86
628.365	30.09
628.697	30.02
629.029	30.33
629.361	30.19
629.693	30.34
630.025	30.01
630.357	30.1
630.689	30.28
631.021	30.55
631.353	30.29
631.684	30.37
632.016	30.45
632.348	30.63
632.679	30.32
633.011	30.59
633.342	30.22
633.674	30.83
634.005	30.82
634.336	30.28
634.668	30.65
634.999	30.81
635.33	30.44
635.661	30.66
635.992	30.5
636.323	30.56
636.654	30.85
636.985	31.09
637.316	30.8
637.647	30.71
637.977	30.56
638.308	30.95
638.639	31.05
638.969	30.97
639.3	31.19
639.63	31.04
639.961	31.23
640.291	31.16
640.622	31.37
640.952	30.99
641.282	31.38
641.612	31.57
641.943	31.24
642.273	31.36
642.603	31.81
642.933	31.21
643.263	31.21
643.592	31.34
643.922	30.69
644.252	31.32
644.582	31.48
644.911	31.31
645.241	31.89
645.571	31.83
645.9	31.88
646.23	31.69
646.559	31.11
646.888	31.16
647.218	31.75
647.547	31.9
647.876	31.78
648.205	31.74
648.534	32.16
648.863	31.95
649.192	32.3
649.521	31.67
649.85	31.92
650.179	32.05
650.508	32.25
650.837	32.29
651.165	31.5
651.494	31.84
651.822	32.05
652.151	32
652.479	32.05
652.808	31.98
653.136	31.84
653.465	32.41
653.793	32.1
654.121	32.14
654.449	32.54
654.777	32.09
655.105	32.27
655.433	32.27
655.761	32.07
656.089	31.78
656.417	31.97
656.745	32.34
657.073	32.97
657.4	32.62
657.728	32.75
658.056	32.44
658.383	32.26
658.711	32.97
659.038	32.23
659.365	32.38
659.693	32.38
660.02	32.48
660.347	32.65
660.674	32.56
661.001	32.37
661.329	32.32
661.656	32.29
661.982	32.22
662.309	32.6
662.636	32.42
662.963	32.79
663.29	32.69
663.616	32.97
663.943	32.85
664.27	32.58
664.596	32.81
664.923	32.44
665.249	32.61
665.576	32.71
665.902	33.28
666.228	33
666.554	33.67
666.881	33.26
667.207	33.53
667.533	33.45
667.859	33.12
668.185	33.09
668.511	33.28
668.837	33.36
669.162	33.02
669.488	33.58
669.814	32.72
670.139	32.75
670.465	33.32
670.791	33.12
671.116	33.53
671.442	33.36
671.767	32.98
672.092	32.3
672.418	33.88
672.743	33.13
673.068	33.31
673.393	33.47
673.718	34.07
674.043	33.24
674.368	33.68
674.693	33.51
675.018	33.63
