Data from 815644_chest_Reflection__1__25.txt Node

Date: Fri Sep 16 14:28:50 CDT 2022
User: ToomeyLab
Spectrometer: FLMS14357
Trigger mode: 0
Integration Time (sec): 1.000000E-2
Scans to average: 100
Electric dark correction enabled: true
Nonlinearity correction enabled: false
Boxcar width: 0
XAxis mode: Wavelengths
Number of Pixels in Spectrum: 2048
>>>>>Begin Spectral Data<<<<<
189.047	131.06
189.435	131.06
189.823	131.06
190.211	-4493.15
190.599	83.83
190.987	56.49
191.375	151.98
191.763	128.56
192.151	-12.51
192.538	2352.94
192.926	-70.83
193.314	536.91
193.702	59.44
194.089	91.51
194.477	-44.57
194.864	155.75
195.252	-48.06
195.639	-318.32
196.027	27.06
196.414	53.81
196.801	0.44
197.189	218.35
197.576	277.77
197.963	-427.7
198.351	-18.48
198.738	-30.4
199.125	27.68
199.512	-48.02
199.899	3.01
200.286	11.12
200.673	2.15
201.06	-6.15
201.447	8.93
201.833	-7.89
202.22	13.34
202.607	-69.03
202.994	10.68
203.38	-20.23
203.767	9.57
204.154	15.13
204.54	-53.55
204.927	-30.53
205.313	7.43
205.699	32.08
206.086	31.91
206.472	20.02
206.858	0.13
207.245	-3.59
207.631	-21.29
208.017	7.39
208.403	-17.27
208.789	-18.41
209.175	14.62
209.561	-10.93
209.947	-31.05
210.333	15.19
210.719	6.56
211.105	9.68
211.491	-9.47
211.876	16.01
212.262	25.42
212.648	-0.63
213.034	17.99
213.419	-34.2
213.805	0.61
214.19	28.47
214.576	-19.1
214.961	-0
215.346	-9.73
215.732	-35.16
216.117	25.7
216.502	9.3
216.888	-5.31
217.273	7.71
217.658	-5.9
218.043	-49.06
218.428	-2.83
218.813	-3.99
219.198	8.33
219.583	-3.46
219.968	4.04
220.353	-20.27
220.738	22.57
221.122	-21.53
221.507	16.28
221.892	3.74
222.276	19.75
222.661	12.32
223.046	9.22
223.43	3.77
223.815	-1.81
224.199	-0.49
224.583	6.17
224.968	3.14
225.352	3.94
225.736	15.86
226.121	4.41
226.505	8.12
226.889	6.54
227.273	3.75
227.657	5.7
228.041	4.95
228.425	-6.77
228.809	4.4
229.193	2.34
229.577	3.34
229.961	1.81
230.344	3.01
230.728	3.06
231.112	2.6
231.495	2.36
231.879	2.52
232.263	0.3
232.646	2.37
233.03	3.66
233.413	3.24
233.797	0.35
234.18	3.4
234.563	1.39
234.946	4.66
235.33	1.88
235.713	2.26
236.096	1.99
236.479	2.63
236.862	2.98
237.245	1.32
237.628	5.8
238.011	2.23
238.394	2.45
238.777	2.13
239.16	1.95
239.543	3.82
239.925	1.84
240.308	0.94
240.691	2.2
241.073	2.9
241.456	2.91
241.838	2.31
242.221	1.73
242.603	2.49
242.986	1.88
243.368	1.96
243.75	2.04
244.133	2.91
244.515	2.37
244.897	2.95
245.279	2.22
245.661	2.7
246.043	2.76
246.425	2.3
246.807	3.43
247.189	2.38
247.571	1.62
247.953	2.02
248.335	2.71
248.717	2.47
249.098	2.58
249.48	2.47
249.862	2.53
250.243	2.68
250.625	3.16
251.006	3.06
251.388	3.49
251.769	1.57
252.151	1.88
252.532	1.43
252.913	2.34
253.295	2.55
253.676	2.83
254.057	2.06
254.438	1.64
254.819	1.52
255.2	1.98
255.581	3.05
255.962	1.99
256.343	2.51
256.724	0.43
257.105	1.73
257.486	2.35
257.867	1.71
258.247	2.7
258.628	2.91
259.009	2.22
259.389	2.58
259.77	2.62
260.15	2.32
260.531	2.18
260.911	1.99
261.292	2.29
261.672	2.4
262.052	2.07
262.432	2.37
262.813	2.78
263.193	1.78
263.573	3.1
263.953	2.66
264.333	2.35
264.713	2.01
265.093	2.14
265.473	1.78
265.853	2.31
266.233	2.08
266.612	3.65
266.992	1.65
267.372	2.45
267.752	2.08
268.131	2.44
268.511	2.27
268.89	2.27
269.27	1.67
269.649	2.07
270.029	2.22
270.408	2.46
270.787	1.71
271.167	1.6
271.546	2.49
271.925	2.42
272.304	2.27
272.683	2.15
273.062	2.25
273.441	2.19
273.82	2.07
274.199	2.45
274.578	2.08
274.957	2.22
275.336	2.16
275.715	2.96
276.093	1.95
276.472	1.96
276.851	2.08
277.229	1.78
277.608	2.76
277.986	2.19
278.365	1.34
278.743	2.17
279.122	1.89
279.5	1.86
279.878	2.17
280.257	2.5
280.635	2.77
281.013	1.94
281.391	2.48
281.769	2.01
282.147	2.18
282.525	1.83
282.903	1.97
283.281	1.66
283.659	2.41
284.037	2.37
284.415	2.49
284.792	2.42
285.17	2.5
285.548	2.19
285.925	1.99
286.303	2.46
286.68	1.81
287.058	2.04
287.435	1.95
287.813	2.52
288.19	1.53
288.567	1.9
288.945	1.75
289.322	2.37
289.699	2.25
290.076	1.93
290.453	2.29
290.83	2.55
291.207	2.06
291.584	2.09
291.961	1.92
292.338	2.4
292.715	2.03
293.092	2.07
293.469	2.35
293.845	2.14
294.222	2.06
294.599	1.57
294.975	1.75
295.352	1.97
295.728	1.97
296.105	2.53
296.481	1.55
296.858	2.12
297.234	1.98
297.61	2.16
297.986	2.17
298.363	1.96
298.739	1.84
299.115	2.27
299.491	2.47
299.867	2.18
300.243	1.97
300.619	2.02
300.995	1.87
301.371	2.07
301.746	2.05
302.122	2.47
302.498	2.1
302.874	2.56
303.249	2.26
303.625	1.88
304	1.97
304.376	1.8
304.751	2.54
305.127	2.03
305.502	2.09
305.878	2.23
306.253	2.61
306.628	1.74
307.003	2.33
307.378	2.13
307.754	2.23
308.129	2.96
308.504	2.47
308.879	2.31
309.254	2.31
309.629	1.88
310.003	1.74
310.378	1.75
310.753	1.99
311.128	1.89
311.502	1.42
311.877	1.57
312.252	1.93
312.626	2.08
313.001	2.05
313.375	2.23
313.75	2.3
314.124	2.16
314.498	1.91
314.873	2.34
315.247	2.34
315.621	2.16
315.995	1.7
316.369	2.27
316.743	2.33
317.117	2.07
317.491	1.72
317.865	2.24
318.239	2.18
318.613	2.09
318.987	1.89
319.361	2
319.734	2.22
320.108	2.06
320.482	2.32
320.855	2.05
321.229	1.14
321.602	2.63
321.976	1.81
322.349	2.16
322.723	2.28
323.096	2.31
323.469	2.33
323.843	2.45
324.216	2.31
324.589	1.86
324.962	2.01
325.335	2.27
325.708	2.79
326.081	2.32
326.454	1.83
326.827	1.95
327.2	2.07
327.573	1.8
327.945	1.95
328.318	1.79
328.691	2.23
329.063	1.92
329.436	1.88
329.809	1.72
330.181	2.45
330.553	2.45
330.926	1.78
331.298	2.46
331.671	1.84
332.043	2
332.415	2.3
332.787	2.25
333.159	2.22
333.532	2.27
333.904	2.59
334.276	1.75
334.648	1.95
335.02	2.14
335.391	2.53
335.763	1.99
336.135	1.75
336.507	2.09
336.879	2.68
337.25	1.9
337.622	2.19
337.993	2.57
338.365	2.05
338.736	2.59
339.108	1.91
339.479	2.37
339.851	2.48
340.222	2.41
340.593	2.2
340.964	2.52
341.336	2.42
341.707	2.3
342.078	2.19
342.449	2.18
342.82	2.05
343.191	2.19
343.562	2.55
343.933	2.25
344.303	2.74
344.674	1.32
345.045	2.47
345.416	2.12
345.786	2.2
346.157	2.21
346.527	2.23
346.898	2.01
347.268	2.33
347.639	1.93
348.009	2.36
348.38	2.35
348.75	1.65
349.12	2
349.49	2.11
349.861	2.63
350.231	1.95
350.601	2.31
350.971	2.24
351.341	2.3
351.711	2.1
352.081	2
352.45	2.31
352.82	2.71
353.19	2.15
353.56	2.39
353.929	2.1
354.299	2.22
354.669	2.29
355.038	2.33
355.408	2.39
355.777	2.28
356.147	2.42
356.516	2.29
356.885	2.37
357.254	2.56
357.624	1.92
357.993	2.3
358.362	2.11
358.731	2.47
359.1	2.33
359.469	2.23
359.838	2.36
360.207	2.11
360.576	2.36
360.945	2.34
361.314	2.03
361.682	1.88
362.051	2.48
362.42	2.58
362.788	2.54
363.157	2.19
363.525	2.22
363.894	2.35
364.262	2.15
364.631	2.33
364.999	2.36
365.367	2.26
365.735	2.37
366.104	2.52
366.472	2.48
366.84	2.53
367.208	2.61
367.576	2.57
367.944	1.93
368.312	2.46
368.68	2.68
369.048	2.58
369.416	2.31
369.783	2.44
370.151	2.4
370.519	2.26
370.886	2.34
371.254	2.28
371.621	2.78
371.989	2.06
372.356	2.57
372.724	2.6
373.091	2.3
373.458	2.27
373.826	2.22
374.193	2.45
374.56	2
374.927	2.27
375.294	2.23
375.661	2.69
376.028	2.72
376.395	2.18
376.762	2.84
377.129	2.28
377.496	2.47
377.863	2.5
378.229	2.52
378.596	2.15
378.963	2.29
379.329	2.31
379.696	2.46
380.062	2.41
380.429	2.45
380.795	2.48
381.161	2.55
381.528	2.71
381.894	2.41
382.26	2.59
382.626	2.36
382.993	2.48
383.359	2.48
383.725	2.48
384.091	2.66
384.457	2.14
384.823	2.32
385.188	2.27
385.554	2.08
385.92	2.32
386.286	2.41
386.651	2.17
387.017	2.53
387.383	2.22
387.748	2.03
388.114	2.13
388.479	2.56
388.845	2.63
389.21	2.51
389.575	2.34
389.94	2.69
390.306	2.33
390.671	2.41
391.036	2.28
391.401	2.37
391.766	2.72
392.131	2.72
392.496	2.19
392.861	2.28
393.226	2.54
393.591	2.41
393.956	2.38
394.32	2.55
394.685	2.23
395.05	2.55
395.414	2.45
395.779	2.51
396.143	2.53
396.508	2.37
396.872	2.62
397.236	2.51
397.601	2.5
397.965	2.27
398.329	2.46
398.694	2.27
399.058	2.55
399.422	2.38
399.786	2.58
400.15	2.52
400.514	2.43
400.878	2.87
401.242	2.44
401.605	2.59
401.969	2.53
402.333	2.49
402.697	2.36
403.06	2.81
403.424	2.51
403.787	2.32
404.151	2.39
404.514	2.43
404.878	2.46
405.241	2.57
405.604	2.75
405.968	2.6
406.331	2.5
406.694	2.55
407.057	2.27
407.42	2.52
407.783	2.54
408.146	2.84
408.509	2.45
408.872	2.57
409.235	2.83
409.598	2.53
409.961	2.46
410.323	2.61
410.686	2.69
411.049	2.81
411.411	2.52
411.774	2.66
412.136	2.42
412.499	2.48
412.861	2.66
413.223	2.55
413.586	2.52
413.948	2.59
414.31	2.76
414.672	2.52
415.035	2.7
415.397	2.5
415.759	2.57
416.121	2.49
416.483	2.46
416.845	2.75
417.206	2.74
417.568	2.8
417.93	2.83
418.292	2.51
418.653	2.46
419.015	2.48
419.377	2.54
419.738	2.51
420.1	2.54
420.461	2.65
420.822	2.51
421.184	2.58
421.545	2.5
421.906	2.56
422.267	2.53
422.629	2.49
422.99	2.55
423.351	2.62
423.712	2.52
424.073	2.63
424.434	2.58
424.795	2.62
425.155	2.64
425.516	2.62
425.877	2.5
426.238	2.5
426.598	2.55
426.959	2.6
427.32	2.58
427.68	2.62
428.041	2.53
428.401	2.65
428.761	2.69
429.122	2.61
429.482	2.62
429.842	2.62
430.202	2.74
430.563	2.64
430.923	2.64
431.283	2.87
431.643	2.79
432.003	2.71
432.363	2.64
432.722	2.86
433.082	2.77
433.442	2.73
433.802	2.7
434.161	2.66
434.521	2.76
434.881	2.7
435.24	2.63
435.6	2.67
435.959	2.8
436.319	2.75
436.678	2.79
437.037	2.61
437.396	2.67
437.756	2.87
438.115	2.67
438.474	2.74
438.833	2.7
439.192	2.88
439.551	2.64
439.91	2.67
440.269	2.78
440.628	2.66
440.987	2.69
441.345	2.69
441.704	2.73
442.063	2.67
442.421	2.72
442.78	2.63
443.138	2.67
443.497	2.65
443.855	2.64
444.214	2.61
444.572	2.73
444.93	2.68
445.288	2.7
445.647	2.62
446.005	2.6
446.363	2.75
446.721	2.73
447.079	2.65
447.437	2.72
447.795	2.72
448.153	2.74
448.51	2.71
448.868	2.69
449.226	2.75
449.584	2.76
449.941	2.65
450.299	2.71
450.656	2.72
451.014	2.92
451.371	2.79
451.729	2.69
452.086	2.82
452.443	2.76
452.801	2.81
453.158	2.87
453.515	2.74
453.872	2.76
454.229	2.69
454.586	2.65
454.943	2.65
455.3	2.83
455.657	2.69
456.014	2.79
456.371	2.68
456.727	2.77
457.084	2.89
457.441	2.8
457.797	2.74
458.154	2.81
458.51	2.73
458.867	2.71
459.223	2.89
459.58	2.96
459.936	2.74
460.292	2.78
460.648	2.7
461.005	2.78
461.361	2.7
461.717	2.72
462.073	2.76
462.429	2.76
462.785	2.83
463.141	2.85
463.496	2.88
463.852	2.87
464.208	2.8
464.564	2.74
464.919	2.9
465.275	2.85
465.631	2.83
465.986	2.84
466.342	2.85
466.697	2.85
467.052	2.85
467.408	2.93
467.763	2.83
468.118	2.8
468.473	2.92
468.829	2.89
469.184	2.73
469.539	2.91
469.894	2.99
470.249	2.89
470.603	2.86
470.958	2.85
471.313	3
471.668	2.83
472.023	2.83
472.377	2.88
472.732	2.8
473.086	2.71
473.441	2.78
473.795	2.81
474.15	2.73
474.504	2.98
474.859	3
475.213	2.9
475.567	2.75
475.921	3.09
476.275	3
476.63	2.97
476.984	2.93
477.338	3.01
477.692	2.74
478.045	2.97
478.399	2.91
478.753	2.81
479.107	2.85
479.461	2.81
479.814	2.97
480.168	2.84
480.521	2.79
480.875	2.96
481.228	2.92
481.582	2.88
481.935	2.97
482.289	2.9
482.642	2.93
482.995	2.93
483.348	2.83
483.701	2.88
484.055	2.79
484.408	2.95
484.761	2.72
485.114	2.7
485.466	2.66
485.819	2.7
486.172	2.7
486.525	2.77
486.878	2.79
487.23	2.81
487.583	2.89
487.936	2.84
488.288	2.85
488.641	2.78
488.993	2.78
489.345	2.72
489.698	2.75
490.05	2.78
490.402	2.78
490.754	2.86
491.107	2.84
491.459	2.89
491.811	2.89
492.163	2.86
492.515	2.81
492.866	2.8
493.218	2.79
493.57	2.77
493.922	2.82
494.274	2.87
494.625	2.9
494.977	2.95
495.328	2.92
495.68	2.84
496.031	2.89
496.383	3.01
496.734	2.95
497.086	2.91
497.437	3.07
497.788	3.07
498.139	3
498.49	3.07
498.842	2.96
499.193	2.9
499.544	2.95
499.894	2.98
500.245	3
500.596	2.96
500.947	3.04
501.298	2.97
501.648	3.11
501.999	3.01
502.35	2.95
502.7	3.01
503.051	3.1
503.401	2.97
503.752	3.09
504.102	3.17
504.452	3.03
504.803	3.1
505.153	3.04
505.503	2.98
505.853	3.05
506.203	3.15
506.553	2.99
506.903	3.01
507.253	2.93
507.603	3.04
507.953	3.09
508.303	3.07
508.652	2.99
509.002	3.02
509.352	3.02
509.701	3.08
510.051	3.12
510.4	2.99
510.75	3.1
511.099	2.99
511.449	2.94
511.798	2.89
512.147	3.02
512.496	3.12
512.846	2.99
513.195	3.11
513.544	3.05
513.893	3.12
514.242	3.06
514.591	3.14
514.939	3.17
515.288	3.19
515.637	3.13
515.986	2.92
516.334	3.08
516.683	3.05
517.032	3.15
517.38	3.26
517.729	3.25
518.077	3.26
518.426	3.17
518.774	3.18
519.122	3.2
519.47	3.2
519.819	3.08
520.167	3.1
520.515	3.09
520.863	3.11
521.211	3.11
521.559	3.08
521.907	3.09
522.255	3.11
522.602	3.15
522.95	3.3
523.298	3.25
523.645	3.28
523.993	3.23
524.341	3.29
524.688	3.34
525.036	3.21
525.383	3.27
525.73	3.29
526.078	3.17
526.425	3.25
526.772	3.12
527.119	3.08
527.466	3.17
527.814	3.15
528.161	3.13
528.508	3.22
528.854	3.28
529.201	3.14
529.548	3.11
529.895	3.11
530.242	3.09
530.588	3.09
530.935	3.09
531.282	3.14
531.628	3.18
531.975	3.16
532.321	3.19
532.667	3.24
533.014	3.29
533.36	3.18
533.706	3.27
534.052	3.21
534.399	3.28
534.745	3.23
535.091	3.19
535.437	3.18
535.783	3.28
536.129	3.34
536.474	3.27
536.82	3.29
537.166	3.37
537.512	3.38
537.857	3.3
538.203	3.23
538.549	3.31
538.894	3.21
539.239	3.4
539.585	3.39
539.93	3.34
540.276	3.51
540.621	3.55
540.966	3.4
541.311	3.44
541.656	3.38
542.001	3.33
542.346	3.33
542.691	3.32
543.036	3.21
543.381	3.23
543.726	3.29
544.071	3.3
544.415	3.34
544.76	3.36
545.105	3.39
545.449	3.42
545.794	3.48
546.138	3.42
546.483	3.46
546.827	3.44
547.171	3.53
547.516	3.38
547.86	3.37
548.204	3.44
548.548	3.45
548.892	3.4
549.236	3.51
549.58	3.62
549.924	3.61
550.268	3.49
550.612	3.59
550.956	3.61
551.3	3.68
551.643	3.74
551.987	3.88
552.33	3.6
552.674	3.62
553.017	3.62
553.361	3.83
553.704	3.62
554.048	3.82
554.391	3.7
554.734	3.66
555.077	3.63
555.42	3.8
555.764	3.72
556.107	3.75
556.45	3.48
556.793	3.84
557.135	3.68
557.478	3.49
557.821	3.71
558.164	3.9
558.507	3.8
558.849	3.63
559.192	3.77
559.534	3.94
559.877	3.76
560.219	3.55
560.562	3.85
560.904	3.78
561.246	3.75
561.589	3.76
561.931	3.75
562.273	3.91
562.615	3.91
562.957	3.9
563.299	4.01
563.641	3.95
563.983	3.85
564.325	3.82
564.667	3.82
565.008	4.01
565.35	3.85
565.692	3.87
566.033	3.81
566.375	3.89
566.716	4
567.058	3.98
567.399	4.09
567.741	3.86
568.082	4.04
568.423	3.87
568.764	3.97
569.105	4.06
569.447	4.14
569.788	4.01
570.129	4.1
570.47	4.24
570.811	4.08
571.151	4.02
571.492	4.12
571.833	4.11
572.174	4.05
572.514	4.24
572.855	4.15
573.195	4.11
573.536	4.11
573.876	4.11
574.217	4.15
574.557	4.13
574.898	4.26
575.238	4.18
575.578	4.19
575.918	4.3
576.258	4.13
576.598	4.1
576.938	4.19
577.278	4.21
577.618	4.29
577.958	4.26
578.298	4.23
578.638	4.34
578.977	4.36
579.317	4.38
579.657	4.4
579.996	4.21
580.336	4.51
580.675	4.24
581.014	4.33
581.354	4.28
581.693	4.32
582.032	4.58
582.372	4.4
582.711	4.58
583.05	4.5
583.389	4.51
583.728	4.64
584.067	4.39
584.406	4.53
584.745	4.52
585.083	4.66
585.422	4.6
585.761	4.62
586.1	4.61
586.438	4.85
586.777	4.42
587.115	4.69
587.454	4.68
587.792	4.41
588.13	4.92
588.469	4.56
588.807	4.57
589.145	4.55
589.483	4.84
589.821	4.77
590.159	4.59
590.497	4.55
590.835	4.88
591.173	4.85
591.511	4.77
591.849	4.74
592.187	4.58
592.524	4.6
592.862	4.98
593.2	4.63
593.537	4.63
593.875	4.91
594.212	4.72
594.55	4.76
594.887	5
595.224	4.79
595.561	4.94
595.899	4.99
596.236	5.17
596.573	4.76
596.91	5.13
597.247	4.89
597.584	4.85
597.921	4.94
598.258	4.75
598.594	4.75
598.931	4.85
599.268	4.85
599.604	4.95
599.941	4.87
600.277	4.99
600.614	5.02
600.95	5.12
601.287	5.06
601.623	5.26
601.959	5.33
602.296	4.87
602.632	5.3
602.968	5.2
603.304	5.02
603.64	5.31
603.976	5.62
604.312	5.29
604.648	5.24
604.984	5.21
605.319	5.44
605.655	5.42
605.991	5.31
606.326	5.12
606.662	5.26
606.998	5.29
607.333	5.38
607.668	5.5
608.004	5.37
608.339	5.24
608.674	5.44
609.01	5.42
609.345	5.47
609.68	5.49
610.015	5.45
610.35	5.38
610.685	5.52
611.02	5.51
611.355	5.59
611.689	5.57
612.024	5.54
612.359	5.44
612.694	5.56
613.028	5.5
613.363	5.6
613.697	5.54
614.032	5.69
614.366	5.27
614.7	5.74
615.035	5.4
615.369	5.54
615.703	5.73
616.037	5.64
616.371	5.71
616.705	5.62
617.039	5.95
617.373	5.26
617.707	5.8
618.041	5.79
618.375	6.11
618.709	5.74
619.042	5.68
619.376	5.76
619.71	6.04
620.043	6.05
620.377	6.06
620.71	5.93
621.043	5.94
621.377	5.87
621.71	5.99
622.043	5.72
622.376	6.15
622.709	5.98
623.043	5.82
623.376	5.98
623.709	5.73
624.041	6.21
624.374	5.91
624.707	5.97
625.04	6.26
625.373	5.58
625.705	5.96
626.038	6.25
626.37	6.35
626.703	5.84
627.035	6.17
627.368	6.59
627.7	6.63
628.032	6
628.365	6.34
628.697	6.27
629.029	6.64
629.361	6.48
629.693	6.34
630.025	6.28
630.357	6.53
630.689	6.33
631.021	6.51
631.353	6.76
631.684	6.33
632.016	6.32
632.348	6.92
632.679	6.37
633.011	6.32
633.342	6.46
633.674	6.93
634.005	6.46
634.336	6.37
634.668	6.61
634.999	6.25
635.33	6.69
635.661	6.55
635.992	6.43
636.323	6.42
636.654	6.37
636.985	6.52
637.316	6.69
637.647	6.47
637.977	6.43
638.308	6.51
638.639	6.93
638.969	6.81
639.3	6.88
639.63	6.62
639.961	6.87
640.291	7.03
640.622	6.84
640.952	6.96
641.282	7.16
641.612	6.91
641.943	6.99
642.273	6.72
642.603	7.22
642.933	6.99
643.263	7.01
643.592	6.89
643.922	6.61
644.252	6.9
644.582	7.21
644.911	7.17
645.241	7.48
645.571	7.2
645.9	6.97
646.23	7.33
646.559	6.75
646.888	6.89
647.218	7.38
647.547	7.32
647.876	7.83
648.205	7.27
648.534	7.05
648.863	6.97
649.192	7.19
649.521	6.94
649.85	7.68
650.179	7.04
650.508	7.33
650.837	7.53
651.165	7.26
651.494	7.74
651.822	7
652.151	7.28
652.479	7.45
652.808	7.79
653.136	7.23
653.465	7.62
653.793	7.45
654.121	7.77
654.449	7.42
654.777	7.78
655.105	7.88
655.433	7.72
655.761	7.95
656.089	7.28
656.417	7.68
656.745	7.57
657.073	8.32
657.4	7.71
657.728	8.19
658.056	7.56
658.383	7.4
658.711	7.92
659.038	8.06
659.365	8.08
659.693	7.64
660.02	7.93
660.347	7.66
660.674	7.84
661.001	8.01
661.329	7.9
661.656	7.42
661.982	7.78
662.309	8.16
662.636	8.24
662.963	8.36
663.29	8.26
663.616	8.03
663.943	8.44
664.27	8.13
664.596	8.06
664.923	7.7
665.249	8.36
665.576	8.15
665.902	8.29
666.228	8.05
666.554	8.81
666.881	8.57
667.207	8.3
667.533	8.56
667.859	8.9
668.185	8.55
668.511	8.37
668.837	8.32
669.162	8.32
669.488	8.95
669.814	8.48
670.139	7.82
670.465	8.54
670.791	8.47
671.116	8.6
671.442	8.39
671.767	8.24
672.092	8.01
672.418	8.46
672.743	8.47
673.068	9.45
673.393	8.32
673.718	8.87
674.043	8.05
674.368	8.77
674.693	9.42
675.018	8.77
675.343	9.23
675.667	8.6
675.992	8.77
676.317	8.94
676.641	8.75
676.966	9
677.29	8.9
677.615	9.67
677.939	8.72
678.264	8.72
678.588	8.56
678.912	8.85
679.236	9
679.56	8.64
679.885	8.58
680.209	8.36
680.532	9.29
680.856	8.99
681.18	9.13
681.504	9.28
681.828	9.04
682.152	8.94
682.475	9.04
682.799	9.39
683.122	8.76
683.446	9.06
683.769	8.95
684.093	9.19
684.416	9.02
684.739	9.03
685.062	9.53
685.386	9.26
685.709	9.37
686.032	9.55
686.355	9.2
686.678	9
687.001	8.94
687.324	9.36
687.646	10.06
687.969	9.38
688.292	9.45
688.614	9.31
688.937	9.96
689.26	9.59
689.582	9.75
689.904	9.59
690.227	9.95
690.549	9.79
690.871	10.09
691.194	9.43
691.516	9.36
691.838	9.08
692.16	9.88
692.482	9.42
692.804	9.58
