Data from 815644_crown_Reflection__4__38.txt Node

Date: Fri Sep 16 14:35:17 CDT 2022
User: ToomeyLab
Spectrometer: FLMS14357
Trigger mode: 0
Integration Time (sec): 1.000000E-2
Scans to average: 100
Electric dark correction enabled: true
Nonlinearity correction enabled: false
Boxcar width: 0
XAxis mode: Wavelengths
Number of Pixels in Spectrum: 2048
>>>>>Begin Spectral Data<<<<<
189.047	95.79
189.435	95.79
189.823	95.79
190.211	-583.56
190.599	27.06
190.987	110.55
191.375	234.22
191.763	48.28
192.151	-55.2
192.538	4035.29
192.926	103.29
193.314	585.68
193.702	44.96
194.089	49.81
194.477	11.93
194.864	-10.87
195.252	15.24
195.639	-250.26
196.027	72.44
196.414	16.76
196.801	64.84
197.189	86.62
197.576	-98.29
197.963	-9.42
198.351	-85.1
198.738	-23.54
199.125	7.64
199.512	-73.33
199.899	22.11
200.286	9.78
200.673	18.22
201.06	14.52
201.447	5.48
201.833	37.3
202.22	32.29
202.607	-35.2
202.994	28.31
203.38	3.83
203.767	12.33
204.154	11.38
204.54	-6.48
204.927	-10.12
205.313	48.24
205.699	57.23
206.086	35.3
206.472	15.04
206.858	24.7
207.245	19.37
207.631	22.14
208.017	-3.18
208.403	-8.54
208.789	18.12
209.175	1.76
209.561	5.07
209.947	16.41
210.333	3.58
210.719	27.05
211.105	4.62
211.491	25.25
211.876	0.39
212.262	18.91
212.648	-1.75
213.034	-8.59
213.419	13.5
213.805	8.78
214.19	22.93
214.576	15.02
214.961	-16.97
215.346	-12.81
215.732	-0.69
216.117	9.62
216.502	-2.38
216.888	-21.04
217.273	2.92
217.658	-12.53
218.043	-37
218.428	19.31
218.813	6.28
219.198	8.95
219.583	11.13
219.968	24.59
220.353	-12.86
220.738	14.73
221.122	-6.5
221.507	15.52
221.892	3.84
222.276	20.12
222.661	16.9
223.046	2.23
223.43	11.38
223.815	-2.95
224.199	6.25
224.583	7.64
224.968	9.29
225.352	2.12
225.736	8.33
226.121	14.01
226.505	9
226.889	9.06
227.273	9.61
227.657	2.41
228.041	6.65
228.425	1.9
228.809	8.47
229.193	7.59
229.577	7.78
229.961	6.47
230.344	7.13
230.728	5.46
231.112	6.55
231.495	5.58
231.879	7.69
232.263	5.88
232.646	4.22
233.03	5.69
233.413	7.57
233.797	5.24
234.18	8.41
234.563	7
234.946	7.74
235.33	7.12
235.713	7.52
236.096	4.22
236.479	5.43
236.862	7.2
237.245	5.29
237.628	7.85
238.011	7.64
238.394	5.27
238.777	6.62
239.16	5.52
239.543	6.09
239.925	6.71
240.308	6.47
240.691	6.49
241.073	5.31
241.456	3.57
241.838	5.7
242.221	6.19
242.603	5.37
242.986	5.19
243.368	6.88
243.75	5.72
244.133	6.4
244.515	5.59
244.897	5.74
245.279	5.89
245.661	5.24
246.043	6.05
246.425	5.91
246.807	6.22
247.189	5.36
247.571	5.46
247.953	5.61
248.335	5.5
248.717	5.63
249.098	5.59
249.48	5.85
249.862	5.59
250.243	5.43
250.625	6.11
251.006	6.01
251.388	6.15
251.769	5.08
252.151	5.55
252.532	5.24
252.913	6.8
253.295	5.09
253.676	5.97
254.057	5.19
254.438	4.58
254.819	4.33
255.2	5.2
255.581	5.99
255.962	4.93
256.343	6.01
256.724	5.78
257.105	4.54
257.486	5.96
257.867	4.99
258.247	5.83
258.628	5.47
259.009	5.66
259.389	5.29
259.77	4.72
260.15	5.5
260.531	4.77
260.911	5.13
261.292	5.2
261.672	5.25
262.052	4.85
262.432	5.5
262.813	5.55
263.193	5.02
263.573	5.15
263.953	5.34
264.333	5.7
264.713	4.78
265.093	4.68
265.473	4.85
265.853	5.34
266.233	5.2
266.612	6.12
266.992	4.4
267.372	5.19
267.752	4.45
268.131	5.02
268.511	5.57
268.89	5.41
269.27	4.23
269.649	4.6
270.029	5.03
270.408	5.45
270.787	5.18
271.167	5.06
271.546	5.32
271.925	5.04
272.304	5.63
272.683	4.66
273.062	4.75
273.441	5.07
273.82	5.09
274.199	5.22
274.578	4.97
274.957	4.93
275.336	4.8
275.715	5.35
276.093	5.21
276.472	5.16
276.851	4.31
277.229	4.99
277.608	5.59
277.986	5.31
278.365	4.53
278.743	5.29
279.122	4.79
279.5	4.69
279.878	5.38
280.257	5.01
280.635	4.75
281.013	4.35
281.391	5.44
281.769	5.48
282.147	5.25
282.525	4.52
282.903	5.18
283.281	4.56
283.659	5.15
284.037	5.01
284.415	4.97
284.792	5.16
285.17	4.6
285.548	4.82
285.925	4.3
286.303	4.95
286.68	4.73
287.058	4.69
287.435	4.85
287.813	5.02
288.19	4.34
288.567	4.7
288.945	4.67
289.322	4.93
289.699	4.52
290.076	4.95
290.453	4.79
290.83	4.59
291.207	4.77
291.584	4.13
291.961	4.74
292.338	4.7
292.715	4.25
293.092	4.69
293.469	4.91
293.845	4.77
294.222	4.65
294.599	4.48
294.975	4.82
295.352	5.18
295.728	4.56
296.105	4.99
296.481	4.28
296.858	4.56
297.234	4.3
297.61	4.68
297.986	4.64
298.363	4.52
298.739	4.26
299.115	4.69
299.491	4.82
299.867	4.54
300.243	4.43
300.619	4.94
300.995	4.29
301.371	4.75
301.746	4.17
302.122	5.06
302.498	4.93
302.874	4.54
303.249	4.68
303.625	4.25
304	4.41
304.376	4.07
304.751	4.87
305.127	4.25
305.502	4.44
305.878	4.82
306.253	4.48
306.628	4.29
307.003	4.63
307.378	4.62
307.754	4.86
308.129	5.33
308.504	5.03
308.879	4.72
309.254	4.47
309.629	4.68
310.003	3.97
310.378	4.12
310.753	4.12
311.128	4.52
311.502	4.27
311.877	4.58
312.252	4.34
312.626	4.42
313.001	4.4
313.375	4.69
313.75	4.21
314.124	4.34
314.498	4.59
314.873	4.8
315.247	4.26
315.621	4.58
315.995	4.07
316.369	4.27
316.743	4.77
317.117	4.53
317.491	4.36
317.865	4.39
318.239	4.63
318.613	3.74
318.987	3.88
319.361	4.18
319.734	4.42
320.108	4.35
320.482	4.7
320.855	4.34
321.229	4.7
321.602	4.84
321.976	4.72
322.349	4.8
322.723	4.32
323.096	4.82
323.469	4.17
323.843	5
324.216	4.78
324.589	4.46
324.962	4.38
325.335	4.88
325.708	4.71
326.081	4.31
326.454	5
326.827	4.33
327.2	4.18
327.573	3.85
327.945	4.34
328.318	4.45
328.691	4.36
329.063	4.19
329.436	4.16
329.809	3.47
330.181	4.63
330.553	4.61
330.926	4.51
331.298	4.51
331.671	4.45
332.043	4.53
332.415	4.34
332.787	4.89
333.159	4.21
333.532	5.05
333.904	4.32
334.276	4.13
334.648	4.1
335.02	4.31
335.391	4.66
335.763	4.17
336.135	3.85
336.507	4.61
336.879	4.9
337.25	3.88
337.622	4.22
337.993	4.7
338.365	4.82
338.736	5.04
339.108	4.66
339.479	4.8
339.851	4.39
340.222	4.39
340.593	4.57
340.964	4.51
341.336	4.17
341.707	4.53
342.078	4.75
342.449	4.23
342.82	4.55
343.191	4.52
343.562	4.73
343.933	4.3
344.303	4.88
344.674	4.2
345.045	4.71
345.416	4.25
345.786	4.5
346.157	4.25
346.527	4.53
346.898	4.61
347.268	5
347.639	4.25
348.009	4.62
348.38	4.57
348.75	4.17
349.12	4.84
349.49	4.58
349.861	4.6
350.231	4.38
350.601	4.37
350.971	4.75
351.341	4.41
351.711	4.77
352.081	4.22
352.45	4.66
352.82	4.88
353.19	4.42
353.56	4.68
353.929	4.81
354.299	4.29
354.669	4.62
355.038	4.32
355.408	4.38
355.777	4.62
356.147	4.65
356.516	4.63
356.885	4.65
357.254	4.86
357.624	4.52
357.993	4.18
358.362	4.51
358.731	4.79
359.1	4.5
359.469	4.52
359.838	4.52
360.207	4.7
360.576	4.52
360.945	4.49
361.314	4.32
361.682	4.32
362.051	4.66
362.42	4.7
362.788	4.68
363.157	4.56
363.525	4.51
363.894	4.66
364.262	4.48
364.631	4.74
364.999	4.54
365.367	4.6
365.735	4.7
366.104	4.54
366.472	4.83
366.84	4.73
367.208	4.94
367.576	4.56
367.944	4.43
368.312	4.68
368.68	4.86
369.048	5.03
369.416	4.49
369.783	4.7
370.151	4.75
370.519	5.04
370.886	4.61
371.254	4.97
371.621	4.81
371.989	4.53
372.356	4.91
372.724	4.84
373.091	4.65
373.458	4.43
373.826	4.65
374.193	4.82
374.56	4.44
374.927	4.46
375.294	4.72
375.661	5
376.028	4.99
376.395	4.33
376.762	4.89
377.129	4.78
377.496	4.8
377.863	5
378.229	5.05
378.596	4.59
378.963	4.82
379.329	4.86
379.696	4.92
380.062	4.84
380.429	5.09
380.795	4.79
381.161	5.13
381.528	4.93
381.894	4.82
382.26	4.72
382.626	5.05
382.993	4.94
383.359	4.71
383.725	5.05
384.091	4.76
384.457	4.52
384.823	4.88
385.188	4.97
385.554	4.61
385.92	4.7
386.286	5.01
386.651	4.92
387.017	4.66
387.383	4.45
387.748	4.48
388.114	4.48
388.479	4.73
388.845	4.85
389.21	4.95
389.575	4.87
389.94	5.12
390.306	4.94
390.671	5.02
391.036	4.93
391.401	4.88
391.766	4.9
392.131	5.04
392.496	4.76
392.861	4.89
393.226	5
393.591	4.81
393.956	4.9
394.32	4.96
394.685	4.87
395.05	4.95
395.414	4.65
395.779	5.03
396.143	4.88
396.508	4.67
396.872	4.85
397.236	4.93
397.601	4.92
397.965	4.78
398.329	4.71
398.694	4.82
399.058	5.11
399.422	4.92
399.786	4.94
400.15	4.83
400.514	4.82
400.878	4.9
401.242	4.97
401.605	4.9
401.969	4.86
402.333	4.93
402.697	4.7
403.06	5.07
403.424	4.95
403.787	4.88
404.151	4.81
404.514	4.8
404.878	4.94
405.241	4.86
405.604	4.93
405.968	4.98
406.331	4.88
406.694	4.91
407.057	4.95
407.42	4.88
407.783	4.94
408.146	5.11
408.509	5.16
408.872	4.87
409.235	4.99
409.598	4.88
409.961	5.09
410.323	5.13
410.686	5.17
411.049	4.87
411.411	4.75
411.774	5.06
412.136	4.97
412.499	5.16
412.861	5.07
413.223	4.91
413.586	5.05
413.948	5.04
414.31	5.2
414.672	4.77
415.035	5.17
415.397	4.93
415.759	5.22
416.121	4.91
416.483	4.98
416.845	4.89
417.206	5.22
417.568	5.13
417.93	5.28
418.292	4.96
418.653	4.94
419.015	4.86
419.377	5.05
419.738	5.04
420.1	5
420.461	4.97
420.822	4.92
421.184	5.1
421.545	4.98
421.906	5.03
422.267	4.92
422.629	4.82
422.99	4.83
423.351	4.9
423.712	4.81
424.073	5.1
424.434	5
424.795	4.95
425.155	5.05
425.516	4.95
425.877	4.93
426.238	4.92
426.598	4.9
426.959	4.93
427.32	4.94
427.68	5.05
428.041	4.95
428.401	5.1
428.761	5.3
429.122	5.23
429.482	5.11
429.842	5.16
430.202	5.08
430.563	5.29
430.923	5.19
431.283	5.32
431.643	5.39
432.003	5.19
432.363	5.23
432.722	5.22
433.082	5.21
433.442	5.13
433.802	5.22
434.161	5.2
434.521	5.13
434.881	5.1
435.24	5.04
435.6	5.08
435.959	5.15
436.319	4.96
436.678	5.21
437.037	5.15
437.396	5.26
437.756	5.46
438.115	5.23
438.474	5.17
438.833	5.02
439.192	5.03
439.551	5.11
439.91	5.14
440.269	5.27
440.628	5.16
440.987	5.22
441.345	5.06
441.704	5.2
442.063	5.18
442.421	5.14
442.78	5.2
443.138	5.19
443.497	5.18
443.855	5.25
444.214	5.3
444.572	5.28
444.93	5.23
445.288	5.29
445.647	5.25
446.005	5.27
446.363	5.15
446.721	5.16
447.079	5.18
447.437	5.15
447.795	5.02
448.153	5.18
448.51	5.04
448.868	5.14
449.226	5.2
449.584	5.19
449.941	5.16
450.299	5.21
450.656	5.26
451.014	5.3
451.371	5.2
451.729	5.29
452.086	5.28
452.443	5.29
452.801	5.28
453.158	5.29
453.515	5.23
453.872	5.26
454.229	5.47
454.586	5.24
454.943	5.18
455.3	5.33
455.657	5.25
456.014	5.26
456.371	5.22
456.727	5.3
457.084	5.43
457.441	5.41
457.797	5.38
458.154	5.41
458.51	5.33
458.867	5.19
459.223	5.24
459.58	5.43
459.936	5.32
460.292	5.34
460.648	5.14
461.005	5.27
461.361	5.09
461.717	5.14
462.073	5.16
462.429	5.24
462.785	5.27
463.141	5.33
463.496	5.37
463.852	5.47
464.208	5.35
464.564	5.4
464.919	5.31
465.275	5.34
465.631	5.45
465.986	5.37
466.342	5.38
466.697	5.46
467.052	5.37
467.408	5.31
467.763	5.37
468.118	5.38
468.473	5.37
468.829	5.49
469.184	5.29
469.539	5.44
469.894	5.55
470.249	5.6
470.603	5.48
470.958	5.37
471.313	5.58
471.668	5.45
472.023	5.41
472.377	5.39
472.732	5.43
473.086	5.39
473.441	5.29
473.795	5.41
474.15	5.48
474.504	5.61
474.859	5.35
475.213	5.46
475.567	5.19
475.921	5.52
476.275	5.42
476.63	5.42
476.984	5.54
477.338	5.53
477.692	5.38
478.045	5.43
478.399	5.36
478.753	5.5
479.107	5.43
479.461	5.41
479.814	5.37
480.168	5.28
480.521	5.39
480.875	5.5
481.228	5.37
481.582	5.42
481.935	5.49
482.289	5.57
482.642	5.42
482.995	5.4
483.348	5.41
483.701	5.37
484.055	5.31
484.408	5.32
484.761	5.18
485.114	5.01
485.466	4.99
485.819	5.05
486.172	5.08
486.525	5.14
486.878	5.19
487.23	5.25
487.583	5.31
487.936	5.33
488.288	5.35
488.641	5.2
488.993	5.15
489.345	5.12
489.698	5.18
490.05	5.2
490.402	5.18
490.754	5.34
491.107	5.31
491.459	5.39
491.811	5.4
492.163	5.35
492.515	5.32
492.866	5.23
493.218	5.17
493.57	5.13
493.922	5.19
494.274	5.24
494.625	5.36
494.977	5.38
495.328	5.44
495.68	5.39
496.031	5.56
496.383	5.55
496.734	5.43
497.086	5.51
497.437	5.45
497.788	5.56
498.139	5.49
498.49	5.49
498.842	5.5
499.193	5.44
499.544	5.45
499.894	5.46
500.245	5.45
500.596	5.35
500.947	5.41
501.298	5.51
501.648	5.48
501.999	5.5
502.35	5.52
502.7	5.54
503.051	5.56
503.401	5.48
503.752	5.6
504.102	5.51
504.452	5.38
504.803	5.62
505.153	5.6
505.503	5.54
505.853	5.52
506.203	5.59
506.553	5.37
506.903	5.39
507.253	5.55
507.603	5.57
507.953	5.59
508.303	5.57
508.652	5.52
509.002	5.56
509.352	5.45
509.701	5.42
510.051	5.46
510.4	5.41
510.75	5.43
511.099	5.42
511.449	5.34
511.798	5.43
512.147	5.49
512.496	5.55
512.846	5.42
513.195	5.4
513.544	5.43
513.893	5.48
514.242	5.51
514.591	5.47
514.939	5.55
515.288	5.56
515.637	5.57
515.986	5.52
516.334	5.5
516.683	5.46
517.032	5.49
517.38	5.7
517.729	5.61
518.077	5.6
518.426	5.55
518.774	5.47
519.122	5.55
519.47	5.44
519.819	5.33
520.167	5.39
520.515	5.3
520.863	5.39
521.211	5.43
521.559	5.42
521.907	5.45
522.255	5.47
522.602	5.54
522.95	5.58
523.298	5.38
523.645	5.52
523.993	5.48
524.341	5.51
524.688	5.63
525.036	5.62
525.383	5.45
525.73	5.55
526.078	5.5
526.425	5.4
526.772	5.42
527.119	5.3
527.466	5.35
527.814	5.36
528.161	5.27
528.508	5.39
528.854	5.45
529.201	5.36
529.548	5.32
529.895	5.23
530.242	5.16
530.588	5.19
530.935	5.25
531.282	5.32
531.628	5.34
531.975	5.32
532.321	5.41
532.667	5.42
533.014	5.49
533.36	5.44
533.706	5.45
534.052	5.4
534.399	5.42
534.745	5.29
535.091	5.23
535.437	5.24
535.783	5.3
536.129	5.42
536.474	5.5
536.82	5.38
537.166	5.46
537.512	5.52
537.857	5.46
538.203	5.39
538.549	5.33
538.894	5.3
539.239	5.46
539.585	5.46
539.93	5.42
540.276	5.62
540.621	5.56
540.966	5.55
541.311	5.57
541.656	5.47
542.001	5.4
542.346	5.3
542.691	5.33
543.036	5.12
543.381	5.13
543.726	5.24
544.071	5.33
544.415	5.33
544.76	5.36
545.105	5.36
545.449	5.49
545.794	5.44
546.138	5.37
546.483	5.6
546.827	5.56
547.171	5.52
547.516	5.35
547.86	5.48
548.204	5.43
548.548	5.49
548.892	5.34
549.236	5.46
549.58	5.6
549.924	5.59
550.268	5.55
550.612	5.53
550.956	5.58
551.3	5.62
551.643	5.67
551.987	5.76
552.33	5.61
552.674	5.47
553.017	5.64
553.361	5.57
553.704	5.61
554.048	5.45
554.391	5.67
554.734	5.44
555.077	5.64
555.42	5.64
555.764	5.72
556.107	5.71
556.45	5.51
556.793	5.68
557.135	5.62
557.478	5.55
557.821	5.54
558.164	5.81
558.507	5.65
558.849	5.31
559.192	5.38
559.534	5.93
559.877	5.62
560.219	5.57
560.562	5.44
560.904	5.66
561.246	5.56
561.589	5.67
561.931	5.64
562.273	5.69
562.615	5.7
562.957	5.61
563.299	5.52
563.641	5.56
563.983	5.84
564.325	5.6
564.667	5.57
565.008	5.69
565.35	5.56
565.692	5.59
566.033	5.74
566.375	5.68
566.716	5.52
567.058	5.66
567.399	5.52
567.741	5.47
568.082	5.58
568.423	5.48
568.764	5.65
569.105	5.66
569.447	5.57
569.788	5.62
570.129	5.67
570.47	5.64
570.811	5.71
571.151	5.62
571.492	5.57
571.833	5.64
572.174	5.81
572.514	5.56
572.855	5.46
573.195	5.52
573.536	5.57
573.876	5.52
574.217	5.51
574.557	5.46
574.898	5.59
575.238	5.65
575.578	5.51
575.918	5.6
576.258	5.65
576.598	5.5
576.938	5.56
577.278	5.53
577.618	5.55
577.958	5.63
578.298	5.64
578.638	5.51
578.977	5.71
579.317	5.68
579.657	5.54
579.996	5.65
580.336	5.69
580.675	5.58
581.014	5.77
581.354	5.85
581.693	5.41
582.032	5.79
582.372	5.76
582.711	5.83
583.05	5.68
583.389	5.75
583.728	5.62
584.067	5.68
584.406	5.77
584.745	5.85
585.083	5.83
585.422	5.81
585.761	6.06
586.1	5.71
586.438	5.9
586.777	5.41
587.115	5.67
587.454	5.92
587.792	5.67
588.13	5.93
588.469	5.75
588.807	5.55
589.145	5.87
589.483	5.87
589.821	5.93
590.159	5.82
590.497	5.75
590.835	5.8
591.173	5.96
591.511	5.61
591.849	5.61
592.187	5.58
592.524	5.5
592.862	5.78
593.2	5.48
593.537	5.75
593.875	5.62
594.212	5.74
594.55	5.52
594.887	5.77
595.224	5.6
595.561	5.78
595.899	5.79
596.236	5.73
596.573	5.78
596.91	5.77
597.247	5.71
597.584	5.84
597.921	5.66
598.258	5.49
598.594	5.37
598.931	5.48
599.268	5.57
599.604	5.5
599.941	5.63
600.277	5.82
600.614	5.81
600.95	5.65
601.287	5.77
601.623	5.52
601.959	5.61
602.296	5.69
602.632	5.61
602.968	5.74
603.304	5.55
603.64	5.71
603.976	5.8
604.312	5.82
604.648	5.79
604.984	5.84
605.319	5.73
605.655	5.9
605.991	5.66
606.326	5.69
606.662	5.62
606.998	5.6
607.333	5.76
607.668	5.7
608.004	5.74
608.339	5.71
608.674	5.69
609.01	5.53
609.345	5.78
609.68	5.9
610.015	5.86
610.35	5.75
610.685	5.94
611.02	5.75
611.355	5.74
611.689	5.75
612.024	5.76
612.359	5.67
612.694	5.51
613.028	5.68
613.363	5.61
613.697	5.76
614.032	5.77
614.366	5.58
614.7	5.65
615.035	5.71
615.369	5.65
615.703	5.74
616.037	5.72
616.371	5.81
616.705	5.58
617.039	6.15
617.373	5.54
617.707	5.65
618.041	5.91
618.375	5.6
618.709	5.84
619.042	5.72
619.376	5.8
619.71	6.03
620.043	5.59
620.377	5.98
620.71	5.78
621.043	5.92
621.377	5.84
621.71	5.86
622.043	5.49
622.376	5.91
622.709	5.8
623.043	5.93
623.376	5.64
623.709	5.49
624.041	6.05
624.374	5.84
624.707	5.69
625.04	5.93
625.373	5.71
625.705	5.76
626.038	6.1
626.37	6.12
626.703	5.5
627.035	5.84
627.368	6.04
627.7	5.81
628.032	5.6
628.365	5.57
628.697	5.91
629.029	6.01
629.361	5.53
629.693	5.63
630.025	5.74
630.357	5.52
630.689	5.61
631.021	6.05
631.353	5.96
631.684	5.78
632.016	5.76
632.348	5.91
632.679	5.81
633.011	5.71
633.342	5.54
633.674	6.04
634.005	5.95
634.336	5.98
634.668	5.66
634.999	5.53
635.33	5.71
635.661	5.74
635.992	5.63
636.323	5.64
636.654	5.78
636.985	6.01
637.316	5.89
637.647	5.87
637.977	5.92
638.308	5.85
638.639	6.05
638.969	5.8
639.3	6.05
639.63	5.65
639.961	6.12
640.291	5.61
640.622	5.74
640.952	5.92
641.282	5.85
641.612	5.91
641.943	5.85
642.273	5.45
642.603	5.93
642.933	5.97
643.263	6.05
643.592	5.88
643.922	5.27
644.252	6.3
644.582	5.8
644.911	5.59
645.241	6.13
645.571	6.02
645.9	6.27
646.23	5.82
646.559	5.65
646.888	5.94
647.218	6.31
647.547	5.96
647.876	6.13
648.205	6.14
648.534	6.13
648.863	5.77
649.192	5.97
649.521	6.03
649.85	5.85
650.179	5.68
650.508	5.93
650.837	5.84
651.165	5.51
651.494	5.98
651.822	5.93
652.151	6
652.479	6.2
652.808	6.1
653.136	5.88
653.465	5.96
653.793	5.8
654.121	5.88
654.449	6.03
654.777	6.22
655.105	5.84
655.433	5.4
655.761	6.17
656.089	5.92
656.417	5.94
656.745	6.01
657.073	5.92
657.4	5.7
657.728	6.37
658.056	6.18
658.383	5.58
658.711	5.89
659.038	5.77
659.365	6.47
659.693	5.65
660.02	6.26
660.347	6.16
660.674	5.9
661.001	5.85
661.329	5.78
661.656	5.68
661.982	6.03
662.309	5.85
662.636	5.94
662.963	6.15
663.29	6.23
663.616	6.38
663.943	6.13
664.27	5.84
664.596	5.98
664.923	5.73
665.249	5.64
665.576	5.88
665.902	6.35
666.228	5.57
666.554	6.27
666.881	6.02
667.207	5.71
667.533	6.32
667.859	6.31
668.185	5.94
668.511	6.24
668.837	6.17
669.162	6.3
669.488	6.47
669.814	6
670.139	5.63
670.465	6.09
670.791	5.67
671.116	6.43
671.442	5.97
671.767	5.65
672.092	5.88
672.418	6.4
672.743	6
673.068	6.53
673.393	5.9
673.718	6.66
674.043	6.28
674.368	6.3
674.693	7.4
675.018	6.03
675.343	6.64
675.667	6.11
675.992	5.88
676.317	6.29
676.641	6.15
676.966	6.47
677.29	5.95
677.615	6.36
677.939	5.87
678.264	6.32
678.588	5.71
678.912	5.56
679.236	6.16
679.56	6.36
679.885	5.86
680.209	5.73
680.532	6.1
680.856	6.06
681.18	6.01
681.504	6.22
681.828	5.84
682.152	5.84
682.475	5.91
682.799	6.13
683.122	5.8
683.446	6.65
683.769	6.09
684.093	6.08
684.416	6.39
684.739	5.77
685.062	6.61
685.386	5.85
685.709	6.24
686.032	6.55
686.355	6.47
686.678	6.81
687.001	6.18
687.324	6.05
687.646	7.11
687.969	5.85
688.292	6.18
688.614	6.28
688.937	6.67
689.26	6.57
689.582	5.97
689.904	6.11
690.227	6.65
690.549	6.15
690.871	6.93
691.194	5.88
691.516	5.88
691.838	6.66
692.16	6.43
692.482	6.01
692.804	6.6
693.126	6.03
693.448	6.03
