Data from 0142_forehead_Reflection__3__34.txt Node

Date: Fri Sep 22 20:36:00 CDT 2023
User: ToomeyLab
Spectrometer: FLMS14357
Trigger mode: 0
Integration Time (sec): 1.000000E-2
Scans to average: 100
Electric dark correction enabled: true
Nonlinearity correction enabled: false
Boxcar width: 0
XAxis mode: Wavelengths
Number of Pixels in Spectrum: 2048
>>>>>Begin Spectral Data<<<<<
189.047	27
189.435	27
189.823	27
190.211	522.69
190.599	49.68
190.987	905.63
191.375	2.36
191.763	-561.08
192.151	54.08
192.538	138.13
192.926	122.84
193.314	-1308
193.702	78.05
194.089	27.11
194.477	-10414.29
194.864	168.95
195.252	-225.38
195.639	543.56
196.027	131.42
196.414	-4.44
196.801	-233.18
197.189	11.46
197.576	269.25
197.963	219.67
198.351	20.83
198.738	29.8
199.125	112.14
199.512	25.04
199.899	63.29
200.286	43.03
200.673	16.86
201.06	33.42
201.447	37.57
201.833	32.45
202.22	23.75
202.607	54.83
202.994	55.17
203.38	70.96
203.767	47.32
204.154	32.92
204.54	38.14
204.927	16.89
205.313	24.42
205.699	56.84
206.086	39.29
206.472	68.02
206.858	61.88
207.245	4.64
207.631	27.65
208.017	38.67
208.403	44.93
208.789	32.33
209.175	49.38
209.561	19.63
209.947	55.12
210.333	51.92
210.719	24.8
211.105	50.78
211.491	20.79
211.876	70.94
212.262	33.22
212.648	15.8
213.034	44.6
213.419	2.53
213.805	50.83
214.19	34.47
214.576	35.05
214.961	22.15
215.346	37.41
215.732	38.28
216.117	31.11
216.502	32.04
216.888	49.52
217.273	22.2
217.658	18.92
218.043	34.16
218.428	41.2
218.813	16.07
219.198	39.57
219.583	39.14
219.968	-3.46
220.353	34.96
220.738	21.15
221.122	20.81
221.507	17.04
221.892	37.16
222.276	15.48
222.661	3.97
223.046	28.63
223.43	17.42
223.815	19.43
224.199	3.62
224.583	13.04
224.968	16.94
225.352	4.14
225.736	7.32
226.121	12.43
226.505	11.99
226.889	15.28
227.273	12.05
227.657	14.25
228.041	5.02
228.425	14.63
228.809	10.34
229.193	8.7
229.577	7.36
229.961	7.07
230.344	5.5
230.728	4.06
231.112	5.26
231.495	3.65
231.879	4.46
232.263	3.22
232.646	4.55
233.03	4.58
233.413	4.73
233.797	4.94
234.18	6.46
234.563	8.06
234.946	6.17
235.33	2.86
235.713	5.69
236.096	3.85
236.479	4.64
236.862	6.56
237.245	5.63
237.628	6.62
238.011	6.15
238.394	5.47
238.777	6.18
239.16	5.55
239.543	8.22
239.925	5.13
240.308	6.36
240.691	5.85
241.073	7.36
241.456	4.05
241.838	3.89
242.221	5.2
242.603	5.03
242.986	3.8
243.368	4.04
243.75	4.97
244.133	4.58
244.515	3.7
244.897	3.63
245.279	4.22
245.661	3.79
246.043	4.45
246.425	3.77
246.807	4.05
247.189	3.14
247.571	4.71
247.953	4.11
248.335	4.16
248.717	4.34
249.098	3.9
249.48	3.74
249.862	3.91
250.243	4.09
250.625	4.58
251.006	3.63
251.388	4.09
251.769	4.43
252.151	4.29
252.532	3.96
252.913	5.29
253.295	5.62
253.676	4.17
254.057	4.19
254.438	4.57
254.819	3.75
255.2	4.31
255.581	3.82
255.962	4.45
256.343	4.32
256.724	4.38
257.105	5.27
257.486	5.09
257.867	4.25
258.247	4.17
258.628	4.83
259.009	4.73
259.389	3.85
259.77	4.85
260.15	5.13
260.531	4.07
260.911	4.23
261.292	3.64
261.672	3.82
262.052	3.81
262.432	3.82
262.813	4.09
263.193	3.7
263.573	4.46
263.953	4.1
264.333	4.55
264.713	4.57
265.093	4.56
265.473	4.01
265.853	4.43
266.233	4.79
266.612	3.73
266.992	5.05
267.372	5.14
267.752	5.26
268.131	4.15
268.511	4.15
268.89	4.68
269.27	3.94
269.649	4.01
270.029	4.13
270.408	4.31
270.787	3.8
271.167	4.53
271.546	4.12
271.925	3.92
272.304	3.59
272.683	4.26
273.062	4.47
273.441	4.27
273.82	4.48
274.199	4.32
274.578	4.21
274.957	4.05
275.336	4.02
275.715	3.83
276.093	3.95
276.472	4.04
276.851	4.28
277.229	3.49
277.608	4.57
277.986	3.78
278.365	4.18
278.743	4.05
279.122	4.59
279.5	4.4
279.878	3.92
280.257	4.29
280.635	4.32
281.013	4.54
281.391	3.76
281.769	4.41
282.147	4.15
282.525	4.21
282.903	4.35
283.281	4.75
283.659	4.59
284.037	3.93
284.415	4.59
284.792	3.94
285.17	4.18
285.548	4.12
285.925	4.39
286.303	4.24
286.68	3.72
287.058	3.88
287.435	4.21
287.813	4.16
288.19	3.56
288.567	4.2
288.945	3.8
289.322	4.07
289.699	3.97
290.076	4.17
290.453	3.83
290.83	4.61
291.207	4.19
291.584	4.28
291.961	4.49
292.338	4.3
292.715	4.34
293.092	4.38
293.469	4.77
293.845	4.53
294.222	4.6
294.599	4.69
294.975	5.1
295.352	4.69
295.728	4.5
296.105	5.09
296.481	4.6
296.858	4.6
297.234	4.82
297.61	5.06
297.986	4.66
298.363	4.64
298.739	4.9
299.115	4.75
299.491	4.72
299.867	4.98
300.243	4.73
300.619	5.32
300.995	5.03
301.371	5.63
301.746	4.99
302.122	5.11
302.498	5.34
302.874	5.19
303.249	5.2
303.625	4.86
304	5.13
304.376	5.45
304.751	6
305.127	5.31
305.502	5.98
305.878	5.45
306.253	5.65
306.628	5.71
307.003	5.93
307.378	5.69
307.754	5.66
308.129	5.98
308.504	5.86
308.879	5.56
309.254	6.11
309.629	5.8
310.003	5.82
310.378	6.46
310.753	5.97
311.128	6.17
311.502	6.2
311.877	5.66
312.252	5.68
312.626	6.17
313.001	6.85
313.375	6.44
313.75	6.54
314.124	6.79
314.498	6.2
314.873	6.49
315.247	6.71
315.621	6.83
315.995	6.66
316.369	6.83
316.743	6.58
317.117	7.27
317.491	7.05
317.865	6.41
318.239	6.87
318.613	7.78
318.987	7.1
319.361	7.07
319.734	7.54
320.108	7.34
320.482	7.61
320.855	7.61
321.229	8.13
321.602	8.37
321.976	7.39
322.349	7.56
322.723	7.81
323.096	8.3
323.469	7.7
323.843	8.36
324.216	8.28
324.589	7.81
324.962	7.47
325.335	8.35
325.708	7.64
326.081	8.29
326.454	7.36
326.827	8.1
327.2	8.29
327.573	8.97
327.945	8.17
328.318	8.62
328.691	8.61
329.063	7.73
329.436	8.49
329.809	8.56
330.181	8.69
330.553	8.61
330.926	8.32
331.298	8.99
331.671	9.46
332.043	8.17
332.415	8.35
332.787	9.25
333.159	8.68
333.532	8.81
333.904	9.06
334.276	8.81
334.648	8.64
335.02	8.71
335.391	9.36
335.763	9.27
336.135	9.42
336.507	9.58
336.879	9.03
337.25	9.79
337.622	9.55
337.993	9.61
338.365	9.94
338.736	10.09
339.108	9.43
339.479	9.14
339.851	9.23
340.222	9.89
340.593	9.45
340.964	9.54
341.336	9.57
341.707	9.75
342.078	9.97
342.449	9.62
342.82	9.38
343.191	9.67
343.562	10.23
343.933	10.15
344.303	10.32
344.674	10.51
345.045	10.21
345.416	10.56
345.786	10.3
346.157	10.51
346.527	10.24
346.898	10.4
347.268	10.43
347.639	10.39
348.009	10.42
348.38	10.48
348.75	11.02
349.12	10.56
349.49	11.4
349.861	10.46
350.231	11.42
350.601	11.45
350.971	11.55
351.341	10.73
351.711	11.03
352.081	11.13
352.45	10.94
352.82	11.53
353.19	11.59
353.56	11.29
353.929	11.42
354.299	11.39
354.669	11.52
355.038	11.12
355.408	12.12
355.777	11.8
356.147	11.74
356.516	11.8
356.885	12.02
357.254	11.89
357.624	11.61
357.993	11.94
358.362	12.07
358.731	12.1
359.1	12.01
359.469	12.42
359.838	12.14
360.207	12.06
360.576	12.12
360.945	12.06
361.314	12.48
361.682	12.47
362.051	12.66
362.42	12.53
362.788	12.61
363.157	12.71
363.525	12.56
363.894	12.48
364.262	12.47
364.631	12.9
364.999	12.72
365.367	13.2
365.735	13.46
366.104	12.84
366.472	13.29
366.84	13.22
367.208	13.45
367.576	13.48
367.944	13.39
368.312	13.92
368.68	13.54
369.048	13.84
369.416	13.53
369.783	13.17
370.151	13.82
370.519	13.83
370.886	13.68
371.254	14.13
371.621	13.96
371.989	13.93
372.356	13.98
372.724	14.49
373.091	14.47
373.458	14.23
373.826	14.31
374.193	14.72
374.56	14.51
374.927	14.37
375.294	14.47
375.661	14.62
376.028	15.08
376.395	15.04
376.762	14.82
377.129	14.91
377.496	15.21
377.863	14.89
378.229	15.24
378.596	14.81
378.963	15.78
379.329	15.15
379.696	15.6
380.062	14.99
380.429	15.18
380.795	15.47
381.161	15.39
381.528	15.52
381.894	15.44
382.26	15.67
382.626	15.73
382.993	15.7
383.359	15.35
383.725	15.86
384.091	15.88
384.457	15.91
384.823	15.92
385.188	16.16
385.554	16.07
385.92	16.37
386.286	16.17
386.651	16.19
387.017	16.63
387.383	16.4
387.748	16.53
388.114	16.31
388.479	16.94
388.845	16.53
389.21	16.55
389.575	17.01
389.94	16.46
390.306	17.02
390.671	17.3
391.036	16.91
391.401	17.18
391.766	17.29
392.131	17.2
392.496	17.51
392.861	16.96
393.226	17.67
393.591	17.62
393.956	17.49
394.32	17.53
394.685	17.69
395.05	18.01
395.414	17.94
395.779	17.68
396.143	18
396.508	18.14
396.872	17.78
397.236	18.09
397.601	17.97
397.965	18.25
398.329	18.35
398.694	18.18
399.058	18.35
399.422	18.56
399.786	18.51
400.15	18.76
400.514	18.62
400.878	18.67
401.242	18.73
401.605	18.69
401.969	18.49
402.333	18.67
402.697	18.89
403.06	18.98
403.424	18.96
403.787	19.27
404.151	19.35
404.514	19.24
404.878	19.46
405.241	19.56
405.604	19.66
405.968	19.34
406.331	19.67
406.694	19.46
407.057	19.35
407.42	19.59
407.783	19.6
408.146	19.66
408.509	19.75
408.872	19.88
409.235	19.92
409.598	20.05
409.961	20.21
410.323	20.25
410.686	20.35
411.049	20.46
411.411	20.59
411.774	20.29
412.136	20.33
412.499	20.51
412.861	20.49
413.223	20.79
413.586	20.73
413.948	21.05
414.31	20.56
414.672	21.08
415.035	20.86
415.397	21.06
415.759	21.23
416.121	21.16
416.483	20.98
416.845	21.23
417.206	21.45
417.568	21.23
417.93	21.29
418.292	21.44
418.653	21.01
419.015	21.31
419.377	21.11
419.738	21.62
420.1	21.24
420.461	21.24
420.822	21.31
421.184	21.58
421.545	21.41
421.906	21.28
422.267	21.47
422.629	21.59
422.99	21.47
423.351	21.47
423.712	21.41
424.073	21.56
424.434	21.54
424.795	21.9
425.155	21.87
425.516	22.01
425.877	22.04
426.238	21.83
426.598	21.84
426.959	21.95
427.32	22.17
427.68	22.22
428.041	22.13
428.401	22.59
428.761	22.76
429.122	22.71
429.482	22.82
429.842	22.88
430.202	23.1
430.563	23.15
430.923	23.38
431.283	23.25
431.643	23.47
432.003	23.47
432.363	23.57
432.722	23.57
433.082	23.59
433.442	23.53
433.802	23.6
434.161	23.65
434.521	23.62
434.881	23.61
435.24	23.51
435.6	23.5
435.959	23.73
436.319	23.64
436.678	23.9
437.037	23.9
437.396	23.85
437.756	24
438.115	24.02
438.474	24.34
438.833	24.47
439.192	24.3
439.551	24.2
439.91	24.27
440.269	24.4
440.628	24.5
440.987	24.48
441.345	24.51
441.704	24.6
442.063	24.27
442.421	24.45
442.78	24.46
443.138	24.4
443.497	24.5
443.855	24.86
444.214	24.82
444.572	24.96
444.93	25.19
445.288	25.35
445.647	25.33
446.005	25.15
446.363	25.2
446.721	25.25
447.079	25
447.437	25.19
447.795	25.22
448.153	25.18
448.51	24.94
448.868	24.91
449.226	25.15
449.584	25.06
449.941	25.16
450.299	25.72
450.656	25.74
451.014	26.02
451.371	25.99
451.729	26.13
452.086	26.07
452.443	26.2
452.801	26.29
453.158	26.39
453.515	26.55
453.872	26.45
454.229	26.47
454.586	26.65
454.943	26.33
455.3	26.56
455.657	26.47
456.014	26.53
456.371	26.73
456.727	26.8
457.084	26.8
457.441	26.89
457.797	26.88
458.154	26.85
458.51	26.99
458.867	27.32
459.223	27.32
459.58	27.47
459.936	27.28
460.292	27.37
460.648	27.26
461.005	27.15
461.361	27.17
461.717	26.76
462.073	26.76
462.429	26.7
462.785	27.06
463.141	27.21
463.496	27.6
463.852	27.59
464.208	27.76
464.564	28
464.919	27.9
465.275	28.18
465.631	28.1
465.986	28.07
466.342	28.21
466.697	28.39
467.052	28.21
467.408	28.27
467.763	28.41
468.118	28.49
468.473	28.28
468.829	28.6
469.184	28.35
469.539	28.41
469.894	28.42
470.249	28.57
470.603	28.62
470.958	28.67
471.313	28.85
471.668	28.91
472.023	29.03
472.377	29.04
472.732	28.98
473.086	29.11
473.441	28.99
473.795	29.44
474.15	28.99
474.504	29.13
474.859	29.33
475.213	29.14
475.567	29.2
475.921	29.51
476.275	29.45
476.63	29.35
476.984	29.54
477.338	29.78
477.692	29.79
478.045	29.84
478.399	29.65
478.753	29.57
479.107	29.66
479.461	29.8
479.814	29.95
480.168	29.76
480.521	29.99
480.875	29.83
481.228	30.02
481.582	29.83
481.935	30.06
482.289	30.21
482.642	30.1
482.995	30.09
483.348	30.26
483.701	30.08
484.055	30.15
484.408	30.03
484.761	29.84
485.114	29.7
485.466	29.43
485.819	29.04
486.172	29.09
486.525	29.32
486.878	29.31
487.23	29.59
487.583	29.66
487.936	29.93
488.288	30.11
488.641	30.07
488.993	29.94
489.345	29.78
489.698	29.73
490.05	29.75
490.402	29.82
490.754	29.93
491.107	30.19
491.459	30.5
491.811	30.68
492.163	30.75
492.515	30.9
492.866	30.87
493.218	30.9
493.57	30.47
493.922	30.35
494.274	30.43
494.625	30.68
494.977	30.97
495.328	31.09
495.68	31.32
496.031	31.62
496.383	31.7
496.734	32.02
497.086	31.91
497.437	32.05
497.788	32.08
498.139	31.98
498.49	32.04
498.842	31.83
499.193	31.8
499.544	31.94
499.894	31.96
500.245	32.06
500.596	32.18
500.947	32.27
501.298	32.58
501.648	32.31
501.999	32.41
502.35	32.64
502.7	32.67
503.051	32.86
503.401	32.8
503.752	33.05
504.102	33.11
504.452	33.03
504.803	33.08
505.153	33.26
505.503	33.13
505.853	33.21
506.203	33.05
506.553	33.13
506.903	33.12
507.253	33.18
507.603	33.37
507.953	33.36
508.303	33.42
508.652	33.5
509.002	33.64
509.352	33.58
509.701	33.56
510.051	33.48
510.4	33.57
510.75	33.41
511.099	33.37
511.449	33.5
511.798	33.48
512.147	33.5
512.496	33.67
512.846	33.7
513.195	33.84
513.544	34.02
513.893	33.8
514.242	33.66
514.591	34
514.939	33.95
515.288	33.97
515.637	34.11
515.986	34.15
516.334	34.33
516.683	34.61
517.032	34.59
517.38	34.49
517.729	34.47
518.077	34.73
518.426	34.61
518.774	34.83
519.122	34.64
519.47	34.65
519.819	34.67
520.167	34.51
520.515	34.27
520.863	34.08
521.211	34.31
521.559	34.35
521.907	34.43
522.255	34.53
522.602	34.65
522.95	34.87
523.298	34.97
523.645	35.38
523.993	35.33
524.341	35.35
524.688	35.42
525.036	35.45
525.383	35.35
525.73	35.44
526.078	35.49
526.425	35.67
526.772	35.72
527.119	35.43
527.466	35.14
527.814	34.95
528.161	35.01
528.508	35.12
528.854	35.19
529.201	35.45
529.548	35.22
529.895	35.16
530.242	34.85
530.588	34.61
530.935	34.62
531.282	34.89
531.628	34.98
531.975	34.98
532.321	35.17
532.667	35.4
533.014	35.71
533.36	35.76
533.706	35.85
534.052	35.97
534.399	35.84
534.745	35.87
535.091	35.68
535.437	35.41
535.783	35.54
536.129	35.66
536.474	35.87
536.82	36.04
537.166	36.32
537.512	36.53
537.857	36.46
538.203	36.43
538.549	36.33
538.894	36.29
539.239	36.52
539.585	36.46
539.93	36.68
540.276	36.72
540.621	37.03
540.966	37.23
541.311	37.37
541.656	37.21
542.001	37.51
542.346	37.28
542.691	37.16
543.036	36.82
543.381	36.43
543.726	36.26
544.071	36.45
544.415	36.56
544.76	36.6
545.105	36.94
545.449	37.07
545.794	37.2
546.138	37.48
546.483	37.36
546.827	37.54
547.171	37.68
547.516	37.79
547.86	37.86
548.204	37.79
548.548	37.84
548.892	37.76
549.236	37.81
549.58	37.81
549.924	37.97
550.268	38.1
550.612	38.24
550.956	38.39
551.3	38.53
551.643	38.58
551.987	38.63
552.33	38.95
552.674	39.1
553.017	38.91
553.361	39.17
553.704	39.35
554.048	39.05
554.391	39.15
554.734	38.85
555.077	39.09
555.42	39.06
555.764	38.97
556.107	38.95
556.45	39.24
556.793	38.95
557.135	39.44
557.478	39.36
557.821	39.6
558.164	39.75
558.507	39.59
558.849	39.51
559.192	39.98
559.534	39.87
559.877	39.64
560.219	39.93
560.562	39.63
560.904	40.17
561.246	40.15
561.589	39.84
561.931	40.06
562.273	39.91
562.615	39.93
562.957	39.94
563.299	40.36
563.641	39.86
563.983	40.3
564.325	40.04
564.667	40.28
565.008	40.38
565.35	40.44
565.692	40.57
566.033	40.59
566.375	40.29
566.716	40.57
567.058	40.55
567.399	40.44
567.741	40.6
568.082	40.49
568.423	40.3
568.764	40.49
569.105	40.43
569.447	40.4
569.788	40.41
570.129	40.79
570.47	40.68
570.811	40.87
571.151	41.02
571.492	40.89
571.833	40.99
572.174	41.03
572.514	40.95
572.855	41.17
573.195	40.92
573.536	41.1
573.876	41
574.217	40.9
574.557	40.91
574.898	41.02
575.238	40.98
575.578	41.34
575.918	41.34
576.258	41.38
576.598	41.44
576.938	41.38
577.278	41.45
577.618	41.16
577.958	41.45
578.298	41.51
578.638	41.58
578.977	41.63
579.317	41.64
579.657	41.62
579.996	41.79
580.336	42.07
580.675	41.94
581.014	41.83
581.354	41.93
581.693	42.11
582.032	42.09
582.372	42.02
582.711	42.27
583.05	42.38
583.389	42.47
583.728	42.36
584.067	42.44
584.406	42.44
584.745	42.65
585.083	42.58
585.422	42.76
585.761	42.63
586.1	42.9
586.438	42.46
586.777	42.94
587.115	42.84
587.454	42.93
587.792	42.9
588.13	43.22
588.469	42.74
588.807	43.14
589.145	42.92
589.483	43.07
589.821	43.2
590.159	43.12
590.497	43.32
590.835	43.27
591.173	43.1
591.511	43.33
591.849	43.07
592.187	43.23
592.524	43.14
592.862	43.2
593.2	43.34
593.537	43.25
593.875	43.32
594.212	43.41
594.55	43.47
594.887	43.64
595.224	43.5
595.561	43.97
595.899	43.89
596.236	43.95
596.573	43.61
596.91	43.54
597.247	43.76
597.584	43.56
597.921	43.62
598.258	43.7
598.594	43.92
598.931	43.5
599.268	43.48
599.604	43.63
599.941	43.82
600.277	43.93
600.614	43.85
600.95	43.8
601.287	43.81
601.623	44.19
601.959	44.52
602.296	44.3
602.632	44.26
602.968	44.48
603.304	44.6
603.64	44.54
603.976	44.68
604.312	44.74
604.648	44.49
604.984	44.53
605.319	44.17
605.655	44.04
605.991	44.29
606.326	44.34
606.662	44.23
606.998	43.97
607.333	44.34
607.668	44.34
608.004	44.48
608.339	44.62
608.674	44.6
609.01	44.98
609.345	44.75
609.68	45.29
610.015	44.89
610.35	45.03
610.685	44.96
611.02	44.57
611.355	44.77
611.689	44.53
612.024	44.91
612.359	44.89
612.694	44.97
613.028	44.9
613.363	45.19
613.697	45.13
614.032	45.07
614.366	45.46
614.7	45.75
615.035	45.53
615.369	45.45
615.703	45.7
616.037	45.77
616.371	45.75
616.705	45.64
617.039	45.62
617.373	45.8
617.707	46.02
618.041	46.04
618.375	46.17
618.709	45.96
619.042	46.48
619.376	45.77
619.71	46.04
620.043	45.95
620.377	45.64
620.71	45.74
621.043	46.07
621.377	46.02
621.71	46.35
622.043	46.39
622.376	46.23
622.709	46.32
623.043	46.67
623.376	46.43
623.709	46.56
624.041	46.59
624.374	46.13
624.707	46.83
625.04	47.16
625.373	46.71
625.705	46.68
626.038	46.75
626.37	46.49
626.703	46.8
627.035	46.48
627.368	46.73
627.7	46.67
628.032	46.91
628.365	46.85
628.697	46.91
629.029	46.77
629.361	46.36
629.693	46.81
630.025	46.38
630.357	46.95
630.689	46.8
631.021	47.35
631.353	46.87
631.684	46.76
632.016	46.92
632.348	47.27
632.679	46.76
633.011	47.39
633.342	47.35
633.674	47.49
634.005	46.92
634.336	47.76
634.668	47.16
634.999	47.91
635.33	47.91
635.661	47.86
635.992	46.93
636.323	47.17
636.654	47.3
636.985	46.85
637.316	47.33
637.647	47.49
637.977	47.35
638.308	47.4
638.639	47.36
638.969	47.98
639.3	47.69
639.63	48.3
639.961	47.68
640.291	47.42
640.622	48.09
640.952	47.44
641.282	48.3
641.612	48.18
641.943	47.96
642.273	48.17
642.603	48.23
642.933	48.3
643.263	48.24
643.592	48.15
643.922	48.38
644.252	47.88
644.582	48.42
644.911	48.71
645.241	48.77
645.571	48.27
645.9	48.33
646.23	48.06
646.559	48.2
646.888	49
647.218	48.38
647.547	48.7
647.876	48.41
648.205	47.43
648.534	48.79
648.863	48.84
649.192	48.56
649.521	48.71
649.85	48.88
650.179	48.91
650.508	48.34
650.837	49.06
651.165	48.56
651.494	48.49
651.822	48.76
652.151	48.56
652.479	49.21
652.808	49.05
653.136	48.41
653.465	49.05
653.793	48.74
654.121	49.39
654.449	48.46
654.777	48.92
655.105	49.62
655.433	49.55
655.761	49.36
656.089	49.27
656.417	49.16
656.745	49.45
657.073	49.23
657.4	49.67
657.728	49.92
658.056	49.45
658.383	49.42
658.711	49.31
659.038	49.29
659.365	49.11
659.693	49.57
660.02	49.34
660.347	49.9
660.674	49.55
661.001	49.45
661.329	48.98
661.656	49.48
661.982	49.47
662.309	49.61
662.636	49.21
662.963	49.63
663.29	50.17
663.616	49.44
663.943	50.1
664.27	49.69
664.596	49.87
664.923	50.06
665.249	49.91
665.576	49.38
665.902	49.83
666.228	49.98
666.554	49.52
666.881	50.17
667.207	49.93
667.533	49.6
667.859	50.24
668.185	49.65
668.511	49.67
668.837	50.12
669.162	49.9
669.488	50.78
669.814	50.63
670.139	49.96
670.465	50.05
670.791	50.39
