Data from 0142_forehead_Reflection__1__32.txt Node

Date: Fri Sep 22 20:35:40 CDT 2023
User: ToomeyLab
Spectrometer: FLMS14357
Trigger mode: 0
Integration Time (sec): 1.000000E-2
Scans to average: 100
Electric dark correction enabled: true
Nonlinearity correction enabled: false
Boxcar width: 0
XAxis mode: Wavelengths
Number of Pixels in Spectrum: 2048
>>>>>Begin Spectral Data<<<<<
189.047	-77.76
189.435	-77.76
189.823	-77.76
190.211	-124.31
190.599	14.89
190.987	407.17
191.375	-12.7
191.763	1973.05
192.151	48.91
192.538	-59.12
192.926	76.71
193.314	-3196
193.702	138.7
194.089	115.69
194.477	14157.14
194.864	-63
195.252	-221.29
195.639	204.41
196.027	164.52
196.414	92.13
196.801	86.95
197.189	133.81
197.576	200.04
197.963	-125.04
198.351	27.89
198.738	27.92
199.125	15.71
199.512	16.65
199.899	60.38
200.286	42.94
200.673	17.73
201.06	13.54
201.447	52.55
201.833	45.48
202.22	11.58
202.607	75.19
202.994	61.95
203.38	12.56
203.767	34.91
204.154	54.47
204.54	47.02
204.927	1.41
205.313	24.37
205.699	50.64
206.086	56.67
206.472	60.72
206.858	36.64
207.245	19.91
207.631	31.15
208.017	50.16
208.403	6.97
208.789	55.68
209.175	25.58
209.561	22.02
209.947	28.18
210.333	34.33
210.719	-1.67
211.105	66.72
211.491	15.24
211.876	39.23
212.262	34.65
212.648	35.75
213.034	37.44
213.419	25.7
213.805	26.38
214.19	23.6
214.576	28.14
214.961	23.17
215.346	13.51
215.732	25.35
216.117	-2.17
216.502	40.52
216.888	28.5
217.273	34.82
217.658	12.2
218.043	19.04
218.428	20.58
218.813	31.54
219.198	18.56
219.583	22.77
219.968	10.66
220.353	33.91
220.738	22.04
221.122	16.36
221.507	33.04
221.892	21.63
222.276	12.48
222.661	13.26
223.046	23.56
223.43	16.8
223.815	10.64
224.199	3.75
224.583	12.35
224.968	7.77
225.352	11.95
225.736	18.38
226.121	12.74
226.505	10.68
226.889	8.85
227.273	7
227.657	5.01
228.041	8.69
228.425	8.62
228.809	6.53
229.193	7.19
229.577	8.07
229.961	8.16
230.344	5.6
230.728	3.87
231.112	5.06
231.495	4.4
231.879	4.22
232.263	4.41
232.646	5.32
233.03	5.32
233.413	4.19
233.797	4.59
234.18	4.6
234.563	6.44
234.946	5.51
235.33	4.33
235.713	3.87
236.096	4.76
236.479	3.6
236.862	6.85
237.245	6.12
237.628	7.57
238.011	5.66
238.394	5.22
238.777	6.89
239.16	5.66
239.543	6.85
239.925	7.61
240.308	4.39
240.691	4.34
241.073	6.2
241.456	5.1
241.838	5.37
242.221	5.67
242.603	3.76
242.986	5.34
243.368	4.23
243.75	4.96
244.133	5.16
244.515	4.23
244.897	3.88
245.279	3.93
245.661	4.26
246.043	5.1
246.425	4.4
246.807	4.1
247.189	5.01
247.571	4.49
247.953	4.64
248.335	4.04
248.717	4.61
249.098	4.18
249.48	3.79
249.862	3.95
250.243	3.97
250.625	4.36
251.006	3.47
251.388	3.91
251.769	4.22
252.151	4.18
252.532	4.37
252.913	5.32
253.295	5.47
253.676	5
254.057	4.76
254.438	3.98
254.819	3.97
255.2	4.36
255.581	4.41
255.962	5.08
256.343	5.3
256.724	4.41
257.105	4.39
257.486	5.54
257.867	4.52
258.247	5.13
258.628	4.61
259.009	3.95
259.389	3.69
259.77	4.48
260.15	4.36
260.531	4.44
260.911	4.09
261.292	3.95
261.672	3.72
262.052	3.92
262.432	4.04
262.813	3.95
263.193	3.83
263.573	4.54
263.953	4.03
264.333	4.26
264.713	4.2
265.093	4.12
265.473	4.22
265.853	4.52
266.233	4.58
266.612	4.5
266.992	5.88
267.372	4.16
267.752	5.39
268.131	3.84
268.511	4.05
268.89	4.2
269.27	3.89
269.649	3.86
270.029	3.92
270.408	4.06
270.787	4.02
271.167	3.77
271.546	3.6
271.925	4.44
272.304	3.6
272.683	3.91
273.062	4.61
273.441	3.81
273.82	4.46
274.199	4.33
274.578	4.3
274.957	3.91
275.336	3.83
275.715	4.15
276.093	4.02
276.472	3.63
276.851	4.06
277.229	3.85
277.608	4.74
277.986	4.08
278.365	4.35
278.743	4.4
279.122	4.5
279.5	4.53
279.878	4.37
280.257	4.69
280.635	3.66
281.013	4.46
281.391	4
281.769	4.61
282.147	4.46
282.525	4.18
282.903	4.14
283.281	3.97
283.659	4.85
284.037	3.95
284.415	4.24
284.792	4.15
285.17	4.16
285.548	4.7
285.925	4.35
286.303	4.22
286.68	3.91
287.058	3.8
287.435	4.11
287.813	3.8
288.19	3.76
288.567	4.11
288.945	3.99
289.322	4.48
289.699	4.45
290.076	4.34
290.453	3.88
290.83	3.88
291.207	3.94
291.584	4.03
291.961	4.15
292.338	4.55
292.715	4.8
293.092	4.26
293.469	4.31
293.845	3.91
294.222	4.17
294.599	4.8
294.975	4.46
295.352	5.2
295.728	4.82
296.105	4.92
296.481	4.7
296.858	5.02
297.234	4.56
297.61	4.83
297.986	4.86
298.363	4.58
298.739	4.76
299.115	4.96
299.491	4.72
299.867	4.87
300.243	4.73
300.619	4.84
300.995	4.96
301.371	5.32
301.746	5.11
302.122	4.56
302.498	4.94
302.874	4.8
303.249	5.07
303.625	4.7
304	5.76
304.376	5.87
304.751	5.32
305.127	5.55
305.502	5.68
305.878	5.47
306.253	5.71
306.628	5.81
307.003	5.45
307.378	5.65
307.754	5.83
308.129	5.82
308.504	5.65
308.879	5.69
309.254	6.17
309.629	5.96
310.003	6.74
310.378	6.11
310.753	5.95
311.128	5.73
311.502	5.99
311.877	5.66
312.252	5.67
312.626	5.98
313.001	6.14
313.375	6.35
313.75	6.21
314.124	6.85
314.498	5.67
314.873	6.58
315.247	6.73
315.621	7.07
315.995	6.42
316.369	6.59
316.743	6.56
317.117	7.31
317.491	7.22
317.865	6.28
318.239	6.62
318.613	7.07
318.987	6.81
319.361	6.77
319.734	7.55
320.108	7.55
320.482	6.76
320.855	6.81
321.229	7.72
321.602	7.35
321.976	7.06
322.349	7.27
322.723	7.17
323.096	7.48
323.469	6.97
323.843	7.23
324.216	7.42
324.589	7.53
324.962	6.95
325.335	7.25
325.708	7.51
326.081	7.85
326.454	7.29
326.827	7.84
327.2	7.82
327.573	7.73
327.945	7.81
328.318	7.73
328.691	7.81
329.063	7.44
329.436	7.66
329.809	7.65
330.181	8.24
330.553	7.71
330.926	7.52
331.298	8.34
331.671	8.07
332.043	7.13
332.415	8.26
332.787	8.65
333.159	8.25
333.532	7.97
333.904	7.65
334.276	8.12
334.648	7.78
335.02	8.05
335.391	8.71
335.763	8.89
336.135	8.69
336.507	8.54
336.879	8.32
337.25	8.51
337.622	8.63
337.993	8.74
338.365	8.75
338.736	8.71
339.108	8.62
339.479	8.58
339.851	8.74
340.222	9.2
340.593	9.1
340.964	8.6
341.336	8.91
341.707	8.75
342.078	8.79
342.449	9.56
342.82	8.52
343.191	8.78
343.562	9.48
343.933	9.32
344.303	9.46
344.674	9.08
345.045	9.26
345.416	9.9
345.786	9.21
346.157	9.36
346.527	9.5
346.898	9.48
347.268	9.38
347.639	9.65
348.009	9.39
348.38	9.43
348.75	9.9
349.12	9.57
349.49	10.14
349.861	9.83
350.231	10.31
350.601	10.08
350.971	10.42
351.341	9.68
351.711	9.88
352.081	10
352.45	10.15
352.82	10.51
353.19	10.48
353.56	10.32
353.929	10.75
354.299	10.39
354.669	10.54
355.038	10.27
355.408	10.69
355.777	10.67
356.147	10.34
356.516	10.45
356.885	10.54
357.254	10.69
357.624	10.49
357.993	10.91
358.362	10.81
358.731	10.65
359.1	10.58
359.469	10.71
359.838	10.41
360.207	10.91
360.576	10.92
360.945	10.9
361.314	11.51
361.682	11.42
362.051	11.15
362.42	11.14
362.788	10.93
363.157	11.31
363.525	11.2
363.894	11.13
364.262	11.23
364.631	11.19
364.999	11.37
365.367	11.56
365.735	11.62
366.104	11.59
366.472	11.67
366.84	11.5
367.208	11.88
367.576	12.01
367.944	11.56
368.312	11.9
368.68	12.02
369.048	12.14
369.416	11.94
369.783	11.59
370.151	12.02
370.519	11.85
370.886	12.14
371.254	12.41
371.621	12.08
371.989	12.27
372.356	12.29
372.724	12.65
373.091	12.44
373.458	12.49
373.826	12.72
374.193	12.67
374.56	12.65
374.927	12.96
375.294	12.71
375.661	12.52
376.028	12.78
376.395	12.89
376.762	12.85
377.129	12.84
377.496	12.83
377.863	13.14
378.229	13.22
378.596	13.41
378.963	13.24
379.329	13.1
379.696	13.64
380.062	13.05
380.429	13.41
380.795	13.37
381.161	13.42
381.528	13.23
381.894	13.36
382.26	13.64
382.626	13.55
382.993	13.62
383.359	13.46
383.725	13.77
384.091	14.07
384.457	13.56
384.823	13.82
385.188	13.93
385.554	13.73
385.92	14.36
386.286	14.24
386.651	13.98
387.017	14.39
387.383	13.98
387.748	14.1
388.114	14.32
388.479	14.61
388.845	14.33
389.21	14.17
389.575	14.65
389.94	14.42
390.306	14.57
390.671	14.94
391.036	14.55
391.401	14.81
391.766	14.76
392.131	14.82
392.496	14.84
392.861	14.67
393.226	15.04
393.591	15.11
393.956	14.87
394.32	14.86
394.685	15.01
395.05	15.2
395.414	15.16
395.779	15.28
396.143	15.38
396.508	15.17
396.872	15.18
397.236	15.39
397.601	15.43
397.965	15.65
398.329	15.51
398.694	15.49
399.058	15.68
399.422	15.88
399.786	15.84
400.15	16.03
400.514	15.86
400.878	15.88
401.242	15.85
401.605	16.03
401.969	15.87
402.333	16.04
402.697	16.16
403.06	15.89
403.424	16.11
403.787	16.19
404.151	16.14
404.514	16.43
404.878	16.38
405.241	16.49
405.604	16.69
405.968	16.5
406.331	16.62
406.694	16.45
407.057	16.37
407.42	16.67
407.783	16.51
408.146	16.64
408.509	16.68
408.872	16.86
409.235	16.8
409.598	17.06
409.961	17.2
410.323	17.07
410.686	17.14
411.049	17.09
411.411	17.28
411.774	17.18
412.136	17.2
412.499	17.41
412.861	17.4
413.223	17.48
413.586	17.54
413.948	17.52
414.31	17.51
414.672	17.82
415.035	17.58
415.397	17.84
415.759	17.93
416.121	17.71
416.483	17.59
416.845	17.67
417.206	18.17
417.568	17.9
417.93	17.8
418.292	17.73
418.653	17.79
419.015	18
419.377	17.99
419.738	17.95
420.1	17.81
420.461	17.75
420.822	17.99
421.184	17.97
421.545	17.98
421.906	18.11
422.267	18.01
422.629	18.12
422.99	17.87
423.351	18.07
423.712	17.95
424.073	18.04
424.434	18.21
424.795	18.35
425.155	18.33
425.516	18.27
425.877	18.17
426.238	18.22
426.598	18.3
426.959	18.3
427.32	18.45
427.68	18.5
428.041	18.63
428.401	18.88
428.761	18.96
429.122	19.06
429.482	19.17
429.842	19.15
430.202	19
430.563	19.51
430.923	19.48
431.283	19.44
431.643	19.37
432.003	19.46
432.363	19.54
432.722	19.52
433.082	19.68
433.442	19.79
433.802	19.69
434.161	19.42
434.521	19.69
434.881	19.52
435.24	19.49
435.6	19.43
435.959	19.58
436.319	19.61
436.678	19.84
437.037	19.76
437.396	19.94
437.756	19.92
438.115	19.94
438.474	20.11
438.833	20.23
439.192	20.1
439.551	20.31
439.91	20.24
440.269	20.12
440.628	20.18
440.987	20.23
441.345	20.18
441.704	20.26
442.063	20.14
442.421	20.38
442.78	20.35
443.138	20.31
443.497	20.34
443.855	20.57
444.214	20.45
444.572	20.72
444.93	20.7
445.288	20.78
445.647	20.99
446.005	21.03
446.363	20.72
446.721	20.77
447.079	20.66
447.437	20.81
447.795	20.93
448.153	20.52
448.51	20.41
448.868	20.52
449.226	20.75
449.584	20.78
449.941	20.83
450.299	21.05
450.656	21.2
451.014	21.47
451.371	21.27
451.729	21.54
452.086	21.39
452.443	21.58
452.801	21.58
453.158	21.65
453.515	21.79
453.872	21.78
454.229	21.74
454.586	21.84
454.943	21.7
455.3	22
455.657	21.87
456.014	21.73
456.371	22.11
456.727	21.95
457.084	22
457.441	22.14
457.797	22.06
458.154	22.04
458.51	22.28
458.867	22.34
459.223	22.43
459.58	22.62
459.936	22.26
460.292	22.43
460.648	22.31
461.005	22.29
461.361	22.34
461.717	22.14
462.073	22.15
462.429	21.78
462.785	22.11
463.141	22.45
463.496	22.6
463.852	22.64
464.208	22.62
464.564	22.89
464.919	22.97
465.275	23.15
465.631	22.97
465.986	23.03
466.342	23.02
466.697	23.26
467.052	22.95
467.408	23.04
467.763	23.1
468.118	23.28
468.473	23.42
468.829	23.09
469.184	23.36
469.539	23.39
469.894	23.39
470.249	23.23
470.603	23.28
470.958	23.65
471.313	23.62
471.668	23.64
472.023	23.47
472.377	23.74
472.732	23.53
473.086	23.77
473.441	23.66
473.795	23.98
474.15	23.78
474.504	23.78
474.859	23.9
475.213	23.68
475.567	23.68
475.921	24.03
476.275	24.05
476.63	23.97
476.984	24.11
477.338	24.22
477.692	24.31
478.045	24.42
478.399	24.41
478.753	24.09
479.107	24.21
479.461	24.3
479.814	24.29
480.168	24.47
480.521	24.16
480.875	24.41
481.228	24.42
481.582	24.4
481.935	24.45
482.289	24.47
482.642	24.45
482.995	24.46
483.348	24.62
483.701	24.41
484.055	24.3
484.408	24.24
484.761	24.32
485.114	24.17
485.466	23.82
485.819	23.57
486.172	23.5
486.525	23.66
486.878	23.75
487.23	23.94
487.583	24.07
487.936	24.34
488.288	24.44
488.641	24.47
488.993	24.27
489.345	24.25
489.698	24.11
490.05	24.18
490.402	24.22
490.754	24.42
491.107	24.47
491.459	24.73
491.811	24.9
492.163	25.18
492.515	25.1
492.866	25.09
493.218	25.03
493.57	24.74
493.922	24.59
494.274	24.71
494.625	24.78
494.977	25.01
495.328	25.23
495.68	25.44
496.031	25.72
496.383	25.83
496.734	25.94
497.086	25.85
497.437	26.06
497.788	26
498.139	25.91
498.49	26.08
498.842	25.84
499.193	25.68
499.544	25.75
499.894	25.86
500.245	25.89
500.596	26.2
500.947	26.22
501.298	26.33
501.648	26.33
501.999	26.48
502.35	26.41
502.7	26.44
503.051	26.55
503.401	26.54
503.752	26.82
504.102	26.63
504.452	26.78
504.803	26.63
505.153	27.12
505.503	26.75
505.853	26.94
506.203	26.8
506.553	27
506.903	26.68
507.253	26.8
507.603	27.03
507.953	27.15
508.303	27.09
508.652	27.22
509.002	27.09
509.352	27.07
509.701	27.03
510.051	27.2
510.4	27.23
510.75	27.03
511.099	27.05
511.449	26.96
511.798	27.17
512.147	27.18
512.496	27.17
512.846	27.35
513.195	27.28
513.544	27.38
513.893	27.38
514.242	27.34
514.591	27.59
514.939	27.53
515.288	27.54
515.637	27.66
515.986	27.67
516.334	27.83
516.683	27.91
517.032	28
517.38	28.05
517.729	27.83
518.077	28.03
518.426	28.07
518.774	28.09
519.122	28.06
519.47	27.96
519.819	27.94
520.167	27.99
520.515	27.61
520.863	27.61
521.211	27.63
521.559	27.79
521.907	27.98
522.255	27.97
522.602	28.22
522.95	28.19
523.298	28.34
523.645	28.57
523.993	28.71
524.341	28.36
524.688	28.62
525.036	28.63
525.383	28.78
525.73	28.59
526.078	28.83
526.425	28.63
526.772	28.87
527.119	28.7
527.466	28.51
527.814	28.18
528.161	28.3
528.508	28.35
528.854	28.42
529.201	28.62
529.548	28.56
529.895	28.47
530.242	28.17
530.588	27.87
530.935	27.86
531.282	28.01
531.628	28.21
531.975	28.24
532.321	28.38
532.667	28.6
533.014	28.87
533.36	28.95
533.706	28.86
534.052	29.19
534.399	29.05
534.745	29.01
535.091	28.78
535.437	28.61
535.783	28.74
536.129	28.86
536.474	28.98
536.82	29.03
537.166	29.27
537.512	29.48
537.857	29.57
538.203	29.63
538.549	29.46
538.894	29.35
539.239	29.32
539.585	29.44
539.93	29.63
540.276	29.69
540.621	29.84
540.966	30.13
541.311	30.34
541.656	30.14
542.001	30.25
542.346	30.3
542.691	30.06
543.036	29.77
543.381	29.34
543.726	29.37
544.071	29.44
544.415	29.64
544.76	29.52
545.105	29.7
545.449	29.76
545.794	29.95
546.138	30.08
546.483	30.3
546.827	30.26
547.171	30.41
547.516	30.54
547.86	30.44
548.204	30.54
548.548	30.44
548.892	30.55
549.236	30.5
549.58	30.67
549.924	30.79
550.268	30.92
550.612	30.98
550.956	31.02
551.3	31.1
551.643	31.46
551.987	31.42
552.33	31.53
552.674	31.49
553.017	31.43
553.361	31.42
553.704	31.79
554.048	31.7
554.391	31.54
554.734	31.43
555.077	31.41
555.42	31.39
555.764	31.6
556.107	31.6
556.45	31.57
556.793	31.69
557.135	31.8
557.478	31.85
557.821	31.83
558.164	31.84
558.507	31.93
558.849	31.89
559.192	32.08
559.534	32.32
559.877	32
560.219	32.25
560.562	32.21
560.904	32.19
561.246	32.46
561.589	32.27
561.931	32.14
562.273	32.13
562.615	32.36
562.957	32.24
563.299	32.36
563.641	32.46
563.983	32.52
564.325	32.58
564.667	32.58
565.008	32.62
565.35	32.44
565.692	32.84
566.033	32.91
566.375	32.68
566.716	32.69
567.058	32.81
567.399	32.55
567.741	32.81
568.082	32.65
568.423	32.58
568.764	32.93
569.105	32.73
569.447	32.71
569.788	32.7
570.129	33.06
570.47	33
570.811	33.12
571.151	33.19
571.492	33.15
571.833	32.91
572.174	33.07
572.514	33.26
572.855	33.21
573.195	33
573.536	33.5
573.876	33.11
574.217	33.15
574.557	33.1
574.898	33.13
575.238	33.23
575.578	33.41
575.918	33.47
576.258	33.29
576.598	33.31
576.938	33.32
577.278	33.63
577.618	33.38
577.958	33.47
578.298	33.71
578.638	33.79
578.977	33.91
579.317	33.62
579.657	33.65
579.996	33.82
580.336	33.96
580.675	34.04
581.014	34.04
581.354	33.92
581.693	34.24
582.032	34.32
582.372	34.25
582.711	34.46
583.05	34.19
583.389	34.42
583.728	34.33
584.067	34.31
584.406	34.48
584.745	34.37
585.083	34.69
585.422	34.67
585.761	34.48
586.1	34.57
586.438	34.77
586.777	34.52
587.115	34.91
587.454	34.39
587.792	35.04
588.13	35.09
588.469	34.68
588.807	35.09
589.145	34.84
589.483	34.83
589.821	35.1
590.159	34.86
590.497	35.17
590.835	35.02
591.173	34.89
591.511	35
591.849	34.97
592.187	35.05
592.524	35.23
592.862	34.79
593.2	35.07
593.537	34.86
593.875	35.17
594.212	35.37
594.55	35.3
594.887	35.27
595.224	35.27
595.561	35.75
595.899	35.57
596.236	35.64
596.573	35.45
596.91	35.25
597.247	35.75
597.584	35.41
597.921	35.65
598.258	35.91
598.594	35.73
598.931	35.27
599.268	35.37
599.604	35.51
599.941	35.44
600.277	35.58
600.614	35.34
600.95	35.73
601.287	35.38
601.623	35.89
601.959	36.03
602.296	35.78
602.632	35.91
602.968	35.92
603.304	35.93
603.64	36.12
603.976	36.36
604.312	36.36
604.648	36.21
604.984	36.22
605.319	35.88
605.655	35.93
605.991	35.87
606.326	36.16
606.662	36.06
606.998	35.7
607.333	36.01
607.668	35.95
608.004	36.05
608.339	36.26
608.674	36.47
609.01	36.45
609.345	36.37
609.68	37.05
610.015	36.76
610.35	36.73
610.685	36.9
611.02	36.62
611.355	36.51
611.689	36.25
612.024	36.41
612.359	36.09
612.694	36.76
613.028	36.49
613.363	36.62
613.697	36.75
614.032	36.77
614.366	36.96
614.7	37.13
615.035	36.78
615.369	36.82
615.703	37.24
616.037	37.12
616.371	37.15
616.705	37.15
617.039	37.22
617.373	37.37
617.707	37.3
618.041	37.78
618.375	37.25
618.709	37.46
619.042	37.5
619.376	37.71
619.71	37.64
620.043	36.92
620.377	37.19
620.71	37.16
621.043	37.81
621.377	37.66
621.71	37.44
622.043	37.72
622.376	38.1
622.709	37.86
623.043	37.45
623.376	37.36
623.709	38.22
624.041	37.79
624.374	37.86
624.707	38.09
625.04	38.24
625.373	37.88
625.705	38.2
626.038	37.54
626.37	37.92
626.703	38.1
627.035	38
627.368	38.01
627.7	38.29
628.032	38.29
628.365	38.08
628.697	38.18
629.029	38.34
629.361	38.1
629.693	37.97
630.025	37.92
630.357	37.94
630.689	38.2
631.021	38.43
631.353	38.34
631.684	37.95
632.016	38.65
632.348	38.51
632.679	38.26
633.011	38.34
633.342	38.74
633.674	38.44
634.005	38.21
634.336	38.87
634.668	38.43
634.999	38.67
635.33	38.76
635.661	38.84
635.992	38.47
636.323	38.24
636.654	38.6
636.985	38.57
637.316	38.75
637.647	38.73
637.977	38.47
638.308	39.06
638.639	38.8
638.969	39.25
639.3	38.74
639.63	38.81
639.961	38.81
640.291	39.03
640.622	39.54
640.952	38.9
641.282	39.08
641.612	39.07
641.943	39.05
642.273	39.34
642.603	38.96
642.933	39.04
643.263	38.88
643.592	38.82
643.922	38.97
644.252	38.78
644.582	39.18
644.911	39.51
645.241	39.72
645.571	39.64
645.9	39.37
646.23	39.4
646.559	39.5
646.888	39.41
647.218	39.64
647.547	38.95
647.876	39.5
648.205	39.65
648.534	39.85
648.863	39.78
649.192	39.83
649.521	39.7
649.85	39.73
650.179	39.11
650.508	39.9
650.837	40.06
651.165	39.23
651.494	39.55
651.822	40.32
652.151	39.27
652.479	39.7
652.808	39.98
653.136	39.86
653.465	39.76
653.793	40.02
654.121	40.35
654.449	39.53
654.777	39.84
655.105	40.42
655.433	40.26
655.761	40.34
656.089	40.14
656.417	39.81
656.745	40.25
657.073	39.78
657.4	40.45
657.728	40.26
658.056	40.07
658.383	40.74
658.711	40.38
659.038	39.74
659.365	40.19
659.693	39.96
660.02	40.74
660.347	40.75
660.674	40.25
661.001	40.34
661.329	39.99
661.656	40.46
661.982	40.47
662.309	40.47
662.636	40.71
662.963	40.98
663.29	40.92
663.616	40.88
663.943	40.92
664.27	40.42
664.596	40.68
664.923	40.58
665.249	40.55
665.576	40.31
665.902	40.77
666.228	41.14
666.554	40.5
666.881	40.65
667.207	40.39
667.533	40.87
667.859	40.71
668.185	40.88
668.511	40.84
668.837	41.06
669.162	41.24
669.488	41.55
669.814	41.29
670.139	40.74
670.465	41.39
670.791	41.38
671.116	40.88
