Data from 0142_chest_Reflection__4__23.txt Node

Date: Fri Sep 22 20:32:40 CDT 2023
User: ToomeyLab
Spectrometer: FLMS14357
Trigger mode: 0
Integration Time (sec): 1.000000E-2
Scans to average: 100
Electric dark correction enabled: true
Nonlinearity correction enabled: false
Boxcar width: 0
XAxis mode: Wavelengths
Number of Pixels in Spectrum: 2048
>>>>>Begin Spectral Data<<<<<
189.047	42.27
189.435	42.27
189.823	42.27
190.211	-321.88
190.599	-65.31
190.987	-87.48
191.375	20.65
191.763	-976.05
192.151	50.81
192.538	67.89
192.926	82.55
193.314	-5896
193.702	162.74
194.089	119.75
194.477	37514.29
194.864	152.97
195.252	7.17
195.639	44.82
196.027	-35.52
196.414	57.64
196.801	63.56
197.189	62.83
197.576	272.32
197.963	299.51
198.351	22.38
198.738	6.17
199.125	-53.22
199.512	13.49
199.899	41.82
200.286	55.9
200.673	32.03
201.06	24.94
201.447	56.35
201.833	9.73
202.22	25.07
202.607	46.72
202.994	33.78
203.38	51.31
203.767	17.63
204.154	56.07
204.54	59.34
204.927	18.49
205.313	4.79
205.699	31.42
206.086	31.45
206.472	40.1
206.858	2.4
207.245	5.9
207.631	35.97
208.017	30.63
208.403	16.74
208.789	17.51
209.175	55.95
209.561	32.49
209.947	33.4
210.333	16.27
210.719	-3.73
211.105	28.86
211.491	28.07
211.876	32.9
212.262	35.08
212.648	-5.37
213.034	21.59
213.419	20.56
213.805	19.54
214.19	19.82
214.576	22.57
214.961	27.2
215.346	-6.7
215.732	24.58
216.117	-0.55
216.502	25.88
216.888	37.85
217.273	11.7
217.658	10.71
218.043	14.56
218.428	27.49
218.813	4.1
219.198	15.16
219.583	16.21
219.968	19.84
220.353	32.11
220.738	19.69
221.122	27.71
221.507	20.78
221.892	13.46
222.276	12.92
222.661	-22.2
223.046	15.42
223.43	13.59
223.815	11.79
224.199	-0.8
224.583	10.36
224.968	18.44
225.352	2.41
225.736	13
226.121	6.23
226.505	8.4
226.889	9.18
227.273	4.54
227.657	10.75
228.041	5.73
228.425	6.51
228.809	3.2
229.193	1.48
229.577	4.18
229.961	0.7
230.344	3.08
230.728	0.98
231.112	1.71
231.495	1.63
231.879	2.08
232.263	1.78
232.646	2.24
233.03	1.63
233.413	2.09
233.797	3.45
234.18	2.92
234.563	6
234.946	3.36
235.33	-0.11
235.713	0.57
236.096	1.43
236.479	1.25
236.862	2.56
237.245	3.22
237.628	2.61
238.011	4.05
238.394	3.72
238.777	3.02
239.16	3.8
239.543	4.09
239.925	1.82
240.308	1.81
240.691	2.16
241.073	4
241.456	4.18
241.838	0.65
242.221	3.09
242.603	1.59
242.986	1.65
243.368	1.53
243.75	1.94
244.133	2.01
244.515	1.78
244.897	1
245.279	1.62
245.661	1.18
246.043	1.46
246.425	1.55
246.807	1.71
247.189	0.58
247.571	2.41
247.953	1.79
248.335	1.78
248.717	1.55
249.098	1.83
249.48	1.52
249.862	1.35
250.243	1.5
250.625	1.91
251.006	0.97
251.388	1.72
251.769	1.73
252.151	1.53
252.532	1.87
252.913	1.43
253.295	2.96
253.676	1.71
254.057	1.55
254.438	2.01
254.819	1.03
255.2	1.8
255.581	2.37
255.962	2.88
256.343	1.95
256.724	1.64
257.105	2.18
257.486	2.74
257.867	1.3
258.247	2.89
258.628	2.16
259.009	0.96
259.389	1.74
259.77	2.39
260.15	2.11
260.531	1.76
260.911	1.35
261.292	1.27
261.672	1.42
262.052	1.4
262.432	1.27
262.813	1.63
263.193	1.15
263.573	2.22
263.953	1.58
264.333	1.7
264.713	1.81
265.093	1.98
265.473	1.79
265.853	1.54
266.233	1.17
266.612	2.18
266.992	1.72
267.372	1.68
267.752	2.36
268.131	1.47
268.511	1.04
268.89	1.83
269.27	1.38
269.649	1.49
270.029	1.6
270.408	1.73
270.787	1.85
271.167	2.02
271.546	1.1
271.925	1.44
272.304	1.35
272.683	1.89
273.062	1.74
273.441	1.79
273.82	1.6
274.199	1.85
274.578	1.68
274.957	1.42
275.336	1.52
275.715	1.4
276.093	1.42
276.472	1.58
276.851	1.93
277.229	1.48
277.608	1.9
277.986	1.39
278.365	1.8
278.743	1.42
279.122	2.06
279.5	2.51
279.878	0.86
280.257	2.09
280.635	1.96
281.013	2.04
281.391	1.08
281.769	1.71
282.147	2.03
282.525	1.22
282.903	1.59
283.281	1.36
283.659	1.61
284.037	1.09
284.415	1.69
284.792	1.48
285.17	1.6
285.548	1.98
285.925	2.09
286.303	1.56
286.68	1.2
287.058	1.47
287.435	1.41
287.813	1.31
288.19	1.15
288.567	1.37
288.945	1.16
289.322	1.32
289.699	1.7
290.076	1.58
290.453	1.63
290.83	0.74
291.207	1.79
291.584	1.06
291.961	1.46
292.338	1.52
292.715	1.39
293.092	1.53
293.469	1.38
293.845	1.61
294.222	1.7
294.599	2.49
294.975	2.1
295.352	1.41
295.728	1.17
296.105	1.75
296.481	1.9
296.858	1.84
297.234	1.54
297.61	1.73
297.986	1.5
298.363	1.67
298.739	1.72
299.115	1.61
299.491	1.59
299.867	1.56
300.243	1.18
300.619	1.6
300.995	1.5
301.371	1.78
301.746	1.9
302.122	1.67
302.498	1.24
302.874	1.62
303.249	1.27
303.625	1.07
304	2.32
304.376	2.08
304.751	1.75
305.127	1.5
305.502	2.16
305.878	1.56
306.253	1.94
306.628	1.68
307.003	1.89
307.378	2.11
307.754	1.78
308.129	1.49
308.504	1.71
308.879	1.45
309.254	1.94
309.629	1.82
310.003	1.8
310.378	2.49
310.753	1.69
311.128	2.06
311.502	2.01
311.877	1.37
312.252	1.67
312.626	1.72
313.001	1.77
313.375	1.73
313.75	2.19
314.124	2.16
314.498	1.6
314.873	1.44
315.247	1.96
315.621	1.86
315.995	2.12
316.369	1.83
316.743	1.64
317.117	1.77
317.491	2.62
317.865	1.82
318.239	2.02
318.613	2.26
318.987	1.99
319.361	1.88
319.734	1.73
320.108	2
320.482	1.73
320.855	1.75
321.229	2.42
321.602	1.93
321.976	1.51
322.349	1.85
322.723	2.16
323.096	2.41
323.469	1.85
323.843	1.89
324.216	2.38
324.589	1.86
324.962	1.67
325.335	2.27
325.708	1.64
326.081	2.13
326.454	1.98
326.827	1.66
327.2	2.22
327.573	2.56
327.945	1.87
328.318	1.61
328.691	1.96
329.063	1.56
329.436	1.92
329.809	1.69
330.181	2.08
330.553	1.86
330.926	1.88
331.298	2.6
331.671	2.14
332.043	1.75
332.415	1.94
332.787	2.22
333.159	1.76
333.532	1.42
333.904	1.99
334.276	1.86
334.648	1.45
335.02	1.64
335.391	1.88
335.763	2.27
336.135	1.96
336.507	2.4
336.879	1.52
337.25	2.25
337.622	1.87
337.993	1.59
338.365	1.96
338.736	1.44
339.108	1.71
339.479	1.72
339.851	2.03
340.222	1.55
340.593	1.59
340.964	1.57
341.336	1.84
341.707	1.79
342.078	2
342.449	2.18
342.82	1.71
343.191	1.74
343.562	1.91
343.933	1.94
344.303	2.17
344.674	1.85
345.045	1.9
345.416	2.17
345.786	1.84
346.157	1.73
346.527	1.8
346.898	1.73
347.268	1.68
347.639	1.81
348.009	1.53
348.38	1.92
348.75	1.83
349.12	1.95
349.49	2.1
349.861	1.92
350.231	2.03
350.601	1.99
350.971	2.11
351.341	2.03
351.711	1.54
352.081	1.82
352.45	1.83
352.82	1.99
353.19	2.04
353.56	1.69
353.929	1.64
354.299	1.77
354.669	2.06
355.038	1.77
355.408	1.87
355.777	2.32
356.147	2.05
356.516	2.01
356.885	1.81
357.254	2.3
357.624	1.53
357.993	2.04
358.362	1.81
358.731	1.67
359.1	1.81
359.469	1.76
359.838	1.43
360.207	1.87
360.576	1.99
360.945	1.86
361.314	1.92
361.682	1.94
362.051	1.96
362.42	1.68
362.788	1.72
363.157	2
363.525	1.89
363.894	1.78
364.262	2
364.631	1.67
364.999	1.86
365.367	1.65
365.735	1.82
366.104	1.79
366.472	2.12
366.84	1.85
367.208	2.12
367.576	2.42
367.944	2.11
368.312	1.96
368.68	1.81
369.048	2.1
369.416	1.73
369.783	1.76
370.151	1.58
370.519	1.83
370.886	2.02
371.254	2.12
371.621	1.79
371.989	1.88
372.356	1.87
372.724	2.35
373.091	2.21
373.458	2.2
373.826	1.75
374.193	2.35
374.56	1.87
374.927	2.22
375.294	1.74
375.661	1.75
376.028	1.94
376.395	1.96
376.762	1.82
377.129	2.2
377.496	2.48
377.863	2.08
378.229	2.29
378.596	1.97
378.963	2.19
379.329	2.07
379.696	2.18
380.062	1.81
380.429	2.04
380.795	2.1
381.161	1.83
381.528	2.22
381.894	1.58
382.26	1.69
382.626	2.04
382.993	1.99
383.359	1.8
383.725	1.92
384.091	2.02
384.457	1.94
384.823	2.04
385.188	2.17
385.554	2.32
385.92	2.17
386.286	2.03
386.651	1.86
387.017	2.19
387.383	1.86
387.748	2.05
388.114	2.05
388.479	2.01
388.845	1.8
389.21	1.63
389.575	2
389.94	1.79
390.306	2.1
390.671	2.36
391.036	1.78
391.401	2.18
391.766	1.97
392.131	1.99
392.496	2.07
392.861	1.9
393.226	2.15
393.591	2.2
393.956	2.06
394.32	1.9
394.685	1.94
395.05	2.2
395.414	2.04
395.779	2.07
396.143	2.02
396.508	2.14
396.872	1.95
397.236	2.16
397.601	1.87
397.965	2.21
398.329	2
398.694	2.19
399.058	1.95
399.422	2.16
399.786	2.18
400.15	2.23
400.514	2.02
400.878	2.03
401.242	2
401.605	2.01
401.969	1.92
402.333	2.14
402.697	2.09
403.06	1.91
403.424	2.14
403.787	2.15
404.151	2.19
404.514	2.36
404.878	2.26
405.241	2.2
405.604	2.12
405.968	2.15
406.331	2.17
406.694	2.09
407.057	2.06
407.42	2.04
407.783	2.17
408.146	2.16
408.509	2.06
408.872	1.95
409.235	2.09
409.598	2.08
409.961	2.24
410.323	2.04
410.686	2.22
411.049	2.18
411.411	2.16
411.774	2
412.136	2.11
412.499	2.09
412.861	2.04
413.223	2.11
413.586	1.87
413.948	2.09
414.31	2.1
414.672	2.14
415.035	2.08
415.397	2.21
415.759	2.52
416.121	2.02
416.483	2.23
416.845	1.93
417.206	2.02
417.568	1.9
417.93	1.97
418.292	2.14
418.653	1.95
419.015	2.21
419.377	2.08
419.738	2.04
420.1	2.12
420.461	2.02
420.822	2.04
421.184	2.02
421.545	2.01
421.906	1.99
422.267	1.95
422.629	2.15
422.99	1.95
423.351	2.02
423.712	1.95
424.073	1.96
424.434	2.08
424.795	2.05
425.155	2.11
425.516	1.99
425.877	2.03
426.238	2.02
426.598	2.01
426.959	2.1
427.32	2.11
427.68	1.99
428.041	2.03
428.401	2.14
428.761	2.24
429.122	2.02
429.482	2.06
429.842	2.12
430.202	2.11
430.563	2.14
430.923	2.26
431.283	2.21
431.643	2.09
432.003	2.09
432.363	2.19
432.722	2.1
433.082	2.2
433.442	2.13
433.802	2.32
434.161	2.12
434.521	2.12
434.881	2.22
435.24	2.07
435.6	2.1
435.959	2.04
436.319	2.09
436.678	2.27
437.037	2.18
437.396	2.15
437.756	2.05
438.115	2.23
438.474	2.17
438.833	2.32
439.192	2.28
439.551	2.24
439.91	2.23
440.269	2.35
440.628	1.98
440.987	2.23
441.345	2.16
441.704	2.29
442.063	2.1
442.421	2.22
442.78	2.17
443.138	2.12
443.497	2.18
443.855	2.22
444.214	2.13
444.572	2.38
444.93	2.24
445.288	2.29
445.647	2.35
446.005	2.19
446.363	2.07
446.721	2.27
447.079	2.09
447.437	2.15
447.795	2.2
448.153	2.08
448.51	2.15
448.868	2.04
449.226	2.22
449.584	2.19
449.941	2.11
450.299	2.17
450.656	2.29
451.014	2.25
451.371	2.28
451.729	2.35
452.086	2.31
452.443	2.34
452.801	2.18
453.158	2.24
453.515	2.4
453.872	2.31
454.229	2.38
454.586	2.28
454.943	2.22
455.3	2.21
455.657	2.26
456.014	2.27
456.371	2.35
456.727	2.47
457.084	2.4
457.441	2.17
457.797	2.34
458.154	2.38
458.51	2.2
458.867	2.36
459.223	2.42
459.58	2.46
459.936	2.47
460.292	2.4
460.648	2.42
461.005	2.31
461.361	2.32
461.717	2.07
462.073	2.29
462.429	2.12
462.785	2.27
463.141	2.3
463.496	2.39
463.852	2.23
464.208	2.24
464.564	2.51
464.919	2.29
465.275	2.7
465.631	2.44
465.986	2.45
466.342	2.55
466.697	2.53
467.052	2.33
467.408	2.49
467.763	2.43
468.118	2.63
468.473	2.37
468.829	2.36
469.184	2.36
469.539	2.5
469.894	2.46
470.249	2.43
470.603	2.38
470.958	2.55
471.313	2.56
471.668	2.5
472.023	2.38
472.377	2.54
472.732	2.48
473.086	2.57
473.441	2.37
473.795	2.69
474.15	2.25
474.504	2.46
474.859	2.48
475.213	2.2
475.567	2.36
475.921	2.33
476.275	2.52
476.63	2.32
476.984	2.26
477.338	2.62
477.692	2.45
478.045	2.64
478.399	2.64
478.753	2.31
479.107	2.45
479.461	2.51
479.814	2.57
480.168	2.4
480.521	2.54
480.875	2.47
481.228	2.61
481.582	2.39
481.935	2.66
482.289	2.47
482.642	2.38
482.995	2.54
483.348	2.41
483.701	2.44
484.055	2.47
484.408	2.46
484.761	2.54
485.114	2.34
485.466	2.26
485.819	2.29
486.172	2.24
486.525	2.29
486.878	2.29
487.23	2.33
487.583	2.4
487.936	2.36
488.288	2.4
488.641	2.4
488.993	2.37
489.345	2.36
489.698	2.36
490.05	2.38
490.402	2.35
490.754	2.32
491.107	2.37
491.459	2.48
491.811	2.43
492.163	2.39
492.515	2.48
492.866	2.49
493.218	2.52
493.57	2.51
493.922	2.36
494.274	2.41
494.625	2.48
494.977	2.58
495.328	2.61
495.68	2.54
496.031	2.53
496.383	2.62
496.734	2.59
497.086	2.55
497.437	2.55
497.788	2.62
498.139	2.56
498.49	2.69
498.842	2.57
499.193	2.5
499.544	2.67
499.894	2.64
500.245	2.62
500.596	2.68
500.947	2.69
501.298	2.63
501.648	2.72
501.999	2.68
502.35	2.77
502.7	2.74
503.051	2.84
503.401	2.7
503.752	2.74
504.102	2.71
504.452	2.75
504.803	2.72
505.153	2.68
505.503	2.75
505.853	2.92
506.203	2.78
506.553	2.86
506.903	2.77
507.253	2.65
507.603	2.81
507.953	2.84
508.303	2.88
508.652	2.84
509.002	2.85
509.352	2.79
509.701	2.77
510.051	2.84
510.4	2.69
510.75	2.73
511.099	2.73
511.449	2.79
511.798	2.78
512.147	2.87
512.496	2.76
512.846	2.75
513.195	2.86
513.544	2.85
513.893	2.87
514.242	2.69
514.591	2.88
514.939	2.94
515.288	2.87
515.637	2.84
515.986	2.88
516.334	2.89
516.683	2.87
517.032	3.02
517.38	2.92
517.729	2.81
518.077	2.98
518.426	2.91
518.774	2.96
519.122	2.94
519.47	2.9
519.819	2.88
520.167	2.92
520.515	2.89
520.863	2.84
521.211	2.9
521.559	2.94
521.907	3
522.255	3
522.602	2.95
522.95	2.99
523.298	2.99
523.645	3
523.993	3.05
524.341	2.95
524.688	3.1
525.036	3.04
525.383	3.08
525.73	3.06
526.078	3.06
526.425	3.01
526.772	3.15
527.119	2.93
527.466	2.89
527.814	3
528.161	2.95
528.508	3.06
528.854	3.02
529.201	3.08
529.548	2.99
529.895	2.99
530.242	2.95
530.588	2.9
530.935	2.86
531.282	2.89
531.628	2.99
531.975	2.99
532.321	2.98
532.667	3.03
533.014	3.15
533.36	3.15
533.706	3.17
534.052	3.24
534.399	3.3
534.745	3.19
535.091	3.08
535.437	3.03
535.783	3.05
536.129	3.12
536.474	3.23
536.82	3.13
537.166	3.34
537.512	3.24
537.857	3.25
538.203	3.39
538.549	3.21
538.894	3.19
539.239	3.27
539.585	3.3
539.93	3.36
540.276	3.27
540.621	3.4
540.966	3.38
541.311	3.47
541.656	3.4
542.001	3.46
542.346	3.3
542.691	3.47
543.036	3.3
543.381	3.32
543.726	3.21
544.071	3.27
544.415	3.34
544.76	3.34
545.105	3.38
545.449	3.36
545.794	3.4
546.138	3.43
546.483	3.44
546.827	3.51
547.171	3.53
547.516	3.69
547.86	3.57
548.204	3.58
548.548	3.6
548.892	3.47
549.236	3.4
549.58	3.54
549.924	3.56
550.268	3.73
550.612	3.69
550.956	3.66
551.3	3.8
551.643	3.77
551.987	3.7
552.33	3.78
552.674	3.72
553.017	3.67
553.361	3.78
553.704	3.91
554.048	3.99
554.391	3.84
554.734	3.79
555.077	3.77
555.42	3.7
555.764	3.97
556.107	3.91
556.45	3.81
556.793	3.81
557.135	3.99
557.478	3.86
557.821	4.07
558.164	4.05
558.507	4.15
558.849	3.92
559.192	4.13
559.534	4.07
559.877	3.93
560.219	3.94
560.562	4.04
560.904	4.09
561.246	4.28
561.589	4.11
561.931	4.17
562.273	4.08
562.615	4.08
562.957	4.1
563.299	4.11
563.641	4.18
563.983	4.08
564.325	4.31
564.667	4.16
565.008	4.13
565.35	4.28
565.692	4.22
566.033	4.36
566.375	4.31
566.716	4.18
567.058	4.3
567.399	4.38
567.741	4.49
568.082	4.26
568.423	4.4
568.764	4.48
569.105	4.31
569.447	4.21
569.788	4.25
570.129	4.38
570.47	4.37
570.811	4.56
571.151	4.41
571.492	4.35
571.833	4.36
572.174	4.41
572.514	4.44
572.855	4.53
573.195	4.37
573.536	4.44
573.876	4.48
574.217	4.46
574.557	4.54
574.898	4.6
575.238	4.52
575.578	4.66
575.918	4.58
576.258	4.64
576.598	4.63
576.938	4.69
577.278	4.81
577.618	4.53
577.958	4.62
578.298	4.84
578.638	4.64
578.977	4.72
579.317	4.66
579.657	4.71
579.996	4.7
580.336	4.93
580.675	4.9
581.014	4.89
581.354	4.66
581.693	4.86
582.032	4.93
582.372	5.07
582.711	4.93
583.05	4.95
583.389	5.13
583.728	4.99
584.067	4.99
584.406	5.17
584.745	4.88
585.083	5.23
585.422	5.12
585.761	5.14
586.1	5.13
586.438	5.11
586.777	5.14
587.115	5.43
587.454	5.22
587.792	5.41
588.13	5.25
588.469	5.14
588.807	5.49
589.145	5.39
589.483	5.36
589.821	5.4
590.159	5.24
590.497	5.46
590.835	5.55
591.173	5.19
591.511	5.5
591.849	5.48
592.187	5.31
592.524	5.49
592.862	5.5
593.2	5.46
593.537	5.08
593.875	5.41
594.212	5.44
594.55	5.67
594.887	5.58
595.224	5.52
595.561	5.86
595.899	5.78
596.236	5.75
596.573	5.65
596.91	5.68
597.247	5.7
597.584	5.76
597.921	5.75
598.258	5.85
598.594	5.78
598.931	5.66
599.268	5.6
599.604	5.7
599.941	5.78
600.277	5.66
600.614	5.82
600.95	5.71
601.287	5.76
601.623	5.76
601.959	6.13
602.296	5.83
602.632	5.9
602.968	5.88
603.304	6.09
603.64	5.85
603.976	6.17
604.312	6.19
604.648	6.11
604.984	5.98
605.319	5.98
605.655	6.03
605.991	6.26
606.326	6.17
606.662	6.07
606.998	5.95
607.333	6.07
607.668	6.05
608.004	6.28
608.339	6.13
608.674	6.2
609.01	6.39
609.345	6.24
609.68	6.38
610.015	6.35
610.35	6.34
610.685	6.52
611.02	6.14
611.355	6.35
611.689	6.21
612.024	6.47
612.359	6.37
612.694	6.46
613.028	6.39
613.363	6.48
613.697	6.42
614.032	6.86
614.366	6.58
614.7	6.56
615.035	6.84
615.369	6.57
615.703	6.55
616.037	6.38
616.371	6.87
616.705	6.86
617.039	6.79
617.373	6.58
617.707	6.65
618.041	6.92
618.375	7.08
618.709	6.68
619.042	6.95
619.376	6.84
619.71	6.83
620.043	6.83
620.377	6.68
620.71	7.07
621.043	7.22
621.377	6.71
621.71	6.85
622.043	6.89
622.376	7.37
622.709	6.96
623.043	7.12
623.376	7.17
623.709	7.04
624.041	6.91
624.374	6.93
624.707	7.63
625.04	7.33
625.373	6.94
625.705	7.44
626.038	7.25
626.37	7.61
626.703	7.27
627.035	7.56
627.368	7.38
627.7	7.79
628.032	7.72
628.365	7.43
628.697	7.43
629.029	7.16
629.361	7.2
629.693	7.28
630.025	7.27
630.357	7.4
630.689	7.65
631.021	7.26
631.353	7.4
631.684	7.39
632.016	7.78
632.348	7.58
632.679	7.25
633.011	7.47
633.342	7.61
633.674	7.7
634.005	7.53
634.336	7.74
634.668	7.83
634.999	7.64
635.33	8.13
635.661	8.11
635.992	8.03
636.323	8
636.654	7.71
636.985	7.73
637.316	7.8
637.647	7.83
637.977	7.8
638.308	8.4
638.639	7.95
638.969	8.23
639.3	7.91
639.63	8.17
639.961	8.14
640.291	7.94
640.622	8.08
640.952	7.79
641.282	8.33
641.612	8.1
641.943	8.28
642.273	8.49
642.603	8.36
642.933	8.06
643.263	8.03
643.592	8.33
643.922	8.53
644.252	8.17
644.582	8.63
644.911	8.51
645.241	8.39
645.571	8.08
645.9	8.81
646.23	8.46
646.559	8.27
646.888	8.8
647.218	8.13
647.547	8.48
647.876	8.53
648.205	8.09
648.534	8.9
648.863	8.71
649.192	8.08
649.521	9
649.85	8.76
650.179	8.64
650.508	8.51
650.837	9.02
651.165	8.65
651.494	8.74
651.822	8.76
652.151	8.31
652.479	8.99
652.808	8.82
653.136	9.02
653.465	8.81
653.793	8.46
654.121	9.27
654.449	8.6
654.777	8.75
655.105	9.46
655.433	9.57
655.761	9.4
656.089	9.17
656.417	8.98
656.745	9.31
657.073	9.1
657.4	9.76
657.728	9.68
658.056	8.8
658.383	9.38
658.711	8.81
659.038	9.04
659.365	8.82
659.693	8.99
660.02	9.51
660.347	9.21
660.674	9.22
661.001	8.76
661.329	8.75
661.656	9.07
661.982	8.89
662.309	9.39
662.636	9.34
662.963	9.42
663.29	9.34
663.616	9.57
663.943	9.31
664.27	9.64
664.596	9.46
664.923	9.33
665.249	9.39
665.576	9.07
665.902	9.66
666.228	9.62
666.554	9.68
666.881	10.05
667.207	9.38
667.533	9.66
667.859	9.7
668.185	9.68
668.511	10.15
668.837	9.59
669.162	9.65
669.488	10.02
669.814	9.8
670.139	9.76
670.465	10.42
670.791	9.79
671.116	9.55
671.442	10.14
671.767	9.62
672.092	9.89
672.418	10.52
672.743	10.19
673.068	10.3
673.393	9.91
673.718	10.67
674.043	10.52
674.368	10.42
674.693	10.01
675.018	9.75
675.343	10.61
675.667	10.14
675.992	10.11
676.317	10.63
676.641	10.27
676.966	10.36
677.29	10.71
677.615	10.05
677.939	11.24
678.264	10.15
678.588	10.69
678.912	10.32
679.236	10.31
679.56	10.32
679.885	10.04
680.209	11.19
680.532	10.59
680.856	10.36
681.18	10.63
681.504	10.45
681.828	10.77
682.152	10.98
682.475	11.1
682.799	10.91
683.122	10.75
683.446	10.96
683.769	10.91
684.093	10.61
684.416	11.51
684.739	11.54
685.062	11.44
685.386	11.16
685.709	11.26
686.032	10.38
686.355	11.01
686.678	11.02
687.001	10.8
687.324	11.86
687.646	11.13
687.969	11.63
688.292	11.2
688.614	11.33
688.937	11.3
689.26	10.41
689.582	11.61
689.904	10.83
690.227	11.82
690.549	11.52
690.871	11.54
691.194	11.29
691.516	11.82
691.838	10.61
