Data from 0142_chest_Reflection__6__25.txt Node

Date: Fri Sep 22 20:33:06 CDT 2023
User: ToomeyLab
Spectrometer: FLMS14357
Trigger mode: 0
Integration Time (sec): 1.000000E-2
Scans to average: 100
Electric dark correction enabled: true
Nonlinearity correction enabled: false
Boxcar width: 0
XAxis mode: Wavelengths
Number of Pixels in Spectrum: 2048
>>>>>Begin Spectral Data<<<<<
189.047	-26.09
189.435	-26.09
189.823	-26.09
190.211	-17.83
190.599	40.15
190.987	350.77
191.375	19.62
191.763	573.65
192.151	42.61
192.538	-114.33
192.926	-11.61
193.314	-13880
193.702	69.46
194.089	156.9
194.477	-67228.57
194.864	26.14
195.252	34.97
195.639	359.86
196.027	100.38
196.414	55.24
196.801	116.71
197.189	49.41
197.576	175.07
197.963	-159.02
198.351	-15.71
198.738	11.84
199.125	44.94
199.512	1.7
199.899	31.97
200.286	15.27
200.673	5.51
201.06	27.85
201.447	30.15
201.833	-35.33
202.22	36.36
202.607	24.72
202.994	34.04
203.38	34.68
203.767	57.47
204.154	48.72
204.54	49.69
204.927	6.66
205.313	1.51
205.699	21.57
206.086	34.84
206.472	35.78
206.858	38.22
207.245	-45.09
207.631	19.7
208.017	24
208.403	2.76
208.789	34.81
209.175	33.72
209.561	29.16
209.947	34.52
210.333	6.04
210.719	8.71
211.105	17.85
211.491	1.25
211.876	50.8
212.262	8.59
212.648	14.6
213.034	25.02
213.419	27.63
213.805	21.66
214.19	10.01
214.576	28.37
214.961	20.29
215.346	6.7
215.732	27.68
216.117	9.3
216.502	46.78
216.888	33.2
217.273	8.86
217.658	14.31
218.043	17.54
218.428	17.8
218.813	-40.04
219.198	2.99
219.583	29.15
219.968	3.57
220.353	45.51
220.738	16.65
221.122	19.79
221.507	5.32
221.892	-11.88
222.276	4.89
222.661	-14.21
223.046	19.57
223.43	20.94
223.815	-4.35
224.199	-1.83
224.583	13.52
224.968	7.32
225.352	7.33
225.736	19.32
226.121	16.44
226.505	3.7
226.889	8.44
227.273	4.07
227.657	3.59
228.041	2.29
228.425	6.71
228.809	6.34
229.193	2.02
229.577	5.5
229.961	4.37
230.344	5.99
230.728	2.85
231.112	3.54
231.495	3.38
231.879	3.77
232.263	1.69
232.646	2.83
233.03	2.71
233.413	4.09
233.797	3.28
234.18	3.39
234.563	5.21
234.946	5.6
235.33	3.98
235.713	1.07
236.096	1.53
236.479	2.97
236.862	3.69
237.245	3.91
237.628	4.7
238.011	5.74
238.394	4.52
238.777	5.15
239.16	4.36
239.543	4.87
239.925	4.73
240.308	3.57
240.691	2.99
241.073	4.03
241.456	6.13
241.838	3.44
242.221	3.65
242.603	4.8
242.986	2.46
243.368	3.08
243.75	3.63
244.133	3.94
244.515	2.95
244.897	2.54
245.279	2.8
245.661	2.79
246.043	3.31
246.425	2.87
246.807	3.74
247.189	1.97
247.571	4.62
247.953	3.46
248.335	3.52
248.717	2.93
249.098	3.26
249.48	2.97
249.862	2.97
250.243	3.19
250.625	3.37
251.006	2.98
251.388	3.58
251.769	3.19
252.151	3.08
252.532	3.48
252.913	3.98
253.295	4.59
253.676	3.5
254.057	3.24
254.438	3.77
254.819	2.92
255.2	3.32
255.581	3.41
255.962	3.94
256.343	2.66
256.724	2.68
257.105	3.37
257.486	3.14
257.867	3.4
258.247	3.05
258.628	3.68
259.009	2.84
259.389	2.43
259.77	3.41
260.15	2.98
260.531	2.9
260.911	3.32
261.292	3
261.672	2.7
262.052	2.98
262.432	2.89
262.813	3.12
263.193	2.9
263.573	3.26
263.953	3.09
264.333	2.75
264.713	3.03
265.093	2.81
265.473	2.73
265.853	1.93
266.233	3.66
266.612	2.38
266.992	3.3
267.372	2.97
267.752	3.76
268.131	3.26
268.511	2.83
268.89	3.3
269.27	2.48
269.649	3.21
270.029	2.33
270.408	2.64
270.787	2.99
271.167	3.22
271.546	2.43
271.925	3.62
272.304	2.56
272.683	3.27
273.062	3.63
273.441	2.92
273.82	3.2
274.199	3.35
274.578	3.06
274.957	2.35
275.336	3.15
275.715	3
276.093	2.78
276.472	2.28
276.851	2.14
277.229	1.96
277.608	3.25
277.986	2.85
278.365	3.42
278.743	2.97
279.122	2.78
279.5	3.55
279.878	2.52
280.257	3.67
280.635	2.76
281.013	3.01
281.391	2.11
281.769	3.01
282.147	3.49
282.525	3.07
282.903	3.28
283.281	3.23
283.659	2.97
284.037	2.37
284.415	2.66
284.792	2.68
285.17	2.91
285.548	3.38
285.925	2.8
286.303	2.49
286.68	2.58
287.058	2.52
287.435	2.76
287.813	2.4
288.19	2.51
288.567	2.78
288.945	2.48
289.322	3.11
289.699	3.07
290.076	2.75
290.453	2.76
290.83	2.35
291.207	2.56
291.584	2.88
291.961	2.95
292.338	3.2
292.715	2.76
293.092	2.89
293.469	2.83
293.845	2.82
294.222	3.37
294.599	3.03
294.975	3.41
295.352	3.22
295.728	2.88
296.105	3.02
296.481	3.07
296.858	3.21
297.234	3.07
297.61	3.17
297.986	3.01
298.363	3.27
298.739	3.13
299.115	3.06
299.491	3.03
299.867	2.96
300.243	2.66
300.619	3
300.995	2.74
301.371	3.69
301.746	3.4
302.122	3.3
302.498	2.95
302.874	3.19
303.249	3.23
303.625	2.61
304	3.58
304.376	3.03
304.751	3.64
305.127	3.04
305.502	3.19
305.878	3.04
306.253	3.27
306.628	2.82
307.003	3.33
307.378	3.29
307.754	2.76
308.129	3.71
308.504	3.41
308.879	3.21
309.254	2.71
309.629	3.51
310.003	3.8
310.378	3.57
310.753	3.18
311.128	3.36
311.502	3.25
311.877	2.78
312.252	3.11
312.626	3.06
313.001	3.39
313.375	3.24
313.75	3.56
314.124	3.6
314.498	3.06
314.873	3.24
315.247	3.34
315.621	3.53
315.995	3.29
316.369	3.34
316.743	3.16
317.117	3.45
317.491	3.58
317.865	2.77
318.239	3.52
318.613	3.34
318.987	3.22
319.361	3.12
319.734	2.94
320.108	3.53
320.482	3.25
320.855	3.07
321.229	3.99
321.602	3.47
321.976	2.91
322.349	3.03
322.723	3.17
323.096	3.41
323.469	3.64
323.843	3.24
324.216	3.88
324.589	3.53
324.962	3.28
325.335	3.28
325.708	3.19
326.081	4.06
326.454	2.56
326.827	3.38
327.2	3.5
327.573	3.64
327.945	3.12
328.318	3.29
328.691	3.2
329.063	3.19
329.436	3.58
329.809	3.09
330.181	2.92
330.553	3.24
330.926	3.23
331.298	3.51
331.671	3.66
332.043	2.57
332.415	3.51
332.787	3.81
333.159	3.21
333.532	2.97
333.904	3.43
334.276	2.91
334.648	3.26
335.02	3.58
335.391	3.29
335.763	3.56
336.135	3.41
336.507	3.39
336.879	3.18
337.25	3.78
337.622	3.58
337.993	3.43
338.365	3.76
338.736	3.61
339.108	3.44
339.479	3.41
339.851	3.33
340.222	3.11
340.593	3.46
340.964	3.28
341.336	3.27
341.707	2.95
342.078	3.16
342.449	3.66
342.82	2.86
343.191	2.69
343.562	3.41
343.933	3.61
344.303	3.43
344.674	3.45
345.045	3.59
345.416	3.75
345.786	2.62
346.157	3.11
346.527	3.32
346.898	2.99
347.268	2.88
347.639	3.09
348.009	3.32
348.38	3.19
348.75	3.66
349.12	3.22
349.49	3.89
349.861	3.17
350.231	3.21
350.601	3.33
350.971	3.35
351.341	3.16
351.711	2.99
352.081	3.06
352.45	3.3
352.82	3.43
353.19	3.46
353.56	2.75
353.929	3.34
354.299	3.14
354.669	3.25
355.038	3.15
355.408	3.4
355.777	3.02
356.147	3.27
356.516	3.58
356.885	3.4
357.254	3.82
357.624	2.99
357.993	3.22
358.362	3.38
358.731	3.21
359.1	3.27
359.469	3.47
359.838	3.31
360.207	3.17
360.576	3.42
360.945	3.29
361.314	3.64
361.682	3.4
362.051	3.2
362.42	3.01
362.788	3.15
363.157	3.46
363.525	3.22
363.894	3.14
364.262	3.1
364.631	3.19
364.999	3.06
365.367	3.49
365.735	3.26
366.104	3.16
366.472	3.36
366.84	3.14
367.208	3.43
367.576	3.13
367.944	3.36
368.312	3.44
368.68	3.41
369.048	3.53
369.416	3.11
369.783	3.31
370.151	3.34
370.519	3.25
370.886	3.27
371.254	3.62
371.621	3.27
371.989	3.34
372.356	3.03
372.724	3.37
373.091	3.5
373.458	3.39
373.826	3.44
374.193	3.63
374.56	3.41
374.927	3.37
375.294	3.23
375.661	3.1
376.028	3.59
376.395	3.59
376.762	3.48
377.129	3.3
377.496	3.74
377.863	3.63
378.229	3.3
378.596	3.47
378.963	3.53
379.329	3.47
379.696	3.71
380.062	3.45
380.429	3.43
380.795	3.37
381.161	3.24
381.528	3.39
381.894	2.99
382.26	3.47
382.626	3.53
382.993	3.49
383.359	3.04
383.725	3.22
384.091	3.43
384.457	3.3
384.823	3.62
385.188	3.76
385.554	3.54
385.92	3.72
386.286	3.55
386.651	3.3
387.017	3.63
387.383	3.32
387.748	3.28
388.114	3.27
388.479	3.47
388.845	3.22
389.21	3.14
389.575	3.37
389.94	3.05
390.306	3.48
390.671	3.72
391.036	3.19
391.401	3.4
391.766	3.44
392.131	3.3
392.496	3.52
392.861	3.39
393.226	3.49
393.591	3.39
393.956	3.49
394.32	3.67
394.685	3.42
395.05	3.49
395.414	3.56
395.779	3.54
396.143	3.41
396.508	3.38
396.872	3.4
397.236	3.23
397.601	3.41
397.965	3.61
398.329	3.44
398.694	3.31
399.058	3.48
399.422	3.55
399.786	3.56
400.15	3.45
400.514	3.48
400.878	3.65
401.242	3.48
401.605	3.52
401.969	3.22
402.333	3.53
402.697	3.29
403.06	3.54
403.424	3.62
403.787	3.73
404.151	3.54
404.514	3.62
404.878	3.6
405.241	3.72
405.604	3.73
405.968	3.59
406.331	3.53
406.694	3.62
407.057	3.3
407.42	3.69
407.783	3.6
408.146	3.46
408.509	3.25
408.872	3.4
409.235	3.44
409.598	3.45
409.961	3.62
410.323	3.59
410.686	3.56
411.049	3.65
411.411	3.52
411.774	3.76
412.136	3.52
412.499	3.35
412.861	3.73
413.223	3.83
413.586	3.63
413.948	3.69
414.31	3.67
414.672	3.5
415.035	3.46
415.397	3.58
415.759	3.83
416.121	3.52
416.483	3.4
416.845	3.52
417.206	3.44
417.568	3.71
417.93	3.57
418.292	3.59
418.653	3.58
419.015	3.56
419.377	3.47
419.738	3.62
420.1	3.43
420.461	3.39
420.822	3.54
421.184	3.54
421.545	3.45
421.906	3.44
422.267	3.45
422.629	3.49
422.99	3.41
423.351	3.44
423.712	3.46
424.073	3.42
424.434	3.53
424.795	3.48
425.155	3.55
425.516	3.57
425.877	3.53
426.238	3.35
426.598	3.46
426.959	3.43
427.32	3.44
427.68	3.49
428.041	3.41
428.401	3.47
428.761	3.68
429.122	3.62
429.482	3.61
429.842	3.58
430.202	3.55
430.563	3.72
430.923	3.6
431.283	3.6
431.643	3.78
432.003	3.66
432.363	3.92
432.722	3.74
433.082	3.7
433.442	3.57
433.802	3.78
434.161	3.45
434.521	3.66
434.881	3.6
435.24	3.58
435.6	3.55
435.959	3.58
436.319	3.67
436.678	3.74
437.037	3.56
437.396	3.67
437.756	3.62
438.115	3.64
438.474	3.57
438.833	3.81
439.192	3.77
439.551	3.66
439.91	3.77
440.269	3.63
440.628	3.52
440.987	3.59
441.345	3.65
441.704	3.71
442.063	3.61
442.421	3.62
442.78	3.65
443.138	3.69
443.497	3.65
443.855	3.72
444.214	3.63
444.572	3.81
444.93	3.64
445.288	3.72
445.647	3.71
446.005	3.63
446.363	3.67
446.721	3.76
447.079	3.54
447.437	3.76
447.795	3.74
448.153	3.52
448.51	3.61
448.868	3.63
449.226	3.67
449.584	3.66
449.941	3.6
450.299	3.72
450.656	3.68
451.014	3.79
451.371	3.7
451.729	3.62
452.086	3.56
452.443	3.69
452.801	3.76
453.158	3.73
453.515	3.86
453.872	3.72
454.229	3.78
454.586	3.76
454.943	3.75
455.3	3.76
455.657	3.66
456.014	3.81
456.371	3.76
456.727	3.82
457.084	3.83
457.441	3.8
457.797	3.69
458.154	3.83
458.51	3.77
458.867	3.75
459.223	3.81
459.58	3.85
459.936	3.9
460.292	3.81
460.648	3.75
461.005	3.78
461.361	3.9
461.717	3.5
462.073	3.63
462.429	3.48
462.785	3.62
463.141	3.77
463.496	3.83
463.852	3.78
464.208	3.77
464.564	3.86
464.919	3.93
465.275	4.09
465.631	3.96
465.986	3.91
466.342	3.89
466.697	3.86
467.052	3.87
467.408	4.01
467.763	3.91
468.118	3.88
468.473	3.96
468.829	3.77
469.184	3.86
469.539	3.92
469.894	3.87
470.249	3.91
470.603	3.76
470.958	3.88
471.313	3.88
471.668	3.93
472.023	3.9
472.377	3.83
472.732	3.96
473.086	4.02
473.441	3.49
473.795	4.13
474.15	3.84
474.504	3.97
474.859	4.05
475.213	3.67
475.567	3.91
475.921	3.99
476.275	3.94
476.63	3.87
476.984	3.86
477.338	3.99
477.692	3.87
478.045	4.15
478.399	4.06
478.753	3.81
479.107	3.89
479.461	3.9
479.814	3.93
480.168	3.94
480.521	4.03
480.875	3.99
481.228	3.97
481.582	3.86
481.935	3.89
482.289	3.9
482.642	3.92
482.995	3.95
483.348	4.03
483.701	3.94
484.055	3.8
484.408	3.84
484.761	3.92
485.114	3.8
485.466	3.77
485.819	3.71
486.172	3.69
486.525	3.71
486.878	3.74
487.23	3.77
487.583	3.78
487.936	3.89
488.288	3.89
488.641	3.86
488.993	3.89
489.345	3.79
489.698	3.76
490.05	3.82
490.402	3.81
490.754	3.78
491.107	3.83
491.459	3.95
491.811	3.85
492.163	3.91
492.515	3.92
492.866	3.97
493.218	3.97
493.57	3.93
493.922	3.82
494.274	3.85
494.625	3.91
494.977	4.02
495.328	4.04
495.68	4.04
496.031	4.1
496.383	4.06
496.734	4.15
497.086	4.1
497.437	4.09
497.788	4.07
498.139	4.18
498.49	4.23
498.842	4.05
499.193	3.99
499.544	4.05
499.894	4.04
500.245	4.13
500.596	4.2
500.947	4.14
501.298	4.22
501.648	4.2
501.999	4.24
502.35	4.26
502.7	4.23
503.051	4.22
503.401	4.28
503.752	4.24
504.102	4.23
504.452	4.26
504.803	4.13
505.153	4.15
505.503	4.29
505.853	4.38
506.203	4.2
506.553	4.24
506.903	4.21
507.253	4.18
507.603	4.26
507.953	4.26
508.303	4.37
508.652	4.24
509.002	4.37
509.352	4.22
509.701	4.27
510.051	4.21
510.4	4.33
510.75	4.3
511.099	4.15
511.449	4.3
511.798	4.27
512.147	4.35
512.496	4.31
512.846	4.25
513.195	4.33
513.544	4.32
513.893	4.33
514.242	4.28
514.591	4.42
514.939	4.31
515.288	4.13
515.637	4.32
515.986	4.22
516.334	4.39
516.683	4.43
517.032	4.39
517.38	4.52
517.729	4.35
518.077	4.32
518.426	4.37
518.774	4.43
519.122	4.42
519.47	4.36
519.819	4.45
520.167	4.47
520.515	4.41
520.863	4.37
521.211	4.34
521.559	4.37
521.907	4.46
522.255	4.34
522.602	4.53
522.95	4.44
523.298	4.53
523.645	4.53
523.993	4.44
524.341	4.47
524.688	4.49
525.036	4.4
525.383	4.57
525.73	4.61
526.078	4.54
526.425	4.53
526.772	4.68
527.119	4.48
527.466	4.37
527.814	4.41
528.161	4.39
528.508	4.42
528.854	4.49
529.201	4.51
529.548	4.5
529.895	4.43
530.242	4.42
530.588	4.3
530.935	4.24
531.282	4.33
531.628	4.41
531.975	4.38
532.321	4.44
532.667	4.52
533.014	4.58
533.36	4.54
533.706	4.54
534.052	4.61
534.399	4.58
534.745	4.59
535.091	4.52
535.437	4.5
535.783	4.43
536.129	4.55
536.474	4.61
536.82	4.52
537.166	4.78
537.512	4.67
537.857	4.62
538.203	4.73
538.549	4.73
538.894	4.57
539.239	4.64
539.585	4.66
539.93	4.8
540.276	4.72
540.621	4.86
540.966	4.8
541.311	4.88
541.656	4.74
542.001	4.86
542.346	4.89
542.691	4.87
543.036	4.83
543.381	4.71
543.726	4.64
544.071	4.64
544.415	4.63
544.76	4.65
545.105	4.69
545.449	4.7
545.794	4.83
546.138	4.93
546.483	4.86
546.827	4.89
547.171	4.96
547.516	4.99
547.86	4.94
548.204	5.05
548.548	4.99
548.892	4.99
549.236	4.88
549.58	4.99
549.924	5.08
550.268	5.07
550.612	5.02
550.956	5.1
551.3	5.11
551.643	5.07
551.987	5.14
552.33	5.23
552.674	5.14
553.017	5.12
553.361	5.1
553.704	5.36
554.048	5.19
554.391	5.28
554.734	5.3
555.077	5.19
555.42	5.17
555.764	5.24
556.107	5.34
556.45	5.42
556.793	5.17
557.135	5.39
557.478	5.28
557.821	5.44
558.164	5.49
558.507	5.43
558.849	5.28
559.192	5.51
559.534	5.5
559.877	5.48
560.219	5.41
560.562	5.46
560.904	5.54
561.246	5.5
561.589	5.59
561.931	5.25
562.273	5.24
562.615	5.47
562.957	5.44
563.299	5.6
563.641	5.43
563.983	5.58
564.325	5.54
564.667	5.54
565.008	5.59
565.35	5.63
565.692	5.67
566.033	5.65
566.375	5.86
566.716	5.57
567.058	5.56
567.399	5.48
567.741	5.85
568.082	5.65
568.423	5.72
568.764	5.78
569.105	5.66
569.447	5.66
569.788	5.57
570.129	5.83
570.47	5.92
570.811	5.87
571.151	5.93
571.492	5.91
571.833	5.77
572.174	5.82
572.514	5.9
572.855	5.81
573.195	5.57
573.536	5.75
573.876	5.76
574.217	5.74
574.557	5.79
574.898	6.08
575.238	5.72
575.578	5.99
575.918	5.98
576.258	5.88
576.598	5.95
576.938	5.98
577.278	6.11
577.618	5.77
577.958	6.11
578.298	6.01
578.638	5.97
578.977	6.03
579.317	6.08
579.657	6.12
579.996	6.23
580.336	6.29
580.675	6.16
581.014	6.06
581.354	5.99
581.693	6.36
582.032	6.12
582.372	6.33
582.711	6.46
583.05	6.46
583.389	6.36
583.728	6.28
584.067	6.22
584.406	6.37
584.745	6.2
585.083	6.48
585.422	6.54
585.761	6.38
586.1	6.41
586.438	6.45
586.777	6.44
587.115	6.65
587.454	6.31
587.792	6.84
588.13	6.57
588.469	6.49
588.807	6.64
589.145	6.5
589.483	6.65
589.821	6.65
590.159	6.79
590.497	6.8
590.835	6.58
591.173	6.53
591.511	6.72
591.849	6.82
592.187	6.46
592.524	6.85
592.862	6.64
593.2	6.7
593.537	6.63
593.875	6.72
594.212	6.74
594.55	6.79
594.887	6.65
595.224	6.84
595.561	6.86
595.899	7.23
596.236	6.97
596.573	7.01
596.91	6.9
597.247	6.9
597.584	7.1
597.921	7
598.258	7.18
598.594	7.27
598.931	6.95
599.268	7.03
599.604	7.04
599.941	7.11
600.277	7
600.614	6.94
600.95	7.11
601.287	7.1
601.623	7.12
601.959	7.26
602.296	7.08
602.632	6.94
602.968	7.39
603.304	7.27
603.64	7.14
603.976	7.55
604.312	7.29
604.648	7.27
604.984	7.3
605.319	7.16
605.655	7.13
605.991	7.04
606.326	7.4
606.662	7.14
606.998	7.19
607.333	7.31
607.668	7.08
608.004	7.43
608.339	7.3
608.674	7.43
609.01	7.28
609.345	7.51
609.68	7.53
610.015	7.53
610.35	7.69
610.685	7.84
611.02	7.51
611.355	7.62
611.689	7.39
612.024	7.66
612.359	7.41
612.694	7.55
613.028	7.38
613.363	7.56
613.697	7.57
614.032	7.62
614.366	7.8
614.7	7.96
615.035	7.84
615.369	7.64
615.703	7.61
616.037	7.91
616.371	7.91
616.705	8.18
617.039	7.8
617.373	7.96
617.707	7.88
618.041	8.05
618.375	7.95
618.709	8.11
619.042	8.57
619.376	8.1
619.71	8.09
620.043	7.85
620.377	7.88
620.71	8.33
621.043	8.52
621.377	8.02
621.71	8.19
622.043	8.15
622.376	8.54
622.709	8.06
623.043	8.34
623.376	8.08
623.709	8.4
624.041	7.82
624.374	8.26
624.707	8.21
625.04	8.59
625.373	8.15
625.705	8.07
626.038	7.84
626.37	8.43
626.703	8.18
627.035	8.42
627.368	8.32
627.7	8.56
628.032	8.55
628.365	8.4
628.697	8.52
629.029	8.58
629.361	8.39
629.693	8.58
630.025	8.42
630.357	8.31
630.689	8.69
631.021	8.38
631.353	8.45
631.684	8.53
632.016	8.66
632.348	8.73
632.679	8.33
633.011	8.55
633.342	8.58
633.674	8.76
634.005	8.57
634.336	8.82
634.668	8.91
634.999	8.82
635.33	8.87
635.661	8.88
635.992	8.69
636.323	8.51
636.654	8.88
636.985	8.65
637.316	9.08
637.647	9.13
637.977	8.48
638.308	8.96
638.639	8.66
638.969	9.12
639.3	8.99
639.63	9.23
639.961	8.73
640.291	8.73
640.622	8.96
640.952	9.17
641.282	9.23
641.612	9.05
641.943	9.31
642.273	8.96
642.603	9.18
642.933	9.14
643.263	8.68
643.592	9.37
643.922	9.23
644.252	9.04
644.582	9.4
644.911	9.42
645.241	9.58
645.571	9.22
645.9	9.14
646.23	9.66
646.559	9.41
646.888	9.51
647.218	9.46
647.547	9.22
647.876	9.37
648.205	9.01
648.534	9.74
648.863	9.39
649.192	9.24
649.521	9.65
649.85	9.68
650.179	9.52
650.508	9.65
650.837	9.71
651.165	9.65
651.494	9.38
651.822	9.76
652.151	9.48
652.479	9.73
652.808	9.92
653.136	9.81
653.465	9.78
653.793	9.72
654.121	10.2
654.449	9.43
654.777	9.79
655.105	10.15
655.433	9.52
655.761	10.29
656.089	9.76
656.417	9.7
656.745	9.85
657.073	9.82
657.4	10.4
657.728	9.66
658.056	9.8
658.383	10.35
658.711	9.82
659.038	9.86
659.365	9.75
659.693	10.01
660.02	10.44
660.347	10.3
660.674	9.69
661.001	9.84
661.329	10.09
661.656	10.23
661.982	10.37
662.309	10.39
662.636	10.29
662.963	10.02
663.29	10.09
663.616	10.04
663.943	10.63
664.27	10.19
664.596	10.09
664.923	10.33
665.249	10.24
665.576	9.82
665.902	10.03
666.228	10.14
666.554	9.55
666.881	10.65
667.207	10.48
667.533	10.23
667.859	10.81
668.185	10.26
668.511	11.35
668.837	9.76
669.162	10.66
669.488	11.67
669.814	10.82
670.139	10.64
670.465	11.06
670.791	10.82
671.116	10.19
671.442	11.04
671.767	10.22
672.092	10.71
672.418	11.51
672.743	11.05
673.068	10.86
673.393	10.92
673.718	10.7
674.043	11
674.368	11.08
674.693	10.87
675.018	10.91
675.343	11.04
675.667	11.11
675.992	11.08
676.317	11.02
676.641	11.42
676.966	11.26
677.29	10.95
677.615	11.09
677.939	11.38
678.264	11.19
678.588	11.63
678.912	11.42
679.236	10.99
679.56	10.82
679.885	10.88
680.209	11.9
680.532	11.23
680.856	10.79
681.18	11.14
681.504	11.38
681.828	11.17
682.152	10.93
682.475	11.72
682.799	11.26
683.122	11.36
683.446	11.1
683.769	11.34
684.093	11.87
684.416	12.04
684.739	11.54
685.062	12.11
685.386	11.49
685.709	11.46
686.032	11.47
686.355	11.42
686.678	11.15
687.001	11.65
687.324	12.09
687.646	11.66
687.969	11.57
688.292	11.98
688.614	12.32
688.937	12.02
689.26	11.59
689.582	11.83
689.904	11.73
690.227	12.22
