Data from 0142_forehead_Reflection__0__31.txt Node

Date: Fri Sep 22 20:35:29 CDT 2023
User: ToomeyLab
Spectrometer: FLMS14357
Trigger mode: 0
Integration Time (sec): 1.000000E-2
Scans to average: 100
Electric dark correction enabled: true
Nonlinearity correction enabled: false
Boxcar width: 0
XAxis mode: Wavelengths
Number of Pixels in Spectrum: 2048
>>>>>Begin Spectral Data<<<<<
189.047	53.88
189.435	53.88
189.823	53.88
190.211	-470.83
190.599	346.99
190.987	221.8
191.375	110.82
191.763	-214.97
192.151	29.52
192.538	165.93
192.926	77.81
193.314	-2596
193.702	423.32
194.089	119.29
194.477	26642.86
194.864	122.58
195.252	-136.28
195.639	-56.8
196.027	-17.09
196.414	85.07
196.801	195.88
197.189	17.82
197.576	105.99
197.963	152.36
198.351	47.16
198.738	48.5
199.125	78.79
199.512	46.37
199.899	55.79
200.286	49.61
200.673	53.61
201.06	50.85
201.447	91.29
201.833	30.16
202.22	48.64
202.607	47.06
202.994	58.93
203.38	57.15
203.767	75.64
204.154	67.15
204.54	56.73
204.927	37.24
205.313	55.22
205.699	60.96
206.086	58.43
206.472	66.9
206.858	51.8
207.245	51.69
207.631	38.26
208.017	17.64
208.403	32.25
208.789	51.25
209.175	33.77
209.561	45.8
209.947	44.85
210.333	36.89
210.719	31.29
211.105	79.02
211.491	44.71
211.876	46.94
212.262	71.82
212.648	86.75
213.034	44.35
213.419	10.55
213.805	55.64
214.19	23.2
214.576	36.72
214.961	30.18
215.346	63.73
215.732	36.86
216.117	33.29
216.502	58.82
216.888	35.82
217.273	22.46
217.658	30.32
218.043	52.39
218.428	39.64
218.813	32.63
219.198	26.93
219.583	29.51
219.968	35.95
220.353	61.64
220.738	27.06
221.122	19.47
221.507	27.89
221.892	41.05
222.276	23.7
222.661	9.79
223.046	27.6
223.43	30.97
223.815	19.91
224.199	12.2
224.583	23.66
224.968	25.83
225.352	15.2
225.736	23.58
226.121	18.41
226.505	17.03
226.889	17.5
227.273	15.82
227.657	11.92
228.041	12.44
228.425	14.01
228.809	5.94
229.193	8.13
229.577	10.61
229.961	10.14
230.344	8.89
230.728	6.47
231.112	7.62
231.495	7.56
231.879	7.24
232.263	6.77
232.646	8.66
233.03	7.73
233.413	7.88
233.797	7.99
234.18	8.03
234.563	10.41
234.946	7.42
235.33	5.67
235.713	7.38
236.096	8.47
236.479	7.9
236.862	9.86
237.245	8.96
237.628	9.32
238.011	7.73
238.394	8.95
238.777	9.14
239.16	9.15
239.543	9.68
239.925	8.81
240.308	8.62
240.691	8.96
241.073	9.46
241.456	7.78
241.838	7.93
242.221	8.82
242.603	8.32
242.986	8.26
243.368	6.8
243.75	7.49
244.133	7.58
244.515	6.88
244.897	6.81
245.279	7
245.661	7.38
246.043	6.86
246.425	7.86
246.807	8.35
247.189	6.18
247.571	8.33
247.953	7.58
248.335	7.61
248.717	7.17
249.098	6.52
249.48	6.68
249.862	6.73
250.243	6.85
250.625	7.13
251.006	6.68
251.388	7.08
251.769	7.84
252.151	8.16
252.532	8.15
252.913	8.13
253.295	8.61
253.676	7.53
254.057	7.14
254.438	7.02
254.819	6.38
255.2	7.3
255.581	7.45
255.962	8.32
256.343	7.17
256.724	7.07
257.105	8.21
257.486	8.43
257.867	7.93
258.247	7.66
258.628	8.31
259.009	7.31
259.389	7.12
259.77	8.18
260.15	7.9
260.531	6.39
260.911	7.49
261.292	6.85
261.672	6.76
262.052	6.73
262.432	6.68
262.813	6.89
263.193	6.73
263.573	7.54
263.953	7.03
264.333	7.03
264.713	7.3
265.093	6.29
265.473	7.85
265.853	7.03
266.233	7.17
266.612	7.32
266.992	7.29
267.372	7.61
267.752	8.03
268.131	7.04
268.511	6.81
268.89	7.21
269.27	6.83
269.649	6.84
270.029	6.66
270.408	7.27
270.787	7.4
271.167	6.86
271.546	6.63
271.925	7.18
272.304	6.83
272.683	7.43
273.062	7.08
273.441	7.05
273.82	7.26
274.199	6.83
274.578	7.05
274.957	6.74
275.336	6.9
275.715	6.92
276.093	7.25
276.472	6.61
276.851	7.49
277.229	6.35
277.608	6.92
277.986	6.5
278.365	6.87
278.743	7.09
279.122	7.23
279.5	7.14
279.878	7.18
280.257	7.74
280.635	7.64
281.013	6.89
281.391	6.77
281.769	6.78
282.147	7.13
282.525	6.88
282.903	7.51
283.281	7.14
283.659	7.33
284.037	6.9
284.415	7
284.792	7.02
285.17	7.44
285.548	7.77
285.925	7.3
286.303	6.59
286.68	6.8
287.058	6.71
287.435	6.87
287.813	6.62
288.19	6.8
288.567	7.37
288.945	6.73
289.322	7.13
289.699	7.23
290.076	7.2
290.453	6.98
290.83	6.87
291.207	7.55
291.584	7.24
291.961	7.21
292.338	7.5
292.715	7.31
293.092	7.47
293.469	7.35
293.845	7.73
294.222	7.91
294.599	7.81
294.975	8.18
295.352	8.39
295.728	7.87
296.105	7.82
296.481	7.95
296.858	7.86
297.234	7.44
297.61	8.41
297.986	8.2
298.363	7.69
298.739	7.96
299.115	8.35
299.491	8.01
299.867	8.08
300.243	8.19
300.619	8.36
300.995	8.04
301.371	8.84
301.746	8.94
302.122	8.26
302.498	8.32
302.874	8.28
303.249	8.85
303.625	8.41
304	9.03
304.376	9.49
304.751	9.86
305.127	9.01
305.502	9.64
305.878	9.17
306.253	9.28
306.628	9.38
307.003	9.78
307.378	9.11
307.754	9.72
308.129	9.68
308.504	10.16
308.879	10.09
309.254	10
309.629	9.95
310.003	10.75
310.378	10.67
310.753	10.22
311.128	10.17
311.502	9.96
311.877	9.96
312.252	10.13
312.626	10.25
313.001	10.45
313.375	10.1
313.75	11.08
314.124	10.83
314.498	10.32
314.873	10.74
315.247	11.08
315.621	10.93
315.995	10.85
316.369	10.6
316.743	11.14
317.117	10.9
317.491	11.65
317.865	11.37
318.239	11.76
318.613	11.87
318.987	11.73
319.361	11.42
319.734	11.44
320.108	11.92
320.482	12.04
320.855	11.94
321.229	12.14
321.602	12.22
321.976	11.89
322.349	11.93
322.723	12.96
323.096	12.34
323.469	12.57
323.843	12.63
324.216	13.18
324.589	12.73
324.962	12.35
325.335	12.61
325.708	13.12
326.081	13.11
326.454	12.19
326.827	12.87
327.2	12.87
327.573	13.49
327.945	13.24
328.318	13.27
328.691	13.59
329.063	12.95
329.436	13.06
329.809	13.62
330.181	13.95
330.553	13.55
330.926	13.88
331.298	13.75
331.671	14.62
332.043	13.36
332.415	13.82
332.787	14.76
333.159	13.97
333.532	14
333.904	13.7
334.276	13.81
334.648	13.79
335.02	14.41
335.391	14.3
335.763	14.43
336.135	14.41
336.507	15.02
336.879	14.2
337.25	14.5
337.622	15.19
337.993	15.03
338.365	14.85
338.736	15.12
339.108	14.99
339.479	15.31
339.851	14.81
340.222	14.98
340.593	15.44
340.964	15.06
341.336	15.11
341.707	15.06
342.078	15.86
342.449	15.37
342.82	15.32
343.191	15.11
343.562	15.24
343.933	15.67
344.303	15.62
344.674	16.19
345.045	16.22
345.416	16.14
345.786	15.73
346.157	15.89
346.527	16.05
346.898	16.01
347.268	16.18
347.639	16.28
348.009	16.26
348.38	16.28
348.75	16.59
349.12	16.55
349.49	16.66
349.861	16.92
350.231	16.55
350.601	17.24
350.971	16.86
351.341	16.98
351.711	16.44
352.081	16.8
352.45	16.81
352.82	17.5
353.19	17.35
353.56	17.31
353.929	17.33
354.299	17.59
354.669	17.66
355.038	17.47
355.408	17.47
355.777	17.7
356.147	17.84
356.516	17.86
356.885	18.23
357.254	18.01
357.624	17.74
357.993	18.22
358.362	18.24
358.731	18.04
359.1	18.37
359.469	18.46
359.838	17.9
360.207	18.23
360.576	18.55
360.945	18.5
361.314	18.39
361.682	18.83
362.051	18.75
362.42	19.12
362.788	18.83
363.157	18.95
363.525	18.77
363.894	19.19
364.262	19.07
364.631	19.03
364.999	19.25
365.367	19.4
365.735	19.6
366.104	19.35
366.472	20.03
366.84	19.66
367.208	19.96
367.576	19.86
367.944	19.84
368.312	20.03
368.68	19.91
369.048	20.12
369.416	20
369.783	19.98
370.151	20.11
370.519	20.37
370.886	20.67
371.254	20.82
371.621	20.61
371.989	20.66
372.356	20.17
372.724	20.85
373.091	21.1
373.458	20.95
373.826	21.32
374.193	21.1
374.56	21.06
374.927	21.3
375.294	20.92
375.661	21.36
376.028	21.61
376.395	21.86
376.762	21.7
377.129	21.85
377.496	21.89
377.863	21.71
378.229	21.81
378.596	21.95
378.963	22.07
379.329	21.76
379.696	22.21
380.062	21.96
380.429	22.2
380.795	22.21
381.161	22.39
381.528	22.35
381.894	22.54
382.26	22.78
382.626	23.06
382.993	22.87
383.359	22.59
383.725	22.86
384.091	22.8
384.457	22.87
384.823	22.79
385.188	23.47
385.554	23.53
385.92	23.59
386.286	23.5
386.651	23.24
387.017	23.91
387.383	23.66
387.748	23.94
388.114	23.78
388.479	23.9
388.845	24.16
389.21	24.08
389.575	24.37
389.94	24.27
390.306	24.24
390.671	24.77
391.036	23.99
391.401	24.37
391.766	24.29
392.131	24.89
392.496	24.75
392.861	24.75
393.226	25.22
393.591	24.78
393.956	24.98
394.32	24.91
394.685	25.22
395.05	25.44
395.414	25.44
395.779	25.46
396.143	25.63
396.508	25.8
396.872	25.72
397.236	25.61
397.601	25.7
397.965	25.92
398.329	26
398.694	26.11
399.058	26.05
399.422	26.12
399.786	26.4
400.15	26.76
400.514	26.37
400.878	26.42
401.242	26.85
401.605	26.65
401.969	26.39
402.333	26.98
402.697	26.66
403.06	26.74
403.424	27.15
403.787	26.99
404.151	26.94
404.514	27.22
404.878	27.38
405.241	27.52
405.604	27.45
405.968	27.47
406.331	27.45
406.694	27.56
407.057	27.3
407.42	27.52
407.783	27.68
408.146	27.82
408.509	27.76
408.872	27.8
409.235	28.03
409.598	28.17
409.961	28.38
410.323	28.6
410.686	28.85
411.049	28.71
411.411	28.7
411.774	28.6
412.136	28.52
412.499	28.69
412.861	28.83
413.223	29.03
413.586	28.64
413.948	29.54
414.31	29.12
414.672	29.25
415.035	29.37
415.397	29.61
415.759	29.71
416.121	29.51
416.483	29.7
416.845	29.53
417.206	29.78
417.568	29.68
417.93	29.65
418.292	29.84
418.653	29.8
419.015	29.66
419.377	29.89
419.738	29.85
420.1	29.64
420.461	29.68
420.822	29.78
421.184	29.78
421.545	29.92
421.906	29.85
422.267	30.08
422.629	30.17
422.99	30.01
423.351	30.06
423.712	30.04
424.073	30.12
424.434	30.24
424.795	30.54
425.155	30.61
425.516	30.68
425.877	30.64
426.238	30.46
426.598	30.47
426.959	30.71
427.32	30.67
427.68	30.95
428.041	30.93
428.401	31.64
428.761	31.41
429.122	31.63
429.482	31.91
429.842	31.74
430.202	31.95
430.563	32.06
430.923	32.17
431.283	32.43
431.643	32.19
432.003	32.53
432.363	32.5
432.722	32.35
433.082	32.48
433.442	32.66
433.802	32.6
434.161	32.49
434.521	32.63
434.881	32.76
435.24	32.49
435.6	32.57
435.959	32.6
436.319	32.7
436.678	33.07
437.037	33.07
437.396	33.21
437.756	33.35
438.115	33.18
438.474	33.49
438.833	33.63
439.192	33.5
439.551	33.56
439.91	33.79
440.269	33.71
440.628	33.65
440.987	33.8
441.345	33.58
441.704	33.75
442.063	33.69
442.421	34
442.78	33.73
443.138	33.87
443.497	33.81
443.855	34.22
444.214	34.12
444.572	34.34
444.93	34.61
445.288	34.62
445.647	34.74
446.005	34.71
446.363	34.47
446.721	34.74
447.079	34.63
447.437	34.81
447.795	34.63
448.153	34.47
448.51	34.44
448.868	34.3
449.226	34.56
449.584	34.76
449.941	34.92
450.299	35.04
450.656	35.17
451.014	35.64
451.371	35.67
451.729	35.7
452.086	35.92
452.443	35.88
452.801	35.95
453.158	36
453.515	36.11
453.872	36.31
454.229	36.55
454.586	36.55
454.943	36.19
455.3	36.59
455.657	36.42
456.014	36.51
456.371	36.74
456.727	36.38
457.084	36.67
457.441	36.78
457.797	36.81
458.154	36.93
458.51	36.95
458.867	37.19
459.223	37.35
459.58	37.39
459.936	37.22
460.292	37.24
460.648	37.43
461.005	37.25
461.361	37.03
461.717	36.83
462.073	36.9
462.429	36.76
462.785	37.03
463.141	37.26
463.496	37.62
463.852	37.96
464.208	38.11
464.564	38.06
464.919	38.1
465.275	38.57
465.631	38.69
465.986	38.32
466.342	38.21
466.697	38.64
467.052	38.56
467.408	38.56
467.763	38.88
468.118	38.63
468.473	38.41
468.829	38.76
469.184	38.77
469.539	38.6
469.894	38.94
470.249	38.87
470.603	39.02
470.958	39.16
471.313	39.23
471.668	39.4
472.023	39.26
472.377	39.44
472.732	39.41
473.086	39.59
473.441	39.52
473.795	39.6
474.15	39.54
474.504	39.58
474.859	39.81
475.213	39.52
475.567	39.66
475.921	39.95
476.275	39.76
476.63	39.93
476.984	40.39
477.338	40.31
477.692	40.63
478.045	40.6
478.399	40.35
478.753	40.25
479.107	40.35
479.461	40.42
479.814	40.51
480.168	40.81
480.521	40.56
480.875	40.54
481.228	40.66
481.582	40.68
481.935	40.94
482.289	40.83
482.642	41.06
482.995	40.95
483.348	40.84
483.701	40.9
484.055	40.85
484.408	40.81
484.761	40.79
485.114	40.74
485.466	40.34
485.819	39.99
486.172	40.28
486.525	40.38
486.878	40.27
487.23	40.48
487.583	40.49
487.936	40.83
488.288	41.18
488.641	41.26
488.993	40.99
489.345	40.85
489.698	40.75
490.05	40.85
490.402	40.89
490.754	41.1
491.107	41.15
491.459	41.53
491.811	41.76
492.163	42.11
492.515	41.94
492.866	42.22
493.218	42.05
493.57	41.58
493.922	41.52
494.274	41.61
494.625	41.77
494.977	42.15
495.328	42.3
495.68	42.7
496.031	42.84
496.383	43.13
496.734	43.44
497.086	43.35
497.437	43.42
497.788	43.54
498.139	43.36
498.49	43.3
498.842	43.32
499.193	43.24
499.544	43.31
499.894	43.46
500.245	43.55
500.596	43.62
500.947	43.7
501.298	43.87
501.648	43.82
501.999	44.16
502.35	44.12
502.7	44.15
503.051	44.3
503.401	44.33
503.752	44.53
504.102	44.28
504.452	44.78
504.803	44.72
505.153	45.23
505.503	44.71
505.853	44.74
506.203	44.8
506.553	44.9
506.903	44.84
507.253	44.81
507.603	44.98
507.953	45.21
508.303	45.19
508.652	45.2
509.002	45.27
509.352	45.11
509.701	45.14
510.051	45.24
510.4	45.42
510.75	45.26
511.099	45.13
511.449	45.28
511.798	45.3
512.147	45.2
512.496	45.42
512.846	45.51
513.195	45.55
513.544	45.63
513.893	45.67
514.242	45.67
514.591	45.85
514.939	45.86
515.288	45.96
515.637	46.15
515.986	46.18
516.334	46.38
516.683	46.47
517.032	46.78
517.38	46.73
517.729	46.45
518.077	46.81
518.426	46.78
518.774	47.03
519.122	46.68
519.47	46.77
519.819	46.64
520.167	46.55
520.515	46.51
520.863	46.43
521.211	46.33
521.559	46.42
521.907	46.64
522.255	46.78
522.602	47.09
522.95	47.11
523.298	47.17
523.645	47.42
523.993	47.57
524.341	47.65
524.688	47.78
525.036	47.58
525.383	47.79
525.73	47.84
526.078	47.87
526.425	47.91
526.772	47.89
527.119	47.92
527.466	47.51
527.814	47.48
528.161	47.67
528.508	47.61
528.854	47.7
529.201	47.7
529.548	47.9
529.895	47.81
530.242	47.37
530.588	47.25
530.935	47.48
531.282	47.76
531.628	47.64
531.975	47.66
532.321	47.74
532.667	47.94
533.014	48.37
533.36	48.45
533.706	48.35
534.052	48.7
534.399	48.56
534.745	48.58
535.091	48.24
535.437	48.09
535.783	48.3
536.129	48.5
536.474	48.45
536.82	48.71
537.166	49.17
537.512	49.42
537.857	49.4
538.203	49.5
538.549	49.34
538.894	49.15
539.239	49.19
539.585	49.44
539.93	49.57
540.276	49.65
540.621	49.93
540.966	50.14
541.311	50.4
541.656	50.05
542.001	50.43
542.346	50.42
542.691	50.27
543.036	49.88
543.381	49.35
543.726	49.34
544.071	49.55
544.415	49.51
544.76	49.5
545.105	49.84
545.449	50.16
545.794	50.22
546.138	50.44
546.483	50.53
546.827	50.73
547.171	50.87
547.516	50.94
547.86	51.07
548.204	51.07
548.548	50.9
548.892	50.85
549.236	50.97
549.58	51.13
549.924	51.17
550.268	51.53
550.612	51.62
550.956	51.69
551.3	51.9
551.643	52.11
551.987	52.19
552.33	51.96
552.674	52.24
553.017	52.14
553.361	52.15
553.704	52.32
554.048	52.38
554.391	52.34
554.734	52.22
555.077	52.46
555.42	52.33
555.764	52.39
556.107	52.36
556.45	52.94
556.793	52.51
557.135	52.91
557.478	52.79
557.821	52.98
558.164	52.67
558.507	53.09
558.849	52.98
559.192	53.2
559.534	53.53
559.877	53.51
560.219	53.34
560.562	53.5
560.904	53.77
561.246	53.71
561.589	53.65
561.931	53.53
562.273	53.49
562.615	53.39
562.957	53.61
563.299	53.96
563.641	53.77
563.983	53.97
564.325	54.05
564.667	54.04
565.008	54.03
565.35	54.12
565.692	54.39
566.033	54.6
566.375	54.05
566.716	54.05
567.058	54.38
567.399	54.14
567.741	54.37
568.082	54.12
568.423	54.17
568.764	54.36
569.105	54.48
569.447	54.14
569.788	54
570.129	54.45
570.47	54.65
570.811	54.83
571.151	55.05
571.492	54.67
571.833	54.99
572.174	54.68
572.514	55.05
572.855	55.3
573.195	54.78
573.536	55.17
573.876	54.96
574.217	55.03
574.557	54.93
574.898	55.02
575.238	55.09
575.578	55.29
575.918	55.14
576.258	55.26
576.598	55.53
576.938	55.48
577.278	55.45
577.618	55.29
577.958	55.49
578.298	55.67
578.638	55.46
578.977	55.87
579.317	55.78
579.657	55.81
579.996	56.2
580.336	56.33
580.675	56.46
581.014	56.07
581.354	56.01
581.693	56.44
582.032	56.57
582.372	56.42
582.711	56.43
583.05	56.58
583.389	56.29
583.728	56.57
584.067	56.74
584.406	56.89
584.745	56.83
585.083	56.76
585.422	57.35
585.761	57.13
586.1	56.84
586.438	56.86
586.777	56.96
587.115	57.16
587.454	56.94
587.792	57.31
588.13	57.41
588.469	57.33
588.807	57.8
589.145	57.44
589.483	57.45
589.821	57.88
590.159	57.73
590.497	57.61
590.835	57.77
591.173	57.75
591.511	57.67
591.849	57.85
592.187	57.63
592.524	57.79
592.862	57.69
593.2	57.82
593.537	57.72
593.875	57.9
594.212	58.23
594.55	58.27
594.887	58.25
595.224	58.76
595.561	58.79
595.899	58.34
596.236	58.75
596.573	58.55
596.91	58.32
597.247	58.83
597.584	58.49
597.921	58.46
598.258	58.55
598.594	58.76
598.931	58.24
599.268	58.16
599.604	58.33
599.941	58.86
600.277	58.52
600.614	58.88
600.95	58.84
601.287	58.9
601.623	58.73
601.959	58.88
602.296	59.59
602.632	59.49
602.968	58.85
603.304	59.5
603.64	59.6
603.976	59.56
604.312	59.24
604.648	59.66
604.984	59.62
605.319	59.2
605.655	59.18
605.991	59.31
606.326	59.51
606.662	59.16
606.998	59.11
607.333	59.45
607.668	59.33
608.004	59.53
608.339	59.89
608.674	59.65
609.01	60.02
609.345	60.09
609.68	60.39
610.015	60.4
610.35	60.05
610.685	60.4
611.02	60.29
611.355	60.28
611.689	59.57
612.024	59.96
612.359	60.06
612.694	60.23
613.028	60.36
613.363	60.28
613.697	60.64
614.032	60.77
614.366	60.93
614.7	61.48
615.035	60.83
615.369	60.99
615.703	60.96
616.037	60.94
616.371	60.95
616.705	60.83
617.039	60.92
617.373	61.07
617.707	61.18
618.041	61.73
618.375	61.68
618.709	61.48
619.042	61.07
619.376	61.32
619.71	61.45
620.043	61.48
620.377	61.26
620.71	61.39
621.043	61.54
621.377	61.59
621.71	61.41
622.043	61.52
622.376	61.53
622.709	61.95
623.043	61.74
623.376	61.86
623.709	61.93
624.041	61.83
624.374	61.85
624.707	62.5
625.04	62.16
625.373	62.24
625.705	62.25
626.038	62.06
626.37	62.72
626.703	62.28
627.035	62.02
627.368	61.91
627.7	62.75
628.032	62.42
628.365	62.07
628.697	62.11
629.029	62.35
629.361	62.1
629.693	62.45
630.025	62.49
630.357	62.68
630.689	62.55
631.021	62.47
631.353	62.58
631.684	62.6
632.016	62.95
632.348	63.35
632.679	63.09
633.011	62.99
633.342	63.32
633.674	63.22
634.005	62.74
634.336	63.53
634.668	63.24
634.999	63.23
635.33	63.57
635.661	63.41
635.992	62.76
636.323	62.88
636.654	63.6
636.985	62.7
637.316	63.38
637.647	63.78
637.977	63.25
638.308	63.53
638.639	63.12
638.969	63.58
639.3	63.13
639.63	63.56
639.961	63.7
640.291	63.47
640.622	63.9
640.952	63.55
641.282	63.94
641.612	64.13
641.943	63.22
642.273	64.15
642.603	64.4
642.933	64.1
643.263	64.08
643.592	63.99
643.922	63.98
644.252	64.05
644.582	64.08
644.911	64.37
645.241	64.9
645.571	64.8
645.9	64.86
646.23	64.39
646.559	64.3
646.888	65.04
647.218	64.52
647.547	64.86
647.876	64.4
648.205	64.04
648.534	64.74
648.863	65
649.192	64.66
649.521	64.73
649.85	65.01
650.179	64.65
650.508	64.88
650.837	64.94
651.165	64.16
651.494	64.16
651.822	64.95
652.151	65.05
652.479	65.21
652.808	65.21
653.136	64.96
653.465	65.31
653.793	64.69
654.121	65.29
654.449	64.88
654.777	65.5
655.105	65.16
655.433	65.74
655.761	65.6
656.089	65.37
656.417	65.99
656.745	65.39
657.073	65.9
657.4	65.93
657.728	65.62
658.056	65.9
658.383	65.99
658.711	66.2
659.038	65.8
659.365	66.16
659.693	65.06
660.02	66.06
660.347	66.34
660.674	66.02
661.001	65.48
661.329	65.51
661.656	65.86
661.982	66.22
662.309	66.04
662.636	65.9
662.963	66.29
663.29	66.53
663.616	66.36
663.943	66.5
664.27	65.93
664.596	66.26
664.923	66.59
665.249	66.9
665.576	66.7
665.902	67.14
666.228	67.03
666.554	66.42
666.881	66.69
667.207	66.23
667.533	66
667.859	67.59
668.185	67.04
668.511	67.24
668.837	66.57
