Data from 0142_crown_Reflection__0__26.txt Node

Date: Fri Sep 22 20:34:10 CDT 2023
User: ToomeyLab
Spectrometer: FLMS14357
Trigger mode: 0
Integration Time (sec): 1.000000E-2
Scans to average: 100
Electric dark correction enabled: true
Nonlinearity correction enabled: false
Boxcar width: 0
XAxis mode: Wavelengths
Number of Pixels in Spectrum: 2048
>>>>>Begin Spectral Data<<<<<
189.047	-10.92
189.435	-10.92
189.823	-10.92
190.211	-524.64
190.599	33.58
190.987	599.3
191.375	-4.02
191.763	137.13
192.151	32.37
192.538	53.62
192.926	45.77
193.314	-22676
193.702	243.39
194.089	95.29
194.477	-25985.71
194.864	169.6
195.252	-9
195.639	154.55
196.027	122.15
196.414	-19.46
196.801	67.52
197.189	41.35
197.576	446.95
197.963	802.11
198.351	20.7
198.738	18.27
199.125	-48.47
199.512	9.59
199.899	38.53
200.286	40.64
200.673	7.29
201.06	33.75
201.447	66.88
201.833	-51
202.22	24.37
202.607	40.49
202.994	53.14
203.38	-0.34
203.767	15.55
204.154	64.76
204.54	-28.15
204.927	-6.2
205.313	-11.65
205.699	35.25
206.086	23.92
206.472	42.71
206.858	30.44
207.245	-61.51
207.631	41
208.017	7.38
208.403	-0.39
208.789	20.71
209.175	35.63
209.561	35.21
209.947	8.84
210.333	8.37
210.719	3.68
211.105	32.28
211.491	31.87
211.876	48.4
212.262	10.19
212.648	45.49
213.034	30.33
213.419	40.01
213.805	31.55
214.19	7.07
214.576	5.9
214.961	9.49
215.346	15.09
215.732	38.6
216.117	22.99
216.502	42.53
216.888	13.24
217.273	24.29
217.658	8.07
218.043	-3.5
218.428	16.6
218.813	-30.7
219.198	30.49
219.583	19.67
219.968	-13.05
220.353	23.21
220.738	-10.28
221.122	5.17
221.507	8.33
221.892	5.3
222.276	3.52
222.661	-21.31
223.046	16.05
223.43	20.19
223.815	6.61
224.199	-1.23
224.583	6.85
224.968	13.51
225.352	7.25
225.736	3.71
226.121	15.64
226.505	9.67
226.889	13.35
227.273	4.47
227.657	7.34
228.041	3.51
228.425	8.61
228.809	4.69
229.193	5.28
229.577	7.16
229.961	7.53
230.344	6.47
230.728	3.32
231.112	4.78
231.495	3.96
231.879	4.16
232.263	3.24
232.646	3.06
233.03	3.93
233.413	4
233.797	4.13
234.18	3.52
234.563	8.55
234.946	5.05
235.33	1.97
235.713	2.55
236.096	3.75
236.479	3.8
236.862	5.9
237.245	3.94
237.628	5.88
238.011	4.28
238.394	4.52
238.777	6.1
239.16	6.51
239.543	5.34
239.925	5.2
240.308	6.13
240.691	4.91
241.073	6.87
241.456	4.64
241.838	2.7
242.221	3.96
242.603	3.74
242.986	3.41
243.368	3.24
243.75	4.33
244.133	4.44
244.515	3.81
244.897	3.29
245.279	2.92
245.661	3.01
246.043	3.96
246.425	3.13
246.807	3.87
247.189	3.26
247.571	2.88
247.953	4.13
248.335	3.44
248.717	3.59
249.098	3.42
249.48	3.35
249.862	3.3
250.243	3.36
250.625	3.6
251.006	2.62
251.388	3.1
251.769	3.61
252.151	3.55
252.532	4.1
252.913	3.89
253.295	4.32
253.676	3.76
254.057	3.98
254.438	3.73
254.819	3.1
255.2	3.54
255.581	3.69
255.962	3.5
256.343	3.08
256.724	2.56
257.105	3.61
257.486	4.67
257.867	3.92
258.247	4.54
258.628	4.48
259.009	2.7
259.389	3.06
259.77	3.29
260.15	4.02
260.531	3.32
260.911	3.35
261.292	3.34
261.672	2.91
262.052	3.2
262.432	3.16
262.813	3.16
263.193	3.35
263.573	3.56
263.953	2.71
264.333	3.09
264.713	3.63
265.093	2.99
265.473	3.26
265.853	3.3
266.233	3.55
266.612	3.44
266.992	3.77
267.372	2.75
267.752	3.8
268.131	2.87
268.511	2.71
268.89	3.23
269.27	3.39
269.649	3.47
270.029	3.24
270.408	2.99
270.787	3.38
271.167	3.41
271.546	2.88
271.925	3.34
272.304	2.67
272.683	3.45
273.062	3.7
273.441	2.97
273.82	3.53
274.199	3.43
274.578	3.24
274.957	3.34
275.336	3.12
275.715	3.11
276.093	2.74
276.472	3.04
276.851	3.3
277.229	2.92
277.608	3.25
277.986	2.95
278.365	3.12
278.743	3.18
279.122	3.02
279.5	3.36
279.878	3.44
280.257	4.1
280.635	3.22
281.013	3.67
281.391	2.59
281.769	2.91
282.147	3.3
282.525	2.92
282.903	3.11
283.281	3.38
283.659	3.26
284.037	2.64
284.415	2.93
284.792	2.94
285.17	3.3
285.548	3.14
285.925	2.96
286.303	3.42
286.68	2.81
287.058	2.91
287.435	2.95
287.813	3.06
288.19	2.41
288.567	2.97
288.945	2.59
289.322	2.53
289.699	3.09
290.076	3.12
290.453	2.93
290.83	2.77
291.207	3.05
291.584	2.48
291.961	2.74
292.338	3.48
292.715	3.44
293.092	2.77
293.469	3.04
293.845	2.8
294.222	3.2
294.599	3.2
294.975	3.59
295.352	3.57
295.728	2.62
296.105	3.32
296.481	3.03
296.858	3.18
297.234	2.84
297.61	3
297.986	3.35
298.363	3.11
298.739	3.15
299.115	2.98
299.491	2.85
299.867	2.89
300.243	2.92
300.619	3.19
300.995	2.77
301.371	2.96
301.746	3.49
302.122	2.86
302.498	2.61
302.874	2.7
303.249	2.7
303.625	3.02
304	2.95
304.376	3.18
304.751	2.82
305.127	2.89
305.502	3.77
305.878	3.19
306.253	3.02
306.628	2.99
307.003	3.11
307.378	3.13
307.754	3.04
308.129	2.99
308.504	2.72
308.879	3.13
309.254	3.33
309.629	3.12
310.003	3.86
310.378	3.14
310.753	3.15
311.128	2.87
311.502	3.47
311.877	2.79
312.252	2.67
312.626	3.07
313.001	3.04
313.375	3.37
313.75	3.35
314.124	2.93
314.498	2.86
314.873	2.98
315.247	3.06
315.621	3.06
315.995	3.11
316.369	3.17
316.743	2.83
317.117	3.37
317.491	3.2
317.865	3.05
318.239	2.95
318.613	2.76
318.987	2.72
319.361	2.43
319.734	2.81
320.108	3.02
320.482	3.13
320.855	3.01
321.229	3.44
321.602	3.52
321.976	2.57
322.349	3.11
322.723	3.24
323.096	3.45
323.469	2.76
323.843	2.64
324.216	3.4
324.589	3.27
324.962	2.8
325.335	3.22
325.708	3.13
326.081	3.32
326.454	2.98
326.827	3.25
327.2	2.95
327.573	3.32
327.945	3.13
328.318	3.58
328.691	3.38
329.063	2.52
329.436	2.9
329.809	3.19
330.181	3.44
330.553	3.06
330.926	3.13
331.298	3.19
331.671	3.35
332.043	2.75
332.415	3.03
332.787	3.63
333.159	2.89
333.532	3.02
333.904	3.14
334.276	2.75
334.648	3.22
335.02	2.89
335.391	2.75
335.763	3.4
336.135	3.48
336.507	3.26
336.879	2.6
337.25	2.97
337.622	3.19
337.993	2.95
338.365	3.51
338.736	3.34
339.108	2.88
339.479	2.89
339.851	2.65
340.222	3.08
340.593	3.22
340.964	2.58
341.336	2.6
341.707	2.93
342.078	3.07
342.449	2.83
342.82	2.81
343.191	2.81
343.562	2.68
343.933	3.22
344.303	3.12
344.674	3.3
345.045	3.41
345.416	3.38
345.786	2.68
346.157	2.95
346.527	3.04
346.898	2.86
347.268	2.7
347.639	2.67
348.009	2.77
348.38	2.96
348.75	2.91
349.12	2.29
349.49	3.16
349.861	3.06
350.231	3.06
350.601	2.85
350.971	3.05
351.341	3.21
351.711	3.04
352.081	3
352.45	2.93
352.82	2.92
353.19	2.94
353.56	2.61
353.929	3.11
354.299	3.27
354.669	2.68
355.038	2.82
355.408	2.86
355.777	3.28
356.147	3.06
356.516	3.27
356.885	2.73
357.254	3.37
357.624	2.48
357.993	2.86
358.362	2.92
358.731	2.96
359.1	2.92
359.469	2.98
359.838	2.75
360.207	2.75
360.576	3.03
360.945	3.22
361.314	3.13
361.682	3.18
362.051	3.36
362.42	2.96
362.788	2.94
363.157	2.96
363.525	2.86
363.894	2.99
364.262	2.77
364.631	2.71
364.999	2.79
365.367	3.05
365.735	2.87
366.104	2.79
366.472	3.08
366.84	2.97
367.208	3.25
367.576	2.97
367.944	2.87
368.312	3
368.68	3.12
369.048	3.12
369.416	3.02
369.783	3
370.151	2.93
370.519	3.05
370.886	2.9
371.254	3.2
371.621	3.06
371.989	3.11
372.356	2.79
372.724	2.89
373.091	3
373.458	2.93
373.826	2.88
374.193	3.12
374.56	3.13
374.927	2.88
375.294	3.12
375.661	3.08
376.028	3.29
376.395	2.93
376.762	2.72
377.129	3.29
377.496	3.48
377.863	3.09
378.229	3.07
378.596	2.97
378.963	3.49
379.329	2.92
379.696	3.14
380.062	2.84
380.429	3.16
380.795	2.93
381.161	2.78
381.528	3.39
381.894	3.08
382.26	2.98
382.626	3.12
382.993	3.14
383.359	2.8
383.725	2.93
384.091	3.01
384.457	2.8
384.823	3.21
385.188	3.29
385.554	3.09
385.92	3.34
386.286	3.23
386.651	3.03
387.017	3.31
387.383	2.96
387.748	3
388.114	3.17
388.479	3
388.845	2.86
389.21	2.89
389.575	3.25
389.94	2.82
390.306	3.24
390.671	3.61
391.036	2.99
391.401	3.02
391.766	3.09
392.131	3.2
392.496	3.42
392.861	3.21
393.226	3.32
393.591	3.2
393.956	3.1
394.32	3.12
394.685	2.96
395.05	3.3
395.414	3.32
395.779	3.04
396.143	3.01
396.508	2.96
396.872	3.16
397.236	3.19
397.601	3.06
397.965	3.19
398.329	3.09
398.694	3.11
399.058	3.01
399.422	3.09
399.786	3.34
400.15	3.36
400.514	3
400.878	2.97
401.242	3.14
401.605	2.84
401.969	2.81
402.333	3.25
402.697	2.98
403.06	2.95
403.424	2.91
403.787	3.18
404.151	3.3
404.514	3.26
404.878	3.22
405.241	3.34
405.604	3.11
405.968	3.25
406.331	3.2
406.694	3.24
407.057	2.92
407.42	3.17
407.783	3.05
408.146	3.09
408.509	3.06
408.872	3
409.235	3.06
409.598	3.19
409.961	3.2
410.323	3.15
410.686	3.18
411.049	3.3
411.411	3.23
411.774	2.96
412.136	3.12
412.499	3.13
412.861	3.08
413.223	3.01
413.586	3.06
413.948	3.3
414.31	3.06
414.672	3.24
415.035	3.02
415.397	3.22
415.759	3.34
416.121	3.1
416.483	3.03
416.845	3.08
417.206	3.23
417.568	3.24
417.93	3.14
418.292	3.14
418.653	2.95
419.015	3.04
419.377	3.09
419.738	3.2
420.1	3.03
420.461	3.11
420.822	3.14
421.184	3.1
421.545	3.04
421.906	2.95
422.267	2.98
422.629	3.13
422.99	2.98
423.351	2.92
423.712	2.92
424.073	3.09
424.434	3.16
424.795	3.1
425.155	3.04
425.516	3.07
425.877	2.98
426.238	2.99
426.598	3.03
426.959	3.08
427.32	3.11
427.68	3.04
428.041	2.99
428.401	3.22
428.761	3.15
429.122	3.28
429.482	3.01
429.842	3.14
430.202	3.08
430.563	3.15
430.923	3.26
431.283	3.15
431.643	3.23
432.003	3.21
432.363	3.27
432.722	3.18
433.082	3.35
433.442	3.04
433.802	3.13
434.161	3.1
434.521	3.14
434.881	3.32
435.24	3.12
435.6	3.04
435.959	3.05
436.319	3.05
436.678	3.34
437.037	3.17
437.396	3.18
437.756	3.17
438.115	3
438.474	3.1
438.833	3.05
439.192	3.24
439.551	2.99
439.91	3.3
440.269	3.35
440.628	3
440.987	3.11
441.345	3.07
441.704	3.21
442.063	3.11
442.421	3.06
442.78	3.13
443.138	3.14
443.497	3.12
443.855	3.13
444.214	3.09
444.572	3.19
444.93	3.14
445.288	3.2
445.647	3.31
446.005	3.21
446.363	3.07
446.721	3.23
447.079	3.19
447.437	3.16
447.795	3.25
448.153	3.06
448.51	3.11
448.868	2.99
449.226	3.09
449.584	3.13
449.941	3.06
450.299	3.19
450.656	3.19
451.014	3.27
451.371	3.21
451.729	3.19
452.086	3.12
452.443	3.31
452.801	3.13
453.158	3.17
453.515	3.19
453.872	3.16
454.229	3.35
454.586	3.29
454.943	3.28
455.3	3.22
455.657	3.14
456.014	3.13
456.371	3.27
456.727	3.39
457.084	3.23
457.441	3.06
457.797	3.16
458.154	3.38
458.51	3.02
458.867	3.24
459.223	3.41
459.58	3.27
459.936	3.19
460.292	3.26
460.648	3.3
461.005	3.26
461.361	3.27
461.717	3.05
462.073	3.11
462.429	3.02
462.785	3.16
463.141	3.17
463.496	3.33
463.852	3.3
464.208	3.32
464.564	3.32
464.919	3.17
465.275	3.3
465.631	3.44
465.986	3.43
466.342	3.38
466.697	3.33
467.052	3.27
467.408	3.36
467.763	3.22
468.118	3.45
468.473	3.36
468.829	3.24
469.184	3.29
469.539	3.36
469.894	3.2
470.249	3.26
470.603	3.22
470.958	3.42
471.313	3.39
471.668	3.42
472.023	3.39
472.377	3.24
472.732	3.12
473.086	3.58
473.441	3.18
473.795	3.49
474.15	3.27
474.504	3.11
474.859	3.35
475.213	3.11
475.567	3.15
475.921	3.45
476.275	3.29
476.63	3.22
476.984	3.15
477.338	3.33
477.692	3.39
478.045	3.4
478.399	3.43
478.753	3.28
479.107	3.32
479.461	3.23
479.814	3.42
480.168	3.27
480.521	3.46
480.875	3.46
481.228	3.29
481.582	3.26
481.935	3.33
482.289	3.27
482.642	3.24
482.995	3.23
483.348	3.37
483.701	3.14
484.055	3.17
484.408	3.25
484.761	3.25
485.114	3.16
485.466	3.13
485.819	3.05
486.172	3
486.525	3.03
486.878	3.07
487.23	3.12
487.583	3.19
487.936	3.24
488.288	3.28
488.641	3.24
488.993	3.16
489.345	3.13
489.698	3.08
490.05	3.13
490.402	3.13
490.754	3.1
491.107	3.12
491.459	3.27
491.811	3.23
492.163	3.26
492.515	3.33
492.866	3.27
493.218	3.26
493.57	3.21
493.922	3.16
494.274	3.13
494.625	3.18
494.977	3.25
495.328	3.35
495.68	3.36
496.031	3.31
496.383	3.33
496.734	3.41
497.086	3.4
497.437	3.42
497.788	3.34
498.139	3.36
498.49	3.4
498.842	3.26
499.193	3.29
499.544	3.33
499.894	3.4
500.245	3.38
500.596	3.41
500.947	3.44
501.298	3.44
501.648	3.39
501.999	3.41
502.35	3.42
502.7	3.44
503.051	3.4
503.401	3.34
503.752	3.52
504.102	3.36
504.452	3.42
504.803	3.43
505.153	3.43
505.503	3.35
505.853	3.4
506.203	3.3
506.553	3.52
506.903	3.44
507.253	3.34
507.603	3.48
507.953	3.54
508.303	3.42
508.652	3.38
509.002	3.45
509.352	3.37
509.701	3.57
510.051	3.39
510.4	3.49
510.75	3.5
511.099	3.33
511.449	3.46
511.798	3.45
512.147	3.4
512.496	3.33
512.846	3.38
513.195	3.41
513.544	3.44
513.893	3.49
514.242	3.33
514.591	3.5
514.939	3.44
515.288	3.38
515.637	3.49
515.986	3.4
516.334	3.52
516.683	3.49
517.032	3.5
517.38	3.53
517.729	3.43
518.077	3.52
518.426	3.47
518.774	3.46
519.122	3.5
519.47	3.5
519.819	3.52
520.167	3.48
520.515	3.37
520.863	3.29
521.211	3.4
521.559	3.36
521.907	3.48
522.255	3.4
522.602	3.5
522.95	3.46
523.298	3.48
523.645	3.5
523.993	3.53
524.341	3.47
524.688	3.54
525.036	3.47
525.383	3.54
525.73	3.54
526.078	3.54
526.425	3.5
526.772	3.57
527.119	3.46
527.466	3.38
527.814	3.33
528.161	3.31
528.508	3.46
528.854	3.5
529.201	3.51
529.548	3.47
529.895	3.37
530.242	3.3
530.588	3.26
530.935	3.19
531.282	3.28
531.628	3.34
531.975	3.34
532.321	3.34
532.667	3.38
533.014	3.48
533.36	3.48
533.706	3.45
534.052	3.51
534.399	3.53
534.745	3.52
535.091	3.39
535.437	3.36
535.783	3.34
536.129	3.36
536.474	3.45
536.82	3.36
537.166	3.59
537.512	3.48
537.857	3.5
538.203	3.53
538.549	3.48
538.894	3.39
539.239	3.46
539.585	3.56
539.93	3.59
540.276	3.57
540.621	3.53
540.966	3.54
541.311	3.68
541.656	3.43
542.001	3.64
542.346	3.5
542.691	3.63
543.036	3.48
543.381	3.4
543.726	3.37
544.071	3.38
544.415	3.42
544.76	3.44
545.105	3.4
545.449	3.47
545.794	3.47
546.138	3.56
546.483	3.5
546.827	3.55
547.171	3.55
547.516	3.56
547.86	3.62
548.204	3.53
548.548	3.58
548.892	3.66
549.236	3.52
549.58	3.57
549.924	3.61
550.268	3.74
550.612	3.67
550.956	3.62
551.3	3.87
551.643	3.85
551.987	3.8
552.33	3.94
552.674	3.68
553.017	3.6
553.361	3.62
553.704	3.85
554.048	3.85
554.391	3.88
554.734	3.73
555.077	3.65
555.42	3.57
555.764	3.71
556.107	3.7
556.45	3.72
556.793	3.63
557.135	3.88
557.478	3.82
557.821	3.74
558.164	3.85
558.507	3.78
558.849	3.7
559.192	3.81
559.534	3.91
559.877	3.87
560.219	3.94
560.562	3.71
560.904	3.64
561.246	3.98
561.589	3.81
561.931	3.73
562.273	3.76
562.615	3.73
562.957	3.88
563.299	3.8
563.641	3.75
563.983	3.95
564.325	3.87
564.667	3.73
565.008	3.61
565.35	3.79
565.692	3.94
566.033	3.85
566.375	3.78
566.716	3.82
567.058	3.8
567.399	3.82
567.741	4.12
568.082	3.72
568.423	3.79
568.764	3.95
569.105	3.47
569.447	3.83
569.788	3.55
570.129	3.87
570.47	3.98
570.811	3.83
571.151	3.99
571.492	3.78
571.833	3.63
572.174	3.84
572.514	3.99
572.855	3.8
573.195	3.7
573.536	3.91
573.876	3.76
574.217	3.65
574.557	3.74
574.898	3.88
575.238	3.77
575.578	3.95
575.918	3.78
576.258	3.7
576.598	3.9
576.938	3.95
577.278	3.87
577.618	3.69
577.958	3.85
578.298	3.84
578.638	3.78
578.977	3.75
579.317	3.85
579.657	3.94
579.996	3.86
580.336	4.05
580.675	4.16
581.014	3.93
581.354	3.82
581.693	4.11
582.032	3.8
582.372	3.99
582.711	4.02
583.05	3.86
583.389	3.96
583.728	3.99
584.067	4.11
584.406	4.18
584.745	3.62
585.083	4.24
585.422	4.11
585.761	4.01
586.1	4.02
586.438	4.03
586.777	4.04
587.115	4.1
587.454	4.04
587.792	3.97
588.13	4.06
588.469	3.83
588.807	4.25
589.145	3.95
589.483	3.89
589.821	3.84
590.159	3.94
590.497	4.15
590.835	3.99
591.173	3.88
591.511	4.09
591.849	4.03
592.187	3.96
592.524	4.07
592.862	3.93
593.2	4.04
593.537	4.09
593.875	4.18
594.212	3.97
594.55	4.31
594.887	4.02
595.224	3.91
595.561	4.19
595.899	4.08
596.236	4.28
596.573	4.27
596.91	4.05
597.247	4.09
597.584	4.13
597.921	4.11
598.258	4.04
598.594	4.2
598.931	3.84
599.268	3.86
599.604	4.21
599.941	4.22
600.277	3.93
600.614	4.05
600.95	4.21
601.287	4
601.623	4.06
601.959	3.91
602.296	3.82
602.632	3.91
602.968	4.02
603.304	4.22
603.64	4.04
603.976	4.38
604.312	4.28
604.648	4.17
604.984	4.21
605.319	3.96
605.655	3.95
605.991	4.13
606.326	4.23
606.662	4.01
606.998	3.9
607.333	4.04
607.668	4.09
608.004	4.29
608.339	3.93
608.674	4.04
609.01	4.13
609.345	4.29
609.68	4.34
610.015	4.43
610.35	4.22
610.685	4.37
611.02	4.28
611.355	4.37
611.689	4.08
612.024	4.26
612.359	4.2
612.694	4.2
613.028	4.04
613.363	3.99
613.697	4.08
614.032	4.22
614.366	3.95
614.7	4.13
615.035	4.09
615.369	4.02
615.703	4.21
616.037	4.15
616.371	4.47
616.705	4.33
617.039	4.37
617.373	4.15
617.707	4.28
618.041	4.28
618.375	4.43
618.709	4.31
619.042	4.48
619.376	4.37
619.71	4.34
620.043	4.15
620.377	4.07
620.71	4.38
621.043	4.68
621.377	4.43
621.71	4.37
622.043	4.36
622.376	4.44
622.709	3.99
623.043	4.15
623.376	4.35
623.709	4.11
624.041	4.58
624.374	4.39
624.707	4.62
625.04	4.64
625.373	4.25
625.705	4.31
626.038	4.25
626.37	4.66
626.703	4.43
627.035	4.43
627.368	4.43
627.7	4.56
628.032	4.57
628.365	4.37
628.697	4.21
629.029	4.19
629.361	4.53
629.693	4.42
630.025	4.35
630.357	4.12
630.689	4.26
631.021	4.38
631.353	4.32
631.684	4.39
632.016	4.55
632.348	4.26
632.679	4.28
633.011	4.49
633.342	4.65
633.674	4.9
634.005	4.23
634.336	4.41
634.668	4.76
634.999	4.52
635.33	4.76
635.661	4.65
635.992	4.56
636.323	4.45
636.654	4.6
636.985	4.24
637.316	4.3
637.647	4.61
637.977	4.18
638.308	4.96
638.639	4.33
638.969	4.56
639.3	4.78
639.63	4.66
639.961	4.33
640.291	4.62
640.622	4.56
640.952	4.54
641.282	4.61
641.612	4.37
641.943	4.63
642.273	4.65
642.603	4.63
642.933	4.43
643.263	4.04
643.592	4.48
643.922	5.04
644.252	4.72
644.582	5.13
644.911	4.57
645.241	4.93
645.571	4.53
645.9	4.88
646.23	4.95
646.559	4.66
646.888	5.34
647.218	4.57
647.547	4.53
647.876	4.31
648.205	4.62
648.534	4.83
648.863	4.62
649.192	4.21
649.521	4.84
649.85	4.9
650.179	4.82
650.508	4.28
650.837	4.93
651.165	4.73
651.494	4.66
651.822	4.74
652.151	4.42
652.479	4.66
652.808	4.77
653.136	5.27
653.465	4.75
653.793	4.63
654.121	5.02
654.449	4.69
654.777	4.43
655.105	4.92
655.433	4.81
655.761	5.11
656.089	4.29
656.417	4.81
656.745	4.62
657.073	4.59
657.4	5.15
657.728	4.82
658.056	4.85
658.383	4.93
658.711	4.89
659.038	4.48
659.365	4.79
659.693	4.61
660.02	5.47
660.347	4.85
660.674	4.45
661.001	4.76
661.329	4.42
661.656	4.61
661.982	4.74
662.309	4.83
662.636	4.93
662.963	4.47
663.29	5.32
663.616	4.96
663.943	5.18
664.27	4.49
664.596	4.92
664.923	5.09
665.249	4.64
665.576	4.49
665.902	4.96
666.228	4.98
666.554	4.54
666.881	5.17
667.207	4.8
667.533	4.47
667.859	4.95
668.185	4.85
668.511	5.12
668.837	4.56
669.162	5.23
669.488	4.99
669.814	5.1
670.139	5.06
670.465	5.32
670.791	5.13
671.116	4.72
671.442	5.59
671.767	4.65
672.092	5.24
672.418	5.86
672.743	4.99
673.068	4.95
673.393	4.73
673.718	5.12
674.043	5.33
674.368	5.24
674.693	5.22
675.018	5.01
675.343	5.22
675.667	4.99
675.992	4.9
676.317	5.19
676.641	5.01
676.966	5.59
677.29	5.1
677.615	5.9
677.939	5.53
678.264	5.41
678.588	5.38
678.912	5.5
679.236	5.28
679.56	4.88
679.885	5
680.209	5.84
680.532	5.23
680.856	4.57
681.18	5.35
681.504	5.34
681.828	5.28
682.152	4.97
682.475	5.81
682.799	4.96
683.122	4.81
683.446	4.91
683.769	5.04
684.093	5.21
684.416	5.03
684.739	5.35
685.062	5.93
685.386	5.28
685.709	5.69
686.032	5.48
686.355	5.45
686.678	5.33
687.001	5.6
687.324	5.83
687.646	5.34
687.969	5.26
688.292	5.53
688.614	5.74
688.937	5.64
689.26	4.92
689.582	4.94
689.904	5.73
690.227	5.81
690.549	6.11
690.871	5.31
691.194	5.58
691.516	5.41
691.838	5.64
692.16	5.35
692.482	5.36
692.804	4.51
693.126	5.05
