Data from 0142_forehead_Reflection__4__35.txt Node

Date: Fri Sep 22 20:36:10 CDT 2023
User: ToomeyLab
Spectrometer: FLMS14357
Trigger mode: 0
Integration Time (sec): 1.000000E-2
Scans to average: 100
Electric dark correction enabled: true
Nonlinearity correction enabled: false
Boxcar width: 0
XAxis mode: Wavelengths
Number of Pixels in Spectrum: 2048
>>>>>Begin Spectral Data<<<<<
189.047	15.66
189.435	15.66
189.823	15.66
190.211	-323.34
190.599	-72.06
190.987	415.61
191.375	86.76
191.763	1395.81
192.151	75.24
192.538	80.32
192.926	109.21
193.314	212
193.702	-28.52
194.089	89.46
194.477	13414.29
194.864	60.47
195.252	-362.03
195.639	130.6
196.027	120.56
196.414	-11.64
196.801	225.87
197.189	189.41
197.576	102.79
197.963	620.98
198.351	42.88
198.738	58.54
199.125	35.23
199.512	33.89
199.899	46.07
200.286	21.78
200.673	18.73
201.06	3.16
201.447	54.2
201.833	2.57
202.22	20.63
202.607	49.16
202.994	67.41
203.38	13.16
203.767	16.51
204.154	90.57
204.54	5.04
204.927	3.25
205.313	6.06
205.699	32.79
206.086	60.68
206.472	49.72
206.858	60.21
207.245	13.66
207.631	23.01
208.017	44.65
208.403	12.84
208.789	54.72
209.175	26.71
209.561	44.74
209.947	13.25
210.333	37.76
210.719	13.27
211.105	40.44
211.491	21.89
211.876	43.65
212.262	23.65
212.648	31.01
213.034	27.87
213.419	76.35
213.805	43.32
214.19	-4.03
214.576	22.24
214.961	24.59
215.346	28.54
215.732	23.77
216.117	48.71
216.502	40.5
216.888	30.05
217.273	29.16
217.658	11.16
218.043	25.02
218.428	24.63
218.813	7.01
219.198	22.2
219.583	18.29
219.968	15.22
220.353	33.7
220.738	14.35
221.122	8.26
221.507	17.44
221.892	-3.91
222.276	5.36
222.661	-6.46
223.046	15.88
223.43	21
223.815	5.66
224.199	14.75
224.583	7.47
224.968	14.75
225.352	13.35
225.736	7.75
226.121	10.29
226.505	8.54
226.889	5.07
227.273	5.69
227.657	9.55
228.041	7.55
228.425	11.98
228.809	6.21
229.193	6.36
229.577	6.2
229.961	5.37
230.344	5.63
230.728	4.17
231.112	4.12
231.495	3.63
231.879	4.27
232.263	3.24
232.646	4.84
233.03	3.58
233.413	5.79
233.797	4.85
234.18	4.35
234.563	7.84
234.946	3.92
235.33	1.25
235.713	3.34
236.096	4.95
236.479	3.83
236.862	6.04
237.245	4.06
237.628	6.04
238.011	6.02
238.394	2.89
238.777	6.63
239.16	3.79
239.543	5.5
239.925	5.27
240.308	6.77
240.691	6.62
241.073	5.91
241.456	3.91
241.838	4.46
242.221	4.19
242.603	4.35
242.986	4.15
243.368	3.69
243.75	4.26
244.133	4.69
244.515	3.95
244.897	4.01
245.279	3.74
245.661	4.38
246.043	4.24
246.425	3.73
246.807	4.5
247.189	4.35
247.571	4.95
247.953	4.07
248.335	4.13
248.717	4.14
249.098	3.98
249.48	3.75
249.862	3.81
250.243	3.88
250.625	4.34
251.006	3.75
251.388	4.32
251.769	3.93
252.151	3.68
252.532	4.98
252.913	4.2
253.295	5.08
253.676	4.27
254.057	4.43
254.438	4.25
254.819	3.46
255.2	4.28
255.581	3.92
255.962	5.39
256.343	5.01
256.724	4.68
257.105	4.16
257.486	4.32
257.867	4.68
258.247	5.07
258.628	5.02
259.009	3.95
259.389	4.39
259.77	4.48
260.15	4.61
260.531	3.7
260.911	3.93
261.292	3.62
261.672	3.64
262.052	3.83
262.432	3.82
262.813	3.73
263.193	3.67
263.573	4.31
263.953	3.93
264.333	3.66
264.713	4.39
265.093	4.12
265.473	4.42
265.853	3.67
266.233	4.41
266.612	3.38
266.992	4.43
267.372	4.58
267.752	4.64
268.131	4.6
268.511	3.73
268.89	4.13
269.27	3.86
269.649	4
270.029	3.72
270.408	3.66
270.787	3.96
271.167	3.99
271.546	4.05
271.925	4.1
272.304	3.6
272.683	3.94
273.062	3.81
273.441	3.66
273.82	4.19
274.199	3.89
274.578	4.43
274.957	3.98
275.336	3.06
275.715	3.57
276.093	3.93
276.472	4.07
276.851	4.06
277.229	3.29
277.608	4.37
277.986	3.71
278.365	4.7
278.743	4.23
279.122	4
279.5	4.43
279.878	3.54
280.257	4.48
280.635	3.94
281.013	4.7
281.391	3.44
281.769	4.01
282.147	4.01
282.525	4.33
282.903	4.06
283.281	4.16
283.659	3.82
284.037	4
284.415	4.24
284.792	3.82
285.17	3.9
285.548	4.7
285.925	4.14
286.303	4.07
286.68	3.5
287.058	4.05
287.435	3.88
287.813	3.9
288.19	3.54
288.567	4.08
288.945	3.77
289.322	3.88
289.699	3.75
290.076	4.53
290.453	3.82
290.83	3.95
291.207	3.9
291.584	3.69
291.961	3.49
292.338	4.42
292.715	4.52
293.092	4.02
293.469	4
293.845	3.64
294.222	4.12
294.599	4.2
294.975	4.39
295.352	4.37
295.728	4.41
296.105	4.08
296.481	4.39
296.858	4.14
297.234	4.44
297.61	4.59
297.986	4.41
298.363	4.51
298.739	4.51
299.115	4.5
299.491	4.38
299.867	4.27
300.243	4.65
300.619	4.42
300.995	4.39
301.371	4.99
301.746	5
302.122	4.47
302.498	4.64
302.874	4.39
303.249	4.53
303.625	4.96
304	5.04
304.376	4.95
304.751	5.01
305.127	5.14
305.502	5.69
305.878	5.09
306.253	5.41
306.628	4.97
307.003	5.42
307.378	5.06
307.754	5.14
308.129	5.28
308.504	5.66
308.879	5.73
309.254	5.35
309.629	4.94
310.003	5.14
310.378	6.07
310.753	4.97
311.128	5.75
311.502	5.82
311.877	5.17
312.252	5.3
312.626	5.48
313.001	5.81
313.375	5.71
313.75	5.87
314.124	6.61
314.498	5.47
314.873	5.93
315.247	5.72
315.621	5.68
315.995	6.37
316.369	5.57
316.743	6.45
317.117	6.4
317.491	6.22
317.865	5.91
318.239	6.11
318.613	5.94
318.987	6.08
319.361	6.3
319.734	6.12
320.108	6.19
320.482	6.02
320.855	6.48
321.229	7.06
321.602	6.37
321.976	6.44
322.349	6.76
322.723	6.9
323.096	6.3
323.469	6.4
323.843	6.36
324.216	6.64
324.589	7.05
324.962	6.27
325.335	6.44
325.708	6.86
326.081	7.36
326.454	6.06
326.827	6.66
327.2	6.73
327.573	7.12
327.945	7
328.318	7.12
328.691	6.94
329.063	6.38
329.436	7.09
329.809	7.2
330.181	7.27
330.553	6.92
330.926	7.04
331.298	7.81
331.671	7.34
332.043	7.19
332.415	7.04
332.787	7.81
333.159	7.77
333.532	7.31
333.904	7.62
334.276	7.48
334.648	7.26
335.02	7.65
335.391	7.86
335.763	7.41
336.135	7.86
336.507	7.69
336.879	7.32
337.25	8.34
337.622	7.88
337.993	7.89
338.365	8.01
338.736	8.26
339.108	7.8
339.479	7.69
339.851	7.48
340.222	7.72
340.593	7.65
340.964	7.77
341.336	7.74
341.707	7.83
342.078	8.05
342.449	8.13
342.82	7.98
343.191	8.32
343.562	8.26
343.933	8.36
344.303	8.1
344.674	8.21
345.045	8.54
345.416	8.43
345.786	8.17
346.157	8.58
346.527	8.27
346.898	8.08
347.268	8.44
347.639	8.4
348.009	8.19
348.38	8.68
348.75	8.76
349.12	8.6
349.49	9.39
349.861	8.57
350.231	8.83
350.601	8.98
350.971	8.81
351.341	8.88
351.711	9.08
352.081	8.87
352.45	8.59
352.82	9.12
353.19	9.14
353.56	8.82
353.929	8.94
354.299	9.33
354.669	9.16
355.038	8.54
355.408	9.05
355.777	9.74
356.147	9.49
356.516	9.55
356.885	9.19
357.254	9.71
357.624	8.94
357.993	9.28
358.362	9.65
358.731	9.31
359.1	9.42
359.469	9.27
359.838	9.6
360.207	9.41
360.576	9.62
360.945	9.3
361.314	9.74
361.682	9.8
362.051	10.04
362.42	9.81
362.788	9.39
363.157	9.99
363.525	9.78
363.894	9.84
364.262	9.64
364.631	9.74
364.999	10.03
365.367	10.12
365.735	10.03
366.104	9.97
366.472	10.41
366.84	9.84
367.208	10.4
367.576	10.43
367.944	10.14
368.312	10.3
368.68	10.26
369.048	10.38
369.416	10.65
369.783	10.34
370.151	10.18
370.519	10.36
370.886	10.37
371.254	10.9
371.621	10.63
371.989	10.7
372.356	10.57
372.724	10.71
373.091	10.8
373.458	10.85
373.826	10.8
374.193	10.97
374.56	11.04
374.927	11.19
375.294	10.75
375.661	10.93
376.028	10.96
376.395	11.03
376.762	11
377.129	11.38
377.496	11.82
377.863	11.38
378.229	11.37
378.596	11.5
378.963	11.51
379.329	11.16
379.696	11.62
380.062	11.19
380.429	11.33
380.795	11.49
381.161	11.63
381.528	11.38
381.894	11.34
382.26	11.85
382.626	11.87
382.993	11.9
383.359	11.49
383.725	11.53
384.091	11.86
384.457	11.59
384.823	11.74
385.188	12.09
385.554	12.18
385.92	12.29
386.286	12.2
386.651	12.11
387.017	12.29
387.383	12.38
387.748	11.85
388.114	11.95
388.479	12.42
388.845	12.15
389.21	12.05
389.575	12.7
389.94	12.24
390.306	12.56
390.671	12.84
391.036	12.42
391.401	12.6
391.766	12.57
392.131	12.5
392.496	12.71
392.861	12.65
393.226	12.88
393.591	12.97
393.956	12.62
394.32	12.58
394.685	12.67
395.05	13.22
395.414	13.1
395.779	12.9
396.143	13.26
396.508	13.05
396.872	12.92
397.236	13.19
397.601	12.99
397.965	13.3
398.329	13.17
398.694	13.46
399.058	13.52
399.422	13.58
399.786	13.43
400.15	13.73
400.514	13.56
400.878	13.61
401.242	13.59
401.605	13.64
401.969	13.39
402.333	13.77
402.697	13.58
403.06	13.71
403.424	13.91
403.787	13.76
404.151	13.94
404.514	13.91
404.878	14.03
405.241	13.91
405.604	14.04
405.968	13.85
406.331	14.04
406.694	13.81
407.057	13.75
407.42	13.98
407.783	14.11
408.146	14.12
408.509	14.19
408.872	14.19
409.235	14.21
409.598	14.25
409.961	14.31
410.323	14.49
410.686	14.43
411.049	14.6
411.411	14.64
411.774	14.51
412.136	14.38
412.499	14.43
412.861	14.69
413.223	14.65
413.586	14.61
413.948	14.78
414.31	14.65
414.672	15.02
415.035	14.74
415.397	14.93
415.759	15.1
416.121	14.8
416.483	14.92
416.845	14.93
417.206	15.19
417.568	14.99
417.93	14.84
418.292	15.06
418.653	14.76
419.015	15.14
419.377	14.91
419.738	15.2
420.1	14.93
420.461	15.04
420.822	15.17
421.184	15.21
421.545	15.06
421.906	15.22
422.267	15.17
422.629	15.17
422.99	14.97
423.351	15.04
423.712	15.05
424.073	15.21
424.434	15.15
424.795	15.31
425.155	15.54
425.516	15.32
425.877	15.43
426.238	15.21
426.598	15.27
426.959	15.39
427.32	15.46
427.68	15.64
428.041	15.68
428.401	15.85
428.761	15.92
429.122	16.03
429.482	16.09
429.842	16.1
430.202	16.17
430.563	16.18
430.923	16.21
431.283	16.57
431.643	16.2
432.003	16.2
432.363	16.39
432.722	16.37
433.082	16.37
433.442	16.31
433.802	16.59
434.161	16.52
434.521	16.44
434.881	16.55
435.24	16.31
435.6	16.33
435.959	16.37
436.319	16.55
436.678	16.68
437.037	16.69
437.396	16.72
437.756	16.76
438.115	16.95
438.474	17.04
438.833	17.02
439.192	17.01
439.551	16.86
439.91	17.05
440.269	16.96
440.628	16.92
440.987	16.79
441.345	17.02
441.704	17.03
442.063	16.88
442.421	16.97
442.78	17.11
443.138	17.01
443.497	17
443.855	17.21
444.214	17.08
444.572	17.51
444.93	17.4
445.288	17.29
445.647	17.66
446.005	17.47
446.363	17.36
446.721	17.62
447.079	17.33
447.437	17.4
447.795	17.49
448.153	17.2
448.51	17.33
448.868	17.3
449.226	17.42
449.584	17.43
449.941	17.48
450.299	17.45
450.656	17.72
451.014	17.99
451.371	17.97
451.729	18
452.086	18.03
452.443	18.11
452.801	18.2
453.158	18.14
453.515	18.48
453.872	18.19
454.229	18.41
454.586	18.42
454.943	18.26
455.3	18.32
455.657	18.25
456.014	18.3
456.371	18.52
456.727	18.5
457.084	18.55
457.441	18.45
457.797	18.57
458.154	18.68
458.51	18.59
458.867	18.86
459.223	18.8
459.58	18.82
459.936	18.81
460.292	18.74
460.648	18.74
461.005	18.89
461.361	18.76
461.717	18.39
462.073	18.48
462.429	18.37
462.785	18.62
463.141	18.83
463.496	18.92
463.852	19.13
464.208	19.1
464.564	19.25
464.919	19.27
465.275	19.41
465.631	19.47
465.986	19.47
466.342	19.23
466.697	19.4
467.052	19.45
467.408	19.4
467.763	19.53
468.118	19.54
468.473	19.25
468.829	19.56
469.184	19.57
469.539	19.72
469.894	19.54
470.249	19.65
470.603	19.65
470.958	19.84
471.313	19.83
471.668	19.78
472.023	20.01
472.377	19.96
472.732	19.8
473.086	20.11
473.441	19.84
473.795	20.27
474.15	20.12
474.504	20
474.859	20.12
475.213	19.97
475.567	20.16
475.921	20.32
476.275	20.35
476.63	20.27
476.984	20.28
477.338	20.53
477.692	20.68
478.045	20.7
478.399	20.68
478.753	20.37
479.107	20.43
479.461	20.41
479.814	20.42
480.168	20.49
480.521	20.52
480.875	20.55
481.228	20.58
481.582	20.6
481.935	20.59
482.289	20.62
482.642	20.55
482.995	20.58
483.348	20.69
483.701	20.56
484.055	20.58
484.408	20.46
484.761	20.46
485.114	20.41
485.466	19.95
485.819	19.65
486.172	19.6
486.525	19.77
486.878	19.9
487.23	20.21
487.583	20.33
487.936	20.51
488.288	20.69
488.641	20.64
488.993	20.46
489.345	20.28
489.698	20.12
490.05	20.27
490.402	20.38
490.754	20.47
491.107	20.65
491.459	20.82
491.811	21.1
492.163	21.21
492.515	21.16
492.866	21.13
493.218	21.07
493.57	20.71
493.922	20.55
494.274	20.71
494.625	20.94
494.977	21.11
495.328	21.39
495.68	21.67
496.031	21.69
496.383	21.85
496.734	21.94
497.086	21.83
497.437	22.11
497.788	21.98
498.139	21.87
498.49	21.96
498.842	21.66
499.193	21.66
499.544	21.8
499.894	21.85
500.245	21.99
500.596	22.08
500.947	22.11
501.298	22.37
501.648	22.27
501.999	22.45
502.35	22.51
502.7	22.4
503.051	22.54
503.401	22.48
503.752	22.55
504.102	22.5
504.452	22.58
504.803	22.61
505.153	22.76
505.503	22.58
505.853	22.74
506.203	22.71
506.553	22.85
506.903	22.72
507.253	22.72
507.603	22.88
507.953	22.94
508.303	22.98
508.652	22.94
509.002	22.93
509.352	23
509.701	22.98
510.051	23.03
510.4	22.98
510.75	22.87
511.099	22.88
511.449	22.98
511.798	23.08
512.147	23.09
512.496	23.04
512.846	23.04
513.195	23.23
513.544	23.24
513.893	23.34
514.242	23.21
514.591	23.27
514.939	23.3
515.288	23.31
515.637	23.54
515.986	23.48
516.334	23.64
516.683	23.79
517.032	23.86
517.38	23.78
517.729	23.6
518.077	23.72
518.426	23.84
518.774	23.85
519.122	23.7
519.47	23.69
519.819	23.73
520.167	23.68
520.515	23.59
520.863	23.46
521.211	23.49
521.559	23.58
521.907	23.85
522.255	23.76
522.602	24.05
522.95	24.03
523.298	24.2
523.645	24.24
523.993	24.35
524.341	24.18
524.688	24.27
525.036	24.38
525.383	24.28
525.73	24.45
526.078	24.55
526.425	24.51
526.772	24.52
527.119	24.39
527.466	24.22
527.814	24.11
528.161	24.01
528.508	24.14
528.854	24.25
529.201	24.41
529.548	24.4
529.895	24.36
530.242	23.97
530.588	23.6
530.935	23.64
531.282	23.83
531.628	23.92
531.975	24.09
532.321	24.3
532.667	24.43
533.014	24.63
533.36	24.75
533.706	24.79
534.052	24.92
534.399	24.8
534.745	24.67
535.091	24.56
535.437	24.39
535.783	24.37
536.129	24.64
536.474	24.74
536.82	24.88
537.166	25.23
537.512	25.29
537.857	25.32
538.203	25.32
538.549	25.2
538.894	25.05
539.239	25.07
539.585	25.3
539.93	25.56
540.276	25.56
540.621	25.65
540.966	25.82
541.311	25.91
541.656	25.82
542.001	25.82
542.346	25.83
542.691	25.86
543.036	25.44
543.381	25.1
543.726	25.02
544.071	25.18
544.415	25.31
544.76	25.33
545.105	25.56
545.449	25.6
545.794	25.77
546.138	25.93
546.483	26.08
546.827	26.16
547.171	26.1
547.516	26.17
547.86	26.24
548.204	26.25
548.548	26.27
548.892	26.16
549.236	26.01
549.58	26.22
549.924	26.55
550.268	26.68
550.612	26.73
550.956	26.99
551.3	27.06
551.643	26.97
551.987	27.22
552.33	27.28
552.674	27.04
553.017	27.16
553.361	27.14
553.704	27.28
554.048	27.23
554.391	27.12
554.734	27.13
555.077	26.93
555.42	27.07
555.764	27.18
556.107	27.11
556.45	27.43
556.793	27.29
557.135	27.53
557.478	27.33
557.821	27.73
558.164	27.76
558.507	27.73
558.849	27.5
559.192	27.75
559.534	27.8
559.877	27.69
560.219	27.85
560.562	27.88
560.904	28.06
561.246	28.11
561.589	28.02
561.931	27.83
562.273	28.04
562.615	28.03
562.957	28.11
563.299	28.24
563.641	28.23
563.983	28.32
564.325	28.14
564.667	28.28
565.008	28.23
565.35	28.12
565.692	28.42
566.033	28.47
566.375	28.36
566.716	28.14
567.058	28.38
567.399	28.3
567.741	28.55
568.082	28.34
568.423	28.3
568.764	28.58
569.105	28.27
569.447	28.27
569.788	28.4
570.129	28.75
570.47	28.69
570.811	28.65
571.151	28.88
571.492	28.84
571.833	28.78
572.174	28.77
572.514	28.88
572.855	29.14
573.195	28.65
573.536	28.94
573.876	28.74
574.217	28.79
574.557	29.07
574.898	28.87
575.238	28.98
575.578	29.14
575.918	28.81
576.258	28.91
576.598	29.23
576.938	29.42
577.278	29.26
577.618	29.05
577.958	29.33
578.298	29.41
578.638	29.41
578.977	29.72
579.317	29.73
579.657	29.52
579.996	29.69
580.336	29.67
580.675	29.91
581.014	29.62
581.354	29.74
581.693	29.94
582.032	29.98
582.372	29.91
582.711	30.15
583.05	30.24
583.389	30.04
583.728	29.9
584.067	30.35
584.406	30.17
584.745	30.05
585.083	30.3
585.422	30.5
585.761	30.17
586.1	30.25
586.438	30.18
586.777	30.32
587.115	30.63
587.454	30.18
587.792	30.51
588.13	30.44
588.469	30.48
588.807	30.84
589.145	30.79
589.483	30.63
589.821	30.39
590.159	30.8
590.497	30.83
590.835	30.81
591.173	30.53
591.511	30.69
591.849	30.99
592.187	30.88
592.524	30.89
592.862	31.12
593.2	30.71
593.537	30.75
593.875	30.9
594.212	31.25
594.55	31.21
594.887	30.96
595.224	31.06
595.561	31.47
595.899	31.44
596.236	31.39
596.573	31.37
596.91	31
597.247	31.33
597.584	31.51
597.921	31.38
598.258	31.33
598.594	31.42
598.931	31.2
599.268	30.97
599.604	31.18
599.941	31.28
600.277	31.31
600.614	31.42
600.95	31.64
601.287	31.71
601.623	31.8
601.959	31.84
602.296	32.13
602.632	31.76
602.968	31.95
603.304	31.82
603.64	31.85
603.976	32.37
604.312	32.06
604.648	31.95
604.984	32.1
605.319	31.69
605.655	31.69
605.991	31.8
606.326	32.14
606.662	31.7
606.998	31.52
607.333	31.9
607.668	31.76
608.004	32.01
608.339	31.94
608.674	32.29
609.01	32.4
609.345	32.42
609.68	32.69
610.015	32.48
610.35	32.35
610.685	32.42
611.02	32.39
611.355	32.45
611.689	32.42
612.024	32.43
612.359	32.39
612.694	32.42
613.028	32.59
613.363	32.58
613.697	32.93
614.032	32.86
614.366	32.8
614.7	33.25
615.035	33.11
615.369	33.15
615.703	33.03
616.037	32.84
616.371	33.28
616.705	33.43
617.039	33.47
617.373	33
617.707	33.24
618.041	33.77
618.375	33.59
618.709	33.39
619.042	33.54
619.376	33.44
619.71	33.8
620.043	33.58
620.377	33.11
620.71	33.48
621.043	33.8
621.377	33.39
621.71	33.27
622.043	33.79
622.376	33.62
622.709	33.85
623.043	33.86
623.376	33.37
623.709	33.97
624.041	33.57
624.374	33.76
624.707	33.76
625.04	33.9
625.373	33.72
625.705	34.07
626.038	33.78
626.37	33.93
626.703	33.9
627.035	33.88
627.368	33.91
627.7	34.21
628.032	34.09
628.365	34.13
628.697	34.17
629.029	34.2
629.361	33.9
629.693	34.46
630.025	33.85
630.357	34.11
630.689	34.31
631.021	34.37
631.353	34.25
631.684	34.46
632.016	34.47
632.348	34.84
632.679	34.47
633.011	34.42
633.342	35.15
633.674	34.5
634.005	34.14
634.336	34.66
634.668	34.8
634.999	34.55
635.33	34.89
635.661	35.13
635.992	34.89
636.323	34.85
636.654	34.79
636.985	34.48
637.316	34.84
637.647	34.97
637.977	34.58
638.308	35.1
638.639	35.2
638.969	35.13
639.3	34.86
639.63	34.84
639.961	35.08
640.291	35.03
640.622	35.29
640.952	35.25
641.282	35.27
641.612	35.31
641.943	35.49
642.273	35.46
642.603	35.61
642.933	35.18
643.263	35.08
643.592	35.6
643.922	35.29
644.252	35.36
644.582	35.41
644.911	35.74
645.241	35.77
645.571	36.09
645.9	35.33
646.23	35.38
646.559	35.54
646.888	36.06
647.218	35.23
647.547	35.62
647.876	35.66
648.205	35.71
648.534	36.03
648.863	35.71
649.192	35.29
649.521	35.99
649.85	36.04
650.179	36.03
650.508	36.25
650.837	36.3
651.165	36.04
651.494	35.8
651.822	36.14
652.151	36.17
652.479	36.41
652.808	36.27
653.136	36.28
653.465	36.33
653.793	35.87
654.121	36.39
654.449	36.15
654.777	36.11
655.105	36.63
655.433	36.27
655.761	36.83
656.089	36.48
656.417	36.48
656.745	36.62
657.073	36.87
657.4	36.73
657.728	36.9
658.056	36.57
658.383	36.92
658.711	36.69
659.038	36.52
659.365	37.09
659.693	36.82
660.02	37.01
660.347	36.79
660.674	36.62
661.001	36.44
661.329	36.26
661.656	36.67
661.982	36.63
662.309	36.82
662.636	36.48
662.963	36.99
663.29	37.17
663.616	36.94
663.943	37.64
664.27	37.22
664.596	36.87
664.923	37.61
665.249	37.02
665.576	36.82
665.902	36.71
666.228	37.44
666.554	37.19
666.881	37.58
667.207	37.42
667.533	36.67
667.859	37.55
668.185	36.91
668.511	37.61
668.837	37.17
669.162	37.12
669.488	37.7
669.814	37.35
670.139	37.78
670.465	37.51
670.791	38.01
671.116	37.48
671.442	37.48
671.767	37.55
672.092	37.68
672.418	37.75
