Data from 0142_forehead_Reflection__2__33.txt Node

Date: Fri Sep 22 20:35:50 CDT 2023
User: ToomeyLab
Spectrometer: FLMS14357
Trigger mode: 0
Integration Time (sec): 1.000000E-2
Scans to average: 100
Electric dark correction enabled: true
Nonlinearity correction enabled: false
Boxcar width: 0
XAxis mode: Wavelengths
Number of Pixels in Spectrum: 2048
>>>>>Begin Spectral Data<<<<<
189.047	20.49
189.435	20.49
189.823	20.49
190.211	337.28
190.599	-321.09
190.987	902.25
191.375	4.74
191.763	2078.44
192.151	-17.34
192.538	-21.97
192.926	7.9
193.314	4548
193.702	92.49
194.089	128.05
194.477	-25614.29
194.864	86.89
195.252	-172.13
195.639	220.25
196.027	63.56
196.414	-57.62
196.801	-15
197.189	131.72
197.576	169.86
197.963	72.68
198.351	37.26
198.738	17.43
199.125	-24.57
199.512	8.81
199.899	39.48
200.286	41.3
200.673	26.59
201.06	8.71
201.447	66.63
201.833	-22.06
202.22	12.93
202.607	8.47
202.994	43.09
203.38	22.24
203.767	-20.48
204.154	56.95
204.54	31.26
204.927	16.4
205.313	2.63
205.699	32.07
206.086	29.45
206.472	43.04
206.858	28.58
207.245	17.79
207.631	32.78
208.017	28.57
208.403	35.64
208.789	4.58
209.175	37.83
209.561	9.44
209.947	26.02
210.333	16.19
210.719	-7.48
211.105	39.84
211.491	8.84
211.876	48.71
212.262	21.63
212.648	59.68
213.034	19.48
213.419	4.69
213.805	6.76
214.19	1.48
214.576	-2.56
214.961	23.17
215.346	1.63
215.732	24.76
216.117	13.81
216.502	30.51
216.888	37.83
217.273	19.34
217.658	10.5
218.043	26.92
218.428	26.56
218.813	-5.52
219.198	6.07
219.583	6.82
219.968	19.49
220.353	30.58
220.738	10.29
221.122	11.03
221.507	10.84
221.892	15.43
222.276	8.78
222.661	-15.71
223.046	16.85
223.43	26.03
223.815	4.01
224.199	5.25
224.583	6.95
224.968	15.17
225.352	2.8
225.736	8.85
226.121	10.19
226.505	5.37
226.889	8.46
227.273	6.05
227.657	4.8
228.041	6.63
228.425	8.05
228.809	2.2
229.193	4.8
229.577	6.14
229.961	4.63
230.344	5.65
230.728	2.34
231.112	3.73
231.495	2.49
231.879	3.24
232.263	2.35
232.646	2.84
233.03	4.11
233.413	4.22
233.797	3.6
234.18	2.89
234.563	6.36
234.946	6.26
235.33	0.93
235.713	1.44
236.096	2.7
236.479	3.56
236.862	5.65
237.245	2.99
237.628	5.99
238.011	4.72
238.394	2.48
238.777	4.72
239.16	4.65
239.543	5.14
239.925	2.78
240.308	3.55
240.691	2.81
241.073	5.98
241.456	4.49
241.838	3.47
242.221	3.75
242.603	3.89
242.986	3.54
243.368	2.88
243.75	3.64
244.133	3.27
244.515	3.32
244.897	3.13
245.279	3.38
245.661	3.13
246.043	3.28
246.425	2.14
246.807	3.62
247.189	1.99
247.571	3.01
247.953	3.21
248.335	3.04
248.717	3.17
249.098	3.16
249.48	3.04
249.862	2.89
250.243	3.07
250.625	3.27
251.006	2.9
251.388	3.68
251.769	3.56
252.151	3.78
252.532	3.98
252.913	3.88
253.295	4.43
253.676	2.92
254.057	3.56
254.438	3.7
254.819	2.83
255.2	3.45
255.581	4.02
255.962	3.74
256.343	3.85
256.724	3.09
257.105	4.71
257.486	3.98
257.867	3.48
258.247	3.96
258.628	3.36
259.009	3.53
259.389	3.8
259.77	3.84
260.15	3.71
260.531	3.81
260.911	3.05
261.292	2.99
261.672	2.94
262.052	3.21
262.432	3.2
262.813	3.21
263.193	2.74
263.573	3.85
263.953	3.24
264.333	4.03
264.713	3.65
265.093	3.62
265.473	3.06
265.853	2.75
266.233	3.35
266.612	3.35
266.992	3.03
267.372	4.55
267.752	4.2
268.131	2.76
268.511	3.03
268.89	3.74
269.27	3.44
269.649	3.3
270.029	3.45
270.408	3.35
270.787	3.03
271.167	3.4
271.546	3.61
271.925	3.5
272.304	3.42
272.683	3.75
273.062	3.81
273.441	3.35
273.82	3.44
274.199	3.28
274.578	3.48
274.957	3.52
275.336	3.23
275.715	3.36
276.093	3.01
276.472	2.94
276.851	3.53
277.229	2.64
277.608	3.68
277.986	2.92
278.365	3.47
278.743	3.21
279.122	3.99
279.5	3.7
279.878	3.23
280.257	3.61
280.635	3.02
281.013	3.88
281.391	3.19
281.769	3.32
282.147	3.46
282.525	3.25
282.903	3.55
283.281	3.22
283.659	3.7
284.037	2.83
284.415	3.65
284.792	3.03
285.17	3.32
285.548	3.89
285.925	3.39
286.303	3.58
286.68	2.75
287.058	3.14
287.435	3.2
287.813	3.51
288.19	2.98
288.567	3.52
288.945	3.31
289.322	3.35
289.699	3.31
290.076	3.61
290.453	3.1
290.83	3.37
291.207	3.11
291.584	3.44
291.961	3.29
292.338	3.79
292.715	3.94
293.092	3.34
293.469	3.58
293.845	3.61
294.222	3.7
294.599	4.1
294.975	4.2
295.352	3.51
295.728	3.84
296.105	3.88
296.481	3.7
296.858	3.74
297.234	4.16
297.61	3.81
297.986	4.11
298.363	4.07
298.739	3.73
299.115	4.14
299.491	4.06
299.867	3.99
300.243	3.66
300.619	3.84
300.995	4.13
301.371	4.33
301.746	4
302.122	4.23
302.498	4.16
302.874	4.23
303.249	4
303.625	4.07
304	4.59
304.376	4.57
304.751	4.51
305.127	4.69
305.502	5.04
305.878	4.8
306.253	4.64
306.628	4.35
307.003	4.74
307.378	4.44
307.754	4.32
308.129	4.12
308.504	4.85
308.879	4.9
309.254	4.62
309.629	4.45
310.003	5.44
310.378	5.66
310.753	4.63
311.128	5.01
311.502	5.49
311.877	4.81
312.252	4.77
312.626	4.82
313.001	5.05
313.375	5.32
313.75	5.5
314.124	5.32
314.498	4.77
314.873	5.39
315.247	5.42
315.621	5.22
315.995	5.33
316.369	5.73
316.743	5.5
317.117	5.71
317.491	5.87
317.865	5.56
318.239	5.35
318.613	5.94
318.987	5.44
319.361	5.02
319.734	5.86
320.108	6.34
320.482	5.97
320.855	6.14
321.229	6.59
321.602	6
321.976	5.7
322.349	6.04
322.723	5.98
323.096	6.39
323.469	6.25
323.843	5.89
324.216	6.04
324.589	6.37
324.962	5.77
325.335	6.2
325.708	6.08
326.081	6.15
326.454	5.9
326.827	6.54
327.2	6.28
327.573	6.74
327.945	6.72
328.318	6.46
328.691	6.69
329.063	6.07
329.436	7.19
329.809	6.79
330.181	7.16
330.553	6.83
330.926	6.97
331.298	6.98
331.671	6.92
332.043	6.17
332.415	7.1
332.787	7.38
333.159	6.92
333.532	6.91
333.904	6.92
334.276	6.99
334.648	6.82
335.02	6.82
335.391	6.8
335.763	7.32
336.135	7.33
336.507	7.39
336.879	6.77
337.25	7.34
337.622	7.7
337.993	7.34
338.365	7.62
338.736	7.44
339.108	6.81
339.479	7.62
339.851	7.38
340.222	7.27
340.593	7.53
340.964	7.43
341.336	7.27
341.707	7.63
342.078	8.09
342.449	7.68
342.82	7.82
343.191	7.85
343.562	7.66
343.933	7.81
344.303	8.18
344.674	7.86
345.045	8.01
345.416	8.34
345.786	7.88
346.157	7.99
346.527	7.48
346.898	7.55
347.268	8.16
347.639	7.94
348.009	8.11
348.38	8.25
348.75	8.22
349.12	8.4
349.49	8.77
349.861	8.21
350.231	8.61
350.601	8.65
350.971	8.38
351.341	8.48
351.711	8.51
352.081	8.3
352.45	8.37
352.82	9.02
353.19	8.92
353.56	8.21
353.929	8.85
354.299	9.27
354.669	8.89
355.038	8.31
355.408	8.72
355.777	9.14
356.147	9.14
356.516	9.49
356.885	9
357.254	9.17
357.624	8.89
357.993	9
358.362	9.17
358.731	9.25
359.1	9.14
359.469	9.35
359.838	9.09
360.207	9.16
360.576	9.37
360.945	9.26
361.314	9.27
361.682	9.69
362.051	9.68
362.42	9.31
362.788	9.04
363.157	9.51
363.525	9.49
363.894	9.48
364.262	9.38
364.631	9.44
364.999	9.61
365.367	9.85
365.735	10.02
366.104	9.71
366.472	9.99
366.84	9.84
367.208	10.15
367.576	10.28
367.944	10.27
368.312	10.36
368.68	9.95
369.048	10.41
369.416	10.4
369.783	9.92
370.151	10.25
370.519	10.58
370.886	10.46
371.254	10.51
371.621	10.3
371.989	10.38
372.356	10.31
372.724	10.42
373.091	10.61
373.458	10.41
373.826	10.68
374.193	10.92
374.56	10.95
374.927	10.97
375.294	10.78
375.661	10.77
376.028	11.06
376.395	11.07
376.762	10.78
377.129	11.21
377.496	11.62
377.863	11.29
378.229	11.1
378.596	11.59
378.963	11.3
379.329	11.13
379.696	11.65
380.062	11.21
380.429	11.34
380.795	11.36
381.161	11.25
381.528	11.42
381.894	11.54
382.26	11.65
382.626	11.61
382.993	11.95
383.359	11.75
383.725	11.69
384.091	11.39
384.457	11.72
384.823	11.76
385.188	11.82
385.554	12.12
385.92	12.36
386.286	11.94
386.651	11.97
387.017	11.99
387.383	12.01
387.748	12.07
388.114	12.11
388.479	12.12
388.845	12.46
389.21	12.08
389.575	12.53
389.94	12.2
390.306	12.46
390.671	12.92
391.036	12.31
391.401	12.45
391.766	12.76
392.131	12.62
392.496	12.65
392.861	12.62
393.226	12.79
393.591	12.7
393.956	13.08
394.32	12.71
394.685	12.83
395.05	12.96
395.414	13.1
395.779	13.17
396.143	12.91
396.508	13.01
396.872	13
397.236	13.06
397.601	13.08
397.965	13.48
398.329	13.32
398.694	13.42
399.058	13.25
399.422	13.38
399.786	13.42
400.15	13.58
400.514	13.45
400.878	13.54
401.242	13.76
401.605	13.47
401.969	13.22
402.333	13.79
402.697	13.79
403.06	14.04
403.424	13.8
403.787	13.89
404.151	13.88
404.514	13.85
404.878	13.89
405.241	14.01
405.604	14.09
405.968	13.99
406.331	14.05
406.694	13.98
407.057	13.88
407.42	14.35
407.783	14.07
408.146	14.32
408.509	14.15
408.872	14.19
409.235	14.06
409.598	14.12
409.961	14.67
410.323	14.45
410.686	14.7
411.049	14.81
411.411	14.67
411.774	14.5
412.136	14.51
412.499	14.64
412.861	14.86
413.223	14.87
413.586	14.75
413.948	15.12
414.31	14.96
414.672	15.16
415.035	15.27
415.397	15.34
415.759	15.36
416.121	15.07
416.483	15.13
416.845	15.19
417.206	15.03
417.568	15.16
417.93	15.1
418.292	15.15
418.653	14.98
419.015	15.18
419.377	15.07
419.738	15.2
420.1	15.09
420.461	15.13
420.822	15.17
421.184	15.31
421.545	15.15
421.906	15.24
422.267	15.18
422.629	15.33
422.99	15.14
423.351	15.14
423.712	15.31
424.073	15.4
424.434	15.32
424.795	15.46
425.155	15.62
425.516	15.67
425.877	15.61
426.238	15.4
426.598	15.41
426.959	15.49
427.32	15.82
427.68	15.76
428.041	15.82
428.401	16.06
428.761	16.04
429.122	16.16
429.482	16.37
429.842	16.21
430.202	16.44
430.563	16.36
430.923	16.45
431.283	16.69
431.643	16.61
432.003	16.76
432.363	16.61
432.722	16.57
433.082	16.81
433.442	16.71
433.802	16.7
434.161	16.84
434.521	16.63
434.881	16.67
435.24	16.45
435.6	16.49
435.959	16.55
436.319	16.74
436.678	16.88
437.037	16.74
437.396	16.82
437.756	16.87
438.115	16.97
438.474	16.98
438.833	17.23
439.192	17.19
439.551	17.07
439.91	17.45
440.269	17.21
440.628	17.22
440.987	17.31
441.345	17.37
441.704	17.2
442.063	17.19
442.421	17.15
442.78	17.22
443.138	17.24
443.497	17.3
443.855	17.44
444.214	17.35
444.572	17.59
444.93	17.59
445.288	17.74
445.647	17.78
446.005	17.8
446.363	17.72
446.721	17.87
447.079	17.58
447.437	17.78
447.795	17.72
448.153	17.45
448.51	17.56
448.868	17.36
449.226	17.67
449.584	17.67
449.941	17.81
450.299	17.91
450.656	18.03
451.014	18.3
451.371	17.99
451.729	18.2
452.086	18.37
452.443	18.52
452.801	18.31
453.158	18.54
453.515	18.66
453.872	18.42
454.229	18.56
454.586	18.79
454.943	18.38
455.3	18.54
455.657	18.66
456.014	18.66
456.371	18.84
456.727	18.86
457.084	18.81
457.441	18.84
457.797	18.89
458.154	18.98
458.51	18.85
458.867	19.02
459.223	19.17
459.58	19.19
459.936	18.98
460.292	19.09
460.648	19.15
461.005	19.02
461.361	19.03
461.717	18.67
462.073	18.65
462.429	18.68
462.785	18.75
463.141	19.06
463.496	19.16
463.852	19.49
464.208	19.38
464.564	19.49
464.919	19.57
465.275	19.79
465.631	20.03
465.986	19.68
466.342	19.69
466.697	19.82
467.052	19.79
467.408	19.85
467.763	19.85
468.118	19.76
468.473	19.82
468.829	19.7
469.184	19.82
469.539	19.71
469.894	19.73
470.249	20
470.603	19.93
470.958	20.1
471.313	20.19
471.668	20.08
472.023	20.08
472.377	20.25
472.732	20.06
473.086	20.42
473.441	20.12
473.795	20.44
474.15	20.28
474.504	20.18
474.859	20.51
475.213	20.18
475.567	20.48
475.921	20.53
476.275	20.7
476.63	20.39
476.984	20.62
477.338	20.81
477.692	20.92
478.045	20.85
478.399	20.86
478.753	20.38
479.107	20.74
479.461	20.89
479.814	20.82
480.168	20.74
480.521	20.84
480.875	20.88
481.228	20.88
481.582	20.7
481.935	20.91
482.289	20.91
482.642	20.97
482.995	20.98
483.348	20.94
483.701	20.8
484.055	20.89
484.408	20.75
484.761	20.76
485.114	20.62
485.466	20.36
485.819	20.1
486.172	20.1
486.525	20.12
486.878	20.31
487.23	20.41
487.583	20.63
487.936	20.79
488.288	20.87
488.641	20.9
488.993	20.65
489.345	20.55
489.698	20.55
490.05	20.57
490.402	20.68
490.754	20.86
491.107	20.84
491.459	21.03
491.811	21.36
492.163	21.37
492.515	21.53
492.866	21.45
493.218	21.43
493.57	21.11
493.922	20.98
494.274	21.14
494.625	21.22
494.977	21.44
495.328	21.74
495.68	21.96
496.031	21.89
496.383	21.97
496.734	22.18
497.086	22.28
497.437	22.3
497.788	22.25
498.139	22.33
498.49	22.31
498.842	22.11
499.193	22.15
499.544	22.19
499.894	22.19
500.245	22.32
500.596	22.36
500.947	22.43
501.298	22.59
501.648	22.5
501.999	22.78
502.35	22.67
502.7	22.6
503.051	22.81
503.401	22.76
503.752	22.98
504.102	22.91
504.452	22.99
504.803	23.02
505.153	23.17
505.503	23.02
505.853	23.08
506.203	22.95
506.553	23.04
506.903	23.16
507.253	23.09
507.603	23.22
507.953	23.35
508.303	23.49
508.652	23.29
509.002	23.48
509.352	23.54
509.701	23.42
510.051	23.29
510.4	23.38
510.75	23.07
511.099	23.09
511.449	23.35
511.798	23.23
512.147	23.37
512.496	23.35
512.846	23.32
513.195	23.46
513.544	23.56
513.893	23.62
514.242	23.47
514.591	23.54
514.939	23.65
515.288	23.74
515.637	23.84
515.986	23.74
516.334	23.95
516.683	23.96
517.032	24.09
517.38	24.18
517.729	23.82
518.077	24.16
518.426	24.09
518.774	24.12
519.122	24.12
519.47	24.02
519.819	24.05
520.167	24.01
520.515	23.91
520.863	23.68
521.211	23.84
521.559	23.97
521.907	24.13
522.255	24.14
522.602	24.31
522.95	24.39
523.298	24.32
523.645	24.65
523.993	24.63
524.341	24.64
524.688	24.65
525.036	24.65
525.383	24.68
525.73	24.98
526.078	24.74
526.425	24.92
526.772	24.87
527.119	24.95
527.466	24.55
527.814	24.43
528.161	24.37
528.508	24.41
528.854	24.57
529.201	24.58
529.548	24.64
529.895	24.55
530.242	24.25
530.588	23.93
530.935	23.92
531.282	24.13
531.628	24.24
531.975	24.3
532.321	24.49
532.667	24.59
533.014	24.81
533.36	24.92
533.706	24.94
534.052	25.26
534.399	25.18
534.745	24.96
535.091	24.81
535.437	24.62
535.783	24.67
536.129	24.8
536.474	25
536.82	25.06
537.166	25.46
537.512	25.6
537.857	25.41
538.203	25.55
538.549	25.33
538.894	25.37
539.239	25.38
539.585	25.5
539.93	25.7
540.276	25.6
540.621	25.93
540.966	26.02
541.311	26.09
541.656	26.13
542.001	26.17
542.346	26.12
542.691	25.94
543.036	25.76
543.381	25.34
543.726	25.29
544.071	25.45
544.415	25.56
544.76	25.65
545.105	25.74
545.449	25.79
545.794	26.04
546.138	26.14
546.483	26.13
546.827	26.27
547.171	26.55
547.516	26.54
547.86	26.63
548.204	26.45
548.548	26.26
548.892	26.35
549.236	26.54
549.58	26.52
549.924	26.78
550.268	27
550.612	27.1
550.956	27.11
551.3	27.06
551.643	27.23
551.987	27.37
552.33	27.32
552.674	27.57
553.017	27.33
553.361	27.44
553.704	27.5
554.048	27.65
554.391	27.47
554.734	27.35
555.077	27.41
555.42	27.53
555.764	27.56
556.107	27.52
556.45	27.7
556.793	27.59
557.135	27.86
557.478	27.79
557.821	28
558.164	27.98
558.507	28.17
558.849	27.71
559.192	28.08
559.534	28.27
559.877	27.98
560.219	28.3
560.562	28.21
560.904	28.44
561.246	28.31
561.589	28.11
561.931	28.36
562.273	28.12
562.615	28.28
562.957	28.38
563.299	28.28
563.641	28.6
563.983	28.54
564.325	28.5
564.667	28.29
565.008	28.28
565.35	28.5
565.692	28.63
566.033	28.68
566.375	28.63
566.716	28.68
567.058	28.63
567.399	28.56
567.741	28.68
568.082	28.71
568.423	28.6
568.764	28.67
569.105	28.42
569.447	28.54
569.788	28.67
570.129	28.99
570.47	28.95
570.811	28.95
571.151	29.14
571.492	29.22
571.833	29.16
572.174	29.14
572.514	28.95
572.855	29.18
573.195	28.98
573.536	28.95
573.876	28.99
574.217	29.06
574.557	29.19
574.898	29.1
575.238	29.15
575.578	29.24
575.918	29.27
576.258	29.31
576.598	29.35
576.938	29.45
577.278	29.62
577.618	29.15
577.958	29.43
578.298	29.52
578.638	29.66
578.977	29.74
579.317	29.58
579.657	29.89
579.996	29.68
580.336	29.8
580.675	30.31
581.014	29.8
581.354	29.94
581.693	30.08
582.032	30.12
582.372	30.13
582.711	30.3
583.05	30.27
583.389	30.34
583.728	30.31
584.067	30.03
584.406	30.68
584.745	30.47
585.083	30.7
585.422	31.03
585.761	30.39
586.1	30.57
586.438	30.64
586.777	30.57
587.115	30.81
587.454	30.67
587.792	30.64
588.13	30.68
588.469	30.85
588.807	30.93
589.145	30.89
589.483	30.66
589.821	31.1
590.159	30.82
590.497	30.84
590.835	30.97
591.173	31.02
591.511	31.08
591.849	31.22
592.187	30.75
592.524	31.06
592.862	30.85
593.2	31.03
593.537	30.99
593.875	31.08
594.212	31.31
594.55	31.36
594.887	31.07
595.224	31.61
595.561	31.76
595.899	31.54
596.236	31.55
596.573	31.38
596.91	31.42
597.247	31.68
597.584	31.53
597.921	31.54
598.258	31.39
598.594	31.67
598.931	31.53
599.268	31.38
599.604	31.3
599.941	31.48
600.277	31.74
600.614	31.77
600.95	31.73
601.287	31.71
601.623	31.67
601.959	31.66
602.296	32.3
602.632	32.12
602.968	32.13
603.304	31.93
603.64	31.91
603.976	32.19
604.312	31.94
604.648	32.29
604.984	32.29
605.319	32.05
605.655	31.75
605.991	32.13
606.326	32.1
606.662	31.65
606.998	31.8
607.333	32.11
607.668	32.06
608.004	32.51
608.339	32.28
608.674	32.5
609.01	32.73
609.345	32.46
609.68	32.86
610.015	32.79
610.35	32.55
610.685	32.81
611.02	32.79
611.355	32.67
611.689	32.19
612.024	32.54
612.359	32.45
612.694	32.65
613.028	32.77
613.363	32.9
613.697	33.16
614.032	33.03
614.366	33.12
614.7	33.27
615.035	33.05
615.369	33.37
615.703	33.27
616.037	33.02
616.371	33.34
616.705	33.37
617.039	33.47
617.373	33.41
617.707	33.46
618.041	33.73
618.375	33.73
618.709	33.6
619.042	33.36
619.376	33.66
619.71	33.53
620.043	33.28
620.377	33.44
620.71	33.65
621.043	33.87
621.377	33.83
621.71	33.56
622.043	33.79
622.376	34.01
622.709	33.71
623.043	33.97
623.376	33.97
623.709	34.11
624.041	33.71
624.374	33.78
624.707	34.36
625.04	34.26
625.373	33.62
625.705	33.73
626.038	34.45
626.37	34.14
626.703	34.26
627.035	33.9
627.368	34.01
627.7	34.25
628.032	34.13
628.365	34.53
628.697	34.16
629.029	34.14
629.361	34.18
629.693	34.52
630.025	34.26
630.357	34.31
630.689	34.43
631.021	34.39
631.353	34.76
631.684	34.39
632.016	34.79
632.348	34.77
632.679	34.61
633.011	34.52
633.342	34.86
633.674	34.79
634.005	34.58
634.336	35.33
634.668	34.71
634.999	34.82
635.33	35.04
635.661	34.98
635.992	34.73
636.323	34.43
636.654	34.95
636.985	34.53
637.316	34.85
637.647	34.9
637.977	35.05
638.308	35.25
638.639	35
638.969	35.11
639.3	34.73
639.63	35.62
639.961	35.33
640.291	34.64
640.622	35.15
640.952	34.98
641.282	35.39
641.612	35.44
641.943	35.41
642.273	35.37
642.603	35.26
642.933	35.32
643.263	35.57
643.592	35.57
643.922	35.78
644.252	35.63
644.582	35.64
644.911	35.49
645.241	35.61
645.571	35.46
645.9	36.13
646.23	35.77
646.559	36.19
646.888	36.55
647.218	35.84
647.547	35.39
647.876	35.41
648.205	35.24
648.534	36.28
648.863	36.09
649.192	35.55
649.521	36.19
649.85	36.17
650.179	35.67
650.508	35.9
650.837	35.85
651.165	36.01
651.494	36.27
651.822	36.5
652.151	36.09
652.479	36.79
652.808	36.37
653.136	36.61
653.465	35.95
653.793	35.75
654.121	36.48
654.449	36.12
654.777	36.87
655.105	36.91
655.433	36.79
655.761	36.48
656.089	36.72
656.417	36.95
656.745	36.3
657.073	36.63
657.4	36.76
657.728	36.8
658.056	36.79
658.383	36.47
658.711	37.11
659.038	36.59
659.365	36.92
659.693	37.12
660.02	36.6
660.347	37.18
660.674	36.68
661.001	36.85
661.329	36.6
661.656	36.76
661.982	37.02
662.309	37.01
662.636	37.12
662.963	37.5
663.29	37.58
663.616	37.34
663.943	37.28
664.27	37.53
664.596	36.99
664.923	37.52
665.249	37.63
665.576	37.06
665.902	37.11
666.228	37.57
666.554	37.04
666.881	38.21
667.207	37.2
667.533	36.91
667.859	38
668.185	37.61
668.511	38.01
668.837	37.05
669.162	37.63
669.488	38.44
669.814	37.49
670.139	37.19
670.465	38.18
670.791	37.55
671.116	37.34
671.442	38.2
671.767	37.68
672.092	38.48
