Data from 0142_chest_Reflection__1__20.txt Node

Date: Fri Sep 22 20:32:06 CDT 2023
User: ToomeyLab
Spectrometer: FLMS14357
Trigger mode: 0
Integration Time (sec): 1.000000E-2
Scans to average: 100
Electric dark correction enabled: true
Nonlinearity correction enabled: false
Boxcar width: 0
XAxis mode: Wavelengths
Number of Pixels in Spectrum: 2048
>>>>>Begin Spectral Data<<<<<
189.047	97.95
189.435	97.95
189.823	97.95
190.211	175.69
190.599	276.41
190.987	488.89
191.375	-18.62
191.763	-792.81
192.151	10.65
192.538	-103.27
192.926	65.23
193.314	-4304
193.702	464.12
194.089	79.46
194.477	-3371.43
194.864	155.32
195.252	-82.81
195.639	180.38
196.027	43.96
196.414	-21.79
196.801	25.17
197.189	113.81
197.576	123.49
197.963	159.35
198.351	45.99
198.738	39.35
199.125	3.1
199.512	-16.99
199.899	31.82
200.286	24.62
200.673	34.23
201.06	10.63
201.447	55.94
201.833	-43.6
202.22	32.89
202.607	62.03
202.994	36.1
203.38	49.06
203.767	21.26
204.154	56.42
204.54	35.84
204.927	18.95
205.313	-21.1
205.699	34.96
206.086	16.19
206.472	41.87
206.858	22.15
207.245	-35.55
207.631	18.6
208.017	-26.69
208.403	11.29
208.789	2.18
209.175	10.45
209.561	22.22
209.947	22.23
210.333	30.32
210.719	6.67
211.105	12.62
211.491	14.55
211.876	52.83
212.262	22.31
212.648	58.36
213.034	14.85
213.419	29.6
213.805	20.75
214.19	11.52
214.576	26.14
214.961	22.66
215.346	-3.06
215.732	16.55
216.117	15.6
216.502	23.23
216.888	7.7
217.273	21.54
217.658	-7.83
218.043	29.79
218.428	37.01
218.813	14.42
219.198	20.25
219.583	16.73
219.968	-3.89
220.353	24.68
220.738	41.47
221.122	2.16
221.507	25.92
221.892	7.01
222.276	5.68
222.661	-2.17
223.046	6.65
223.43	5.16
223.815	6.57
224.199	-5.02
224.583	12.45
224.968	16.1
225.352	6.94
225.736	3.74
226.121	11.23
226.505	7.58
226.889	4.93
227.273	2.25
227.657	6.47
228.041	6.47
228.425	9.25
228.809	2.35
229.193	7.22
229.577	7.04
229.961	5.49
230.344	5.65
230.728	3.17
231.112	4.45
231.495	3.66
231.879	3.75
232.263	3.26
232.646	3.18
233.03	2.95
233.413	3.52
233.797	5.02
234.18	4.65
234.563	4.94
234.946	5.07
235.33	2.55
235.713	3.48
236.096	2.71
236.479	4.26
236.862	5.56
237.245	3.26
237.628	5.28
238.011	5.16
238.394	4.7
238.777	5.65
239.16	5.41
239.543	5.38
239.925	4.39
240.308	3.82
240.691	4.37
241.073	4.01
241.456	3.43
241.838	3.06
242.221	3.93
242.603	4.14
242.986	3.52
243.368	3.49
243.75	3.59
244.133	4.2
244.515	3.8
244.897	3.56
245.279	3.44
245.661	3.57
246.043	4.03
246.425	3.18
246.807	4.06
247.189	3.74
247.571	4.22
247.953	4.07
248.335	3.64
248.717	3.83
249.098	3.53
249.48	3.44
249.862	3.2
250.243	3.65
250.625	4
251.006	3.23
251.388	3.93
251.769	4
252.151	3.11
252.532	3.22
252.913	5.32
253.295	5.29
253.676	3.98
254.057	3.48
254.438	3.74
254.819	3.39
255.2	3.5
255.581	3.31
255.962	4.34
256.343	3.5
256.724	3.67
257.105	4.64
257.486	4.14
257.867	4.02
258.247	4.29
258.628	4.71
259.009	3.12
259.389	4.09
259.77	3.73
260.15	4.16
260.531	3.19
260.911	3.21
261.292	3.32
261.672	3.4
262.052	3.33
262.432	3.49
262.813	3.48
263.193	3.04
263.573	3.78
263.953	3.5
264.333	3.33
264.713	4.16
265.093	3.46
265.473	3.17
265.853	2.92
266.233	3.23
266.612	3.01
266.992	3.53
267.372	4.05
267.752	4.21
268.131	2.54
268.511	3
268.89	3.52
269.27	3.53
269.649	3.73
270.029	3.45
270.408	3.32
270.787	3.5
271.167	3.55
271.546	3.26
271.925	3.61
272.304	2.58
272.683	3.31
273.062	4.29
273.441	3.37
273.82	3.94
274.199	3.64
274.578	3.77
274.957	3.4
275.336	3.04
275.715	3.49
276.093	3.31
276.472	3.4
276.851	3.26
277.229	2.75
277.608	3.42
277.986	2.93
278.365	3.25
278.743	3.37
279.122	3.81
279.5	3.99
279.878	3.13
280.257	3.88
280.635	3.12
281.013	3.99
281.391	3.22
281.769	3.43
282.147	3.39
282.525	3.38
282.903	3.81
283.281	3.29
283.659	3.41
284.037	3.6
284.415	3.3
284.792	3.32
285.17	3.58
285.548	3.55
285.925	3.19
286.303	3.51
286.68	3.25
287.058	3.61
287.435	3.15
287.813	3.09
288.19	2.81
288.567	3.53
288.945	3.15
289.322	3.38
289.699	3.5
290.076	2.97
290.453	3.06
290.83	3.17
291.207	3.66
291.584	3.18
291.961	3.06
292.338	3.52
292.715	3.87
293.092	3.11
293.469	3
293.845	3.19
294.222	3.38
294.599	3.25
294.975	4.16
295.352	3.61
295.728	4.13
296.105	3.7
296.481	3.36
296.858	3.54
297.234	3.27
297.61	3.43
297.986	3.66
298.363	3.63
298.739	3.43
299.115	3.92
299.491	3.49
299.867	3.63
300.243	3.63
300.619	3.85
300.995	3.69
301.371	3.8
301.746	3.98
302.122	3.35
302.498	3.56
302.874	3.62
303.249	3.4
303.625	3.12
304	4.01
304.376	4.09
304.751	3.85
305.127	3.8
305.502	3.63
305.878	3.63
306.253	3.93
306.628	3.6
307.003	3.65
307.378	3.39
307.754	3.54
308.129	3.98
308.504	3.5
308.879	3.69
309.254	4
309.629	3.51
310.003	4.02
310.378	3.83
310.753	3.68
311.128	3.7
311.502	4
311.877	3.35
312.252	3.51
312.626	3.59
313.001	3.73
313.375	3.53
313.75	3.76
314.124	4.18
314.498	3.82
314.873	3.93
315.247	3.96
315.621	3.55
315.995	3.93
316.369	3.59
316.743	3.77
317.117	4.07
317.491	4.24
317.865	3.88
318.239	4.27
318.613	3.91
318.987	3.53
319.361	3.47
319.734	3.98
320.108	4.64
320.482	3.89
320.855	3.74
321.229	4.14
321.602	4.25
321.976	3.53
322.349	4.07
322.723	4.1
323.096	4.51
323.469	4.12
323.843	4.06
324.216	4.15
324.589	4.75
324.962	3.57
325.335	3.68
325.708	3.69
326.081	4.3
326.454	3.58
326.827	4.01
327.2	3.9
327.573	4.13
327.945	3.77
328.318	3.81
328.691	4.43
329.063	3.68
329.436	4.06
329.809	3.94
330.181	4.17
330.553	3.48
330.926	3.74
331.298	4.1
331.671	4.06
332.043	3.37
332.415	3.95
332.787	4.26
333.159	3.85
333.532	4.13
333.904	3.87
334.276	3.58
334.648	3.86
335.02	3.83
335.391	4
335.763	4.22
336.135	4.25
336.507	4.16
336.879	3.39
337.25	4.04
337.622	4.45
337.993	3.95
338.365	4.15
338.736	4.17
339.108	3.69
339.479	4.08
339.851	3.41
340.222	3.65
340.593	3.23
340.964	3.64
341.336	3.8
341.707	4.03
342.078	3.71
342.449	4.38
342.82	3.66
343.191	3.75
343.562	3.71
343.933	3.82
344.303	3.92
344.674	4
345.045	3.73
345.416	3.97
345.786	3.91
346.157	3.98
346.527	4.08
346.898	3.9
347.268	3.85
347.639	3.83
348.009	4.02
348.38	4.1
348.75	4.33
349.12	3.84
349.49	4.14
349.861	3.79
350.231	4.36
350.601	4.29
350.971	4.24
351.341	4
351.711	4.03
352.081	3.94
352.45	3.75
352.82	4.3
353.19	4.15
353.56	3.79
353.929	3.68
354.299	4.13
354.669	3.63
355.038	3.73
355.408	3.86
355.777	4.26
356.147	4.06
356.516	4.41
356.885	3.58
357.254	4.06
357.624	3.6
357.993	4.1
358.362	4.1
358.731	4.04
359.1	3.61
359.469	3.87
359.838	3.54
360.207	3.67
360.576	3.95
360.945	4.12
361.314	4.15
361.682	3.92
362.051	3.99
362.42	3.82
362.788	3.59
363.157	3.93
363.525	3.97
363.894	3.91
364.262	3.84
364.631	3.63
364.999	3.76
365.367	4.15
365.735	3.97
366.104	4.12
366.472	3.94
366.84	3.78
367.208	4.07
367.576	3.78
367.944	3.84
368.312	4.24
368.68	4.1
369.048	4.08
369.416	3.94
369.783	4.12
370.151	3.66
370.519	4.16
370.886	3.75
371.254	3.94
371.621	3.79
371.989	4.01
372.356	4.02
372.724	4
373.091	4.36
373.458	4.2
373.826	4.15
374.193	4.44
374.56	4.1
374.927	3.92
375.294	3.92
375.661	3.87
376.028	4.02
376.395	4.28
376.762	3.8
377.129	4.29
377.496	4.16
377.863	4.02
378.229	4.08
378.596	4.03
378.963	4.32
379.329	4.06
379.696	4.42
380.062	3.72
380.429	4.01
380.795	4.11
381.161	4.24
381.528	4.02
381.894	3.59
382.26	3.66
382.626	3.95
382.993	4.49
383.359	3.64
383.725	4.14
384.091	4.14
384.457	3.97
384.823	3.76
385.188	3.93
385.554	4.1
385.92	4.46
386.286	4.08
386.651	4.03
387.017	4.15
387.383	3.98
387.748	4.03
388.114	4.06
388.479	4.32
388.845	3.82
389.21	4.1
389.575	4.45
389.94	3.91
390.306	4.27
390.671	4.22
391.036	3.93
391.401	4.06
391.766	4.18
392.131	4.03
392.496	4.26
392.861	3.81
393.226	4.38
393.591	4.15
393.956	4.1
394.32	4.11
394.685	4.03
395.05	4.34
395.414	4.29
395.779	4.02
396.143	4.13
396.508	4.01
396.872	3.97
397.236	4.2
397.601	4.16
397.965	4.35
398.329	4.21
398.694	4.11
399.058	4.21
399.422	4.28
399.786	4.24
400.15	4.2
400.514	4.14
400.878	4.08
401.242	4.09
401.605	4.14
401.969	3.82
402.333	4.26
402.697	4.11
403.06	4.23
403.424	4.07
403.787	4.3
404.151	4.23
404.514	4.4
404.878	4.27
405.241	4.23
405.604	4.26
405.968	4.38
406.331	4.25
406.694	4.27
407.057	3.91
407.42	4.4
407.783	4.15
408.146	4.16
408.509	4.18
408.872	4.06
409.235	4.15
409.598	4.02
409.961	4.39
410.323	4.17
410.686	4.27
411.049	4.43
411.411	4.33
411.774	4.02
412.136	4.21
412.499	4.14
412.861	4.25
413.223	4.26
413.586	4.24
413.948	4.32
414.31	3.98
414.672	4.35
415.035	4.05
415.397	4.53
415.759	4.51
416.121	4.13
416.483	4.36
416.845	4.2
417.206	4.13
417.568	4.21
417.93	4.08
418.292	4.27
418.653	4.05
419.015	4.28
419.377	4.13
419.738	4.4
420.1	4.17
420.461	4.23
420.822	4.2
421.184	4.05
421.545	4.21
421.906	4.08
422.267	4.19
422.629	4.27
422.99	4.06
423.351	4.06
423.712	4.2
424.073	4.17
424.434	4.23
424.795	4.2
425.155	4.26
425.516	4.15
425.877	4.1
426.238	4.05
426.598	4.06
426.959	4.17
427.32	4.17
427.68	4.11
428.041	4.21
428.401	4.33
428.761	4.28
429.122	4.27
429.482	4.28
429.842	4.2
430.202	4.23
430.563	4.46
430.923	4.47
431.283	4.39
431.643	4.39
432.003	4.36
432.363	4.55
432.722	4.32
433.082	4.61
433.442	4.44
433.802	4.48
434.161	4.31
434.521	4.39
434.881	4.38
435.24	4.24
435.6	4.46
435.959	4.26
436.319	4.37
436.678	4.5
437.037	4.36
437.396	4.38
437.756	4.33
438.115	4.4
438.474	4.41
438.833	4.42
439.192	4.4
439.551	4.43
439.91	4.46
440.269	4.51
440.628	4.33
440.987	4.33
441.345	4.42
441.704	4.47
442.063	4.34
442.421	4.29
442.78	4.31
443.138	4.4
443.497	4.36
443.855	4.42
444.214	4.3
444.572	4.58
444.93	4.49
445.288	4.45
445.647	4.56
446.005	4.47
446.363	4.44
446.721	4.58
447.079	4.36
447.437	4.49
447.795	4.53
448.153	4.37
448.51	4.44
448.868	4.32
449.226	4.45
449.584	4.4
449.941	4.34
450.299	4.47
450.656	4.53
451.014	4.65
451.371	4.49
451.729	4.53
452.086	4.54
452.443	4.59
452.801	4.56
453.158	4.52
453.515	4.66
453.872	4.65
454.229	4.7
454.586	4.57
454.943	4.59
455.3	4.7
455.657	4.6
456.014	4.65
456.371	4.65
456.727	4.61
457.084	4.66
457.441	4.59
457.797	4.59
458.154	4.62
458.51	4.72
458.867	4.66
459.223	4.62
459.58	4.85
459.936	4.57
460.292	4.82
460.648	4.67
461.005	4.66
461.361	4.77
461.717	4.52
462.073	4.57
462.429	4.47
462.785	4.42
463.141	4.62
463.496	4.66
463.852	4.68
464.208	4.61
464.564	4.94
464.919	4.64
465.275	4.87
465.631	4.73
465.986	4.87
466.342	4.76
466.697	4.88
467.052	4.71
467.408	4.7
467.763	4.64
468.118	4.83
468.473	4.83
468.829	4.81
469.184	4.77
469.539	4.84
469.894	4.81
470.249	4.86
470.603	4.73
470.958	4.8
471.313	4.96
471.668	4.83
472.023	4.79
472.377	4.78
472.732	4.69
473.086	5.01
473.441	4.71
473.795	4.97
474.15	4.54
474.504	4.68
474.859	4.88
475.213	4.75
475.567	4.75
475.921	4.86
476.275	5.02
476.63	4.89
476.984	4.7
477.338	4.84
477.692	5
478.045	5
478.399	5.1
478.753	4.9
479.107	4.93
479.461	4.87
479.814	4.94
480.168	4.97
480.521	5
480.875	4.99
481.228	4.78
481.582	4.73
481.935	4.91
482.289	4.81
482.642	4.82
482.995	4.85
483.348	4.96
483.701	4.82
484.055	4.91
484.408	4.88
484.761	4.9
485.114	4.73
485.466	4.72
485.819	4.67
486.172	4.62
486.525	4.63
486.878	4.67
487.23	4.7
487.583	4.79
487.936	4.86
488.288	4.84
488.641	4.83
488.993	4.78
489.345	4.72
489.698	4.73
490.05	4.77
490.402	4.81
490.754	4.75
491.107	4.85
491.459	4.86
491.811	4.92
492.163	4.95
492.515	5.03
492.866	4.9
493.218	5.01
493.57	4.93
493.922	4.86
494.274	4.84
494.625	4.88
494.977	5.01
495.328	5.11
495.68	5.07
496.031	5.07
496.383	5.23
496.734	5.24
497.086	5.09
497.437	5.3
497.788	5.13
498.139	5.27
498.49	5.34
498.842	5.08
499.193	5.13
499.544	5.28
499.894	5.07
500.245	5.35
500.596	5.3
500.947	5.28
501.298	5.27
501.648	5.46
501.999	5.34
502.35	5.31
502.7	5.27
503.051	5.27
503.401	5.35
503.752	5.42
504.102	5.42
504.452	5.26
504.803	5.42
505.153	5.38
505.503	5.49
505.853	5.37
506.203	5.3
506.553	5.46
506.903	5.44
507.253	5.23
507.603	5.37
507.953	5.48
508.303	5.38
508.652	5.37
509.002	5.58
509.352	5.35
509.701	5.58
510.051	5.58
510.4	5.53
510.75	5.48
511.099	5.35
511.449	5.49
511.798	5.58
512.147	5.55
512.496	5.39
512.846	5.49
513.195	5.57
513.544	5.6
513.893	5.54
514.242	5.41
514.591	5.57
514.939	5.58
515.288	5.55
515.637	5.59
515.986	5.65
516.334	5.65
516.683	5.69
517.032	5.79
517.38	5.67
517.729	5.56
518.077	5.72
518.426	5.68
518.774	5.72
519.122	5.64
519.47	5.6
519.819	5.77
520.167	5.76
520.515	5.68
520.863	5.62
521.211	5.66
521.559	5.79
521.907	5.75
522.255	5.83
522.602	5.82
522.95	5.78
523.298	5.83
523.645	5.97
523.993	5.91
524.341	5.93
524.688	6.05
525.036	5.91
525.383	5.98
525.73	6.04
526.078	5.91
526.425	5.93
526.772	6.08
527.119	5.89
527.466	5.92
527.814	5.79
528.161	5.84
528.508	5.89
528.854	5.96
529.201	6.04
529.548	5.91
529.895	5.92
530.242	5.87
530.588	5.8
530.935	5.74
531.282	5.72
531.628	5.89
531.975	5.85
532.321	5.89
532.667	6
533.014	6.07
533.36	6.19
533.706	6.15
534.052	6.27
534.399	6.21
534.745	6.12
535.091	6.08
535.437	6.07
535.783	6.09
536.129	6.06
536.474	6.19
536.82	6.11
537.166	6.26
537.512	6.33
537.857	6.24
538.203	6.45
538.549	6.27
538.894	6.3
539.239	6.31
539.585	6.27
539.93	6.41
540.276	6.45
540.621	6.55
540.966	6.56
541.311	6.62
541.656	6.5
542.001	6.48
542.346	6.59
542.691	6.6
543.036	6.49
543.381	6.42
543.726	6.42
544.071	6.41
544.415	6.37
544.76	6.5
545.105	6.45
545.449	6.54
545.794	6.6
546.138	6.57
546.483	6.6
546.827	6.72
547.171	6.71
547.516	6.9
547.86	6.82
548.204	6.87
548.548	6.77
548.892	6.89
549.236	6.9
549.58	6.86
549.924	6.86
550.268	7.01
550.612	6.97
550.956	7.16
551.3	7.04
551.643	7.21
551.987	7.28
552.33	7.23
552.674	7.21
553.017	7.14
553.361	7.19
553.704	7.26
554.048	7.36
554.391	7.37
554.734	7.26
555.077	7.37
555.42	7.35
555.764	7.29
556.107	7.43
556.45	7.35
556.793	7.38
557.135	7.4
557.478	7.36
557.821	7.51
558.164	7.56
558.507	7.62
558.849	7.48
559.192	7.7
559.534	7.78
559.877	7.57
560.219	7.61
560.562	7.66
560.904	7.67
561.246	7.84
561.589	7.61
561.931	7.78
562.273	7.56
562.615	7.71
562.957	7.75
563.299	7.91
563.641	7.93
563.983	7.97
564.325	7.79
564.667	7.98
565.008	7.95
565.35	8.11
565.692	7.9
566.033	7.98
566.375	7.96
566.716	8.14
567.058	7.89
567.399	8.15
567.741	8.18
568.082	8.15
568.423	8.19
568.764	8.39
569.105	8.07
569.447	8.24
569.788	7.97
570.129	8.27
570.47	8.43
570.811	8.25
571.151	8.5
571.492	8.39
571.833	8.4
572.174	8.24
572.514	8.49
572.855	8.5
573.195	8.32
573.536	8.37
573.876	8.52
574.217	8.44
574.557	8.46
574.898	8.62
575.238	8.64
575.578	8.64
575.918	8.66
576.258	8.62
576.598	8.85
576.938	8.83
577.278	8.88
577.618	8.66
577.958	8.75
578.298	8.97
578.638	8.91
578.977	8.9
579.317	8.91
579.657	8.99
579.996	9.1
580.336	9.18
580.675	9.2
581.014	9.11
581.354	9.16
581.693	9.28
582.032	9.16
582.372	9.22
582.711	9.55
583.05	9.28
583.389	9.43
583.728	9.49
584.067	9.37
584.406	9.51
584.745	9.49
585.083	9.85
585.422	9.58
585.761	9.38
586.1	9.59
586.438	9.36
586.777	9.83
587.115	9.78
587.454	9.58
587.792	9.87
588.13	9.84
588.469	9.61
588.807	9.94
589.145	9.95
589.483	9.98
589.821	10.03
590.159	9.9
590.497	10.18
590.835	9.89
591.173	10.06
591.511	9.96
591.849	10.21
592.187	10.04
592.524	10.18
592.862	10.15
593.2	10.07
593.537	9.96
593.875	10.29
594.212	10.26
594.55	10.34
594.887	10.24
595.224	10.32
595.561	10.7
595.899	10.66
596.236	10.69
596.573	10.52
596.91	10.5
597.247	10.53
597.584	10.6
597.921	10.71
598.258	10.66
598.594	10.74
598.931	10.6
599.268	10.48
599.604	10.75
599.941	10.84
600.277	10.72
600.614	10.83
600.95	10.67
601.287	10.92
601.623	10.88
601.959	10.99
602.296	11.11
602.632	10.99
602.968	11.14
603.304	11.01
603.64	11.11
603.976	11.21
604.312	11.23
604.648	11.43
604.984	10.93
605.319	11.17
605.655	11
605.991	11.24
606.326	11.46
606.662	11.13
606.998	11.28
607.333	11.37
607.668	11.18
608.004	11.47
608.339	11.34
608.674	11.66
609.01	11.54
609.345	11.49
609.68	11.67
610.015	11.68
610.35	11.9
610.685	12.08
611.02	11.93
611.355	11.69
611.689	11.53
612.024	11.73
612.359	11.75
612.694	11.75
613.028	11.93
613.363	11.8
613.697	11.8
614.032	11.84
614.366	11.87
614.7	12.1
615.035	12.04
615.369	12.25
615.703	12.1
616.037	12.2
616.371	12.55
616.705	12.28
617.039	12.04
617.373	12.6
617.707	12.4
618.041	12.94
618.375	12.47
618.709	12.35
619.042	12.65
619.376	12.65
619.71	12.52
620.043	12.27
620.377	12.82
620.71	12.65
621.043	12.73
621.377	12.82
621.71	12.87
622.043	13.17
622.376	13.24
622.709	13.14
623.043	13.22
623.376	13.05
623.709	13.49
624.041	12.9
624.374	13.05
624.707	13.42
625.04	13.27
625.373	12.9
625.705	13.13
626.038	13.04
626.37	13.31
626.703	13.34
627.035	13.46
627.368	13.31
627.7	13.73
628.032	13.47
628.365	13.93
628.697	13.59
629.029	13.39
629.361	13.59
629.693	13.69
630.025	13.75
630.357	13.28
630.689	13.4
631.021	13.72
631.353	13.85
631.684	13.72
632.016	13.8
632.348	14.1
632.679	13.77
633.011	13.82
633.342	14.5
633.674	14.03
634.005	13.49
634.336	13.91
634.668	14.12
634.999	14.36
635.33	14.15
635.661	14.29
635.992	14.29
636.323	13.77
636.654	14.23
636.985	14.06
637.316	14.08
637.647	14.33
637.977	14.25
638.308	14.75
638.639	14.41
638.969	14.68
639.3	14.42
639.63	14.65
639.961	14.14
640.291	14.27
640.622	14.81
640.952	14.87
641.282	14.79
641.612	14.67
641.943	15
642.273	14.99
642.603	14.74
642.933	15.05
643.263	14.38
643.592	14.97
643.922	15.21
644.252	14.91
644.582	15.26
644.911	15.15
645.241	15.62
645.571	15.07
645.9	15.45
646.23	15.37
646.559	15.47
646.888	15.93
647.218	15.57
647.547	15.34
647.876	15.42
648.205	14.83
648.534	16.16
648.863	15.86
649.192	15.48
649.521	15.81
649.85	15.95
650.179	15.28
650.508	15.48
650.837	15.75
651.165	15.65
651.494	15.68
651.822	15.83
652.151	15.79
652.479	15.92
652.808	15.82
653.136	16.13
653.465	16.15
653.793	15.87
654.121	16.14
654.449	15.53
654.777	15.85
655.105	16.41
655.433	16.48
655.761	16.47
656.089	15.98
656.417	16.23
656.745	16.41
657.073	16.24
657.4	16.97
657.728	16.77
658.056	16.71
658.383	16.54
658.711	16.49
659.038	16.34
659.365	16.38
659.693	16.24
660.02	17.15
660.347	16.78
660.674	16.71
661.001	16.59
661.329	16.54
661.656	16.61
661.982	16.83
662.309	16.82
662.636	16.72
662.963	17
663.29	17.01
663.616	16.58
663.943	17.18
664.27	17.56
664.596	17.31
664.923	17.18
665.249	17.23
665.576	17.05
665.902	17.12
666.228	17.66
666.554	16.92
666.881	17.8
667.207	17.43
667.533	17.24
667.859	17.56
668.185	18.3
668.511	17.97
668.837	16.91
669.162	17.33
669.488	17.81
669.814	17.89
670.139	17.7
670.465	18.4
670.791	17.64
671.116	17.5
671.442	18.19
671.767	17.96
672.092	18.03
672.418	18.65
672.743	17.78
673.068	17.63
673.393	17.57
673.718	18.55
674.043	18.33
674.368	18.28
674.693	17.99
675.018	18.24
675.343	19.05
675.667	17.83
675.992	18.3
676.317	18.77
676.641	18.54
676.966	18.52
677.29	18.45
677.615	18.87
677.939	18.66
678.264	18.96
678.588	19.5
678.912	18.49
679.236	18.74
679.56	18.52
679.885	18.46
680.209	19.24
680.532	19.21
680.856	18.49
681.18	18.97
681.504	18.67
681.828	19.63
682.152	19.04
682.475	19.11
682.799	19.8
683.122	18.73
683.446	18.82
683.769	19.18
684.093	19.03
684.416	19.16
684.739	19.37
685.062	20.3
685.386	19.18
685.709	19.54
686.032	18.65
686.355	18.62
686.678	19.95
