Data from 0142_chest_Reflection__3__22.txt Node

Date: Fri Sep 22 20:32:26 CDT 2023
User: ToomeyLab
Spectrometer: FLMS14357
Trigger mode: 0
Integration Time (sec): 1.000000E-2
Scans to average: 100
Electric dark correction enabled: true
Nonlinearity correction enabled: false
Boxcar width: 0
XAxis mode: Wavelengths
Number of Pixels in Spectrum: 2048
>>>>>Begin Spectral Data<<<<<
189.047	4.69
189.435	4.69
189.823	4.69
190.211	-103.4
190.599	294.73
190.987	479.04
191.375	80.17
191.763	-940.12
192.151	48.4
192.538	56.28
192.926	47.16
193.314	-6200
193.702	120.29
194.089	68.49
194.477	-57400
194.864	110.07
195.252	-48.13
195.639	230.24
196.027	54.24
196.414	48.33
196.801	40.87
197.189	-175.77
197.576	74.05
197.963	-622.11
198.351	31.04
198.738	45.23
199.125	99.02
199.512	32.57
199.899	44.83
200.286	54.94
200.673	-12.91
201.06	-1.13
201.447	9.87
201.833	-31.79
202.22	33.4
202.607	57.53
202.994	16.44
203.38	42.73
203.767	30.38
204.154	28.35
204.54	56.5
204.927	10.48
205.313	28.63
205.699	34.93
206.086	40.4
206.472	42.33
206.858	33.79
207.245	-10.31
207.631	39.63
208.017	21.21
208.403	29.75
208.789	17.02
209.175	26.99
209.561	35.54
209.947	48.42
210.333	43.82
210.719	0.16
211.105	61.54
211.491	-7.41
211.876	17.13
212.262	19.41
212.648	17.48
213.034	12.98
213.419	41.35
213.805	31.77
214.19	-6.99
214.576	30.45
214.961	10.74
215.346	14.59
215.732	13.87
216.117	-3.62
216.502	34.3
216.888	15.85
217.273	20.47
217.658	25.77
218.043	27.06
218.428	44.76
218.813	10.5
219.198	28.87
219.583	4.27
219.968	-1.51
220.353	34.05
220.738	3.6
221.122	-1.54
221.507	10.51
221.892	4.28
222.276	6.24
222.661	-2.32
223.046	22.3
223.43	20.54
223.815	16.21
224.199	-1.46
224.583	9.27
224.968	17.01
225.352	3.11
225.736	1.83
226.121	6.25
226.505	6.68
226.889	-2.91
227.273	9.31
227.657	10.87
228.041	3.61
228.425	11.53
228.809	4.13
229.193	4.3
229.577	5.67
229.961	3.8
230.344	5.05
230.728	2.97
231.112	3.36
231.495	2.96
231.879	3.63
232.263	3.91
232.646	2.77
233.03	2.41
233.413	4.09
233.797	3.83
234.18	3.6
234.563	5.53
234.946	4.43
235.33	1.32
235.713	3.02
236.096	2.8
236.479	2.39
236.862	4.54
237.245	4.04
237.628	3.36
238.011	3.57
238.394	3.99
238.777	4.19
239.16	4.12
239.543	4.59
239.925	5.14
240.308	3.4
240.691	3.76
241.073	5.91
241.456	5.35
241.838	4.35
242.221	3.33
242.603	3.48
242.986	3.8
243.368	3.47
243.75	3.79
244.133	4.28
244.515	3.21
244.897	3.3
245.279	3.59
245.661	3.6
246.043	3.63
246.425	3.89
246.807	4.91
247.189	3.47
247.571	3.64
247.953	4.68
248.335	4.11
248.717	3.65
249.098	3.63
249.48	3.78
249.862	3.49
250.243	3.86
250.625	3.56
251.006	3.62
251.388	3.8
251.769	3.95
252.151	3.63
252.532	3.96
252.913	3.63
253.295	4.79
253.676	4.07
254.057	4.78
254.438	4.67
254.819	3.62
255.2	4.38
255.581	3.86
255.962	3.9
256.343	3.41
256.724	3.61
257.105	4.31
257.486	4.26
257.867	5.33
258.247	4.06
258.628	4.89
259.009	3.25
259.389	3.68
259.77	4.52
260.15	4.37
260.531	3.15
260.911	3.72
261.292	3.76
261.672	3.6
262.052	3.57
262.432	3.4
262.813	3.69
263.193	3.27
263.573	4.14
263.953	3.23
264.333	3.82
264.713	3.43
265.093	3.43
265.473	3.84
265.853	2.9
266.233	4.71
266.612	3.69
266.992	4.19
267.372	3.11
267.752	4.33
268.131	3.93
268.511	3.59
268.89	3.86
269.27	3.14
269.649	3.34
270.029	3.07
270.408	3.28
270.787	3.54
271.167	3.13
271.546	2.61
271.925	3.86
272.304	3.31
272.683	3.36
273.062	4.08
273.441	3.45
273.82	3.55
274.199	3.55
274.578	3.49
274.957	3
275.336	3.39
275.715	3.47
276.093	3.45
276.472	3.09
276.851	3.36
277.229	2.67
277.608	3.53
277.986	3.2
278.365	3.94
278.743	3.25
279.122	3.32
279.5	3.93
279.878	2.79
280.257	3.8
280.635	3.36
281.013	4.03
281.391	3.75
281.769	3.36
282.147	2.88
282.525	3.34
282.903	3.27
283.281	3.36
283.659	3.23
284.037	3.34
284.415	3.79
284.792	3.13
285.17	3.52
285.548	3.85
285.925	3.65
286.303	3.34
286.68	2.98
287.058	2.7
287.435	3.34
287.813	3.29
288.19	2.9
288.567	3.77
288.945	3.11
289.322	3.45
289.699	3.78
290.076	3.75
290.453	3.3
290.83	3.07
291.207	3.45
291.584	3.44
291.961	3.73
292.338	3.7
292.715	3.84
293.092	3.72
293.469	4.09
293.845	4.16
294.222	4
294.599	4.08
294.975	4.1
295.352	4.23
295.728	4.32
296.105	4.15
296.481	4.35
296.858	4.34
297.234	4.19
297.61	4.86
297.986	4.79
298.363	4.69
298.739	4.57
299.115	4.75
299.491	4.69
299.867	4.84
300.243	4.16
300.619	4.69
300.995	4.26
301.371	5
301.746	5.26
302.122	4.79
302.498	4.24
302.874	4.65
303.249	4.74
303.625	4.43
304	4.97
304.376	4.94
304.751	5.42
305.127	4.88
305.502	5.6
305.878	4.76
306.253	5.25
306.628	4.91
307.003	5.21
307.378	5.35
307.754	5.17
308.129	5.08
308.504	5.31
308.879	5.29
309.254	5.56
309.629	5.85
310.003	6.04
310.378	5.76
310.753	5.33
311.128	5.67
311.502	6.05
311.877	4.98
312.252	5.99
312.626	5.7
313.001	6.08
313.375	5.67
313.75	6.24
314.124	6.15
314.498	5.67
314.873	5.85
315.247	6.03
315.621	5.85
315.995	6.11
316.369	5.75
316.743	5.8
317.117	5.87
317.491	6.82
317.865	6.26
318.239	6.31
318.613	6.57
318.987	6.24
319.361	5.98
319.734	6.08
320.108	6.43
320.482	5.69
320.855	5.96
321.229	6.78
321.602	6.21
321.976	6.25
322.349	6.55
322.723	6.7
323.096	6.91
323.469	6.53
323.843	6.27
324.216	6.88
324.589	6.34
324.962	6.44
325.335	6.33
325.708	6.29
326.081	7.01
326.454	6.47
326.827	6.69
327.2	6.74
327.573	7.13
327.945	6.74
328.318	6.65
328.691	7.04
329.063	6.66
329.436	6.99
329.809	6.77
330.181	6.88
330.553	6.5
330.926	7.08
331.298	7.04
331.671	7.01
332.043	6.1
332.415	6.34
332.787	7.17
333.159	6.52
333.532	6.73
333.904	6.52
334.276	6.72
334.648	6.62
335.02	6.4
335.391	6.85
335.763	7.18
336.135	6.98
336.507	7.29
336.879	7.06
337.25	7.05
337.622	7.37
337.993	7.56
338.365	7.24
338.736	7.13
339.108	6.91
339.479	6.94
339.851	7.22
340.222	7.08
340.593	6.65
340.964	7.5
341.336	7.14
341.707	6.92
342.078	7.41
342.449	7.89
342.82	6.4
343.191	6.79
343.562	7.4
343.933	7.2
344.303	7.18
344.674	7.01
345.045	7.14
345.416	7.35
345.786	7.3
346.157	7.44
346.527	7.29
346.898	7.28
347.268	7.45
347.639	7.26
348.009	7.41
348.38	7.72
348.75	7.49
349.12	7.44
349.49	7.53
349.861	7.32
350.231	7.32
350.601	7.38
350.971	7.58
351.341	7.44
351.711	7.38
352.081	7.48
352.45	7.3
352.82	7.84
353.19	7.47
353.56	7.93
353.929	7.77
354.299	7.6
354.669	7.54
355.038	7.39
355.408	7.34
355.777	7.92
356.147	7.71
356.516	8.26
356.885	7.1
357.254	7.77
357.624	7.15
357.993	7.71
358.362	7.56
358.731	7.56
359.1	7.63
359.469	7.48
359.838	7.47
360.207	7.42
360.576	7.69
360.945	7.73
361.314	7.88
361.682	7.99
362.051	7.96
362.42	7.5
362.788	7.53
363.157	7.89
363.525	7.8
363.894	7.63
364.262	7.68
364.631	7.83
364.999	7.54
365.367	8.12
365.735	7.8
366.104	7.93
366.472	8.09
366.84	7.71
367.208	8.12
367.576	8.14
367.944	7.7
368.312	8.25
368.68	7.82
369.048	8.08
369.416	8.11
369.783	7.92
370.151	7.98
370.519	7.94
370.886	7.88
371.254	8.26
371.621	8.2
371.989	8.39
372.356	8.18
372.724	8.4
373.091	8.19
373.458	8.1
373.826	8.35
374.193	8.34
374.56	8.31
374.927	8.36
375.294	8.37
375.661	8.17
376.028	8.11
376.395	8.45
376.762	7.98
377.129	8.44
377.496	8.33
377.863	8
378.229	8.25
378.596	8.19
378.963	8.52
379.329	8.38
379.696	8.44
380.062	8.04
380.429	8.04
380.795	8.09
381.161	8.17
381.528	8.12
381.894	8.03
382.26	8.22
382.626	8.36
382.993	8.59
383.359	8.16
383.725	8.44
384.091	8.65
384.457	8.25
384.823	7.89
385.188	8.5
385.554	8.27
385.92	8.51
386.286	8.46
386.651	8.39
387.017	8.66
387.383	8.34
387.748	8.21
388.114	8.37
388.479	8.24
388.845	8.22
389.21	8.29
389.575	8.67
389.94	8.5
390.306	8.53
390.671	8.82
391.036	8.38
391.401	8.57
391.766	8.48
392.131	8.52
392.496	8.46
392.861	8.44
393.226	8.53
393.591	8.65
393.956	8.74
394.32	8.64
394.685	8.45
395.05	8.91
395.414	8.95
395.779	8.64
396.143	8.79
396.508	8.7
396.872	8.72
397.236	8.95
397.601	8.8
397.965	8.88
398.329	8.65
398.694	8.7
399.058	8.72
399.422	8.65
399.786	8.88
400.15	8.96
400.514	8.84
400.878	8.59
401.242	8.99
401.605	8.76
401.969	8.48
402.333	8.74
402.697	8.73
403.06	8.94
403.424	8.81
403.787	8.99
404.151	9.13
404.514	9.03
404.878	8.98
405.241	9.08
405.604	9.18
405.968	9
406.331	9.07
406.694	9.1
407.057	8.85
407.42	8.95
407.783	8.91
408.146	9.13
408.509	8.97
408.872	9.08
409.235	8.91
409.598	8.85
409.961	9.32
410.323	9.15
410.686	9.2
411.049	9.14
411.411	9.42
411.774	9.18
412.136	9.16
412.499	9.19
412.861	9.27
413.223	9.28
413.586	9.17
413.948	9.35
414.31	9.34
414.672	9.37
415.035	9.06
415.397	9.42
415.759	9.55
416.121	9.13
416.483	9.16
416.845	9.17
417.206	9
417.568	9.17
417.93	9.36
418.292	9.44
418.653	9.15
419.015	9.34
419.377	9.03
419.738	9.25
420.1	9.11
420.461	9.31
420.822	9.12
421.184	9.26
421.545	9.19
421.906	9.21
422.267	9.19
422.629	9.31
422.99	9.07
423.351	9.04
423.712	9.18
424.073	9.18
424.434	9.3
424.795	9.29
425.155	9.39
425.516	9.28
425.877	9.35
426.238	9.14
426.598	9.28
426.959	9.32
427.32	9.32
427.68	9.25
428.041	9.35
428.401	9.55
428.761	9.56
429.122	9.63
429.482	9.69
429.842	9.48
430.202	9.59
430.563	9.87
430.923	9.72
431.283	9.79
431.643	9.72
432.003	9.5
432.363	9.7
432.722	9.63
433.082	9.88
433.442	9.56
433.802	9.6
434.161	9.62
434.521	9.67
434.881	9.64
435.24	9.66
435.6	9.49
435.959	9.58
436.319	9.6
436.678	9.86
437.037	9.79
437.396	9.53
437.756	9.67
438.115	9.75
438.474	9.7
438.833	9.96
439.192	9.79
439.551	9.86
439.91	9.9
440.269	9.87
440.628	9.56
440.987	9.79
441.345	9.83
441.704	9.89
442.063	9.77
442.421	9.88
442.78	9.88
443.138	9.86
443.497	9.81
443.855	9.88
444.214	9.81
444.572	9.94
444.93	10.01
445.288	10.04
445.647	10.09
446.005	9.9
446.363	9.95
446.721	10.12
447.079	9.93
447.437	9.98
447.795	10.06
448.153	9.88
448.51	9.89
448.868	9.87
449.226	9.93
449.584	9.89
449.941	9.93
450.299	10.12
450.656	10.08
451.014	10.18
451.371	10.15
451.729	10.06
452.086	10.1
452.443	10.24
452.801	10.17
453.158	10.09
453.515	10.26
453.872	10.39
454.229	10.3
454.586	10.32
454.943	10.37
455.3	10.2
455.657	10.17
456.014	10.23
456.371	10.31
456.727	10.42
457.084	10.39
457.441	10.43
457.797	10.23
458.154	10.36
458.51	10.42
458.867	10.35
459.223	10.38
459.58	10.52
459.936	10.46
460.292	10.49
460.648	10.57
461.005	10.45
461.361	10.52
461.717	10.22
462.073	10.32
462.429	10.13
462.785	10.31
463.141	10.33
463.496	10.55
463.852	10.45
464.208	10.43
464.564	10.46
464.919	10.51
465.275	10.73
465.631	10.74
465.986	10.71
466.342	10.52
466.697	10.83
467.052	10.54
467.408	10.75
467.763	10.75
468.118	10.9
468.473	10.61
468.829	10.67
469.184	10.84
469.539	10.73
469.894	10.52
470.249	10.68
470.603	10.75
470.958	10.72
471.313	10.78
471.668	10.89
472.023	10.77
472.377	10.63
472.732	10.74
473.086	10.86
473.441	10.73
473.795	11.02
474.15	10.76
474.504	10.93
474.859	11.05
475.213	10.75
475.567	10.71
475.921	11.06
476.275	10.97
476.63	10.82
476.984	10.89
477.338	11.05
477.692	11.13
478.045	11.25
478.399	11.11
478.753	11.04
479.107	10.97
479.461	10.9
479.814	11.06
480.168	11.08
480.521	11.2
480.875	11.22
481.228	11.03
481.582	10.91
481.935	11.12
482.289	11.18
482.642	11.01
482.995	11.15
483.348	11.13
483.701	11.19
484.055	11.16
484.408	11.14
484.761	11.21
485.114	11
485.466	10.95
485.819	10.79
486.172	10.75
486.525	10.73
486.878	10.6
487.23	10.68
487.583	10.78
487.936	10.97
488.288	11
488.641	11.09
488.993	11
489.345	11.03
489.698	10.98
490.05	10.95
490.402	10.93
490.754	10.92
491.107	10.94
491.459	11.07
491.811	11.18
492.163	11.31
492.515	11.34
492.866	11.37
493.218	11.39
493.57	11.34
493.922	11.15
494.274	11.16
494.625	11.16
494.977	11.14
495.328	11.28
495.68	11.5
496.031	11.56
496.383	11.56
496.734	11.66
497.086	11.63
497.437	11.57
497.788	11.71
498.139	11.88
498.49	11.89
498.842	11.73
499.193	11.71
499.544	11.72
499.894	11.76
500.245	11.72
500.596	11.74
500.947	11.88
501.298	11.86
501.648	11.85
501.999	11.96
502.35	11.89
502.7	12
503.051	12.01
503.401	12
503.752	12.05
504.102	11.89
504.452	12.13
504.803	12.05
505.153	12.18
505.503	12.08
505.853	12.34
506.203	12.11
506.553	12.22
506.903	12.1
507.253	12.12
507.603	12.12
507.953	12.34
508.303	12.32
508.652	12.26
509.002	12.38
509.352	12.33
509.701	12.35
510.051	12.3
510.4	12.38
510.75	12.28
511.099	12.23
511.449	12.37
511.798	12.38
512.147	12.38
512.496	12.35
512.846	12.25
513.195	12.44
513.544	12.47
513.893	12.62
514.242	12.37
514.591	12.45
514.939	12.52
515.288	12.48
515.637	12.58
515.986	12.71
516.334	12.66
516.683	12.7
517.032	12.76
517.38	12.74
517.729	12.67
518.077	12.73
518.426	12.77
518.774	12.9
519.122	12.71
519.47	12.72
519.819	12.81
520.167	12.87
520.515	12.74
520.863	12.72
521.211	12.78
521.559	12.71
521.907	12.68
522.255	12.77
522.602	12.86
522.95	12.89
523.298	12.94
523.645	13.14
523.993	13.01
524.341	12.97
524.688	13.13
525.036	13.12
525.383	13.21
525.73	13.35
526.078	13.23
526.425	13.22
526.772	13.34
527.119	13.26
527.466	13.13
527.814	13.05
528.161	13.05
528.508	13.13
528.854	13.16
529.201	13.2
529.548	13.25
529.895	13.07
530.242	13.07
530.588	13.02
530.935	12.95
531.282	12.93
531.628	12.92
531.975	12.83
532.321	12.89
532.667	13.13
533.014	13.25
533.36	13.45
533.706	13.41
534.052	13.46
534.399	13.59
534.745	13.49
535.091	13.37
535.437	13.31
535.783	13.38
536.129	13.41
536.474	13.47
536.82	13.41
537.166	13.64
537.512	13.69
537.857	13.69
538.203	13.83
538.549	13.88
538.894	13.87
539.239	13.77
539.585	13.76
539.93	13.86
540.276	13.78
540.621	13.97
540.966	14.02
541.311	14.15
541.656	14.17
542.001	14.19
542.346	14.28
542.691	14.35
543.036	14.17
543.381	14.01
543.726	13.97
544.071	13.9
544.415	13.81
544.76	13.88
545.105	13.89
545.449	14.07
545.794	14.28
546.138	14.29
546.483	14.29
546.827	14.44
547.171	14.53
547.516	14.66
547.86	14.66
548.204	14.62
548.548	14.51
548.892	14.64
549.236	14.61
549.58	14.7
549.924	14.72
550.268	14.84
550.612	14.82
550.956	14.88
551.3	14.89
551.643	15.06
551.987	15.02
552.33	15.17
552.674	15.19
553.017	15.19
553.361	15.16
553.704	15.27
554.048	15.3
554.391	15.32
554.734	15.16
555.077	15.2
555.42	15.34
555.764	15.31
556.107	15.31
556.45	15.61
556.793	15.21
557.135	15.54
557.478	15.43
557.821	15.72
558.164	15.78
558.507	15.71
558.849	15.56
559.192	15.88
559.534	15.82
559.877	15.72
560.219	15.86
560.562	15.85
560.904	15.81
561.246	15.79
561.589	15.83
561.931	15.83
562.273	15.77
562.615	15.86
562.957	15.99
563.299	16.22
563.641	15.99
563.983	16.27
564.325	16.24
564.667	16.38
565.008	16.08
565.35	16.2
565.692	16.32
566.033	16.27
566.375	16.19
566.716	16.27
567.058	16.33
567.399	16.39
567.741	16.55
568.082	16.51
568.423	16.44
568.764	16.61
569.105	16.42
569.447	16.35
569.788	16.3
570.129	16.4
570.47	16.85
570.811	16.5
571.151	16.74
571.492	16.73
571.833	16.48
572.174	16.66
572.514	16.65
572.855	16.91
573.195	16.64
573.536	17.04
573.876	16.86
574.217	16.96
574.557	16.94
574.898	16.92
575.238	16.98
575.578	16.95
575.918	17.14
576.258	17.06
576.598	17.21
576.938	17.19
577.278	17.25
577.618	17.18
577.958	17.29
578.298	17.44
578.638	17.29
578.977	17.43
579.317	17.3
579.657	17.43
579.996	17.63
580.336	17.78
580.675	17.79
581.014	17.39
581.354	17.39
581.693	17.74
582.032	17.73
582.372	17.76
582.711	17.8
583.05	17.87
583.389	17.85
583.728	17.85
584.067	18.27
584.406	18.07
584.745	17.66
585.083	18.36
585.422	18.07
585.761	17.92
586.1	18.23
586.438	18.08
586.777	18.46
587.115	18.27
587.454	18.18
587.792	18.37
588.13	18.33
588.469	18.39
588.807	18.51
589.145	18.4
589.483	18.56
589.821	18.49
590.159	18.49
590.497	18.78
590.835	18.49
591.173	18.63
591.511	18.53
591.849	18.95
592.187	18.93
592.524	18.84
592.862	19.06
593.2	18.97
593.537	18.73
593.875	18.71
594.212	18.9
594.55	19.23
594.887	19.12
595.224	19.08
595.561	19.07
595.899	18.98
596.236	19.37
596.573	19.31
596.91	19.36
597.247	19.34
597.584	19.23
597.921	19.11
598.258	19.39
598.594	19.53
598.931	19.34
599.268	19.24
599.604	19.33
599.941	19.57
600.277	19.53
600.614	19.4
600.95	19.57
601.287	19.51
601.623	19.56
601.959	19.57
602.296	19.85
602.632	19.64
602.968	19.86
603.304	19.72
603.64	19.73
603.976	19.99
604.312	19.99
604.648	20.16
604.984	20.13
605.319	19.95
605.655	19.82
605.991	20.09
606.326	20.15
606.662	19.99
606.998	19.94
607.333	20.12
607.668	20.06
608.004	19.98
608.339	20.1
608.674	20.38
609.01	20.41
609.345	20.48
609.68	20.75
610.015	20.34
610.35	20.6
610.685	20.82
611.02	20.52
611.355	20.74
611.689	20.57
612.024	20.48
612.359	20.71
612.694	20.6
613.028	20.36
613.363	20.54
613.697	20.85
614.032	20.85
614.366	20.8
614.7	20.97
615.035	20.73
615.369	20.82
615.703	20.71
616.037	21.09
616.371	21.34
616.705	21.06
617.039	21.21
617.373	20.95
617.707	21.42
618.041	21.47
618.375	21.33
618.709	21.34
619.042	21.39
619.376	21.59
619.71	21.39
620.043	21.2
620.377	21.46
620.71	21.39
621.043	21.74
621.377	21.38
621.71	21.78
622.043	21.69
622.376	21.83
622.709	21.8
623.043	21.84
623.376	21.85
623.709	21.86
624.041	21.45
624.374	21.81
624.707	21.88
625.04	22.18
625.373	21.67
625.705	22.08
626.038	21.86
626.37	22.36
626.703	22.59
627.035	22.32
627.368	22.12
627.7	22.5
628.032	22.49
628.365	22.26
628.697	22.33
629.029	21.98
629.361	22.47
629.693	22.37
630.025	22.19
630.357	22.55
630.689	22.46
631.021	22.48
631.353	22.6
631.684	22.6
632.016	22.82
632.348	22.68
632.679	22.71
633.011	22.71
633.342	22.89
633.674	22.73
634.005	22.41
634.336	23.19
634.668	22.8
634.999	22.85
635.33	23.54
635.661	22.94
635.992	22.96
636.323	22.93
636.654	22.98
636.985	22.74
637.316	23.04
637.647	23.21
637.977	23.04
638.308	23.5
638.639	22.96
638.969	23.34
639.3	23.32
639.63	23.09
639.961	23.24
640.291	23.42
640.622	23.27
640.952	23.26
641.282	23.73
641.612	23.64
641.943	23.32
642.273	23.8
642.603	23.64
642.933	23.75
643.263	23.33
643.592	23.69
643.922	23.78
644.252	24.09
644.582	23.58
644.911	23.71
645.241	24
645.571	23.71
645.9	24.46
646.23	23.92
646.559	23.78
646.888	24.31
647.218	24.28
647.547	24.09
647.876	23.89
648.205	23.71
648.534	24.58
648.863	24.2
649.192	23.9
649.521	24.26
649.85	24.21
650.179	23.92
650.508	24.77
650.837	24.35
651.165	24.53
651.494	24.27
651.822	24.26
652.151	24.26
652.479	24.85
652.808	24.36
653.136	24.77
653.465	24.55
653.793	24.34
654.121	24.82
654.449	24.48
654.777	24.72
655.105	24.59
655.433	24.9
655.761	24.63
656.089	25.12
656.417	24.98
656.745	24.47
657.073	24.51
657.4	26.12
657.728	25.28
658.056	25.07
658.383	25.11
658.711	25.12
659.038	25.05
659.365	25.14
659.693	24.71
660.02	25.47
660.347	25.55
660.674	25.3
661.001	25.21
661.329	25.14
661.656	25.63
661.982	25.37
662.309	25.69
662.636	25.27
662.963	25.72
663.29	25.56
663.616	25.56
663.943	25.22
664.27	25.59
664.596	25.56
664.923	25.71
665.249	25.92
665.576	25.87
665.902	25.58
666.228	25.9
666.554	25.87
666.881	26.49
667.207	26.01
667.533	25.62
667.859	25.77
668.185	25.74
668.511	26.8
668.837	25.53
669.162	25.79
669.488	26.35
669.814	26.37
670.139	25.57
670.465	25.99
670.791	26.14
671.116	25.66
671.442	26.47
671.767	25.95
672.092	26.45
672.418	26.63
672.743	26.12
673.068	26.98
673.393	26.69
673.718	26.43
674.043	26.78
674.368	26.47
674.693	26.02
675.018	26.34
675.343	26.85
675.667	26.28
675.992	26.14
676.317	27.27
676.641	26.51
676.966	26.25
