Data from 0142_chest_Reflection__2__21.txt Node

Date: Fri Sep 22 20:32:15 CDT 2023
User: ToomeyLab
Spectrometer: FLMS14357
Trigger mode: 0
Integration Time (sec): 1.000000E-2
Scans to average: 100
Electric dark correction enabled: true
Nonlinearity correction enabled: false
Boxcar width: 0
XAxis mode: Wavelengths
Number of Pixels in Spectrum: 2048
>>>>>Begin Spectral Data<<<<<
189.047	88.93
189.435	88.93
189.823	88.93
190.211	450.24
190.599	-367.62
190.987	851.48
191.375	-4.32
191.763	-724.55
192.151	-7.78
192.538	106.87
192.926	80.19
193.314	-10712
193.702	346.14
194.089	58.82
194.477	-17971.43
194.864	214.61
195.252	-243.01
195.639	6.3
196.027	150.86
196.414	30.48
196.801	101.17
197.189	209.41
197.576	394.51
197.963	646.18
198.351	2.53
198.738	12.58
199.125	61.91
199.512	2.86
199.899	67.12
200.286	35.56
200.673	39.77
201.06	27.11
201.447	38.51
201.833	-28.32
202.22	55
202.607	33.41
202.994	65.17
203.38	13.75
203.767	1.11
204.154	70.28
204.54	9.27
204.927	6.82
205.313	2.27
205.699	12.28
206.086	29.4
206.472	38.92
206.858	42.13
207.245	-6.14
207.631	21.43
208.017	51.22
208.403	12.14
208.789	9.39
209.175	33.89
209.561	25.65
209.947	20.84
210.333	25.22
210.719	39.83
211.105	32.28
211.491	-1.05
211.876	41.62
212.262	13.8
212.648	35.02
213.034	36.77
213.419	30.99
213.805	15.71
214.19	16.87
214.576	10.71
214.961	12.52
215.346	29.51
215.732	30.24
216.117	21.55
216.502	42.11
216.888	33.32
217.273	7.77
217.658	0.57
218.043	28.15
218.428	28.61
218.813	9.64
219.198	28.5
219.583	-2.4
219.968	-4.38
220.353	16.95
220.738	31.25
221.122	20.56
221.507	18.07
221.892	0.88
222.276	5.88
222.661	-19.31
223.046	18.34
223.43	16.24
223.815	8.3
224.199	8.07
224.583	6
224.968	14.49
225.352	4.57
225.736	8.92
226.121	4.98
226.505	6.67
226.889	7.23
227.273	6.74
227.657	4.25
228.041	5.2
228.425	5.31
228.809	2.48
229.193	4.65
229.577	4.94
229.961	4.07
230.344	4.33
230.728	2.64
231.112	3.6
231.495	2.84
231.879	3.57
232.263	3.49
232.646	4.14
233.03	3.77
233.413	3.3
233.797	4.31
234.18	3.03
234.563	5.82
234.946	7.21
235.33	1.22
235.713	3.56
236.096	2.96
236.479	3.58
236.862	6.21
237.245	4.82
237.628	4.77
238.011	5.46
238.394	3.98
238.777	3.97
239.16	4.36
239.543	4.99
239.925	4.68
240.308	5.13
240.691	4.49
241.073	4.31
241.456	3.54
241.838	2.17
242.221	3.62
242.603	5.28
242.986	3.74
243.368	2.94
243.75	3.6
244.133	3.64
244.515	3.39
244.897	3.11
245.279	3.35
245.661	3.03
246.043	3.45
246.425	2.59
246.807	3.65
247.189	2.88
247.571	4.08
247.953	4.51
248.335	3.43
248.717	3.24
249.098	3.05
249.48	3.01
249.862	2.84
250.243	2.99
250.625	3.6
251.006	2.84
251.388	3.04
251.769	3.3
252.151	3.49
252.532	3.7
252.913	3.42
253.295	3.91
253.676	3.6
254.057	3.5
254.438	3.49
254.819	2.78
255.2	3.05
255.581	3.86
255.962	3.73
256.343	2.78
256.724	3.52
257.105	3.65
257.486	3.74
257.867	3.87
258.247	2.86
258.628	3.69
259.009	2.91
259.389	2.91
259.77	3.6
260.15	3.41
260.531	2.43
260.911	3.2
261.292	2.71
261.672	2.85
262.052	3.08
262.432	2.89
262.813	2.98
263.193	2.97
263.573	3.32
263.953	2.39
264.333	3.07
264.713	2.91
265.093	2.94
265.473	2.96
265.853	2.84
266.233	3.07
266.612	3.42
266.992	4.18
267.372	3.72
267.752	3.04
268.131	3.01
268.511	2.37
268.89	3.4
269.27	2.7
269.649	2.9
270.029	3.36
270.408	3.21
270.787	2.89
271.167	2.64
271.546	2.28
271.925	2.97
272.304	2.87
272.683	2.35
273.062	3.32
273.441	3.15
273.82	3.06
274.199	3.24
274.578	3.08
274.957	3.11
275.336	2.91
275.715	2.86
276.093	2.62
276.472	2.67
276.851	2.82
277.229	2.3
277.608	3.09
277.986	2.72
278.365	3.14
278.743	2.8
279.122	3.02
279.5	3.77
279.878	2.82
280.257	3.71
280.635	2.47
281.013	3.68
281.391	3.12
281.769	2.94
282.147	2.87
282.525	2.67
282.903	2.93
283.281	3.08
283.659	2.97
284.037	2.88
284.415	3.09
284.792	3.17
285.17	3.38
285.548	3.57
285.925	2.79
286.303	3
286.68	2.71
287.058	2.65
287.435	2.7
287.813	2.74
288.19	2.62
288.567	2.95
288.945	2.59
289.322	3.01
289.699	2.74
290.076	3.41
290.453	2.71
290.83	3.05
291.207	2.89
291.584	2.58
291.961	2.53
292.338	3.2
292.715	3.35
293.092	2.77
293.469	2.71
293.845	3.06
294.222	2.92
294.599	3.07
294.975	4.03
295.352	3.22
295.728	3.18
296.105	3.37
296.481	3.06
296.858	3.18
297.234	2.67
297.61	2.91
297.986	3.21
298.363	3.07
298.739	3.15
299.115	3.27
299.491	3.39
299.867	3.32
300.243	3.03
300.619	3.09
300.995	3.16
301.371	3.67
301.746	3.67
302.122	3.15
302.498	3.09
302.874	3.58
303.249	3.21
303.625	2.93
304	3.72
304.376	3.31
304.751	3.05
305.127	3.43
305.502	3.72
305.878	3.51
306.253	3.38
306.628	3.2
307.003	3.95
307.378	3.45
307.754	3.18
308.129	3.36
308.504	3.64
308.879	3.33
309.254	3.87
309.629	3.54
310.003	3.76
310.378	3.72
310.753	3.58
311.128	3.6
311.502	3.7
311.877	3.52
312.252	3.61
312.626	3.25
313.001	3.77
313.375	3.71
313.75	3.53
314.124	3.87
314.498	3.53
314.873	3.35
315.247	3.96
315.621	3.41
315.995	3.54
316.369	3.9
316.743	3.53
317.117	3.95
317.491	3.89
317.865	3.25
318.239	3.65
318.613	4.03
318.987	3.4
319.361	3.61
319.734	3.41
320.108	4.11
320.482	2.84
320.855	3.92
321.229	4.53
321.602	4.17
321.976	3.68
322.349	3.91
322.723	4.34
323.096	3.45
323.469	3.37
323.843	3.56
324.216	4.05
324.589	3.96
324.962	4.22
325.335	3.84
325.708	3.54
326.081	3.68
326.454	3.5
326.827	3.8
327.2	3.85
327.573	4.02
327.945	4.1
328.318	3.75
328.691	4.01
329.063	3.56
329.436	3.6
329.809	3.99
330.181	3.83
330.553	4.31
330.926	3.78
331.298	4.36
331.671	4.43
332.043	3.49
332.415	3.68
332.787	3.92
333.159	4.12
333.532	3.44
333.904	3.83
334.276	3.67
334.648	3.02
335.02	3.9
335.391	3.81
335.763	4.27
336.135	3.78
336.507	3.52
336.879	3.44
337.25	3.92
337.622	3.51
337.993	4.12
338.365	4.31
338.736	4.2
339.108	3.94
339.479	3.86
339.851	3.96
340.222	3.71
340.593	3.39
340.964	3.95
341.336	4.05
341.707	3.72
342.078	4.24
342.449	4.01
342.82	3.53
343.191	3.63
343.562	3.77
343.933	4.02
344.303	3.49
344.674	3.83
345.045	4.36
345.416	4.11
345.786	3.61
346.157	4.11
346.527	3.78
346.898	3.44
347.268	4.06
347.639	4.16
348.009	3.74
348.38	3.92
348.75	4.12
349.12	3.86
349.49	4.49
349.861	3.77
350.231	3.95
350.601	4.2
350.971	4.11
351.341	4.02
351.711	3.9
352.081	3.6
352.45	3.56
352.82	3.87
353.19	4.02
353.56	3.59
353.929	4.04
354.299	3.99
354.669	3.96
355.038	3.75
355.408	4.29
355.777	4.13
356.147	3.82
356.516	4.28
356.885	3.87
357.254	4.09
357.624	3.69
357.993	3.72
358.362	3.88
358.731	3.47
359.1	3.7
359.469	4.17
359.838	3.9
360.207	3.85
360.576	3.99
360.945	3.86
361.314	3.95
361.682	4.22
362.051	4.09
362.42	4.07
362.788	3.88
363.157	3.98
363.525	3.97
363.894	4.06
364.262	3.84
364.631	4.09
364.999	3.65
365.367	3.88
365.735	4
366.104	3.78
366.472	3.88
366.84	3.86
367.208	4.42
367.576	4.27
367.944	3.71
368.312	4.06
368.68	4.22
369.048	4.46
369.416	4.18
369.783	3.82
370.151	4.11
370.519	4.15
370.886	4.13
371.254	4.25
371.621	4.1
371.989	4.05
372.356	3.9
372.724	4.25
373.091	4.29
373.458	4.26
373.826	4.29
374.193	4.38
374.56	4.18
374.927	4.01
375.294	3.76
375.661	4.12
376.028	4.24
376.395	4.41
376.762	3.94
377.129	4.34
377.496	4.51
377.863	4.34
378.229	4.15
378.596	4.26
378.963	4.51
379.329	4.04
379.696	4.37
380.062	3.66
380.429	4.14
380.795	4.16
381.161	4.07
381.528	4.09
381.894	3.8
382.26	4.06
382.626	4.1
382.993	4.44
383.359	3.85
383.725	3.87
384.091	4.22
384.457	4.05
384.823	4.03
385.188	4.08
385.554	4.1
385.92	4.3
386.286	4.07
386.651	4.12
387.017	4.39
387.383	4.08
387.748	4.05
388.114	3.93
388.479	3.94
388.845	4.12
389.21	4
389.575	4.73
389.94	3.9
390.306	4.17
390.671	4.66
391.036	4.04
391.401	4.21
391.766	4.04
392.131	4.1
392.496	4.38
392.861	4.16
393.226	4.24
393.591	4.4
393.956	4.25
394.32	4.46
394.685	4.11
395.05	4.39
395.414	4.5
395.779	4.25
396.143	4.09
396.508	4.32
396.872	4.13
397.236	4.36
397.601	4.04
397.965	4.61
398.329	4.19
398.694	4.44
399.058	4.37
399.422	4.44
399.786	4.44
400.15	4.53
400.514	4.31
400.878	4.34
401.242	4.44
401.605	4.15
401.969	4.03
402.333	4.51
402.697	4.27
403.06	4.29
403.424	4.42
403.787	4.53
404.151	4.44
404.514	4.55
404.878	4.51
405.241	4.51
405.604	4.48
405.968	4.31
406.331	4.41
406.694	4.31
407.057	4.27
407.42	4.39
407.783	4.53
408.146	4.21
408.509	4.35
408.872	4.4
409.235	4.44
409.598	4.23
409.961	4.7
410.323	4.41
410.686	4.55
411.049	4.55
411.411	4.63
411.774	4.49
412.136	4.22
412.499	4.3
412.861	4.38
413.223	4.61
413.586	4.38
413.948	4.61
414.31	4.27
414.672	4.59
415.035	4.34
415.397	4.49
415.759	4.91
416.121	4.57
416.483	4.55
416.845	4.25
417.206	4.46
417.568	4.47
417.93	4.52
418.292	4.61
418.653	4.37
419.015	4.49
419.377	4.37
419.738	4.38
420.1	4.39
420.461	4.48
420.822	4.36
421.184	4.44
421.545	4.37
421.906	4.32
422.267	4.31
422.629	4.47
422.99	4.33
423.351	4.27
423.712	4.23
424.073	4.34
424.434	4.39
424.795	4.37
425.155	4.52
425.516	4.45
425.877	4.49
426.238	4.32
426.598	4.4
426.959	4.42
427.32	4.43
427.68	4.36
428.041	4.31
428.401	4.52
428.761	4.56
429.122	4.4
429.482	4.51
429.842	4.42
430.202	4.41
430.563	4.73
430.923	4.67
431.283	4.75
431.643	4.6
432.003	4.57
432.363	4.8
432.722	4.74
433.082	4.69
433.442	4.52
433.802	4.71
434.161	4.53
434.521	4.63
434.881	4.59
435.24	4.6
435.6	4.66
435.959	4.44
436.319	4.57
436.678	4.65
437.037	4.63
437.396	4.53
437.756	4.68
438.115	4.78
438.474	4.67
438.833	4.73
439.192	4.58
439.551	4.7
439.91	4.7
440.269	4.78
440.628	4.55
440.987	4.56
441.345	4.69
441.704	4.63
442.063	4.63
442.421	4.66
442.78	4.73
443.138	4.53
443.497	4.67
443.855	4.67
444.214	4.56
444.572	4.71
444.93	4.74
445.288	4.79
445.647	4.79
446.005	4.66
446.363	4.81
446.721	4.78
447.079	4.56
447.437	4.72
447.795	4.78
448.153	4.55
448.51	4.65
448.868	4.67
449.226	4.64
449.584	4.68
449.941	4.63
450.299	4.77
450.656	4.77
451.014	4.81
451.371	4.87
451.729	4.73
452.086	4.85
452.443	4.91
452.801	4.8
453.158	4.88
453.515	4.88
453.872	4.75
454.229	4.86
454.586	4.87
454.943	4.91
455.3	4.91
455.657	4.76
456.014	4.78
456.371	4.92
456.727	4.95
457.084	5.01
457.441	4.86
457.797	4.93
458.154	4.99
458.51	4.8
458.867	4.91
459.223	5.02
459.58	5.02
459.936	4.98
460.292	5.2
460.648	5.14
461.005	4.9
461.361	4.99
461.717	4.65
462.073	4.76
462.429	4.76
462.785	4.91
463.141	4.91
463.496	5.04
463.852	4.97
464.208	5
464.564	5.07
464.919	4.92
465.275	5.23
465.631	5.07
465.986	5.18
466.342	5.15
466.697	5.25
467.052	4.89
467.408	5.22
467.763	5.2
468.118	5.25
468.473	5.13
468.829	5.08
469.184	5.08
469.539	4.98
469.894	5.12
470.249	5.08
470.603	5.17
470.958	5.09
471.313	5.14
471.668	5.25
472.023	5.18
472.377	5.21
472.732	5.08
473.086	5.46
473.441	5.15
473.795	5.29
474.15	5.13
474.504	5.23
474.859	5.49
475.213	4.96
475.567	5.14
475.921	5.27
476.275	5.09
476.63	5.3
476.984	5.24
477.338	5.42
477.692	5.41
478.045	5.24
478.399	5.45
478.753	5.31
479.107	5.24
479.461	5.28
479.814	5.43
480.168	5.26
480.521	5.24
480.875	5.33
481.228	5.31
481.582	5.18
481.935	5.35
482.289	5.47
482.642	5.11
482.995	5.34
483.348	5.25
483.701	5.32
484.055	5.31
484.408	5.27
484.761	5.31
485.114	5.11
485.466	5.05
485.819	5
486.172	4.94
486.525	4.96
486.878	4.99
487.23	5.08
487.583	5.15
487.936	5.19
488.288	5.23
488.641	5.25
488.993	5.15
489.345	5.12
489.698	5.13
490.05	5.08
490.402	5.15
490.754	5.15
491.107	5.17
491.459	5.28
491.811	5.29
492.163	5.23
492.515	5.3
492.866	5.3
493.218	5.3
493.57	5.32
493.922	5.24
494.274	5.24
494.625	5.31
494.977	5.37
495.328	5.42
495.68	5.44
496.031	5.45
496.383	5.56
496.734	5.61
497.086	5.52
497.437	5.61
497.788	5.63
498.139	5.65
498.49	5.78
498.842	5.45
499.193	5.57
499.544	5.55
499.894	5.58
500.245	5.67
500.596	5.68
500.947	5.75
501.298	5.68
501.648	5.75
501.999	5.77
502.35	5.81
502.7	5.8
503.051	5.84
503.401	5.72
503.752	5.76
504.102	5.87
504.452	5.8
504.803	5.83
505.153	5.77
505.503	5.74
505.853	6
506.203	5.72
506.553	5.92
506.903	5.76
507.253	5.89
507.603	5.92
507.953	5.95
508.303	6
508.652	5.95
509.002	5.97
509.352	5.91
509.701	6.01
510.051	5.98
510.4	5.94
510.75	5.94
511.099	5.89
511.449	5.87
511.798	5.99
512.147	5.86
512.496	5.86
512.846	5.9
513.195	6.06
513.544	6.04
513.893	6.05
514.242	6.1
514.591	5.97
514.939	6.08
515.288	5.96
515.637	6.1
515.986	6.05
516.334	6.14
516.683	6.26
517.032	6.21
517.38	6.22
517.729	6.09
518.077	6.34
518.426	6.27
518.774	6.36
519.122	6.22
519.47	6.1
519.819	6.21
520.167	6.23
520.515	6.09
520.863	6.15
521.211	6.21
521.559	6.26
521.907	6.23
522.255	6.32
522.602	6.42
522.95	6.28
523.298	6.48
523.645	6.45
523.993	6.39
524.341	6.47
524.688	6.42
525.036	6.4
525.383	6.45
525.73	6.66
526.078	6.57
526.425	6.56
526.772	6.52
527.119	6.47
527.466	6.37
527.814	6.47
528.161	6.32
528.508	6.39
528.854	6.44
529.201	6.49
529.548	6.52
529.895	6.49
530.242	6.4
530.588	6.3
530.935	6.21
531.282	6.28
531.628	6.4
531.975	6.35
532.321	6.47
532.667	6.49
533.014	6.61
533.36	6.61
533.706	6.68
534.052	6.72
534.399	6.76
534.745	6.76
535.091	6.58
535.437	6.56
535.783	6.56
536.129	6.66
536.474	6.68
536.82	6.71
537.166	6.88
537.512	7
537.857	6.87
538.203	7.02
538.549	6.81
538.894	6.82
539.239	6.93
539.585	6.85
539.93	7.03
540.276	6.95
540.621	7.14
540.966	7.13
541.311	7.21
541.656	7.16
542.001	7.22
542.346	7.26
542.691	7.2
543.036	7.1
543.381	6.97
543.726	6.95
544.071	6.98
544.415	6.99
544.76	7.01
545.105	7.01
545.449	7.1
545.794	7.29
546.138	7.22
546.483	7.27
546.827	7.27
547.171	7.43
547.516	7.48
547.86	7.48
548.204	7.45
548.548	7.47
548.892	7.59
549.236	7.42
549.58	7.53
549.924	7.56
550.268	7.63
550.612	7.54
550.956	7.63
551.3	7.72
551.643	7.86
551.987	7.9
552.33	8
552.674	7.9
553.017	7.8
553.361	7.98
553.704	8
554.048	8
554.391	7.99
554.734	8.02
555.077	7.9
555.42	8.03
555.764	8.09
556.107	8.05
556.45	8.27
556.793	7.95
557.135	8.18
557.478	8.18
557.821	8.32
558.164	8.35
558.507	8.43
558.849	8.03
559.192	8.39
559.534	8.56
559.877	8.32
560.219	8.43
560.562	8.38
560.904	8.32
561.246	8.57
561.589	8.56
561.931	8.68
562.273	8.4
562.615	8.43
562.957	8.44
563.299	8.61
563.641	8.52
563.983	8.78
564.325	8.67
564.667	8.79
565.008	8.81
565.35	8.76
565.692	8.73
566.033	8.78
566.375	8.87
566.716	8.96
567.058	8.7
567.399	9.03
567.741	9.03
568.082	8.79
568.423	9.08
568.764	9.18
569.105	8.84
569.447	8.86
569.788	8.92
570.129	9.26
570.47	9.23
570.811	9.05
571.151	9.21
571.492	9.16
571.833	9.04
572.174	9.2
572.514	9.2
572.855	9.19
573.195	9.26
573.536	9.22
573.876	9.15
574.217	9.36
574.557	9.28
574.898	9.43
575.238	9.29
575.578	9.46
575.918	9.55
576.258	9.38
576.598	9.57
576.938	9.67
577.278	9.8
577.618	9.44
577.958	9.68
578.298	9.82
578.638	9.69
578.977	9.74
579.317	9.81
579.657	9.97
579.996	9.86
580.336	10.03
580.675	9.94
581.014	9.93
581.354	9.98
581.693	10.09
582.032	10.13
582.372	10.23
582.711	10.1
583.05	10.22
583.389	10.37
583.728	10.33
584.067	10.19
584.406	10.56
584.745	10.32
585.083	10.86
585.422	10.46
585.761	10.72
586.1	10.61
586.438	10.5
586.777	10.68
587.115	10.63
587.454	10.33
587.792	10.7
588.13	10.71
588.469	10.66
588.807	10.89
589.145	10.92
589.483	10.97
589.821	10.76
590.159	11.1
590.497	11.01
590.835	10.68
591.173	10.88
591.511	11.12
591.849	11.18
592.187	10.91
592.524	11.11
592.862	11.13
593.2	11.07
593.537	10.97
593.875	11.33
594.212	11.24
594.55	11.66
594.887	11.34
595.224	11.42
595.561	11.55
595.899	11.61
596.236	11.86
596.573	11.58
596.91	11.66
597.247	11.36
597.584	11.62
597.921	11.82
598.258	11.71
598.594	11.46
598.931	11.52
599.268	11.53
599.604	11.7
599.941	11.62
600.277	11.68
600.614	11.77
600.95	11.77
601.287	11.79
601.623	11.77
601.959	12.12
602.296	12.05
602.632	11.94
602.968	12.23
603.304	12.3
603.64	12.15
603.976	12.43
604.312	12.2
604.648	12.2
604.984	12.37
605.319	12.19
605.655	12.09
605.991	12.31
606.326	12.26
606.662	12.14
606.998	12.22
607.333	12.58
607.668	12.29
608.004	12.39
608.339	12.31
608.674	12.62
609.01	12.67
609.345	12.42
609.68	12.95
610.015	12.92
610.35	12.89
610.685	13.08
611.02	12.92
611.355	13.01
611.689	12.81
612.024	12.97
612.359	12.85
612.694	12.97
613.028	12.98
613.363	12.78
613.697	13.15
614.032	13.05
614.366	13.16
614.7	13.03
615.035	13.24
615.369	13.32
615.703	13.56
616.037	13.55
616.371	13.92
616.705	13.84
617.039	13.41
617.373	13.52
617.707	13.49
618.041	13.71
618.375	13.73
618.709	13.52
619.042	13.88
619.376	13.87
619.71	13.69
620.043	13.73
620.377	13.57
620.71	13.8
621.043	14.15
621.377	13.94
621.71	13.75
622.043	13.9
622.376	14.29
622.709	14.18
623.043	13.92
623.376	14.02
623.709	14.41
624.041	14.34
624.374	14.45
624.707	14.75
625.04	14.51
625.373	14.32
625.705	14.5
626.038	14.39
626.37	14.44
626.703	14.59
627.035	14.78
627.368	14.59
627.7	14.65
628.032	14.64
628.365	14.81
628.697	14.58
629.029	14.51
629.361	14.94
629.693	14.85
630.025	14.74
630.357	14.62
630.689	14.99
631.021	14.9
631.353	15.09
631.684	14.74
632.016	15.35
632.348	15.18
632.679	15.04
633.011	15.21
633.342	15.37
633.674	15.5
634.005	15.32
634.336	15.38
634.668	15.32
634.999	15.33
635.33	15.54
635.661	15.58
635.992	15.5
636.323	15.42
636.654	15.73
636.985	15.39
637.316	15.44
637.647	15.37
637.977	15.18
638.308	15.79
638.639	15.73
638.969	16.19
639.3	15.76
639.63	16.41
639.961	15.79
640.291	15.88
640.622	16.25
640.952	16.08
641.282	16.28
641.612	15.99
641.943	16.13
642.273	16.48
642.603	15.98
642.933	16.14
643.263	16.04
643.592	16.22
643.922	16.81
644.252	16.63
644.582	16.57
644.911	16.45
645.241	16.63
645.571	16.48
645.9	16.78
646.23	16.69
646.559	16.81
646.888	16.92
647.218	16.73
647.547	16.71
647.876	16.59
648.205	16.51
648.534	17.41
648.863	16.84
649.192	16.79
649.521	17.11
649.85	16.94
650.179	17.05
650.508	17.06
650.837	17.35
651.165	17.02
651.494	17.01
651.822	16.83
652.151	16.99
652.479	17.38
652.808	17.22
653.136	17.45
653.465	17.37
653.793	17.38
654.121	17.9
654.449	16.97
654.777	17.58
655.105	17.92
655.433	17.88
655.761	17.83
656.089	17.66
656.417	17.49
656.745	17.39
657.073	17.39
657.4	18.66
657.728	18.17
658.056	17.78
658.383	18.28
658.711	17.98
659.038	17.81
659.365	18.21
659.693	18.02
660.02	18.43
660.347	18.34
660.674	18.24
661.001	17.66
661.329	18.11
661.656	18.52
661.982	18.07
662.309	18.18
662.636	18.19
662.963	18.4
663.29	18.68
663.616	18.7
663.943	18.92
664.27	18.37
664.596	18.41
664.923	18.59
665.249	18.38
665.576	17.94
665.902	18.57
666.228	18.55
666.554	18.6
666.881	18.87
667.207	19.01
667.533	18.62
667.859	19.36
668.185	19.21
668.511	19.29
668.837	18.2
669.162	19.14
669.488	19.52
669.814	18.91
670.139	19.04
670.465	19.34
670.791	19.51
671.116	19.18
671.442	20.04
671.767	19.17
672.092	19.61
672.418	20.29
672.743	19.6
673.068	19.96
673.393	19.19
673.718	19.93
674.043	19.93
674.368	20.22
674.693	19.85
675.018	19.24
675.343	19.99
675.667	19.98
675.992	19.46
676.317	19.86
676.641	19.61
676.966	20.18
677.29	19.97
677.615	20.03
677.939	20.25
678.264	20.2
678.588	20.57
678.912	20.39
679.236	19.8
679.56	20.77
679.885	20.46
680.209	20.7
680.532	20.47
680.856	20.15
681.18	20.16
681.504	21.15
681.828	20.52
682.152	20.8
682.475	20.48
682.799	20.79
683.122	20.56
683.446	20.44
683.769	20.59
684.093	20.97
684.416	20.74
684.739	21.37
685.062	21.75
685.386	20.9
685.709	20.58
