Data from 0142_crown_Reflection__4__30.txt Node

Date: Fri Sep 22 20:34:48 CDT 2023
User: ToomeyLab
Spectrometer: FLMS14357
Trigger mode: 0
Integration Time (sec): 1.000000E-2
Scans to average: 100
Electric dark correction enabled: true
Nonlinearity correction enabled: false
Boxcar width: 0
XAxis mode: Wavelengths
Number of Pixels in Spectrum: 2048
>>>>>Begin Spectral Data<<<<<
189.047	166.51
189.435	166.51
189.823	166.51
190.211	33.71
190.599	-5.92
190.987	202.53
191.375	4.12
191.763	229.94
192.151	53.11
192.538	-7.33
192.926	8.53
193.314	-13184
193.702	188.3
194.089	44.68
194.477	15085.71
194.864	382.95
195.252	-198.98
195.639	-227.54
196.027	-12.7
196.414	-32.64
196.801	59.67
197.189	187.54
197.576	340.47
197.963	585.37
198.351	46.64
198.738	12.99
199.125	90.22
199.512	3.55
199.899	18.49
200.286	10.74
200.673	28.56
201.06	33.03
201.447	38.78
201.833	-6.79
202.22	30.81
202.607	65.33
202.994	74.94
203.38	30.55
203.767	-4.82
204.154	64.27
204.54	20.98
204.927	4.37
205.313	6.6
205.699	43.97
206.086	15.72
206.472	40.44
206.858	19.17
207.245	-2.61
207.631	36.24
208.017	5.12
208.403	12.61
208.789	49.14
209.175	43.35
209.561	24.74
209.947	40.69
210.333	19.36
210.719	7.06
211.105	32.69
211.491	41.5
211.876	46.2
212.262	14.18
212.648	39.31
213.034	42.47
213.419	6.54
213.805	10.54
214.19	15.36
214.576	35.86
214.961	21.21
215.346	29.3
215.732	28.92
216.117	-8.19
216.502	35.15
216.888	21.07
217.273	41.84
217.658	8.05
218.043	25.2
218.428	29.17
218.813	1.23
219.198	-2.75
219.583	12.89
219.968	-4.66
220.353	22.95
220.738	24.66
221.122	6.01
221.507	13.7
221.892	7.98
222.276	3.89
222.661	-2.19
223.046	15.93
223.43	15.79
223.815	1.44
224.199	3.83
224.583	17.46
224.968	13.06
225.352	8.01
225.736	11.96
226.121	17.23
226.505	10.99
226.889	14.03
227.273	9.14
227.657	7.98
228.041	7.89
228.425	11.66
228.809	8.71
229.193	9.58
229.577	12.03
229.961	9.62
230.344	8.19
230.728	6.31
231.112	7.89
231.495	6.64
231.879	7.33
232.263	6.83
232.646	7.05
233.03	6.34
233.413	7.71
233.797	7.7
234.18	7.38
234.563	9.22
234.946	10.15
235.33	3.93
235.713	5.79
236.096	7.1
236.479	6.93
236.862	7.72
237.245	8.53
237.628	8.27
238.011	8.24
238.394	8.49
238.777	9.62
239.16	7.89
239.543	7.86
239.925	7.07
240.308	8.05
240.691	6.57
241.073	7.98
241.456	6.84
241.838	5.93
242.221	6.53
242.603	7.17
242.986	6.8
243.368	6.66
243.75	7.32
244.133	7.22
244.515	6.62
244.897	6.2
245.279	6.28
245.661	6.6
246.043	6.31
246.425	7.37
246.807	6.97
247.189	5.28
247.571	7.02
247.953	7.2
248.335	6.7
248.717	6.43
249.098	6.19
249.48	5.89
249.862	5.91
250.243	6.29
250.625	6.19
251.006	5.59
251.388	6.3
251.769	6.8
252.151	5.73
252.532	6.86
252.913	7.08
253.295	6.51
253.676	6.8
254.057	5.86
254.438	6.48
254.819	5.79
255.2	6.84
255.581	6.03
255.962	6.18
256.343	6.3
256.724	5.5
257.105	7.05
257.486	6.69
257.867	5.05
258.247	5.96
258.628	5.66
259.009	5.08
259.389	6.29
259.77	6.3
260.15	6.46
260.531	6.19
260.911	6.08
261.292	5.74
261.672	5.35
262.052	5.67
262.432	5.62
262.813	5.84
263.193	5.43
263.573	6.55
263.953	5.95
264.333	6.18
264.713	5.95
265.093	6.08
265.473	5.7
265.853	6.32
266.233	5.7
266.612	6.65
266.992	6.43
267.372	6.3
267.752	5.98
268.131	5.99
268.511	5.47
268.89	5.92
269.27	5.58
269.649	5.96
270.029	6
270.408	5.49
270.787	5.45
271.167	5.59
271.546	5.31
271.925	5.42
272.304	4.95
272.683	6.37
273.062	6.36
273.441	5.8
273.82	5.87
274.199	5.51
274.578	5.77
274.957	5.67
275.336	5.28
275.715	5.52
276.093	5.22
276.472	5.41
276.851	5.84
277.229	4.46
277.608	5.97
277.986	5.1
278.365	5.66
278.743	5.48
279.122	5.2
279.5	6.12
279.878	5.72
280.257	6.35
280.635	5.63
281.013	5.95
281.391	5.7
281.769	4.8
282.147	5.52
282.525	5.72
282.903	5.75
283.281	5.47
283.659	5.6
284.037	5.57
284.415	5.61
284.792	5.23
285.17	5.45
285.548	5.96
285.925	5.49
286.303	5.42
286.68	4.76
287.058	5.46
287.435	5.05
287.813	5.57
288.19	4.91
288.567	5.19
288.945	5.27
289.322	5.35
289.699	5.16
290.076	5.47
290.453	5.04
290.83	4.63
291.207	5.26
291.584	5.01
291.961	4.94
292.338	5.21
292.715	5.39
293.092	5.02
293.469	5.45
293.845	5.07
294.222	5.59
294.599	4.9
294.975	5.46
295.352	5.48
295.728	5.44
296.105	5.32
296.481	5.32
296.858	4.99
297.234	5.3
297.61	5.56
297.986	5.44
298.363	4.57
298.739	5.14
299.115	5.05
299.491	5.04
299.867	5.08
300.243	4.74
300.619	5.45
300.995	5.17
301.371	5.47
301.746	5.33
302.122	5.04
302.498	5.01
302.874	4.99
303.249	5.37
303.625	4.9
304	5.39
304.376	5.48
304.751	5.23
305.127	5.19
305.502	5.47
305.878	5.19
306.253	4.95
306.628	5.34
307.003	5.12
307.378	4.98
307.754	5.04
308.129	4.77
308.504	5.14
308.879	5.26
309.254	5.13
309.629	5.2
310.003	5.36
310.378	5.24
310.753	5.09
311.128	4.88
311.502	4.71
311.877	4.79
312.252	4.63
312.626	4.93
313.001	5.31
313.375	5.07
313.75	5.08
314.124	5.26
314.498	4.38
314.873	4.89
315.247	4.8
315.621	4.77
315.995	4.8
316.369	4.6
316.743	4.49
317.117	4.88
317.491	4.9
317.865	4.55
318.239	4.8
318.613	5.24
318.987	4.79
319.361	4.51
319.734	4.71
320.108	5.41
320.482	4.92
320.855	4.84
321.229	5.38
321.602	5.14
321.976	5.18
322.349	4.45
322.723	4.77
323.096	4.95
323.469	5.15
323.843	4.53
324.216	5.27
324.589	4.73
324.962	4.48
325.335	4.73
325.708	4.63
326.081	4.59
326.454	4.57
326.827	4.69
327.2	4.76
327.573	5.14
327.945	4.88
328.318	5.39
328.691	4.76
329.063	4.55
329.436	5.22
329.809	4.9
330.181	4.75
330.553	4.76
330.926	4.85
331.298	5.15
331.671	5.15
332.043	4.44
332.415	4.72
332.787	4.98
333.159	4.58
333.532	4.33
333.904	4.56
334.276	5.15
334.648	4.59
335.02	4.73
335.391	4.93
335.763	5.04
336.135	4.88
336.507	4.96
336.879	4.78
337.25	4.88
337.622	4.83
337.993	4.84
338.365	5.03
338.736	4.63
339.108	4.89
339.479	4.87
339.851	4.45
340.222	4.24
340.593	4.73
340.964	4.64
341.336	4.58
341.707	4.74
342.078	4.42
342.449	4.88
342.82	4.61
343.191	4.26
343.562	4.49
343.933	4.64
344.303	4.95
344.674	4.94
345.045	4.92
345.416	4.68
345.786	4.82
346.157	4.99
346.527	4.72
346.898	4.62
347.268	4.38
347.639	4.67
348.009	4.79
348.38	4.84
348.75	4.82
349.12	4.65
349.49	5.02
349.861	4.86
350.231	4.98
350.601	4.95
350.971	5.09
351.341	4.68
351.711	4.45
352.081	4.42
352.45	4.49
352.82	4.98
353.19	4.98
353.56	4.59
353.929	4.89
354.299	4.47
354.669	4.47
355.038	4.89
355.408	4.61
355.777	5.12
356.147	4.69
356.516	4.74
356.885	4.61
357.254	4.88
357.624	4.35
357.993	4.44
358.362	4.67
358.731	4.41
359.1	4.62
359.469	4.81
359.838	4.32
360.207	4.42
360.576	4.51
360.945	4.54
361.314	5.17
361.682	4.4
362.051	4.96
362.42	4.78
362.788	4.68
363.157	4.7
363.525	4.77
363.894	4.58
364.262	4.46
364.631	4.68
364.999	4.6
365.367	4.9
365.735	4.66
366.104	4.94
366.472	4.8
366.84	4.61
367.208	4.86
367.576	4.66
367.944	5.03
368.312	5.05
368.68	4.97
369.048	4.79
369.416	4.89
369.783	4.76
370.151	4.62
370.519	4.63
370.886	4.93
371.254	5.06
371.621	4.78
371.989	4.7
372.356	4.74
372.724	5.21
373.091	4.87
373.458	4.74
373.826	4.95
374.193	4.97
374.56	4.77
374.927	4.98
375.294	4.68
375.661	4.76
376.028	5.12
376.395	4.85
376.762	4.53
377.129	4.97
377.496	5.36
377.863	4.96
378.229	4.79
378.596	4.97
378.963	5.11
379.329	4.79
379.696	5.04
380.062	4.74
380.429	4.91
380.795	4.99
381.161	4.81
381.528	4.83
381.894	4.39
382.26	4.53
382.626	5.1
382.993	4.9
383.359	4.51
383.725	4.96
384.091	4.95
384.457	4.79
384.823	4.9
385.188	5.09
385.554	4.97
385.92	5.13
386.286	5.09
386.651	4.71
387.017	5.05
387.383	4.85
387.748	5.09
388.114	4.89
388.479	4.92
388.845	4.45
389.21	4.68
389.575	4.98
389.94	4.8
390.306	4.78
390.671	5.22
391.036	4.41
391.401	4.91
391.766	4.8
392.131	5.01
392.496	4.82
392.861	4.65
393.226	5.12
393.591	4.85
393.956	4.76
394.32	4.75
394.685	4.79
395.05	5.04
395.414	5.02
395.779	4.85
396.143	4.93
396.508	5.08
396.872	5
397.236	4.98
397.601	4.83
397.965	5.09
398.329	5.16
398.694	5.08
399.058	5
399.422	5.14
399.786	5.16
400.15	5.01
400.514	4.83
400.878	4.85
401.242	5.24
401.605	4.95
401.969	4.72
402.333	4.97
402.697	4.77
403.06	4.89
403.424	4.94
403.787	4.93
404.151	5.14
404.514	5.11
404.878	5.02
405.241	5.27
405.604	5.29
405.968	5.03
406.331	5.06
406.694	4.99
407.057	4.87
407.42	5.1
407.783	4.92
408.146	5.01
408.509	4.92
408.872	4.89
409.235	5.02
409.598	5.3
409.961	5.13
410.323	5.06
410.686	5.01
411.049	5.31
411.411	5.35
411.774	5.01
412.136	4.95
412.499	4.82
412.861	5.2
413.223	5.06
413.586	5.08
413.948	5.1
414.31	5.04
414.672	4.95
415.035	5.06
415.397	5.15
415.759	5.43
416.121	4.94
416.483	5.26
416.845	4.86
417.206	5.08
417.568	5.01
417.93	5.07
418.292	5.11
418.653	5.09
419.015	5.04
419.377	4.81
419.738	5.17
420.1	4.89
420.461	5.04
420.822	4.9
421.184	4.88
421.545	4.95
421.906	5.02
422.267	4.98
422.629	4.94
422.99	4.89
423.351	4.84
423.712	4.91
424.073	4.94
424.434	4.92
424.795	4.98
425.155	5.06
425.516	4.99
425.877	4.96
426.238	4.73
426.598	4.87
426.959	4.87
427.32	4.98
427.68	4.89
428.041	4.98
428.401	5.07
428.761	5.17
429.122	5.13
429.482	5
429.842	4.95
430.202	5.01
430.563	5.08
430.923	5.24
431.283	5.3
431.643	5.22
432.003	5.24
432.363	5.17
432.722	5.28
433.082	5.2
433.442	5.01
433.802	5.23
434.161	5.1
434.521	5.22
434.881	5.11
435.24	5.12
435.6	5
435.959	4.86
436.319	4.99
436.678	5.22
437.037	5.05
437.396	5.08
437.756	5.17
438.115	5.23
438.474	5.19
438.833	5.36
439.192	5.15
439.551	5.16
439.91	5.26
440.269	5.17
440.628	5.1
440.987	5.13
441.345	5.13
441.704	5.04
442.063	5.01
442.421	5.11
442.78	5.14
443.138	5.04
443.497	5.14
443.855	5.23
444.214	5.02
444.572	5.28
444.93	5.21
445.288	5.1
445.647	5.21
446.005	5.11
446.363	5.04
446.721	5.23
447.079	5.03
447.437	5.13
447.795	5.08
448.153	4.9
448.51	5.01
448.868	4.98
449.226	5
449.584	4.96
449.941	4.94
450.299	5.16
450.656	5.2
451.014	5.2
451.371	5.02
451.729	5.22
452.086	5.15
452.443	5.3
452.801	5.19
453.158	5.19
453.515	5.18
453.872	5.22
454.229	5.26
454.586	5.2
454.943	5.14
455.3	5.19
455.657	5.19
456.014	5.13
456.371	5.3
456.727	5.44
457.084	5.2
457.441	5.14
457.797	5.3
458.154	5.2
458.51	5.32
458.867	5.2
459.223	5.26
459.58	5.28
459.936	5.35
460.292	5.28
460.648	5.23
461.005	5.23
461.361	5.33
461.717	4.98
462.073	5.11
462.429	5
462.785	5.09
463.141	5.16
463.496	5.29
463.852	5.17
464.208	5.18
464.564	5.35
464.919	5.34
465.275	5.41
465.631	5.36
465.986	5.31
466.342	5.39
466.697	5.17
467.052	5.07
467.408	5.36
467.763	5.29
468.118	5.45
468.473	5.23
468.829	5.38
469.184	5.28
469.539	5.24
469.894	5.4
470.249	5.3
470.603	5.2
470.958	5.39
471.313	5.37
471.668	5.29
472.023	5.45
472.377	5.26
472.732	5.36
473.086	5.35
473.441	5.16
473.795	5.46
474.15	5.1
474.504	5.17
474.859	5.44
475.213	5.25
475.567	5.17
475.921	5.29
476.275	5.29
476.63	5.22
476.984	5.12
477.338	5.51
477.692	5.27
478.045	5.41
478.399	5.37
478.753	5.28
479.107	5.25
479.461	5.27
479.814	5.2
480.168	5.36
480.521	5.31
480.875	5.34
481.228	5.23
481.582	5.27
481.935	5.29
482.289	5.34
482.642	5.2
482.995	5.23
483.348	5.28
483.701	5.15
484.055	5.2
484.408	5.18
484.761	5.22
485.114	5.11
485.466	5.07
485.819	4.89
486.172	4.88
486.525	4.85
486.878	4.91
487.23	5.01
487.583	5.04
487.936	5.13
488.288	5.22
488.641	5.09
488.993	4.96
489.345	5.04
489.698	4.95
490.05	4.99
490.402	5.02
490.754	5
491.107	5.05
491.459	5.13
491.811	5.14
492.163	5.18
492.515	5.23
492.866	5.23
493.218	5.18
493.57	5.07
493.922	5.01
494.274	5.03
494.625	5.07
494.977	5.21
495.328	5.27
495.68	5.34
496.031	5.27
496.383	5.33
496.734	5.32
497.086	5.28
497.437	5.28
497.788	5.27
498.139	5.26
498.49	5.43
498.842	5.17
499.193	5.21
499.544	5.39
499.894	5.24
500.245	5.27
500.596	5.33
500.947	5.28
501.298	5.41
501.648	5.37
501.999	5.45
502.35	5.34
502.7	5.41
503.051	5.24
503.401	5.33
503.752	5.45
504.102	5.35
504.452	5.27
504.803	5.2
505.153	5.42
505.503	5.26
505.853	5.46
506.203	5.17
506.553	5.36
506.903	5.33
507.253	5.32
507.603	5.42
507.953	5.44
508.303	5.41
508.652	5.3
509.002	5.42
509.352	5.27
509.701	5.34
510.051	5.38
510.4	5.33
510.75	5.36
511.099	5.15
511.449	5.21
511.798	5.28
512.147	5.37
512.496	5.29
512.846	5.33
513.195	5.38
513.544	5.34
513.893	5.42
514.242	5.29
514.591	5.34
514.939	5.42
515.288	5.25
515.637	5.28
515.986	5.24
516.334	5.43
516.683	5.38
517.032	5.35
517.38	5.4
517.729	5.31
518.077	5.31
518.426	5.42
518.774	5.34
519.122	5.2
519.47	5.28
519.819	5.28
520.167	5.34
520.515	5.28
520.863	5.19
521.211	5.14
521.559	5.17
521.907	5.28
522.255	5.3
522.602	5.27
522.95	5.23
523.298	5.35
523.645	5.41
523.993	5.34
524.341	5.21
524.688	5.36
525.036	5.42
525.383	5.38
525.73	5.41
526.078	5.35
526.425	5.34
526.772	5.38
527.119	5.29
527.466	5.15
527.814	5.12
528.161	5.2
528.508	5.18
528.854	5.21
529.201	5.27
529.548	5.23
529.895	5.12
530.242	5.04
530.588	4.97
530.935	4.9
531.282	4.98
531.628	5.05
531.975	5.02
532.321	5.05
532.667	5.16
533.014	5.16
533.36	5.23
533.706	5.23
534.052	5.28
534.399	5.26
534.745	5.18
535.091	5.01
535.437	5
535.783	5.02
536.129	5.11
536.474	5.18
536.82	5.13
537.166	5.33
537.512	5.27
537.857	5.21
538.203	5.27
538.549	5.17
538.894	5.15
539.239	5.15
539.585	5.19
539.93	5.38
540.276	5.22
540.621	5.29
540.966	5.42
541.311	5.37
541.656	5.33
542.001	5.42
542.346	5.29
542.691	5.23
543.036	5.2
543.381	5.07
543.726	5.02
544.071	5.07
544.415	5.07
544.76	5.12
545.105	5.08
545.449	5.16
545.794	5.16
546.138	5.29
546.483	5.24
546.827	5.25
547.171	5.29
547.516	5.38
547.86	5.44
548.204	5.27
548.548	5.29
548.892	5.25
549.236	5.21
549.58	5.23
549.924	5.37
550.268	5.39
550.612	5.24
550.956	5.38
551.3	5.37
551.643	5.35
551.987	5.43
552.33	5.47
552.674	5.46
553.017	5.4
553.361	5.25
553.704	5.41
554.048	5.42
554.391	5.43
554.734	5.4
555.077	5.46
555.42	5.32
555.764	5.21
556.107	5.42
556.45	5.39
556.793	5.28
557.135	5.46
557.478	5.11
557.821	5.31
558.164	5.62
558.507	5.42
558.849	5.31
559.192	5.57
559.534	5.61
559.877	5.28
560.219	5.41
560.562	5.46
560.904	5.41
561.246	5.65
561.589	5.44
561.931	5.44
562.273	5.29
562.615	5.41
562.957	5.23
563.299	5.39
563.641	5.47
563.983	5.33
564.325	5.44
564.667	5.46
565.008	5.3
565.35	5.45
565.692	5.38
566.033	5.4
566.375	5.45
566.716	5.38
567.058	5.35
567.399	5.42
567.741	5.46
568.082	5.17
568.423	5.29
568.764	5.51
569.105	5.17
569.447	5.26
569.788	5.08
570.129	5.26
570.47	5.43
570.811	5.36
571.151	5.38
571.492	5.28
571.833	5.08
572.174	5.52
572.514	5.42
572.855	5.31
573.195	5.22
573.536	5.41
573.876	5.28
574.217	5.18
574.557	5.18
574.898	5.34
575.238	5.25
575.578	5.41
575.918	5.28
576.258	5.1
576.598	5.29
576.938	5.19
577.278	5.54
577.618	5.18
577.958	5.44
578.298	5.47
578.638	5.27
578.977	5.44
579.317	5.5
579.657	5.46
579.996	5.68
580.336	5.45
580.675	5.5
581.014	5.3
581.354	5.34
581.693	5.4
582.032	5.29
582.372	5.33
582.711	5.42
583.05	5.32
583.389	5.39
583.728	5.29
584.067	5.31
584.406	5.42
584.745	5.2
585.083	5.72
585.422	5.52
585.761	5.43
586.1	5.3
586.438	5.37
586.777	5.33
587.115	5.5
587.454	5.2
587.792	5.52
588.13	5.31
588.469	5.43
588.807	5.59
589.145	5.44
589.483	5.48
589.821	5.43
590.159	5.31
590.497	5.74
590.835	5.42
591.173	5.19
591.511	5.22
591.849	5.61
592.187	5.26
592.524	5.4
592.862	5.52
593.2	5.45
593.537	5.27
593.875	5.2
594.212	5.29
594.55	5.46
594.887	5.41
595.224	5.55
595.561	5.64
595.899	5.47
596.236	5.65
596.573	5.7
596.91	5.31
597.247	5.3
597.584	5.67
597.921	5.58
598.258	5.54
598.594	5.47
598.931	5.24
599.268	5.12
599.604	5.41
599.941	5.27
600.277	5.11
600.614	5.36
600.95	5.4
601.287	5.3
601.623	5.56
601.959	5.55
602.296	5.53
602.632	5.3
602.968	5.69
603.304	5.46
603.64	5.52
603.976	5.43
604.312	5.59
604.648	5.42
604.984	5.29
605.319	5.37
605.655	5.37
605.991	5.3
606.326	5.45
606.662	5.34
606.998	5.15
607.333	5.41
607.668	5.16
608.004	5.32
608.339	5.28
608.674	5.41
609.01	5.41
609.345	5.36
609.68	5.79
610.015	5.46
610.35	5.38
610.685	5.64
611.02	5.33
611.355	5.4
611.689	5.33
612.024	5.42
612.359	5.32
612.694	5.5
613.028	5.35
613.363	5.24
613.697	5.22
614.032	5.46
614.366	5.31
614.7	5.43
615.035	5.33
615.369	5.61
615.703	5.39
616.037	5.44
616.371	5.95
616.705	5.78
617.039	5.57
617.373	5.22
617.707	5.26
618.041	5.48
618.375	5.46
618.709	5.29
619.042	5.73
619.376	5.5
619.71	5.41
620.043	5.2
620.377	5.14
620.71	5.47
621.043	5.71
621.377	5.19
621.71	5.39
622.043	5.55
622.376	5.6
622.709	5.46
623.043	5.49
623.376	5.47
623.709	5.45
624.041	5.48
624.374	5.4
624.707	5.7
625.04	5.88
625.373	5.06
625.705	5.3
626.038	5.42
626.37	5.53
626.703	5.32
627.035	5.57
627.368	5.41
627.7	5.76
628.032	5.65
628.365	5.59
628.697	5.6
629.029	5.55
629.361	5.47
629.693	5.59
630.025	5.45
630.357	5.5
630.689	5.44
631.021	5.56
631.353	5.71
631.684	5.33
632.016	5.67
632.348	5.46
632.679	5.63
633.011	5.5
633.342	5.5
633.674	5.53
634.005	5.33
634.336	5.71
634.668	5.52
634.999	5.54
635.33	5.5
635.661	5.57
635.992	5.4
636.323	5.54
636.654	5.61
636.985	5.49
637.316	5.32
637.647	5.63
637.977	5.5
638.308	5.95
638.639	5.65
638.969	5.79
639.3	5.26
639.63	5.73
639.961	5.65
640.291	5.67
640.622	5.94
640.952	5.53
641.282	5.4
641.612	5.57
641.943	5.56
642.273	5.75
642.603	5.19
642.933	5.59
643.263	4.8
643.592	5.55
643.922	5.87
644.252	5.42
644.582	5.84
644.911	5.58
645.241	5.76
645.571	5.68
645.9	5.41
646.23	5.93
646.559	5.51
646.888	5.96
647.218	5.57
647.547	5.75
647.876	5.75
648.205	5.21
648.534	6.12
648.863	5.28
649.192	5.48
649.521	5.96
649.85	5.91
650.179	5.81
650.508	5.24
650.837	5.68
651.165	5.64
651.494	5.64
651.822	5.31
652.151	5.37
652.479	5.51
652.808	5.6
653.136	6.1
653.465	5.66
653.793	5.21
654.121	6.33
654.449	5.54
654.777	5.79
655.105	5.67
655.433	5.9
655.761	6.32
656.089	5.51
656.417	5.54
656.745	6.01
657.073	5.8
657.4	6.33
657.728	5.83
658.056	5.61
658.383	5.83
658.711	5.93
659.038	5.61
659.365	5.65
659.693	5.3
660.02	6.03
660.347	5.93
660.674	5.65
661.001	5.37
661.329	5.47
661.656	5.79
661.982	5.55
662.309	5.86
662.636	5.52
662.963	5.68
663.29	5.83
663.616	5.64
663.943	6.02
664.27	5.52
664.596	5.52
664.923	5.63
665.249	5.75
665.576	5.08
665.902	5.5
666.228	5.2
666.554	5.61
666.881	6.1
667.207	5.53
667.533	5.38
667.859	5.72
668.185	5.48
668.511	6.32
668.837	5.5
669.162	5.85
669.488	5.94
669.814	5.44
670.139	5.89
670.465	6.02
670.791	5.83
671.116	5.61
671.442	6.35
671.767	5.5
672.092	5.8
672.418	6.44
672.743	5.92
673.068	5.78
673.393	5.48
673.718	5.73
674.043	6.14
674.368	5.59
674.693	5.61
675.018	6.06
675.343	6.08
675.667	5.61
675.992	5.79
676.317	6.06
676.641	5.89
676.966	6.06
677.29	5.37
677.615	5.85
677.939	6.38
678.264	5.85
678.588	6.18
678.912	5.77
679.236	6.03
679.56	6.47
679.885	5.82
680.209	5.74
680.532	5.94
680.856	5.56
681.18	6.08
681.504	6.22
681.828	5.66
682.152	5.78
682.475	6.23
682.799	5.66
683.122	6.01
683.446	5.81
683.769	5.98
684.093	6.03
684.416	6.05
684.739	6.04
685.062	6.31
685.386	5.89
685.709	6.24
686.032	5.69
686.355	5.68
686.678	5.99
687.001	6.24
687.324	6.68
687.646	6.54
687.969	6.69
688.292	6.41
688.614	6.4
688.937	6.32
689.26	6.21
689.582	6.2
689.904	6.09
690.227	6.95
690.549	6.44
690.871	6.09
691.194	6.42
691.516	5.9
691.838	6.59
692.16	5.9
692.482	6.17
692.804	4.9
693.126	6.01
