Data from 0142_crown_Reflection__3__29.txt Node

Date: Fri Sep 22 20:34:39 CDT 2023
User: ToomeyLab
Spectrometer: FLMS14357
Trigger mode: 0
Integration Time (sec): 1.000000E-2
Scans to average: 100
Electric dark correction enabled: true
Nonlinearity correction enabled: false
Boxcar width: 0
XAxis mode: Wavelengths
Number of Pixels in Spectrum: 2048
>>>>>Begin Spectral Data<<<<<
189.047	-22.93
189.435	-22.93
189.823	-22.93
190.211	-38.57
190.599	-26.46
190.987	404.78
191.375	-65.03
191.763	1225.15
192.151	42.26
192.538	-27.31
192.926	58.73
193.314	-12472
193.702	272.78
194.089	135.04
194.477	21000
194.864	170.77
195.252	-241.26
195.639	-3.06
196.027	-41.37
196.414	3.79
196.801	216.16
197.189	131.68
197.576	220.34
197.963	384.72
198.351	18.06
198.738	12.07
199.125	-105.16
199.512	7.95
199.899	29.91
200.286	31.46
200.673	-1.4
201.06	10.68
201.447	57.37
201.833	-23.92
202.22	16.42
202.607	28.06
202.994	41.36
203.38	37.57
203.767	12.47
204.154	23.29
204.54	1.45
204.927	-16.53
205.313	23.66
205.699	19.51
206.086	9.96
206.472	33.74
206.858	-7.5
207.245	24.31
207.631	36.45
208.017	1.29
208.403	-3.04
208.789	33.78
209.175	38.63
209.561	10.5
209.947	21.83
210.333	36.84
210.719	7.14
211.105	33.85
211.491	4.14
211.876	45.14
212.262	19.16
212.648	14.79
213.034	9.1
213.419	1.19
213.805	28.51
214.19	-0.75
214.576	27.24
214.961	13.7
215.346	-9.17
215.732	34.16
216.117	2.56
216.502	31.41
216.888	37.17
217.273	-15.33
217.658	-0.62
218.043	7.27
218.428	28.18
218.813	-15.43
219.198	4.57
219.583	-0.65
219.968	-0.59
220.353	24.66
220.738	16.52
221.122	21.63
221.507	5.9
221.892	8.04
222.276	6.04
222.661	-19.15
223.046	18.32
223.43	21.85
223.815	2.57
224.199	4.62
224.583	5.22
224.968	7.76
225.352	3.26
225.736	9.79
226.121	11.49
226.505	11.42
226.889	5.68
227.273	-2.01
227.657	8.29
228.041	4.68
228.425	5.67
228.809	5.16
229.193	2.05
229.577	6.27
229.961	6.12
230.344	5
230.728	2.94
231.112	3.8
231.495	3.39
231.879	4.22
232.263	3.5
232.646	2.92
233.03	2.46
233.413	3.96
233.797	3.7
234.18	3.06
234.563	4.03
234.946	4.21
235.33	3.41
235.713	2.14
236.096	1.7
236.479	3.74
236.862	5.1
237.245	3.35
237.628	5.73
238.011	4.55
238.394	3.86
238.777	5.59
239.16	3.08
239.543	5.31
239.925	4.6
240.308	4.79
240.691	3.87
241.073	3.43
241.456	4
241.838	3.37
242.221	3.45
242.603	3.14
242.986	3.21
243.368	2.52
243.75	3.54
244.133	4.01
244.515	3.64
244.897	2.85
245.279	3.49
245.661	3.27
246.043	3.52
246.425	1.97
246.807	3.82
247.189	2.46
247.571	3.75
247.953	3.68
248.335	4.06
248.717	2.98
249.098	3.3
249.48	3.01
249.862	3.27
250.243	3.36
250.625	3.07
251.006	3.17
251.388	3.52
251.769	3.58
252.151	3.05
252.532	3.27
252.913	2.77
253.295	4.39
253.676	3.5
254.057	2.68
254.438	3.34
254.819	3.22
255.2	3.05
255.581	2.87
255.962	4
256.343	3.31
256.724	2.42
257.105	2.76
257.486	2.41
257.867	4
258.247	4.09
258.628	2.87
259.009	2.46
259.389	3
259.77	3.74
260.15	4.18
260.531	3.33
260.911	2.91
261.292	3.06
261.672	2.46
262.052	3.04
262.432	3.07
262.813	3.14
263.193	2.59
263.573	3.45
263.953	3.48
264.333	2.87
264.713	3.18
265.093	2.73
265.473	2.56
265.853	2.65
266.233	2.45
266.612	3.12
266.992	2.95
267.372	3.19
267.752	3.85
268.131	2.97
268.511	2.42
268.89	2.93
269.27	2.76
269.649	2.66
270.029	2.79
270.408	2.98
270.787	2.8
271.167	2.9
271.546	2.96
271.925	3.18
272.304	2.9
272.683	3.28
273.062	3.48
273.441	3.27
273.82	2.83
274.199	3.08
274.578	3.18
274.957	2.85
275.336	2.69
275.715	2.97
276.093	2.55
276.472	2.72
276.851	2.97
277.229	2.02
277.608	2.86
277.986	2.64
278.365	3.37
278.743	2.92
279.122	3.22
279.5	3.73
279.878	2.55
280.257	3.31
280.635	2.87
281.013	3.14
281.391	2.22
281.769	2.41
282.147	2.94
282.525	2.76
282.903	3.04
283.281	2.87
283.659	2.73
284.037	2.36
284.415	2.76
284.792	2.57
285.17	2.97
285.548	2.71
285.925	2.97
286.303	2.89
286.68	2.75
287.058	2.77
287.435	2.65
287.813	2.51
288.19	2.26
288.567	2.64
288.945	2.62
289.322	2.66
289.699	2.7
290.076	2.71
290.453	2.86
290.83	2.38
291.207	2.74
291.584	2.49
291.961	2.22
292.338	2.65
292.715	2.8
293.092	2.83
293.469	2.61
293.845	2.73
294.222	2.84
294.599	2.95
294.975	3.21
295.352	3.22
295.728	2.61
296.105	3.06
296.481	2.91
296.858	2.73
297.234	2.86
297.61	2.34
297.986	2.56
298.363	2.06
298.739	2.65
299.115	2.71
299.491	2.55
299.867	2.79
300.243	2.3
300.619	3.03
300.995	2.67
301.371	2.63
301.746	2.78
302.122	2.52
302.498	2.59
302.874	2.52
303.249	2.65
303.625	2.36
304	3.05
304.376	3.02
304.751	3.22
305.127	2.59
305.502	2.69
305.878	2.53
306.253	2.74
306.628	2.44
307.003	2.81
307.378	2.61
307.754	2.62
308.129	2.69
308.504	3.09
308.879	2.52
309.254	2.51
309.629	2.52
310.003	3.04
310.378	2.96
310.753	2.68
311.128	2.43
311.502	2.98
311.877	2.35
312.252	2.58
312.626	2.5
313.001	3.11
313.375	2.75
313.75	2.81
314.124	2.92
314.498	2.18
314.873	2.59
315.247	2.83
315.621	2.41
315.995	2.86
316.369	2.62
316.743	2.31
317.117	2.83
317.491	2.83
317.865	2.4
318.239	2.78
318.613	2.8
318.987	2.63
319.361	1.78
319.734	2.61
320.108	2.44
320.482	2.51
320.855	2.35
321.229	3.14
321.602	2.91
321.976	2.34
322.349	2.51
322.723	2.33
323.096	2.63
323.469	2.98
323.843	2.57
324.216	3.24
324.589	2.44
324.962	2.45
325.335	2.38
325.708	2.69
326.081	2.59
326.454	2.45
326.827	2.56
327.2	2.28
327.573	2.96
327.945	2.44
328.318	3
328.691	2.84
329.063	2.56
329.436	2.52
329.809	2.85
330.181	2.96
330.553	2.62
330.926	2.47
331.298	2.8
331.671	2.49
332.043	1.66
332.415	2.73
332.787	2.8
333.159	2.18
333.532	2.5
333.904	2.74
334.276	2.25
334.648	1.87
335.02	2.69
335.391	2.49
335.763	2.21
336.135	2.73
336.507	2.92
336.879	2.35
337.25	2.78
337.622	2.89
337.993	2.25
338.365	2.78
338.736	2.53
339.108	2.53
339.479	2.54
339.851	2.39
340.222	2.28
340.593	2.5
340.964	2.44
341.336	2.07
341.707	2.11
342.078	2.38
342.449	2.73
342.82	2.61
343.191	2.02
343.562	2.33
343.933	2.52
344.303	2.44
344.674	2.9
345.045	2.66
345.416	3.12
345.786	2.52
346.157	2.56
346.527	2.25
346.898	2.1
347.268	2.14
347.639	2.56
348.009	2.55
348.38	2.61
348.75	2.67
349.12	2.24
349.49	3
349.861	2.36
350.231	2.35
350.601	2.78
350.971	2.17
351.341	2.37
351.711	2.53
352.081	2.03
352.45	2.3
352.82	2.77
353.19	2.4
353.56	2.19
353.929	2.58
354.299	2.77
354.669	2.44
355.038	2.2
355.408	2.28
355.777	2.67
356.147	2.72
356.516	2.59
356.885	2.24
357.254	2.81
357.624	2.12
357.993	2.49
358.362	2.53
358.731	2.4
359.1	2.39
359.469	2.33
359.838	2.34
360.207	2.44
360.576	2.57
360.945	2.64
361.314	2.51
361.682	2.23
362.051	2.58
362.42	2.75
362.788	2.31
363.157	2.37
363.525	2.4
363.894	2.27
364.262	2.44
364.631	2.47
364.999	2.38
365.367	2.64
365.735	2.62
366.104	2.41
366.472	2.76
366.84	2.49
367.208	2.53
367.576	2.64
367.944	2.45
368.312	2.46
368.68	2.74
369.048	2.45
369.416	2.43
369.783	2.35
370.151	2.17
370.519	2.35
370.886	2.42
371.254	3.05
371.621	2.35
371.989	2.65
372.356	2.62
372.724	2.6
373.091	2.55
373.458	2.39
373.826	2.58
374.193	2.71
374.56	2.76
374.927	2.81
375.294	2.81
375.661	2.64
376.028	2.58
376.395	2.69
376.762	2.29
377.129	2.65
377.496	2.72
377.863	2.71
378.229	2.69
378.596	2.39
378.963	2.88
379.329	2.54
379.696	2.84
380.062	2.42
380.429	2.57
380.795	2.54
381.161	2.25
381.528	2.59
381.894	2.19
382.26	2.59
382.626	2.4
382.993	2.58
383.359	2.45
383.725	2.65
384.091	2.6
384.457	2.33
384.823	2.33
385.188	2.68
385.554	2.51
385.92	2.63
386.286	2.65
386.651	2.4
387.017	2.64
387.383	2.36
387.748	2.72
388.114	2.33
388.479	2.81
388.845	2.61
389.21	2.42
389.575	2.87
389.94	2.45
390.306	2.4
390.671	2.91
391.036	2.48
391.401	2.74
391.766	2.63
392.131	2.4
392.496	2.51
392.861	2.56
393.226	2.65
393.591	2.9
393.956	2.65
394.32	2.62
394.685	2.48
395.05	2.89
395.414	2.76
395.779	2.8
396.143	2.66
396.508	2.7
396.872	2.59
397.236	2.57
397.601	2.55
397.965	2.85
398.329	2.78
398.694	2.5
399.058	2.67
399.422	2.48
399.786	2.64
400.15	2.73
400.514	2.63
400.878	2.67
401.242	2.83
401.605	2.54
401.969	2.44
402.333	2.6
402.697	2.49
403.06	2.59
403.424	2.66
403.787	2.7
404.151	2.64
404.514	2.82
404.878	2.77
405.241	3
405.604	2.63
405.968	2.59
406.331	2.83
406.694	2.64
407.057	2.43
407.42	2.84
407.783	2.57
408.146	2.88
408.509	2.59
408.872	2.63
409.235	2.61
409.598	2.63
409.961	2.99
410.323	2.62
410.686	2.81
411.049	2.9
411.411	2.73
411.774	2.53
412.136	2.92
412.499	2.64
412.861	2.82
413.223	2.85
413.586	2.68
413.948	2.66
414.31	2.63
414.672	2.79
415.035	2.61
415.397	2.98
415.759	3.09
416.121	2.6
416.483	2.79
416.845	2.48
417.206	2.67
417.568	2.73
417.93	2.72
418.292	2.65
418.653	2.69
419.015	2.73
419.377	2.55
419.738	2.85
420.1	2.54
420.461	2.65
420.822	2.54
421.184	2.58
421.545	2.61
421.906	2.74
422.267	2.54
422.629	2.63
422.99	2.59
423.351	2.58
423.712	2.58
424.073	2.64
424.434	2.7
424.795	2.63
425.155	2.69
425.516	2.63
425.877	2.59
426.238	2.52
426.598	2.56
426.959	2.67
427.32	2.55
427.68	2.59
428.041	2.55
428.401	2.7
428.761	2.81
429.122	2.82
429.482	2.71
429.842	2.68
430.202	2.63
430.563	2.59
430.923	2.83
431.283	2.78
431.643	2.82
432.003	2.69
432.363	2.96
432.722	2.77
433.082	2.86
433.442	2.51
433.802	2.83
434.161	2.64
434.521	2.75
434.881	2.77
435.24	2.66
435.6	2.65
435.959	2.53
436.319	2.5
436.678	2.77
437.037	2.73
437.396	2.68
437.756	2.79
438.115	2.79
438.474	2.77
438.833	2.93
439.192	2.63
439.551	2.56
439.91	2.84
440.269	2.81
440.628	2.5
440.987	2.77
441.345	2.71
441.704	2.66
442.063	2.72
442.421	2.74
442.78	2.69
443.138	2.63
443.497	2.69
443.855	2.79
444.214	2.54
444.572	2.84
444.93	2.67
445.288	2.67
445.647	2.93
446.005	2.63
446.363	2.61
446.721	2.83
447.079	2.56
447.437	2.78
447.795	2.68
448.153	2.58
448.51	2.66
448.868	2.62
449.226	2.72
449.584	2.58
449.941	2.65
450.299	2.71
450.656	2.75
451.014	2.83
451.371	2.76
451.729	2.88
452.086	2.74
452.443	2.72
452.801	2.81
453.158	2.95
453.515	2.82
453.872	2.75
454.229	2.89
454.586	2.81
454.943	2.76
455.3	2.84
455.657	2.8
456.014	2.8
456.371	2.84
456.727	2.9
457.084	2.82
457.441	2.8
457.797	2.76
458.154	2.78
458.51	2.73
458.867	2.78
459.223	2.86
459.58	2.74
459.936	2.79
460.292	2.84
460.648	2.91
461.005	2.86
461.361	2.89
461.717	2.55
462.073	2.66
462.429	2.6
462.785	2.82
463.141	2.76
463.496	2.94
463.852	2.79
464.208	2.78
464.564	2.99
464.919	2.8
465.275	2.87
465.631	2.96
465.986	3.03
466.342	2.88
466.697	2.92
467.052	2.72
467.408	2.91
467.763	2.81
468.118	2.81
468.473	2.79
468.829	2.83
469.184	2.92
469.539	2.85
469.894	2.82
470.249	2.94
470.603	2.78
470.958	2.92
471.313	2.92
471.668	3.03
472.023	2.77
472.377	2.98
472.732	2.75
473.086	3.06
473.441	2.63
473.795	3.26
474.15	2.7
474.504	2.78
474.859	3.02
475.213	2.76
475.567	2.83
475.921	2.89
476.275	2.97
476.63	2.78
476.984	2.69
477.338	2.94
477.692	2.91
478.045	2.9
478.399	3.11
478.753	2.88
479.107	2.79
479.461	2.81
479.814	2.99
480.168	2.74
480.521	2.83
480.875	3.06
481.228	2.9
481.582	2.71
481.935	2.89
482.289	2.89
482.642	2.84
482.995	2.82
483.348	2.86
483.701	2.75
484.055	2.86
484.408	2.83
484.761	2.87
485.114	2.7
485.466	2.64
485.819	2.63
486.172	2.6
486.525	2.6
486.878	2.65
487.23	2.69
487.583	2.79
487.936	2.77
488.288	2.88
488.641	2.72
488.993	2.73
489.345	2.67
489.698	2.66
490.05	2.71
490.402	2.72
490.754	2.69
491.107	2.79
491.459	2.8
491.811	2.76
492.163	2.83
492.515	2.8
492.866	2.8
493.218	2.84
493.57	2.74
493.922	2.68
494.274	2.74
494.625	2.75
494.977	2.91
495.328	2.88
495.68	2.94
496.031	2.87
496.383	2.93
496.734	2.93
497.086	2.79
497.437	2.91
497.788	2.97
498.139	2.94
498.49	3.03
498.842	2.78
499.193	2.83
499.544	2.94
499.894	2.88
500.245	2.94
500.596	2.9
500.947	2.99
501.298	2.92
501.648	2.89
501.999	3
502.35	3.06
502.7	2.95
503.051	2.88
503.401	2.92
503.752	2.98
504.102	2.97
504.452	2.79
504.803	2.88
505.153	2.95
505.503	2.91
505.853	3.15
506.203	2.96
506.553	2.98
506.903	3.02
507.253	2.82
507.603	3.04
507.953	3.1
508.303	3.05
508.652	2.97
509.002	3.01
509.352	2.94
509.701	2.96
510.051	2.87
510.4	3.02
510.75	2.92
511.099	2.9
511.449	2.94
511.798	2.99
512.147	2.96
512.496	2.95
512.846	2.95
513.195	2.94
513.544	2.9
513.893	2.98
514.242	2.83
514.591	2.98
514.939	2.96
515.288	2.81
515.637	2.93
515.986	3.01
516.334	3.09
516.683	3
517.032	3.07
517.38	3
517.729	2.94
518.077	3.03
518.426	3.09
518.774	2.97
519.122	2.98
519.47	2.85
519.819	2.96
520.167	2.93
520.515	2.93
520.863	2.89
521.211	2.92
521.559	2.94
521.907	2.96
522.255	2.92
522.602	2.99
522.95	2.97
523.298	3.03
523.645	3.03
523.993	3.03
524.341	2.92
524.688	3
525.036	2.99
525.383	3.13
525.73	3.05
526.078	2.97
526.425	2.93
526.772	3.1
527.119	2.95
527.466	2.81
527.814	2.85
528.161	2.84
528.508	2.9
528.854	2.98
529.201	2.95
529.548	2.92
529.895	2.93
530.242	2.85
530.588	2.76
530.935	2.73
531.282	2.78
531.628	2.82
531.975	2.83
532.321	2.89
532.667	2.94
533.014	2.91
533.36	2.97
533.706	2.94
534.052	3.03
534.399	3
534.745	2.95
535.091	2.83
535.437	2.84
535.783	2.77
536.129	2.86
536.474	2.93
536.82	2.93
537.166	3.03
537.512	2.98
537.857	2.92
538.203	3.1
538.549	2.84
538.894	2.88
539.239	2.89
539.585	2.9
539.93	3.05
540.276	2.96
540.621	3.01
540.966	3.05
541.311	3.08
541.656	3
542.001	3.02
542.346	3.04
542.691	3.05
543.036	2.95
543.381	2.84
543.726	2.85
544.071	2.88
544.415	2.91
544.76	2.89
545.105	2.89
545.449	2.91
545.794	2.96
546.138	3.02
546.483	2.92
546.827	2.97
547.171	3.02
547.516	3.03
547.86	3.07
548.204	3.04
548.548	3
548.892	3.02
549.236	2.86
549.58	3.02
549.924	3.13
550.268	3.13
550.612	2.98
550.956	3
551.3	3.13
551.643	3.13
551.987	3.1
552.33	3.14
552.674	3.15
553.017	2.96
553.361	3.1
553.704	3.26
554.048	3.12
554.391	3.11
554.734	3.12
555.077	3.05
555.42	2.95
555.764	3.15
556.107	3.06
556.45	3.15
556.793	2.85
557.135	3.04
557.478	2.95
557.821	3.22
558.164	3.1
558.507	3.12
558.849	2.91
559.192	3.28
559.534	3.22
559.877	3.06
560.219	2.86
560.562	3.21
560.904	3.15
561.246	3.31
561.589	3.17
561.931	3.07
562.273	2.99
562.615	3.09
562.957	2.98
563.299	3.12
563.641	3.13
563.983	3.08
564.325	3.16
564.667	3.21
565.008	3.23
565.35	3.2
565.692	3.26
566.033	3.23
566.375	3.16
566.716	3.08
567.058	3.13
567.399	3.17
567.741	3.27
568.082	2.93
568.423	3.14
568.764	3.27
569.105	2.87
569.447	3.08
569.788	3.02
570.129	3.18
570.47	3.34
570.811	3.07
571.151	3.2
571.492	2.99
571.833	3.08
572.174	3.07
572.514	3.04
572.855	2.95
573.195	3.03
573.536	3.14
573.876	3.12
574.217	3.03
574.557	3.1
574.898	3.16
575.238	3.05
575.578	3.23
575.918	3.31
576.258	2.89
576.598	3.16
576.938	3.04
577.278	3.2
577.618	3.06
577.958	3.11
578.298	3.22
578.638	3.01
578.977	3.13
579.317	3.05
579.657	3.21
579.996	3.34
580.336	3.3
580.675	3.32
581.014	2.99
581.354	3.12
581.693	3.29
582.032	3.11
582.372	3.35
582.711	3.27
583.05	3.38
583.389	3.18
583.728	3.01
584.067	3.25
584.406	3.17
584.745	3.07
585.083	3.21
585.422	3.27
585.761	3.01
586.1	3.22
586.438	3.3
586.777	3.16
587.115	3.18
587.454	2.93
587.792	3.32
588.13	3.14
588.469	3.15
588.807	3.24
589.145	3.31
589.483	3.11
589.821	3.16
590.159	3.17
590.497	3.32
590.835	3.21
591.173	3.36
591.511	3.23
591.849	3.49
592.187	3.08
592.524	3.27
592.862	3.36
593.2	3.23
593.537	3.24
593.875	3.09
594.212	3.25
594.55	3.37
594.887	3.08
595.224	3.17
595.561	3.59
595.899	3.19
596.236	3.65
596.573	3.36
596.91	3.24
597.247	3.23
597.584	3.42
597.921	3.36
598.258	3.37
598.594	3.25
598.931	3.17
599.268	3.09
599.604	3.21
599.941	3.24
600.277	3.13
600.614	3.27
600.95	3.34
601.287	3.18
601.623	3.14
601.959	3.5
602.296	3.49
602.632	3.18
602.968	3.3
603.304	3.3
603.64	3.14
603.976	3.2
604.312	3.26
604.648	3.21
604.984	3.32
605.319	3.12
605.655	3.07
605.991	3.21
606.326	3.19
606.662	3.17
606.998	3.14
607.333	3.34
607.668	3.18
608.004	3.36
608.339	3.15
608.674	3.32
609.01	3.36
609.345	3.18
609.68	3.45
610.015	3.28
610.35	3.5
610.685	3.51
611.02	3.17
611.355	3.44
611.689	3.2
612.024	3.39
612.359	3.17
612.694	3.11
613.028	3.26
613.363	3.22
613.697	3.18
614.032	3.23
614.366	3.2
614.7	3.27
615.035	3.47
615.369	3.3
615.703	3.17
616.037	3.19
616.371	3.52
616.705	3.47
617.039	3.48
617.373	3.3
617.707	3.22
618.041	3.29
618.375	3.06
618.709	3.06
619.042	3.58
619.376	3.64
619.71	3.56
620.043	3.05
620.377	3.17
620.71	3.26
621.043	3.15
621.377	3.33
621.71	3.28
622.043	3.34
622.376	3.54
622.709	3.25
623.043	3.08
623.376	3.54
623.709	3.79
624.041	3.31
624.374	3.22
624.707	3.37
625.04	3.61
625.373	3.26
625.705	3.22
626.038	3.43
626.37	3.65
626.703	3.49
627.035	3.36
627.368	3.13
627.7	3.75
628.032	3.41
628.365	3.25
628.697	3.25
629.029	3.25
629.361	3.4
629.693	3.4
630.025	3.3
630.357	3.4
630.689	3.29
631.021	3.53
631.353	3.32
631.684	3.19
632.016	3.48
632.348	3.47
632.679	3.06
633.011	3.46
633.342	3.53
633.674	3.71
634.005	3.22
634.336	3.37
634.668	3.43
634.999	3.81
635.33	3.58
635.661	3.78
635.992	3.49
636.323	3.17
636.654	3.32
636.985	3.36
637.316	3.63
637.647	3.31
637.977	3.03
638.308	3.73
638.639	3.57
638.969	3.51
639.3	3.4
639.63	3.63
639.961	3.16
640.291	3.27
640.622	3.82
640.952	3.72
641.282	3.88
641.612	3.25
641.943	3.47
642.273	3.5
642.603	3.55
642.933	3.32
643.263	2.98
643.592	3.55
643.922	3.42
644.252	3.42
644.582	3.79
644.911	3.56
645.241	3.37
645.571	3.3
645.9	3.49
646.23	4.01
646.559	3.47
646.888	3.25
647.218	3.46
647.547	3.4
647.876	3.52
648.205	3.23
648.534	3.72
648.863	3.25
649.192	3.03
649.521	3.5
649.85	3.57
650.179	3.78
650.508	3.56
650.837	3.83
651.165	3.3
651.494	3.43
651.822	3.24
652.151	3.14
652.479	3.16
652.808	3.47
653.136	3.97
653.465	3.23
653.793	3.39
654.121	3.61
654.449	3.35
654.777	3.61
655.105	3.62
655.433	3.75
655.761	3.98
656.089	3.29
656.417	3.79
656.745	3.49
657.073	3.39
657.4	4.08
657.728	3.24
658.056	3.34
658.383	3.55
658.711	3.1
659.038	3.75
659.365	3.79
659.693	2.98
660.02	3.93
660.347	3.53
660.674	3.42
661.001	3.39
661.329	3.68
661.656	3.51
661.982	3.18
662.309	3.88
662.636	3.51
662.963	3.74
663.29	3.96
663.616	3.77
663.943	3.74
664.27	3.77
664.596	3.74
664.923	3.46
665.249	3.51
665.576	3.18
665.902	3.77
666.228	3.59
666.554	3.21
666.881	3.79
667.207	3.32
667.533	3.07
667.859	3.92
668.185	3.58
668.511	3.92
668.837	3.18
669.162	3.54
669.488	4.22
669.814	3.97
670.139	3.81
670.465	4.18
670.791	3.7
671.116	3.66
671.442	4.12
671.767	3.38
672.092	4.53
672.418	4.31
672.743	3.7
673.068	3.58
673.393	3.45
673.718	3.66
674.043	4.04
674.368	3.86
674.693	3.39
675.018	3.68
675.343	3.34
675.667	3.83
675.992	3.68
676.317	3.94
676.641	3.99
676.966	3.77
677.29	3.75
677.615	3.92
677.939	4.12
678.264	3.68
678.588	4.67
678.912	3.43
679.236	4.43
679.56	3.93
679.885	3.76
680.209	4.24
680.532	3.55
680.856	3.5
681.18	4.39
681.504	3.92
681.828	3.81
682.152	3.84
682.475	4.31
682.799	3.84
683.122	4.39
683.446	3.85
683.769	3.38
684.093	4.04
684.416	3.85
684.739	3.48
685.062	4.48
685.386	4.12
685.709	4.17
686.032	3.58
686.355	3.68
686.678	3.82
687.001	3.85
687.324	4.52
687.646	3.81
687.969	4.36
688.292	3.83
688.614	4.16
688.937	3.55
689.26	3.82
689.582	3.86
689.904	3.88
690.227	4.31
690.549	4.36
690.871	3.49
691.194	3.86
691.516	4.29
691.838	3.6
692.16	3.51
692.482	4.05
692.804	3.25
