Data from 0237_chest_Reflection__4__66.txt Node

Date: Fri Oct 20 21:10:53 CDT 2023
User: ToomeyLab
Spectrometer: FLMS14357
Trigger mode: 0
Integration Time (sec): 1.000000E-2
Scans to average: 100
Electric dark correction enabled: true
Nonlinearity correction enabled: false
Boxcar width: 0
XAxis mode: Wavelengths
Number of Pixels in Spectrum: 2048
>>>>>Begin Spectral Data<<<<<
189.047	-108.77
189.435	-108.77
189.823	-108.77
190.211	-3.68
190.599	-839.75
190.987	41.39
191.375	-343.02
191.763	232.56
192.151	-480.84
192.538	216.8
192.926	468.97
193.314	77.16
193.702	98.47
194.089	89.83
194.477	129.76
194.864	-864.86
195.252	128.35
195.639	-789.52
196.027	-85.44
196.414	-14.75
196.801	-15.06
197.189	169.54
197.576	-25.17
197.963	2527.54
198.351	34.66
198.738	8.28
199.125	36.25
199.512	99.95
199.899	-2.79
200.286	7.63
200.673	38.79
201.06	36.8
201.447	37.76
201.833	43.71
202.22	31
202.607	42.23
202.994	20.42
203.38	72.74
203.767	64.12
204.154	44.85
204.54	74.49
204.927	51.09
205.313	36.59
205.699	57.48
206.086	33.81
206.472	62.83
206.858	42.08
207.245	-10.67
207.631	38.36
208.017	32.16
208.403	49.28
208.789	38.37
209.175	3.77
209.561	36.96
209.947	23.24
210.333	11.89
210.719	10.86
211.105	20.58
211.491	38.7
211.876	11.93
212.262	33.43
212.648	41.98
213.034	13.12
213.419	34.07
213.805	12.23
214.19	28.87
214.576	7.11
214.961	34.3
215.346	31.3
215.732	21.2
216.117	-7.22
216.502	23.07
216.888	32.55
217.273	7.85
217.658	12.19
218.043	20.36
218.428	2.3
218.813	24.74
219.198	3.04
219.583	-16.08
219.968	-0.6
220.353	23.38
220.738	23.83
221.122	3.81
221.507	14.02
221.892	29.98
222.276	10.07
222.661	18.13
223.046	12.24
223.43	13.77
223.815	16.44
224.199	19.6
224.583	-2.7
224.968	-7.96
225.352	4.66
225.736	11.39
226.121	12.11
226.505	4.88
226.889	12.73
227.273	12.97
227.657	12.42
228.041	8.48
228.425	8.94
228.809	8.84
229.193	8.69
229.577	7.49
229.961	5.94
230.344	3.65
230.728	3.85
231.112	3.74
231.495	3.2
231.879	3.92
232.263	5.04
232.646	4.19
233.03	4
233.413	3.89
233.797	4.58
234.18	4.95
234.563	4.86
234.946	6.4
235.33	4.54
235.713	3.43
236.096	6.43
236.479	5.13
236.862	4.07
237.245	3.26
237.628	5
238.011	4.61
238.394	4.8
238.777	5.17
239.16	4.31
239.543	5.31
239.925	5.54
240.308	4.15
240.691	4.85
241.073	5.83
241.456	5.61
241.838	3.95
242.221	4.54
242.603	3.9
242.986	4.1
243.368	3.97
243.75	3.44
244.133	3.14
244.515	3.15
244.897	3.06
245.279	3.34
245.661	3.63
246.043	3.19
246.425	3.74
246.807	2.79
247.189	3.52
247.571	3.23
247.953	3.36
248.335	3.65
248.717	3.24
249.098	3.14
249.48	3.16
249.862	3.16
250.243	3.57
250.625	3.63
251.006	3.71
251.388	3.56
251.769	3.98
252.151	3.33
252.532	4.04
252.913	3.56
253.295	3.05
253.676	3.12
254.057	3.67
254.438	3.55
254.819	3.64
255.2	3.91
255.581	3.89
255.962	3.25
256.343	5.06
256.724	3.28
257.105	4.95
257.486	3.3
257.867	4.7
258.247	3.55
258.628	3.1
259.009	3.48
259.389	3.54
259.77	3.1
260.15	3.4
260.531	3.54
260.911	3.14
261.292	2.79
261.672	3.25
262.052	3.07
262.432	3.06
262.813	3.28
263.193	3.34
263.573	2.58
263.953	3.29
264.333	3.69
264.713	3.8
265.093	3.65
265.473	3.62
265.853	3.71
266.233	3.92
266.612	3.3
266.992	3.39
267.372	3.43
267.752	3.11
268.131	4
268.511	3.23
268.89	3.21
269.27	2.9
269.649	3.04
270.029	3.08
270.408	3.73
270.787	3.42
271.167	3.08
271.546	3.39
271.925	4.27
272.304	3.8
272.683	3.64
273.062	3.27
273.441	3.65
273.82	3.51
274.199	3.07
274.578	3.25
274.957	3.22
275.336	3.52
275.715	3.43
276.093	2.87
276.472	3.82
276.851	3.18
277.229	3.67
277.608	2.64
277.986	3.32
278.365	3.48
278.743	2.95
279.122	3
279.5	2.9
279.878	2.63
280.257	3.18
280.635	3.08
281.013	3.28
281.391	3.79
281.769	3.05
282.147	2.97
282.525	3.24
282.903	3.28
283.281	3.61
283.659	3.16
284.037	3.6
284.415	2.58
284.792	3.31
285.17	2.9
285.548	3.19
285.925	3.12
286.303	2.55
286.68	2.91
287.058	3.83
287.435	3.4
287.813	2.59
288.19	2.73
288.567	3.28
288.945	3.28
289.322	3.48
289.699	2.74
290.076	3.57
290.453	3.17
290.83	2.94
291.207	3.52
291.584	2.98
291.961	3.06
292.338	2.83
292.715	3.17
293.092	2.93
293.469	3.37
293.845	2.87
294.222	3.35
294.599	2.88
294.975	4.17
295.352	3.31
295.728	3.28
296.105	3.33
296.481	3.28
296.858	3.22
297.234	3.2
297.61	3.05
297.986	3.04
298.363	3.35
298.739	3.16
299.115	3.23
299.491	3.13
299.867	3.05
300.243	3.34
300.619	3.12
300.995	2.66
301.371	3.2
301.746	2.9
302.122	3.66
302.498	2.84
302.874	3.19
303.249	2.94
303.625	3.26
304	3.9
304.376	3.19
304.751	3.35
305.127	3.46
305.502	3.8
305.878	3.08
306.253	3.14
306.628	3.18
307.003	3.14
307.378	3.34
307.754	3.17
308.129	3.97
308.504	4.04
308.879	3.5
309.254	4.05
309.629	2.95
310.003	2.84
310.378	3.37
310.753	3.5
311.128	3.44
311.502	3.39
311.877	3.54
312.252	3.21
312.626	3.25
313.001	3.24
313.375	3.32
313.75	3.4
314.124	2.98
314.498	3.38
314.873	3.16
315.247	3.31
315.621	3.24
315.995	3.08
316.369	2.88
316.743	3.22
317.117	3.52
317.491	2.94
317.865	3.65
318.239	3.65
318.613	3.54
318.987	3.18
319.361	3.04
319.734	3.31
320.108	3.4
320.482	3.37
320.855	3.17
321.229	3.73
321.602	3.57
321.976	3.12
322.349	3.49
322.723	3.33
323.096	3.06
323.469	3.37
323.843	3.3
324.216	3.33
324.589	3.61
324.962	4.05
325.335	3.43
325.708	3.28
326.081	3.56
326.454	3.72
326.827	3.81
327.2	3.82
327.573	3.86
327.945	3.37
328.318	2.92
328.691	3.29
329.063	3.42
329.436	3.03
329.809	3.7
330.181	3.94
330.553	3.71
330.926	3.17
331.298	3.27
331.671	3.61
332.043	2.98
332.415	3.45
332.787	3.53
333.159	3.07
333.532	3.69
333.904	4.12
334.276	3.17
334.648	3.53
335.02	3.49
335.391	3
335.763	3.46
336.135	3.01
336.507	3.35
336.879	3.36
337.25	3.5
337.622	3.82
337.993	3.46
338.365	3.8
338.736	3.73
339.108	3.7
339.479	3.31
339.851	3.45
340.222	3.29
340.593	3.11
340.964	3.34
341.336	3.33
341.707	3.59
342.078	3.53
342.449	2.95
342.82	3.35
343.191	3.45
343.562	3.23
343.933	3.41
344.303	3.52
344.674	3.89
345.045	3.59
345.416	3.66
345.786	3.56
346.157	3.86
346.527	3.45
346.898	3.28
347.268	3.57
347.639	3.76
348.009	3.28
348.38	3.73
348.75	3.17
349.12	3.36
349.49	3.59
349.861	3.71
350.231	3.08
350.601	3.34
350.971	3.85
351.341	3.53
351.711	3.79
352.081	3.47
352.45	3.39
352.82	3.44
353.19	3.74
353.56	3.91
353.929	3.44
354.299	3.69
354.669	3.86
355.038	3.49
355.408	3.57
355.777	3.63
356.147	3.41
356.516	3.71
356.885	3.51
357.254	3.6
357.624	3.52
357.993	3.49
358.362	3.88
358.731	3.23
359.1	3.11
359.469	3.24
359.838	3.69
360.207	3.79
360.576	3.78
360.945	3.51
361.314	3.62
361.682	3.6
362.051	3.52
362.42	3.32
362.788	3.49
363.157	3.66
363.525	3.41
363.894	3.44
364.262	3.46
364.631	3.74
364.999	3.49
365.367	3.66
365.735	3.6
366.104	3.47
366.472	3.79
366.84	3.66
367.208	3.76
367.576	3.72
367.944	3.56
368.312	3.4
368.68	3.83
369.048	3.82
369.416	3.83
369.783	3.9
370.151	3.39
370.519	3.47
370.886	3.45
371.254	3.84
371.621	3.76
371.989	3.48
372.356	3.76
372.724	4.05
373.091	3.5
373.458	3.38
373.826	3.57
374.193	3.42
374.56	3.61
374.927	3.78
375.294	4.02
375.661	3.62
376.028	3.87
376.395	3.8
376.762	3.7
377.129	3.67
377.496	3.75
377.863	3.8
378.229	4.05
378.596	3.62
378.963	3.61
379.329	3.7
379.696	3.87
380.062	3.81
380.429	3.75
380.795	3.63
381.161	3.33
381.528	3.84
381.894	3.5
382.26	3.72
382.626	4.1
382.993	3.73
383.359	3.75
383.725	3.95
384.091	3.98
384.457	3.51
384.823	3.81
385.188	3.97
385.554	3.59
385.92	3.82
386.286	3.71
386.651	3.56
387.017	3.81
387.383	3.8
387.748	3.62
388.114	3.54
388.479	3.87
388.845	3.96
389.21	3.63
389.575	3.39
389.94	3.5
390.306	3.66
390.671	3.67
391.036	3.76
391.401	3.78
391.766	3.87
392.131	3.7
392.496	3.54
392.861	3.71
393.226	3.69
393.591	3.65
393.956	3.91
394.32	3.99
394.685	3.82
395.05	4.1
395.414	4.02
395.779	3.52
396.143	3.65
396.508	3.54
396.872	3.79
397.236	3.61
397.601	3.58
397.965	3.57
398.329	3.65
398.694	3.84
399.058	3.46
399.422	3.83
399.786	3.72
400.15	3.66
400.514	3.76
400.878	3.84
401.242	3.91
401.605	3.83
401.969	3.91
402.333	3.8
402.697	3.78
403.06	3.51
403.424	3.82
403.787	3.79
404.151	3.75
404.514	3.79
404.878	3.84
405.241	3.97
405.604	3.64
405.968	3.95
406.331	3.58
406.694	3.73
407.057	3.69
407.42	4.01
407.783	3.75
408.146	3.86
408.509	3.89
408.872	3.81
409.235	3.74
409.598	4.04
409.961	3.83
410.323	3.72
410.686	3.5
411.049	3.74
411.411	3.76
411.774	3.64
412.136	3.74
412.499	3.88
412.861	3.87
413.223	3.79
413.586	3.88
413.948	3.89
414.31	4.02
414.672	3.62
415.035	3.76
415.397	4.01
415.759	3.76
416.121	3.91
416.483	3.98
416.845	3.81
417.206	3.87
417.568	3.99
417.93	3.91
418.292	3.68
418.653	3.93
419.015	3.7
419.377	3.83
419.738	3.62
420.1	3.61
420.461	3.76
420.822	3.63
421.184	3.66
421.545	3.77
421.906	3.77
422.267	3.74
422.629	3.74
422.99	3.61
423.351	3.75
423.712	3.69
424.073	3.77
424.434	3.7
424.795	3.67
425.155	3.68
425.516	3.67
425.877	3.79
426.238	3.58
426.598	3.72
426.959	3.66
427.32	3.71
427.68	3.77
428.041	3.71
428.401	3.85
428.761	3.76
429.122	3.81
429.482	3.86
429.842	3.8
430.202	3.95
430.563	3.86
430.923	3.78
431.283	3.86
431.643	3.85
432.003	4.04
432.363	3.72
432.722	3.76
433.082	3.92
433.442	3.88
433.802	3.87
434.161	3.82
434.521	3.99
434.881	4.08
435.24	3.9
435.6	3.8
435.959	3.89
436.319	3.85
436.678	4.08
437.037	3.71
437.396	4.03
437.756	3.75
438.115	3.68
438.474	3.79
438.833	3.99
439.192	3.68
439.551	3.83
439.91	3.84
440.269	3.93
440.628	3.94
440.987	3.87
441.345	3.88
441.704	3.85
442.063	3.85
442.421	3.86
442.78	3.8
443.138	3.89
443.497	3.91
443.855	3.89
444.214	3.84
444.572	3.89
444.93	3.99
445.288	3.97
445.647	4.22
446.005	3.72
446.363	3.93
446.721	3.84
447.079	3.89
447.437	3.91
447.795	3.85
448.153	3.75
448.51	3.84
448.868	3.86
449.226	3.76
449.584	3.93
449.941	3.82
450.299	3.9
450.656	3.77
451.014	3.96
451.371	3.94
451.729	3.78
452.086	3.79
452.443	3.98
452.801	3.82
453.158	3.96
453.515	3.94
453.872	3.86
454.229	4.06
454.586	3.86
454.943	3.89
455.3	3.84
455.657	3.98
456.014	3.96
456.371	3.9
456.727	3.99
457.084	3.97
457.441	4
457.797	3.89
458.154	3.85
458.51	3.87
458.867	4
459.223	4.04
459.58	3.96
459.936	3.97
460.292	3.92
460.648	3.83
461.005	3.93
461.361	3.88
461.717	3.74
462.073	3.86
462.429	3.93
462.785	3.91
463.141	4.01
463.496	3.91
463.852	4.01
464.208	4.08
464.564	4.03
464.919	4.03
465.275	3.97
465.631	4.23
465.986	4.21
466.342	4.21
466.697	4.11
467.052	3.98
467.408	4.09
467.763	4.07
468.118	4.16
468.473	4
468.829	4.02
469.184	4.04
469.539	4.09
469.894	4.05
470.249	3.96
470.603	3.98
470.958	4.14
471.313	4.24
471.668	4.22
472.023	4.19
472.377	4.14
472.732	3.94
473.086	4.09
473.441	4.14
473.795	4.25
474.15	4.06
474.504	4.04
474.859	4.04
475.213	4.11
475.567	4.14
475.921	4.1
476.275	4.04
476.63	4.42
476.984	4.23
477.338	3.88
477.692	4.18
478.045	4.13
478.399	4.05
478.753	4.24
479.107	4.13
479.461	4.13
479.814	4.25
480.168	4.18
480.521	4.18
480.875	4.13
481.228	4.13
481.582	4.21
481.935	4.07
482.289	4.1
482.642	4.12
482.995	4.08
483.348	4.2
483.701	4.04
484.055	4.11
484.408	4.03
484.761	3.98
485.114	3.9
485.466	3.82
485.819	3.83
486.172	3.72
486.525	3.75
486.878	3.8
487.23	3.89
487.583	3.92
487.936	3.92
488.288	4
488.641	3.99
488.993	3.92
489.345	3.94
489.698	3.88
490.05	3.85
490.402	3.86
490.754	3.88
491.107	3.92
491.459	4.05
491.811	4.07
492.163	4.04
492.515	4.05
492.866	4.11
493.218	3.92
493.57	3.91
493.922	3.91
494.274	3.93
494.625	3.99
494.977	3.98
495.328	3.99
495.68	4.17
496.031	4
496.383	4.16
496.734	4.2
497.086	4.25
497.437	4.15
497.788	4.1
498.139	4.26
498.49	4.17
498.842	4.16
499.193	4.19
499.544	4.22
499.894	4.27
500.245	4.16
500.596	4.26
500.947	4.19
501.298	4.22
501.648	4.14
501.999	4.2
502.35	4.28
502.7	4.28
503.051	4.18
503.401	4.42
503.752	4.32
504.102	4.33
504.452	4.29
504.803	4.21
505.153	4.31
505.503	4.28
505.853	4.31
506.203	4.15
506.553	4.22
506.903	4.32
507.253	4.28
507.603	4.13
507.953	4.24
508.303	4.2
508.652	4.26
509.002	4.33
509.352	4.29
509.701	4.25
510.051	4.26
510.4	4.24
510.75	4.23
511.099	4.31
511.449	4.3
511.798	4.25
512.147	4.28
512.496	4.25
512.846	4.25
513.195	4.31
513.544	4.29
513.893	4.23
514.242	4.33
514.591	4.27
514.939	4.14
515.288	4.3
515.637	4.33
515.986	4.44
516.334	4.38
516.683	4.36
517.032	4.28
517.38	4.31
517.729	4.41
518.077	4.37
518.426	4.47
518.774	4.26
519.122	4.41
519.47	4.35
519.819	4.31
520.167	4.28
520.515	4.32
520.863	4.36
521.211	4.37
521.559	4.36
521.907	4.39
522.255	4.36
522.602	4.48
522.95	4.39
523.298	4.47
523.645	4.39
523.993	4.34
524.341	4.39
524.688	4.43
525.036	4.44
525.383	4.33
525.73	4.56
526.078	4.39
526.425	4.52
526.772	4.41
527.119	4.42
527.466	4.38
527.814	4.46
528.161	4.41
528.508	4.35
528.854	4.41
529.201	4.36
529.548	4.5
529.895	4.44
530.242	4.3
530.588	4.24
530.935	4.24
531.282	4.29
531.628	4.34
531.975	4.33
532.321	4.38
532.667	4.42
533.014	4.44
533.36	4.53
533.706	4.58
534.052	4.59
534.399	4.55
534.745	4.41
535.091	4.41
535.437	4.51
535.783	4.45
536.129	4.5
536.474	4.51
536.82	4.59
537.166	4.58
537.512	4.63
537.857	4.66
538.203	4.6
538.549	4.62
538.894	4.53
539.239	4.67
539.585	4.58
539.93	4.69
540.276	4.79
540.621	4.66
540.966	4.72
541.311	4.86
541.656	4.82
542.001	4.72
542.346	4.83
542.691	4.65
543.036	4.62
543.381	4.53
543.726	4.55
544.071	4.62
544.415	4.63
544.76	4.64
545.105	4.7
545.449	4.76
545.794	4.73
546.138	4.76
546.483	4.82
546.827	4.78
547.171	4.97
547.516	4.85
547.86	4.94
548.204	4.71
548.548	4.86
548.892	4.75
549.236	4.94
549.58	4.81
549.924	4.81
550.268	4.91
550.612	5.02
550.956	5.16
551.3	5.01
551.643	4.95
551.987	5.2
552.33	5.18
552.674	5.09
553.017	5.09
553.361	5.22
553.704	5.24
554.048	5.2
554.391	5.25
554.734	5.17
555.077	5.09
555.42	5
555.764	5.09
556.107	5.31
556.45	5.12
556.793	5.12
557.135	5.13
557.478	5.14
557.821	5.21
558.164	5.28
558.507	5.35
558.849	5.37
559.192	5.37
559.534	5.39
559.877	5.32
560.219	5.39
560.562	5.28
560.904	5.1
561.246	5.5
561.589	5.31
561.931	5.34
562.273	5.47
562.615	5.59
562.957	5.43
563.299	5.5
563.641	5.46
563.983	5.46
564.325	5.56
564.667	5.51
565.008	5.47
565.35	5.54
565.692	5.55
566.033	5.54
566.375	5.54
566.716	5.56
567.058	5.53
567.399	5.53
567.741	5.6
568.082	5.68
568.423	5.77
568.764	5.5
569.105	5.71
569.447	5.63
569.788	5.72
570.129	5.68
570.47	5.75
570.811	5.87
571.151	5.69
571.492	5.74
571.833	5.97
572.174	5.97
572.514	5.82
572.855	5.77
573.195	6.08
573.536	5.74
573.876	5.96
574.217	5.8
574.557	5.75
574.898	5.74
575.238	5.76
575.578	6
575.918	5.79
576.258	6.07
576.598	5.99
576.938	6.07
577.278	5.99
577.618	5.89
577.958	5.93
578.298	6.03
578.638	6.04
578.977	5.95
579.317	6.19
579.657	6.31
579.996	6.24
580.336	6.49
580.675	6.16
581.014	6.21
581.354	6.38
581.693	6.42
582.032	6.29
582.372	6.18
582.711	6.52
583.05	6.57
583.389	6.22
583.728	6.11
584.067	6.57
584.406	6.51
584.745	6.29
585.083	6.45
585.422	6.36
585.761	6.46
586.1	6.61
586.438	6.21
586.777	6.62
587.115	6.89
587.454	6.41
587.792	6.66
588.13	6.88
588.469	6.63
588.807	6.33
589.145	6.68
589.483	6.54
589.821	6.8
590.159	6.8
590.497	6.68
590.835	6.77
591.173	6.91
591.511	6.78
591.849	6.68
592.187	6.79
592.524	6.63
592.862	6.87
593.2	6.81
593.537	6.77
593.875	6.98
594.212	7.12
594.55	7.02
594.887	7.02
595.224	6.96
595.561	6.87
595.899	6.96
596.236	7.11
596.573	7.24
596.91	7.12
597.247	7.16
597.584	6.84
597.921	7.18
598.258	6.91
598.594	7.38
598.931	6.86
599.268	7.02
599.604	7.15
599.941	7.07
600.277	7.15
600.614	7.44
600.95	7.29
601.287	7.14
601.623	7.47
601.959	7.29
602.296	7.19
602.632	7.26
602.968	7.31
603.304	7.34
603.64	7.45
603.976	7.56
604.312	7.63
604.648	7.5
604.984	7.57
605.319	7.53
605.655	7.5
605.991	7.34
606.326	7.51
606.662	7.34
606.998	7.17
607.333	7.61
607.668	7.38
608.004	7.66
608.339	7.47
608.674	7.88
609.01	7.87
609.345	7.86
609.68	8.16
610.015	7.68
610.35	7.79
610.685	8.08
611.02	7.68
611.355	7.58
611.689	7.67
612.024	7.9
612.359	7.77
612.694	7.93
613.028	8.08
613.363	7.94
613.697	8.04
614.032	8.12
614.366	8.17
614.7	8.1
615.035	8.14
615.369	8.27
615.703	7.95
616.037	8.29
616.371	8.48
616.705	8.47
617.039	8.33
617.373	8.58
617.707	8.77
618.041	8.21
618.375	8.16
618.709	8.51
619.042	8.43
619.376	8.75
619.71	8.71
620.043	8.71
620.377	8.22
620.71	8.55
621.043	8.53
621.377	8.56
621.71	8.54
622.043	8.66
622.376	8.76
622.709	8.65
623.043	8.52
623.376	8.81
623.709	8.49
624.041	8.51
624.374	8.78
624.707	8.87
625.04	8.96
625.373	9.2
625.705	8.47
626.038	8.9
626.37	8.52
626.703	8.9
627.035	8.59
627.368	8.76
627.7	9.42
628.032	9.03
628.365	9.01
628.697	9.07
629.029	9.37
629.361	8.92
629.693	8.99
630.025	9.02
630.357	9.07
630.689	8.97
631.021	9.5
631.353	9.23
631.684	8.96
632.016	9.59
632.348	9.31
632.679	8.85
633.011	9.42
633.342	9.15
633.674	9.23
634.005	9.08
634.336	9.98
634.668	9.41
634.999	9.68
635.33	9.37
635.661	9.82
635.992	9.5
636.323	9.56
636.654	9.56
636.985	9.53
637.316	9.65
637.647	9.71
637.977	9.51
638.308	9.46
638.639	9.95
638.969	10
639.3	9.36
639.63	9.67
639.961	9.69
640.291	10.14
640.622	9.74
640.952	10.11
641.282	9.79
641.612	9.93
641.943	9.75
642.273	9.94
642.603	10.31
642.933	10.09
643.263	10.37
643.592	10.24
643.922	10.54
644.252	10.09
644.582	10.14
644.911	10.35
645.241	10.44
645.571	10.83
645.9	10.31
646.23	10.39
646.559	10.56
646.888	10.27
647.218	10.36
647.547	10.26
647.876	10.56
648.205	10.78
648.534	10.51
648.863	10.51
649.192	10.23
649.521	10.45
649.85	10.79
650.179	10.14
650.508	10.79
650.837	10.81
651.165	10.99
651.494	10.41
651.822	10.81
652.151	11
652.479	11.2
652.808	10.89
653.136	11.07
653.465	10.85
653.793	11.02
654.121	11.23
654.449	10.82
654.777	11.01
655.105	11.04
655.433	11.55
655.761	11.27
656.089	11.37
656.417	11.26
656.745	11.39
657.073	11.02
657.4	12.31
657.728	11.33
658.056	11.67
658.383	11.36
658.711	11.19
659.038	11.31
659.365	11.63
659.693	11.1
660.02	11.34
660.347	11.59
660.674	11.57
661.001	11.45
661.329	11.83
661.656	11.75
661.982	11.45
662.309	11.41
662.636	11.29
662.963	11.48
663.29	11.43
663.616	11.85
663.943	11.5
664.27	11.97
664.596	11.46
664.923	11.92
665.249	12.02
665.576	12.25
665.902	12.06
666.228	12.29
666.554	12.27
666.881	11.76
667.207	11.96
667.533	12
667.859	11.67
668.185	12.16
668.511	12.63
668.837	12.62
669.162	12.88
669.488	12.15
669.814	11.86
670.139	12.4
670.465	12
670.791	12.55
671.116	12.34
671.442	12.91
671.767	12.5
672.092	12.38
672.418	12.51
672.743	12.78
673.068	13.29
673.393	12.93
673.718	12.4
674.043	12.57
674.368	12.35
674.693	12.6
675.018	12.89
675.343	12.96
675.667	12.37
675.992	13.43
676.317	13.2
676.641	13.02
676.966	13.2
677.29	13.06
677.615	12.84
677.939	13.21
678.264	12.99
678.588	12.17
678.912	12.93
679.236	12.4
679.56	12.96
679.885	13.48
680.209	13.2
680.532	12.64
680.856	12.55
681.18	13.21
681.504	13.48
681.828	13.6
682.152	12.89
682.475	12.95
682.799	13.46
683.122	13.42
683.446	13.1
683.769	13.46
684.093	14.24
684.416	13.87
684.739	13.46
685.062	12.96
685.386	13.09
685.709	13.79
686.032	13.45
686.355	14.05
686.678	13.51
687.001	14.07
687.324	13.53
687.646	13.56
687.969	13.8
688.292	14.41
688.614	13.89
688.937	14.15
689.26	13.9
