Data from 0237_chest_Reflection__2__64.txt Node

Date: Fri Oct 20 21:10:30 CDT 2023
User: ToomeyLab
Spectrometer: FLMS14357
Trigger mode: 0
Integration Time (sec): 1.000000E-2
Scans to average: 100
Electric dark correction enabled: true
Nonlinearity correction enabled: false
Boxcar width: 0
XAxis mode: Wavelengths
Number of Pixels in Spectrum: 2048
>>>>>Begin Spectral Data<<<<<
189.047	115.81
189.435	115.81
189.823	115.81
190.211	-564.56
190.599	-440.11
190.987	89.19
191.375	848.68
191.763	67.49
192.151	1661.68
192.538	10.4
192.926	353.05
193.314	26.64
193.702	6.6
194.089	49.32
194.477	288.74
194.864	-836.07
195.252	38.88
195.639	3818.1
196.027	66.88
196.414	58.12
196.801	72.54
197.189	45.36
197.576	67.89
197.963	2351.5
198.351	39.16
198.738	10.18
199.125	43.25
199.512	49.59
199.899	9.14
200.286	2.93
200.673	21.06
201.06	45.77
201.447	2.05
201.833	43.88
202.22	15.09
202.607	31.88
202.994	44.99
203.38	19.74
203.767	14.01
204.154	32.75
204.54	44.79
204.927	7.17
205.313	-5.15
205.699	45.85
206.086	27.12
206.472	41.3
206.858	23.81
207.245	30.06
207.631	22.58
208.017	2.62
208.403	12.16
208.789	51.94
209.175	28.39
209.561	21.48
209.947	18.01
210.333	16.38
210.719	0.17
211.105	25.24
211.491	27.54
211.876	6.58
212.262	39.65
212.648	11.97
213.034	-11.4
213.419	13.76
213.805	25.95
214.19	-0.33
214.576	14.23
214.961	5.44
215.346	22.66
215.732	15.97
216.117	-15.87
216.502	28.47
216.888	-1.98
217.273	13.25
217.658	8.62
218.043	16.89
218.428	9.12
218.813	-1.37
219.198	30.23
219.583	-13.09
219.968	1.12
220.353	22.11
220.738	29.39
221.122	-13.04
221.507	-1.48
221.892	14.64
222.276	6.02
222.661	23.8
223.046	9.66
223.43	7.97
223.815	9.5
224.199	16.75
224.583	3.96
224.968	-8.14
225.352	3.35
225.736	12.12
226.121	5.92
226.505	4.52
226.889	4.98
227.273	5.74
227.657	10.82
228.041	10.7
228.425	1.7
228.809	1.27
229.193	2.47
229.577	4.91
229.961	2.79
230.344	1.77
230.728	1.54
231.112	2.92
231.495	1.59
231.879	2.11
232.263	2.35
232.646	1.93
233.03	1.95
233.413	2.46
233.797	1.71
234.18	3.87
234.563	3.41
234.946	3.47
235.33	1.02
235.713	3.55
236.096	4
236.479	1.34
236.862	2.41
237.245	3.11
237.628	2.34
238.011	3.16
238.394	1.16
238.777	3.79
239.16	1.51
239.543	5.12
239.925	4.41
240.308	2.71
240.691	1.59
241.073	4.15
241.456	3.12
241.838	2.72
242.221	3.01
242.603	2.63
242.986	2.73
243.368	2.82
243.75	2.78
244.133	2.4
244.515	2.21
244.897	1.79
245.279	2.63
245.661	2.04
246.043	1.75
246.425	2.12
246.807	1.97
247.189	2.12
247.571	1.05
247.953	2.26
248.335	2.38
248.717	1.75
249.098	1.82
249.48	1.9
249.862	2.22
250.243	2.37
250.625	1.94
251.006	2.4
251.388	2.57
251.769	2.76
252.151	1.77
252.532	2.26
252.913	2.13
253.295	1.32
253.676	2.22
254.057	2.11
254.438	2.14
254.819	2.73
255.2	2.16
255.581	1.64
255.962	2.26
256.343	2.27
256.724	1.39
257.105	2.14
257.486	2.67
257.867	1.8
258.247	3.08
258.628	2.46
259.009	1.16
259.389	1.9
259.77	1.77
260.15	2.02
260.531	2.21
260.911	2.07
261.292	1.82
261.672	2.03
262.052	2.11
262.432	2.02
262.813	2
263.193	1.85
263.573	1.51
263.953	2.27
264.333	2.09
264.713	2.18
265.093	2.97
265.473	2.42
265.853	2.51
266.233	2.78
266.612	2.37
266.992	2.04
267.372	2.64
267.752	2.21
268.131	2.22
268.511	2.51
268.89	2.02
269.27	1.85
269.649	1.51
270.029	2.17
270.408	2.77
270.787	2.45
271.167	2.13
271.546	2.08
271.925	2.44
272.304	2.47
272.683	2.02
273.062	2.13
273.441	2.07
273.82	2.44
274.199	2.24
274.578	1.98
274.957	2.32
275.336	2.44
275.715	2.59
276.093	2.22
276.472	2.29
276.851	1.95
277.229	2.63
277.608	2.07
277.986	1.85
278.365	2.15
278.743	2.49
279.122	2.12
279.5	2.09
279.878	1.63
280.257	1.8
280.635	2.36
281.013	2.51
281.391	1.99
281.769	1.84
282.147	2.11
282.525	2.71
282.903	2.51
283.281	2.18
283.659	2.26
284.037	2.72
284.415	1.77
284.792	1.7
285.17	2.14
285.548	2.12
285.925	1.83
286.303	2.2
286.68	2.24
287.058	2.61
287.435	2.5
287.813	1.65
288.19	2.17
288.567	2.27
288.945	2.38
289.322	2.32
289.699	1.49
290.076	2.64
290.453	2.2
290.83	1.91
291.207	2.51
291.584	2
291.961	2.09
292.338	2.03
292.715	2.29
293.092	2.04
293.469	2.29
293.845	2
294.222	1.93
294.599	2.08
294.975	2.38
295.352	2.69
295.728	2.39
296.105	2.08
296.481	2.31
296.858	2.17
297.234	2.64
297.61	1.92
297.986	2.37
298.363	2.19
298.739	2.35
299.115	2.08
299.491	2.28
299.867	2.5
300.243	2.51
300.619	2.18
300.995	2.21
301.371	2.28
301.746	2.36
302.122	2.64
302.498	2.33
302.874	2.45
303.249	2.72
303.625	2.31
304	2.7
304.376	2.12
304.751	2.56
305.127	1.87
305.502	3.05
305.878	2.57
306.253	2.52
306.628	2.64
307.003	2.44
307.378	2.62
307.754	2.34
308.129	3.03
308.504	2.65
308.879	2.66
309.254	2.94
309.629	1.92
310.003	2.63
310.378	2.64
310.753	2.37
311.128	2.78
311.502	2.77
311.877	2.6
312.252	2.46
312.626	2.67
313.001	2.88
313.375	2.43
313.75	2.73
314.124	2.14
314.498	2.53
314.873	2.54
315.247	3.02
315.621	2.7
315.995	2.82
316.369	2.47
316.743	2.99
317.117	2.49
317.491	2.43
317.865	2.62
318.239	2.66
318.613	2.93
318.987	2.33
319.361	1.93
319.734	2.76
320.108	2.28
320.482	2.78
320.855	3.08
321.229	3.19
321.602	2.68
321.976	2.48
322.349	3.02
322.723	2.71
323.096	3.06
323.469	2.59
323.843	2.97
324.216	2.87
324.589	2.48
324.962	2.83
325.335	2.65
325.708	2.9
326.081	2.9
326.454	3.32
326.827	3.22
327.2	3.08
327.573	2.77
327.945	2.78
328.318	2.71
328.691	2.88
329.063	2.92
329.436	2.24
329.809	3.14
330.181	3.43
330.553	3.35
330.926	2.58
331.298	2.72
331.671	2.59
332.043	2.7
332.415	3.02
332.787	3.31
333.159	2.41
333.532	3.53
333.904	2.83
334.276	2.56
334.648	3.04
335.02	3.06
335.391	2.98
335.763	3.31
336.135	2.77
336.507	2.53
336.879	2.69
337.25	2.91
337.622	2.94
337.993	3.34
338.365	2.99
338.736	2.87
339.108	3.3
339.479	2.98
339.851	2.99
340.222	2.72
340.593	2.5
340.964	2.6
341.336	3.39
341.707	2.77
342.078	3.41
342.449	3
342.82	2.94
343.191	2.67
343.562	3.04
343.933	2.78
344.303	2.99
344.674	3.43
345.045	3.38
345.416	3.07
345.786	2.88
346.157	3.56
346.527	2.28
346.898	3.3
347.268	3.1
347.639	3.1
348.009	3.05
348.38	3.18
348.75	3.08
349.12	2.87
349.49	3.03
349.861	3.26
350.231	2.7
350.601	3.3
350.971	3.13
351.341	3.26
351.711	3.27
352.081	3.19
352.45	3
352.82	3.1
353.19	3.01
353.56	2.91
353.929	3.14
354.299	3.1
354.669	3.2
355.038	3.65
355.408	2.96
355.777	3.37
356.147	3.01
356.516	2.97
356.885	3.09
357.254	3.22
357.624	3.21
357.993	2.9
358.362	3.12
358.731	2.77
359.1	2.72
359.469	2.99
359.838	3.21
360.207	2.92
360.576	3.33
360.945	2.92
361.314	3.08
361.682	3.01
362.051	2.92
362.42	2.95
362.788	3.25
363.157	3.31
363.525	2.92
363.894	2.98
364.262	2.95
364.631	3.17
364.999	2.92
365.367	3.25
365.735	3.09
366.104	2.89
366.472	2.92
366.84	3.39
367.208	2.91
367.576	3.15
367.944	3.17
368.312	3.16
368.68	3.25
369.048	3.26
369.416	3.27
369.783	3.25
370.151	3.26
370.519	3.43
370.886	3.34
371.254	3.24
371.621	3.64
371.989	2.86
372.356	3.07
372.724	3.66
373.091	3.11
373.458	3.1
373.826	3.31
374.193	3.02
374.56	3.38
374.927	3.49
375.294	3.37
375.661	3.49
376.028	3.47
376.395	3.47
376.762	3.02
377.129	2.95
377.496	3.25
377.863	3.21
378.229	3.22
378.596	3.29
378.963	3.15
379.329	3.46
379.696	3.12
380.062	3.09
380.429	3.42
380.795	3.3
381.161	3.45
381.528	3.46
381.894	3.44
382.26	3.31
382.626	3.43
382.993	3.37
383.359	3.5
383.725	3.69
384.091	3.38
384.457	3.36
384.823	3.34
385.188	3.44
385.554	3.58
385.92	3.28
386.286	3.86
386.651	3.12
387.017	3.5
387.383	3.43
387.748	3.05
388.114	2.96
388.479	3.42
388.845	3.37
389.21	3.27
389.575	3.29
389.94	3.36
390.306	3.33
390.671	3.36
391.036	3.18
391.401	3.38
391.766	3.3
392.131	3.21
392.496	3.43
392.861	3.35
393.226	3.61
393.591	3.42
393.956	3.35
394.32	3.55
394.685	3.1
395.05	3.66
395.414	3.54
395.779	3.41
396.143	3.54
396.508	3.31
396.872	3.56
397.236	3.59
397.601	3.42
397.965	3.22
398.329	3.36
398.694	3.52
399.058	3.26
399.422	3.49
399.786	3.27
400.15	3.33
400.514	3.45
400.878	3.41
401.242	3.71
401.605	3.55
401.969	3.28
402.333	3.42
402.697	3.71
403.06	3.52
403.424	3.46
403.787	3.67
404.151	3.59
404.514	3.67
404.878	3.69
405.241	3.53
405.604	3.46
405.968	3.6
406.331	3.47
406.694	3.62
407.057	3.37
407.42	3.78
407.783	3.62
408.146	3.52
408.509	3.7
408.872	3.72
409.235	3.57
409.598	3.57
409.961	3.62
410.323	3.63
410.686	3.5
411.049	3.45
411.411	3.6
411.774	3.88
412.136	3.7
412.499	3.6
412.861	3.75
413.223	3.68
413.586	3.62
413.948	3.65
414.31	3.95
414.672	3.42
415.035	3.67
415.397	3.84
415.759	3.63
416.121	3.55
416.483	3.81
416.845	3.61
417.206	3.69
417.568	3.76
417.93	3.6
418.292	3.57
418.653	3.72
419.015	3.7
419.377	3.54
419.738	3.48
420.1	3.62
420.461	3.59
420.822	3.55
421.184	3.54
421.545	3.71
421.906	3.56
422.267	3.52
422.629	3.63
422.99	3.43
423.351	3.51
423.712	3.52
424.073	3.7
424.434	3.51
424.795	3.56
425.155	3.59
425.516	3.64
425.877	3.64
426.238	3.5
426.598	3.67
426.959	3.52
427.32	3.57
427.68	3.6
428.041	3.56
428.401	3.78
428.761	3.61
429.122	3.62
429.482	3.55
429.842	3.6
430.202	3.78
430.563	3.64
430.923	3.93
431.283	3.73
431.643	3.93
432.003	3.92
432.363	3.64
432.722	3.75
433.082	3.78
433.442	3.64
433.802	3.92
434.161	3.59
434.521	3.9
434.881	3.8
435.24	3.86
435.6	3.74
435.959	3.84
436.319	3.88
436.678	3.81
437.037	3.85
437.396	3.83
437.756	3.94
438.115	3.69
438.474	3.89
438.833	3.95
439.192	3.85
439.551	3.81
439.91	3.97
440.269	3.93
440.628	3.87
440.987	3.83
441.345	3.71
441.704	3.92
442.063	3.79
442.421	3.74
442.78	3.74
443.138	3.92
443.497	3.9
443.855	3.88
444.214	3.87
444.572	3.85
444.93	3.83
445.288	4.03
445.647	4.07
446.005	3.8
446.363	3.94
446.721	3.81
447.079	3.94
447.437	3.86
447.795	3.88
448.153	3.78
448.51	3.89
448.868	3.84
449.226	3.79
449.584	3.94
449.941	3.87
450.299	3.87
450.656	3.69
451.014	3.94
451.371	3.93
451.729	3.85
452.086	3.86
452.443	3.96
452.801	3.88
453.158	4.07
453.515	3.96
453.872	4.01
454.229	4.19
454.586	4.01
454.943	3.93
455.3	3.99
455.657	3.99
456.014	3.88
456.371	4.08
456.727	4.15
457.084	4.14
457.441	4.11
457.797	4.06
458.154	3.89
458.51	4.2
458.867	4.05
459.223	4.11
459.58	4.01
459.936	4.16
460.292	4.08
460.648	3.86
461.005	4.01
461.361	4.03
461.717	3.9
462.073	3.97
462.429	4.03
462.785	4.06
463.141	4.08
463.496	4.15
463.852	4.02
464.208	4.16
464.564	4.23
464.919	4.09
465.275	4.24
465.631	4.28
465.986	4.32
466.342	4.32
466.697	4.31
467.052	4.05
467.408	4.17
467.763	4.3
468.118	4.36
468.473	4.29
468.829	4.24
469.184	4.02
469.539	4.25
469.894	4.12
470.249	4.17
470.603	4.14
470.958	4.35
471.313	4.29
471.668	4.35
472.023	4.38
472.377	4.26
472.732	4.25
473.086	4.45
473.441	4.38
473.795	4.55
474.15	4.45
474.504	4.2
474.859	4.29
475.213	4.27
475.567	4.38
475.921	4.27
476.275	4.37
476.63	4.56
476.984	4.32
477.338	4.29
477.692	4.29
478.045	4.33
478.399	4.39
478.753	4.39
479.107	4.37
479.461	4.37
479.814	4.54
480.168	4.44
480.521	4.43
480.875	4.39
481.228	4.36
481.582	4.42
481.935	4.42
482.289	4.46
482.642	4.35
482.995	4.28
483.348	4.33
483.701	4.3
484.055	4.26
484.408	4.27
484.761	4.28
485.114	4.24
485.466	4.21
485.819	4.16
486.172	4.08
486.525	4.11
486.878	4.15
487.23	4.17
487.583	4.19
487.936	4.24
488.288	4.29
488.641	4.34
488.993	4.28
489.345	4.26
489.698	4.26
490.05	4.24
490.402	4.17
490.754	4.29
491.107	4.23
491.459	4.33
491.811	4.38
492.163	4.43
492.515	4.45
492.866	4.51
493.218	4.37
493.57	4.32
493.922	4.33
494.274	4.29
494.625	4.37
494.977	4.36
495.328	4.47
495.68	4.52
496.031	4.48
496.383	4.6
496.734	4.62
497.086	4.63
497.437	4.56
497.788	4.57
498.139	4.8
498.49	4.67
498.842	4.57
499.193	4.66
499.544	4.62
499.894	4.66
500.245	4.52
500.596	4.54
500.947	4.67
501.298	4.63
501.648	4.62
501.999	4.74
502.35	4.57
502.7	4.81
503.051	4.76
503.401	4.89
503.752	4.74
504.102	4.82
504.452	4.68
504.803	4.6
505.153	4.74
505.503	4.62
505.853	4.89
506.203	4.71
506.553	4.72
506.903	4.74
507.253	4.92
507.603	4.82
507.953	4.74
508.303	4.75
508.652	4.84
509.002	4.85
509.352	4.84
509.701	4.88
510.051	4.85
510.4	4.89
510.75	4.84
511.099	4.85
511.449	4.93
511.798	4.89
512.147	4.88
512.496	4.94
512.846	4.9
513.195	4.93
513.544	4.93
513.893	4.87
514.242	4.96
514.591	4.9
514.939	4.83
515.288	4.89
515.637	4.99
515.986	4.93
516.334	5.01
516.683	5.01
517.032	4.95
517.38	5
517.729	5.04
518.077	4.93
518.426	4.9
518.774	5.03
519.122	4.96
519.47	5.12
519.819	4.89
520.167	5
520.515	5.01
520.863	5.05
521.211	4.98
521.559	5.12
521.907	5.08
522.255	5.01
522.602	5.11
522.95	5.05
523.298	5.16
523.645	5.07
523.993	5.27
524.341	5.12
524.688	5.12
525.036	5.11
525.383	5.16
525.73	5.42
526.078	5.19
526.425	5.35
526.772	5.12
527.119	5.18
527.466	5.21
527.814	5.16
528.161	5.2
528.508	5.13
528.854	5.19
529.201	5.18
529.548	5.35
529.895	5.21
530.242	5.13
530.588	5.07
530.935	5.06
531.282	5.15
531.628	5.17
531.975	5.12
532.321	5.24
532.667	5.24
533.014	5.38
533.36	5.4
533.706	5.33
534.052	5.44
534.399	5.3
534.745	5.23
535.091	5.33
535.437	5.37
535.783	5.36
536.129	5.39
536.474	5.45
536.82	5.49
537.166	5.47
537.512	5.55
537.857	5.61
538.203	5.52
538.549	5.61
538.894	5.5
539.239	5.43
539.585	5.53
539.93	5.56
540.276	5.69
540.621	5.67
540.966	5.74
541.311	5.59
541.656	5.75
542.001	5.79
542.346	5.85
542.691	5.67
543.036	5.68
543.381	5.6
543.726	5.56
544.071	5.56
544.415	5.62
544.76	5.62
545.105	5.73
545.449	5.74
545.794	5.76
546.138	5.77
546.483	5.84
546.827	5.94
547.171	6.04
547.516	5.83
547.86	5.9
548.204	5.81
548.548	5.99
548.892	6.02
549.236	5.97
549.58	5.93
549.924	5.95
550.268	6.04
550.612	6.15
550.956	6.21
551.3	6.25
551.643	6.16
551.987	6.38
552.33	6.13
552.674	6.18
553.017	6.25
553.361	6.29
553.704	6.35
554.048	6.36
554.391	6.27
554.734	6.24
555.077	6.21
555.42	6.1
555.764	6.3
556.107	6.58
556.45	6.5
556.793	6.19
557.135	6.26
557.478	6.41
557.821	6.67
558.164	6.5
558.507	6.65
558.849	6.81
559.192	6.65
559.534	6.61
559.877	6.31
560.219	6.72
560.562	6.76
560.904	6.45
561.246	6.69
561.589	6.61
561.931	6.59
562.273	6.76
562.615	6.81
562.957	6.82
563.299	6.74
563.641	6.76
563.983	6.67
564.325	6.7
564.667	6.75
565.008	6.86
565.35	6.9
565.692	6.9
566.033	6.85
566.375	6.85
566.716	7.09
567.058	7.01
567.399	6.99
567.741	6.92
568.082	6.97
568.423	6.92
568.764	6.83
569.105	7.06
569.447	7.05
569.788	6.86
570.129	7.05
570.47	7.09
570.811	7.18
571.151	7.18
571.492	7.2
571.833	7.48
572.174	7.33
572.514	7.34
572.855	7.18
573.195	7.29
573.536	7.23
573.876	7.28
574.217	7.1
574.557	7.11
574.898	7.05
575.238	7.14
575.578	7.29
575.918	7.31
576.258	7.39
576.598	7.35
576.938	7.39
577.278	7.32
577.618	7.42
577.958	7.45
578.298	7.2
578.638	7.5
578.977	7.57
579.317	7.6
579.657	7.56
579.996	7.62
580.336	7.65
580.675	7.69
581.014	7.6
581.354	7.61
581.693	7.88
582.032	8.12
582.372	7.74
582.711	7.84
583.05	8.08
583.389	7.91
583.728	7.89
584.067	7.84
584.406	8.12
584.745	7.89
585.083	7.84
585.422	7.98
585.761	8.05
586.1	8.04
586.438	7.74
586.777	8.05
587.115	8.03
587.454	8.09
587.792	7.91
588.13	8.36
588.469	8.28
588.807	8
589.145	8.1
589.483	8.25
589.821	8.1
590.159	8.3
590.497	8.4
590.835	8.25
591.173	8.15
591.511	8.51
591.849	8.26
592.187	8.35
592.524	8.26
592.862	8.48
593.2	8.57
593.537	8.26
593.875	8.31
594.212	8.65
594.55	8.56
594.887	8.67
595.224	8.55
595.561	8.49
595.899	8.54
596.236	8.68
596.573	8.73
596.91	8.71
597.247	8.68
597.584	8.58
597.921	8.81
598.258	8.99
598.594	9.02
598.931	8.73
599.268	8.72
599.604	8.87
599.941	8.58
600.277	8.71
600.614	8.67
600.95	8.89
601.287	8.69
601.623	9.12
601.959	8.95
602.296	9.04
602.632	9.22
602.968	8.88
603.304	9.16
603.64	8.89
603.976	8.96
604.312	9.2
604.648	9.07
604.984	9.3
605.319	9.35
605.655	9.05
605.991	9.3
606.326	9.28
606.662	9.11
606.998	9.06
607.333	9.14
607.668	9.08
608.004	9.19
608.339	9.35
608.674	9.62
609.01	9.55
609.345	9.82
609.68	9.44
610.015	9.41
610.35	9.49
610.685	9.88
611.02	9.54
611.355	9.52
611.689	9.63
612.024	9.57
612.359	9.62
612.694	9.63
613.028	9.71
613.363	9.54
613.697	9.74
614.032	9.62
614.366	9.89
614.7	9.8
615.035	10.15
615.369	9.96
615.703	9.57
616.037	10.02
616.371	9.69
616.705	9.77
617.039	9.92
617.373	10.12
617.707	10.25
618.041	9.98
618.375	10.07
618.709	9.9
619.042	10.18
619.376	10.52
619.71	10.18
620.043	10.44
620.377	10.07
620.71	10.52
621.043	10.57
621.377	10.43
621.71	10.29
622.043	10.37
622.376	10.65
622.709	10.43
623.043	10.72
623.376	10.43
623.709	10.49
624.041	10.75
624.374	10.38
624.707	10.57
625.04	10.66
625.373	10.82
625.705	10.4
626.038	11.06
626.37	10.54
626.703	10.6
627.035	10.58
627.368	10.77
627.7	10.95
628.032	10.99
628.365	10.95
628.697	10.99
629.029	10.87
629.361	10.67
629.693	10.84
630.025	11.13
630.357	10.94
630.689	11
631.021	11.33
631.353	11.28
631.684	10.97
632.016	11.04
632.348	11.21
632.679	10.84
633.011	11.33
633.342	11.09
633.674	11.37
634.005	11.28
634.336	11.71
634.668	10.99
634.999	11.39
635.33	10.98
635.661	11.41
635.992	11.45
636.323	11.83
636.654	11.66
636.985	11.34
637.316	11.66
637.647	11.33
637.977	11.23
638.308	12.06
638.639	11.44
638.969	11.61
639.3	11.24
639.63	11.79
639.961	11.73
640.291	11.69
640.622	11.67
640.952	11.63
641.282	11.36
641.612	12.03
641.943	12.05
642.273	11.73
642.603	12.11
642.933	12.17
643.263	12.31
643.592	11.9
643.922	12.36
644.252	11.79
644.582	11.86
644.911	12.02
645.241	12.24
645.571	12.58
645.9	12.31
646.23	12.17
646.559	11.9
646.888	12.65
647.218	12.52
647.547	12.1
647.876	12.01
648.205	12.14
648.534	12.21
648.863	12.07
649.192	12.1
649.521	12.36
649.85	12.68
650.179	12.56
650.508	12.44
650.837	12.72
651.165	12.64
651.494	12.58
651.822	12.86
652.151	13.01
652.479	12.84
652.808	12.52
653.136	12.57
653.465	13.28
653.793	12.93
654.121	12.96
654.449	12.72
654.777	12.76
655.105	12.9
655.433	13.44
655.761	13.01
656.089	13.31
656.417	13.26
656.745	12.92
657.073	13.05
657.4	13.59
657.728	13.32
658.056	13.28
658.383	13.36
658.711	12.72
659.038	13.44
659.365	13.44
659.693	13.37
660.02	13.69
660.347	13.07
660.674	13.49
661.001	13.55
661.329	13.37
661.656	13.3
661.982	13.24
662.309	13.61
662.636	13.66
662.963	13.53
663.29	13.52
663.616	13.63
663.943	13.37
664.27	13.76
664.596	13.91
664.923	13.31
665.249	13.66
665.576	13.86
665.902	14.28
666.228	13.85
666.554	14.19
666.881	13.25
667.207	14.23
667.533	14.15
667.859	13.95
668.185	14.35
668.511	14.33
668.837	14.26
669.162	14.27
669.488	13.96
669.814	13.78
670.139	14.37
670.465	13.93
670.791	14.1
671.116	14.23
671.442	14.27
671.767	13.93
672.092	14.03
672.418	14.01
672.743	14.27
673.068	14.35
673.393	14.27
673.718	14.68
674.043	14.12
674.368	14.59
674.693	14.83
675.018	15.22
675.343	14.97
675.667	14.58
675.992	14.6
676.317	14.08
676.641	14.76
676.966	14.38
677.29	14.79
677.615	14.42
677.939	14.84
678.264	15.02
678.588	14.15
678.912	14.85
679.236	15.25
679.56	14.53
679.885	15.09
680.209	14.87
680.532	14.99
680.856	14.83
681.18	15.12
681.504	15.2
681.828	15.68
682.152	16.04
682.475	14.86
682.799	15.63
683.122	15.14
683.446	15.32
683.769	15.22
684.093	15.87
684.416	15.46
684.739	15.41
685.062	15.03
685.386	15.42
685.709	15.02
686.032	15.58
686.355	15.26
686.678	15.41
687.001	15.58
687.324	14.96
687.646	15.79
