Data from 0237_forehead_Reflection__3__76.txt Node

Date: Fri Oct 20 21:14:25 CDT 2023
User: ToomeyLab
Spectrometer: FLMS14357
Trigger mode: 0
Integration Time (sec): 1.000000E-2
Scans to average: 100
Electric dark correction enabled: true
Nonlinearity correction enabled: false
Boxcar width: 0
XAxis mode: Wavelengths
Number of Pixels in Spectrum: 2048
>>>>>Begin Spectral Data<<<<<
189.047	-61.07
189.435	-61.07
189.823	-61.07
190.211	-38.38
190.599	-1059.35
190.987	51.44
191.375	391.32
191.763	91.18
192.151	969.46
192.538	30.67
192.926	387.89
193.314	74.76
193.702	124.6
194.089	94.68
194.477	-42.5
194.864	428.22
195.252	6.3
195.639	4263.81
196.027	-0.21
196.414	115.12
196.801	80.19
197.189	61.69
197.576	36.73
197.963	873.65
198.351	50.54
198.738	81.53
199.125	59.08
199.512	65.88
199.899	47.84
200.286	-10.62
200.673	47.18
201.06	21.96
201.447	29.4
201.833	27.33
202.22	55.66
202.607	68.45
202.994	70.69
203.38	12.82
203.767	38.14
204.154	71.05
204.54	68.33
204.927	39.74
205.313	31.17
205.699	62.89
206.086	41.44
206.472	54.41
206.858	43.18
207.245	10.95
207.631	28.09
208.017	42.59
208.403	45.61
208.789	47.18
209.175	13.02
209.561	49.9
209.947	39.66
210.333	34.25
210.719	-4.21
211.105	34.25
211.491	36.99
211.876	39.23
212.262	39.58
212.648	64.08
213.034	47.51
213.419	28.66
213.805	5.74
214.19	37.19
214.576	21.04
214.961	37.18
215.346	42.65
215.732	35.16
216.117	-24.42
216.502	1.74
216.888	32.62
217.273	21.8
217.658	27.23
218.043	13.92
218.428	19.25
218.813	24.43
219.198	15.54
219.583	-7.67
219.968	14.45
220.353	27.22
220.738	18.95
221.122	21.37
221.507	28.86
221.892	28.19
222.276	13.46
222.661	27.17
223.046	27.05
223.43	23.24
223.815	21.71
224.199	19.68
224.583	5.47
224.968	7.42
225.352	4.26
225.736	14.48
226.121	15.59
226.505	10.63
226.889	10.24
227.273	12.89
227.657	13.5
228.041	14.82
228.425	5.2
228.809	9.57
229.193	9.24
229.577	8.11
229.961	7.42
230.344	6.91
230.728	4.95
231.112	5.97
231.495	5.24
231.879	5.42
232.263	7.63
232.646	5.64
233.03	6.8
233.413	5.83
233.797	5.44
234.18	6.96
234.563	9.58
234.946	8.48
235.33	7.02
235.713	6.71
236.096	7.78
236.479	7.19
236.862	6.55
237.245	5.42
237.628	7.23
238.011	7.23
238.394	5.16
238.777	6.78
239.16	5.02
239.543	7.61
239.925	9.18
240.308	7.81
240.691	6.3
241.073	8.79
241.456	7.21
241.838	6.97
242.221	6.64
242.603	6.1
242.986	6.14
243.368	6.26
243.75	6.33
244.133	5.62
244.515	5.17
244.897	5.64
245.279	5.56
245.661	5.41
246.043	5.92
246.425	6.06
246.807	6.25
247.189	6.51
247.571	6.22
247.953	5.96
248.335	5.99
248.717	5.61
249.098	5.41
249.48	5.55
249.862	5.71
250.243	5.8
250.625	5.82
251.006	5.63
251.388	5.98
251.769	6.77
252.151	5.4
252.532	6.85
252.913	6.72
253.295	5.82
253.676	6.12
254.057	5.87
254.438	6.06
254.819	5.46
255.2	6.13
255.581	6.34
255.962	6.57
256.343	6.78
256.724	5.78
257.105	7.43
257.486	7.44
257.867	6.17
258.247	6.26
258.628	6.83
259.009	5.42
259.389	5.64
259.77	5.39
260.15	5.71
260.531	5.92
260.911	6.06
261.292	5.73
261.672	5.73
262.052	5.73
262.432	5.59
262.813	5.69
263.193	5.91
263.573	5.49
263.953	5.56
264.333	6.37
264.713	6.29
265.093	6.14
265.473	6.06
265.853	6.23
266.233	5.92
266.612	6.35
266.992	6.02
267.372	5.55
267.752	5.65
268.131	6.48
268.511	6.16
268.89	5.64
269.27	5.31
269.649	5
270.029	5.59
270.408	6.09
270.787	5.76
271.167	6.08
271.546	5.85
271.925	6.23
272.304	6.14
272.683	5.8
273.062	5.95
273.441	6.1
273.82	5.68
274.199	5.79
274.578	5.88
274.957	5.81
275.336	5.82
275.715	5.75
276.093	5.58
276.472	6
276.851	6.22
277.229	6.11
277.608	5.17
277.986	5.68
278.365	5.98
278.743	5.67
279.122	5.56
279.5	5.48
279.878	5.01
280.257	6.23
280.635	6.31
281.013	6.2
281.391	6
281.769	5.91
282.147	5.24
282.525	6.05
282.903	5.88
283.281	5.58
283.659	5.47
284.037	5.81
284.415	5.01
284.792	5.58
285.17	5.55
285.548	5.58
285.925	5.59
286.303	5.71
286.68	5.38
287.058	5.79
287.435	6.2
287.813	5.34
288.19	5.87
288.567	5.7
288.945	5.86
289.322	6.06
289.699	5.53
290.076	6.21
290.453	6.22
290.83	5.85
291.207	6.1
291.584	5.76
291.961	6.1
292.338	5.75
292.715	6.35
293.092	5.92
293.469	6.09
293.845	5.78
294.222	6.49
294.599	6.25
294.975	7.36
295.352	6.6
295.728	6.6
296.105	6.58
296.481	6.47
296.858	6.42
297.234	6.93
297.61	5.84
297.986	6.1
298.363	6.63
298.739	6.49
299.115	6.53
299.491	6.83
299.867	6.73
300.243	6.71
300.619	6.82
300.995	6.7
301.371	7.09
301.746	7.03
302.122	7.24
302.498	7.13
302.874	7.02
303.249	7.36
303.625	7.32
304	7.71
304.376	7.42
304.751	7.1
305.127	7.48
305.502	8.37
305.878	7.58
306.253	7.44
306.628	7.77
307.003	7.64
307.378	7.65
307.754	7.92
308.129	8.28
308.504	8.16
308.879	7.91
309.254	8.55
309.629	7.7
310.003	7.57
310.378	8.72
310.753	8.39
311.128	8.45
311.502	8.3
311.877	8.2
312.252	8.14
312.626	8.6
313.001	8.39
313.375	8.44
313.75	8.51
314.124	8.65
314.498	8.82
314.873	8.46
315.247	8.7
315.621	9.31
315.995	9.4
316.369	9.03
316.743	9.15
317.117	9.35
317.491	8.83
317.865	10.21
318.239	9.69
318.613	9.92
318.987	9.64
319.361	9.34
319.734	9.91
320.108	9.34
320.482	9.92
320.855	9.78
321.229	10.43
321.602	10.12
321.976	10.12
322.349	10.51
322.723	10.22
323.096	10.28
323.469	10.17
323.843	10.67
324.216	10.63
324.589	10.7
324.962	10.4
325.335	10.39
325.708	10.77
326.081	11.22
326.454	10.71
326.827	10.82
327.2	11.38
327.573	10.87
327.945	11.07
328.318	10.76
328.691	10.75
329.063	11.41
329.436	10.86
329.809	11.43
330.181	11.57
330.553	11.48
330.926	11.08
331.298	11.62
331.671	11.15
332.043	11.14
332.415	11.42
332.787	11.79
333.159	11.66
333.532	11.58
333.904	11.94
334.276	11.62
334.648	11.76
335.02	11.64
335.391	11.43
335.763	12.07
336.135	12.19
336.507	11.66
336.879	12.16
337.25	12.13
337.622	12.31
337.993	12.42
338.365	12.2
338.736	11.96
339.108	12.56
339.479	12.28
339.851	12.57
340.222	12.33
340.593	12.47
340.964	12.04
341.336	12.96
341.707	12.54
342.078	12.78
342.449	12.59
342.82	12.69
343.191	12.83
343.562	12.85
343.933	12.61
344.303	13.16
344.674	13.37
345.045	13.49
345.416	13.62
345.786	13.27
346.157	13.19
346.527	13.38
346.898	13.22
347.268	13.39
347.639	13.36
348.009	13.32
348.38	13.44
348.75	13.72
349.12	13.63
349.49	13.47
349.861	13.91
350.231	13.47
350.601	13.35
350.971	13.92
351.341	14.33
351.711	14.42
352.081	14.11
352.45	14.01
352.82	14.31
353.19	14.33
353.56	14.12
353.929	14.42
354.299	14.14
354.669	14.3
355.038	14.43
355.408	14.45
355.777	14.2
356.147	14.35
356.516	14.46
356.885	14.33
357.254	14.47
357.624	14.73
357.993	14.31
358.362	14.73
358.731	14.37
359.1	14.18
359.469	14.71
359.838	14.86
360.207	14.72
360.576	15.16
360.945	14.64
361.314	14.83
361.682	14.94
362.051	14.8
362.42	15.03
362.788	15.02
363.157	15.13
363.525	14.94
363.894	15.22
364.262	15.09
364.631	15.21
364.999	15.5
365.367	15.54
365.735	15.52
366.104	15.41
366.472	15.8
366.84	16.02
367.208	15.77
367.576	15.88
367.944	15.87
368.312	15.72
368.68	16.25
369.048	15.93
369.416	16.21
369.783	16.64
370.151	16.2
370.519	16.1
370.886	16.71
371.254	16.6
371.621	16.09
371.989	16.18
372.356	16.66
372.724	16.74
373.091	16.77
373.458	16.67
373.826	16.51
374.193	16.49
374.56	16.8
374.927	16.61
375.294	17.03
375.661	16.76
376.028	16.9
376.395	16.95
376.762	16.73
377.129	17.14
377.496	16.94
377.863	17.4
378.229	17.27
378.596	17.6
378.963	17.39
379.329	17.23
379.696	17.41
380.062	17.3
380.429	17.37
380.795	17.44
381.161	17.65
381.528	17.87
381.894	17.84
382.26	17.82
382.626	18
382.993	18.01
383.359	17.67
383.725	18.07
384.091	18.37
384.457	18.36
384.823	18.01
385.188	18.43
385.554	18.35
385.92	18.32
386.286	18.2
386.651	18.05
387.017	18.64
387.383	18.57
387.748	18.38
388.114	18.38
388.479	18.67
388.845	18.89
389.21	18.5
389.575	18.18
389.94	18.5
390.306	18.54
390.671	18.59
391.036	18.91
391.401	19.24
391.766	19.25
392.131	18.93
392.496	19.19
392.861	19.08
393.226	18.79
393.591	19.06
393.956	19.49
394.32	19.36
394.685	19.42
395.05	19.71
395.414	19.85
395.779	19.56
396.143	19.59
396.508	19.5
396.872	19.75
397.236	19.75
397.601	19.51
397.965	19.73
398.329	19.9
398.694	20.15
399.058	19.75
399.422	20.11
399.786	19.86
400.15	19.88
400.514	20.11
400.878	20.09
401.242	20.37
401.605	20.55
401.969	20.38
402.333	20.33
402.697	20.65
403.06	20.44
403.424	20.52
403.787	20.73
404.151	20.71
404.514	21
404.878	20.88
405.241	20.8
405.604	20.98
405.968	20.67
406.331	20.78
406.694	20.68
407.057	20.88
407.42	21.12
407.783	21.25
408.146	21.14
408.509	21.33
408.872	21.62
409.235	21.44
409.598	21.3
409.961	21.34
410.323	21.59
410.686	21.35
411.049	21.51
411.411	21.5
411.774	21.72
412.136	21.86
412.499	21.67
412.861	21.91
413.223	22.11
413.586	22.07
413.948	21.82
414.31	22.15
414.672	21.87
415.035	22.29
415.397	22.18
415.759	22.4
416.121	22.22
416.483	22.47
416.845	22.11
417.206	22.29
417.568	22.37
417.93	22.6
418.292	22.55
418.653	22.41
419.015	22.44
419.377	22.29
419.738	22.54
420.1	22.39
420.461	22.41
420.822	22.35
421.184	22.42
421.545	22.51
421.906	22.46
422.267	22.57
422.629	22.54
422.99	22.46
423.351	22.48
423.712	22.58
424.073	22.66
424.434	22.83
424.795	22.95
425.155	22.78
425.516	22.97
425.877	22.91
426.238	22.91
426.598	22.95
426.959	22.98
427.32	22.98
427.68	23.23
428.041	23.37
428.401	23.37
428.761	23.42
429.122	23.73
429.482	23.73
429.842	23.87
430.202	23.93
430.563	23.96
430.923	24.1
431.283	24.09
431.643	24.01
432.003	24.46
432.363	24.17
432.722	24.4
433.082	24.57
433.442	24.35
433.802	24.6
434.161	24.31
434.521	24.31
434.881	24.44
435.24	24.5
435.6	24.62
435.959	24.5
436.319	24.54
436.678	24.9
437.037	24.69
437.396	24.93
437.756	24.77
438.115	24.91
438.474	25.1
438.833	25.17
439.192	25.2
439.551	25.11
439.91	25.27
440.269	25.19
440.628	25.42
440.987	25.29
441.345	25.25
441.704	25.21
442.063	25.28
442.421	25.21
442.78	25.39
443.138	25.3
443.497	25.52
443.855	25.69
444.214	25.74
444.572	25.69
444.93	25.79
445.288	25.91
445.647	26.13
446.005	25.82
446.363	25.98
446.721	25.97
447.079	26.08
447.437	25.87
447.795	25.95
448.153	25.81
448.51	25.91
448.868	25.88
449.226	25.94
449.584	26.01
449.941	25.97
450.299	26.26
450.656	26.38
451.014	26.5
451.371	26.55
451.729	26.75
452.086	26.71
452.443	26.74
452.801	26.83
453.158	27.03
453.515	26.74
453.872	27.15
454.229	27.17
454.586	27.14
454.943	27.06
455.3	27.17
455.657	27.16
456.014	27.27
456.371	27.6
456.727	27.46
457.084	27.77
457.441	27.88
457.797	27.8
458.154	27.73
458.51	27.65
458.867	27.81
459.223	27.73
459.58	27.88
459.936	28.03
460.292	27.9
460.648	27.73
461.005	27.73
461.361	27.93
461.717	27.71
462.073	27.6
462.429	27.76
462.785	27.88
463.141	27.98
463.496	28.04
463.852	28.23
464.208	28.57
464.564	28.39
464.919	28.52
465.275	28.67
465.631	28.75
465.986	28.64
466.342	28.96
466.697	28.91
467.052	28.99
467.408	28.87
467.763	29.15
468.118	29.28
468.473	29.21
468.829	29.18
469.184	29.16
469.539	29.18
469.894	29.33
470.249	29.38
470.603	29.3
470.958	29.68
471.313	29.49
471.668	29.55
472.023	29.73
472.377	29.72
472.732	29.72
473.086	29.96
473.441	29.91
473.795	30.14
474.15	29.8
474.504	29.91
474.859	29.9
475.213	30.05
475.567	30.03
475.921	30.02
476.275	30.34
476.63	30.4
476.984	30.43
477.338	30.43
477.692	30.46
478.045	30.5
478.399	30.42
478.753	30.45
479.107	30.48
479.461	30.62
479.814	30.71
480.168	30.53
480.521	30.7
480.875	30.63
481.228	30.73
481.582	30.75
481.935	30.88
482.289	31.05
482.642	30.79
482.995	30.95
483.348	31.07
483.701	30.78
484.055	30.61
484.408	30.66
484.761	30.7
485.114	30.5
485.466	30.19
485.819	30.17
486.172	30.29
486.525	30.4
486.878	30.3
487.23	30.46
487.583	30.57
487.936	30.84
488.288	30.92
488.641	30.91
488.993	30.89
489.345	30.83
489.698	30.84
490.05	30.77
490.402	30.92
490.754	30.95
491.107	31.05
491.459	31.35
491.811	31.52
492.163	31.67
492.515	31.8
492.866	31.91
493.218	31.64
493.57	31.5
493.922	31.47
494.274	31.51
494.625	31.66
494.977	31.79
495.328	32.08
495.68	32.24
496.031	32.59
496.383	32.83
496.734	32.78
497.086	32.88
497.437	33.11
497.788	33.15
498.139	33.11
498.49	32.97
498.842	33.02
499.193	33.08
499.544	33.05
499.894	32.91
500.245	33.2
500.596	33.35
500.947	33.35
501.298	33.49
501.648	33.29
501.999	33.53
502.35	33.73
502.7	33.87
503.051	33.81
503.401	34.04
503.752	34.02
504.102	34.12
504.452	34.22
504.803	34.09
505.153	34.21
505.503	34.41
505.853	34.3
506.203	34.12
506.553	34.28
506.903	34.45
507.253	34.62
507.603	34.59
507.953	34.47
508.303	34.63
508.652	34.63
509.002	34.72
509.352	34.74
509.701	34.71
510.051	34.68
510.4	34.68
510.75	34.71
511.099	34.9
511.449	34.82
511.798	34.79
512.147	34.94
512.496	34.95
512.846	35.04
513.195	35.18
513.544	35.13
513.893	35.12
514.242	35.15
514.591	35.15
514.939	35.28
515.288	35.38
515.637	35.45
515.986	35.57
516.334	35.72
516.683	35.68
517.032	35.65
517.38	35.91
517.729	35.86
518.077	35.99
518.426	35.91
518.774	35.97
519.122	35.97
519.47	35.98
519.819	35.82
520.167	35.8
520.515	35.87
520.863	35.93
521.211	35.83
521.559	35.88
521.907	36.06
522.255	36.06
522.602	36.32
522.95	36.49
523.298	36.66
523.645	36.64
523.993	36.76
524.341	36.68
524.688	36.99
525.036	36.95
525.383	36.95
525.73	37.01
526.078	37.04
526.425	37.08
526.772	36.9
527.119	36.98
527.466	36.75
527.814	36.69
528.161	36.87
528.508	36.81
528.854	36.92
529.201	36.83
529.548	36.97
529.895	36.93
530.242	36.6
530.588	36.67
530.935	36.88
531.282	36.81
531.628	36.69
531.975	36.56
532.321	36.87
532.667	37.16
533.014	37.32
533.36	37.54
533.706	37.58
534.052	37.77
534.399	37.75
534.745	37.79
535.091	37.51
535.437	37.57
535.783	37.58
536.129	37.72
536.474	37.7
536.82	37.95
537.166	37.81
537.512	38.32
537.857	38.44
538.203	38.28
538.549	38.41
538.894	38.53
539.239	38.38
539.585	38.54
539.93	38.58
540.276	38.8
540.621	38.84
540.966	39.04
541.311	39.08
541.656	39.54
542.001	39.14
542.346	39.06
542.691	38.93
543.036	38.83
543.381	38.64
543.726	38.61
544.071	38.69
544.415	38.65
544.76	38.76
545.105	39.01
545.449	39.21
545.794	39.28
546.138	39.35
546.483	39.41
546.827	39.64
547.171	39.83
547.516	39.8
547.86	39.89
548.204	39.91
548.548	39.94
548.892	39.91
549.236	39.99
549.58	40.06
549.924	40.15
550.268	40.25
550.612	40.49
550.956	40.56
551.3	40.63
551.643	40.86
551.987	41.09
552.33	41.16
552.674	41.11
553.017	41.27
553.361	41.45
553.704	41.15
554.048	41.36
554.391	41.19
554.734	41.03
555.077	41.53
555.42	41.25
555.764	41.37
556.107	41.35
556.45	41.65
556.793	41.71
557.135	41.75
557.478	41.92
557.821	42.1
558.164	42.13
558.507	42.24
558.849	42.04
559.192	42.17
559.534	42.45
559.877	42.32
560.219	42.43
560.562	42.41
560.904	42.44
561.246	42.63
561.589	42.66
561.931	42.66
562.273	42.67
562.615	42.69
562.957	42.71
563.299	43.16
563.641	42.98
563.983	42.66
564.325	42.87
564.667	42.77
565.008	42.75
565.35	43.22
565.692	43.02
566.033	43.12
566.375	43.32
566.716	43.2
567.058	43.43
567.399	43.57
567.741	43.3
568.082	43.36
568.423	43.38
568.764	43.31
569.105	43.37
569.447	43.31
569.788	43.56
570.129	43.74
570.47	43.66
570.811	43.75
571.151	43.72
571.492	44.13
571.833	44.23
572.174	44.11
572.514	43.83
572.855	44.02
573.195	44.2
573.536	43.79
573.876	44.14
574.217	44.11
574.557	43.8
574.898	44.12
575.238	44.2
575.578	44.43
575.918	44.44
576.258	44.45
576.598	44.58
576.938	44.58
577.278	44.6
577.618	44.51
577.958	44.79
578.298	44.79
578.638	44.96
578.977	44.75
579.317	44.84
579.657	45.12
579.996	45.01
580.336	45.54
580.675	45.34
581.014	45.29
581.354	45.5
581.693	45.56
582.032	45.78
582.372	45.85
582.711	45.57
583.05	46.02
583.389	45.7
583.728	45.88
584.067	46.14
584.406	46.03
584.745	46.11
585.083	46.1
585.422	46.09
585.761	46.3
586.1	46.58
586.438	46.44
586.777	46.23
587.115	46.58
587.454	46.23
587.792	46.37
588.13	45.92
588.469	46.42
588.807	46.23
589.145	46.53
589.483	46.55
589.821	46.91
590.159	46.9
590.497	46.71
590.835	46.86
591.173	46.88
591.511	47.07
591.849	46.51
592.187	46.87
592.524	46.98
592.862	47.05
593.2	46.8
593.537	46.9
593.875	47.23
594.212	47.23
594.55	47.39
594.887	47.59
595.224	47.24
595.561	47.07
595.899	47.58
596.236	47.72
596.573	47.69
596.91	47.48
597.247	47.59
597.584	47.64
597.921	47.52
598.258	47.67
598.594	47.81
598.931	47.44
599.268	47.71
599.604	47.85
599.941	47.62
600.277	47.49
600.614	47.9
600.95	47.65
601.287	47.98
601.623	48.14
601.959	48.33
602.296	48.03
602.632	48.56
602.968	48.54
603.304	48.76
603.64	48.71
603.976	48.63
604.312	48.45
604.648	48.73
604.984	48.76
605.319	48.81
605.655	48.65
605.991	48.52
606.326	48.54
606.662	48.52
606.998	48.66
607.333	48.48
607.668	48.4
608.004	48.77
608.339	48.81
608.674	48.77
609.01	49.25
609.345	49.24
609.68	49.19
610.015	49.3
610.35	49.65
610.685	49.46
611.02	49.43
611.355	49.44
611.689	49.43
612.024	49.4
612.359	49.29
612.694	49.25
613.028	49.7
613.363	49.89
613.697	49.72
614.032	50.13
614.366	49.8
614.7	49.79
615.035	49.92
615.369	50.15
615.703	49.88
616.037	50.34
616.371	50.5
616.705	50.26
617.039	50.67
617.373	50.49
617.707	50.3
618.041	50.29
618.375	50.6
618.709	51.04
619.042	51.02
619.376	50.91
619.71	50.4
620.043	51.09
620.377	50.72
620.71	51.61
621.043	51.04
621.377	50.9
621.71	51.06
622.043	50.92
622.376	51.19
622.709	51.04
623.043	51.38
623.376	51.43
623.709	50.99
624.041	51.14
624.374	51.16
624.707	51.28
625.04	51.22
625.373	51.6
625.705	51.81
626.038	51.83
626.37	51.32
626.703	51.22
627.035	51.47
627.368	52.16
627.7	52.02
628.032	51.57
628.365	51.63
628.697	52.23
629.029	51.71
629.361	51.76
629.693	52.03
630.025	51.66
630.357	52.16
630.689	51.86
631.021	52.18
631.353	52.29
631.684	51.8
632.016	52.23
632.348	52.06
632.679	52.34
633.011	52.79
633.342	52.19
633.674	52.5
634.005	52.79
634.336	53.01
634.668	52.52
634.999	52.52
635.33	52.67
635.661	52.62
635.992	52.52
636.323	52.81
636.654	53.21
636.985	52.4
637.316	53.01
637.647	52.79
637.977	53.01
638.308	53.13
638.639	52.96
638.969	53.42
639.3	53.38
639.63	53.11
639.961	53.95
640.291	53.4
640.622	53.31
640.952	53.6
641.282	53.33
641.612	53.7
641.943	53.47
642.273	53.39
642.603	53.9
642.933	53.82
643.263	54.41
643.592	53.92
643.922	54.39
644.252	54.09
644.582	53.97
644.911	54.65
645.241	53.95
645.571	54.2
645.9	54.82
646.23	54.05
646.559	54.29
646.888	54.24
647.218	54.22
647.547	54.15
647.876	54.85
648.205	54.62
648.534	54.65
648.863	54.17
649.192	54.74
649.521	54.22
649.85	54.81
650.179	54.15
650.508	54.35
650.837	54.83
651.165	54.53
651.494	54.81
651.822	54.66
652.151	54.74
652.479	55.18
652.808	54.89
653.136	54.68
653.465	55.63
653.793	54.82
654.121	55.18
654.449	55.27
654.777	55
655.105	55.11
655.433	55.41
655.761	55.71
656.089	55.09
656.417	55.53
656.745	55.46
657.073	54.62
657.4	55.61
657.728	55.46
658.056	55.43
658.383	55.4
658.711	55.6
659.038	55.4
659.365	55.77
659.693	55.22
660.02	55.23
660.347	55.54
660.674	55.77
661.001	56.13
661.329	56.03
661.656	56.01
661.982	56.13
662.309	55.96
662.636	56.05
662.963	56.01
663.29	55.66
663.616	56.11
663.943	56.71
664.27	56.28
664.596	55.94
664.923	56.11
665.249	55.76
665.576	56.21
665.902	56.15
666.228	56.49
666.554	56.53
666.881	55.89
667.207	56.78
667.533	57.02
667.859	56.76
668.185	57.13
668.511	56.41
668.837	56.15
669.162	57.03
