Data from 0237_forehead_Reflection__2__75.txt Node

Date: Fri Oct 20 21:14:15 CDT 2023
User: ToomeyLab
Spectrometer: FLMS14357
Trigger mode: 0
Integration Time (sec): 1.000000E-2
Scans to average: 100
Electric dark correction enabled: true
Nonlinearity correction enabled: false
Boxcar width: 0
XAxis mode: Wavelengths
Number of Pixels in Spectrum: 2048
>>>>>Begin Spectral Data<<<<<
189.047	43.83
189.435	43.83
189.823	43.83
190.211	-523.66
190.599	-241.74
190.987	145.68
191.375	-572.08
191.763	219.46
192.151	-232.34
192.538	-120.53
192.926	422.42
193.314	65.51
193.702	24.14
194.089	46.49
194.477	-70.42
194.864	-216.07
195.252	-32.59
195.639	369.52
196.027	-432.55
196.414	139.43
196.801	194.41
197.189	118.09
197.576	-59.08
197.963	380.84
198.351	58.34
198.738	90.04
199.125	58.09
199.512	81.3
199.899	45.84
200.286	-6.48
200.673	49.44
201.06	74.09
201.447	26.75
201.833	58.79
202.22	43.98
202.607	54.53
202.994	57.67
203.38	45.23
203.767	38.32
204.154	36.24
204.54	55.86
204.927	41.68
205.313	32.75
205.699	55.86
206.086	36.56
206.472	65.23
206.858	77.82
207.245	58.44
207.631	43.27
208.017	48.63
208.403	15.75
208.789	64.75
209.175	43.33
209.561	67.04
209.947	23.62
210.333	60.97
210.719	46.4
211.105	35.45
211.491	48.33
211.876	33.58
212.262	53.14
212.648	55.78
213.034	28.66
213.419	30.92
213.805	25.38
214.19	19.39
214.576	5.49
214.961	13.8
215.346	38.77
215.732	56.22
216.117	-23.93
216.502	10.23
216.888	54.48
217.273	15.33
217.658	33.24
218.043	51.45
218.428	20.36
218.813	19.39
219.198	48.19
219.583	8.46
219.968	3.17
220.353	45.34
220.738	22.06
221.122	18.66
221.507	25.86
221.892	12.49
222.276	33.94
222.661	27.24
223.046	26.55
223.43	17.64
223.815	25.76
224.199	23.46
224.583	4.47
224.968	10.63
225.352	12.52
225.736	12.14
226.121	10.21
226.505	18.04
226.889	16.75
227.273	13.2
227.657	15.65
228.041	14.13
228.425	8
228.809	10.53
229.193	6.46
229.577	7.75
229.961	7.31
230.344	5.67
230.728	4.1
231.112	5.61
231.495	4.6
231.879	6.39
232.263	6.7
232.646	4.13
233.03	5.25
233.413	5.46
233.797	5.11
234.18	5.63
234.563	9.4
234.946	10.18
235.33	8.07
235.713	6.19
236.096	8.59
236.479	5.23
236.862	6.79
237.245	6.08
237.628	7.26
238.011	6.76
238.394	6.24
238.777	7.25
239.16	5.8
239.543	7.49
239.925	8.6
240.308	6.18
240.691	6.44
241.073	8.07
241.456	6.06
241.838	6.15
242.221	6.01
242.603	6.11
242.986	6.32
243.368	6.53
243.75	4.8
244.133	4.9
244.515	4.84
244.897	5
245.279	5.12
245.661	4.99
246.043	5.22
246.425	5.74
246.807	5.83
247.189	5.15
247.571	5.3
247.953	5.44
248.335	5.75
248.717	4.95
249.098	4.75
249.48	4.84
249.862	5.05
250.243	5.18
250.625	5.41
251.006	5.35
251.388	5.32
251.769	6.08
252.151	4.85
252.532	5.24
252.913	5.29
253.295	4.97
253.676	5.59
254.057	4.7
254.438	5.19
254.819	5.74
255.2	5.73
255.581	5.42
255.962	5.84
256.343	5.68
256.724	4.83
257.105	5.91
257.486	6.2
257.867	5.6
258.247	5.43
258.628	6.5
259.009	5.03
259.389	4.74
259.77	5.08
260.15	5.3
260.531	5.89
260.911	5.61
261.292	4.96
261.672	5.2
262.052	5.03
262.432	4.85
262.813	4.77
263.193	5.66
263.573	4.95
263.953	5.57
264.333	5.12
264.713	5.92
265.093	6.1
265.473	6.05
265.853	5.4
266.233	5.45
266.612	5.65
266.992	5.91
267.372	5.33
267.752	5.16
268.131	5.73
268.511	5.43
268.89	5.23
269.27	4.43
269.649	4.73
270.029	5.76
270.408	5.12
270.787	5.55
271.167	5.52
271.546	5.62
271.925	6.01
272.304	5.53
272.683	5.86
273.062	5.38
273.441	5.22
273.82	4.95
274.199	5.47
274.578	5.55
274.957	5.52
275.336	4.88
275.715	5.66
276.093	5.37
276.472	5.27
276.851	5.24
277.229	5.22
277.608	5.14
277.986	5.09
278.365	5.65
278.743	5.04
279.122	4.82
279.5	5
279.878	4.42
280.257	4.75
280.635	5.48
281.013	5.17
281.391	5.43
281.769	5.26
282.147	4.86
282.525	5.5
282.903	5.23
283.281	5.51
283.659	4.8
284.037	5.19
284.415	5.01
284.792	5.05
285.17	5.65
285.548	4.78
285.925	4.97
286.303	4.94
286.68	5.05
287.058	5.56
287.435	5.12
287.813	4.88
288.19	5
288.567	5.18
288.945	5.53
289.322	5.83
289.699	4.76
290.076	5.45
290.453	5.02
290.83	5.29
291.207	5.67
291.584	5.42
291.961	5.35
292.338	5.38
292.715	5.58
293.092	5.23
293.469	5.91
293.845	5.65
294.222	5.46
294.599	5.6
294.975	6.71
295.352	5.76
295.728	6.02
296.105	5.78
296.481	5.85
296.858	5.69
297.234	6.28
297.61	5.81
297.986	5.7
298.363	5.85
298.739	5.89
299.115	5.82
299.491	6.07
299.867	5.97
300.243	6.04
300.619	5.99
300.995	5.76
301.371	6.75
301.746	6.36
302.122	6.84
302.498	6.34
302.874	6.67
303.249	6.51
303.625	6.92
304	7.02
304.376	6.47
304.751	6.45
305.127	6.35
305.502	7.34
305.878	6.88
306.253	6.86
306.628	7.07
307.003	6.94
307.378	6.78
307.754	6.95
308.129	7.11
308.504	7.87
308.879	7.4
309.254	8.07
309.629	6.99
310.003	7.56
310.378	7.84
310.753	7.68
311.128	7.54
311.502	7.46
311.877	7.44
312.252	7.66
312.626	7.58
313.001	7.44
313.375	7.61
313.75	7.82
314.124	7.78
314.498	8.04
314.873	7.93
315.247	8.07
315.621	8.26
315.995	7.98
316.369	8.07
316.743	8.55
317.117	8.44
317.491	8.24
317.865	8.74
318.239	8.94
318.613	8.57
318.987	8.35
319.361	8.54
319.734	8.33
320.108	8.87
320.482	8.92
320.855	9.74
321.229	9.83
321.602	9.04
321.976	9.31
322.349	9.24
322.723	9.1
323.096	9.39
323.469	8.9
323.843	9.06
324.216	9.4
324.589	9.29
324.962	9.63
325.335	9.43
325.708	9.55
326.081	9.77
326.454	9.99
326.827	10.06
327.2	9.93
327.573	10.25
327.945	10.02
328.318	9.41
328.691	9.82
329.063	10.33
329.436	9.96
329.809	10.27
330.181	10.27
330.553	10.14
330.926	10.41
331.298	10.46
331.671	10.08
332.043	9.82
332.415	10.85
332.787	10.96
333.159	10.29
333.532	10.67
333.904	11.14
334.276	10.43
334.648	10.54
335.02	11.03
335.391	10.38
335.763	11.28
336.135	10.48
336.507	10.91
336.879	11.18
337.25	10.88
337.622	11.21
337.993	11.52
338.365	10.95
338.736	10.85
339.108	11.27
339.479	10.89
339.851	11.2
340.222	10.67
340.593	10.58
340.964	10.92
341.336	11.9
341.707	11.25
342.078	11.6
342.449	11.35
342.82	11.34
343.191	11.13
343.562	11.53
343.933	11.38
344.303	11.56
344.674	12.18
345.045	11.78
345.416	12.01
345.786	11.75
346.157	12.24
346.527	11.98
346.898	12.15
347.268	12.4
347.639	12.19
348.009	12.06
348.38	12.17
348.75	11.82
349.12	12.33
349.49	12.32
349.861	12.56
350.231	12.47
350.601	12.23
350.971	12.6
351.341	12.64
351.711	13.05
352.081	12.65
352.45	12.86
352.82	12.53
353.19	13.12
353.56	12.62
353.929	12.64
354.299	12.95
354.669	12.75
355.038	12.97
355.408	13.29
355.777	13.2
356.147	12.83
356.516	12.94
356.885	13
357.254	13.26
357.624	13.1
357.993	12.75
358.362	13.32
358.731	12.87
359.1	13.04
359.469	13.28
359.838	13.63
360.207	13.43
360.576	13.8
360.945	13.36
361.314	13.56
361.682	13.57
362.051	13.47
362.42	13.36
362.788	13.66
363.157	13.69
363.525	13.65
363.894	13.64
364.262	13.59
364.631	14.01
364.999	14.16
365.367	13.88
365.735	13.8
366.104	13.91
366.472	14.32
366.84	14.43
367.208	14.12
367.576	13.96
367.944	14.62
368.312	14.29
368.68	14.6
369.048	14.81
369.416	14.62
369.783	14.85
370.151	14.71
370.519	14.56
370.886	14.87
371.254	14.87
371.621	15.31
371.989	14.73
372.356	14.85
372.724	15.04
373.091	14.81
373.458	14.85
373.826	14.85
374.193	14.92
374.56	15.05
374.927	15.25
375.294	15.38
375.661	15.31
376.028	15.55
376.395	15.84
376.762	15.17
377.129	15.33
377.496	15.29
377.863	15.66
378.229	15.71
378.596	15.59
378.963	15.61
379.329	15.75
379.696	15.93
380.062	15.89
380.429	15.55
380.795	16.04
381.161	16.1
381.528	16.3
381.894	15.88
382.26	16.15
382.626	16.49
382.993	16.3
383.359	16.39
383.725	16.4
384.091	16.5
384.457	16.3
384.823	16.61
385.188	16.67
385.554	16.66
385.92	16.37
386.286	16.57
386.651	16.75
387.017	16.63
387.383	16.49
387.748	16.79
388.114	16.65
388.479	16.82
388.845	16.79
389.21	16.85
389.575	16.73
389.94	16.98
390.306	16.81
390.671	17.01
391.036	16.98
391.401	17.12
391.766	17.24
392.131	17.2
392.496	17.31
392.861	17.37
393.226	17.52
393.591	17.3
393.956	17.28
394.32	17.48
394.685	17.48
395.05	17.68
395.414	18.1
395.779	17.79
396.143	17.79
396.508	17.75
396.872	17.72
397.236	17.9
397.601	17.74
397.965	17.93
398.329	18.21
398.694	18.28
399.058	18.11
399.422	18.16
399.786	18.21
400.15	18.19
400.514	18.27
400.878	18.29
401.242	18.29
401.605	18.3
401.969	18.52
402.333	18.53
402.697	18.69
403.06	18.64
403.424	18.78
403.787	18.7
404.151	18.71
404.514	18.85
404.878	18.97
405.241	19.22
405.604	18.82
405.968	18.95
406.331	18.62
406.694	18.71
407.057	19.08
407.42	19.26
407.783	19.04
408.146	19.2
408.509	19.31
408.872	19.25
409.235	19.34
409.598	19.48
409.961	19.49
410.323	19.51
410.686	19.32
411.049	19.53
411.411	19.66
411.774	19.54
412.136	19.65
412.499	19.64
412.861	19.56
413.223	19.6
413.586	19.7
413.948	20.08
414.31	20
414.672	19.89
415.035	20.08
415.397	20.16
415.759	19.91
416.121	20.26
416.483	20.34
416.845	20.3
417.206	20.34
417.568	20.29
417.93	20.56
418.292	20.15
418.653	20.46
419.015	20.46
419.377	20.33
419.738	20.25
420.1	20.19
420.461	20.48
420.822	20.33
421.184	20.46
421.545	20.36
421.906	20.41
422.267	20.43
422.629	20.36
422.99	20.1
423.351	20.32
423.712	20.38
424.073	20.43
424.434	20.61
424.795	20.65
425.155	20.64
425.516	20.72
425.877	20.76
426.238	20.67
426.598	20.73
426.959	20.81
427.32	20.99
427.68	21.02
428.041	20.98
428.401	21.19
428.761	21.32
429.122	21.4
429.482	21.35
429.842	21.43
430.202	21.51
430.563	21.59
430.923	21.71
431.283	21.91
431.643	21.67
432.003	22.03
432.363	21.92
432.722	22.03
433.082	22.1
433.442	22.02
433.802	22.02
434.161	21.97
434.521	22.13
434.881	22.19
435.24	22.16
435.6	22.28
435.959	22.2
436.319	22.11
436.678	22.4
437.037	22.36
437.396	22.5
437.756	22.62
438.115	22.58
438.474	22.72
438.833	22.84
439.192	22.74
439.551	22.66
439.91	22.7
440.269	22.85
440.628	22.87
440.987	22.84
441.345	22.85
441.704	22.8
442.063	22.7
442.421	22.92
442.78	22.75
443.138	22.91
443.497	22.95
443.855	23.09
444.214	23.16
444.572	23.15
444.93	23.24
445.288	23.55
445.647	23.59
446.005	23.15
446.363	23.49
446.721	23.35
447.079	23.47
447.437	23.55
447.795	23.33
448.153	23.33
448.51	23.44
448.868	23.5
449.226	23.39
449.584	23.5
449.941	23.56
450.299	24.01
450.656	23.72
451.014	23.87
451.371	23.94
451.729	23.96
452.086	24.01
452.443	24.44
452.801	24.32
453.158	24.51
453.515	24.41
453.872	24.43
454.229	24.35
454.586	24.59
454.943	24.49
455.3	24.51
455.657	24.57
456.014	24.82
456.371	24.68
456.727	24.97
457.084	24.98
457.441	24.97
457.797	24.83
458.154	25.04
458.51	25.18
458.867	25.04
459.223	25.12
459.58	25.08
459.936	25.35
460.292	25.36
460.648	24.96
461.005	25.26
461.361	25.14
461.717	24.96
462.073	24.96
462.429	25.04
462.785	25.18
463.141	25.37
463.496	25.34
463.852	25.42
464.208	25.77
464.564	25.78
464.919	25.69
465.275	25.9
465.631	26.06
465.986	26.31
466.342	26.15
466.697	26.11
467.052	26.07
467.408	26.29
467.763	26.29
468.118	26.44
468.473	26.36
468.829	26.17
469.184	26.29
469.539	26.44
469.894	26.38
470.249	26.36
470.603	26.4
470.958	26.76
471.313	26.55
471.668	26.88
472.023	26.96
472.377	26.81
472.732	26.84
473.086	27.01
473.441	27.2
473.795	27.32
474.15	27.07
474.504	27.11
474.859	27.21
475.213	27.04
475.567	27.25
475.921	27.21
476.275	27.44
476.63	27.54
476.984	27.39
477.338	27.46
477.692	27.5
478.045	27.52
478.399	27.56
478.753	27.48
479.107	27.59
479.461	27.51
479.814	27.72
480.168	27.8
480.521	27.53
480.875	27.56
481.228	27.74
481.582	27.8
481.935	27.83
482.289	27.85
482.642	27.9
482.995	27.97
483.348	27.79
483.701	27.71
484.055	27.68
484.408	27.65
484.761	27.64
485.114	27.38
485.466	27.17
485.819	27.08
486.172	27.09
486.525	27.17
486.878	27.3
487.23	27.46
487.583	27.57
487.936	27.72
488.288	27.8
488.641	27.86
488.993	27.72
489.345	27.68
489.698	27.71
490.05	27.7
490.402	27.72
490.754	27.87
491.107	28.04
491.459	28.28
491.811	28.4
492.163	28.47
492.515	28.59
492.866	28.73
493.218	28.43
493.57	28.22
493.922	28.19
494.274	28.34
494.625	28.5
494.977	28.62
495.328	28.92
495.68	29.14
496.031	29.29
496.383	29.63
496.734	29.63
497.086	29.76
497.437	29.8
497.788	29.8
498.139	29.66
498.49	29.66
498.842	29.57
499.193	29.63
499.544	29.68
499.894	29.75
500.245	29.83
500.596	29.86
500.947	29.96
501.298	30.03
501.648	29.99
501.999	30.2
502.35	30.24
502.7	30.49
503.051	30.58
503.401	30.6
503.752	30.52
504.102	30.59
504.452	30.75
504.803	30.87
505.153	30.75
505.503	30.85
505.853	30.86
506.203	30.62
506.553	30.54
506.903	30.92
507.253	30.99
507.603	30.9
507.953	31.05
508.303	31.12
508.652	31.17
509.002	31.28
509.352	31.33
509.701	31.21
510.051	31.09
510.4	31.2
510.75	31.22
511.099	31.34
511.449	31.25
511.798	31.27
512.147	31.57
512.496	31.37
512.846	31.41
513.195	31.61
513.544	31.51
513.893	31.66
514.242	31.54
514.591	31.56
514.939	31.6
515.288	31.66
515.637	31.93
515.986	31.97
516.334	32.19
516.683	31.98
517.032	32.06
517.38	32.14
517.729	32.19
518.077	32.29
518.426	32.13
518.774	32.34
519.122	32.13
519.47	32.32
519.819	32.1
520.167	32.09
520.515	31.99
520.863	31.97
521.211	32.18
521.559	32.25
521.907	32.24
522.255	32.33
522.602	32.44
522.95	32.85
523.298	32.84
523.645	32.71
523.993	32.87
524.341	32.83
524.688	33.05
525.036	33.08
525.383	33.02
525.73	33.1
526.078	33.09
526.425	33.25
526.772	33
527.119	32.96
527.466	32.92
527.814	32.85
528.161	32.89
528.508	32.98
528.854	32.91
529.201	33
529.548	32.87
529.895	32.97
530.242	32.65
530.588	32.54
530.935	32.66
531.282	32.79
531.628	32.79
531.975	32.77
532.321	32.96
532.667	33.15
533.014	33.45
533.36	33.54
533.706	33.61
534.052	33.83
534.399	33.5
534.745	33.52
535.091	33.41
535.437	33.4
535.783	33.42
536.129	33.59
536.474	33.72
536.82	33.77
537.166	33.9
537.512	34.09
537.857	34.11
538.203	34.19
538.549	34.18
538.894	34.22
539.239	34.27
539.585	34.37
539.93	34.37
540.276	34.68
540.621	34.73
540.966	35.06
541.311	34.89
541.656	35.03
542.001	35.14
542.346	34.87
542.691	34.72
543.036	34.56
543.381	34.29
543.726	34.33
544.071	34.42
544.415	34.52
544.76	34.67
545.105	34.8
545.449	35
545.794	34.91
546.138	35.01
546.483	35.11
546.827	35.33
547.171	35.6
547.516	35.71
547.86	35.71
548.204	35.55
548.548	35.6
548.892	35.6
549.236	35.69
549.58	35.56
549.924	35.62
550.268	35.98
550.612	36.11
550.956	36.29
551.3	36.26
551.643	36.35
551.987	36.64
552.33	36.64
552.674	36.68
553.017	36.78
553.361	36.67
553.704	36.85
554.048	36.61
554.391	36.6
554.734	36.57
555.077	36.88
555.42	36.72
555.764	36.98
556.107	36.92
556.45	37.26
556.793	37.09
557.135	37.03
557.478	37.35
557.821	37.45
558.164	37.42
558.507	37.49
558.849	37.46
559.192	37.57
559.534	37.86
559.877	37.42
560.219	37.62
560.562	37.71
560.904	37.71
561.246	37.78
561.589	37.98
561.931	37.81
562.273	37.76
562.615	37.77
562.957	37.77
563.299	38.16
563.641	37.81
563.983	38.13
564.325	37.69
564.667	38.08
565.008	38.03
565.35	38.27
565.692	38.11
566.033	38.3
566.375	38.51
566.716	38.58
567.058	38.54
567.399	38.46
567.741	38.34
568.082	38.72
568.423	38.35
568.764	38.33
569.105	38.4
569.447	38.4
569.788	38.51
570.129	38.9
570.47	38.68
570.811	38.98
571.151	38.76
571.492	39.19
571.833	39.31
572.174	39.09
572.514	38.84
572.855	39.08
573.195	38.97
573.536	38.9
573.876	39.02
574.217	39.05
574.557	38.71
574.898	39.05
575.238	39.21
575.578	39.34
575.918	39.43
576.258	39.29
576.598	39.6
576.938	39.46
577.278	39.4
577.618	39.56
577.958	39.6
578.298	39.71
578.638	39.69
578.977	39.67
579.317	39.66
579.657	39.83
579.996	39.91
580.336	40.18
580.675	39.93
581.014	40.29
581.354	39.99
581.693	40.2
582.032	40.25
582.372	40.42
582.711	40.68
583.05	40.54
583.389	40.44
583.728	40.5
584.067	40.69
584.406	40.77
584.745	40.79
585.083	40.81
585.422	40.73
585.761	40.82
586.1	40.78
586.438	40.67
586.777	41.11
587.115	41
587.454	40.99
587.792	40.94
588.13	41.26
588.469	41.13
588.807	41.08
589.145	41.37
589.483	41.05
589.821	41.05
590.159	41.41
590.497	41.18
590.835	41.27
591.173	41.1
591.511	41.45
591.849	41.4
592.187	41.37
592.524	41.6
592.862	41.54
593.2	41.7
593.537	41.45
593.875	41.41
594.212	41.8
594.55	41.78
594.887	42.14
595.224	41.67
595.561	41.82
595.899	42.13
596.236	42.13
596.573	41.92
596.91	42.06
597.247	42.13
597.584	41.85
597.921	41.94
598.258	41.87
598.594	42.07
598.931	41.76
599.268	41.87
599.604	42.09
599.941	42.06
600.277	42.15
600.614	42.26
600.95	42.29
601.287	42.21
601.623	42.66
601.959	42.4
602.296	42.17
602.632	42.73
602.968	42.83
603.304	42.7
603.64	42.91
603.976	42.83
604.312	42.95
604.648	42.57
604.984	42.98
605.319	43.03
605.655	42.8
605.991	42.68
606.326	42.62
606.662	42.53
606.998	42.52
607.333	42.87
607.668	42.68
608.004	42.99
608.339	43.08
608.674	43.03
609.01	43.17
609.345	43.71
609.68	43.52
610.015	43.42
610.35	43.53
610.685	43.36
611.02	43.61
611.355	43.1
611.689	43.36
612.024	43.26
612.359	43.23
612.694	43.55
613.028	43.72
613.363	43.5
613.697	43.96
614.032	44.09
614.366	43.99
614.7	43.72
615.035	43.86
615.369	44.13
615.703	43.94
616.037	44.48
616.371	44.31
616.705	44.27
617.039	44.48
617.373	44.27
617.707	44.45
618.041	44.62
618.375	44.69
618.709	44.36
619.042	44.38
619.376	44.87
619.71	44.93
620.043	44.57
620.377	44.83
620.71	44.8
621.043	45.36
621.377	44.94
621.71	44.7
622.043	44.78
622.376	45.14
622.709	45.04
623.043	45.09
623.376	44.82
623.709	44.87
624.041	44.81
624.374	45.19
624.707	45.2
625.04	44.9
625.373	45.26
625.705	45.45
626.038	45.28
626.37	44.82
626.703	45.3
627.035	45.22
627.368	45.42
627.7	45
628.032	45.43
628.365	45.19
628.697	45.47
629.029	45.2
629.361	45.14
629.693	45.33
630.025	45.64
630.357	45.63
630.689	45.43
631.021	45.7
631.353	45.89
631.684	45.5
632.016	46.05
632.348	46.2
632.679	45.57
633.011	45.84
633.342	45.78
633.674	46
634.005	45.94
634.336	46.07
634.668	46.4
634.999	46
635.33	46.39
635.661	46.66
635.992	46.24
636.323	46.38
636.654	46.37
636.985	46.2
637.316	46.75
637.647	46.53
637.977	46.21
638.308	46.4
638.639	46.39
638.969	46.78
639.3	46.71
639.63	46.71
639.961	46.97
640.291	46.45
640.622	46.38
640.952	46.66
641.282	46.71
641.612	47.05
641.943	46.41
642.273	47.08
642.603	47.17
642.933	47.21
643.263	47.5
643.592	46.81
643.922	47.26
644.252	46.84
644.582	47.25
644.911	47.37
645.241	47.06
645.571	47.61
645.9	47.61
646.23	47.57
646.559	47.48
646.888	47.59
647.218	47.18
647.547	47.63
647.876	47.11
648.205	47.73
648.534	47.61
648.863	46.99
649.192	47.71
649.521	48.1
649.85	47.99
650.179	47.54
650.508	47.64
650.837	47.64
651.165	47.88
651.494	48.03
651.822	47.12
652.151	47.73
652.479	48.1
652.808	48.43
653.136	47.76
653.465	48.19
653.793	48.24
654.121	48.4
654.449	47.96
654.777	48.34
655.105	47.9
655.433	48.39
655.761	48.39
656.089	47.43
656.417	48.35
656.745	47.67
657.073	48.21
657.4	48
657.728	48.3
658.056	47.88
658.383	48.86
658.711	47.72
659.038	48.39
659.365	48.87
659.693	48.04
660.02	48.52
660.347	48.31
660.674	48.54
661.001	48.89
661.329	48.91
661.656	48.57
661.982	49.24
662.309	48.61
662.636	48.58
662.963	48.58
663.29	48.75
663.616	48.57
663.943	48.57
664.27	48.68
664.596	48.71
664.923	49.49
665.249	49.04
665.576	49
665.902	49.38
666.228	49.37
666.554	49.45
666.881	49.28
667.207	49.28
667.533	49.29
667.859	49.3
668.185	49.42
668.511	49.74
668.837	49.2
669.162	49.5
669.488	49.41
669.814	49.55
670.139	49.54
