Data from 0237_chest_Reflection__3__65.txt Node

Date: Fri Oct 20 21:10:42 CDT 2023
User: ToomeyLab
Spectrometer: FLMS14357
Trigger mode: 0
Integration Time (sec): 1.000000E-2
Scans to average: 100
Electric dark correction enabled: true
Nonlinearity correction enabled: false
Boxcar width: 0
XAxis mode: Wavelengths
Number of Pixels in Spectrum: 2048
>>>>>Begin Spectral Data<<<<<
189.047	-20.67
189.435	-20.67
189.823	-20.67
190.211	-186.86
190.599	-435.75
190.987	10.19
191.375	471.32
191.763	247.69
192.151	488.02
192.538	-892
192.926	-6.51
193.314	32.65
193.702	100.23
194.089	5.59
194.477	93.84
194.864	523.18
195.252	78.75
195.639	-2802.86
196.027	130.26
196.414	69.75
196.801	302.06
197.189	50.71
197.576	-43.09
197.963	1273.65
198.351	54.44
198.738	41.62
199.125	37.37
199.512	60.96
199.899	-5.29
200.286	19.83
200.673	25.83
201.06	56.26
201.447	13.29
201.833	15
202.22	57.23
202.607	23.64
202.994	47.57
203.38	29.94
203.767	12.24
204.154	48.07
204.54	42.17
204.927	22.04
205.313	5.92
205.699	44.05
206.086	22.25
206.472	20.2
206.858	35.09
207.245	33.36
207.631	31.62
208.017	42.95
208.403	63.77
208.789	34.05
209.175	24.57
209.561	34.62
209.947	3.77
210.333	32.67
210.719	20.94
211.105	15.76
211.491	31.42
211.876	25.28
212.262	42.36
212.648	28.72
213.034	16.08
213.419	27.21
213.805	3.43
214.19	2.57
214.576	18.13
214.961	10.88
215.346	47.72
215.732	8.97
216.117	-11.8
216.502	23.59
216.888	33.15
217.273	-11.52
217.658	16.15
218.043	21.17
218.428	-5.95
218.813	16.42
219.198	6.31
219.583	-2.69
219.968	4.62
220.353	11.54
220.738	20.68
221.122	16.89
221.507	18.99
221.892	17.56
222.276	8.58
222.661	27.05
223.046	12.36
223.43	-4.61
223.815	10.55
224.199	21.62
224.583	7.85
224.968	-4.39
225.352	-0.42
225.736	5.01
226.121	10.87
226.505	5.76
226.889	11.45
227.273	12.41
227.657	8
228.041	9.32
228.425	6.3
228.809	9.77
229.193	3.39
229.577	6.12
229.961	2.32
230.344	4.03
230.728	3.37
231.112	5.12
231.495	3.82
231.879	5.13
232.263	5.18
232.646	3.61
233.03	4.16
233.413	4.42
233.797	2.29
234.18	4.86
234.563	6.76
234.946	5.69
235.33	3.75
235.713	5.71
236.096	5.07
236.479	5.24
236.862	4.34
237.245	4.19
237.628	5.39
238.011	4.49
238.394	4.21
238.777	6.12
239.16	3.74
239.543	4.83
239.925	6.21
240.308	5.3
240.691	5.46
241.073	6.68
241.456	4.74
241.838	4.89
242.221	5.37
242.603	4.84
242.986	4.34
243.368	4.85
243.75	4.21
244.133	4.08
244.515	3.63
244.897	3.75
245.279	4.33
245.661	3.42
246.043	3.24
246.425	4.17
246.807	5.21
247.189	3.5
247.571	4.1
247.953	4.66
248.335	3.92
248.717	3.81
249.098	3.75
249.48	3.86
249.862	3.73
250.243	4.05
250.625	3.92
251.006	3.97
251.388	4.18
251.769	4.76
252.151	3.9
252.532	4.47
252.913	4.49
253.295	2.39
253.676	3.45
254.057	4.09
254.438	3.88
254.819	3.86
255.2	4.39
255.581	4.23
255.962	4.36
256.343	5.75
256.724	3.43
257.105	3.39
257.486	5.26
257.867	5.07
258.247	4.36
258.628	3.96
259.009	3.57
259.389	3.62
259.77	3.94
260.15	4.32
260.531	3.75
260.911	3.93
261.292	3.73
261.672	3.78
262.052	3.8
262.432	3.67
262.813	3.69
263.193	3.62
263.573	4.14
263.953	3.7
264.333	4.04
264.713	4.23
265.093	4.59
265.473	5
265.853	4.11
266.233	4.13
266.612	4.11
266.992	4.57
267.372	3.89
267.752	3.85
268.131	3.82
268.511	4.18
268.89	3.62
269.27	3.36
269.649	3.23
270.029	3.79
270.408	3.68
270.787	4.21
271.167	3.61
271.546	3.79
271.925	4.38
272.304	4.31
272.683	3.92
273.062	3.87
273.441	3.52
273.82	3.67
274.199	3.68
274.578	3.9
274.957	3.99
275.336	3.59
275.715	4.03
276.093	3.92
276.472	3.3
276.851	3.9
277.229	3.83
277.608	3.1
277.986	3.38
278.365	3.62
278.743	3.09
279.122	3.39
279.5	3.3
279.878	3.33
280.257	3.41
280.635	3.54
281.013	4.22
281.391	3.89
281.769	3.83
282.147	3.05
282.525	4.11
282.903	4.2
283.281	3.94
283.659	3.68
284.037	4.02
284.415	3.23
284.792	3.05
285.17	3.34
285.548	3.51
285.925	3.24
286.303	3.62
286.68	3.69
287.058	4.12
287.435	3.66
287.813	3.33
288.19	3.5
288.567	3.56
288.945	3.81
289.322	4.07
289.699	2.99
290.076	4.06
290.453	3.74
290.83	3.51
291.207	3.8
291.584	3.35
291.961	3.25
292.338	3.62
292.715	3.49
293.092	3.48
293.469	4
293.845	3.49
294.222	3.31
294.599	3.85
294.975	4.57
295.352	3.5
295.728	3.72
296.105	3.6
296.481	3.79
296.858	3.7
297.234	3.81
297.61	3
297.986	3.59
298.363	3.99
298.739	3.99
299.115	3.55
299.491	3.51
299.867	3.8
300.243	3.85
300.619	3.74
300.995	3.87
301.371	3.98
301.746	3.21
302.122	4.36
302.498	3.93
302.874	3.64
303.249	3.93
303.625	3.64
304	4.06
304.376	3.61
304.751	3.46
305.127	3.48
305.502	4.25
305.878	4.02
306.253	4
306.628	3.75
307.003	3.84
307.378	4.08
307.754	3.33
308.129	3.88
308.504	4.48
308.879	3.99
309.254	4.41
309.629	3.82
310.003	3.68
310.378	3.86
310.753	3.83
311.128	3.97
311.502	3.72
311.877	3.98
312.252	3.6
312.626	4.32
313.001	3.75
313.375	3.98
313.75	3.75
314.124	3.42
314.498	4.11
314.873	3.8
315.247	3.94
315.621	4.05
315.995	3.73
316.369	3.58
316.743	4.21
317.117	4.25
317.491	3.16
317.865	3.7
318.239	4.19
318.613	4.18
318.987	3.88
319.361	3.57
319.734	3.74
320.108	3.86
320.482	4.36
320.855	4.11
321.229	4.5
321.602	4.22
321.976	3.84
322.349	4.48
322.723	3.57
323.096	3.83
323.469	3.61
323.843	4
324.216	4.09
324.589	4.6
324.962	3.93
325.335	3.75
325.708	3.84
326.081	4.02
326.454	4.17
326.827	4.38
327.2	4.24
327.573	4.36
327.945	4.09
328.318	3.68
328.691	4.04
329.063	4.55
329.436	3.9
329.809	4.21
330.181	4.43
330.553	4.23
330.926	4.4
331.298	3.89
331.671	3.66
332.043	3.75
332.415	4.67
332.787	4.32
333.159	3.91
333.532	4.4
333.904	3.99
334.276	3.37
334.648	4.13
335.02	4.17
335.391	4.24
335.763	4.11
336.135	4.08
336.507	4.56
336.879	4.26
337.25	4.05
337.622	4.43
337.993	4.4
338.365	3.99
338.736	4.09
339.108	4.41
339.479	3.93
339.851	4.08
340.222	3.89
340.593	3.49
340.964	3.66
341.336	4.29
341.707	3.56
342.078	3.83
342.449	4.18
342.82	3.85
343.191	3.95
343.562	4.11
343.933	3.94
344.303	3.65
344.674	4.53
345.045	4.24
345.416	4.4
345.786	3.7
346.157	3.9
346.527	4
346.898	4.16
347.268	3.98
347.639	4.27
348.009	3.59
348.38	4.11
348.75	4.4
349.12	4.14
349.49	3.94
349.861	4.45
350.231	3.41
350.601	4.21
350.971	4.71
351.341	4.28
351.711	4.47
352.081	4.11
352.45	4.13
352.82	4.14
353.19	4.17
353.56	4.47
353.929	3.84
354.299	4.27
354.669	4.23
355.038	3.94
355.408	4.35
355.777	4.19
356.147	4.05
356.516	4.11
356.885	4.2
357.254	4.2
357.624	4.18
357.993	4.26
358.362	4.16
358.731	4.06
359.1	3.65
359.469	4.03
359.838	4.21
360.207	4.06
360.576	4.32
360.945	3.71
361.314	4.08
361.682	4.1
362.051	3.98
362.42	3.95
362.788	4.43
363.157	4.19
363.525	3.93
363.894	3.91
364.262	4.02
364.631	4.11
364.999	4
365.367	3.96
365.735	3.72
366.104	3.72
366.472	4.41
366.84	4.35
367.208	4.14
367.576	4.12
367.944	4.19
368.312	4.09
368.68	4.22
369.048	4.25
369.416	4.34
369.783	4.2
370.151	4.45
370.519	4.13
370.886	4.33
371.254	4.2
371.621	4.52
371.989	4.31
372.356	4.47
372.724	4.28
373.091	4.08
373.458	3.97
373.826	4.35
374.193	4.15
374.56	4.1
374.927	4.34
375.294	3.89
375.661	4.36
376.028	4.55
376.395	4.47
376.762	4.3
377.129	4.53
377.496	4.34
377.863	4.6
378.229	4.28
378.596	4.31
378.963	4.53
379.329	4.39
379.696	4.18
380.062	4.49
380.429	4.23
380.795	4.08
381.161	4.2
381.528	4.52
381.894	4.38
382.26	4.09
382.626	4.69
382.993	4.53
383.359	4.47
383.725	4.14
384.091	4.38
384.457	4.45
384.823	4.46
385.188	4.45
385.554	4.17
385.92	4.29
386.286	4.79
386.651	4.19
387.017	4.74
387.383	4.12
387.748	4.31
388.114	4.13
388.479	4.07
388.845	4.68
389.21	4.35
389.575	4.08
389.94	4.27
390.306	4.14
390.671	4.47
391.036	4.24
391.401	4.45
391.766	4.54
392.131	4.12
392.496	4.29
392.861	4.39
393.226	4.26
393.591	4.22
393.956	4.42
394.32	4.78
394.685	4.31
395.05	4.72
395.414	4.52
395.779	4.14
396.143	4.27
396.508	4.24
396.872	4.36
397.236	4.27
397.601	4.38
397.965	4.12
398.329	4.23
398.694	4.52
399.058	4.28
399.422	4.46
399.786	4.19
400.15	4.28
400.514	4.42
400.878	4.48
401.242	4.28
401.605	4.5
401.969	4.28
402.333	4.34
402.697	4.48
403.06	4.42
403.424	4.23
403.787	4.5
404.151	4.45
404.514	4.4
404.878	4.51
405.241	4.46
405.604	4.28
405.968	4.45
406.331	4.38
406.694	4.58
407.057	4.29
407.42	4.63
407.783	4.56
408.146	4.31
408.509	4.34
408.872	4.69
409.235	4.31
409.598	4.58
409.961	4.57
410.323	4.32
410.686	4.33
411.049	4.33
411.411	4.47
411.774	4.41
412.136	4.59
412.499	4.43
412.861	4.78
413.223	4.49
413.586	4.54
413.948	4.64
414.31	4.59
414.672	4.37
415.035	4.4
415.397	4.56
415.759	4.76
416.121	4.52
416.483	4.53
416.845	4.56
417.206	4.47
417.568	4.59
417.93	4.58
418.292	4.32
418.653	4.54
419.015	4.37
419.377	4.51
419.738	4.53
420.1	4.43
420.461	4.45
420.822	4.52
421.184	4.47
421.545	4.46
421.906	4.38
422.267	4.41
422.629	4.53
422.99	4.38
423.351	4.31
423.712	4.37
424.073	4.4
424.434	4.34
424.795	4.36
425.155	4.42
425.516	4.4
425.877	4.37
426.238	4.33
426.598	4.45
426.959	4.34
427.32	4.35
427.68	4.41
428.041	4.4
428.401	4.47
428.761	4.61
429.122	4.52
429.482	4.54
429.842	4.34
430.202	4.56
430.563	4.59
430.923	4.56
431.283	4.49
431.643	4.57
432.003	4.73
432.363	4.59
432.722	4.57
433.082	4.69
433.442	4.4
433.802	4.8
434.161	4.49
434.521	4.63
434.881	4.55
435.24	4.55
435.6	4.48
435.959	4.55
436.319	4.58
436.678	4.59
437.037	4.69
437.396	4.68
437.756	4.75
438.115	4.65
438.474	4.59
438.833	4.55
439.192	4.31
439.551	4.51
439.91	4.58
440.269	4.67
440.628	4.63
440.987	4.63
441.345	4.47
441.704	4.61
442.063	4.59
442.421	4.51
442.78	4.4
443.138	4.66
443.497	4.63
443.855	4.64
444.214	4.57
444.572	4.53
444.93	4.64
445.288	4.76
445.647	4.8
446.005	4.54
446.363	4.71
446.721	4.62
447.079	4.8
447.437	4.62
447.795	4.54
448.153	4.51
448.51	4.51
448.868	4.58
449.226	4.57
449.584	4.65
449.941	4.56
450.299	4.66
450.656	4.59
451.014	4.63
451.371	4.58
451.729	4.55
452.086	4.81
452.443	4.69
452.801	4.7
453.158	4.66
453.515	4.83
453.872	4.65
454.229	4.87
454.586	4.68
454.943	4.55
455.3	4.66
455.657	4.81
456.014	4.72
456.371	4.64
456.727	4.68
457.084	4.76
457.441	4.82
457.797	4.88
458.154	4.58
458.51	4.6
458.867	4.78
459.223	4.76
459.58	4.71
459.936	4.9
460.292	4.73
460.648	4.66
461.005	4.67
461.361	4.7
461.717	4.56
462.073	4.68
462.429	4.66
462.785	4.7
463.141	4.69
463.496	4.63
463.852	4.76
464.208	4.85
464.564	4.78
464.919	4.72
465.275	4.93
465.631	4.84
465.986	4.91
466.342	4.79
466.697	4.92
467.052	4.86
467.408	4.81
467.763	4.92
468.118	5.06
468.473	4.99
468.829	4.89
469.184	4.86
469.539	4.86
469.894	4.89
470.249	4.73
470.603	4.87
470.958	5
471.313	4.82
471.668	4.9
472.023	4.94
472.377	4.87
472.732	4.75
473.086	5.07
473.441	5.12
473.795	5.03
474.15	4.85
474.504	4.87
474.859	4.82
475.213	4.97
475.567	4.91
475.921	4.95
476.275	4.95
476.63	5
476.984	4.91
477.338	4.79
477.692	4.98
478.045	4.83
478.399	4.82
478.753	4.96
479.107	4.86
479.461	4.86
479.814	4.94
480.168	4.86
480.521	4.86
480.875	4.86
481.228	5.01
481.582	4.91
481.935	4.82
482.289	4.81
482.642	4.89
482.995	4.94
483.348	4.91
483.701	4.92
484.055	4.96
484.408	4.8
484.761	4.79
485.114	4.62
485.466	4.68
485.819	4.59
486.172	4.55
486.525	4.56
486.878	4.59
487.23	4.66
487.583	4.68
487.936	4.7
488.288	4.77
488.641	4.81
488.993	4.72
489.345	4.75
489.698	4.71
490.05	4.7
490.402	4.68
490.754	4.69
491.107	4.68
491.459	4.79
491.811	4.91
492.163	4.79
492.515	4.87
492.866	4.93
493.218	4.76
493.57	4.77
493.922	4.75
494.274	4.69
494.625	4.79
494.977	4.82
495.328	4.88
495.68	4.99
496.031	4.9
496.383	5.05
496.734	4.96
497.086	5.12
497.437	5.1
497.788	4.93
498.139	5.13
498.49	5.06
498.842	4.91
499.193	5.08
499.544	5.07
499.894	5.05
500.245	4.94
500.596	5.04
500.947	5.03
501.298	5.08
501.648	5.05
501.999	5.13
502.35	5.05
502.7	5.24
503.051	5.13
503.401	5.26
503.752	5.27
504.102	5.27
504.452	4.99
504.803	5.28
505.153	5.25
505.503	5.19
505.853	5.2
506.203	5.06
506.553	5.05
506.903	5.18
507.253	5.19
507.603	5.2
507.953	5.24
508.303	5.19
508.652	5.27
509.002	5.23
509.352	5.22
509.701	5.2
510.051	5.22
510.4	5.16
510.75	5.1
511.099	5.27
511.449	5.22
511.798	5.18
512.147	5.2
512.496	5.27
512.846	5.17
513.195	5.26
513.544	5.27
513.893	5.13
514.242	5.29
514.591	5.22
514.939	5.28
515.288	5.17
515.637	5.3
515.986	5.3
516.334	5.3
516.683	5.31
517.032	5.24
517.38	5.19
517.729	5.48
518.077	5.34
518.426	5.31
518.774	5.33
519.122	5.38
519.47	5.34
519.819	5.25
520.167	5.33
520.515	5.22
520.863	5.31
521.211	5.33
521.559	5.31
521.907	5.23
522.255	5.37
522.602	5.51
522.95	5.29
523.298	5.38
523.645	5.37
523.993	5.31
524.341	5.37
524.688	5.44
525.036	5.51
525.383	5.45
525.73	5.56
526.078	5.45
526.425	5.48
526.772	5.47
527.119	5.36
527.466	5.34
527.814	5.38
528.161	5.37
528.508	5.4
528.854	5.42
529.201	5.42
529.548	5.39
529.895	5.43
530.242	5.38
530.588	5.25
530.935	5.24
531.282	5.31
531.628	5.33
531.975	5.32
532.321	5.42
532.667	5.44
533.014	5.51
533.36	5.54
533.706	5.59
534.052	5.58
534.399	5.49
534.745	5.44
535.091	5.49
535.437	5.55
535.783	5.47
536.129	5.62
536.474	5.56
536.82	5.6
537.166	5.62
537.512	5.74
537.857	5.71
538.203	5.68
538.549	5.76
538.894	5.69
539.239	5.7
539.585	5.68
539.93	5.72
540.276	5.78
540.621	5.83
540.966	5.85
541.311	5.89
541.656	5.9
542.001	5.98
542.346	5.89
542.691	5.83
543.036	5.73
543.381	5.7
543.726	5.63
544.071	5.69
544.415	5.7
544.76	5.78
545.105	5.87
545.449	5.83
545.794	5.89
546.138	5.86
546.483	5.84
546.827	6.02
547.171	6
547.516	5.9
547.86	6.11
548.204	6.02
548.548	6.03
548.892	5.96
549.236	6.04
549.58	6.01
549.924	6.12
550.268	6.14
550.612	6.24
550.956	6.32
551.3	6.25
551.643	6.21
551.987	6.4
552.33	6.31
552.674	6.16
553.017	6.28
553.361	6.44
553.704	6.35
554.048	6.33
554.391	6.36
554.734	6.44
555.077	6.41
555.42	6.35
555.764	6.39
556.107	6.47
556.45	6.45
556.793	6.3
557.135	6.41
557.478	6.49
557.821	6.59
558.164	6.61
558.507	6.55
558.849	6.68
559.192	6.54
559.534	6.71
559.877	6.5
560.219	6.6
560.562	6.6
560.904	6.39
561.246	6.8
561.589	6.71
561.931	6.77
562.273	6.75
562.615	6.78
562.957	6.85
563.299	6.82
563.641	6.92
563.983	6.77
564.325	6.72
564.667	7.05
565.008	6.92
565.35	6.95
565.692	6.84
566.033	7.01
566.375	6.96
566.716	6.96
567.058	7.01
567.399	6.95
567.741	6.97
568.082	6.92
568.423	7.11
568.764	6.91
569.105	7.13
569.447	7.1
569.788	7.19
570.129	7.04
570.47	7.08
570.811	7.24
571.151	7.11
571.492	7.18
571.833	7.3
572.174	7.43
572.514	7.26
572.855	7.24
573.195	7.47
573.536	7.1
573.876	7.53
574.217	7.12
574.557	7.24
574.898	7.12
575.238	7.29
575.578	7.38
575.918	7.23
576.258	7.34
576.598	7.46
576.938	7.48
577.278	7.5
577.618	7.25
577.958	7.33
578.298	7.35
578.638	7.62
578.977	7.69
579.317	7.46
579.657	7.54
579.996	7.72
580.336	7.9
580.675	7.6
581.014	7.63
581.354	7.72
581.693	7.96
582.032	7.91
582.372	7.85
582.711	7.98
583.05	8.33
583.389	8.18
583.728	7.95
584.067	7.99
584.406	7.97
584.745	7.95
585.083	7.99
585.422	7.96
585.761	8.29
586.1	8.36
586.438	8.05
586.777	8.28
587.115	8.24
587.454	8.16
587.792	8.36
588.13	8.29
588.469	8.58
588.807	8
589.145	8.16
589.483	8.31
589.821	8.47
590.159	8.44
590.497	8.5
590.835	8.39
591.173	8.28
591.511	8.44
591.849	8.38
592.187	8.41
592.524	8.33
592.862	8.36
593.2	8.68
593.537	8.28
593.875	8.63
594.212	8.78
594.55	8.67
594.887	8.96
595.224	8.56
595.561	8.28
595.899	8.65
596.236	8.85
596.573	8.89
596.91	9.02
597.247	8.86
597.584	8.76
597.921	8.87
598.258	8.85
598.594	8.96
598.931	8.82
599.268	8.76
599.604	9.01
599.941	8.84
600.277	8.77
600.614	8.91
600.95	8.96
601.287	8.99
601.623	9.08
601.959	9.09
602.296	9.15
602.632	9.44
602.968	9.25
603.304	9.37
603.64	9.22
603.976	9.3
604.312	9.25
604.648	9.38
604.984	9.6
605.319	9.45
605.655	9.43
605.991	9.42
606.326	9.29
606.662	9.49
606.998	9.42
607.333	9.42
607.668	9.37
608.004	9.59
608.339	9.33
608.674	9.71
609.01	9.81
609.345	9.57
609.68	9.74
610.015	9.67
610.35	9.65
610.685	9.96
611.02	10.04
611.355	9.75
611.689	9.88
612.024	10.07
612.359	9.86
612.694	9.87
613.028	9.94
613.363	9.83
613.697	10.02
614.032	10.13
614.366	10.11
614.7	10.02
615.035	10.1
615.369	10.21
615.703	9.8
616.037	10.52
616.371	10.27
616.705	10.05
617.039	10.39
617.373	10.29
617.707	10.44
618.041	10.45
618.375	10.1
618.709	10.45
619.042	10.47
619.376	10.66
619.71	10.48
620.043	10.6
620.377	10.53
620.71	10.69
621.043	10.82
621.377	10.4
621.71	10.61
622.043	10.71
622.376	10.94
622.709	11.04
623.043	10.91
623.376	10.79
623.709	10.74
624.041	10.64
624.374	10.94
624.707	10.81
625.04	11.13
625.373	11.03
625.705	11.31
626.038	11.07
626.37	10.89
626.703	10.87
627.035	10.94
627.368	11.16
627.7	11.56
628.032	11.11
628.365	11.57
628.697	11.54
629.029	11.14
629.361	11.11
629.693	11.19
630.025	11.25
630.357	11.42
630.689	11.24
631.021	11.76
631.353	11.48
631.684	11.78
632.016	11.65
632.348	11.44
632.679	11.52
633.011	11.74
633.342	11.36
633.674	11.7
634.005	12.15
634.336	12.03
634.668	11.6
634.999	11.79
635.33	11.73
635.661	12.19
635.992	12.22
636.323	12.29
636.654	11.82
636.985	12.1
637.316	11.82
637.647	12.01
637.977	11.77
638.308	11.79
638.639	12.24
638.969	12.29
639.3	11.81
639.63	11.89
639.961	12.23
640.291	12.37
640.622	12.25
640.952	12.35
641.282	12.3
641.612	12.68
641.943	12.41
642.273	11.91
642.603	12.85
642.933	12.28
643.263	12.76
643.592	12.32
643.922	12.65
644.252	12.62
644.582	12.77
644.911	12.36
645.241	13.03
645.571	12.83
645.9	12.74
646.23	12.6
646.559	12.54
646.888	13.12
647.218	12.7
647.547	12.97
647.876	12.79
648.205	13.12
648.534	13.08
648.863	13.3
649.192	12.99
649.521	13.44
649.85	12.94
650.179	13.19
650.508	12.98
650.837	13.66
651.165	13.63
651.494	12.96
651.822	13.14
652.151	13.67
652.479	13.14
652.808	13.83
653.136	12.84
653.465	13.49
653.793	13.45
654.121	13.78
654.449	13.52
654.777	13.74
655.105	14.03
655.433	14.09
655.761	13.94
656.089	13.79
656.417	13.99
656.745	13.86
657.073	13.55
657.4	14.1
657.728	14.17
658.056	14.04
658.383	14.1
658.711	13.69
659.038	14.46
659.365	14.68
659.693	13.82
660.02	13.71
660.347	13.8
660.674	14.31
661.001	13.84
661.329	14.37
661.656	14.43
661.982	14.1
662.309	14.28
662.636	14.23
662.963	14.58
663.29	14.31
663.616	14.66
663.943	14.47
664.27	14.95
664.596	14.35
664.923	14.38
665.249	14.51
665.576	14.36
665.902	14.9
666.228	14.48
666.554	14.42
666.881	15.18
667.207	14.97
667.533	14.7
667.859	15.36
668.185	14.85
668.511	15.4
668.837	15.3
669.162	15.06
669.488	15.01
669.814	15.01
670.139	14.86
670.465	15.27
670.791	15.52
671.116	15.07
671.442	14.95
671.767	15.17
672.092	15.11
672.418	15.28
672.743	15.07
673.068	15.49
673.393	15.52
673.718	15.22
674.043	15.53
674.368	15.88
674.693	15.34
675.018	16.1
675.343	15.3
675.667	15.45
675.992	15.8
676.317	15.68
676.641	15.97
676.966	15.6
677.29	15.91
677.615	15.6
677.939	15.87
678.264	15.94
678.588	15.99
678.912	16.38
679.236	15.72
679.56	15.83
679.885	16.13
680.209	16.46
680.532	15.84
680.856	15.63
681.18	16.35
681.504	16.22
681.828	16.56
682.152	16.26
682.475	16.03
682.799	16.39
683.122	15.86
683.446	16.64
683.769	16.47
684.093	16.65
684.416	16.25
684.739	16.38
685.062	15.21
685.386	16.43
685.709	16.55
686.032	16.47
686.355	17.49
686.678	16.48
687.001	17.12
687.324	16.37
687.646	16.48
