Data from 0237_crown_Reflection__0__68.txt Node

Date: Fri Oct 20 21:12:02 CDT 2023
User: ToomeyLab
Spectrometer: FLMS14357
Trigger mode: 0
Integration Time (sec): 1.000000E-2
Scans to average: 100
Electric dark correction enabled: true
Nonlinearity correction enabled: false
Boxcar width: 0
XAxis mode: Wavelengths
Number of Pixels in Spectrum: 2048
>>>>>Begin Spectral Data<<<<<
189.047	-61.02
189.435	-61.02
189.823	-61.02
190.211	103.05
190.599	-516.15
190.987	62.55
191.375	1097.36
191.763	145.78
192.151	356.89
192.538	278.4
192.926	346.35
193.314	45.69
193.702	106.89
194.089	28.02
194.477	115.95
194.864	-597.38
195.252	96.57
195.639	-1497.14
196.027	-0.29
196.414	236.14
196.801	5.69
197.189	3.07
197.576	42.13
197.963	1631.14
198.351	23.85
198.738	12.24
199.125	28.4
199.512	16.35
199.899	9.26
200.286	-11.44
200.673	28.76
201.06	6
201.447	18.98
201.833	29.33
202.22	42.79
202.607	34.87
202.994	62.77
203.38	5.86
203.767	24.92
204.154	32.57
204.54	63.98
204.927	17.4
205.313	-20.38
205.699	27.73
206.086	35.09
206.472	40.88
206.858	32.17
207.245	-4.96
207.631	18.79
208.017	22.09
208.403	4.59
208.789	33.25
209.175	9.82
209.561	41.03
209.947	-17.61
210.333	25.77
210.719	25.84
211.105	18.05
211.491	13.13
211.876	-29.65
212.262	41
212.648	51.39
213.034	5.5
213.419	15.05
213.805	20.52
214.19	6.53
214.576	-8.94
214.961	26.63
215.346	20.41
215.732	1.91
216.117	-41.92
216.502	35.88
216.888	16.9
217.273	-7.85
217.658	10.36
218.043	9.97
218.428	12.92
218.813	15.97
219.198	-3.47
219.583	-23.25
219.968	-16.33
220.353	25.87
220.738	4.73
221.122	5.4
221.507	-9.84
221.892	10.45
222.276	7.3
222.661	9.93
223.046	2.96
223.43	16.79
223.815	20.02
224.199	16.23
224.583	-1.64
224.968	4.54
225.352	-3.89
225.736	2.48
226.121	12.52
226.505	0.49
226.889	7.68
227.273	7.38
227.657	10.08
228.041	9.54
228.425	7.41
228.809	11.09
229.193	6.2
229.577	7.06
229.961	6.22
230.344	6.28
230.728	4.82
231.112	6.13
231.495	5.91
231.879	5.64
232.263	7.24
232.646	5.89
233.03	5.91
233.413	6.28
233.797	6.68
234.18	5.56
234.563	5.67
234.946	8.24
235.33	5.81
235.713	5.52
236.096	7.97
236.479	6.54
236.862	6.45
237.245	5.84
237.628	6.13
238.011	6.59
238.394	4.88
238.777	7.76
239.16	4.01
239.543	8.07
239.925	6.04
240.308	5.59
240.691	4.02
241.073	6.74
241.456	6.74
241.838	6.04
242.221	6.78
242.603	5.74
242.986	6.06
243.368	7.4
243.75	5.73
244.133	4.56
244.515	4.68
244.897	5.09
245.279	5.23
245.661	5.51
246.043	4.77
246.425	5.82
246.807	5.18
247.189	5.23
247.571	5.38
247.953	5.73
248.335	5.13
248.717	5.13
249.098	5.03
249.48	5.25
249.862	5.18
250.243	5.6
250.625	5.24
251.006	5.56
251.388	5.22
251.769	5.45
252.151	5.02
252.532	5.88
252.913	4.95
253.295	4.79
253.676	5.16
254.057	4.79
254.438	4.74
254.819	4.83
255.2	4.91
255.581	5.2
255.962	5.09
256.343	5.32
256.724	4.52
257.105	5.59
257.486	5.3
257.867	4.34
258.247	5.32
258.628	4.41
259.009	4.86
259.389	4.47
259.77	5.27
260.15	5.16
260.531	5.27
260.911	5.01
261.292	4.33
261.672	4.76
262.052	5.21
262.432	4.66
262.813	4.55
263.193	4.63
263.573	4.51
263.953	4.69
264.333	5.28
264.713	5.28
265.093	5.42
265.473	5.33
265.853	4.4
266.233	4.99
266.612	4.46
266.992	5.39
267.372	5.34
267.752	4.96
268.131	5.41
268.511	5.01
268.89	5.22
269.27	4.69
269.649	3.98
270.029	4.39
270.408	4.56
270.787	5.1
271.167	4.98
271.546	4.83
271.925	5.39
272.304	4.87
272.683	4.9
273.062	4.94
273.441	4.54
273.82	4.74
274.199	4.97
274.578	4.5
274.957	5.09
275.336	4.85
275.715	4.7
276.093	4.54
276.472	4.61
276.851	4.74
277.229	4.83
277.608	4.04
277.986	3.88
278.365	4.87
278.743	4.57
279.122	4.25
279.5	4.87
279.878	3.99
280.257	4.5
280.635	4.71
281.013	4.77
281.391	4.93
281.769	4.47
282.147	4.35
282.525	4.55
282.903	4.5
283.281	4.45
283.659	4.42
284.037	4.48
284.415	4.2
284.792	4.32
285.17	4.71
285.548	4.32
285.925	3.94
286.303	3.65
286.68	4.47
287.058	4.73
287.435	4.43
287.813	3.91
288.19	4.22
288.567	4.3
288.945	4.62
289.322	4.89
289.699	3.75
290.076	4.7
290.453	4.28
290.83	4.08
291.207	4.66
291.584	4.2
291.961	4.37
292.338	3.79
292.715	4.38
293.092	4.1
293.469	4.19
293.845	3.87
294.222	3.99
294.599	3.9
294.975	4.76
295.352	4.34
295.728	4.29
296.105	4.25
296.481	4.01
296.858	4.19
297.234	4.55
297.61	3.81
297.986	4.17
298.363	4.16
298.739	4.11
299.115	3.95
299.491	4.12
299.867	3.92
300.243	3.86
300.619	4.08
300.995	4.48
301.371	4.32
301.746	3.87
302.122	4.07
302.498	3.86
302.874	4.21
303.249	4.29
303.625	4.11
304	4.61
304.376	4.31
304.751	3.79
305.127	3.83
305.502	4.11
305.878	3.95
306.253	4.08
306.628	4.29
307.003	3.84
307.378	4.15
307.754	3.97
308.129	4.73
308.504	3.92
308.879	4.29
309.254	4.34
309.629	3.88
310.003	3.55
310.378	4.32
310.753	4.15
311.128	4.17
311.502	4.27
311.877	3.97
312.252	3.82
312.626	4.17
313.001	3.66
313.375	3.96
313.75	3.89
314.124	3.69
314.498	4.13
314.873	3.74
315.247	3.96
315.621	3.8
315.995	4.18
316.369	4.03
316.743	4.13
317.117	3.97
317.491	3.77
317.865	3.95
318.239	4.31
318.613	4
318.987	3.4
319.361	3.26
319.734	3.21
320.108	3.41
320.482	4.14
320.855	3.78
321.229	3.93
321.602	3.52
321.976	3.66
322.349	4.6
322.723	3.66
323.096	4.12
323.469	3.52
323.843	4.34
324.216	4.24
324.589	3.57
324.962	4.92
325.335	3.53
325.708	3.51
326.081	3.97
326.454	4.33
326.827	3.83
327.2	4.31
327.573	4.18
327.945	4.24
328.318	3.95
328.691	3.95
329.063	4.47
329.436	3.68
329.809	3.73
330.181	4.38
330.553	4.22
330.926	3.58
331.298	3.67
331.671	3.59
332.043	3.55
332.415	3.6
332.787	3.92
333.159	3.9
333.532	4.42
333.904	3.89
334.276	3.91
334.648	3.85
335.02	4.12
335.391	4.2
335.763	4.34
336.135	4.06
336.507	4.23
336.879	4.03
337.25	3.82
337.622	4.03
337.993	4.45
338.365	4.11
338.736	4.2
339.108	4.38
339.479	4.3
339.851	4.12
340.222	3.79
340.593	3.48
340.964	4.01
341.336	4.41
341.707	4.23
342.078	4.18
342.449	4.01
342.82	4.16
343.191	3.8
343.562	4.53
343.933	4.17
344.303	4.1
344.674	4.39
345.045	4.07
345.416	4.43
345.786	4.16
346.157	4.08
346.527	3.94
346.898	3.98
347.268	3.97
347.639	4.09
348.009	3.94
348.38	4.29
348.75	3.91
349.12	3.95
349.49	4.11
349.861	4.27
350.231	3.61
350.601	4.41
350.971	4.22
351.341	4.48
351.711	4.71
352.081	4.51
352.45	3.77
352.82	4.36
353.19	4.27
353.56	4.54
353.929	3.98
354.299	4.07
354.669	4.37
355.038	4.69
355.408	4.43
355.777	4.23
356.147	4.24
356.516	3.94
356.885	3.86
357.254	4.18
357.624	4.22
357.993	4.02
358.362	4.55
358.731	3.76
359.1	3.93
359.469	4.21
359.838	4.18
360.207	4.14
360.576	4.32
360.945	4.2
361.314	4.09
361.682	4.07
362.051	4.06
362.42	3.97
362.788	4.28
363.157	4.15
363.525	4.03
363.894	4.34
364.262	4.15
364.631	4.28
364.999	4.21
365.367	4.25
365.735	4.08
366.104	4.04
366.472	4.57
366.84	4.07
367.208	4.24
367.576	4.09
367.944	4.32
368.312	4.43
368.68	4.51
369.048	4.32
369.416	4.58
369.783	4.55
370.151	4.37
370.519	4.22
370.886	4.21
371.254	4.69
371.621	4.62
371.989	3.82
372.356	4.52
372.724	4.77
373.091	4.25
373.458	4.06
373.826	4.31
374.193	4.23
374.56	4.45
374.927	4.29
375.294	4.4
375.661	4.38
376.028	4.7
376.395	4.77
376.762	4.34
377.129	4.39
377.496	4.52
377.863	4.87
378.229	4.8
378.596	4.58
378.963	4.41
379.329	4.4
379.696	4.44
380.062	4.38
380.429	4.4
380.795	4.09
381.161	4.36
381.528	4.67
381.894	4.29
382.26	4.77
382.626	4.5
382.993	4.16
383.359	4.19
383.725	4.42
384.091	4.57
384.457	4.78
384.823	4.33
385.188	4.45
385.554	4.65
385.92	4.54
386.286	4.65
386.651	4.51
387.017	4.47
387.383	4.28
387.748	4.38
388.114	4.31
388.479	4.65
388.845	4.72
389.21	4.59
389.575	4.17
389.94	4.45
390.306	4.48
390.671	4.14
391.036	4.36
391.401	4.5
391.766	4.7
392.131	4.54
392.496	4.55
392.861	4.57
393.226	4.6
393.591	4.56
393.956	4.59
394.32	4.81
394.685	4.45
395.05	4.68
395.414	4.76
395.779	4.47
396.143	4.43
396.508	4.42
396.872	4.59
397.236	4.51
397.601	4.5
397.965	4.34
398.329	4.35
398.694	4.68
399.058	4.27
399.422	4.67
399.786	4.63
400.15	4.53
400.514	4.57
400.878	4.8
401.242	4.87
401.605	4.91
401.969	4.48
402.333	4.59
402.697	4.67
403.06	4.69
403.424	4.42
403.787	4.69
404.151	4.63
404.514	4.51
404.878	4.65
405.241	4.68
405.604	4.48
405.968	4.68
406.331	4.61
406.694	4.67
407.057	4.68
407.42	4.97
407.783	4.64
408.146	4.53
408.509	4.53
408.872	4.8
409.235	4.67
409.598	4.83
409.961	4.67
410.323	4.66
410.686	4.66
411.049	4.81
411.411	4.67
411.774	4.61
412.136	4.88
412.499	4.88
412.861	4.67
413.223	4.7
413.586	4.58
413.948	5
414.31	4.83
414.672	4.7
415.035	4.74
415.397	4.91
415.759	4.57
416.121	4.78
416.483	4.93
416.845	4.73
417.206	4.75
417.568	4.76
417.93	4.77
418.292	4.57
418.653	4.79
419.015	4.8
419.377	4.83
419.738	4.74
420.1	4.61
420.461	4.7
420.822	4.73
421.184	4.58
421.545	4.51
421.906	4.63
422.267	4.6
422.629	4.56
422.99	4.56
423.351	4.63
423.712	4.66
424.073	4.65
424.434	4.57
424.795	4.64
425.155	4.71
425.516	4.67
425.877	4.73
426.238	4.5
426.598	4.63
426.959	4.45
427.32	4.67
427.68	4.69
428.041	4.66
428.401	4.63
428.761	4.82
429.122	4.65
429.482	4.76
429.842	4.71
430.202	4.75
430.563	4.71
430.923	4.89
431.283	4.74
431.643	4.88
432.003	4.9
432.363	4.77
432.722	4.95
433.082	4.74
433.442	4.64
433.802	4.89
434.161	4.59
434.521	4.9
434.881	4.77
435.24	4.73
435.6	4.68
435.959	4.69
436.319	4.67
436.678	4.73
437.037	4.78
437.396	4.86
437.756	4.89
438.115	4.66
438.474	4.83
438.833	4.88
439.192	4.78
439.551	4.67
439.91	4.67
440.269	4.88
440.628	4.75
440.987	4.8
441.345	4.7
441.704	4.73
442.063	4.72
442.421	4.74
442.78	4.7
443.138	4.85
443.497	4.75
443.855	4.95
444.214	4.79
444.572	4.79
444.93	4.89
445.288	4.83
445.647	4.87
446.005	4.66
446.363	4.78
446.721	4.74
447.079	4.92
447.437	4.85
447.795	4.66
448.153	4.68
448.51	4.73
448.868	4.68
449.226	4.75
449.584	4.76
449.941	4.77
450.299	4.7
450.656	4.77
451.014	4.82
451.371	4.74
451.729	4.76
452.086	4.8
452.443	4.86
452.801	4.91
453.158	4.93
453.515	4.93
453.872	4.87
454.229	4.93
454.586	4.82
454.943	4.87
455.3	4.7
455.657	4.85
456.014	4.81
456.371	4.85
456.727	4.97
457.084	4.96
457.441	4.91
457.797	4.97
458.154	4.68
458.51	4.92
458.867	4.91
459.223	4.9
459.58	4.93
459.936	4.84
460.292	4.66
460.648	4.65
461.005	4.66
461.361	4.77
461.717	4.65
462.073	4.72
462.429	4.72
462.785	4.8
463.141	4.82
463.496	4.8
463.852	5
464.208	4.91
464.564	4.87
464.919	4.8
465.275	4.93
465.631	4.89
465.986	5.14
466.342	4.95
466.697	4.87
467.052	4.94
467.408	4.96
467.763	4.95
468.118	5.09
468.473	4.87
468.829	4.86
469.184	4.95
469.539	4.95
469.894	4.78
470.249	4.75
470.603	4.91
470.958	4.94
471.313	5
471.668	4.95
472.023	4.95
472.377	5.07
472.732	4.86
473.086	5.01
473.441	5.04
473.795	5.19
474.15	4.89
474.504	4.88
474.859	4.94
475.213	5.01
475.567	5
475.921	4.86
476.275	4.97
476.63	5.16
476.984	5.08
477.338	4.87
477.692	4.82
478.045	4.83
478.399	4.85
478.753	4.94
479.107	4.88
479.461	5
479.814	5.05
480.168	5.03
480.521	5.01
480.875	5.01
481.228	5.08
481.582	4.99
481.935	4.88
482.289	4.97
482.642	4.9
482.995	4.86
483.348	4.95
483.701	4.98
484.055	4.83
484.408	4.89
484.761	4.84
485.114	4.69
485.466	4.61
485.819	4.57
486.172	4.51
486.525	4.56
486.878	4.6
487.23	4.72
487.583	4.72
487.936	4.76
488.288	4.79
488.641	4.79
488.993	4.64
489.345	4.69
489.698	4.62
490.05	4.62
490.402	4.59
490.754	4.69
491.107	4.7
491.459	4.81
491.811	4.8
492.163	4.79
492.515	4.84
492.866	4.93
493.218	4.79
493.57	4.67
493.922	4.6
494.274	4.72
494.625	4.73
494.977	4.75
495.328	4.9
495.68	4.91
496.031	4.86
496.383	4.91
496.734	4.99
497.086	4.96
497.437	4.94
497.788	4.85
498.139	5.07
498.49	4.91
498.842	4.77
499.193	4.98
499.544	4.96
499.894	4.94
500.245	4.88
500.596	4.98
500.947	4.93
501.298	4.82
501.648	4.88
501.999	5.05
502.35	4.98
502.7	5.13
503.051	4.93
503.401	5.03
503.752	4.97
504.102	5.04
504.452	4.88
504.803	4.96
505.153	5.11
505.503	4.98
505.853	5.1
506.203	4.84
506.553	4.86
506.903	4.88
507.253	5.03
507.603	4.92
507.953	4.89
508.303	4.79
508.652	5.08
509.002	5.01
509.352	5.02
509.701	4.91
510.051	4.84
510.4	4.92
510.75	4.94
511.099	4.85
511.449	4.91
511.798	4.96
512.147	4.87
512.496	4.91
512.846	4.9
513.195	4.98
513.544	4.88
513.893	4.81
514.242	4.91
514.591	4.95
514.939	4.9
515.288	4.89
515.637	4.96
515.986	5.03
516.334	4.93
516.683	5.01
517.032	4.75
517.38	4.91
517.729	4.97
518.077	5
518.426	4.97
518.774	4.84
519.122	4.92
519.47	4.9
519.819	4.92
520.167	4.83
520.515	4.86
520.863	4.85
521.211	4.77
521.559	4.85
521.907	4.91
522.255	4.79
522.602	4.97
522.95	4.84
523.298	4.91
523.645	4.99
523.993	4.95
524.341	4.98
524.688	4.97
525.036	4.85
525.383	4.98
525.73	5.14
526.078	4.94
526.425	5.03
526.772	4.83
527.119	4.79
527.466	4.78
527.814	4.86
528.161	4.84
528.508	4.8
528.854	4.9
529.201	4.85
529.548	4.77
529.895	4.85
530.242	4.74
530.588	4.61
530.935	4.58
531.282	4.64
531.628	4.73
531.975	4.67
532.321	4.68
532.667	4.74
533.014	4.78
533.36	4.87
533.706	4.89
534.052	4.97
534.399	4.85
534.745	4.71
535.091	4.76
535.437	4.78
535.783	4.77
536.129	4.77
536.474	4.77
536.82	4.81
537.166	4.86
537.512	4.96
537.857	4.91
538.203	4.9
538.549	4.99
538.894	4.81
539.239	4.8
539.585	4.79
539.93	4.82
540.276	5.03
540.621	4.93
540.966	4.98
541.311	4.97
541.656	4.99
542.001	4.92
542.346	4.92
542.691	4.81
543.036	4.71
543.381	4.68
543.726	4.6
544.071	4.7
544.415	4.72
544.76	4.79
545.105	4.79
545.449	4.84
545.794	4.83
546.138	4.83
546.483	4.87
546.827	4.85
547.171	4.93
547.516	4.81
547.86	4.97
548.204	4.75
548.548	4.91
548.892	4.76
549.236	4.99
549.58	4.8
549.924	4.84
550.268	4.88
550.612	4.96
550.956	5.16
551.3	5.04
551.643	4.86
551.987	5.13
552.33	4.97
552.674	4.84
553.017	4.96
553.361	5.01
553.704	5.1
554.048	4.95
554.391	5.12
554.734	5.02
555.077	4.99
555.42	4.8
555.764	4.96
556.107	5.06
556.45	5.01
556.793	4.89
557.135	4.84
557.478	4.77
557.821	5.01
558.164	5.13
558.507	5.03
558.849	5.08
559.192	4.92
559.534	5.14
559.877	4.96
560.219	5.17
560.562	5.04
560.904	4.75
561.246	4.84
561.589	4.91
561.931	5.11
562.273	5.16
562.615	5.2
562.957	5.03
563.299	4.88
563.641	5.01
563.983	4.93
564.325	4.85
564.667	5.03
565.008	4.88
565.35	4.99
565.692	4.93
566.033	4.93
566.375	5.08
566.716	5.07
567.058	5.01
567.399	5.04
567.741	4.79
568.082	4.81
568.423	4.94
568.764	4.85
569.105	5.09
569.447	4.85
569.788	5.02
570.129	4.97
570.47	4.95
570.811	5.09
571.151	4.98
571.492	5.01
571.833	5.02
572.174	5.08
572.514	5
572.855	4.91
573.195	5.07
573.536	4.77
573.876	5.07
574.217	4.95
574.557	4.85
574.898	4.81
575.238	4.93
575.578	4.95
575.918	4.81
576.258	4.96
576.598	5.07
576.938	4.94
577.278	4.95
577.618	4.86
577.958	5.03
578.298	4.83
578.638	4.92
578.977	4.96
579.317	4.94
579.657	5
579.996	5.13
580.336	5.18
580.675	5.1
581.014	4.88
581.354	4.85
581.693	4.74
582.032	5.13
582.372	4.83
582.711	5.26
583.05	5.12
583.389	5.01
583.728	5.13
584.067	5.2
584.406	4.94
584.745	5.17
585.083	4.98
585.422	4.99
585.761	5.1
586.1	5.03
586.438	4.82
586.777	5.02
587.115	5.2
587.454	5
587.792	4.8
588.13	5.34
588.469	5.14
588.807	4.69
589.145	5.04
589.483	5.14
589.821	4.93
590.159	4.96
590.497	4.81
590.835	5
591.173	4.96
591.511	5
591.849	4.91
592.187	4.78
592.524	4.79
592.862	4.68
593.2	5.04
593.537	5
593.875	4.96
594.212	5.16
594.55	4.88
594.887	5.03
595.224	4.76
595.561	4.74
595.899	5.08
596.236	5.07
596.573	4.87
596.91	4.93
597.247	5.08
597.584	4.78
597.921	4.99
598.258	5.09
598.594	5.04
598.931	4.73
599.268	4.84
599.604	4.93
599.941	4.85
600.277	4.99
600.614	4.88
600.95	4.92
601.287	4.79
601.623	5.27
601.959	5.05
602.296	4.94
602.632	5.07
602.968	4.83
603.304	4.86
603.64	4.67
603.976	4.95
604.312	5.07
604.648	5.05
604.984	5.03
605.319	4.97
605.655	4.86
605.991	4.77
606.326	4.83
606.662	4.72
606.998	4.8
607.333	4.88
607.668	4.69
608.004	4.97
608.339	4.92
608.674	4.88
609.01	4.89
609.345	5.11
609.68	5.07
610.015	4.71
610.35	5
610.685	4.96
611.02	4.81
611.355	4.71
611.689	4.93
612.024	4.94
612.359	4.94
612.694	4.87
613.028	4.97
613.363	4.91
613.697	5.03
614.032	5
614.366	4.88
614.7	4.88
615.035	5.12
615.369	4.93
615.703	4.85
616.037	4.53
616.371	4.87
616.705	5.06
617.039	5
617.373	4.96
617.707	4.94
618.041	5.01
618.375	5
618.709	5.17
619.042	4.96
619.376	5.21
619.71	5.38
620.043	5.18
620.377	4.97
620.71	4.89
621.043	4.83
621.377	4.88
621.71	4.76
622.043	5.14
622.376	5.17
622.709	5.37
623.043	4.9
623.376	5.14
623.709	4.9
624.041	4.74
624.374	5.14
624.707	4.96
625.04	4.97
625.373	4.98
625.705	4.81
626.038	4.94
626.37	4.57
626.703	4.75
627.035	4.59
627.368	4.97
627.7	5.11
628.032	4.82
628.365	4.86
628.697	4.83
629.029	4.91
629.361	4.95
629.693	4.55
630.025	4.93
630.357	4.92
630.689	4.8
631.021	4.93
631.353	4.93
631.684	4.72
632.016	5.02
632.348	4.88
632.679	4.74
633.011	5.16
633.342	4.69
633.674	5.03
634.005	5.04
634.336	5.28
634.668	4.8
634.999	5.03
635.33	4.49
635.661	5.02
635.992	5.25
636.323	5.22
636.654	5.09
636.985	4.84
637.316	4.72
637.647	4.97
637.977	4.68
638.308	4.92
638.639	5.12
638.969	4.93
639.3	4.47
639.63	4.88
639.961	4.86
640.291	5.06
640.622	5.17
640.952	5.06
641.282	4.86
641.612	5.33
641.943	5.13
642.273	4.98
642.603	5.11
642.933	5.19
643.263	5.1
643.592	4.88
643.922	5.52
644.252	4.85
644.582	5.18
644.911	5.02
645.241	5.15
645.571	5.43
645.9	5.2
646.23	5.1
646.559	5.07
646.888	4.85
647.218	5.01
647.547	4.63
647.876	4.95
648.205	5.05
648.534	4.58
648.863	4.61
649.192	4.9
649.521	5.25
649.85	5.17
650.179	4.96
650.508	4.57
650.837	5.31
651.165	5.15
651.494	4.36
651.822	5.1
652.151	5.24
652.479	5.01
652.808	4.93
653.136	4.66
653.465	5.12
653.793	5.23
654.121	5.2
654.449	5.15
654.777	4.83
655.105	5.46
655.433	5.33
655.761	5.64
656.089	5.13
656.417	5.2
656.745	5.03
657.073	4.87
657.4	5.73
657.728	5.42
658.056	5.32
658.383	5.24
658.711	4.63
659.038	5.47
659.365	5.16
659.693	5.04
660.02	4.81
660.347	4.67
660.674	4.93
661.001	4.72
661.329	5.16
661.656	5.35
661.982	4.82
662.309	4.47
662.636	5.24
662.963	4.93
663.29	5.01
663.616	4.99
663.943	4.76
664.27	5.37
664.596	5.02
664.923	5.05
665.249	5.05
665.576	4.84
665.902	5.14
666.228	5.39
666.554	5.29
666.881	4.64
667.207	5.09
667.533	4.8
667.859	5.28
668.185	5.4
668.511	5.29
668.837	5.3
669.162	5.35
669.488	5.41
669.814	4.22
670.139	5.09
670.465	4.77
670.791	5.24
671.116	5.05
671.442	5.21
671.767	5.03
672.092	4.92
672.418	4.94
672.743	5.08
673.068	5.54
673.393	5.39
673.718	4.87
674.043	4.7
674.368	4.87
674.693	5.1
675.018	5.7
675.343	5.55
675.667	4.7
675.992	5.16
676.317	5.68
676.641	5.39
676.966	5.47
677.29	5.01
677.615	5.1
677.939	5.25
678.264	5.04
678.588	4.76
678.912	5.1
679.236	5.25
679.56	4.86
679.885	5.26
680.209	5.32
680.532	5.21
680.856	5.45
681.18	5.49
681.504	4.92
681.828	5.57
682.152	5.04
682.475	4.76
682.799	5.06
683.122	4.74
683.446	5.07
683.769	5.08
684.093	5.15
684.416	5.06
684.739	5.24
685.062	4.49
685.386	4.79
685.709	5.13
686.032	4.88
686.355	5.62
686.678	5.31
687.001	5.79
687.324	4.8
687.646	5.06
687.969	5.96
688.292	6.22
688.614	5.38
688.937	5.47
689.26	5.05
689.582	4.71
689.904	4.54
690.227	5.8
690.549	5.45
690.871	5.92
691.194	5.98
691.516	5.66
691.838	5.99
692.16	4.83
692.482	4.86
692.804	5.56
693.126	5.08
