Data from 0237_chest_Reflection__1__63.txt Node

Date: Fri Oct 20 21:10:14 CDT 2023
User: ToomeyLab
Spectrometer: FLMS14357
Trigger mode: 0
Integration Time (sec): 1.000000E-2
Scans to average: 100
Electric dark correction enabled: true
Nonlinearity correction enabled: false
Boxcar width: 0
XAxis mode: Wavelengths
Number of Pixels in Spectrum: 2048
>>>>>Begin Spectral Data<<<<<
189.047	-38.59
189.435	-38.59
189.823	-38.59
190.211	-60.78
190.599	-464.97
190.987	31.51
191.375	1443.77
191.763	263.64
192.151	1455.09
192.538	630.93
192.926	387.39
193.314	51.68
193.702	227.2
194.089	87.28
194.477	39.72
194.864	-502.8
195.252	149.87
195.639	-775.24
196.027	-53.53
196.414	100.29
196.801	-11.87
197.189	57.46
197.576	14.73
197.963	4204.79
198.351	40.57
198.738	11.57
199.125	7.35
199.512	13.6
199.899	12.98
200.286	-31.48
200.673	6.49
201.06	10.43
201.447	22.96
201.833	29.36
202.22	30.48
202.607	28.53
202.994	28.55
203.38	16.65
203.767	36.83
204.154	41.32
204.54	51.32
204.927	9.83
205.313	50.46
205.699	56.55
206.086	29.54
206.472	47.33
206.858	38.23
207.245	-4.77
207.631	4.25
208.017	30.18
208.403	31.46
208.789	28.89
209.175	13.9
209.561	38.74
209.947	23.05
210.333	36.42
210.719	30.18
211.105	12.47
211.491	47.24
211.876	-8.58
212.262	33.23
212.648	67.9
213.034	42.55
213.419	25.95
213.805	21.63
214.19	15.39
214.576	11.05
214.961	18.86
215.346	24.58
215.732	54.36
216.117	18.29
216.502	25.61
216.888	25.2
217.273	-7.2
217.658	11.61
218.043	0.9
218.428	9.58
218.813	10.5
219.198	8
219.583	15.84
219.968	-19.54
220.353	-0.52
220.738	23.66
221.122	3.95
221.507	4.92
221.892	13.13
222.276	11.28
222.661	15.83
223.046	12.66
223.43	20.22
223.815	9.74
224.199	19.54
224.583	1.31
224.968	2.34
225.352	1.33
225.736	-1.76
226.121	5.12
226.505	3.34
226.889	4.84
227.273	6.69
227.657	9.78
228.041	15.05
228.425	3
228.809	4.02
229.193	4.25
229.577	5.9
229.961	2.28
230.344	3.29
230.728	2.61
231.112	3.3
231.495	2.8
231.879	4.23
232.263	5.08
232.646	2.06
233.03	2.13
233.413	2.69
233.797	3.49
234.18	2.64
234.563	2.96
234.946	7.42
235.33	5.3
235.713	4.14
236.096	3.68
236.479	3.76
236.862	3.75
237.245	2.99
237.628	2.46
238.011	4.4
238.394	3.45
238.777	6.22
239.16	4.42
239.543	5.45
239.925	5.56
240.308	3.48
240.691	3.62
241.073	5.01
241.456	3.83
241.838	3.44
242.221	4.7
242.603	4.08
242.986	3.79
243.368	3.4
243.75	3.43
244.133	3.17
244.515	3.2
244.897	2.99
245.279	3.67
245.661	3.7
246.043	3.31
246.425	2.48
246.807	3.45
247.189	3.93
247.571	3.3
247.953	3.77
248.335	3.61
248.717	3.07
249.098	2.79
249.48	2.74
249.862	3.02
250.243	3.58
250.625	3.44
251.006	3.77
251.388	3.24
251.769	3.51
252.151	2.81
252.532	3.34
252.913	4.44
253.295	2.91
253.676	4.03
254.057	3.28
254.438	3.1
254.819	3.36
255.2	3.18
255.581	3.03
255.962	4.4
256.343	3.46
256.724	1.59
257.105	3.19
257.486	3.64
257.867	4.35
258.247	3.76
258.628	3.34
259.009	2.85
259.389	3.05
259.77	3.2
260.15	3.26
260.531	3.62
260.911	3.35
261.292	3.08
261.672	3.38
262.052	3.02
262.432	3.04
262.813	2.99
263.193	3.61
263.573	3.25
263.953	2.78
264.333	3.26
264.713	4
265.093	3.12
265.473	3.84
265.853	3.1
266.233	3.82
266.612	3.31
266.992	4
267.372	3.8
267.752	2.82
268.131	2.91
268.511	2.84
268.89	3.59
269.27	2.69
269.649	2.95
270.029	3.15
270.408	3.08
270.787	3.19
271.167	3.05
271.546	3.64
271.925	3.77
272.304	3.67
272.683	2.97
273.062	3.53
273.441	3.13
273.82	3.06
274.199	3.33
274.578	3.19
274.957	3.26
275.336	3.26
275.715	3.23
276.093	3.03
276.472	3.26
276.851	3.15
277.229	3.29
277.608	2.59
277.986	2.89
278.365	3.6
278.743	3.28
279.122	3.4
279.5	3.11
279.878	2.64
280.257	3.29
280.635	2.8
281.013	3.56
281.391	3.27
281.769	2.7
282.147	2.63
282.525	3.37
282.903	2.76
283.281	3
283.659	3.45
284.037	3.01
284.415	2.69
284.792	3.02
285.17	2.93
285.548	3.01
285.925	2.68
286.303	2.79
286.68	3.01
287.058	3.75
287.435	3.09
287.813	2.75
288.19	3.23
288.567	2.98
288.945	2.99
289.322	3.43
289.699	2.99
290.076	4.13
290.453	3.11
290.83	3.15
291.207	3.72
291.584	2.8
291.961	3.18
292.338	2.91
292.715	2.85
293.092	3.11
293.469	3.28
293.845	3.83
294.222	3.01
294.599	2.87
294.975	3.54
295.352	3.56
295.728	3.44
296.105	3.1
296.481	3.36
296.858	3.3
297.234	3.89
297.61	3.1
297.986	3.21
298.363	3.18
298.739	3.17
299.115	3.41
299.491	2.97
299.867	3.31
300.243	3.16
300.619	3.23
300.995	3.12
301.371	3.7
301.746	3.23
302.122	3.32
302.498	3.06
302.874	3.41
303.249	3.08
303.625	3.68
304	3.81
304.376	3.08
304.751	2.6
305.127	3.32
305.502	3.61
305.878	3.45
306.253	3.22
306.628	3.57
307.003	3.28
307.378	3.21
307.754	4.06
308.129	4.04
308.504	3.88
308.879	3.77
309.254	3.79
309.629	3.37
310.003	3.18
310.378	3.53
310.753	3.54
311.128	3.94
311.502	3.69
311.877	3.51
312.252	3.67
312.626	3.72
313.001	3.55
313.375	3.78
313.75	3.71
314.124	3.29
314.498	3.36
314.873	3.54
315.247	3.62
315.621	3.56
315.995	3.86
316.369	3.21
316.743	3.37
317.117	4.05
317.491	2.96
317.865	4.21
318.239	3.96
318.613	4.08
318.987	3.42
319.361	3.47
319.734	3.96
320.108	3.25
320.482	3.85
320.855	3.7
321.229	4.18
321.602	3.8
321.976	3.1
322.349	3.73
322.723	3.37
323.096	3.79
323.469	3.43
323.843	3.71
324.216	4.3
324.589	3.88
324.962	4.58
325.335	3.92
325.708	3.48
326.081	3.86
326.454	3.82
326.827	3.93
327.2	3.97
327.573	3.64
327.945	4.05
328.318	3.24
328.691	3.82
329.063	4.38
329.436	3.75
329.809	3.75
330.181	4.37
330.553	3.97
330.926	4.06
331.298	3.56
331.671	3.58
332.043	3.55
332.415	3.94
332.787	3.99
333.159	3.34
333.532	3.53
333.904	4.31
334.276	3.95
334.648	4.1
335.02	4.16
335.391	3.75
335.763	4.22
336.135	4.04
336.507	3.8
336.879	3.89
337.25	4.01
337.622	3.81
337.993	4.13
338.365	3.98
338.736	3.78
339.108	3.85
339.479	3.83
339.851	4.28
340.222	3.78
340.593	3.06
340.964	4.19
341.336	4.34
341.707	3.88
342.078	3.47
342.449	3.04
342.82	3.63
343.191	3.61
343.562	3.82
343.933	3.77
344.303	3.66
344.674	4.35
345.045	4.35
345.416	4.01
345.786	3.83
346.157	3.67
346.527	3.78
346.898	3.9
347.268	4.07
347.639	3.98
348.009	3.73
348.38	4.17
348.75	3.98
349.12	3.65
349.49	3.71
349.861	3.83
350.231	3.8
350.601	3.69
350.971	4.21
351.341	3.84
351.711	4.48
352.081	3.88
352.45	3.86
352.82	3.93
353.19	3.95
353.56	3.94
353.929	3.25
354.299	3.85
354.669	3.74
355.038	4.14
355.408	4.01
355.777	4.01
356.147	3.78
356.516	3.76
356.885	4.08
357.254	4.08
357.624	3.92
357.993	3.73
358.362	3.89
358.731	3.92
359.1	3.32
359.469	3.84
359.838	3.81
360.207	3.79
360.576	4.13
360.945	3.67
361.314	3.71
361.682	4.01
362.051	3.86
362.42	3.78
362.788	4.09
363.157	4.17
363.525	3.79
363.894	3.95
364.262	3.86
364.631	3.95
364.999	4
365.367	4.02
365.735	3.75
366.104	3.75
366.472	3.78
366.84	3.88
367.208	3.84
367.576	3.66
367.944	4.06
368.312	3.99
368.68	4.11
369.048	4.18
369.416	4.01
369.783	4
370.151	4.11
370.519	4.08
370.886	4.11
371.254	4.31
371.621	4.25
371.989	3.84
372.356	4.17
372.724	4.18
373.091	3.77
373.458	3.84
373.826	4.26
374.193	3.95
374.56	4.06
374.927	4.1
375.294	3.99
375.661	4.1
376.028	4.43
376.395	4.32
376.762	4.24
377.129	4.24
377.496	4.26
377.863	4.43
378.229	4.52
378.596	4.2
378.963	4.07
379.329	4.47
379.696	4.28
380.062	4.15
380.429	3.9
380.795	4.17
381.161	4.2
381.528	4.38
381.894	4.07
382.26	4.4
382.626	4.3
382.993	3.95
383.359	4.19
383.725	3.91
384.091	4.15
384.457	4.1
384.823	3.89
385.188	4.51
385.554	4.37
385.92	4.13
386.286	4.42
386.651	3.88
387.017	3.99
387.383	3.79
387.748	4.09
388.114	4.02
388.479	4.17
388.845	4.46
389.21	4.17
389.575	3.91
389.94	3.99
390.306	4.08
390.671	4.19
391.036	4.06
391.401	4.28
391.766	4.14
392.131	4.14
392.496	4.13
392.861	4.06
393.226	4.15
393.591	4.13
393.956	4.2
394.32	4.31
394.685	4.1
395.05	4.4
395.414	4.34
395.779	3.86
396.143	4.25
396.508	4.2
396.872	4.18
397.236	4.22
397.601	4.11
397.965	4.23
398.329	3.91
398.694	4.13
399.058	4.04
399.422	4.18
399.786	4.27
400.15	4.22
400.514	4.23
400.878	4.41
401.242	4.31
401.605	4.4
401.969	4.2
402.333	4.27
402.697	4.34
403.06	4.3
403.424	4.22
403.787	4.42
404.151	4.33
404.514	4.35
404.878	4.29
405.241	4.5
405.604	4.12
405.968	4.41
406.331	4.18
406.694	4.34
407.057	4.36
407.42	4.49
407.783	4.3
408.146	4.31
408.509	4.18
408.872	4.48
409.235	4.29
409.598	4.42
409.961	4.55
410.323	4.48
410.686	4.26
411.049	4.31
411.411	4.37
411.774	4.25
412.136	4.35
412.499	4.38
412.861	4.31
413.223	4.29
413.586	4.15
413.948	4.45
414.31	4.45
414.672	4.18
415.035	4.54
415.397	4.55
415.759	4.42
416.121	4.23
416.483	4.47
416.845	4.32
417.206	4.48
417.568	4.46
417.93	4.53
418.292	4.15
418.653	4.42
419.015	4.43
419.377	4.34
419.738	4.41
420.1	4.19
420.461	4.24
420.822	4.19
421.184	4.29
421.545	4.28
421.906	4.27
422.267	4.21
422.629	4.3
422.99	4.16
423.351	4.18
423.712	4.2
424.073	4.2
424.434	4.12
424.795	4.16
425.155	4.32
425.516	4.19
425.877	4.23
426.238	4.11
426.598	4.2
426.959	4.18
427.32	4.28
427.68	4.33
428.041	4.28
428.401	4.32
428.761	4.28
429.122	4.46
429.482	4.42
429.842	4.4
430.202	4.43
430.563	4.54
430.923	4.39
431.283	4.28
431.643	4.38
432.003	4.58
432.363	4.39
432.722	4.45
433.082	4.4
433.442	4.32
433.802	4.63
434.161	4.4
434.521	4.55
434.881	4.34
435.24	4.38
435.6	4.25
435.959	4.29
436.319	4.43
436.678	4.5
437.037	4.41
437.396	4.54
437.756	4.59
438.115	4.35
438.474	4.6
438.833	4.54
439.192	4.31
439.551	4.23
439.91	4.51
440.269	4.55
440.628	4.52
440.987	4.61
441.345	4.46
441.704	4.42
442.063	4.43
442.421	4.34
442.78	4.37
443.138	4.48
443.497	4.4
443.855	4.45
444.214	4.47
444.572	4.36
444.93	4.6
445.288	4.52
445.647	4.58
446.005	4.33
446.363	4.37
446.721	4.44
447.079	4.53
447.437	4.41
447.795	4.36
448.153	4.36
448.51	4.43
448.868	4.46
449.226	4.39
449.584	4.52
449.941	4.39
450.299	4.35
450.656	4.35
451.014	4.5
451.371	4.52
451.729	4.41
452.086	4.55
452.443	4.65
452.801	4.61
453.158	4.72
453.515	4.57
453.872	4.59
454.229	4.72
454.586	4.55
454.943	4.54
455.3	4.37
455.657	4.67
456.014	4.48
456.371	4.52
456.727	4.68
457.084	4.56
457.441	4.72
457.797	4.61
458.154	4.68
458.51	4.51
458.867	4.62
459.223	4.68
459.58	4.64
459.936	4.61
460.292	4.5
460.648	4.47
461.005	4.47
461.361	4.68
461.717	4.44
462.073	4.46
462.429	4.47
462.785	4.45
463.141	4.56
463.496	4.55
463.852	4.72
464.208	4.65
464.564	4.78
464.919	4.52
465.275	4.83
465.631	4.78
465.986	4.88
466.342	4.77
466.697	4.63
467.052	4.72
467.408	4.75
467.763	4.75
468.118	4.97
468.473	4.71
468.829	4.69
469.184	4.74
469.539	4.67
469.894	4.76
470.249	4.87
470.603	4.68
470.958	4.68
471.313	4.86
471.668	4.7
472.023	4.84
472.377	4.79
472.732	4.69
473.086	4.71
473.441	4.94
473.795	5.11
474.15	4.83
474.504	4.7
474.859	4.86
475.213	4.84
475.567	4.94
475.921	4.69
476.275	4.91
476.63	4.96
476.984	4.94
477.338	4.77
477.692	4.98
478.045	4.75
478.399	4.84
478.753	4.83
479.107	4.86
479.461	4.81
479.814	4.91
480.168	5.01
480.521	4.85
480.875	4.75
481.228	4.9
481.582	4.84
481.935	4.75
482.289	4.89
482.642	4.79
482.995	4.81
483.348	4.84
483.701	4.75
484.055	4.81
484.408	4.62
484.761	4.73
485.114	4.65
485.466	4.57
485.819	4.5
486.172	4.47
486.525	4.49
486.878	4.54
487.23	4.63
487.583	4.65
487.936	4.64
488.288	4.74
488.641	4.76
488.993	4.66
489.345	4.61
489.698	4.62
490.05	4.6
490.402	4.61
490.754	4.67
491.107	4.67
491.459	4.71
491.811	4.79
492.163	4.84
492.515	4.89
492.866	4.87
493.218	4.72
493.57	4.7
493.922	4.65
494.274	4.7
494.625	4.75
494.977	4.8
495.328	4.9
495.68	4.9
496.031	4.96
496.383	5.04
496.734	5
497.086	5.02
497.437	4.98
497.788	4.95
498.139	5.07
498.49	4.93
498.842	4.89
499.193	4.97
499.544	4.97
499.894	5.03
500.245	5
500.596	5.01
500.947	4.97
501.298	4.99
501.648	4.99
501.999	4.95
502.35	5.13
502.7	5.23
503.051	5.02
503.401	5.08
503.752	5.15
504.102	5.17
504.452	5.18
504.803	5.11
505.153	5.17
505.503	5.05
505.853	5.23
506.203	5
506.553	5.14
506.903	5.2
507.253	5.12
507.603	5.15
507.953	5.21
508.303	5.16
508.652	5.3
509.002	5.23
509.352	5.31
509.701	5.1
510.051	5.19
510.4	5.18
510.75	5.19
511.099	5.12
511.449	5.3
511.798	5.23
512.147	5.19
512.496	5.22
512.846	5.15
513.195	5.25
513.544	5.21
513.893	5.11
514.242	5.21
514.591	5.26
514.939	5.21
515.288	5.24
515.637	5.23
515.986	5.39
516.334	5.3
516.683	5.33
517.032	5.29
517.38	5.28
517.729	5.42
518.077	5.35
518.426	5.34
518.774	5.32
519.122	5.31
519.47	5.32
519.819	5.4
520.167	5.27
520.515	5.3
520.863	5.29
521.211	5.3
521.559	5.38
521.907	5.38
522.255	5.34
522.602	5.47
522.95	5.31
523.298	5.44
523.645	5.5
523.993	5.33
524.341	5.54
524.688	5.55
525.036	5.6
525.383	5.53
525.73	5.5
526.078	5.57
526.425	5.56
526.772	5.4
527.119	5.52
527.466	5.4
527.814	5.49
528.161	5.46
528.508	5.49
528.854	5.46
529.201	5.51
529.548	5.44
529.895	5.46
530.242	5.37
530.588	5.27
530.935	5.22
531.282	5.32
531.628	5.37
531.975	5.35
532.321	5.47
532.667	5.54
533.014	5.58
533.36	5.57
533.706	5.7
534.052	5.7
534.399	5.55
534.745	5.55
535.091	5.56
535.437	5.57
535.783	5.54
536.129	5.57
536.474	5.68
536.82	5.7
537.166	5.67
537.512	5.83
537.857	5.83
538.203	5.85
538.549	5.9
538.894	5.74
539.239	5.81
539.585	5.74
539.93	5.88
540.276	5.9
540.621	5.97
540.966	5.99
541.311	6.05
541.656	5.91
542.001	6.11
542.346	6.03
542.691	5.86
543.036	5.79
543.381	5.74
543.726	5.7
544.071	5.83
544.415	5.82
544.76	5.89
545.105	6.05
545.449	6
545.794	6
546.138	5.95
546.483	6.12
546.827	6.05
547.171	6.15
547.516	6.04
547.86	6.1
548.204	6.02
548.548	6.17
548.892	6.12
549.236	6.09
549.58	6.12
549.924	6.22
550.268	6.31
550.612	6.32
550.956	6.5
551.3	6.37
551.643	6.37
551.987	6.54
552.33	6.53
552.674	6.4
553.017	6.52
553.361	6.67
553.704	6.52
554.048	6.54
554.391	6.61
554.734	6.49
555.077	6.46
555.42	6.41
555.764	6.52
556.107	6.57
556.45	6.68
556.793	6.63
557.135	6.39
557.478	6.65
557.821	6.7
558.164	6.87
558.507	6.7
558.849	6.75
559.192	6.9
559.534	7
559.877	6.6
560.219	7
560.562	6.89
560.904	6.7
561.246	6.94
561.589	6.95
561.931	6.96
562.273	7.04
562.615	7.06
562.957	7.1
563.299	7.04
563.641	7.1
563.983	7.12
564.325	6.95
564.667	7.02
565.008	7.07
565.35	7.04
565.692	7
566.033	7.26
566.375	7.27
566.716	7.32
567.058	7.26
567.399	7.28
567.741	7.24
568.082	7.26
568.423	7.35
568.764	7.09
569.105	7.36
569.447	7.25
569.788	7.37
570.129	7.25
570.47	7.32
570.811	7.57
571.151	7.33
571.492	7.51
571.833	7.6
572.174	7.64
572.514	7.44
572.855	7.52
573.195	7.53
573.536	7.35
573.876	7.69
574.217	7.44
574.557	7.46
574.898	7.46
575.238	7.63
575.578	7.58
575.918	7.59
576.258	7.89
576.598	7.86
576.938	7.66
577.278	7.68
577.618	7.63
577.958	7.59
578.298	7.75
578.638	7.92
578.977	7.98
579.317	7.86
579.657	7.95
579.996	7.94
580.336	8.04
580.675	7.88
581.014	8.03
581.354	8.04
581.693	8.04
582.032	8.21
582.372	8.16
582.711	8.16
583.05	8.4
583.389	8.26
583.728	8.12
584.067	8.16
584.406	8.25
584.745	8.31
585.083	8.55
585.422	8.26
585.761	8.18
586.1	8.56
586.438	8.36
586.777	8.76
587.115	8.72
587.454	8.58
587.792	8.62
588.13	8.59
588.469	8.58
588.807	8.35
589.145	8.66
589.483	8.71
589.821	8.69
590.159	8.79
590.497	8.66
590.835	8.9
591.173	8.76
591.511	8.88
591.849	8.66
592.187	8.67
592.524	8.79
592.862	8.81
593.2	8.95
593.537	8.93
593.875	9.11
594.212	9.23
594.55	8.92
594.887	9.11
595.224	9.01
595.561	9.27
595.899	8.99
596.236	9.11
596.573	9.18
596.91	9.22
597.247	9.07
597.584	8.87
597.921	9.15
598.258	9.22
598.594	9.42
598.931	9.15
599.268	9.22
599.604	9.21
599.941	9.3
600.277	9.15
600.614	9.48
600.95	9.35
601.287	9.5
601.623	9.55
601.959	9.61
602.296	9.41
602.632	9.77
602.968	9.41
603.304	9.56
603.64	9.68
603.976	9.67
604.312	9.86
604.648	9.98
604.984	10.07
605.319	9.69
605.655	9.73
605.991	9.95
606.326	9.82
606.662	9.86
606.998	9.58
607.333	9.7
607.668	9.75
608.004	10.02
608.339	9.89
608.674	10.26
609.01	9.94
609.345	10.41
609.68	10.1
610.015	9.86
610.35	10.45
610.685	10.68
611.02	10.32
611.355	10.12
611.689	10.11
612.024	10.28
612.359	10.18
612.694	10.3
613.028	10.58
613.363	10.53
613.697	10.45
614.032	10.78
614.366	10.41
614.7	10.48
615.035	10.81
615.369	10.85
615.703	10.51
616.037	10.96
616.371	10.6
616.705	10.65
617.039	10.45
617.373	10.77
617.707	11.02
618.041	10.94
618.375	10.77
618.709	11.01
619.042	11.15
619.376	11.57
619.71	11.29
620.043	11.37
620.377	10.73
620.71	11.05
621.043	11.55
621.377	10.94
621.71	11
622.043	11.33
622.376	11.38
622.709	11.53
623.043	11.51
623.376	11.22
623.709	11.17
624.041	11.51
624.374	11.72
624.707	11.26
625.04	11.77
625.373	11.76
625.705	11.5
626.038	11.64
626.37	10.97
626.703	11.45
627.035	11.79
627.368	11.78
627.7	12.13
628.032	11.9
628.365	11.77
628.697	11.69
629.029	11.68
629.361	11.65
629.693	11.75
630.025	11.89
630.357	12.26
630.689	11.84
631.021	12.22
631.353	12.03
631.684	11.98
632.016	12.25
632.348	12
632.679	12.3
633.011	12.23
633.342	12.24
633.674	12.14
634.005	12.37
634.336	12.92
634.668	12.28
634.999	12.35
635.33	12.08
635.661	12.59
635.992	12.63
636.323	12.65
636.654	12.52
636.985	12.59
637.316	12.59
637.647	12.49
637.977	12.71
638.308	12.79
638.639	12.8
638.969	12.85
639.3	12.81
639.63	12.89
639.961	13.04
640.291	12.92
640.622	13.08
640.952	12.91
641.282	12.85
641.612	12.91
641.943	12.9
642.273	13.01
642.603	13.63
642.933	13.29
643.263	13.6
643.592	13.07
643.922	13.32
644.252	13.21
644.582	13.18
644.911	13.72
645.241	13.83
645.571	14.43
645.9	13.89
646.23	13.49
646.559	13.14
646.888	13.65
647.218	13.49
647.547	13.5
647.876	13.8
648.205	13.85
648.534	13.59
648.863	13.79
649.192	13.64
649.521	14.03
649.85	13.81
650.179	14.16
650.508	13.82
650.837	13.93
651.165	14.11
651.494	13.97
651.822	13.91
652.151	14.5
652.479	14.21
652.808	14.26
653.136	13.71
653.465	14.36
653.793	14.22
654.121	14.35
654.449	14.54
654.777	14.08
655.105	14.8
655.433	14.77
655.761	14.86
656.089	14.32
656.417	14.6
656.745	14.76
657.073	14.86
657.4	14.99
657.728	14.92
658.056	14.82
658.383	14.81
658.711	13.92
659.038	15.23
659.365	15.15
659.693	14.73
660.02	14.84
660.347	15.07
660.674	15.04
661.001	15.07
661.329	15.11
661.656	14.81
661.982	14.94
662.309	15.13
662.636	15.33
662.963	15.21
663.29	15.11
663.616	15.42
663.943	15.06
664.27	15.55
664.596	15.16
664.923	15.46
665.249	15.19
665.576	15.24
665.902	15.97
666.228	15.46
666.554	15.71
666.881	15.1
667.207	15.83
667.533	16.25
667.859	15.66
668.185	16.11
668.511	15.9
668.837	15.57
669.162	16.43
669.488	15.85
669.814	15.27
670.139	15.18
670.465	15.46
670.791	16.19
671.116	15.94
671.442	16.42
671.767	15.88
672.092	16.03
672.418	16.47
672.743	16
673.068	16.91
673.393	16.12
673.718	16.48
674.043	16.07
674.368	17
674.693	16.01
675.018	16.46
675.343	16.1
675.667	16.31
675.992	16.91
676.317	17.02
676.641	16.8
676.966	16.47
677.29	16.8
677.615	16.8
677.939	16.55
678.264	17.11
678.588	15.75
678.912	17.36
679.236	17.13
679.56	16.83
679.885	17.01
680.209	16.94
680.532	16.73
680.856	16.65
681.18	16.76
681.504	16.46
681.828	17.87
682.152	17.29
682.475	16.69
682.799	17.4
683.122	17.31
683.446	17.29
683.769	17.28
684.093	17.33
684.416	17.12
684.739	17.07
685.062	17.39
685.386	17.81
685.709	17.8
686.032	17.74
686.355	17.8
686.678	17.64
687.001	18.03
687.324	16.82
687.646	17.34
687.969	18.58
