Data from 0237_crown_Reflection__3__71.txt Node

Date: Fri Oct 20 21:12:30 CDT 2023
User: ToomeyLab
Spectrometer: FLMS14357
Trigger mode: 0
Integration Time (sec): 1.000000E-2
Scans to average: 100
Electric dark correction enabled: true
Nonlinearity correction enabled: false
Boxcar width: 0
XAxis mode: Wavelengths
Number of Pixels in Spectrum: 2048
>>>>>Begin Spectral Data<<<<<
189.047	20.28
189.435	20.28
189.823	20.28
190.211	21.03
190.599	108.89
190.987	115.88
191.375	-353.21
191.763	158.06
192.151	886.23
192.538	-1115.73
192.926	34.43
193.314	27.89
193.702	-41.03
194.089	78.74
194.477	153.17
194.864	-432.15
195.252	-3.1
195.639	891.43
196.027	-183.3
196.414	39.55
196.801	64.74
197.189	160.95
197.576	9.47
197.963	934.13
198.351	59.34
198.738	25.57
199.125	25.55
199.512	17.08
199.899	13.02
200.286	-30.89
200.673	3.47
201.06	11.17
201.447	-9.58
201.833	33.19
202.22	22.08
202.607	34.15
202.994	28.36
203.38	-0.38
203.767	62.32
204.154	14.34
204.54	39.9
204.927	26.29
205.313	23.57
205.699	51.22
206.086	22.95
206.472	36.41
206.858	55.04
207.245	9.5
207.631	40.94
208.017	24.47
208.403	24.35
208.789	41.76
209.175	4.37
209.561	12.72
209.947	15.84
210.333	27.44
210.719	27.53
211.105	41.25
211.491	45.11
211.876	-9.37
212.262	55.45
212.648	43.57
213.034	37.88
213.419	-0.69
213.805	23.76
214.19	11.25
214.576	-9.87
214.961	23.78
215.346	32.6
215.732	14.19
216.117	1.39
216.502	15.53
216.888	6.37
217.273	0.75
217.658	22.67
218.043	22.92
218.428	7.43
218.813	23.56
219.198	27.11
219.583	-22.83
219.968	-7.35
220.353	24.33
220.738	25.79
221.122	3.55
221.507	12.22
221.892	16.52
222.276	16.08
222.661	18.59
223.046	17.48
223.43	11.96
223.815	23.77
224.199	21.27
224.583	4.64
224.968	5.96
225.352	5.35
225.736	7.02
226.121	8.32
226.505	4.21
226.889	10.75
227.273	11.09
227.657	10.84
228.041	14.69
228.425	5.97
228.809	7.7
229.193	6.01
229.577	7.7
229.961	6
230.344	6.68
230.728	4.62
231.112	6.15
231.495	5.57
231.879	5.69
232.263	6.17
232.646	4.02
233.03	5.51
233.413	5.13
233.797	5.73
234.18	5.63
234.563	8.07
234.946	6.31
235.33	7.68
235.713	5.49
236.096	6.58
236.479	6.18
236.862	5.14
237.245	3.72
237.628	5.03
238.011	4.98
238.394	5.85
238.777	6.81
239.16	5.18
239.543	7.02
239.925	5.68
240.308	4.32
240.691	5.96
241.073	7.39
241.456	5.99
241.838	5.99
242.221	6.5
242.603	5.51
242.986	4.68
243.368	6.61
243.75	4.81
244.133	5.09
244.515	4.57
244.897	5.36
245.279	5.11
245.661	5.21
246.043	6.13
246.425	4.24
246.807	5.38
247.189	4.16
247.571	4.26
247.953	5.73
248.335	5.45
248.717	4.9
249.098	4.83
249.48	4.58
249.862	5.16
250.243	5.17
250.625	5.04
251.006	5.29
251.388	4.76
251.769	5.75
252.151	4.39
252.532	5.44
252.913	4.62
253.295	4.25
253.676	4.95
254.057	4.65
254.438	4.54
254.819	4.93
255.2	4.82
255.581	5.04
255.962	5.18
256.343	5.34
256.724	4.04
257.105	5.58
257.486	4.82
257.867	4.78
258.247	5.81
258.628	4.95
259.009	4.17
259.389	4.35
259.77	4.73
260.15	4.85
260.531	5.11
260.911	4.71
261.292	4.45
261.672	4.73
262.052	4.72
262.432	4.68
262.813	4.43
263.193	4.68
263.573	5.2
263.953	4.97
264.333	5.19
264.713	4.53
265.093	5.08
265.473	4.78
265.853	4.25
266.233	5.01
266.612	4.54
266.992	5.08
267.372	4.38
267.752	4.16
268.131	5.13
268.511	4.32
268.89	4.49
269.27	4.28
269.649	4.2
270.029	4.39
270.408	5.18
270.787	4.67
271.167	4.27
271.546	4.67
271.925	5.32
272.304	4.91
272.683	4.78
273.062	4.66
273.441	4.6
273.82	4.63
274.199	5.02
274.578	4.52
274.957	5.15
275.336	4.97
275.715	4.79
276.093	4.46
276.472	4.74
276.851	4.5
277.229	4.49
277.608	4.55
277.986	4.16
278.365	5.29
278.743	4.26
279.122	4.33
279.5	4.3
279.878	3.96
280.257	4.02
280.635	4.66
281.013	4.53
281.391	4.73
281.769	4.6
282.147	4.28
282.525	4.47
282.903	4.09
283.281	4.3
283.659	4.11
284.037	4.22
284.415	3.84
284.792	4.38
285.17	4.43
285.548	4.27
285.925	4.02
286.303	3.62
286.68	3.99
287.058	5.12
287.435	4.19
287.813	3.83
288.19	4.08
288.567	4.02
288.945	4.57
289.322	4.8
289.699	3.59
290.076	4.52
290.453	4.61
290.83	3.77
291.207	4.66
291.584	3.9
291.961	3.84
292.338	4.11
292.715	3.89
293.092	3.87
293.469	4.5
293.845	3.76
294.222	4.57
294.599	4.4
294.975	4.76
295.352	4.36
295.728	4.09
296.105	4.09
296.481	4.23
296.858	4
297.234	4.05
297.61	4.04
297.986	4.16
298.363	4.19
298.739	3.98
299.115	3.73
299.491	3.97
299.867	3.88
300.243	3.98
300.619	3.81
300.995	3.87
301.371	4.38
301.746	3.71
302.122	4.55
302.498	3.74
302.874	4.18
303.249	3.85
303.625	4.17
304	4.35
304.376	3.75
304.751	3.68
305.127	3.87
305.502	3.93
305.878	3.83
306.253	3.76
306.628	4
307.003	4.25
307.378	3.91
307.754	3.97
308.129	4.51
308.504	4.64
308.879	4.37
309.254	4.51
309.629	3.75
310.003	3.4
310.378	4.43
310.753	3.69
311.128	3.97
311.502	3.78
311.877	4.23
312.252	3.87
312.626	4.33
313.001	3.77
313.375	4.09
313.75	4.17
314.124	3.66
314.498	3.83
314.873	3.71
315.247	3.77
315.621	3.86
315.995	4.02
316.369	3.48
316.743	4.05
317.117	4.11
317.491	3.66
317.865	3.74
318.239	4.37
318.613	3.83
318.987	3.85
319.361	3.28
319.734	3.3
320.108	4.02
320.482	4.49
320.855	3.8
321.229	4.09
321.602	3.95
321.976	4.13
322.349	4.65
322.723	3.61
323.096	3.87
323.469	4.05
323.843	4.09
324.216	4.03
324.589	3.98
324.962	4.32
325.335	3.91
325.708	3.82
326.081	4.28
326.454	3.66
326.827	4.01
327.2	3.99
327.573	3.6
327.945	3.97
328.318	3.52
328.691	3.81
329.063	3.84
329.436	3.2
329.809	3.92
330.181	4.27
330.553	3.91
330.926	3.49
331.298	3.42
331.671	3.64
332.043	3.54
332.415	3.99
332.787	4.14
333.159	3.19
333.532	3.76
333.904	4.42
334.276	3.69
334.648	4
335.02	4.03
335.391	3.5
335.763	4.12
336.135	3.77
336.507	4.08
336.879	3.59
337.25	3.69
337.622	3.97
337.993	4.16
338.365	4.16
338.736	3.71
339.108	4.58
339.479	3.52
339.851	4
340.222	3.62
340.593	3.43
340.964	3.89
341.336	3.95
341.707	3.94
342.078	3.9
342.449	3.75
342.82	3.77
343.191	3.42
343.562	3.88
343.933	3.74
344.303	3.61
344.674	4.18
345.045	3.57
345.416	4.03
345.786	3.62
346.157	3.86
346.527	3.9
346.898	3.65
347.268	3.66
347.639	4.15
348.009	3.68
348.38	4.07
348.75	4.06
349.12	3.89
349.49	3.66
349.861	4.16
350.231	3.87
350.601	4.03
350.971	4.32
351.341	4.14
351.711	4.44
352.081	4.03
352.45	3.69
352.82	3.78
353.19	4.27
353.56	4
353.929	3.91
354.299	3.9
354.669	3.78
355.038	4.17
355.408	3.73
355.777	3.79
356.147	3.82
356.516	4.06
356.885	4.05
357.254	4.09
357.624	3.78
357.993	3.77
358.362	4.13
358.731	3.78
359.1	3.52
359.469	3.66
359.838	4.3
360.207	4.04
360.576	4.16
360.945	3.57
361.314	3.97
361.682	3.85
362.051	3.73
362.42	3.64
362.788	3.79
363.157	4.15
363.525	3.85
363.894	3.73
364.262	3.7
364.631	3.98
364.999	3.86
365.367	4.05
365.735	3.58
366.104	3.73
366.472	3.8
366.84	4.01
367.208	3.85
367.576	3.91
367.944	4.04
368.312	3.99
368.68	3.92
369.048	4.1
369.416	4.07
369.783	3.85
370.151	4.27
370.519	3.89
370.886	4.04
371.254	4.09
371.621	3.8
371.989	3.95
372.356	4.32
372.724	4.15
373.091	4.13
373.458	3.75
373.826	3.94
374.193	3.87
374.56	4.07
374.927	3.77
375.294	3.94
375.661	4.12
376.028	4.32
376.395	4.58
376.762	4.08
377.129	3.99
377.496	3.81
377.863	4.38
378.229	4.19
378.596	4.12
378.963	4.16
379.329	4.41
379.696	4.37
380.062	4.19
380.429	3.94
380.795	3.9
381.161	4.27
381.528	4.15
381.894	4.12
382.26	4.35
382.626	4.51
382.993	4.32
383.359	4.07
383.725	4.1
384.091	4.39
384.457	4.13
384.823	4.15
385.188	4.45
385.554	4.34
385.92	4.11
386.286	4.39
386.651	4.18
387.017	4.24
387.383	4.11
387.748	4
388.114	4.19
388.479	4.22
388.845	4.49
389.21	4.06
389.575	3.98
389.94	4.2
390.306	4.19
390.671	4.17
391.036	4.24
391.401	4.39
391.766	4.24
392.131	4.4
392.496	4.38
392.861	4.16
393.226	4.37
393.591	4.34
393.956	4.36
394.32	4.47
394.685	4.09
395.05	4.61
395.414	4.53
395.779	4.14
396.143	4.21
396.508	4.36
396.872	4.29
397.236	4.31
397.601	4.16
397.965	4.12
398.329	4.19
398.694	4.46
399.058	4.02
399.422	4.26
399.786	4.2
400.15	4.29
400.514	4.2
400.878	4.47
401.242	4.21
401.605	4.24
401.969	4.29
402.333	4.35
402.697	4.29
403.06	4.25
403.424	4.42
403.787	4.4
404.151	4.12
404.514	4.4
404.878	4.26
405.241	4.06
405.604	4.15
405.968	4.41
406.331	4.3
406.694	4.33
407.057	4.35
407.42	4.33
407.783	4.33
408.146	4.32
408.509	4.51
408.872	4.43
409.235	4.35
409.598	4.46
409.961	4.47
410.323	4.66
410.686	4.28
411.049	4.29
411.411	4.22
411.774	4.38
412.136	4.3
412.499	4.44
412.861	4.4
413.223	4.41
413.586	4.28
413.948	4.31
414.31	4.52
414.672	4.41
415.035	4.19
415.397	4.43
415.759	4.48
416.121	4.47
416.483	4.52
416.845	4.25
417.206	4.41
417.568	4.49
417.93	4.58
418.292	4.17
418.653	4.59
419.015	4.4
419.377	4.5
419.738	4.18
420.1	4.12
420.461	4.26
420.822	4.38
421.184	4.32
421.545	4.36
421.906	4.33
422.267	4.23
422.629	4.32
422.99	4.26
423.351	4.29
423.712	4.19
424.073	4.29
424.434	4.27
424.795	4.23
425.155	4.36
425.516	4.34
425.877	4.33
426.238	4.26
426.598	4.35
426.959	4.26
427.32	4.4
427.68	4.39
428.041	4.26
428.401	4.28
428.761	4.51
429.122	4.36
429.482	4.39
429.842	4.58
430.202	4.49
430.563	4.6
430.923	4.51
431.283	4.51
431.643	4.56
432.003	4.83
432.363	4.41
432.722	4.52
433.082	4.52
433.442	4.52
433.802	4.64
434.161	4.33
434.521	4.55
434.881	4.65
435.24	4.57
435.6	4.4
435.959	4.36
436.319	4.5
436.678	4.47
437.037	4.42
437.396	4.6
437.756	4.57
438.115	4.41
438.474	4.55
438.833	4.64
439.192	4.4
439.551	4.51
439.91	4.43
440.269	4.65
440.628	4.58
440.987	4.53
441.345	4.36
441.704	4.58
442.063	4.44
442.421	4.36
442.78	4.39
443.138	4.61
443.497	4.52
443.855	4.55
444.214	4.41
444.572	4.52
444.93	4.58
445.288	4.62
445.647	4.77
446.005	4.28
446.363	4.51
446.721	4.56
447.079	4.51
447.437	4.44
447.795	4.38
448.153	4.44
448.51	4.47
448.868	4.45
449.226	4.45
449.584	4.44
449.941	4.43
450.299	4.5
450.656	4.45
451.014	4.53
451.371	4.52
451.729	4.42
452.086	4.62
452.443	4.69
452.801	4.52
453.158	4.73
453.515	4.69
453.872	4.56
454.229	4.67
454.586	4.63
454.943	4.46
455.3	4.53
455.657	4.57
456.014	4.49
456.371	4.56
456.727	4.73
457.084	4.63
457.441	4.6
457.797	4.77
458.154	4.43
458.51	4.66
458.867	4.74
459.223	4.71
459.58	4.63
459.936	4.72
460.292	4.49
460.648	4.48
461.005	4.42
461.361	4.54
461.717	4.45
462.073	4.43
462.429	4.46
462.785	4.55
463.141	4.56
463.496	4.46
463.852	4.65
464.208	4.64
464.564	4.83
464.919	4.53
465.275	4.77
465.631	4.77
465.986	4.68
466.342	4.62
466.697	4.67
467.052	4.73
467.408	4.67
467.763	4.73
468.118	5.01
468.473	4.65
468.829	4.78
469.184	4.54
469.539	4.65
469.894	4.63
470.249	4.69
470.603	4.6
470.958	4.67
471.313	4.74
471.668	4.63
472.023	4.67
472.377	4.71
472.732	4.53
473.086	4.64
473.441	4.67
473.795	4.88
474.15	4.72
474.504	4.54
474.859	4.77
475.213	4.79
475.567	4.87
475.921	4.66
476.275	4.72
476.63	4.83
476.984	4.87
477.338	4.62
477.692	4.62
478.045	4.62
478.399	4.58
478.753	4.76
479.107	4.79
479.461	4.77
479.814	4.79
480.168	4.69
480.521	4.77
480.875	4.67
481.228	4.81
481.582	4.74
481.935	4.61
482.289	4.7
482.642	4.67
482.995	4.64
483.348	4.63
483.701	4.71
484.055	4.63
484.408	4.61
484.761	4.61
485.114	4.55
485.466	4.45
485.819	4.42
486.172	4.32
486.525	4.37
486.878	4.42
487.23	4.49
487.583	4.53
487.936	4.5
488.288	4.54
488.641	4.58
488.993	4.52
489.345	4.52
489.698	4.51
490.05	4.43
490.402	4.49
490.754	4.44
491.107	4.52
491.459	4.59
491.811	4.64
492.163	4.54
492.515	4.64
492.866	4.68
493.218	4.6
493.57	4.47
493.922	4.47
494.274	4.52
494.625	4.51
494.977	4.51
495.328	4.61
495.68	4.69
496.031	4.69
496.383	4.73
496.734	4.67
497.086	4.74
497.437	4.77
497.788	4.66
498.139	4.82
498.49	4.6
498.842	4.76
499.193	4.76
499.544	4.76
499.894	4.72
500.245	4.72
500.596	4.78
500.947	4.69
501.298	4.8
501.648	4.69
501.999	4.77
502.35	4.71
502.7	4.93
503.051	4.85
503.401	4.74
503.752	4.81
504.102	4.85
504.452	4.75
504.803	4.69
505.153	4.85
505.503	4.85
505.853	4.88
506.203	4.69
506.553	4.75
506.903	4.79
507.253	4.78
507.603	4.82
507.953	4.84
508.303	4.82
508.652	4.81
509.002	4.81
509.352	4.88
509.701	4.77
510.051	4.72
510.4	4.75
510.75	4.8
511.099	4.75
511.449	4.81
511.798	4.83
512.147	4.77
512.496	4.78
512.846	4.75
513.195	4.8
513.544	4.86
513.893	4.71
514.242	4.71
514.591	4.82
514.939	4.73
515.288	4.73
515.637	4.78
515.986	4.77
516.334	4.83
516.683	4.79
517.032	4.74
517.38	4.84
517.729	4.83
518.077	4.74
518.426	4.7
518.774	4.78
519.122	4.77
519.47	4.77
519.819	4.74
520.167	4.76
520.515	4.67
520.863	4.77
521.211	4.71
521.559	4.8
521.907	4.72
522.255	4.82
522.602	4.84
522.95	4.76
523.298	4.94
523.645	4.83
523.993	4.81
524.341	4.94
524.688	4.84
525.036	4.95
525.383	4.8
525.73	4.9
526.078	4.85
526.425	4.93
526.772	4.81
527.119	4.78
527.466	4.76
527.814	4.81
528.161	4.76
528.508	4.72
528.854	4.73
529.201	4.72
529.548	4.79
529.895	4.65
530.242	4.67
530.588	4.57
530.935	4.58
531.282	4.59
531.628	4.64
531.975	4.6
532.321	4.71
532.667	4.71
533.014	4.72
533.36	4.79
533.706	4.78
534.052	4.73
534.399	4.7
534.745	4.66
535.091	4.65
535.437	4.74
535.783	4.66
536.129	4.77
536.474	4.67
536.82	4.8
537.166	4.7
537.512	4.88
537.857	4.87
538.203	4.75
538.549	4.84
538.894	4.75
539.239	4.77
539.585	4.73
539.93	4.78
540.276	4.84
540.621	4.83
540.966	4.83
541.311	4.93
541.656	4.93
542.001	4.9
542.346	4.92
542.691	4.77
543.036	4.69
543.381	4.66
543.726	4.62
544.071	4.69
544.415	4.75
544.76	4.74
545.105	4.84
545.449	4.8
545.794	4.9
546.138	4.79
546.483	4.69
546.827	4.75
547.171	5.01
547.516	4.88
547.86	4.92
548.204	4.74
548.548	4.77
548.892	4.79
549.236	4.85
549.58	4.9
549.924	4.87
550.268	4.94
550.612	4.96
550.956	5.02
551.3	4.92
551.643	4.82
551.987	5.04
552.33	4.98
552.674	4.92
553.017	4.93
553.361	4.89
553.704	5.02
554.048	5.06
554.391	4.94
554.734	5.01
555.077	4.93
555.42	4.98
555.764	4.88
556.107	5.08
556.45	5.06
556.793	4.76
557.135	4.81
557.478	4.77
557.821	4.94
558.164	5.18
558.507	5.26
558.849	4.91
559.192	5.03
559.534	5.15
559.877	4.9
560.219	5.1
560.562	5.05
560.904	4.76
561.246	5
561.589	4.87
561.931	5.08
562.273	5.07
562.615	5.15
562.957	5.13
563.299	5.02
563.641	4.98
563.983	4.92
564.325	4.78
564.667	4.96
565.008	4.95
565.35	4.97
565.692	4.99
566.033	5.1
566.375	5.09
566.716	5.15
567.058	5.13
567.399	5.08
567.741	4.99
568.082	5.05
568.423	5.06
568.764	4.88
569.105	5
569.447	4.99
569.788	4.93
570.129	4.96
570.47	4.91
570.811	5.08
571.151	5.03
571.492	4.93
571.833	5.19
572.174	5.01
572.514	5.06
572.855	5.13
573.195	5.02
573.536	4.9
573.876	5.01
574.217	4.92
574.557	4.89
574.898	4.99
575.238	4.85
575.578	5.05
575.918	5.03
576.258	4.87
576.598	5.03
576.938	4.92
577.278	5.03
577.618	4.79
577.958	5.08
578.298	5.02
578.638	5.08
578.977	5.01
579.317	5.01
579.657	5.14
579.996	4.88
580.336	5.09
580.675	5.1
581.014	5.13
581.354	5.19
581.693	5.21
582.032	5.37
582.372	5.02
582.711	5.26
583.05	5.32
583.389	5.1
583.728	5.14
584.067	5.18
584.406	5.12
584.745	5.17
585.083	5.11
585.422	5.18
585.761	5.02
586.1	5.12
586.438	4.88
586.777	5.2
587.115	5.33
587.454	5.07
587.792	5.15
588.13	5.32
588.469	5.17
588.807	4.84
589.145	5.04
589.483	4.82
589.821	5.05
590.159	5.19
590.497	5.05
590.835	4.88
591.173	5.1
591.511	5.14
591.849	5.06
592.187	5.08
592.524	4.87
592.862	4.94
593.2	5.2
593.537	4.85
593.875	5.09
594.212	5.23
594.55	5.16
594.887	5.18
595.224	4.98
595.561	4.94
595.899	5.1
596.236	5.13
596.573	5.2
596.91	5.23
597.247	5.11
597.584	5
597.921	5.14
598.258	5.1
598.594	5.21
598.931	5.14
599.268	4.94
599.604	5.13
599.941	4.96
600.277	5
600.614	5.04
600.95	5.02
601.287	5.1
601.623	5.22
601.959	5.18
602.296	4.91
602.632	5.11
602.968	4.94
603.304	5.29
603.64	4.71
603.976	5.1
604.312	5.08
604.648	5.18
604.984	5.26
605.319	5.15
605.655	4.88
605.991	5.22
606.326	5.01
606.662	4.95
606.998	4.82
607.333	4.94
607.668	4.89
608.004	5
608.339	4.89
608.674	5
609.01	5.16
609.345	5.02
609.68	5.13
610.015	4.95
610.35	5.3
610.685	5.46
611.02	5.12
611.355	4.89
611.689	4.95
612.024	5.28
612.359	5.14
612.694	5.09
613.028	5.34
613.363	5.02
613.697	5.2
614.032	5.21
614.366	5.19
614.7	5.14
615.035	5.2
615.369	5.18
615.703	4.81
616.037	5.33
616.371	5.35
616.705	4.89
617.039	5.21
617.373	5.05
617.707	5.35
618.041	5.01
618.375	5.25
618.709	5.15
619.042	5.18
619.376	5.46
619.71	5.41
620.043	5.23
620.377	5.2
620.71	5.19
621.043	5.46
621.377	5
621.71	5.14
622.043	4.91
622.376	5.47
622.709	5.61
623.043	5.19
623.376	5.06
623.709	4.87
624.041	5.27
624.374	5.37
624.707	5.12
625.04	5.23
625.373	5.18
625.705	4.99
626.038	5.36
626.37	5.02
626.703	5.19
627.035	4.95
627.368	5.12
627.7	5.35
628.032	5.18
628.365	5.4
628.697	5.3
629.029	5.17
629.361	5.18
629.693	5.33
630.025	5.07
630.357	5.25
630.689	5.23
631.021	5.4
631.353	5.26
631.684	5
632.016	5.41
632.348	5.25
632.679	5.14
633.011	5.02
633.342	5.12
633.674	5.02
634.005	5.31
634.336	5.47
634.668	5.08
634.999	5.14
635.33	4.99
635.661	5.39
635.992	5.19
636.323	5.49
636.654	5.24
636.985	5.06
637.316	5.16
637.647	5.29
637.977	4.97
638.308	5.41
638.639	5.36
638.969	5.36
639.3	4.82
639.63	5.19
639.961	5.44
640.291	5.2
640.622	5.28
640.952	5.39
641.282	5.06
641.612	5.03
641.943	5.19
642.273	5.14
642.603	5.09
642.933	5.26
643.263	5.25
643.592	5.27
643.922	5.7
644.252	4.91
644.582	5.28
644.911	5.55
645.241	5.87
645.571	5.73
645.9	5.19
646.23	5.15
646.559	5.32
646.888	5.71
647.218	5.2
647.547	5.43
647.876	5.36
648.205	5.22
648.534	5.8
648.863	4.96
649.192	5.18
649.521	5.5
649.85	5.25
650.179	4.85
650.508	5.25
650.837	5.41
651.165	5.33
651.494	4.8
651.822	5.11
652.151	5.61
652.479	5.52
652.808	5.4
653.136	4.95
653.465	5.44
653.793	5.41
654.121	5.56
654.449	5.08
654.777	5.04
655.105	5.05
655.433	5.35
655.761	5.57
656.089	5.75
656.417	5.33
656.745	5.68
657.073	5.59
657.4	5.89
657.728	5.27
658.056	5.27
658.383	5.29
658.711	5.35
659.038	6.21
659.365	5.66
659.693	5.75
660.02	5.51
660.347	5.21
660.674	5.22
661.001	5.28
661.329	5.06
661.656	5.62
661.982	5.16
662.309	5.34
662.636	5.46
662.963	5.36
663.29	5.32
663.616	5.41
663.943	5.32
664.27	5.58
664.596	5.59
664.923	4.99
665.249	5.77
665.576	4.9
665.902	5.3
666.228	5.31
666.554	5.55
666.881	5.11
667.207	5.56
667.533	5.77
667.859	5.69
668.185	5.84
668.511	5.67
668.837	5.83
669.162	6.02
669.488	5.67
669.814	5.15
670.139	5.67
670.465	5.75
670.791	5.6
671.116	5.74
671.442	5.44
671.767	5.4
672.092	5.25
672.418	5.42
672.743	5.46
673.068	5.63
673.393	5.01
673.718	5.18
674.043	5.14
674.368	5.1
674.693	5.7
675.018	6.03
675.343	5.49
675.667	5.36
675.992	5.53
676.317	5.8
676.641	5.75
676.966	5.91
677.29	5.62
677.615	5.64
677.939	4.97
678.264	5.15
678.588	4.91
678.912	5.31
679.236	5.88
679.56	5.68
679.885	5.91
680.209	5.69
680.532	5.28
680.856	5
681.18	5.73
681.504	5.24
681.828	5.56
682.152	5.29
682.475	5.08
682.799	5.94
683.122	5.17
683.446	5.77
683.769	6.05
684.093	5.36
684.416	5.4
684.739	4.84
685.062	4.88
685.386	5.56
685.709	5.66
686.032	5.96
686.355	6.22
686.678	5.48
687.001	5.74
687.324	4.58
687.646	5.62
687.969	6.29
688.292	6.8
688.614	5.45
688.937	6.02
689.26	4.79
689.582	5.05
689.904	5.44
690.227	5.96
690.549	5.82
690.871	5.79
691.194	5.72
691.516	5.79
691.838	5.9
692.16	5.49
692.482	5.86
692.804	6.01
