Data from 0237_crown_Reflection__2__70.txt Node

Date: Fri Oct 20 21:12:21 CDT 2023
User: ToomeyLab
Spectrometer: FLMS14357
Trigger mode: 0
Integration Time (sec): 1.000000E-2
Scans to average: 100
Electric dark correction enabled: true
Nonlinearity correction enabled: false
Boxcar width: 0
XAxis mode: Wavelengths
Number of Pixels in Spectrum: 2048
>>>>>Begin Spectral Data<<<<<
189.047	-234.21
189.435	-234.21
189.823	-234.21
190.211	-376.24
190.599	-178.95
190.987	61.55
191.375	1972.08
191.763	272.29
192.151	1526.95
192.538	-1048
192.926	349.75
193.314	40.29
193.702	-22.84
194.089	71.85
194.477	235.57
194.864	-235.14
195.252	50.79
195.639	-1864.76
196.027	188.01
196.414	126.55
196.801	64.64
197.189	2.23
197.576	-9.5
197.963	-360.48
198.351	37.13
198.738	39.34
199.125	21.7
199.512	39.57
199.899	43.07
200.286	11.35
200.673	44.29
201.06	-21.72
201.447	23.19
201.833	25.38
202.22	25.9
202.607	16.97
202.994	59.21
203.38	-19.25
203.767	38.24
204.154	51.06
204.54	41.33
204.927	46.03
205.313	-7.75
205.699	52.57
206.086	23.82
206.472	48.23
206.858	48.38
207.245	8.53
207.631	16.29
208.017	20.8
208.403	24.59
208.789	31.36
209.175	6.75
209.561	40.91
209.947	-6.99
210.333	27.36
210.719	12.73
211.105	27.65
211.491	17.93
211.876	8.56
212.262	39.94
212.648	41.25
213.034	46
213.419	19.25
213.805	11.64
214.19	27.02
214.576	-3.89
214.961	31.52
215.346	34.5
215.732	20.15
216.117	-24.22
216.502	21.96
216.888	15.16
217.273	13.87
217.658	-1.47
218.043	3.85
218.428	-13.8
218.813	17.3
219.198	25.94
219.583	-6.9
219.968	1.36
220.353	33.01
220.738	24.37
221.122	-3.68
221.507	19.75
221.892	19.78
222.276	18.73
222.661	25.62
223.046	11.07
223.43	14.79
223.815	20.15
224.199	24.58
224.583	1.39
224.968	5.24
225.352	12.34
225.736	11.2
226.121	14.52
226.505	7.94
226.889	10.41
227.273	10.35
227.657	18.04
228.041	15.04
228.425	10.14
228.809	8.58
229.193	10.74
229.577	13.03
229.961	8.39
230.344	8.62
230.728	7.91
231.112	9.04
231.495	8.66
231.879	8.86
232.263	8.83
232.646	8.59
233.03	8.19
233.413	8.38
233.797	7.37
234.18	8.79
234.563	11.96
234.946	8.04
235.33	8.11
235.713	6.93
236.096	8.7
236.479	9.53
236.862	8.38
237.245	7.7
237.628	8.15
238.011	9.93
238.394	8.33
238.777	9.9
239.16	7.92
239.543	10.64
239.925	9.59
240.308	8.95
240.691	9.59
241.073	10.05
241.456	8.94
241.838	9.33
242.221	9.45
242.603	7.38
242.986	8.05
243.368	8.77
243.75	7.77
244.133	7.78
244.515	7.33
244.897	8
245.279	8.01
245.661	7.95
246.043	7.07
246.425	8.01
246.807	7.73
247.189	8.09
247.571	7.6
247.953	7.39
248.335	8.26
248.717	7.64
249.098	7.29
249.48	7.32
249.862	7.51
250.243	7.87
250.625	7.44
251.006	7.58
251.388	7.82
251.769	8.25
252.151	7.11
252.532	8.01
252.913	7.34
253.295	7.37
253.676	7.87
254.057	7.03
254.438	7.3
254.819	7.51
255.2	7.69
255.581	7.9
255.962	7.37
256.343	7.8
256.724	6.55
257.105	7.53
257.486	8.28
257.867	7.33
258.247	8.25
258.628	8
259.009	7.52
259.389	6.92
259.77	6.92
260.15	7.7
260.531	7.23
260.911	6.97
261.292	6.63
261.672	6.77
262.052	6.94
262.432	6.89
262.813	6.94
263.193	6.93
263.573	7.06
263.953	6.62
264.333	7.37
264.713	7.07
265.093	7.53
265.473	7.06
265.853	6.57
266.233	6.89
266.612	6.89
266.992	7.38
267.372	6.86
267.752	7.06
268.131	6.98
268.511	6.64
268.89	7.06
269.27	6.46
269.649	6.23
270.029	6.71
270.408	6.69
270.787	7.01
271.167	6.41
271.546	6.7
271.925	7.38
272.304	6.76
272.683	6.96
273.062	6.68
273.441	6.56
273.82	7.04
274.199	7.18
274.578	6.96
274.957	6.95
275.336	7.08
275.715	6.94
276.093	6.35
276.472	6.87
276.851	6.97
277.229	7.69
277.608	6.4
277.986	6.34
278.365	6.64
278.743	6.32
279.122	6.12
279.5	6.16
279.878	6.02
280.257	5.72
280.635	6.48
281.013	7.31
281.391	6.98
281.769	6.98
282.147	5.97
282.525	6.61
282.903	6.4
283.281	6.75
283.659	6.5
284.037	6.7
284.415	6.38
284.792	6.02
285.17	6.23
285.548	6.56
285.925	6
286.303	5.85
286.68	6.3
287.058	6.71
287.435	6.23
287.813	5.84
288.19	5.98
288.567	6.2
288.945	6.23
289.322	6.28
289.699	5.47
290.076	6.44
290.453	6.07
290.83	5.9
291.207	6.61
291.584	5.88
291.961	6.05
292.338	5.89
292.715	6.15
293.092	6.04
293.469	6.35
293.845	5.93
294.222	5.86
294.599	6.24
294.975	6.33
295.352	6.07
295.728	6.09
296.105	5.37
296.481	5.79
296.858	6.03
297.234	6.04
297.61	5.36
297.986	5.98
298.363	5.67
298.739	5.51
299.115	5.74
299.491	5.79
299.867	5.86
300.243	5.68
300.619	5.89
300.995	5.79
301.371	5.83
301.746	5.78
302.122	5.87
302.498	5.73
302.874	5.3
303.249	5.68
303.625	5.85
304	5.89
304.376	5.22
304.751	5.05
305.127	5.52
305.502	6.08
305.878	5.59
306.253	5.59
306.628	5.87
307.003	5.35
307.378	5.4
307.754	5.79
308.129	5.44
308.504	6.03
308.879	6.1
309.254	6.08
309.629	5.57
310.003	5.3
310.378	5.83
310.753	5.25
311.128	5.76
311.502	5.8
311.877	6.04
312.252	5.44
312.626	5.46
313.001	5.85
313.375	5.5
313.75	5.55
314.124	5.43
314.498	5.67
314.873	5.69
315.247	5.41
315.621	5.85
315.995	6.16
316.369	4.97
316.743	5.54
317.117	5.32
317.491	4.97
317.865	5.63
318.239	5.63
318.613	5.39
318.987	5.74
319.361	5.04
319.734	5.2
320.108	5.12
320.482	5.78
320.855	5.92
321.229	6.2
321.602	5.22
321.976	5.51
322.349	6.26
322.723	5.24
323.096	5.79
323.469	5.18
323.843	5.35
324.216	5.54
324.589	5.65
324.962	5.7
325.335	5.82
325.708	5.6
326.081	5.34
326.454	5.39
326.827	5.77
327.2	6.01
327.573	5.69
327.945	5.15
328.318	5.25
328.691	5.42
329.063	5.81
329.436	5.06
329.809	5.37
330.181	5.66
330.553	5.9
330.926	5.24
331.298	5.28
331.671	4.89
332.043	5.29
332.415	5.59
332.787	5.99
333.159	5.27
333.532	5.84
333.904	5.3
334.276	5.42
334.648	5.46
335.02	5.85
335.391	5.12
335.763	5.62
336.135	5.36
336.507	5.59
336.879	5.37
337.25	5.55
337.622	5.71
337.993	5.7
338.365	5.47
338.736	5.14
339.108	5.73
339.479	5.44
339.851	5.53
340.222	5.39
340.593	4.96
340.964	5.07
341.336	5.72
341.707	5.22
342.078	5.42
342.449	5.12
342.82	5.21
343.191	5.41
343.562	5.18
343.933	5.25
344.303	5.24
344.674	5.58
345.045	5.39
345.416	5.77
345.786	4.81
346.157	5.38
346.527	5.78
346.898	5.38
347.268	5.67
347.639	5.5
348.009	5.5
348.38	5.38
348.75	5.3
349.12	5.57
349.49	5.61
349.861	6.08
350.231	5.31
350.601	5.6
350.971	6.04
351.341	5.75
351.711	6.03
352.081	5.64
352.45	5.74
352.82	5.94
353.19	5.75
353.56	5.37
353.929	5.59
354.299	5.12
354.669	5.77
355.038	5.68
355.408	5.94
355.777	5.55
356.147	5.54
356.516	5.36
356.885	5.76
357.254	5.55
357.624	5.54
357.993	5.27
358.362	5.95
358.731	5.36
359.1	5.43
359.469	5.64
359.838	5.69
360.207	5.6
360.576	5.77
360.945	5.35
361.314	5.88
361.682	5.45
362.051	5.74
362.42	5.43
362.788	5.67
363.157	5.67
363.525	5.6
363.894	5.54
364.262	5.26
364.631	5.74
364.999	5.74
365.367	5.59
365.735	5.49
366.104	5.5
366.472	5.7
366.84	6.14
367.208	5.73
367.576	5.53
367.944	6.18
368.312	5.69
368.68	5.57
369.048	5.83
369.416	5.71
369.783	5.92
370.151	5.84
370.519	5.7
370.886	5.87
371.254	5.9
371.621	6.13
371.989	5.69
372.356	5.9
372.724	6.04
373.091	5.92
373.458	5.6
373.826	5.85
374.193	5.93
374.56	5.84
374.927	5.81
375.294	5.82
375.661	5.93
376.028	6.19
376.395	6.05
376.762	5.63
377.129	5.88
377.496	6.11
377.863	6.14
378.229	5.92
378.596	5.92
378.963	6.04
379.329	6.03
379.696	6.11
380.062	6.09
380.429	5.74
380.795	5.8
381.161	6.11
381.528	6.26
381.894	5.88
382.26	6.23
382.626	6.37
382.993	5.98
383.359	6.04
383.725	6.01
384.091	6
384.457	6.06
384.823	6.06
385.188	6.37
385.554	6.23
385.92	6.16
386.286	6.25
386.651	5.77
387.017	6.53
387.383	6.09
387.748	5.85
388.114	5.99
388.479	6.09
388.845	6.14
389.21	6.1
389.575	6.03
389.94	6.03
390.306	5.93
390.671	6.11
391.036	6.15
391.401	6.22
391.766	6.29
392.131	6.45
392.496	6.17
392.861	6.29
393.226	6.29
393.591	6.04
393.956	6.09
394.32	6.3
394.685	6.23
395.05	6.34
395.414	6.53
395.779	6
396.143	6.2
396.508	6.14
396.872	6.02
397.236	6.3
397.601	6.2
397.965	6.15
398.329	6.08
398.694	6.28
399.058	6.24
399.422	6.43
399.786	6.2
400.15	6.13
400.514	6.35
400.878	6.3
401.242	6.31
401.605	6.33
401.969	6.09
402.333	6.39
402.697	6.28
403.06	6.37
403.424	6.24
403.787	6.31
404.151	6.3
404.514	6.49
404.878	6.3
405.241	6.37
405.604	6.13
405.968	6.44
406.331	6.15
406.694	6.16
407.057	6.28
407.42	6.49
407.783	6.45
408.146	6.13
408.509	6.31
408.872	6.33
409.235	6.4
409.598	6.4
409.961	6.49
410.323	6.22
410.686	6.23
411.049	6.33
411.411	6.29
411.774	6.49
412.136	6.38
412.499	6.32
412.861	6.6
413.223	6.57
413.586	6.63
413.948	6.6
414.31	6.77
414.672	6.16
415.035	6.58
415.397	6.75
415.759	6.59
416.121	6.53
416.483	6.64
416.845	6.43
417.206	6.22
417.568	6.44
417.93	6.5
418.292	6.19
418.653	6.76
419.015	6.28
419.377	6.19
419.738	6.45
420.1	6.46
420.461	6.29
420.822	6.27
421.184	6.35
421.545	6.4
421.906	6.42
422.267	6.37
422.629	6.39
422.99	6.18
423.351	6.34
423.712	6.31
424.073	6.33
424.434	6.27
424.795	6.27
425.155	6.42
425.516	6.35
425.877	6.37
426.238	6.23
426.598	6.36
426.959	6.28
427.32	6.42
427.68	6.41
428.041	6.3
428.401	6.43
428.761	6.4
429.122	6.33
429.482	6.51
429.842	6.56
430.202	6.49
430.563	6.5
430.923	6.57
431.283	6.45
431.643	6.56
432.003	6.55
432.363	6.47
432.722	6.55
433.082	6.49
433.442	6.69
433.802	6.79
434.161	6.46
434.521	6.56
434.881	6.55
435.24	6.65
435.6	6.57
435.959	6.64
436.319	6.59
436.678	6.48
437.037	6.55
437.396	6.57
437.756	6.65
438.115	6.32
438.474	6.71
438.833	6.71
439.192	6.52
439.551	6.65
439.91	6.7
440.269	6.63
440.628	6.63
440.987	6.5
441.345	6.47
441.704	6.64
442.063	6.49
442.421	6.51
442.78	6.45
443.138	6.54
443.497	6.64
443.855	6.61
444.214	6.4
444.572	6.58
444.93	6.67
445.288	6.6
445.647	6.86
446.005	6.41
446.363	6.67
446.721	6.5
447.079	6.6
447.437	6.56
447.795	6.39
448.153	6.51
448.51	6.51
448.868	6.47
449.226	6.5
449.584	6.47
449.941	6.46
450.299	6.48
450.656	6.54
451.014	6.63
451.371	6.56
451.729	6.68
452.086	6.58
452.443	6.79
452.801	6.7
453.158	6.74
453.515	6.68
453.872	6.56
454.229	6.95
454.586	6.69
454.943	6.49
455.3	6.5
455.657	6.82
456.014	6.59
456.371	6.75
456.727	6.67
457.084	6.87
457.441	6.74
457.797	6.8
458.154	6.71
458.51	6.77
458.867	6.76
459.223	6.62
459.58	6.61
459.936	6.8
460.292	6.83
460.648	6.58
461.005	6.46
461.361	6.73
461.717	6.47
462.073	6.6
462.429	6.6
462.785	6.59
463.141	6.68
463.496	6.71
463.852	6.72
464.208	6.78
464.564	6.89
464.919	6.59
465.275	6.83
465.631	6.83
465.986	7.07
466.342	6.82
466.697	6.76
467.052	6.6
467.408	6.84
467.763	6.98
468.118	7.1
468.473	6.73
468.829	6.67
469.184	6.71
469.539	6.7
469.894	6.81
470.249	6.7
470.603	6.65
470.958	6.87
471.313	6.95
471.668	6.69
472.023	6.92
472.377	6.83
472.732	6.91
473.086	6.83
473.441	6.97
473.795	6.98
474.15	6.7
474.504	6.61
474.859	6.82
475.213	6.98
475.567	6.82
475.921	6.83
476.275	6.73
476.63	6.94
476.984	6.74
477.338	6.99
477.692	6.77
478.045	6.8
478.399	6.79
478.753	6.89
479.107	6.86
479.461	6.8
479.814	6.9
480.168	6.8
480.521	6.77
480.875	6.68
481.228	6.76
481.582	6.78
481.935	6.79
482.289	6.83
482.642	6.83
482.995	6.76
483.348	6.77
483.701	6.72
484.055	6.7
484.408	6.75
484.761	6.66
485.114	6.47
485.466	6.42
485.819	6.33
486.172	6.27
486.525	6.32
486.878	6.38
487.23	6.42
487.583	6.43
487.936	6.5
488.288	6.59
488.641	6.63
488.993	6.5
489.345	6.42
489.698	6.4
490.05	6.39
490.402	6.38
490.754	6.42
491.107	6.46
491.459	6.6
491.811	6.64
492.163	6.63
492.515	6.7
492.866	6.68
493.218	6.56
493.57	6.51
493.922	6.43
494.274	6.52
494.625	6.48
494.977	6.63
495.328	6.72
495.68	6.7
496.031	6.69
496.383	6.82
496.734	6.8
497.086	6.86
497.437	6.82
497.788	6.75
498.139	6.83
498.49	6.74
498.842	6.63
499.193	6.76
499.544	6.79
499.894	6.73
500.245	6.75
500.596	6.77
500.947	6.77
501.298	6.89
501.648	6.78
501.999	6.81
502.35	6.84
502.7	6.94
503.051	6.76
503.401	6.77
503.752	6.9
504.102	6.79
504.452	6.82
504.803	6.86
505.153	6.91
505.503	6.84
505.853	6.83
506.203	6.75
506.553	6.71
506.903	6.81
507.253	6.85
507.603	6.82
507.953	6.83
508.303	6.82
508.652	6.9
509.002	6.81
509.352	6.81
509.701	6.76
510.051	6.71
510.4	6.73
510.75	6.66
511.099	6.8
511.449	6.66
511.798	6.82
512.147	6.84
512.496	6.79
512.846	6.74
513.195	6.75
513.544	6.75
513.893	6.61
514.242	6.63
514.591	6.75
514.939	6.73
515.288	6.71
515.637	6.78
515.986	6.91
516.334	6.74
516.683	6.76
517.032	6.75
517.38	6.75
517.729	6.81
518.077	6.78
518.426	6.68
518.774	6.7
519.122	6.71
519.47	6.74
519.819	6.72
520.167	6.69
520.515	6.67
520.863	6.63
521.211	6.56
521.559	6.68
521.907	6.71
522.255	6.68
522.602	6.77
522.95	6.71
523.298	6.78
523.645	6.75
523.993	6.6
524.341	6.78
524.688	6.72
525.036	6.91
525.383	6.67
525.73	6.76
526.078	6.83
526.425	6.82
526.772	6.62
527.119	6.65
527.466	6.64
527.814	6.61
528.161	6.66
528.508	6.55
528.854	6.64
529.201	6.54
529.548	6.62
529.895	6.6
530.242	6.47
530.588	6.35
530.935	6.31
531.282	6.37
531.628	6.42
531.975	6.35
532.321	6.5
532.667	6.53
533.014	6.64
533.36	6.62
533.706	6.6
534.052	6.6
534.399	6.54
534.745	6.51
535.091	6.47
535.437	6.46
535.783	6.46
536.129	6.52
536.474	6.49
536.82	6.56
537.166	6.62
537.512	6.7
537.857	6.7
538.203	6.6
538.549	6.64
538.894	6.59
539.239	6.57
539.585	6.6
539.93	6.64
540.276	6.84
540.621	6.65
540.966	6.72
541.311	6.74
541.656	6.78
542.001	6.7
542.346	6.58
542.691	6.53
543.036	6.51
543.381	6.34
543.726	6.36
544.071	6.42
544.415	6.45
544.76	6.46
545.105	6.49
545.449	6.56
545.794	6.54
546.138	6.54
546.483	6.51
546.827	6.67
547.171	6.67
547.516	6.52
547.86	6.66
548.204	6.62
548.548	6.58
548.892	6.56
549.236	6.61
549.58	6.6
549.924	6.56
550.268	6.63
550.612	6.72
550.956	6.79
551.3	6.69
551.643	6.72
551.987	6.83
552.33	6.71
552.674	6.62
553.017	6.68
553.361	6.85
553.704	6.88
554.048	6.83
554.391	6.76
554.734	6.82
555.077	6.62
555.42	6.54
555.764	6.67
556.107	6.73
556.45	6.73
556.793	6.6
557.135	6.75
557.478	6.7
557.821	6.83
558.164	6.88
558.507	6.86
558.849	6.94
559.192	6.73
559.534	6.94
559.877	6.58
560.219	6.83
560.562	6.59
560.904	6.7
561.246	6.67
561.589	6.52
561.931	6.92
562.273	6.68
562.615	6.76
562.957	6.64
563.299	6.8
563.641	6.81
563.983	6.69
564.325	6.61
564.667	6.74
565.008	6.71
565.35	6.65
565.692	6.73
566.033	6.79
566.375	6.7
566.716	6.77
567.058	6.63
567.399	6.93
567.741	6.51
568.082	6.6
568.423	6.76
568.764	6.45
569.105	6.78
569.447	6.57
569.788	6.82
570.129	6.6
570.47	6.86
570.811	6.78
571.151	6.74
571.492	6.59
571.833	6.79
572.174	6.76
572.514	6.66
572.855	6.58
573.195	6.65
573.536	6.52
573.876	6.7
574.217	6.47
574.557	6.55
574.898	6.51
575.238	6.43
575.578	6.57
575.918	6.44
576.258	6.65
576.598	6.51
576.938	6.58
577.278	6.51
577.618	6.43
577.958	6.53
578.298	6.63
578.638	6.72
578.977	6.73
579.317	6.44
579.657	6.53
579.996	6.66
580.336	6.84
580.675	6.65
581.014	6.77
581.354	6.57
581.693	6.5
582.032	6.62
582.372	6.69
582.711	6.6
583.05	6.84
583.389	6.77
583.728	6.72
584.067	6.62
584.406	6.65
584.745	6.41
585.083	6.59
585.422	6.55
585.761	6.72
586.1	6.67
586.438	6.36
586.777	6.73
587.115	6.67
587.454	6.79
587.792	6.57
588.13	6.81
588.469	6.59
588.807	6.34
589.145	6.69
589.483	6.57
589.821	6.6
590.159	6.73
590.497	6.58
590.835	6.65
591.173	6.75
591.511	6.59
591.849	6.44
592.187	6.49
592.524	6.49
592.862	6.41
593.2	6.62
593.537	6.6
593.875	6.48
594.212	6.67
594.55	6.72
594.887	6.68
595.224	6.35
595.561	6.26
595.899	6.47
596.236	6.48
596.573	6.75
596.91	6.58
597.247	6.53
597.584	6.23
597.921	6.54
598.258	6.43
598.594	6.66
598.931	6.21
599.268	6.23
599.604	6.44
599.941	6.23
600.277	6.45
600.614	6.45
600.95	6.25
601.287	6.34
601.623	6.64
601.959	6.58
602.296	6.38
602.632	6.6
602.968	6.21
603.304	6.73
603.64	6.4
603.976	6.45
604.312	6.46
604.648	6.47
604.984	6.71
605.319	6.39
605.655	6.3
605.991	6.64
606.326	6.32
606.662	6.15
606.998	6.18
607.333	6.31
607.668	6.1
608.004	6.23
608.339	6.35
608.674	6.41
609.01	6.29
609.345	6.81
609.68	6.47
610.015	6.33
610.35	6.31
610.685	6.48
611.02	6.34
611.355	6.2
611.689	6.36
612.024	6.46
612.359	6.4
612.694	6.4
613.028	6.41
613.363	6.45
613.697	6.38
614.032	6.4
614.366	6.56
614.7	6.42
615.035	6.22
615.369	6.54
615.703	6.25
616.037	6.52
616.371	6.47
616.705	6.57
617.039	6.45
617.373	6.5
617.707	6.64
618.041	6.46
618.375	6.41
618.709	6.45
619.042	6.56
619.376	6.31
619.71	6.49
620.043	6.79
620.377	6.17
620.71	6.28
621.043	6.73
621.377	6.05
621.71	6.33
622.043	6.61
622.376	6.47
622.709	6.57
623.043	6.75
623.376	6.34
623.709	6.02
624.041	6.37
624.374	6.45
624.707	6.23
625.04	6.16
625.373	6.29
625.705	6.22
626.038	6.45
626.37	6.07
626.703	6.23
627.035	6.18
627.368	6.42
627.7	6.37
628.032	6.12
628.365	6.3
628.697	6.18
629.029	6.37
629.361	6.23
629.693	6.28
630.025	6.36
630.357	6.51
630.689	6.27
631.021	6.69
631.353	6.39
631.684	6.25
632.016	6.68
632.348	6.54
632.679	6.15
633.011	6.3
633.342	6.14
633.674	6.23
634.005	6.49
634.336	6.64
634.668	6.05
634.999	6.32
635.33	5.87
635.661	6.52
635.992	6.21
636.323	6.72
636.654	6.18
636.985	6.25
637.316	6.32
637.647	6.01
637.977	5.93
638.308	6.46
638.639	6.53
638.969	6.34
639.3	6.14
639.63	6.45
639.961	6.47
640.291	6.18
640.622	6.13
640.952	6.31
641.282	6.08
641.612	6.4
641.943	6.53
642.273	6.05
642.603	6.36
642.933	6.13
643.263	6.43
643.592	6.36
643.922	6.58
644.252	5.89
644.582	6.34
644.911	6.4
645.241	6.66
645.571	7.15
645.9	6.36
646.23	6.55
646.559	6.2
646.888	6.47
647.218	6.58
647.547	6.22
647.876	6.03
648.205	6.2
648.534	6.31
648.863	6.6
649.192	6.27
649.521	6.31
649.85	6.35
650.179	6.02
650.508	5.97
650.837	6.18
651.165	6.46
651.494	6.14
651.822	6.36
652.151	6.64
652.479	6.19
652.808	6.5
653.136	6.46
653.465	6.63
653.793	6.48
654.121	6.35
654.449	6.43
654.777	6.07
655.105	6.21
655.433	6.79
655.761	6.97
656.089	6.2
656.417	6.69
656.745	6.34
657.073	6.43
657.4	7.18
657.728	6.56
658.056	6.7
658.383	6.55
658.711	5.97
659.038	6.65
659.365	6.31
659.693	6.14
660.02	6.47
660.347	6.44
660.674	6.29
661.001	6.36
661.329	6.62
661.656	6.57
661.982	6.36
662.309	6.28
662.636	6.06
662.963	6.11
663.29	6.33
663.616	6.79
663.943	6.33
664.27	6.27
664.596	6.35
664.923	6.32
665.249	6.41
665.576	6.43
665.902	6.33
666.228	6.75
666.554	7
666.881	5.93
667.207	6.4
667.533	6.31
667.859	6.39
668.185	6.27
668.511	6.47
668.837	6.3
669.162	6.77
669.488	6.57
669.814	5.9
670.139	6.22
670.465	6.16
670.791	6.37
671.116	6.75
671.442	6.29
671.767	6.27
672.092	6.05
672.418	6.18
672.743	6
673.068	6.65
673.393	6.43
673.718	6.83
674.043	6.05
674.368	5.98
674.693	6.2
675.018	6.68
675.343	6.09
675.667	5.93
675.992	6.61
676.317	6.46
676.641	6.56
676.966	6.72
677.29	6.2
677.615	6.64
677.939	6.59
678.264	6.52
678.588	5.98
678.912	6.49
679.236	6.35
679.56	5.88
679.885	6.66
680.209	6.61
680.532	6.27
680.856	6.23
681.18	6.84
681.504	6.41
681.828	6.51
682.152	6.7
682.475	6.24
682.799	6.68
683.122	6.58
683.446	6.7
683.769	6.21
684.093	6.95
684.416	6.69
684.739	5.81
685.062	5.79
685.386	6.41
685.709	6.7
686.032	6.46
686.355	6.74
686.678	5.84
687.001	6.35
687.324	5.59
687.646	6.79
687.969	6.5
688.292	6.48
688.614	6.13
688.937	6.7
689.26	6.37
689.582	6.14
689.904	5.62
690.227	6.55
690.549	6.66
690.871	6.79
691.194	6.95
691.516	6.57
691.838	7.38
692.16	6.12
692.482	6.21
692.804	6.93
