Data from 0237_chest_Reflection__0__62.txt Node

Date: Fri Oct 20 21:10:02 CDT 2023
User: ToomeyLab
Spectrometer: FLMS14357
Trigger mode: 0
Integration Time (sec): 1.000000E-2
Scans to average: 100
Electric dark correction enabled: true
Nonlinearity correction enabled: false
Boxcar width: 0
XAxis mode: Wavelengths
Number of Pixels in Spectrum: 2048
>>>>>Begin Spectral Data<<<<<
189.047	4.51
189.435	4.51
189.823	4.51
190.211	-49.53
190.599	-611.07
190.987	58.32
191.375	1300.75
191.763	138.65
192.151	-1786.23
192.538	-91.47
192.926	473.37
193.314	75.05
193.702	13.8
194.089	84.51
194.477	47.95
194.864	-381.12
195.252	54.7
195.639	159.05
196.027	-280.44
196.414	171.87
196.801	-78.03
197.189	67.88
197.576	22.85
197.963	-1211.38
198.351	49.04
198.738	-4.5
199.125	46.16
199.512	57.45
199.899	23.06
200.286	-28.32
200.673	13.92
201.06	-12.18
201.447	-23.93
201.833	33.11
202.22	21.45
202.607	30.74
202.994	35.81
203.38	59.02
203.767	42.99
204.154	46.05
204.54	44.6
204.927	34.39
205.313	39.92
205.699	26.15
206.086	23.23
206.472	53.95
206.858	60.81
207.245	12.02
207.631	21.62
208.017	43.93
208.403	32.7
208.789	34.16
209.175	34.34
209.561	29.28
209.947	26.65
210.333	21.28
210.719	6.27
211.105	19.62
211.491	63.86
211.876	16.31
212.262	38.69
212.648	71.83
213.034	-0.62
213.419	52.65
213.805	19.71
214.19	13.23
214.576	52.6
214.961	16.22
215.346	33.2
215.732	28.56
216.117	9.18
216.502	9.89
216.888	12.59
217.273	-4.54
217.658	20.93
218.043	15.91
218.428	6.17
218.813	18.21
219.198	11.13
219.583	-1.18
219.968	-13.74
220.353	27.2
220.738	16.19
221.122	14.8
221.507	23.5
221.892	10.67
222.276	21.74
222.661	27.11
223.046	14.67
223.43	7.63
223.815	19.43
224.199	18.83
224.583	1.71
224.968	4.53
225.352	1.79
225.736	4.5
226.121	13.43
226.505	5.93
226.889	8.24
227.273	3.09
227.657	8.95
228.041	9.7
228.425	3.45
228.809	5.64
229.193	2.93
229.577	7.2
229.961	4.99
230.344	4.41
230.728	2.95
231.112	3.83
231.495	3.42
231.879	4.55
232.263	4.55
232.646	1.75
233.03	3.37
233.413	3.93
233.797	4.72
234.18	4.76
234.563	6.18
234.946	6.11
235.33	5.89
235.713	3.85
236.096	5.42
236.479	4.93
236.862	5.04
237.245	4.64
237.628	5.53
238.011	5.99
238.394	3.84
238.777	4.8
239.16	3.1
239.543	5.69
239.925	5.08
240.308	4.62
240.691	4.37
241.073	4.78
241.456	3.01
241.838	4.95
242.221	4.3
242.603	4.38
242.986	4.19
243.368	4.04
243.75	4.03
244.133	3.3
244.515	3.58
244.897	4.13
245.279	3.96
245.661	3.53
246.043	3.71
246.425	3.83
246.807	4.02
247.189	3.48
247.571	3.07
247.953	4.16
248.335	4.01
248.717	3.53
249.098	3.4
249.48	3.31
249.862	3.45
250.243	3.8
250.625	3.97
251.006	3.91
251.388	4.28
251.769	4.06
252.151	3.41
252.532	3.64
252.913	3.59
253.295	3.19
253.676	4.31
254.057	3.72
254.438	3.98
254.819	4.02
255.2	3.72
255.581	3.87
255.962	2.98
256.343	4.25
256.724	3.23
257.105	3.85
257.486	4.29
257.867	3.12
258.247	4.2
258.628	3.25
259.009	3.12
259.389	3.76
259.77	3.53
260.15	3.02
260.531	3.95
260.911	3.69
261.292	3.05
261.672	3.57
262.052	3.48
262.432	3.44
262.813	3.44
263.193	3.35
263.573	3.78
263.953	3.65
264.333	4.15
264.713	3.72
265.093	3.84
265.473	4.05
265.853	3.4
266.233	3.24
266.612	3.37
266.992	3.61
267.372	3.52
267.752	2.83
268.131	3.75
268.511	3.66
268.89	3.92
269.27	3.32
269.649	3.33
270.029	3.71
270.408	3.8
270.787	3.58
271.167	3.53
271.546	3.79
271.925	4.33
272.304	3.73
272.683	3.41
273.062	3.41
273.441	3.63
273.82	3.73
274.199	3.4
274.578	3.75
274.957	3.63
275.336	3.33
275.715	3.87
276.093	3.26
276.472	3.55
276.851	3.74
277.229	3.43
277.608	3.19
277.986	3.33
278.365	3.89
278.743	3.37
279.122	3.21
279.5	3.4
279.878	2.92
280.257	3.59
280.635	3.87
281.013	3.51
281.391	3.54
281.769	3.85
282.147	3.61
282.525	4.12
282.903	3.16
283.281	3.73
283.659	3.56
284.037	3.49
284.415	3.14
284.792	3.52
285.17	2.97
285.548	3.58
285.925	3.44
286.303	3.42
286.68	3.09
287.058	3.87
287.435	3.41
287.813	2.86
288.19	3.35
288.567	3.49
288.945	3.74
289.322	4.04
289.699	3
290.076	3.88
290.453	3.33
290.83	3.13
291.207	3.77
291.584	3.15
291.961	3.3
292.338	3.58
292.715	3.43
293.092	3.52
293.469	3.83
293.845	3.42
294.222	3.29
294.599	3.41
294.975	4.21
295.352	4.03
295.728	3.9
296.105	3.18
296.481	3.37
296.858	4.16
297.234	3.63
297.61	3.51
297.986	3.33
298.363	3.78
298.739	3.62
299.115	3.59
299.491	3.58
299.867	3.69
300.243	3.51
300.619	3.76
300.995	3.38
301.371	3.92
301.746	3.64
302.122	3.9
302.498	3.5
302.874	3.74
303.249	3.44
303.625	4.09
304	3.96
304.376	3.68
304.751	3.36
305.127	3.2
305.502	4.15
305.878	3.76
306.253	3.78
306.628	3.82
307.003	4.09
307.378	3.93
307.754	3.66
308.129	4.46
308.504	3.83
308.879	4.03
309.254	4.6
309.629	3.29
310.003	3.38
310.378	4.18
310.753	3.6
311.128	4.09
311.502	3.93
311.877	4.11
312.252	3.93
312.626	4.27
313.001	3.93
313.375	3.78
313.75	3.96
314.124	3.68
314.498	4.2
314.873	3.71
315.247	4.03
315.621	4.28
315.995	4.14
316.369	3.7
316.743	3.89
317.117	4.1
317.491	3.54
317.865	4.6
318.239	4.37
318.613	3.87
318.987	3.28
319.361	3.33
319.734	3.82
320.108	3.53
320.482	4.53
320.855	4.44
321.229	4.35
321.602	4.42
321.976	3.94
322.349	4.58
322.723	4.06
323.096	4.51
323.469	4.28
323.843	3.97
324.216	4
324.589	4.48
324.962	4.81
325.335	4.12
325.708	4.05
326.081	4.27
326.454	4.18
326.827	4.24
327.2	4.24
327.573	4.42
327.945	4.48
328.318	3.91
328.691	4.19
329.063	4.62
329.436	3.6
329.809	4.4
330.181	4.63
330.553	4.36
330.926	3.99
331.298	4.09
331.671	3.93
332.043	4.21
332.415	4.48
332.787	4.72
333.159	3.92
333.532	4.67
333.904	4.44
334.276	4.17
334.648	4.3
335.02	4.51
335.391	3.91
335.763	4.98
336.135	3.74
336.507	4.73
336.879	3.92
337.25	4.37
337.622	4.45
337.993	4.73
338.365	4.09
338.736	4.11
339.108	4.67
339.479	4.32
339.851	4.12
340.222	3.91
340.593	3.59
340.964	4.19
341.336	4.23
341.707	4.24
342.078	4.33
342.449	4.08
342.82	4.14
343.191	3.87
343.562	4.37
343.933	4.14
344.303	4.47
344.674	4.66
345.045	4.47
345.416	4.74
345.786	3.96
346.157	4.22
346.527	3.82
346.898	4.22
347.268	4.4
347.639	4.47
348.009	4.06
348.38	4.36
348.75	4.2
349.12	3.96
349.49	4.32
349.861	4.52
350.231	3.82
350.601	4.2
350.971	4.44
351.341	4.54
351.711	4.87
352.081	4.62
352.45	4.26
352.82	4.33
353.19	4.22
353.56	4.61
353.929	4.19
354.299	3.93
354.669	4.38
355.038	4.38
355.408	4.48
355.777	4.34
356.147	3.98
356.516	4.32
356.885	4.18
357.254	4.08
357.624	4.4
357.993	4.12
358.362	4.03
358.731	3.86
359.1	4
359.469	4.26
359.838	4.4
360.207	4.46
360.576	4.71
360.945	4.21
361.314	4.25
361.682	4.32
362.051	4.4
362.42	4.2
362.788	4.52
363.157	4.31
363.525	4.24
363.894	4.42
364.262	4.2
364.631	4.36
364.999	4.5
365.367	4.43
365.735	4.28
366.104	4.1
366.472	4.26
366.84	4.66
367.208	4.37
367.576	4.28
367.944	4.28
368.312	4.2
368.68	4.44
369.048	4.21
369.416	4.56
369.783	4.49
370.151	4.54
370.519	4.32
370.886	4.73
371.254	4.76
371.621	4.52
371.989	4.38
372.356	4.45
372.724	4.66
373.091	4.48
373.458	4.1
373.826	4.48
374.193	4.17
374.56	4.45
374.927	4.25
375.294	4.69
375.661	4.78
376.028	4.62
376.395	4.65
376.762	4.15
377.129	4.55
377.496	4.87
377.863	5.02
378.229	4.72
378.596	4.73
378.963	4.5
379.329	4.3
379.696	4.6
380.062	4.67
380.429	4.39
380.795	4.22
381.161	4.4
381.528	4.75
381.894	4.46
382.26	4.47
382.626	4.73
382.993	4.52
383.359	4.48
383.725	4.6
384.091	4.54
384.457	4.62
384.823	4.64
385.188	4.79
385.554	4.4
385.92	4.53
386.286	4.74
386.651	4.63
387.017	4.8
387.383	4.5
387.748	4.19
388.114	4.26
388.479	4.64
388.845	4.64
389.21	4.73
389.575	4.52
389.94	4.64
390.306	4.51
390.671	4.58
391.036	4.55
391.401	4.91
391.766	4.76
392.131	4.55
392.496	4.66
392.861	4.57
393.226	4.64
393.591	4.67
393.956	4.62
394.32	4.67
394.685	4.66
395.05	4.83
395.414	4.95
395.779	4.44
396.143	4.64
396.508	4.45
396.872	4.5
397.236	4.69
397.601	4.62
397.965	4.55
398.329	4.49
398.694	4.76
399.058	4.25
399.422	4.7
399.786	4.59
400.15	4.59
400.514	4.55
400.878	4.8
401.242	4.86
401.605	4.71
401.969	4.48
402.333	4.79
402.697	4.59
403.06	4.42
403.424	4.71
403.787	4.74
404.151	4.93
404.514	4.92
404.878	4.79
405.241	4.72
405.604	4.71
405.968	4.93
406.331	4.69
406.694	4.66
407.057	4.69
407.42	4.98
407.783	4.9
408.146	4.86
408.509	4.46
408.872	4.87
409.235	4.69
409.598	4.8
409.961	4.96
410.323	4.9
410.686	4.56
411.049	4.66
411.411	4.62
411.774	4.95
412.136	4.86
412.499	4.63
412.861	5.1
413.223	5.04
413.586	4.7
413.948	4.86
414.31	4.97
414.672	4.71
415.035	4.95
415.397	4.97
415.759	4.94
416.121	4.9
416.483	4.97
416.845	4.76
417.206	4.91
417.568	4.97
417.93	5
418.292	4.78
418.653	4.8
419.015	4.78
419.377	4.8
419.738	4.66
420.1	4.61
420.461	4.74
420.822	4.74
421.184	4.71
421.545	4.8
421.906	4.64
422.267	4.7
422.629	4.75
422.99	4.57
423.351	4.64
423.712	4.64
424.073	4.69
424.434	4.62
424.795	4.65
425.155	4.67
425.516	4.7
425.877	4.71
426.238	4.58
426.598	4.65
426.959	4.65
427.32	4.74
427.68	4.78
428.041	4.65
428.401	4.82
428.761	4.81
429.122	4.81
429.482	4.84
429.842	4.85
430.202	4.75
430.563	4.83
430.923	4.97
431.283	4.91
431.643	4.89
432.003	5.2
432.363	4.91
432.722	4.89
433.082	4.78
433.442	4.74
433.802	5.09
434.161	4.99
434.521	4.94
434.881	5.07
435.24	4.96
435.6	4.85
435.959	4.93
436.319	4.91
436.678	4.87
437.037	4.96
437.396	5.03
437.756	4.98
438.115	4.9
438.474	5.18
438.833	5.14
439.192	4.89
439.551	4.75
439.91	5.04
440.269	4.96
440.628	5.05
440.987	4.89
441.345	4.95
441.704	5.03
442.063	4.94
442.421	4.74
442.78	4.86
443.138	5.03
443.497	5.02
443.855	4.86
444.214	4.93
444.572	4.95
444.93	4.99
445.288	4.97
445.647	5.11
446.005	4.83
446.363	4.93
446.721	4.95
447.079	5.15
447.437	4.9
447.795	4.87
448.153	4.91
448.51	4.86
448.868	4.97
449.226	4.86
449.584	4.99
449.941	4.81
450.299	5.03
450.656	4.84
451.014	4.99
451.371	5.03
451.729	5.06
452.086	5.03
452.443	5.06
452.801	4.99
453.158	5.13
453.515	5.16
453.872	5.05
454.229	5.15
454.586	5.07
454.943	5.04
455.3	5.18
455.657	5.18
456.014	5.01
456.371	5.21
456.727	5.35
457.084	5.2
457.441	5.21
457.797	5.17
458.154	5.03
458.51	5.21
458.867	5.14
459.223	5.08
459.58	5
459.936	5.26
460.292	5.11
460.648	5.08
461.005	5.1
461.361	5.14
461.717	5.01
462.073	4.92
462.429	5.03
462.785	5.07
463.141	5.1
463.496	5.08
463.852	5.14
464.208	5.21
464.564	5.35
464.919	5.14
465.275	5.27
465.631	5.38
465.986	5.18
466.342	5.2
466.697	5.21
467.052	5.25
467.408	5.26
467.763	5.22
468.118	5.43
468.473	5.35
468.829	5.32
469.184	5.22
469.539	5.24
469.894	5.32
470.249	5.32
470.603	5.13
470.958	5.29
471.313	5.32
471.668	5.41
472.023	5.35
472.377	5.3
472.732	5.26
473.086	5.24
473.441	5.32
473.795	5.47
474.15	5.39
474.504	5.27
474.859	5.34
475.213	5.39
475.567	5.52
475.921	5.36
476.275	5.34
476.63	5.66
476.984	5.56
477.338	5.32
477.692	5.36
478.045	5.43
478.399	5.33
478.753	5.48
479.107	5.37
479.461	5.42
479.814	5.47
480.168	5.46
480.521	5.43
480.875	5.37
481.228	5.3
481.582	5.53
481.935	5.41
482.289	5.48
482.642	5.35
482.995	5.4
483.348	5.35
483.701	5.35
484.055	5.3
484.408	5.3
484.761	5.31
485.114	5.13
485.466	5.11
485.819	5.05
486.172	4.97
486.525	5.04
486.878	5.1
487.23	5.16
487.583	5.15
487.936	5.21
488.288	5.27
488.641	5.34
488.993	5.26
489.345	5.23
489.698	5.17
490.05	5.18
490.402	5.15
490.754	5.23
491.107	5.23
491.459	5.35
491.811	5.36
492.163	5.36
492.515	5.39
492.866	5.49
493.218	5.3
493.57	5.25
493.922	5.25
494.274	5.27
494.625	5.33
494.977	5.35
495.328	5.49
495.68	5.63
496.031	5.51
496.383	5.65
496.734	5.68
497.086	5.67
497.437	5.7
497.788	5.53
498.139	5.69
498.49	5.67
498.842	5.52
499.193	5.58
499.544	5.64
499.894	5.63
500.245	5.6
500.596	5.65
500.947	5.65
501.298	5.67
501.648	5.64
501.999	5.78
502.35	5.69
502.7	5.76
503.051	5.7
503.401	5.81
503.752	5.78
504.102	5.85
504.452	5.74
504.803	5.7
505.153	5.85
505.503	5.8
505.853	5.99
506.203	5.78
506.553	5.75
506.903	5.82
507.253	5.9
507.603	5.77
507.953	5.8
508.303	5.8
508.652	5.83
509.002	5.83
509.352	5.92
509.701	5.91
510.051	5.84
510.4	5.78
510.75	5.9
511.099	5.92
511.449	5.93
511.798	5.84
512.147	5.88
512.496	5.89
512.846	5.91
513.195	5.94
513.544	5.89
513.893	5.87
514.242	5.9
514.591	5.91
514.939	5.9
515.288	5.84
515.637	5.93
515.986	6.16
516.334	6.05
516.683	5.97
517.032	5.88
517.38	5.96
517.729	6.1
518.077	6.09
518.426	6.07
518.774	5.96
519.122	5.98
519.47	6.07
519.819	5.99
520.167	5.93
520.515	6
520.863	5.99
521.211	5.9
521.559	6.09
521.907	6
522.255	6.02
522.602	6.17
522.95	6.16
523.298	6.1
523.645	6.2
523.993	6.15
524.341	6.26
524.688	6.22
525.036	6.2
525.383	6.05
525.73	6.38
526.078	6.26
526.425	6.4
526.772	6.12
527.119	6.16
527.466	6.13
527.814	6.2
528.161	6.11
528.508	6.12
528.854	6.15
529.201	6.21
529.548	6.18
529.895	6.1
530.242	6.05
530.588	5.99
530.935	5.95
531.282	6.05
531.628	6.1
531.975	6.03
532.321	6.2
532.667	6.18
533.014	6.23
533.36	6.33
533.706	6.41
534.052	6.32
534.399	6.3
534.745	6.23
535.091	6.33
535.437	6.31
535.783	6.29
536.129	6.3
536.474	6.41
536.82	6.47
537.166	6.46
537.512	6.6
537.857	6.63
538.203	6.53
538.549	6.54
538.894	6.49
539.239	6.58
539.585	6.55
539.93	6.58
540.276	6.73
540.621	6.73
540.966	6.82
541.311	6.81
541.656	6.71
542.001	6.9
542.346	6.77
542.691	6.64
543.036	6.63
543.381	6.48
543.726	6.46
544.071	6.54
544.415	6.59
544.76	6.68
545.105	6.74
545.449	6.78
545.794	6.8
546.138	6.77
546.483	6.77
546.827	6.85
547.171	7
547.516	6.86
547.86	6.96
548.204	6.98
548.548	7.08
548.892	6.97
549.236	6.96
549.58	6.92
549.924	6.97
550.268	7.1
550.612	7.23
550.956	7.43
551.3	7.05
551.643	7.22
551.987	7.2
552.33	7.38
552.674	7.25
553.017	7.27
553.361	7.36
553.704	7.51
554.048	7.47
554.391	7.65
554.734	7.22
555.077	7.36
555.42	7.27
555.764	7.36
556.107	7.69
556.45	7.56
556.793	7.38
557.135	7.47
557.478	7.37
557.821	7.66
558.164	7.65
558.507	7.85
558.849	7.82
559.192	7.8
559.534	7.92
559.877	7.64
560.219	7.76
560.562	7.72
560.904	7.64
561.246	8
561.589	7.84
561.931	7.94
562.273	7.88
562.615	8.05
562.957	7.95
563.299	7.85
563.641	8.02
563.983	7.87
564.325	7.98
564.667	8.02
565.008	7.9
565.35	8.05
565.692	8.14
566.033	8.25
566.375	8.17
566.716	8.25
567.058	8.1
567.399	8.16
567.741	8.27
568.082	8.25
568.423	8.26
568.764	8.16
569.105	8.44
569.447	8.2
569.788	8.33
570.129	8.36
570.47	8.32
570.811	8.52
571.151	8.2
571.492	8.53
571.833	8.59
572.174	8.6
572.514	8.47
572.855	8.44
573.195	8.43
573.536	8.33
573.876	8.62
574.217	8.48
574.557	8.56
574.898	8.55
575.238	8.48
575.578	8.71
575.918	8.6
576.258	8.81
576.598	8.72
576.938	8.67
577.278	8.74
577.618	8.71
577.958	8.82
578.298	8.92
578.638	8.8
578.977	8.89
579.317	8.99
579.657	8.92
579.996	9.12
580.336	9.14
580.675	9.12
581.014	9.13
581.354	9.26
581.693	9.28
582.032	9.27
582.372	9.26
582.711	9.35
583.05	9.57
583.389	9.36
583.728	9.3
584.067	9.5
584.406	9.59
584.745	9.53
585.083	9.57
585.422	9.65
585.761	9.58
586.1	9.65
586.438	9.3
586.777	9.63
587.115	9.86
587.454	9.69
587.792	9.74
588.13	9.74
588.469	9.9
588.807	9.39
589.145	9.69
589.483	9.59
589.821	9.98
590.159	9.81
590.497	9.73
590.835	9.85
591.173	9.91
591.511	10.1
591.849	10.02
592.187	9.92
592.524	9.82
592.862	10.01
593.2	10.37
593.537	10.04
593.875	10.32
594.212	10.5
594.55	10.31
594.887	10.31
595.224	10.11
595.561	10.25
595.899	10.31
596.236	10.29
596.573	10.41
596.91	10.46
597.247	10.36
597.584	10.11
597.921	10.37
598.258	10.56
598.594	10.59
598.931	10.51
599.268	10.46
599.604	10.38
599.941	10.49
600.277	10.62
600.614	10.57
600.95	10.55
601.287	10.58
601.623	10.72
601.959	10.97
602.296	10.8
602.632	10.85
602.968	10.71
603.304	11.11
603.64	10.77
603.976	10.86
604.312	11.13
604.648	11.07
604.984	11.05
605.319	11.19
605.655	10.95
605.991	11.16
606.326	10.96
606.662	11.14
606.998	10.82
607.333	11.04
607.668	11.04
608.004	11.3
608.339	11.25
608.674	11.51
609.01	11.42
609.345	11.63
609.68	11.7
610.015	11.57
610.35	11.62
610.685	11.65
611.02	11.46
611.355	11.4
611.689	11.51
612.024	11.64
612.359	11.69
612.694	11.69
613.028	11.77
613.363	11.87
613.697	11.74
614.032	11.8
614.366	11.96
614.7	11.95
615.035	11.96
615.369	12.24
615.703	11.69
616.037	12.19
616.371	12.25
616.705	12.63
617.039	12.18
617.373	12.07
617.707	12.13
618.041	12.4
618.375	12.13
618.709	12.29
619.042	12.4
619.376	12.71
619.71	12.46
620.043	12.61
620.377	12.39
620.71	12.7
621.043	12.84
621.377	12.47
621.71	12.5
622.043	12.56
622.376	12.79
622.709	12.92
623.043	12.97
623.376	12.74
623.709	12.14
624.041	12.66
624.374	12.84
624.707	12.65
625.04	13.16
625.373	13.14
625.705	13.02
626.038	13.36
626.37	12.76
626.703	13.1
627.035	12.72
627.368	13
627.7	13.85
628.032	13.37
628.365	13.18
628.697	13.17
629.029	13.21
629.361	13.1
629.693	13.12
630.025	13.27
630.357	13.4
630.689	13.3
631.021	13.69
631.353	14.07
631.684	13.18
632.016	13.58
632.348	13.87
632.679	13.65
633.011	13.9
633.342	13.39
633.674	13.58
634.005	13.78
634.336	13.95
634.668	13.8
634.999	14.11
635.33	13.64
635.661	14.23
635.992	14.08
636.323	14.19
636.654	14.28
636.985	13.9
637.316	14.13
637.647	14.17
637.977	14.36
638.308	14.43
638.639	14.36
638.969	14.31
639.3	14.11
639.63	14.26
639.961	14.43
640.291	14.41
640.622	14.55
640.952	15.02
641.282	14.59
641.612	14.7
641.943	14.87
642.273	14.5
642.603	14.85
642.933	14.9
643.263	15.22
643.592	14.51
643.922	15.16
644.252	14.51
644.582	14.66
644.911	15.26
645.241	15.34
645.571	15.35
645.9	15.19
646.23	14.93
646.559	15.13
646.888	15.31
647.218	15.28
647.547	15.17
647.876	15.37
648.205	15.59
648.534	15.48
648.863	15.68
649.192	15.5
649.521	15.52
649.85	15.66
650.179	15.34
650.508	15.68
650.837	15.9
651.165	15.51
651.494	15.62
651.822	15.44
652.151	15.97
652.479	15.73
652.808	15.7
653.136	15.97
653.465	16.08
653.793	15.71
654.121	15.8
654.449	16.01
654.777	15.68
655.105	15.9
655.433	16.65
655.761	16.49
656.089	15.89
656.417	16.61
656.745	15.9
657.073	16.07
657.4	17
657.728	16.33
658.056	16.08
658.383	16.03
658.711	16.36
659.038	16.36
659.365	16.51
659.693	15.77
660.02	16.59
660.347	16.15
660.674	16.28
661.001	16.22
661.329	16.44
661.656	16.7
661.982	16.61
662.309	16.79
662.636	16.75
662.963	16.81
663.29	16.88
663.616	17.16
663.943	16.71
664.27	17.4
664.596	17.04
664.923	16.67
665.249	16.77
665.576	16.7
665.902	17.27
666.228	17.4
666.554	17.64
666.881	16.87
667.207	17.34
667.533	17.13
667.859	17.74
668.185	17.88
668.511	17.5
668.837	17.88
669.162	18.04
669.488	17.6
669.814	17.43
670.139	17.78
670.465	17.74
670.791	17.63
671.116	18.24
671.442	18.03
671.767	17.55
672.092	17.69
672.418	17.95
672.743	17.59
673.068	18.35
673.393	17.55
673.718	17.69
674.043	18.08
674.368	18.34
674.693	18.11
675.018	19.19
675.343	18.12
675.667	18.05
675.992	18.74
676.317	18.58
676.641	18.68
676.966	18.21
677.29	19.19
677.615	18.69
677.939	18.57
678.264	18.67
678.588	17.62
678.912	18.65
679.236	18.74
679.56	18.39
679.885	18.53
680.209	18.65
680.532	18.57
680.856	19.09
681.18	19.03
681.504	19.01
681.828	19.24
682.152	18.98
682.475	18.61
682.799	18.69
683.122	18.76
683.446	19.07
683.769	19.31
684.093	19.04
684.416	18.67
684.739	19.13
685.062	18.66
685.386	18.94
685.709	19.27
686.032	19.24
686.355	19.91
686.678	19.22
687.001	19.67
