Data from 0237_forehead_Reflection__4__77.txt Node

Date: Fri Oct 20 21:14:36 CDT 2023
User: ToomeyLab
Spectrometer: FLMS14357
Trigger mode: 0
Integration Time (sec): 1.000000E-2
Scans to average: 100
Electric dark correction enabled: true
Nonlinearity correction enabled: false
Boxcar width: 0
XAxis mode: Wavelengths
Number of Pixels in Spectrum: 2048
>>>>>Begin Spectral Data<<<<<
189.047	-11.3
189.435	-11.3
189.823	-11.3
190.211	-79.81
190.599	-924.68
190.987	-27.52
191.375	-1204.91
191.763	75.01
192.151	-2016.17
192.538	104.8
192.926	338.84
193.314	32.72
193.702	127.15
194.089	27.75
194.477	252.82
194.864	-808.79
195.252	21.28
195.639	814.29
196.027	95.29
196.414	100.75
196.801	23.98
197.189	10.86
197.576	43.99
197.963	-1134.73
198.351	98.73
198.738	31.79
199.125	31.95
199.512	58.84
199.899	9.01
200.286	-9.17
200.673	52.14
201.06	44.91
201.447	31.76
201.833	46.24
202.22	53.05
202.607	49.58
202.994	90.02
203.38	15.18
203.767	28.55
204.154	63.08
204.54	75.76
204.927	24.98
205.313	31.95
205.699	55.23
206.086	51.43
206.472	40.69
206.858	36.48
207.245	44.81
207.631	42.25
208.017	12.55
208.403	55.02
208.789	18.9
209.175	12
209.561	62.94
209.947	27.31
210.333	28.86
210.719	40.84
211.105	42.76
211.491	62.19
211.876	27.49
212.262	63.15
212.648	38.67
213.034	41.51
213.419	61.4
213.805	33.33
214.19	2.03
214.576	51.08
214.961	47.94
215.346	38.03
215.732	33.97
216.117	9.41
216.502	14.82
216.888	52.26
217.273	35.06
217.658	24.39
218.043	18.67
218.428	18.02
218.813	20.81
219.198	21.89
219.583	7.17
219.968	8.04
220.353	25.85
220.738	21.56
221.122	25.92
221.507	20.53
221.892	37.8
222.276	28.01
222.661	35.55
223.046	34.08
223.43	15.86
223.815	21.66
224.199	17.94
224.583	1.81
224.968	4.63
225.352	11.56
225.736	11.25
226.121	9.1
226.505	8.14
226.889	13.08
227.273	12.67
227.657	13.76
228.041	11.51
228.425	8.62
228.809	10.2
229.193	9.73
229.577	8.97
229.961	3.08
230.344	5.95
230.728	5.41
231.112	5.43
231.495	4.69
231.879	5.44
232.263	6.64
232.646	4.9
233.03	4.58
233.413	4.5
233.797	5.89
234.18	5.45
234.563	8.67
234.946	7.43
235.33	7.55
235.713	6.67
236.096	5.43
236.479	5.04
236.862	5.84
237.245	5.52
237.628	6.41
238.011	7.17
238.394	6.19
238.777	5.79
239.16	4.58
239.543	7.59
239.925	5.83
240.308	8.24
240.691	5.25
241.073	8.16
241.456	5.22
241.838	5.3
242.221	6.51
242.603	6.23
242.986	5.76
243.368	5.83
243.75	4.8
244.133	4.64
244.515	4.67
244.897	5
245.279	4.96
245.661	5.32
246.043	4.93
246.425	5.29
246.807	5.11
247.189	5.35
247.571	4.78
247.953	5.3
248.335	5.15
248.717	4.89
249.098	4.6
249.48	4.6
249.862	4.93
250.243	5.12
250.625	5.33
251.006	5.34
251.388	5.41
251.769	5.6
252.151	4.69
252.532	6.34
252.913	6.02
253.295	5.07
253.676	4.96
254.057	4.8
254.438	5.22
254.819	5.05
255.2	5.06
255.581	5.94
255.962	6.19
256.343	5.91
256.724	5.38
257.105	5.81
257.486	6.4
257.867	5.86
258.247	6.25
258.628	5.2
259.009	5.07
259.389	4.94
259.77	4.74
260.15	5.29
260.531	5.51
260.911	5.23
261.292	4.58
261.672	4.94
262.052	4.96
262.432	4.79
262.813	4.75
263.193	5.08
263.573	4.7
263.953	5.26
264.333	4.82
264.713	5.45
265.093	5.29
265.473	5.64
265.853	5.45
266.233	5.11
266.612	5.49
266.992	5.36
267.372	5.35
267.752	4.72
268.131	5.85
268.511	5.21
268.89	5.59
269.27	5.14
269.649	4.97
270.029	5.06
270.408	5.18
270.787	5.14
271.167	5.34
271.546	5.01
271.925	5.55
272.304	5.93
272.683	4.98
273.062	5.69
273.441	5.02
273.82	4.91
274.199	5.02
274.578	5.09
274.957	4.92
275.336	5.01
275.715	5.33
276.093	5.24
276.472	4.6
276.851	5.39
277.229	4.78
277.608	4.84
277.986	4.78
278.365	5.81
278.743	4.46
279.122	4.68
279.5	4.64
279.878	4.57
280.257	4.67
280.635	5.05
281.013	5.42
281.391	5.1
281.769	4.9
282.147	4.85
282.525	4.81
282.903	5.19
283.281	4.63
283.659	5.39
284.037	5.18
284.415	4.73
284.792	4.99
285.17	5.22
285.548	5.02
285.925	4.77
286.303	4.99
286.68	4.68
287.058	5.73
287.435	5.25
287.813	4.51
288.19	4.81
288.567	5.06
288.945	5.15
289.322	5.28
289.699	4.61
290.076	5.51
290.453	4.85
290.83	5.25
291.207	5.45
291.584	4.99
291.961	5.13
292.338	5.46
292.715	5.31
293.092	5.52
293.469	5.37
293.845	5.09
294.222	5.28
294.599	5.56
294.975	6.4
295.352	5.61
295.728	5.51
296.105	5.57
296.481	5.79
296.858	6.01
297.234	5.95
297.61	5.42
297.986	5.45
298.363	5.58
298.739	5.89
299.115	5.79
299.491	5.85
299.867	5.8
300.243	5.81
300.619	5.57
300.995	5.6
301.371	6.13
301.746	5.63
302.122	6.43
302.498	6.02
302.874	6.49
303.249	6.28
303.625	6.34
304	6.3
304.376	6.03
304.751	6.07
305.127	5.94
305.502	7
305.878	6.48
306.253	6.66
306.628	6.4
307.003	6.83
307.378	7.06
307.754	6.68
308.129	7.31
308.504	7.27
308.879	7.19
309.254	6.93
309.629	7.03
310.003	6.75
310.378	7.38
310.753	7.58
311.128	7.4
311.502	7.02
311.877	7.08
312.252	7.02
312.626	7.42
313.001	7.02
313.375	7.18
313.75	7.22
314.124	7.26
314.498	7.78
314.873	7.45
315.247	7.81
315.621	8.1
315.995	8.25
316.369	7.45
316.743	7.9
317.117	8.04
317.491	7.8
317.865	8.15
318.239	7.86
318.613	8.33
318.987	7.95
319.361	7.68
319.734	8.14
320.108	7.73
320.482	8.47
320.855	8.71
321.229	9.31
321.602	8.6
321.976	8.49
322.349	8.98
322.723	8.76
323.096	8.74
323.469	9.02
323.843	9.12
324.216	8.94
324.589	8.6
324.962	9.14
325.335	9.26
325.708	8.87
326.081	8.99
326.454	8.96
326.827	9.41
327.2	9.31
327.573	9.53
327.945	9.14
328.318	9
328.691	8.8
329.063	9.23
329.436	8.96
329.809	9.49
330.181	9.59
330.553	9.68
330.926	9.26
331.298	9.27
331.671	8.88
332.043	9.46
332.415	9.91
332.787	9.81
333.159	10.05
333.532	9.64
333.904	9.87
334.276	9.48
334.648	9.95
335.02	10.49
335.391	9.46
335.763	10.31
336.135	9.97
336.507	9.82
336.879	10.2
337.25	9.77
337.622	10.11
337.993	10.69
338.365	10.33
338.736	10.2
339.108	10.41
339.479	10.27
339.851	10.11
340.222	9.94
340.593	9.64
340.964	9.88
341.336	10.42
341.707	10.41
342.078	10.68
342.449	10.62
342.82	10.5
343.191	10.45
343.562	10.42
343.933	10.21
344.303	10.34
344.674	10.73
345.045	10.8
345.416	10.69
345.786	10.73
346.157	10.94
346.527	10.53
346.898	10.77
347.268	10.69
347.639	11.07
348.009	10.76
348.38	10.83
348.75	10.76
349.12	10.94
349.49	10.96
349.861	11.25
350.231	10.77
350.601	10.74
350.971	11.47
351.341	11.21
351.711	11.29
352.081	11.22
352.45	11.22
352.82	11.12
353.19	11.69
353.56	11.48
353.929	11.71
354.299	11.47
354.669	11.24
355.038	11.21
355.408	11.61
355.777	11.43
356.147	11.64
356.516	11.64
356.885	11.58
357.254	11.96
357.624	11.59
357.993	11.38
358.362	11.67
358.731	11.34
359.1	11.36
359.469	11.58
359.838	11.86
360.207	11.92
360.576	12.09
360.945	11.74
361.314	11.94
361.682	11.99
362.051	12.01
362.42	11.94
362.788	12.17
363.157	12
363.525	11.7
363.894	12
364.262	12.14
364.631	12.13
364.999	12.3
365.367	12.27
365.735	12.19
366.104	12.37
366.472	12.52
366.84	12.5
367.208	12.45
367.576	12.39
367.944	12.45
368.312	12.22
368.68	12.85
369.048	12.51
369.416	12.49
369.783	12.36
370.151	12.9
370.519	12.73
370.886	12.78
371.254	13.13
371.621	12.96
371.989	12.73
372.356	13.25
372.724	13.04
373.091	13.24
373.458	12.79
373.826	12.71
374.193	13
374.56	13.04
374.927	13.38
375.294	13.36
375.661	13.33
376.028	12.94
376.395	13.79
376.762	13.45
377.129	13.38
377.496	13.25
377.863	13.86
378.229	13.66
378.596	13.57
378.963	13.32
379.329	13.73
379.696	13.64
380.062	13.65
380.429	13.38
380.795	13.41
381.161	13.46
381.528	14.02
381.894	13.68
382.26	13.91
382.626	14.3
382.993	13.62
383.359	13.94
383.725	14.08
384.091	14.05
384.457	14.19
384.823	14.1
385.188	14.54
385.554	14.21
385.92	14.28
386.286	14.24
386.651	13.95
387.017	14.21
387.383	14
387.748	14.35
388.114	14.05
388.479	14.36
388.845	14.47
389.21	14.59
389.575	14.3
389.94	14.41
390.306	14.57
390.671	14.72
391.036	14.32
391.401	14.97
391.766	14.76
392.131	14.65
392.496	14.87
392.861	14.96
393.226	14.88
393.591	14.9
393.956	14.96
394.32	14.85
394.685	14.82
395.05	15.29
395.414	15.31
395.779	14.95
396.143	15.13
396.508	15.03
396.872	15.08
397.236	15.27
397.601	14.94
397.965	15.07
398.329	15.22
398.694	15.32
399.058	15.28
399.422	15.45
399.786	15.29
400.15	15.22
400.514	15.39
400.878	15.8
401.242	15.74
401.605	15.54
401.969	15.36
402.333	15.65
402.697	15.72
403.06	15.77
403.424	15.67
403.787	15.86
404.151	15.91
404.514	15.94
404.878	15.9
405.241	16
405.604	15.96
405.968	16.03
406.331	15.85
406.694	15.99
407.057	15.99
407.42	16.24
407.783	16.2
408.146	16.24
408.509	16.07
408.872	16.23
409.235	16.02
409.598	16.37
409.961	16.33
410.323	16.6
410.686	16.25
411.049	16.35
411.411	16.49
411.774	16.6
412.136	16.47
412.499	16.64
412.861	16.71
413.223	16.66
413.586	16.76
413.948	16.83
414.31	16.89
414.672	16.7
415.035	16.73
415.397	17.08
415.759	16.94
416.121	17.04
416.483	17.13
416.845	17.08
417.206	17.17
417.568	17.1
417.93	17.25
418.292	16.92
418.653	17.04
419.015	16.98
419.377	17.1
419.738	17.12
420.1	16.99
420.461	16.98
420.822	16.9
421.184	17.1
421.545	17.23
421.906	17.02
422.267	17.08
422.629	17.01
422.99	16.98
423.351	17.07
423.712	17.11
424.073	17.07
424.434	17.15
424.795	17.28
425.155	17.33
425.516	17.32
425.877	17.41
426.238	17.18
426.598	17.4
426.959	17.37
427.32	17.55
427.68	17.55
428.041	17.42
428.401	17.78
428.761	17.93
429.122	17.96
429.482	17.84
429.842	17.96
430.202	18.08
430.563	18.14
430.923	18.21
431.283	18.29
431.643	18.34
432.003	18.45
432.363	18.34
432.722	18.32
433.082	18.45
433.442	18.2
433.802	18.48
434.161	18.34
434.521	18.48
434.881	18.56
435.24	18.53
435.6	18.69
435.959	18.41
436.319	18.71
436.678	18.64
437.037	18.58
437.396	18.85
437.756	18.84
438.115	18.86
438.474	18.85
438.833	19.03
439.192	18.93
439.551	19.08
439.91	18.98
440.269	19.21
440.628	19.13
440.987	19.1
441.345	18.88
441.704	19.07
442.063	18.97
442.421	19.14
442.78	19.11
443.138	19.15
443.497	19.15
443.855	19.25
444.214	19.34
444.572	19.32
444.93	19.43
445.288	19.68
445.647	19.75
446.005	19.33
446.363	19.59
446.721	19.5
447.079	19.57
447.437	19.53
447.795	19.41
448.153	19.48
448.51	19.49
448.868	19.47
449.226	19.42
449.584	19.65
449.941	19.62
450.299	19.81
450.656	19.85
451.014	19.88
451.371	20.08
451.729	20.19
452.086	19.98
452.443	20.19
452.801	20.4
453.158	20.39
453.515	20.23
453.872	20.33
454.229	20.42
454.586	20.49
454.943	20.46
455.3	20.45
455.657	20.76
456.014	20.71
456.371	20.5
456.727	20.73
457.084	20.76
457.441	20.82
457.797	20.8
458.154	20.69
458.51	20.75
458.867	20.75
459.223	20.99
459.58	20.94
459.936	21.17
460.292	21.04
460.648	20.96
461.005	20.83
461.361	21.04
461.717	20.64
462.073	20.72
462.429	20.77
462.785	20.9
463.141	21.19
463.496	21.07
463.852	21.26
464.208	21.52
464.564	21.46
464.919	21.35
465.275	21.75
465.631	21.8
465.986	21.86
466.342	21.84
466.697	21.75
467.052	21.87
467.408	22.01
467.763	21.97
468.118	22.07
468.473	21.91
468.829	21.83
469.184	21.91
469.539	21.99
469.894	22.28
470.249	21.99
470.603	22.04
470.958	22.23
471.313	22.46
471.668	22.55
472.023	22.4
472.377	22.4
472.732	22.24
473.086	22.34
473.441	22.49
473.795	22.71
474.15	22.62
474.504	22.69
474.859	22.77
475.213	22.79
475.567	22.77
475.921	22.75
476.275	22.82
476.63	22.86
476.984	22.95
477.338	22.88
477.692	22.94
478.045	22.76
478.399	22.86
478.753	22.98
479.107	22.94
479.461	23.03
479.814	23.19
480.168	23.07
480.521	23.12
480.875	23.19
481.228	23.15
481.582	23.31
481.935	23.2
482.289	23.34
482.642	23.18
482.995	23.23
483.348	23.39
483.701	23.27
484.055	23.22
484.408	23.01
484.761	23.13
485.114	22.85
485.466	22.59
485.819	22.54
486.172	22.58
486.525	22.62
486.878	22.75
487.23	22.9
487.583	23.02
487.936	23.15
488.288	23.25
488.641	23.28
488.993	23.15
489.345	23.08
489.698	23.05
490.05	23.14
490.402	23.16
490.754	23.29
491.107	23.39
491.459	23.66
491.811	23.81
492.163	23.99
492.515	24.03
492.866	24.18
493.218	23.79
493.57	23.65
493.922	23.67
494.274	23.78
494.625	23.83
494.977	24.02
495.328	24.31
495.68	24.49
496.031	24.5
496.383	24.77
496.734	24.95
497.086	25.05
497.437	24.95
497.788	24.9
498.139	25.06
498.49	25.15
498.842	24.8
499.193	24.84
499.544	24.92
499.894	25.01
500.245	25.06
500.596	25.34
500.947	25.3
501.298	25.3
501.648	25.32
501.999	25.44
502.35	25.47
502.7	25.78
503.051	25.68
503.401	25.75
503.752	25.66
504.102	25.91
504.452	26.05
504.803	25.94
505.153	25.94
505.503	25.79
505.853	26.02
506.203	25.92
506.553	25.92
506.903	26.03
507.253	26.15
507.603	26.24
507.953	26.27
508.303	26.34
508.652	26.42
509.002	26.39
509.352	26.42
509.701	26.31
510.051	26.45
510.4	26.43
510.75	26.31
511.099	26.48
511.449	26.5
511.798	26.34
512.147	26.59
512.496	26.6
512.846	26.69
513.195	26.6
513.544	26.83
513.893	26.7
514.242	26.83
514.591	26.66
514.939	26.67
515.288	26.94
515.637	27.04
515.986	27.12
516.334	27.18
516.683	27.14
517.032	27.02
517.38	27.13
517.729	27.46
518.077	27.45
518.426	27.49
518.774	27.49
519.122	27.42
519.47	27.42
519.819	27.23
520.167	27.34
520.515	27.31
520.863	27.36
521.211	27.37
521.559	27.41
521.907	27.52
522.255	27.5
522.602	27.8
522.95	27.75
523.298	27.9
523.645	28.06
523.993	28.09
524.341	28.12
524.688	28.17
525.036	28.12
525.383	28.06
525.73	28.3
526.078	28.29
526.425	28.53
526.772	28.19
527.119	28.25
527.466	28.06
527.814	28.15
528.161	28.03
528.508	28.09
528.854	28.18
529.201	28.24
529.548	28.21
529.895	28.2
530.242	27.99
530.588	27.87
530.935	27.93
531.282	28.06
531.628	28.11
531.975	28.12
532.321	28.29
532.667	28.53
533.014	28.62
533.36	28.75
533.706	28.82
534.052	28.95
534.399	28.92
534.745	28.95
535.091	28.81
535.437	28.74
535.783	28.76
536.129	28.87
536.474	28.95
536.82	29.08
537.166	29.39
537.512	29.49
537.857	29.44
538.203	29.41
538.549	29.46
538.894	29.42
539.239	29.62
539.585	29.62
539.93	29.65
540.276	29.82
540.621	30.07
540.966	30
541.311	30.21
541.656	30.47
542.001	30.32
542.346	30.19
542.691	29.93
543.036	29.75
543.381	29.61
543.726	29.62
544.071	29.8
544.415	29.92
544.76	30.04
545.105	30.2
545.449	30.28
545.794	30.19
546.138	30.38
546.483	30.55
546.827	30.84
547.171	30.8
547.516	30.89
547.86	30.93
548.204	30.94
548.548	30.89
548.892	30.86
549.236	31.08
549.58	30.94
549.924	31.19
550.268	31.37
550.612	31.61
550.956	31.67
551.3	31.59
551.643	31.67
551.987	32.06
552.33	32.15
552.674	32
553.017	32.12
553.361	32.1
553.704	32.39
554.048	32.17
554.391	32.27
554.734	32.04
555.077	32
555.42	32.06
555.764	32.21
556.107	32.48
556.45	32.66
556.793	32.32
557.135	32.54
557.478	32.51
557.821	32.89
558.164	32.87
558.507	32.97
558.849	32.93
559.192	33.12
559.534	33.13
559.877	33.03
560.219	33.63
560.562	33.13
560.904	33.14
561.246	33.24
561.589	33.1
561.931	33.23
562.273	33.47
562.615	33.17
562.957	33.44
563.299	33.63
563.641	33.74
563.983	33.75
564.325	33.41
564.667	33.69
565.008	33.74
565.35	33.89
565.692	33.67
566.033	34.07
566.375	34.17
566.716	34.12
567.058	34.08
567.399	34.03
567.741	33.99
568.082	34.01
568.423	34.04
568.764	34.07
569.105	34.19
569.447	34.26
569.788	34.3
570.129	34.35
570.47	34.43
570.811	34.85
571.151	34.5
571.492	34.83
571.833	34.86
572.174	34.99
572.514	34.59
572.855	34.66
573.195	34.67
573.536	34.55
573.876	34.97
574.217	34.67
574.557	34.59
574.898	34.86
575.238	34.81
575.578	35.18
575.918	35.28
576.258	35.11
576.598	35.34
576.938	35.48
577.278	35.23
577.618	35.25
577.958	35.56
578.298	35.37
578.638	35.56
578.977	35.37
579.317	35.66
579.657	35.87
579.996	36.02
580.336	35.94
580.675	35.99
581.014	36.33
581.354	36.05
581.693	36.26
582.032	36.19
582.372	36.2
582.711	36.45
583.05	36.82
583.389	36.64
583.728	36.6
584.067	37.05
584.406	36.62
584.745	36.86
585.083	36.88
585.422	36.77
585.761	36.76
586.1	36.9
586.438	36.89
586.777	37.1
587.115	37.44
587.454	37.11
587.792	37.1
588.13	37.43
588.469	37.2
588.807	37.3
589.145	37.45
589.483	37.02
589.821	37.25
590.159	37.6
590.497	37.41
590.835	37.67
591.173	37.42
591.511	37.71
591.849	37.62
592.187	37.52
592.524	37.6
592.862	37.58
593.2	38.15
593.537	37.57
593.875	37.95
594.212	38.19
594.55	38.04
594.887	38.31
595.224	38
595.561	38.16
595.899	38.41
596.236	38.34
596.573	38.46
596.91	38.51
597.247	38.21
597.584	38.24
597.921	38.02
598.258	38.57
598.594	38.47
598.931	38.11
599.268	38.09
599.604	38.16
599.941	38.44
600.277	38.51
600.614	38.68
600.95	38.68
601.287	38.5
601.623	38.98
601.959	38.89
602.296	38.9
602.632	39.42
602.968	39.14
603.304	39.49
603.64	39.24
603.976	39.46
604.312	39.77
604.648	39.43
604.984	39.48
605.319	39.41
605.655	39.34
605.991	39.33
606.326	39.41
606.662	39.09
606.998	39.16
607.333	39.22
607.668	39.26
608.004	39.54
608.339	39.54
608.674	39.7
609.01	39.74
609.345	40.07
609.68	39.77
610.015	39.89
610.35	40.34
610.685	40.3
611.02	39.85
611.355	39.8
611.689	39.91
612.024	40.01
612.359	40.16
612.694	40.42
613.028	40.37
613.363	40.31
613.697	40.63
614.032	40.75
614.366	40.68
614.7	40.82
615.035	40.45
615.369	41.15
615.703	40.92
616.037	41.32
616.371	41.33
616.705	41.12
617.039	40.85
617.373	41.29
617.707	41.09
618.041	41.61
618.375	41.56
618.709	41.48
619.042	41.55
619.376	41.92
619.71	41.54
620.043	41.44
620.377	41.65
620.71	41.99
621.043	41.67
621.377	41.75
621.71	41.82
622.043	42.05
622.376	42.08
622.709	41.91
623.043	42.15
623.376	42.04
623.709	41.6
624.041	42.25
624.374	42.12
624.707	42.02
625.04	42.18
625.373	42.02
625.705	41.97
626.038	42.4
626.37	42.19
626.703	42.11
627.035	42.25
627.368	42.4
627.7	42.62
628.032	42.5
628.365	42.62
628.697	42.83
629.029	42.68
629.361	42.58
629.693	42.78
630.025	42.84
630.357	43.12
630.689	42.9
631.021	43.44
631.353	42.92
631.684	42.81
632.016	43.18
632.348	43.11
632.679	42.91
633.011	43.34
633.342	42.93
633.674	43.37
634.005	43.29
634.336	43.71
634.668	43.2
634.999	43.5
635.33	43.97
635.661	43.78
635.992	43.45
636.323	43.32
636.654	43.54
636.985	43.48
637.316	44.28
637.647	43.57
637.977	43.79
638.308	44.06
638.639	44.28
638.969	44.33
639.3	43.83
639.63	44.06
639.961	44.82
640.291	44.13
640.622	44.05
640.952	44.5
641.282	44.74
641.612	44.44
641.943	44.22
642.273	44.41
642.603	45.11
642.933	44.57
643.263	44.82
643.592	44.77
643.922	44.78
644.252	44.6
644.582	45.16
644.911	45.07
645.241	45.3
645.571	44.71
645.9	45.31
646.23	44.96
646.559	44.8
646.888	45.3
647.218	45.32
647.547	45.64
647.876	45.89
648.205	45
648.534	45.85
648.863	45.32
649.192	45.21
649.521	45.47
649.85	45.25
650.179	44.73
650.508	45.9
650.837	45.93
651.165	45.54
651.494	45.49
651.822	45.46
652.151	45.73
652.479	45.9
652.808	46.02
653.136	45.05
653.465	45.87
653.793	45.96
654.121	46.42
654.449	45.53
654.777	45.68
655.105	45.92
655.433	46.77
655.761	46.39
656.089	46.17
656.417	46.83
656.745	46.11
657.073	45.86
657.4	46.68
657.728	46.2
658.056	46.67
658.383	45.98
658.711	46.3
659.038	46.71
659.365	46.8
659.693	46.45
660.02	46.89
660.347	46.15
660.674	46.6
661.001	46.76
661.329	46.65
661.656	46.97
661.982	47.37
662.309	46.78
662.636	47.1
662.963	47.19
663.29	47.26
663.616	47.12
663.943	47.27
664.27	47.52
664.596	46.44
664.923	47.72
665.249	47.46
665.576	47.51
665.902	47.74
666.228	47.45
666.554	48.04
666.881	47.35
667.207	47.6
667.533	48.36
667.859	47.48
668.185	47.88
668.511	48.44
668.837	47.55
669.162	47.96
669.488	47.3
669.814	48.14
670.139	47.87
670.465	47.63
