Data from 20-8_forehead_Reflection__2__118.txt Node

Date: Fri Nov 11 21:01:42 CST 2022
User: ToomeyLab
Spectrometer: FLMS14357
Trigger mode: 0
Integration Time (sec): 1.000000E-2
Scans to average: 100
Electric dark correction enabled: true
Nonlinearity correction enabled: false
Boxcar width: 0
XAxis mode: Wavelengths
Number of Pixels in Spectrum: 2048
>>>>>Begin Spectral Data<<<<<
189.047	759.78
189.435	759.78
189.823	759.78
190.211	14.26
190.599	-14.55
190.987	54.11
191.375	70.27
191.763	-117.86
192.151	-0.45
192.538	-175.9
192.926	78.61
193.314	100.57
193.702	107.55
194.089	0.36
194.477	17.14
194.864	70.27
195.252	76.77
195.639	-60.76
196.027	269.25
196.414	125.35
196.801	123.17
197.189	78.73
197.576	86.81
197.963	-298.71
198.351	-147.28
198.738	-20.68
199.125	21.51
199.512	15.88
199.899	-19.18
200.286	55.61
200.673	5.84
201.06	12.47
201.447	34.38
201.833	42.48
202.22	-62.28
202.607	24.74
202.994	47.31
203.38	13.73
203.767	39.25
204.154	28.68
204.54	-9.02
204.927	24.52
205.313	10.68
205.699	-45.27
206.086	40.3
206.472	28.53
206.858	42.72
207.245	39.76
207.631	0.24
208.017	-3.39
208.403	32.57
208.789	3.82
209.175	7.4
209.561	38.9
209.947	18.06
210.333	21.86
210.719	24.33
211.105	42.17
211.491	-5.86
211.876	14.74
212.262	53
212.648	46.17
213.034	11.62
213.419	-25.92
213.805	4.55
214.19	11.28
214.576	28.91
214.961	-22.6
215.346	3.82
215.732	-34.16
216.117	32.67
216.502	-11.64
216.888	-10.43
217.273	25.04
217.658	1.51
218.043	15.81
218.428	31.53
218.813	7.3
219.198	8.74
219.583	33.59
219.968	27.21
220.353	-1.67
220.738	-19.54
221.122	23.89
221.507	-33.71
221.892	-11.89
222.276	17.53
222.661	16.52
223.046	-9.69
223.43	0.09
223.815	3.92
224.199	16.61
224.583	9.2
224.968	-15.35
225.352	-2.32
225.736	-2.63
226.121	-3.12
226.505	-2.83
226.889	3.42
227.273	10.39
227.657	3.22
228.041	0.54
228.425	0.21
228.809	3.82
229.193	5.57
229.577	4.83
229.961	2.96
230.344	4.24
230.728	1.33
231.112	1.49
231.495	2.8
231.879	3.15
232.263	2.01
232.646	1.33
233.03	2.9
233.413	3.26
233.797	4.75
234.18	2.71
234.563	3.1
234.946	2.8
235.33	1.78
235.713	3.66
236.096	1.22
236.479	3.04
236.862	5.42
237.245	2.32
237.628	3.79
238.011	4.7
238.394	5.86
238.777	4.65
239.16	4.7
239.543	0.64
239.925	3.32
240.308	1.87
240.691	3.29
241.073	2.98
241.456	0.14
241.838	4.52
242.221	2.92
242.603	3.49
242.986	2.34
243.368	2.7
243.75	2.89
244.133	3.49
244.515	3.24
244.897	3.65
245.279	2.83
245.661	3.42
246.043	2.35
246.425	3.94
246.807	3.66
247.189	3.02
247.571	3.63
247.953	3.2
248.335	3.21
248.717	3.23
249.098	3.61
249.48	2.86
249.862	3.61
250.243	3.29
250.625	3.39
251.006	3.95
251.388	4.14
251.769	3.36
252.151	4.13
252.532	3.23
252.913	4.37
253.295	3.18
253.676	2.47
254.057	3.27
254.438	3.09
254.819	2.66
255.2	4.01
255.581	3.53
255.962	3.6
256.343	3.36
256.724	3.58
257.105	4.09
257.486	4.35
257.867	3.69
258.247	3.33
258.628	3.69
259.009	3.11
259.389	3.04
259.77	3.72
260.15	3.47
260.531	3.32
260.911	3.32
261.292	3.33
261.672	3.19
262.052	3.04
262.432	3.35
262.813	3.09
263.193	2.88
263.573	3.03
263.953	3.3
264.333	2.75
264.713	2.92
265.093	3.56
265.473	2.37
265.853	2.31
266.233	3.54
266.612	3.12
266.992	3.17
267.372	3.55
267.752	2.53
268.131	2.74
268.511	3.08
268.89	3.16
269.27	3.32
269.649	2.73
270.029	3.61
270.408	3.39
270.787	2.59
271.167	2.98
271.546	3.15
271.925	3.59
272.304	3.47
272.683	3.01
273.062	2.6
273.441	3.44
273.82	2.95
274.199	2.87
274.578	2.86
274.957	3.05
275.336	3.76
275.715	3.41
276.093	2.88
276.472	2.68
276.851	3.41
277.229	3.02
277.608	3.52
277.986	3.64
278.365	2.4
278.743	2.74
279.122	3.35
279.5	3.41
279.878	3.67
280.257	2.72
280.635	3.1
281.013	3.5
281.391	3.01
281.769	3.22
282.147	2.82
282.525	2.65
282.903	3.12
283.281	3.12
283.659	3.26
284.037	3.42
284.415	2.88
284.792	3.59
285.17	3.69
285.548	3.28
285.925	2.85
286.303	3.09
286.68	3.5
287.058	3.45
287.435	2.99
287.813	3.33
288.19	2.67
288.567	3.28
288.945	3.35
289.322	3.18
289.699	2.7
290.076	3.35
290.453	3.39
290.83	3.71
291.207	3.29
291.584	3.76
291.961	3.34
292.338	3.23
292.715	3.23
293.092	3.64
293.469	3.21
293.845	3.49
294.222	3.64
294.599	4.26
294.975	3.77
295.352	3.6
295.728	3.9
296.105	3.8
296.481	3.34
296.858	3.67
297.234	3.83
297.61	3.4
297.986	4
298.363	3.85
298.739	4.07
299.115	4.24
299.491	4.2
299.867	3.73
300.243	4
300.619	3.77
300.995	3.8
301.371	4.45
301.746	4.34
302.122	3.95
302.498	4.27
302.874	4.19
303.249	3.93
303.625	3.84
304	3.99
304.376	4.31
304.751	4.27
305.127	4.26
305.502	4.34
305.878	5.21
306.253	4.84
306.628	4.47
307.003	4.35
307.378	4.48
307.754	4.97
308.129	4.84
308.504	4.44
308.879	5.03
309.254	4.61
309.629	5.02
310.003	5.16
310.378	4.7
310.753	5.34
311.128	5.08
311.502	5.11
311.877	5.39
312.252	4.94
312.626	5.09
313.001	5.12
313.375	5.07
313.75	5.21
314.124	5.15
314.498	5.22
314.873	5.08
315.247	5.84
315.621	5.64
315.995	5.98
316.369	5.66
316.743	5.52
317.117	5.98
317.491	5.92
317.865	5.05
318.239	5.73
318.613	6.19
318.987	5.79
319.361	5.48
319.734	5.93
320.108	5.67
320.482	6.52
320.855	6.38
321.229	5.57
321.602	5.71
321.976	5.66
322.349	6.26
322.723	6.51
323.096	6.53
323.469	6.59
323.843	6.14
324.216	6.08
324.589	6.94
324.962	6.65
325.335	6.17
325.708	6.55
326.081	6.88
326.454	6.16
326.827	6.55
327.2	6.93
327.573	7.4
327.945	6.33
328.318	6.3
328.691	7.06
329.063	6.87
329.436	6.23
329.809	6.73
330.181	6.73
330.553	6.25
330.926	6.75
331.298	7.25
331.671	6.3
332.043	6.54
332.415	6.92
332.787	7.15
333.159	7.26
333.532	7.21
333.904	7.05
334.276	6.62
334.648	7.14
335.02	7.14
335.391	7.37
335.763	7.2
336.135	6.96
336.507	7.29
336.879	7.74
337.25	7.17
337.622	6.96
337.993	7.86
338.365	7.34
338.736	7.51
339.108	7.36
339.479	7.24
339.851	7.48
340.222	7.27
340.593	7.93
340.964	7.52
341.336	7.65
341.707	7.92
342.078	7.7
342.449	7.56
342.82	7.81
343.191	7.95
343.562	7.54
343.933	7.88
344.303	7.75
344.674	7.7
345.045	7.95
345.416	8.37
345.786	7.51
346.157	7.86
346.527	8.16
346.898	7.45
347.268	8.12
347.639	8.03
348.009	7.9
348.38	8.3
348.75	7.98
349.12	8.79
349.49	8.3
349.861	7.96
350.231	8.49
350.601	8.57
350.971	8.26
351.341	8.48
351.711	8.41
352.081	8.41
352.45	8.26
352.82	8.29
353.19	8.68
353.56	8.16
353.929	8.29
354.299	8.25
354.669	8.65
355.038	8.66
355.408	8.68
355.777	8.76
356.147	8.72
356.516	8.69
356.885	8.83
357.254	8.22
357.624	8.42
357.993	8.44
358.362	8.75
358.731	8.56
359.1	8.79
359.469	8.36
359.838	8.35
360.207	8.64
360.576	8.69
360.945	8.94
361.314	8.41
361.682	8.91
362.051	8.91
362.42	9.16
362.788	9.21
363.157	8.88
363.525	8.83
363.894	8.92
364.262	9.11
364.631	9.26
364.999	8.8
365.367	9.03
365.735	9.49
366.104	8.75
366.472	9.42
366.84	8.97
367.208	9.51
367.576	10
367.944	9.78
368.312	9.53
368.68	9.39
369.048	9.55
369.416	9.52
369.783	9.49
370.151	9.66
370.519	9.78
370.886	9.72
371.254	9.84
371.621	9.83
371.989	9.83
372.356	9.9
372.724	10.12
373.091	9.77
373.458	9.83
373.826	9.67
374.193	9.73
374.56	9.92
374.927	9.63
375.294	10.19
375.661	10.42
376.028	9.86
376.395	10.01
376.762	10.46
377.129	9.89
377.496	10.12
377.863	10.21
378.229	10.12
378.596	10.04
378.963	10.07
379.329	10.23
379.696	9.9
380.062	10.23
380.429	10.22
380.795	10.69
381.161	10.45
381.528	10.1
381.894	10.28
382.26	10.62
382.626	10.84
382.993	10.05
383.359	10.65
383.725	10.18
384.091	10.5
384.457	10.46
384.823	10.4
385.188	10.31
385.554	10.47
385.92	10.53
386.286	10.47
386.651	10.45
387.017	10.57
387.383	10.68
387.748	10.4
388.114	10.54
388.479	10.4
388.845	10.44
389.21	10.45
389.575	10.75
389.94	10.95
390.306	10.64
390.671	10.88
391.036	10.57
391.401	10.87
391.766	10.77
392.131	10.64
392.496	10.77
392.861	10.74
393.226	10.67
393.591	10.41
393.956	10.85
394.32	10.66
394.685	10.99
395.05	10.8
395.414	10.61
395.779	10.68
396.143	10.67
396.508	10.89
396.872	10.88
397.236	10.68
397.601	10.85
397.965	10.75
398.329	10.78
398.694	10.92
399.058	10.68
399.422	10.61
399.786	10.67
400.15	10.63
400.514	10.95
400.878	10.82
401.242	10.88
401.605	10.84
401.969	10.78
402.333	10.6
402.697	11.08
403.06	10.7
403.424	10.88
403.787	10.99
404.151	10.87
404.514	10.86
404.878	10.68
405.241	10.66
405.604	10.65
405.968	10.88
406.331	10.56
406.694	10.85
407.057	10.91
407.42	10.88
407.783	10.89
408.146	10.85
408.509	11.13
408.872	10.94
409.235	10.84
409.598	10.87
409.961	11.28
410.323	10.71
410.686	10.92
411.049	10.75
411.411	10.98
411.774	10.91
412.136	11
412.499	10.99
412.861	11.02
413.223	11
413.586	10.9
413.948	11.34
414.31	11.23
414.672	11.05
415.035	11.26
415.397	10.96
415.759	11.12
416.121	11.12
416.483	11.28
416.845	11.33
417.206	11.28
417.568	11.19
417.93	11.11
418.292	11.2
418.653	11.36
419.015	11.38
419.377	11.26
419.738	11.31
420.1	11.24
420.461	11.39
420.822	11.2
421.184	11.29
421.545	11.35
421.906	11.4
422.267	11.28
422.629	11.21
422.99	11.36
423.351	11.42
423.712	11.52
424.073	11.62
424.434	11.77
424.795	11.9
425.155	11.87
425.516	11.79
425.877	11.77
426.238	11.83
426.598	11.81
426.959	11.97
427.32	12.15
427.68	12.2
428.041	12.45
428.401	12.41
428.761	12.59
429.122	12.42
429.482	12.92
429.842	12.81
430.202	12.92
430.563	13.13
430.923	13.03
431.283	13.05
431.643	13.02
432.003	12.95
432.363	13.18
432.722	13.28
433.082	13.4
433.442	13.44
433.802	13.46
434.161	13.34
434.521	13.21
434.881	13.51
435.24	13.44
435.6	13.49
435.959	13.65
436.319	13.63
436.678	13.69
437.037	13.78
437.396	14.11
437.756	13.94
438.115	13.98
438.474	14.06
438.833	14.11
439.192	14.25
439.551	14.21
439.91	14.28
440.269	14.27
440.628	14.31
440.987	14.24
441.345	14.29
441.704	14.3
442.063	14.35
442.421	14.47
442.78	14.32
443.138	14.65
443.497	14.62
443.855	14.71
444.214	14.71
444.572	14.94
444.93	14.94
445.288	15.03
445.647	15.13
446.005	15.09
446.363	15.12
446.721	15.1
447.079	15.11
447.437	14.88
447.795	15.11
448.153	14.94
448.51	15
448.868	15.19
449.226	15.19
449.584	15.4
449.941	15.45
450.299	15.45
450.656	15.53
451.014	15.7
451.371	15.67
451.729	15.79
452.086	15.98
452.443	15.98
452.801	16.08
453.158	16.2
453.515	15.98
453.872	16.1
454.229	16.11
454.586	16.12
454.943	16.19
455.3	16.4
455.657	16.33
456.014	16.45
456.371	16.46
456.727	16.65
457.084	16.32
457.441	16.82
457.797	16.68
458.154	16.73
458.51	17
458.867	16.77
459.223	16.88
459.58	16.87
459.936	16.83
460.292	17.01
460.648	17.08
461.005	16.89
461.361	16.77
461.717	16.72
462.073	17.04
462.429	16.94
462.785	17.07
463.141	17.3
463.496	17.59
463.852	17.64
464.208	17.48
464.564	17.71
464.919	17.69
465.275	17.59
465.631	17.72
465.986	17.97
466.342	17.88
466.697	17.9
467.052	17.98
467.408	18.06
467.763	17.97
468.118	18.13
468.473	18.27
468.829	18.29
469.184	18.34
469.539	18.39
469.894	18.46
470.249	18.55
470.603	18.51
470.958	18.46
471.313	18.61
471.668	18.79
472.023	18.59
472.377	18.67
472.732	18.55
473.086	18.74
473.441	18.77
473.795	18.9
474.15	18.95
474.504	19
474.859	19.08
475.213	19.14
475.567	19.13
475.921	19.15
476.275	19.25
476.63	19.3
476.984	19.28
477.338	19.49
477.692	19.4
478.045	19.26
478.399	19.58
478.753	19.47
479.107	19.53
479.461	19.54
479.814	19.5
480.168	19.54
480.521	19.63
480.875	19.78
481.228	19.64
481.582	19.88
481.935	19.65
482.289	19.75
482.642	19.78
482.995	19.89
483.348	19.68
483.701	19.69
484.055	19.67
484.408	19.57
484.761	19.37
485.114	19.13
485.466	18.96
485.819	19.03
486.172	19.22
486.525	19.41
486.878	19.61
487.23	19.7
487.583	19.96
487.936	19.96
488.288	19.92
488.641	19.73
488.993	19.69
489.345	19.57
489.698	19.66
490.05	19.82
490.402	19.92
490.754	20.19
491.107	20.34
491.459	20.41
491.811	20.54
492.163	20.66
492.515	20.56
492.866	20.3
493.218	20.07
493.57	20.21
493.922	20.32
494.274	20.58
494.625	20.83
494.977	21.08
495.328	21.24
495.68	21.35
496.031	21.35
496.383	21.51
496.734	21.66
497.086	21.81
497.437	21.74
497.788	21.49
498.139	21.63
498.49	21.37
498.842	21.44
499.193	21.76
499.544	21.92
499.894	21.67
500.245	21.96
500.596	22.07
500.947	21.99
501.298	21.86
501.648	22.16
501.999	22.14
502.35	22.32
502.7	22.27
503.051	22.44
503.401	22.5
503.752	22.36
504.102	22.49
504.452	22.7
504.803	22.42
505.153	22.64
505.503	22.7
505.853	22.59
506.203	22.64
506.553	22.65
506.903	22.67
507.253	22.71
507.603	22.69
507.953	22.69
508.303	22.77
508.652	22.92
509.002	22.93
509.352	22.84
509.701	22.92
510.051	22.82
510.4	22.9
510.75	22.89
511.099	22.86
511.449	22.98
511.798	23.04
512.147	23.08
512.496	23.01
512.846	23.12
513.195	23.19
513.544	23.11
513.893	22.96
514.242	23.17
514.591	23.08
514.939	23.4
515.288	23.34
515.637	23.47
515.986	23.46
516.334	23.43
516.683	23.47
517.032	23.72
517.38	23.73
517.729	23.65
518.077	23.52
518.426	23.6
518.774	23.68
519.122	23.52
519.47	23.58
519.819	23.35
520.167	23.29
520.515	23.12
520.863	23.33
521.211	23.37
521.559	23.4
521.907	23.63
522.255	23.73
522.602	23.79
522.95	23.9
523.298	24.03
523.645	23.81
523.993	24.09
524.341	24.14
524.688	24.19
525.036	24.14
525.383	24.09
525.73	24.12
526.078	24.06
526.425	23.99
526.772	23.89
527.119	23.74
527.466	23.81
527.814	23.78
528.161	23.79
528.508	23.9
528.854	23.89
529.201	23.86
529.548	23.63
529.895	23.42
530.242	23.24
530.588	23.39
530.935	23.48
531.282	23.72
531.628	23.71
531.975	23.87
532.321	24.12
532.667	24.2
533.014	24.21
533.36	24.3
533.706	24.36
534.052	24.39
534.399	24.18
534.745	23.96
535.091	23.99
535.437	24.07
535.783	24.13
536.129	24.44
536.474	24.6
536.82	24.67
537.166	24.84
537.512	24.87
537.857	24.81
538.203	24.63
538.549	24.71
538.894	24.86
539.239	24.85
539.585	25.1
539.93	25.31
540.276	25.41
540.621	25.45
540.966	25.56
541.311	25.49
541.656	25.5
542.001	25.29
542.346	24.97
542.691	24.79
543.036	24.58
543.381	24.73
543.726	24.9
544.071	25.02
544.415	25.3
544.76	25.27
545.105	25.34
545.449	25.49
545.794	25.67
546.138	25.77
546.483	25.97
546.827	26.02
547.171	26.03
547.516	25.97
547.86	26.12
548.204	26.12
548.548	25.97
548.892	26.06
549.236	26.15
549.58	26.41
549.924	26.52
550.268	26.65
550.612	26.81
550.956	26.85
551.3	26.8
551.643	26.94
551.987	26.91
552.33	26.95
552.674	27.06
553.017	27.18
553.361	27.1
553.704	27.16
554.048	27.08
554.391	27.09
554.734	27.27
555.077	27.3
555.42	27.19
555.764	27.29
556.107	27.53
556.45	27.49
556.793	27.78
557.135	27.49
557.478	27.83
557.821	27.87
558.164	27.63
558.507	27.85
558.849	27.85
559.192	27.8
559.534	28
559.877	27.94
560.219	27.99
560.562	28.2
560.904	28.12
561.246	27.94
561.589	28.23
561.931	28.33
562.273	28.25
562.615	27.95
562.957	28.35
563.299	28.36
563.641	28.34
563.983	28.26
564.325	28.35
564.667	28.46
565.008	28.47
565.35	28.57
565.692	28.35
566.033	28.44
566.375	28.8
566.716	28.65
567.058	28.55
567.399	28.64
567.741	28.51
568.082	28.67
568.423	28.61
568.764	28.78
569.105	28.87
569.447	28.86
569.788	28.97
570.129	28.78
570.47	29.02
570.811	29.14
571.151	29.26
571.492	29.09
571.833	29.24
572.174	29.44
572.514	29.23
572.855	29.25
573.195	29.06
573.536	29.28
573.876	29.48
574.217	29.43
574.557	29.5
574.898	29.49
575.238	29.76
575.578	29.61
575.918	29.84
576.258	29.85
576.598	29.77
576.938	29.63
577.278	29.89
577.618	30.1
577.958	30.13
578.298	30.24
578.638	30.11
578.977	30.18
579.317	30.54
579.657	30.55
579.996	30.55
580.336	30.65
580.675	30.72
581.014	30.95
581.354	30.77
581.693	30.96
582.032	30.92
582.372	31.31
582.711	30.97
583.05	31.13
583.389	31.36
583.728	31.21
584.067	31.27
584.406	31.57
584.745	31.6
585.083	31.11
585.422	31.21
585.761	31.43
586.1	31.57
586.438	31.78
586.777	31.8
587.115	32
587.454	31.79
587.792	31.75
588.13	32.06
588.469	32.05
588.807	32.24
589.145	32.09
589.483	32.28
589.821	32.22
590.159	32.24
590.497	32.2
590.835	32.44
591.173	32.59
591.511	32.25
591.849	32.51
592.187	32.45
592.524	32.39
592.862	32.58
593.2	32.79
593.537	32.98
593.875	33.15
594.212	32.76
594.55	33.05
594.887	32.82
595.224	33
595.561	32.92
595.899	32.86
596.236	33.39
596.573	33.39
596.91	33.16
597.247	32.93
597.584	33.3
597.921	33.39
598.258	33.33
598.594	33.32
598.931	33.21
599.268	33.4
599.604	33.55
599.941	33.66
600.277	33.7
600.614	34.09
600.95	33.78
601.287	34.03
601.623	34.38
601.959	34.45
602.296	34.25
602.632	34.32
602.968	34.33
603.304	34.52
603.64	34.33
603.976	34.43
604.312	34.13
604.648	34.23
604.984	34.27
605.319	34.17
605.655	34.36
605.991	34.27
606.326	34.3
606.662	34.42
606.998	34.36
607.333	34.59
607.668	34.72
608.004	34.91
608.339	34.74
608.674	34.73
609.01	35.1
609.345	35.31
609.68	35.23
610.015	35.12
610.35	35.45
610.685	35.55
611.02	35.04
611.355	35.11
611.689	35.23
612.024	35.11
612.359	35.38
612.694	35.53
613.028	35.61
613.363	35.78
613.697	35.89
614.032	35.98
614.366	36
614.7	35.99
615.035	36
615.369	36.45
615.703	36.13
616.037	36.44
616.371	36.45
616.705	36.02
617.039	36.8
617.373	36.23
617.707	36.24
618.041	36.71
618.375	37.09
618.709	36.63
619.042	36.61
619.376	36.83
619.71	36.97
620.043	36.34
620.377	36.73
620.71	36.67
621.043	36.82
621.377	36.96
621.71	37.24
622.043	37.31
622.376	37.15
622.709	37
623.043	37.49
623.376	37.43
623.709	37.77
624.041	37.44
624.374	37.49
624.707	37.29
625.04	37.62
625.373	37.15
625.705	37.74
626.038	37.77
626.37	38.13
626.703	37.91
627.035	37.84
627.368	37.64
627.7	37.72
628.032	37.97
628.365	38.06
628.697	37.78
629.029	37.8
629.361	38
629.693	37.92
630.025	37.9
630.357	38.48
630.689	38.29
631.021	38.33
631.353	38.35
631.684	38.12
632.016	38.63
632.348	38.71
632.679	38.51
633.011	38.85
633.342	38.5
633.674	39.24
634.005	38.4
634.336	39.07
634.668	38.9
634.999	38.92
635.33	39.14
635.661	38.93
635.992	39.2
636.323	38.87
636.654	38.89
636.985	39.06
637.316	39.44
637.647	39.9
637.977	39.46
638.308	39.48
638.639	39.73
638.969	39.59
639.3	40.01
639.63	40.02
639.961	39.74
640.291	39.83
640.622	40.1
640.952	40.28
641.282	39.89
641.612	40.16
641.943	40.42
642.273	40.3
642.603	40.49
642.933	40.59
643.263	40.64
643.592	40.5
643.922	40.34
644.252	41.1
644.582	40.95
644.911	40.46
645.241	40.66
645.571	40.63
645.9	41.01
646.23	40.76
646.559	40.93
646.888	41.19
647.218	40.94
647.547	41.13
647.876	41.18
648.205	40.78
648.534	40.89
648.863	41.3
649.192	41.51
649.521	41.77
649.85	41.92
650.179	41.23
650.508	41.68
650.837	41.88
651.165	41.59
651.494	42.15
651.822	41.96
652.151	42.11
652.479	42.04
652.808	41.45
653.136	42.02
653.465	42.53
653.793	42.13
654.121	42.04
654.449	41.65
654.777	42.61
655.105	42.37
655.433	42.73
655.761	42.53
656.089	42.52
656.417	42.93
656.745	42.86
657.073	42.51
657.4	42.66
657.728	42.74
658.056	42.82
658.383	42.93
658.711	42.92
659.038	43.27
659.365	42.86
659.693	43.63
660.02	43.18
660.347	43.41
660.674	43.25
661.001	43.03
661.329	43.18
661.656	43.15
661.982	43.17
662.309	43.19
662.636	43.37
662.963	43.46
663.29	43.42
663.616	43.74
663.943	43.53
664.27	43.79
664.596	43.69
664.923	44.32
665.249	43.93
665.576	43.28
665.902	44.38
666.228	45.26
666.554	44.03
666.881	43.79
667.207	44.37
667.533	45.37
667.859	44.01
668.185	44.59
668.511	44.44
668.837	44.7
669.162	44.94
669.488	44.67
669.814	44.58
670.139	44.33
670.465	44.69
670.791	44.58
671.116	45.26
671.442	44.61
671.767	45.77
672.092	44.68
672.418	44.79
672.743	45.07
