Data from 20-8_forehead_Reflection__4__120.txt Node

Date: Fri Nov 11 21:02:07 CST 2022
User: ToomeyLab
Spectrometer: FLMS14357
Trigger mode: 0
Integration Time (sec): 1.000000E-2
Scans to average: 100
Electric dark correction enabled: true
Nonlinearity correction enabled: false
Boxcar width: 0
XAxis mode: Wavelengths
Number of Pixels in Spectrum: 2048
>>>>>Begin Spectral Data<<<<<
189.047	-632.17
189.435	-632.17
189.823	-632.17
190.211	12.56
190.599	426.55
190.987	-10.43
191.375	-74.8
191.763	-484
192.151	-44.14
192.538	-3.9
192.926	119.86
193.314	97.19
193.702	41.84
194.089	32.15
194.477	63.41
194.864	34.93
195.252	127.53
195.639	-73.99
196.027	7.71
196.414	87.7
196.801	-41.5
197.189	73.1
197.576	-5.51
197.963	-335.05
198.351	-96.33
198.738	14.62
199.125	16.75
199.512	33.55
199.899	-82.53
200.286	37.32
200.673	6.61
201.06	51.61
201.447	41.49
201.833	14.72
202.22	-0.63
202.607	13.83
202.994	20.41
203.38	29.56
203.767	31.74
204.154	36.19
204.54	12.34
204.927	39.69
205.313	-28.68
205.699	0.86
206.086	27.23
206.472	15.38
206.858	21.45
207.245	36.21
207.631	23.58
208.017	20.1
208.403	9.49
208.789	-13.13
209.175	36.59
209.561	46.18
209.947	8.07
210.333	-21.51
210.719	-6.76
211.105	25.66
211.491	54.15
211.876	20.74
212.262	40.77
212.648	-20.05
213.034	24.66
213.419	-12.59
213.805	-35
214.19	9.01
214.576	74.33
214.961	-31.67
215.346	-14.96
215.732	-16.47
216.117	16.45
216.502	-3.85
216.888	-15.65
217.273	41.4
217.658	1.53
218.043	-14.39
218.428	14.92
218.813	17.68
219.198	1.29
219.583	14.77
219.968	29.32
220.353	-3.87
220.738	1.2
221.122	2.36
221.507	1.98
221.892	7.79
222.276	10.98
222.661	8.18
223.046	-9.56
223.43	-8.17
223.815	-0.05
224.199	7.73
224.583	-5.74
224.968	-3.62
225.352	12.02
225.736	-0.59
226.121	-10.46
226.505	6.84
226.889	-12.95
227.273	3.79
227.657	-4.17
228.041	-3.71
228.425	-0.45
228.809	2.66
229.193	4.02
229.577	4.32
229.961	2.45
230.344	2.3
230.728	1.6
231.112	1.07
231.495	1.98
231.879	1.18
232.263	1.44
232.646	1.51
233.03	2.66
233.413	2.05
233.797	2.87
234.18	0.38
234.563	2.56
234.946	1.73
235.33	3.54
235.713	1.47
236.096	2.2
236.479	2.68
236.862	3.2
237.245	1.89
237.628	2.27
238.011	0.84
238.394	1.9
238.777	3.22
239.16	2.74
239.543	0.74
239.925	2.26
240.308	1.33
240.691	4.15
241.073	1.51
241.456	1.42
241.838	3.43
242.221	2.66
242.603	2.21
242.986	2.02
243.368	2.43
243.75	1.98
244.133	2.37
244.515	2.03
244.897	2.85
245.279	1.24
245.661	1.9
246.043	2.01
246.425	2.74
246.807	2.66
247.189	1.29
247.571	1.9
247.953	1.92
248.335	2.12
248.717	2.24
249.098	2.39
249.48	1.96
249.862	2.11
250.243	2.1
250.625	2.2
251.006	2.85
251.388	2.81
251.769	3.4
252.151	3.05
252.532	1.52
252.913	2.9
253.295	1.7
253.676	1.7
254.057	1.8
254.438	2.48
254.819	1.93
255.2	2.26
255.581	1.67
255.962	0.99
256.343	2.67
256.724	0.98
257.105	2.57
257.486	1.92
257.867	2.38
258.247	0.99
258.628	2.15
259.009	2.08
259.389	1.99
259.77	2.34
260.15	1.91
260.531	2
260.911	1.64
261.292	2.45
261.672	1.9
262.052	2.24
262.432	2.39
262.813	2.55
263.193	2.13
263.573	1.46
263.953	2.44
264.333	2.01
264.713	2.12
265.093	1.78
265.473	1.65
265.853	1.86
266.233	2.04
266.612	1.88
266.992	2.64
267.372	2.27
267.752	1.86
268.131	2.07
268.511	2.66
268.89	2.11
269.27	2.01
269.649	2.06
270.029	2.71
270.408	2.13
270.787	2.06
271.167	1.92
271.546	2.06
271.925	1.81
272.304	1.81
272.683	2.18
273.062	1.83
273.441	1.75
273.82	1.94
274.199	1.94
274.578	2.18
274.957	2.3
275.336	1.93
275.715	2.24
276.093	1.71
276.472	1.96
276.851	1.72
277.229	2.06
277.608	2.31
277.986	2.14
278.365	1.78
278.743	2.01
279.122	2.4
279.5	2.08
279.878	2.1
280.257	2.01
280.635	1.64
281.013	2.13
281.391	1.7
281.769	1.83
282.147	1.98
282.525	1.67
282.903	1.52
283.281	2.19
283.659	2.54
284.037	2.66
284.415	1.68
284.792	2.73
285.17	2.44
285.548	2.18
285.925	1.7
286.303	1.82
286.68	2.12
287.058	2.26
287.435	2.13
287.813	2.41
288.19	1.73
288.567	1.97
288.945	2.78
289.322	2.47
289.699	1.3
290.076	2.34
290.453	2.26
290.83	2.34
291.207	2.09
291.584	2.55
291.961	2.29
292.338	2.58
292.715	2.54
293.092	2.4
293.469	2.56
293.845	2.47
294.222	2.12
294.599	2.56
294.975	2.92
295.352	2.57
295.728	2.91
296.105	2.25
296.481	1.78
296.858	2.63
297.234	2.52
297.61	2.6
297.986	2.93
298.363	2.63
298.739	2.7
299.115	2.8
299.491	3.01
299.867	2.77
300.243	2.6
300.619	2.51
300.995	3.22
301.371	3.52
301.746	3.4
302.122	3.22
302.498	3.18
302.874	3.34
303.249	2.63
303.625	3.4
304	2.65
304.376	3.27
304.751	3.1
305.127	2.65
305.502	3.4
305.878	3.52
306.253	3.32
306.628	3.28
307.003	3.02
307.378	3.02
307.754	3.34
308.129	3.5
308.504	3.54
308.879	3.2
309.254	3.69
309.629	3.79
310.003	3.63
310.378	3.9
310.753	4.1
311.128	4.16
311.502	3.82
311.877	3.81
312.252	3.84
312.626	3.79
313.001	3.58
313.375	3.77
313.75	3.52
314.124	3.7
314.498	4
314.873	3.58
315.247	4.3
315.621	4.13
315.995	4.21
316.369	4.1
316.743	4.24
317.117	4.51
317.491	4.33
317.865	4.22
318.239	4.97
318.613	4.38
318.987	4.1
319.361	4.11
319.734	4.46
320.108	4.06
320.482	4.74
320.855	4.52
321.229	4.77
321.602	4.31
321.976	4.91
322.349	5.15
322.723	4.88
323.096	4.9
323.469	5.16
323.843	4.89
324.216	4.85
324.589	4.93
324.962	5.8
325.335	4.79
325.708	5.45
326.081	5.31
326.454	4.77
326.827	4.88
327.2	5.51
327.573	5.96
327.945	5.06
328.318	5.06
328.691	5.3
329.063	5.73
329.436	5.05
329.809	4.95
330.181	5.28
330.553	5.03
330.926	5.34
331.298	5.56
331.671	5.48
332.043	4.84
332.415	5.42
332.787	5.71
333.159	5.63
333.532	5.67
333.904	5.42
334.276	5.63
334.648	5.67
335.02	5.41
335.391	6.16
335.763	5.48
336.135	5.41
336.507	5.72
336.879	5.81
337.25	5.71
337.622	5.99
337.993	5.93
338.365	5.97
338.736	5.97
339.108	6.13
339.479	5.69
339.851	6.39
340.222	5.79
340.593	6.38
340.964	5.72
341.336	6.29
341.707	6.2
342.078	5.67
342.449	6.25
342.82	6.32
343.191	6.5
343.562	6.14
343.933	6.16
344.303	5.91
344.674	6.2
345.045	6.15
345.416	6.26
345.786	6.22
346.157	6.38
346.527	6.17
346.898	5.98
347.268	6.26
347.639	6.38
348.009	6.12
348.38	6.69
348.75	6.41
349.12	7.1
349.49	6.66
349.861	6.6
350.231	7.02
350.601	6.53
350.971	6.5
351.341	6.87
351.711	6.68
352.081	6.96
352.45	7.14
352.82	6.29
353.19	6.8
353.56	6.79
353.929	7.11
354.299	6.83
354.669	6.67
355.038	6.78
355.408	7.14
355.777	7.21
356.147	7.22
356.516	7.04
356.885	7.11
357.254	6.78
357.624	6.71
357.993	7.15
358.362	7.22
358.731	7.01
359.1	6.87
359.469	6.6
359.838	7.11
360.207	7.37
360.576	7.28
360.945	7.34
361.314	6.89
361.682	7.12
362.051	7.21
362.42	7.54
362.788	7.36
363.157	7.07
363.525	7.27
363.894	7.21
364.262	7.47
364.631	7.71
364.999	7.41
365.367	7.56
365.735	7.56
366.104	7.61
366.472	7.53
366.84	7.37
367.208	7.63
367.576	7.99
367.944	8.03
368.312	7.7
368.68	7.72
369.048	7.7
369.416	7.87
369.783	8.14
370.151	8.06
370.519	7.81
370.886	7.97
371.254	8.08
371.621	8.15
371.989	8.01
372.356	8.37
372.724	8.54
373.091	8.16
373.458	8.33
373.826	7.81
374.193	7.94
374.56	8.04
374.927	8.19
375.294	8.06
375.661	8.65
376.028	8.2
376.395	8.61
376.762	8.62
377.129	8.27
377.496	8.27
377.863	8.76
378.229	8.65
378.596	8.31
378.963	8.38
379.329	8.67
379.696	8.41
380.062	8.55
380.429	8.97
380.795	9.22
381.161	8.66
381.528	8.78
381.894	8.94
382.26	8.82
382.626	8.98
382.993	8.62
383.359	8.85
383.725	8.88
384.091	8.78
384.457	8.94
384.823	8.87
385.188	8.83
385.554	8.96
385.92	8.83
386.286	8.61
386.651	9.03
387.017	8.75
387.383	9.04
387.748	8.88
388.114	9.06
388.479	9.06
388.845	8.78
389.21	9.05
389.575	9.01
389.94	9.18
390.306	8.99
390.671	9.34
391.036	9.31
391.401	9.24
391.766	9.34
392.131	9.22
392.496	9.33
392.861	9.13
393.226	9.26
393.591	9.02
393.956	9.38
394.32	9.36
394.685	9.23
395.05	9.3
395.414	9.19
395.779	9.22
396.143	9.26
396.508	9.47
396.872	9.38
397.236	9.48
397.601	9.56
397.965	9.46
398.329	9.55
398.694	9.6
399.058	9.54
399.422	9.34
399.786	9.62
400.15	9.44
400.514	9.51
400.878	9.47
401.242	9.62
401.605	9.59
401.969	9.66
402.333	9.26
402.697	9.59
403.06	9.9
403.424	9.51
403.787	9.65
404.151	9.62
404.514	9.63
404.878	9.59
405.241	9.38
405.604	9.57
405.968	9.57
406.331	9.36
406.694	9.42
407.057	9.57
407.42	9.71
407.783	9.75
408.146	9.86
408.509	9.88
408.872	9.68
409.235	9.86
409.598	9.84
409.961	9.95
410.323	9.8
410.686	9.95
411.049	9.85
411.411	9.69
411.774	9.75
412.136	9.92
412.499	9.9
412.861	9.67
413.223	9.83
413.586	10.04
413.948	10.1
414.31	10.03
414.672	10.04
415.035	9.85
415.397	9.72
415.759	9.97
416.121	9.95
416.483	9.94
416.845	10.12
417.206	9.97
417.568	9.96
417.93	10
418.292	9.91
418.653	10.15
419.015	10.09
419.377	10.09
419.738	10.19
420.1	10.25
420.461	10.29
420.822	10.26
421.184	10.15
421.545	10.15
421.906	10.3
422.267	10.26
422.629	10.21
422.99	10.28
423.351	10.3
423.712	10.5
424.073	10.6
424.434	10.56
424.795	10.67
425.155	10.59
425.516	10.59
425.877	10.64
426.238	10.74
426.598	10.65
426.959	10.75
427.32	10.85
427.68	11.12
428.041	11.27
428.401	11.04
428.761	11.33
429.122	11.17
429.482	11.4
429.842	11.34
430.202	11.5
430.563	11.87
430.923	11.63
431.283	11.6
431.643	11.62
432.003	11.9
432.363	11.75
432.722	11.97
433.082	12
433.442	12.06
433.802	12.12
434.161	12.23
434.521	12.11
434.881	12.26
435.24	12.01
435.6	12.14
435.959	12.21
436.319	12.17
436.678	12.35
437.037	12.38
437.396	12.63
437.756	12.58
438.115	12.59
438.474	12.5
438.833	12.54
439.192	12.77
439.551	12.69
439.91	12.84
440.269	12.75
440.628	12.93
440.987	12.8
441.345	12.86
441.704	12.94
442.063	12.91
442.421	12.84
442.78	12.85
443.138	13.13
443.497	13.04
443.855	13.21
444.214	13.18
444.572	13.42
444.93	13.2
445.288	13.34
445.647	13.58
446.005	13.47
446.363	13.42
446.721	13.47
447.079	13.35
447.437	13.44
447.795	13.41
448.153	13.37
448.51	13.43
448.868	13.53
449.226	13.65
449.584	13.69
449.941	13.74
450.299	13.72
450.656	13.92
451.014	13.99
451.371	14.01
451.729	13.95
452.086	14.29
452.443	14.18
452.801	14.35
453.158	14.36
453.515	14.4
453.872	14.28
454.229	14.34
454.586	14.57
454.943	14.6
455.3	14.55
455.657	14.48
456.014	14.72
456.371	14.74
456.727	14.83
457.084	14.55
457.441	14.97
457.797	15.03
458.154	14.97
458.51	14.94
458.867	14.92
459.223	15.1
459.58	15.06
459.936	15.09
460.292	15.21
460.648	14.93
461.005	14.95
461.361	14.95
461.717	14.92
462.073	14.92
462.429	15.07
462.785	15.39
463.141	15.29
463.496	15.52
463.852	15.46
464.208	15.6
464.564	15.79
464.919	15.82
465.275	15.78
465.631	15.91
465.986	15.96
466.342	15.95
466.697	15.93
467.052	15.87
467.408	16.05
467.763	16.09
468.118	16.03
468.473	16.21
468.829	16.21
469.184	15.97
469.539	16.4
469.894	16.39
470.249	16.36
470.603	16.3
470.958	16.62
471.313	16.57
471.668	16.63
472.023	16.45
472.377	16.79
472.732	16.6
473.086	16.57
473.441	16.84
473.795	16.71
474.15	16.82
474.504	16.83
474.859	16.84
475.213	17.11
475.567	17.16
475.921	17.13
476.275	17.23
476.63	17.19
476.984	17.35
477.338	17.29
477.692	17.09
478.045	17.14
478.399	17.29
478.753	17.26
479.107	17.27
479.461	17.27
479.814	17.24
480.168	17.42
480.521	17.44
480.875	17.6
481.228	17.57
481.582	17.54
481.935	17.58
482.289	17.63
482.642	17.66
482.995	17.51
483.348	17.53
483.701	17.6
484.055	17.59
484.408	17.36
484.761	17.2
485.114	16.79
485.466	16.81
485.819	16.86
486.172	16.97
486.525	17.19
486.878	17.4
487.23	17.52
487.583	17.6
487.936	17.72
488.288	17.67
488.641	17.4
488.993	17.5
489.345	17.41
489.698	17.44
490.05	17.54
490.402	17.75
490.754	17.99
491.107	18.04
491.459	18.08
491.811	18.28
492.163	18.32
492.515	18.29
492.866	18.04
493.218	17.83
493.57	17.97
493.922	18.06
494.274	18.24
494.625	18.46
494.977	18.75
495.328	18.86
495.68	19.08
496.031	19.05
496.383	19.25
496.734	19.12
497.086	19.15
497.437	19.32
497.788	19.24
498.139	19.16
498.49	19.03
498.842	19.05
499.193	19.24
499.544	19.47
499.894	19.33
500.245	19.39
500.596	19.55
500.947	19.47
501.298	19.65
501.648	19.68
501.999	19.84
502.35	19.91
502.7	20.02
503.051	19.97
503.401	20.01
503.752	20.06
504.102	19.92
504.452	20.27
504.803	20.03
505.153	20.24
505.503	20.13
505.853	20.15
506.203	20.21
506.553	20.17
506.903	20.18
507.253	20.36
507.603	20.37
507.953	20.5
508.303	20.35
508.652	20.63
509.002	20.5
509.352	20.4
509.701	20.53
510.051	20.46
510.4	20.57
510.75	20.49
511.099	20.45
511.449	20.41
511.798	20.54
512.147	20.67
512.496	20.66
512.846	20.81
513.195	20.7
513.544	20.86
513.893	20.82
514.242	20.83
514.591	20.88
514.939	20.93
515.288	21.14
515.637	21.02
515.986	21.2
516.334	21.18
516.683	21.41
517.032	21.37
517.38	21.35
517.729	21.47
518.077	21.53
518.426	21.34
518.774	21.59
519.122	21.35
519.47	21.38
519.819	21.12
520.167	21.1
520.515	21.11
520.863	21.23
521.211	21.32
521.559	21.25
521.907	21.56
522.255	21.54
522.602	21.72
522.95	21.7
523.298	21.96
523.645	21.87
523.993	21.97
524.341	21.99
524.688	22.16
525.036	22.08
525.383	22.01
525.73	22.09
526.078	22.01
526.425	21.93
526.772	21.91
527.119	21.73
527.466	21.64
527.814	21.74
528.161	21.91
528.508	21.85
528.854	21.9
529.201	21.81
529.548	21.75
529.895	21.47
530.242	21.33
530.588	21.4
530.935	21.56
531.282	21.78
531.628	21.79
531.975	21.99
532.321	22.2
532.667	22.27
533.014	22.28
533.36	22.48
533.706	22.43
534.052	22.42
534.399	22.28
534.745	22.13
535.091	22.05
535.437	22.19
535.783	22.36
536.129	22.5
536.474	22.79
536.82	22.86
537.166	22.97
537.512	23.21
537.857	23.01
538.203	22.82
538.549	22.93
538.894	23.01
539.239	23.13
539.585	23.26
539.93	23.33
540.276	23.73
540.621	23.59
540.966	23.79
541.311	23.71
541.656	23.65
542.001	23.48
542.346	23.2
542.691	22.98
543.036	22.87
543.381	22.93
543.726	23.11
544.071	23.29
544.415	23.48
544.76	23.51
545.105	23.58
545.449	23.65
545.794	23.84
546.138	24.01
546.483	24.07
546.827	24.08
547.171	24.16
547.516	24.21
547.86	24.35
548.204	24.27
548.548	24.02
548.892	24.27
549.236	24.4
549.58	24.4
549.924	24.7
550.268	25.06
550.612	24.9
550.956	25.1
551.3	25.25
551.643	25.2
551.987	25.29
552.33	25.18
552.674	25.4
553.017	25.32
553.361	25.36
553.704	25.47
554.048	25.53
554.391	25.37
554.734	25.35
555.077	25.5
555.42	25.45
555.764	25.6
556.107	25.76
556.45	25.67
556.793	25.85
557.135	25.87
557.478	25.95
557.821	26.14
558.164	25.95
558.507	26.1
558.849	26.42
559.192	26.34
559.534	26.18
559.877	26.35
560.219	26.29
560.562	26.36
560.904	26.55
561.246	26.34
561.589	26.55
561.931	26.57
562.273	26.49
562.615	26.44
562.957	26.56
563.299	26.46
563.641	26.65
563.983	26.35
564.325	26.81
564.667	26.88
565.008	26.9
565.35	27.08
565.692	26.74
566.033	27.01
566.375	27.25
566.716	26.93
567.058	26.95
567.399	27.08
567.741	27.16
568.082	26.93
568.423	26.93
568.764	27.19
569.105	27.34
569.447	27.22
569.788	27.4
570.129	27.31
570.47	27.42
570.811	27.71
571.151	27.42
571.492	27.52
571.833	27.65
572.174	27.9
572.514	27.8
572.855	27.73
573.195	27.66
573.536	27.64
573.876	27.78
574.217	27.99
574.557	27.94
574.898	28
575.238	27.96
575.578	28.09
575.918	28.17
576.258	28.23
576.598	28.23
576.938	28.08
577.278	28.1
577.618	28.35
577.958	28.42
578.298	28.57
578.638	28.63
578.977	28.64
579.317	28.83
579.657	28.97
579.996	29.22
580.336	29.02
580.675	28.77
581.014	29.44
581.354	28.97
581.693	29.03
582.032	29.51
582.372	29.5
582.711	29.44
583.05	29.42
583.389	29.81
583.728	29.52
584.067	29.56
584.406	29.63
584.745	29.98
585.083	29.79
585.422	29.75
585.761	29.81
586.1	29.97
586.438	30.08
586.777	30.12
587.115	30.13
587.454	30.3
587.792	30.04
588.13	30.25
588.469	30.52
588.807	30.42
589.145	30.46
589.483	30.45
589.821	30.4
590.159	30.64
590.497	30.54
590.835	30.53
591.173	30.71
591.511	30.49
591.849	30.54
592.187	30.67
592.524	30.52
592.862	30.7
593.2	31.06
593.537	30.92
593.875	31.08
594.212	30.98
594.55	31.48
594.887	31.19
595.224	31.08
595.561	31.18
595.899	31.22
596.236	31.2
596.573	31.33
596.91	31.23
597.247	31.48
597.584	31.45
597.921	31.54
598.258	31.43
598.594	31.3
598.931	31.16
599.268	31.42
599.604	31.5
599.941	31.48
600.277	31.96
600.614	31.95
600.95	31.92
601.287	32.17
601.623	32.26
601.959	32.5
602.296	32.17
602.632	32.18
602.968	32.32
603.304	32.21
603.64	32.26
603.976	32.69
604.312	32.11
604.648	32.48
604.984	32.26
605.319	32.23
605.655	32.32
605.991	32.36
606.326	32.63
606.662	32.34
606.998	32.31
607.333	32.6
607.668	32.73
608.004	32.93
608.339	32.53
608.674	33.05
609.01	33.35
609.345	33.29
609.68	33.26
610.015	33.52
610.35	33.34
610.685	33.36
611.02	33.18
611.355	33.11
611.689	33.13
612.024	33.15
612.359	33.3
612.694	33.72
613.028	33.8
613.363	33.78
613.697	33.97
614.032	33.61
614.366	33.68
614.7	33.85
615.035	33.95
615.369	34.19
615.703	34.01
616.037	34.29
616.371	34.49
616.705	34.31
617.039	34.68
617.373	34.51
617.707	34.34
618.041	34.52
618.375	34.38
618.709	34.74
619.042	34.65
619.376	34.9
619.71	35.33
620.043	34.73
620.377	34.81
620.71	34.61
621.043	34.9
621.377	35.12
621.71	35.24
622.043	34.87
622.376	35.27
622.709	35.14
623.043	34.98
623.376	35.5
623.709	35.23
624.041	35.48
624.374	35.38
624.707	35.41
625.04	35.66
625.373	35.35
625.705	35.96
626.038	35.91
626.37	36.08
626.703	35.47
627.035	35.83
627.368	35.71
627.7	35.55
628.032	35.79
628.365	35.78
628.697	35.73
629.029	35.57
629.361	35.73
629.693	36.07
630.025	36
630.357	36.5
630.689	36.24
631.021	36.47
631.353	36.56
631.684	36.3
632.016	36.61
632.348	36.4
632.679	36.79
633.011	36.53
633.342	36.56
633.674	36.8
634.005	36.73
634.336	36.92
634.668	36.56
634.999	36.71
635.33	37.01
635.661	37.08
635.992	36.9
636.323	36.9
636.654	37.54
636.985	37.17
637.316	37.05
637.647	37.82
637.977	37.31
638.308	37.31
638.639	37.2
638.969	37.11
639.3	37.87
639.63	37.58
639.961	37.28
640.291	37.84
640.622	38.1
640.952	37.93
641.282	37.94
641.612	37.53
641.943	37.77
642.273	37.93
642.603	38.41
642.933	38.15
643.263	37.95
643.592	38.25
643.922	38.09
644.252	38.29
644.582	38.63
644.911	38.11
645.241	38.55
645.571	38.37
645.9	38.91
646.23	39.26
646.559	39.01
646.888	39.07
647.218	38.77
647.547	38.68
647.876	38.89
648.205	39.51
648.534	38.98
648.863	39.28
649.192	38.58
649.521	38.96
649.85	39.44
650.179	39.02
650.508	39.48
650.837	39.78
651.165	38.88
651.494	39.73
651.822	39.55
652.151	39.44
652.479	39.4
652.808	39.46
653.136	39.53
653.465	39.88
653.793	39.82
654.121	39.35
654.449	39.75
654.777	40.39
655.105	39.78
655.433	40.03
655.761	40.27
656.089	40.78
656.417	39.92
656.745	40.12
657.073	40.17
657.4	40.28
657.728	40.43
658.056	40.35
658.383	40.11
658.711	40.25
659.038	41.18
659.365	40.39
659.693	40.53
660.02	40.2
660.347	40.59
660.674	40.45
661.001	40.25
661.329	40.77
661.656	40.48
661.982	40.53
662.309	40.84
662.636	40.81
662.963	41.16
663.29	41.2
663.616	41.31
663.943	41.13
664.27	41.47
664.596	41.76
664.923	41.66
665.249	41.62
665.576	41.51
665.902	41.81
666.228	41.93
666.554	41.8
666.881	41.63
667.207	42.05
667.533	42.59
667.859	41.93
668.185	41.97
668.511	41.55
668.837	42.62
669.162	41.77
669.488	41.88
669.814	41.98
670.139	41.19
670.465	41.62
670.791	42.11
671.116	42.31
671.442	42.38
671.767	41.94
672.092	42.47
672.418	42.58
672.743	41.99
673.068	42.02
673.393	43.01
673.718	42.72
674.043	43.2
674.368	42.59
674.693	41.54
675.018	42.6
675.343	43.27
