Data from 20-8_chest_Reflection__1__106.txt Node

Date: Fri Nov 11 20:58:05 CST 2022
User: ToomeyLab
Spectrometer: FLMS14357
Trigger mode: 0
Integration Time (sec): 1.000000E-2
Scans to average: 100
Electric dark correction enabled: true
Nonlinearity correction enabled: false
Boxcar width: 0
XAxis mode: Wavelengths
Number of Pixels in Spectrum: 2048
>>>>>Begin Spectral Data<<<<<
189.047	-486.74
189.435	-486.74
189.823	-486.74
190.211	-10.93
190.599	121.89
190.987	16.48
191.375	-78.91
191.763	233.29
192.151	44.67
192.538	-72.15
192.926	-81.6
193.314	90.88
193.702	100.96
194.089	38.93
194.477	53.54
194.864	44.55
195.252	11.66
195.639	12.53
196.027	74.53
196.414	25.18
196.801	25.64
197.189	11.72
197.576	128.5
197.963	-833.25
198.351	-214
198.738	-14.66
199.125	-2.82
199.512	14.17
199.899	-80.26
200.286	56.22
200.673	-4.73
201.06	13.93
201.447	11.29
201.833	26.05
202.22	-30.74
202.607	50.91
202.994	23.95
203.38	27.82
203.767	17.71
204.154	13.1
204.54	21.75
204.927	4.97
205.313	-17.89
205.699	-89.12
206.086	36.71
206.472	-23.88
206.858	22.82
207.245	29.52
207.631	4.81
208.017	16.45
208.403	16.57
208.789	8.8
209.175	-24.24
209.561	20.71
209.947	-43.86
210.333	-40.04
210.719	22.13
211.105	28.48
211.491	5.24
211.876	32.91
212.262	-0.44
212.648	35.22
213.034	-18.13
213.419	-1.95
213.805	-33.63
214.19	3.54
214.576	-13.75
214.961	-15.88
215.346	-13.5
215.732	-5.12
216.117	9.13
216.502	6.56
216.888	-5.06
217.273	15.55
217.658	-19.9
218.043	20.33
218.428	14.71
218.813	7.06
219.198	8.23
219.583	-7.6
219.968	-18.31
220.353	-35.25
220.738	-29.42
221.122	-2.63
221.507	-50.44
221.892	-13.14
222.276	14.45
222.661	13.59
223.046	-19.39
223.43	-9.95
223.815	-7.21
224.199	6.6
224.583	-2.89
224.968	-18.51
225.352	3.71
225.736	-1.42
226.121	-11.53
226.505	-2.36
226.889	-2.39
227.273	7.38
227.657	-6.27
228.041	-0.73
228.425	-5.43
228.809	-0.57
229.193	4.24
229.577	3.8
229.961	3.02
230.344	1.59
230.728	0.12
231.112	0.86
231.495	1.51
231.879	-0.76
232.263	1.1
232.646	1.23
233.03	0.62
233.413	2.56
233.797	1.67
234.18	4.12
234.563	4.38
234.946	-1.11
235.33	1.47
235.713	0.13
236.096	0.39
236.479	1.43
236.862	2.75
237.245	-0.18
237.628	0.33
238.011	1.72
238.394	2.24
238.777	3.15
239.16	3.32
239.543	1.79
239.925	1.12
240.308	1.55
240.691	2.36
241.073	1.15
241.456	0.39
241.838	2.68
242.221	1.94
242.603	1.6
242.986	1.3
243.368	1.78
243.75	1.8
244.133	1.68
244.515	1.85
244.897	1.96
245.279	1.53
245.661	2.03
246.043	2.13
246.425	2.73
246.807	2.17
247.189	1.67
247.571	1.35
247.953	1.62
248.335	1.99
248.717	1.78
249.098	2.09
249.48	1.82
249.862	2.35
250.243	1.59
250.625	1.34
251.006	1.81
251.388	1.61
251.769	2.06
252.151	1.69
252.532	1.41
252.913	1.89
253.295	1.9
253.676	1.33
254.057	1.06
254.438	2.04
254.819	2.12
255.2	1.93
255.581	1.6
255.962	1.22
256.343	2.15
256.724	0.82
257.105	1.17
257.486	2.1
257.867	2.2
258.247	1.08
258.628	0.81
259.009	1.01
259.389	0.99
259.77	2.41
260.15	1.61
260.531	2.19
260.911	1.48
261.292	2.08
261.672	1.73
262.052	1.61
262.432	1.89
262.813	2.08
263.193	1.7
263.573	1.71
263.953	2.43
264.333	1.81
264.713	1.95
265.093	1.33
265.473	1.25
265.853	2.3
266.233	1.42
266.612	1.76
266.992	1.7
267.372	2.84
267.752	1.56
268.131	1.27
268.511	1.92
268.89	1.52
269.27	1.59
269.649	1.38
270.029	1.89
270.408	1.66
270.787	1.46
271.167	1.3
271.546	1.74
271.925	1.79
272.304	2.06
272.683	1.74
273.062	1.39
273.441	1.95
273.82	1.57
274.199	1.83
274.578	1.21
274.957	1.95
275.336	1.93
275.715	1.69
276.093	1.25
276.472	1.38
276.851	1.12
277.229	1.67
277.608	1.62
277.986	2.18
278.365	1.34
278.743	1.41
279.122	1.82
279.5	1.82
279.878	2.07
280.257	1.76
280.635	2.07
281.013	1.66
281.391	1.24
281.769	1.39
282.147	1.65
282.525	0.56
282.903	1.41
283.281	1.36
283.659	1.99
284.037	1.45
284.415	1.38
284.792	1.92
285.17	1.96
285.548	1.6
285.925	1.43
286.303	1.59
286.68	2.05
287.058	2.07
287.435	1.86
287.813	1.92
288.19	1.73
288.567	1.79
288.945	1.54
289.322	2.25
289.699	1.43
290.076	1.87
290.453	1.47
290.83	1.66
291.207	1.84
291.584	1.79
291.961	1.86
292.338	1.58
292.715	1.81
293.092	2.17
293.469	2.18
293.845	2.11
294.222	1.87
294.599	2.22
294.975	2.08
295.352	2.16
295.728	1.5
296.105	1.83
296.481	1.69
296.858	1.82
297.234	1.8
297.61	1.38
297.986	1.89
298.363	2.21
298.739	2.25
299.115	2.08
299.491	2.54
299.867	2.14
300.243	1.82
300.619	1.99
300.995	2.16
301.371	2.54
301.746	2.02
302.122	2.09
302.498	2.53
302.874	2.7
303.249	2.38
303.625	2.09
304	1.7
304.376	1.97
304.751	2.03
305.127	2.23
305.502	2.46
305.878	2.38
306.253	2.1
306.628	2.18
307.003	2.4
307.378	2.52
307.754	2.95
308.129	2.15
308.504	2.68
308.879	2.29
309.254	2.47
309.629	2.04
310.003	2.41
310.378	2.55
310.753	2.82
311.128	2.64
311.502	2.41
311.877	2.49
312.252	2.31
312.626	2.04
313.001	2.28
313.375	2.59
313.75	2.45
314.124	2.08
314.498	2.59
314.873	2
315.247	2.66
315.621	2.98
315.995	2.81
316.369	2.5
316.743	2.57
317.117	2.62
317.491	2.43
317.865	2.35
318.239	2.29
318.613	2.84
318.987	1.91
319.361	2.31
319.734	3.31
320.108	2.84
320.482	3.01
320.855	2.02
321.229	2.34
321.602	2.42
321.976	2.54
322.349	2.59
322.723	2.91
323.096	2.42
323.469	2.52
323.843	2.96
324.216	2.42
324.589	2.42
324.962	3.14
325.335	2.22
325.708	2.62
326.081	2.71
326.454	2.55
326.827	2.16
327.2	3.29
327.573	3.98
327.945	2.51
328.318	2.26
328.691	2.87
329.063	2.97
329.436	2.67
329.809	2.51
330.181	2.2
330.553	2.12
330.926	2.84
331.298	2.91
331.671	2.81
332.043	2.19
332.415	2.44
332.787	2.88
333.159	2.49
333.532	2.73
333.904	3.13
334.276	2.36
334.648	2.61
335.02	3
335.391	3.06
335.763	2.39
336.135	2.5
336.507	2.64
336.879	2.97
337.25	2.26
337.622	2.68
337.993	2.87
338.365	3
338.736	2.99
339.108	2.69
339.479	2.48
339.851	2.87
340.222	2.69
340.593	3.11
340.964	2.88
341.336	3.05
341.707	2.63
342.078	2.45
342.449	2.66
342.82	3.03
343.191	3.05
343.562	2.55
343.933	2.75
344.303	2.78
344.674	2.54
345.045	2.98
345.416	2.9
345.786	2.76
346.157	2.72
346.527	2.92
346.898	2.43
347.268	2.56
347.639	2.5
348.009	2.57
348.38	2.88
348.75	2.85
349.12	3.44
349.49	2.97
349.861	2.81
350.231	3.05
350.601	2.65
350.971	2.62
351.341	3.12
351.711	3.02
352.081	3.1
352.45	2.83
352.82	2.95
353.19	3.13
353.56	2.77
353.929	3.11
354.299	2.66
354.669	2.98
355.038	2.44
355.408	2.87
355.777	3.34
356.147	2.82
356.516	2.65
356.885	2.72
357.254	2.67
357.624	2.77
357.993	2.93
358.362	3.15
358.731	2.72
359.1	2.95
359.469	2.43
359.838	2.87
360.207	3.04
360.576	2.93
360.945	3.01
361.314	2.64
361.682	2.96
362.051	2.79
362.42	3.18
362.788	2.92
363.157	2.84
363.525	2.76
363.894	2.84
364.262	2.86
364.631	3.12
364.999	3.08
365.367	2.92
365.735	2.93
366.104	2.78
366.472	2.91
366.84	2.79
367.208	2.85
367.576	3.27
367.944	3.1
368.312	2.83
368.68	2.88
369.048	2.93
369.416	2.82
369.783	2.96
370.151	2.92
370.519	2.91
370.886	2.86
371.254	3.06
371.621	2.75
371.989	3.12
372.356	3.04
372.724	3.27
373.091	3.1
373.458	2.9
373.826	2.72
374.193	3.01
374.56	2.91
374.927	2.95
375.294	3.2
375.661	3.13
376.028	2.65
376.395	3.25
376.762	2.91
377.129	2.73
377.496	3.23
377.863	3.03
378.229	2.79
378.596	2.88
378.963	3.11
379.329	3.24
379.696	2.9
380.062	3.23
380.429	2.84
380.795	3.39
381.161	3.13
381.528	2.91
381.894	3.07
382.26	3.26
382.626	3.11
382.993	2.9
383.359	3.08
383.725	2.98
384.091	3.01
384.457	3
384.823	2.99
385.188	3.22
385.554	2.99
385.92	2.83
386.286	2.93
386.651	3.2
387.017	3.14
387.383	3.16
387.748	2.89
388.114	3
388.479	2.93
388.845	3.14
389.21	2.85
389.575	3.26
389.94	2.88
390.306	2.89
390.671	3.21
391.036	2.97
391.401	3.1
391.766	3.01
392.131	2.96
392.496	3.28
392.861	3.22
393.226	3.01
393.591	2.99
393.956	3.13
394.32	3.33
394.685	3.05
395.05	3.26
395.414	2.93
395.779	3.09
396.143	3.28
396.508	3.21
396.872	3.27
397.236	3.11
397.601	3.1
397.965	3.22
398.329	3.13
398.694	3.08
399.058	3.09
399.422	3.16
399.786	3.03
400.15	3.34
400.514	3.16
400.878	2.94
401.242	3.23
401.605	3.23
401.969	3.23
402.333	2.82
402.697	3.38
403.06	3.23
403.424	3.02
403.787	3.21
404.151	3.06
404.514	3.13
404.878	3.13
405.241	3.05
405.604	2.96
405.968	3.29
406.331	2.93
406.694	3.11
407.057	3.15
407.42	3.23
407.783	3.24
408.146	3.03
408.509	3.25
408.872	2.96
409.235	3.19
409.598	3.21
409.961	3.26
410.323	2.98
410.686	3.42
411.049	3.04
411.411	3.04
411.774	3.13
412.136	3.11
412.499	3.17
412.861	3.1
413.223	3.01
413.586	3.17
413.948	3.28
414.31	3.41
414.672	3.2
415.035	3.28
415.397	3.28
415.759	3.03
416.121	3.12
416.483	2.96
416.845	3.22
417.206	3.04
417.568	3.12
417.93	3.14
418.292	3.21
418.653	3.32
419.015	3.25
419.377	3.28
419.738	3.21
420.1	3.12
420.461	3.15
420.822	3.27
421.184	3.23
421.545	3.25
421.906	3.23
422.267	3.15
422.629	3.05
422.99	3.16
423.351	3.19
423.712	3.21
424.073	3.25
424.434	3.18
424.795	3.37
425.155	3.15
425.516	3.32
425.877	3.23
426.238	3.22
426.598	3.18
426.959	3.19
427.32	3.29
427.68	3.24
428.041	3.4
428.401	3.12
428.761	3.41
429.122	3.21
429.482	3.3
429.842	3.23
430.202	3.48
430.563	3.5
430.923	3.34
431.283	3.24
431.643	3.2
432.003	3.47
432.363	3.21
432.722	3.37
433.082	3.45
433.442	3.34
433.802	3.42
434.161	3.37
434.521	3.31
434.881	3.5
435.24	3.39
435.6	3.43
435.959	3.37
436.319	3.34
436.678	3.5
437.037	3.41
437.396	3.54
437.756	3.33
438.115	3.51
438.474	3.31
438.833	3.5
439.192	3.36
439.551	3.32
439.91	3.45
440.269	3.38
440.628	3.47
440.987	3.49
441.345	3.46
441.704	3.48
442.063	3.42
442.421	3.37
442.78	3.33
443.138	3.48
443.497	3.39
443.855	3.4
444.214	3.34
444.572	3.4
444.93	3.47
445.288	3.4
445.647	3.59
446.005	3.61
446.363	3.5
446.721	3.4
447.079	3.52
447.437	3.39
447.795	3.49
448.153	3.33
448.51	3.4
448.868	3.5
449.226	3.44
449.584	3.47
449.941	3.43
450.299	3.38
450.656	3.58
451.014	3.54
451.371	3.53
451.729	3.41
452.086	3.53
452.443	3.51
452.801	3.65
453.158	3.5
453.515	3.62
453.872	3.56
454.229	3.51
454.586	3.49
454.943	3.61
455.3	3.5
455.657	3.74
456.014	3.69
456.371	3.63
456.727	3.71
457.084	3.54
457.441	3.76
457.797	3.63
458.154	3.65
458.51	3.66
458.867	3.56
459.223	3.71
459.58	3.64
459.936	3.56
460.292	3.61
460.648	3.49
461.005	3.56
461.361	3.54
461.717	3.48
462.073	3.62
462.429	3.53
462.785	3.55
463.141	3.61
463.496	3.68
463.852	3.72
464.208	3.63
464.564	3.66
464.919	3.74
465.275	3.72
465.631	3.78
465.986	3.93
466.342	3.77
466.697	3.69
467.052	3.8
467.408	3.82
467.763	3.57
468.118	3.71
468.473	3.83
468.829	3.74
469.184	3.74
469.539	3.65
469.894	3.82
470.249	3.82
470.603	3.75
470.958	3.71
471.313	3.8
471.668	3.91
472.023	3.59
472.377	3.77
472.732	3.72
473.086	3.67
473.441	3.72
473.795	3.83
474.15	3.85
474.504	3.89
474.859	3.72
475.213	3.93
475.567	3.78
475.921	4.04
476.275	3.8
476.63	3.83
476.984	3.86
477.338	3.92
477.692	3.74
478.045	3.72
478.399	3.79
478.753	3.82
479.107	3.97
479.461	3.81
479.814	3.76
480.168	3.74
480.521	3.89
480.875	3.94
481.228	3.86
481.582	3.9
481.935	3.85
482.289	3.77
482.642	3.97
482.995	3.88
483.348	3.8
483.701	3.9
484.055	3.78
484.408	3.78
484.761	3.72
485.114	3.59
485.466	3.59
485.819	3.58
486.172	3.62
486.525	3.69
486.878	3.75
487.23	3.72
487.583	3.77
487.936	3.83
488.288	3.81
488.641	3.72
488.993	3.78
489.345	3.65
489.698	3.72
490.05	3.75
490.402	3.76
490.754	3.83
491.107	3.78
491.459	3.86
491.811	3.91
492.163	3.98
492.515	3.91
492.866	3.88
493.218	3.79
493.57	3.82
493.922	3.82
494.274	3.89
494.625	3.9
494.977	3.96
495.328	3.92
495.68	4.01
496.031	3.95
496.383	3.98
496.734	4.05
497.086	4.06
497.437	4.01
497.788	3.96
498.139	4.12
498.49	4.03
498.842	4
499.193	4.05
499.544	4.07
499.894	4.06
500.245	4.13
500.596	4.11
500.947	4.11
501.298	4.11
501.648	4.13
501.999	4.17
502.35	4.17
502.7	4.19
503.051	4.09
503.401	4.14
503.752	4.14
504.102	4.16
504.452	4.27
504.803	4.11
505.153	4.21
505.503	4.19
505.853	4.31
506.203	4.22
506.553	4.13
506.903	4.16
507.253	4.22
507.603	4.3
507.953	4.21
508.303	4.17
508.652	4.29
509.002	4.37
509.352	4.21
509.701	4.26
510.051	4.12
510.4	4.31
510.75	4.14
511.099	4.17
511.449	4.3
511.798	4.19
512.147	4.19
512.496	4.21
512.846	4.38
513.195	4.39
513.544	4.29
513.893	4.28
514.242	4.32
514.591	4.31
514.939	4.34
515.288	4.35
515.637	4.39
515.986	4.39
516.334	4.34
516.683	4.33
517.032	4.6
517.38	4.41
517.729	4.46
518.077	4.46
518.426	4.55
518.774	4.48
519.122	4.53
519.47	4.39
519.819	4.33
520.167	4.33
520.515	4.41
520.863	4.38
521.211	4.43
521.559	4.44
521.907	4.43
522.255	4.35
522.602	4.58
522.95	4.43
523.298	4.51
523.645	4.51
523.993	4.51
524.341	4.67
524.688	4.69
525.036	4.52
525.383	4.55
525.73	4.66
526.078	4.62
526.425	4.58
526.772	4.57
527.119	4.46
527.466	4.57
527.814	4.6
528.161	4.62
528.508	4.57
528.854	4.56
529.201	4.53
529.548	4.49
529.895	4.43
530.242	4.39
530.588	4.47
530.935	4.47
531.282	4.54
531.628	4.55
531.975	4.61
532.321	4.56
532.667	4.68
533.014	4.64
533.36	4.74
533.706	4.75
534.052	4.79
534.399	4.66
534.745	4.63
535.091	4.64
535.437	4.6
535.783	4.66
536.129	4.75
536.474	4.79
536.82	4.81
537.166	4.78
537.512	4.8
537.857	4.81
538.203	4.86
538.549	4.85
538.894	4.8
539.239	4.87
539.585	4.85
539.93	4.93
540.276	5.18
540.621	4.99
540.966	5.1
541.311	5
541.656	5.05
542.001	4.98
542.346	4.96
542.691	4.81
543.036	4.8
543.381	4.89
543.726	4.87
544.071	4.96
544.415	5.01
544.76	5
545.105	4.93
545.449	4.96
545.794	5.09
546.138	5.11
546.483	5.08
546.827	5.2
547.171	5.25
547.516	5.03
547.86	5.18
548.204	5.23
548.548	5.13
548.892	5.21
549.236	5.14
549.58	5.24
549.924	5.3
550.268	5.32
550.612	5.41
550.956	5.58
551.3	5.3
551.643	5.33
551.987	5.38
552.33	5.5
552.674	5.33
553.017	5.59
553.361	5.51
553.704	5.43
554.048	5.46
554.391	5.55
554.734	5.53
555.077	5.65
555.42	5.6
555.764	5.51
556.107	5.72
556.45	5.7
556.793	5.63
557.135	5.78
557.478	5.72
557.821	5.73
558.164	5.68
558.507	5.84
558.849	5.65
559.192	5.73
559.534	5.87
559.877	5.99
560.219	5.88
560.562	5.63
560.904	6.02
561.246	5.72
561.589	5.83
561.931	5.68
562.273	6.07
562.615	5.81
562.957	5.93
563.299	5.96
563.641	5.76
563.983	5.84
564.325	5.94
564.667	6.09
565.008	6.12
565.35	6.14
565.692	6
566.033	5.92
566.375	6.16
566.716	6.11
567.058	6.05
567.399	6.16
567.741	6.12
568.082	6.17
568.423	6.15
568.764	6.32
569.105	6.14
569.447	6.26
569.788	6.15
570.129	6.11
570.47	6.32
570.811	6.46
571.151	6.55
571.492	6.48
571.833	6.37
572.174	6.4
572.514	6.47
572.855	6.5
573.195	6.27
573.536	6.37
573.876	6.34
574.217	6.63
574.557	6.44
574.898	6.52
575.238	6.43
575.578	6.5
575.918	6.58
576.258	6.69
576.598	6.69
576.938	6.52
577.278	6.56
577.618	6.49
577.958	6.63
578.298	6.83
578.638	6.76
578.977	6.75
579.317	6.76
579.657	6.72
579.996	6.49
580.336	6.58
580.675	6.89
581.014	7.09
581.354	6.95
581.693	6.82
582.032	6.95
582.372	7.08
582.711	7.08
583.05	6.82
583.389	6.94
583.728	6.98
584.067	7.07
584.406	6.92
584.745	7.36
585.083	7.2
585.422	7.12
585.761	7.36
586.1	7
586.438	7.14
586.777	7.08
587.115	7.23
587.454	7.13
587.792	7.32
588.13	7.24
588.469	7.18
588.807	7.41
589.145	7.47
589.483	7.62
589.821	7.39
590.159	7.46
590.497	7.63
590.835	7.35
591.173	7.5
591.511	7.37
591.849	7.45
592.187	7.52
592.524	7.32
592.862	7.24
593.2	7.69
593.537	7.67
593.875	7.91
594.212	7.64
594.55	7.79
594.887	7.69
595.224	7.62
595.561	7.52
595.899	7.56
596.236	7.51
596.573	7.93
596.91	7.79
597.247	7.78
597.584	7.74
597.921	8.14
598.258	7.78
598.594	7.81
598.931	7.77
599.268	7.85
599.604	8.06
599.941	7.97
600.277	8.1
600.614	8.24
600.95	7.56
601.287	8.19
601.623	8.45
601.959	8.33
602.296	8.05
602.632	8.25
602.968	8.28
603.304	8.17
603.64	8.38
603.976	8.54
604.312	8.29
604.648	8.28
604.984	8.47
605.319	8.35
605.655	8.29
605.991	8.28
606.326	8.61
606.662	8.34
606.998	8.19
607.333	8.5
607.668	8.45
608.004	8.55
608.339	8.62
608.674	8.63
609.01	8.53
609.345	8.71
609.68	8.35
610.015	8.95
610.35	8.76
610.685	8.71
611.02	8.78
611.355	8.74
611.689	8.68
612.024	8.83
612.359	8.71
612.694	8.87
613.028	9.02
613.363	8.97
613.697	9.13
614.032	9.2
614.366	8.82
614.7	8.95
615.035	8.89
615.369	9.12
615.703	8.96
616.037	9.37
616.371	9.01
616.705	9.13
617.039	9.58
617.373	9.05
617.707	9.3
618.041	9.39
618.375	9.14
618.709	9.39
619.042	9.28
619.376	9.6
619.71	9.48
620.043	9.36
620.377	9.57
620.71	9.46
621.043	9.46
621.377	9.61
621.71	9.34
622.043	9.41
622.376	9.77
622.709	9.26
623.043	9.5
623.376	9.68
623.709	9.86
624.041	9.81
624.374	9.37
624.707	9.83
625.04	9.76
625.373	9.44
625.705	9.67
626.038	10.08
626.37	9.97
626.703	9.68
627.035	9.84
627.368	9.79
627.7	10.16
628.032	9.9
628.365	10
628.697	9.85
629.029	10
629.361	9.83
629.693	9.81
630.025	9.84
630.357	10.09
630.689	10.06
631.021	10.1
631.353	10.32
631.684	10.03
632.016	10.2
632.348	10.06
632.679	10.2
633.011	10.29
633.342	10.35
633.674	10.04
634.005	9.92
634.336	10.23
634.668	10.47
634.999	10.25
635.33	10.37
635.661	10.47
635.992	10.4
636.323	10.35
636.654	10.72
636.985	10.4
637.316	10.5
637.647	11.16
637.977	10.77
638.308	10.68
638.639	10.61
638.969	10.28
639.3	10.86
639.63	11.33
639.961	10.77
640.291	11.09
640.622	11.18
640.952	10.78
641.282	10.7
641.612	10.77
641.943	11.23
642.273	10.79
642.603	11.06
642.933	11.23
643.263	11.03
643.592	11.39
643.922	11.5
644.252	11.36
644.582	11.53
644.911	10.93
645.241	11.28
645.571	11.5
645.9	11.52
646.23	11.12
646.559	11.33
646.888	11.43
647.218	11.4
647.547	11.35
647.876	11.3
648.205	11.46
648.534	11.5
648.863	11.53
649.192	11.6
649.521	11.29
649.85	11.73
650.179	11.32
650.508	11.55
650.837	11.6
651.165	11.33
651.494	11.61
651.822	11.33
652.151	11.6
652.479	11.39
652.808	11.4
653.136	11.58
653.465	11.83
653.793	12.26
654.121	12
654.449	11.6
654.777	12.43
655.105	11.81
655.433	12.13
655.761	12.01
656.089	12.27
656.417	11.44
656.745	11.66
657.073	11.92
657.4	11.88
657.728	12.17
658.056	12.53
658.383	12.08
658.711	12.05
659.038	12.47
659.365	11.65
659.693	12.23
660.02	12.65
660.347	12.29
660.674	12.47
661.001	12.47
661.329	12.18
661.656	12.55
661.982	12.3
662.309	12.31
662.636	12.87
662.963	12
663.29	12.51
663.616	12.15
663.943	12.76
664.27	12.85
664.596	12.93
664.923	13.02
665.249	12.4
665.576	12.61
665.902	12.82
666.228	12.81
666.554	12.5
666.881	12.4
667.207	13.33
667.533	13.47
667.859	12.99
668.185	12.82
668.511	12.44
668.837	13.31
669.162	13.4
669.488	13.06
669.814	12.45
670.139	13.07
670.465	13.36
670.791	12.75
671.116	13.57
671.442	13.85
671.767	13.75
672.092	13.17
672.418	13.06
672.743	12.86
673.068	13.35
673.393	13.47
673.718	12.74
674.043	13.79
674.368	13.27
674.693	12.68
675.018	12.96
675.343	13.58
675.667	13.88
675.992	14.29
676.317	13.6
676.641	13.34
676.966	13.81
677.29	13.6
677.615	13.81
677.939	13.94
678.264	13.63
678.588	13.59
678.912	13.7
679.236	13.76
679.56	13.72
679.885	13.32
680.209	13.87
680.532	14.4
680.856	14.38
681.18	13.74
681.504	13.88
681.828	13.71
682.152	13.52
682.475	14.14
682.799	13.78
683.122	13.64
683.446	14.25
683.769	13.91
684.093	14.33
684.416	14.22
684.739	14.58
685.062	13.91
685.386	14.97
685.709	14.38
686.032	13.95
686.355	14.53
686.678	14.88
687.001	14.2
687.324	14.24
687.646	14.07
687.969	14.72
688.292	14.93
