Data from 20-8_chest_Reflection__4__109.txt Node

Date: Fri Nov 11 20:58:52 CST 2022
User: ToomeyLab
Spectrometer: FLMS14357
Trigger mode: 0
Integration Time (sec): 1.000000E-2
Scans to average: 100
Electric dark correction enabled: true
Nonlinearity correction enabled: false
Boxcar width: 0
XAxis mode: Wavelengths
Number of Pixels in Spectrum: 2048
>>>>>Begin Spectral Data<<<<<
189.047	-63.04
189.435	-63.04
189.823	-63.04
190.211	-53.78
190.599	95.2
190.987	85.83
191.375	-25.61
191.763	328.86
192.151	76.07
192.538	295.65
192.926	7.01
193.314	86.04
193.702	-100.35
194.089	86.13
194.477	53.28
194.864	98.76
195.252	-12.61
195.639	3.91
196.027	-3.86
196.414	46.61
196.801	210.51
197.189	79.41
197.576	103.41
197.963	-40.72
198.351	-223.08
198.738	-0.35
199.125	36.46
199.512	31.11
199.899	-63.76
200.286	-15.22
200.673	-1.9
201.06	31.08
201.447	20.27
201.833	30.46
202.22	25.53
202.607	46.74
202.994	29.65
203.38	19.96
203.767	2.97
204.154	41.39
204.54	11.39
204.927	7.53
205.313	30.22
205.699	-24.38
206.086	33.57
206.472	36.71
206.858	22.55
207.245	34.38
207.631	-2.86
208.017	4.72
208.403	25.99
208.789	10.64
209.175	3.47
209.561	39.61
209.947	37.01
210.333	5.25
210.719	33.8
211.105	54.54
211.491	-0.99
211.876	31.81
212.262	35.56
212.648	-24.69
213.034	2.57
213.419	10.18
213.805	-17.25
214.19	-10.81
214.576	-23.83
214.961	-33.35
215.346	5.88
215.732	-1.09
216.117	41.92
216.502	-2.25
216.888	6.4
217.273	18.74
217.658	31.65
218.043	-6.42
218.428	-14.85
218.813	0.61
219.198	17.02
219.583	5.99
219.968	3.82
220.353	-24
220.738	-19.35
221.122	-6.9
221.507	-9.71
221.892	-13.84
222.276	6.92
222.661	16.2
223.046	-4.49
223.43	2.8
223.815	6.23
224.199	10.32
224.583	-8.46
224.968	-10.56
225.352	1.55
225.736	1.86
226.121	6.8
226.505	0.9
226.889	-0.77
227.273	4.3
227.657	-5.11
228.041	4.49
228.425	3.88
228.809	4.97
229.193	8.63
229.577	7.33
229.961	6.01
230.344	7.11
230.728	5.41
231.112	4.68
231.495	6.2
231.879	5.85
232.263	4.54
232.646	4.97
233.03	5.48
233.413	5.77
233.797	6.11
234.18	4.23
234.563	4.86
234.946	4
235.33	6.4
235.713	4.37
236.096	4.32
236.479	4.55
236.862	8.05
237.245	6.32
237.628	6.37
238.011	6.86
238.394	6.25
238.777	6.93
239.16	6.77
239.543	4.7
239.925	4.55
240.308	4.03
240.691	7.37
241.073	5.09
241.456	5.13
241.838	5.62
242.221	5.41
242.603	5.28
242.986	4.85
243.368	5.78
243.75	5.36
244.133	5.57
244.515	5.21
244.897	5.6
245.279	4.7
245.661	5.08
246.043	5.97
246.425	4.47
246.807	5.32
247.189	4.85
247.571	5.15
247.953	5.14
248.335	5.25
248.717	5.31
249.098	5.33
249.48	4.93
249.862	5.53
250.243	5.22
250.625	5.36
251.006	6.25
251.388	5.36
251.769	4.44
252.151	5.88
252.532	4.85
252.913	4.94
253.295	5.44
253.676	4.53
254.057	4.74
254.438	5.36
254.819	4.16
255.2	5.4
255.581	4.23
255.962	4.41
256.343	4.27
256.724	3.65
257.105	4.54
257.486	4.69
257.867	5.79
258.247	2.88
258.628	4.8
259.009	4.62
259.389	4.9
259.77	4.95
260.15	4.61
260.531	4.92
260.911	4.77
261.292	4.78
261.672	4.52
262.052	4.65
262.432	4.66
262.813	5.02
263.193	5.26
263.573	4.56
263.953	4.76
264.333	4.26
264.713	5.28
265.093	4.66
265.473	4.8
265.853	4.62
266.233	4.96
266.612	4.93
266.992	3.86
267.372	5.31
267.752	4.85
268.131	4.44
268.511	4.67
268.89	4.61
269.27	4.37
269.649	4.45
270.029	4.84
270.408	4.65
270.787	4.68
271.167	3.67
271.546	4.64
271.925	4.72
272.304	4.89
272.683	4.48
273.062	4.18
273.441	4.28
273.82	4.4
274.199	4.06
274.578	4.27
274.957	4.75
275.336	5.02
275.715	4.89
276.093	4.01
276.472	4.28
276.851	4.54
277.229	4.31
277.608	4.65
277.986	4.89
278.365	4.44
278.743	4.18
279.122	4.69
279.5	4.28
279.878	4.73
280.257	5.31
280.635	4.68
281.013	4.49
281.391	4.72
281.769	4.6
282.147	4.56
282.525	4.01
282.903	3.85
283.281	4.41
283.659	4.89
284.037	4.58
284.415	4.1
284.792	4.73
285.17	4.55
285.548	4.05
285.925	4.27
286.303	3.89
286.68	4.75
287.058	4.56
287.435	4.49
287.813	4.38
288.19	4.12
288.567	4.27
288.945	4.28
289.322	4.66
289.699	3.86
290.076	4.76
290.453	4.37
290.83	4.33
291.207	4.44
291.584	4.86
291.961	4.48
292.338	4.47
292.715	4.64
293.092	4.75
293.469	3.95
293.845	4.56
294.222	4.1
294.599	4.92
294.975	4.48
295.352	4.19
295.728	4.42
296.105	4.43
296.481	4.2
296.858	4.09
297.234	4.98
297.61	4.07
297.986	4.55
298.363	4.4
298.739	4.54
299.115	4.58
299.491	4.5
299.867	4.18
300.243	4.7
300.619	4.49
300.995	4.08
301.371	4.81
301.746	4.8
302.122	4.79
302.498	4.61
302.874	4.38
303.249	4.45
303.625	4.43
304	4.53
304.376	4.87
304.751	4.31
305.127	4.44
305.502	4.5
305.878	4.89
306.253	4.08
306.628	4.55
307.003	4.39
307.378	4.15
307.754	4.46
308.129	4.87
308.504	4.52
308.879	4.47
309.254	4.15
309.629	4.11
310.003	4.41
310.378	4.51
310.753	4.58
311.128	4.87
311.502	4.34
311.877	4.56
312.252	4.39
312.626	4.18
313.001	4.5
313.375	4.3
313.75	4.45
314.124	3.89
314.498	4.16
314.873	3.94
315.247	4.42
315.621	4.89
315.995	4.89
316.369	4.31
316.743	4.31
317.117	4.96
317.491	4.16
317.865	4.09
318.239	4.76
318.613	5.11
318.987	4.54
319.361	4.23
319.734	5.04
320.108	4.16
320.482	5.06
320.855	4.35
321.229	4.2
321.602	4.24
321.976	4.31
322.349	4.04
322.723	4.76
323.096	4.76
323.469	4.48
323.843	4.99
324.216	4.25
324.589	4.62
324.962	5.06
325.335	4.24
325.708	4.59
326.081	4.72
326.454	4.22
326.827	4.47
327.2	4.86
327.573	5.39
327.945	4.45
328.318	4.4
328.691	4.91
329.063	4.41
329.436	4.64
329.809	4.56
330.181	3.67
330.553	4.03
330.926	3.92
331.298	4.88
331.671	4.46
332.043	4
332.415	4.75
332.787	4.67
333.159	4.29
333.532	4.57
333.904	4.35
334.276	4.23
334.648	4.45
335.02	4.5
335.391	4.95
335.763	4.64
336.135	4.17
336.507	4.36
336.879	4.73
337.25	4.73
337.622	4.38
337.993	4.39
338.365	4.57
338.736	4.25
339.108	4.49
339.479	4.51
339.851	4.68
340.222	4.57
340.593	5.2
340.964	4.73
341.336	4.64
341.707	4.29
342.078	3.88
342.449	4.73
342.82	4.54
343.191	4.57
343.562	4.57
343.933	4.5
344.303	4.13
344.674	4.84
345.045	4.62
345.416	4.91
345.786	4.29
346.157	4.35
346.527	4.66
346.898	4.24
347.268	4.29
347.639	4.58
348.009	4.52
348.38	4.69
348.75	4.79
349.12	5.28
349.49	5.16
349.861	4.19
350.231	4.79
350.601	4.55
350.971	4.59
351.341	4.77
351.711	4.6
352.081	4.88
352.45	4.77
352.82	4.4
353.19	4.58
353.56	4.47
353.929	4.36
354.299	4.25
354.669	4.75
355.038	4.03
355.408	4.57
355.777	4.67
356.147	4.76
356.516	4.41
356.885	4.5
357.254	4.48
357.624	4.03
357.993	4.41
358.362	4.74
358.731	4.47
359.1	4.41
359.469	4.11
359.838	4.29
360.207	4.58
360.576	4.58
360.945	4.54
361.314	4.37
361.682	4.64
362.051	4.63
362.42	4.74
362.788	4.72
363.157	4.5
363.525	4.44
363.894	4.17
364.262	4.67
364.631	4.55
364.999	4.41
365.367	4.69
365.735	4.21
366.104	4.28
366.472	4.42
366.84	4.18
367.208	4.34
367.576	4.65
367.944	4.8
368.312	4.47
368.68	4.65
369.048	4.5
369.416	4.65
369.783	4.96
370.151	4.57
370.519	4.64
370.886	4.26
371.254	4.9
371.621	4.65
371.989	4.41
372.356	4.95
372.724	5
373.091	4.43
373.458	4.62
373.826	4.47
374.193	4.52
374.56	4.42
374.927	4.44
375.294	4.8
375.661	4.88
376.028	4.32
376.395	4.76
376.762	4.74
377.129	4.69
377.496	4.59
377.863	4.94
378.229	4.82
378.596	4.61
378.963	4.72
379.329	4.82
379.696	4.64
380.062	4.69
380.429	4.7
380.795	4.91
381.161	4.71
381.528	4.81
381.894	5.09
382.26	4.73
382.626	4.71
382.993	4.63
383.359	4.71
383.725	4.68
384.091	4.75
384.457	4.76
384.823	4.66
385.188	4.86
385.554	4.57
385.92	4.69
386.286	4.86
386.651	4.84
387.017	4.64
387.383	4.77
387.748	4.74
388.114	4.68
388.479	4.58
388.845	4.63
389.21	4.55
389.575	4.84
389.94	4.7
390.306	4.7
390.671	4.83
391.036	4.61
391.401	4.93
391.766	4.84
392.131	4.62
392.496	4.69
392.861	4.51
393.226	4.67
393.591	4.68
393.956	4.86
394.32	4.76
394.685	4.73
395.05	5.01
395.414	4.56
395.779	4.74
396.143	4.68
396.508	4.91
396.872	4.72
397.236	4.72
397.601	4.69
397.965	4.87
398.329	4.63
398.694	4.87
399.058	4.89
399.422	4.86
399.786	4.59
400.15	4.82
400.514	4.76
400.878	4.75
401.242	4.74
401.605	4.78
401.969	4.81
402.333	4.54
402.697	4.96
403.06	4.95
403.424	4.6
403.787	4.94
404.151	4.99
404.514	4.82
404.878	4.79
405.241	4.66
405.604	4.64
405.968	4.75
406.331	4.57
406.694	4.58
407.057	4.98
407.42	4.93
407.783	4.94
408.146	4.89
408.509	4.69
408.872	4.87
409.235	4.78
409.598	4.98
409.961	4.86
410.323	4.83
410.686	4.97
411.049	4.74
411.411	4.8
411.774	4.71
412.136	4.71
412.499	4.93
412.861	4.91
413.223	4.52
413.586	4.77
413.948	5.02
414.31	4.88
414.672	5.02
415.035	4.64
415.397	4.77
415.759	4.74
416.121	4.92
416.483	4.64
416.845	4.72
417.206	4.71
417.568	4.66
417.93	4.86
418.292	4.68
418.653	4.83
419.015	4.73
419.377	4.7
419.738	4.83
420.1	4.78
420.461	4.82
420.822	4.72
421.184	4.77
421.545	4.74
421.906	4.82
422.267	4.6
422.629	4.64
422.99	4.7
423.351	4.72
423.712	4.64
424.073	4.82
424.434	4.72
424.795	4.83
425.155	4.69
425.516	4.82
425.877	4.78
426.238	4.75
426.598	4.61
426.959	4.65
427.32	4.83
427.68	4.89
428.041	4.86
428.401	4.65
428.761	4.92
429.122	4.81
429.482	4.82
429.842	4.88
430.202	4.91
430.563	4.88
430.923	4.84
431.283	4.71
431.643	4.94
432.003	4.97
432.363	5
432.722	4.92
433.082	4.91
433.442	4.98
433.802	4.9
434.161	4.83
434.521	4.97
434.881	4.98
435.24	4.77
435.6	4.85
435.959	4.84
436.319	4.78
436.678	5.01
437.037	4.93
437.396	5.03
437.756	4.94
438.115	4.8
438.474	4.85
438.833	5.02
439.192	4.91
439.551	4.92
439.91	4.96
440.269	4.82
440.628	4.99
440.987	4.83
441.345	4.76
441.704	4.88
442.063	4.84
442.421	4.91
442.78	4.74
443.138	4.9
443.497	4.87
443.855	4.89
444.214	4.9
444.572	5.05
444.93	4.99
445.288	4.96
445.647	5
446.005	4.96
446.363	4.95
446.721	5.02
447.079	4.96
447.437	4.81
447.795	4.87
448.153	4.79
448.51	4.9
448.868	4.81
449.226	4.89
449.584	4.92
449.941	4.84
450.299	4.85
450.656	4.9
451.014	4.93
451.371	5.07
451.729	4.84
452.086	4.96
452.443	4.86
452.801	5.11
453.158	4.82
453.515	4.87
453.872	4.9
454.229	4.95
454.586	4.97
454.943	5.04
455.3	5.01
455.657	5.02
456.014	5.07
456.371	5.02
456.727	5.06
457.084	4.75
457.441	5.08
457.797	5
458.154	4.96
458.51	5.01
458.867	4.99
459.223	5.03
459.58	4.99
459.936	4.96
460.292	5.08
460.648	4.99
461.005	4.96
461.361	4.88
461.717	4.85
462.073	4.89
462.429	4.83
462.785	4.86
463.141	4.84
463.496	5.01
463.852	4.87
464.208	4.97
464.564	5.12
464.919	5.08
465.275	4.94
465.631	5.13
465.986	5.21
466.342	5.22
466.697	4.78
467.052	4.98
467.408	5.13
467.763	5.15
468.118	5.12
468.473	5.14
468.829	5.04
469.184	5.02
469.539	5.17
469.894	5.22
470.249	5.18
470.603	5.01
470.958	5.02
471.313	5.07
471.668	5.13
472.023	5.11
472.377	5.21
472.732	5.04
473.086	4.97
473.441	5.07
473.795	5.13
474.15	5.05
474.504	5.3
474.859	5.11
475.213	5.26
475.567	5.2
475.921	5.15
476.275	5.09
476.63	5.17
476.984	5.18
477.338	5.34
477.692	5.07
478.045	5.13
478.399	5.22
478.753	5.12
479.107	5.12
479.461	5.19
479.814	5.09
480.168	5.19
480.521	5.12
480.875	5.27
481.228	5.05
481.582	5.15
481.935	5.11
482.289	5.06
482.642	5.15
482.995	5.06
483.348	5.16
483.701	5.17
484.055	5.06
484.408	5.07
484.761	4.97
485.114	4.83
485.466	4.84
485.819	4.81
486.172	4.85
486.525	4.9
486.878	4.93
487.23	4.92
487.583	5
487.936	4.97
488.288	5.08
488.641	4.95
488.993	5.02
489.345	4.91
489.698	4.91
490.05	4.96
490.402	4.9
490.754	5.03
491.107	4.94
491.459	4.97
491.811	5.13
492.163	5.19
492.515	5.09
492.866	4.99
493.218	4.93
493.57	4.99
493.922	5
494.274	5.09
494.625	5.12
494.977	5.19
495.328	5.26
495.68	5.16
496.031	5.17
496.383	5.29
496.734	5.29
497.086	5.34
497.437	5.25
497.788	5.17
498.139	5.35
498.49	5.23
498.842	5.07
499.193	5.27
499.544	5.26
499.894	5.24
500.245	5.26
500.596	5.34
500.947	5.28
501.298	5.28
501.648	5.27
501.999	5.36
502.35	5.47
502.7	5.31
503.051	5.47
503.401	5.39
503.752	5.18
504.102	5.3
504.452	5.27
504.803	5.29
505.153	5.31
505.503	5.4
505.853	5.29
506.203	5.38
506.553	5.28
506.903	5.4
507.253	5.3
507.603	5.44
507.953	5.37
508.303	5.32
508.652	5.43
509.002	5.41
509.352	5.31
509.701	5.42
510.051	5.32
510.4	5.48
510.75	5.4
511.099	5.3
511.449	5.38
511.798	5.34
512.147	5.4
512.496	5.33
512.846	5.55
513.195	5.38
513.544	5.38
513.893	5.36
514.242	5.43
514.591	5.45
514.939	5.48
515.288	5.41
515.637	5.43
515.986	5.3
516.334	5.5
516.683	5.51
517.032	5.46
517.38	5.44
517.729	5.49
518.077	5.51
518.426	5.41
518.774	5.55
519.122	5.58
519.47	5.45
519.819	5.42
520.167	5.4
520.515	5.44
520.863	5.53
521.211	5.41
521.559	5.39
521.907	5.54
522.255	5.54
522.602	5.53
522.95	5.59
523.298	5.57
523.645	5.5
523.993	5.69
524.341	5.67
524.688	5.69
525.036	5.72
525.383	5.68
525.73	5.64
526.078	5.53
526.425	5.58
526.772	5.55
527.119	5.57
527.466	5.58
527.814	5.54
528.161	5.63
528.508	5.61
528.854	5.49
529.201	5.64
529.548	5.6
529.895	5.47
530.242	5.44
530.588	5.47
530.935	5.45
531.282	5.47
531.628	5.48
531.975	5.54
532.321	5.56
532.667	5.73
533.014	5.62
533.36	5.69
533.706	5.74
534.052	5.67
534.399	5.57
534.745	5.68
535.091	5.62
535.437	5.63
535.783	5.61
536.129	5.79
536.474	5.76
536.82	5.75
537.166	5.83
537.512	5.84
537.857	5.75
538.203	5.74
538.549	5.9
538.894	5.85
539.239	5.87
539.585	5.87
539.93	5.93
540.276	6.07
540.621	6
540.966	6.07
541.311	5.93
541.656	6.04
542.001	5.97
542.346	5.89
542.691	5.86
543.036	5.8
543.381	5.81
543.726	5.8
544.071	5.77
544.415	5.85
544.76	5.99
545.105	5.86
545.449	5.89
545.794	6.08
546.138	6.02
546.483	6.15
546.827	6.14
547.171	6.08
547.516	6.09
547.86	6.04
548.204	6.16
548.548	6.05
548.892	6.12
549.236	6.1
549.58	6.26
549.924	6.24
550.268	6.18
550.612	6.33
550.956	6.39
551.3	6.35
551.643	6.31
551.987	6.46
552.33	6.29
552.674	6.24
553.017	6.49
553.361	6.44
553.704	6.35
554.048	6.44
554.391	6.39
554.734	6.41
555.077	6.53
555.42	6.46
555.764	6.53
556.107	6.57
556.45	6.5
556.793	6.57
557.135	6.54
557.478	6.6
557.821	6.66
558.164	6.65
558.507	6.6
558.849	6.66
559.192	6.55
559.534	6.88
559.877	6.71
560.219	6.74
560.562	6.72
560.904	6.85
561.246	6.53
561.589	6.71
561.931	6.6
562.273	6.77
562.615	6.66
562.957	6.78
563.299	6.9
563.641	6.74
563.983	6.57
564.325	6.79
564.667	6.99
565.008	6.97
565.35	6.85
565.692	6.63
566.033	6.72
566.375	6.93
566.716	6.87
567.058	6.92
567.399	7.05
567.741	6.99
568.082	6.96
568.423	7.01
568.764	7.2
569.105	6.91
569.447	7.02
569.788	7.14
570.129	7.08
570.47	7.04
570.811	7.24
571.151	7.22
571.492	7.22
571.833	7.11
572.174	7.24
572.514	7.1
572.855	7.33
573.195	7.2
573.536	7.39
573.876	7.36
574.217	7.42
574.557	7.33
574.898	7.44
575.238	7.24
575.578	7.37
575.918	7.53
576.258	7.5
576.598	7.45
576.938	7.47
577.278	7.37
577.618	7.48
577.958	7.41
578.298	7.57
578.638	7.61
578.977	7.52
579.317	7.66
579.657	7.67
579.996	7.74
580.336	7.79
580.675	7.72
581.014	7.87
581.354	7.58
581.693	7.61
582.032	7.83
582.372	7.7
582.711	7.87
583.05	7.72
583.389	7.84
583.728	7.9
584.067	7.93
584.406	7.82
584.745	8.12
585.083	7.93
585.422	7.89
585.761	8.08
586.1	8.04
586.438	8.05
586.777	8.2
587.115	8.02
587.454	8.15
587.792	8.16
588.13	8.06
588.469	8.2
588.807	8.09
589.145	8.06
589.483	8.24
589.821	8.42
590.159	8.3
590.497	8.29
590.835	8.35
591.173	8.34
591.511	8.27
591.849	8.26
592.187	8.4
592.524	8.14
592.862	8.02
593.2	8.4
593.537	8.55
593.875	8.81
594.212	8.47
594.55	8.63
594.887	8.6
595.224	8.56
595.561	8.47
595.899	8.55
596.236	8.58
596.573	8.79
596.91	8.78
597.247	8.72
597.584	8.68
597.921	8.93
598.258	8.74
598.594	8.84
598.931	8.66
599.268	8.75
599.604	8.81
599.941	8.92
600.277	8.92
600.614	9.17
600.95	8.74
601.287	8.99
601.623	9.32
601.959	9.26
602.296	9.02
602.632	9.02
602.968	9.19
603.304	9.27
603.64	9.28
603.976	9.18
604.312	9.11
604.648	9.18
604.984	9.2
605.319	9.35
605.655	9.3
605.991	9.13
606.326	9.61
606.662	9.15
606.998	9.25
607.333	9.41
607.668	9.33
608.004	9.35
608.339	9.48
608.674	9.41
609.01	9.43
609.345	9.52
609.68	9.57
610.015	9.51
610.35	9.56
610.685	9.75
611.02	9.51
611.355	9.65
611.689	9.73
612.024	9.59
612.359	9.63
612.694	9.66
613.028	9.81
613.363	9.83
613.697	9.99
614.032	9.93
614.366	9.75
614.7	9.87
615.035	9.97
615.369	9.83
615.703	9.77
616.037	10.12
616.371	9.81
616.705	9.98
617.039	10.08
617.373	10.13
617.707	10.08
618.041	10.36
618.375	10.18
618.709	10.64
619.042	10.11
619.376	10.3
619.71	10.58
620.043	10.52
620.377	10.31
620.71	10.52
621.043	10.43
621.377	10.56
621.71	10.48
622.043	10.9
622.376	10.81
622.709	10.59
623.043	10.71
623.376	10.63
623.709	10.88
624.041	11
624.374	10.79
624.707	10.81
625.04	10.81
625.373	10.71
625.705	10.54
626.038	10.97
626.37	11.19
626.703	11
627.035	11.01
627.368	10.82
627.7	10.55
628.032	11.14
628.365	11.32
628.697	11.21
629.029	11.28
629.361	11.24
629.693	11.26
630.025	11.48
630.357	11.4
630.689	11.33
631.021	11.25
631.353	11.27
631.684	11.42
632.016	11.72
632.348	11.05
632.679	11.41
633.011	11.5
633.342	11.52
633.674	11.22
634.005	11.46
634.336	11.76
634.668	11.82
634.999	11.65
635.33	11.71
635.661	11.6
635.992	11.56
636.323	11.59
636.654	11.88
636.985	11.63
637.316	12.08
637.647	12.31
637.977	11.84
638.308	11.99
638.639	11.93
638.969	11.83
639.3	12
639.63	12.46
639.961	11.89
640.291	12.35
640.622	12.3
640.952	12.18
641.282	11.85
641.612	11.8
641.943	12.15
642.273	12.14
642.603	12.09
642.933	12.63
643.263	12.38
643.592	12.4
643.922	12.22
644.252	12.6
644.582	12.29
644.911	12.26
645.241	12.63
645.571	12.19
645.9	12.89
646.23	12.88
646.559	12.89
646.888	12.51
647.218	12.7
647.547	13.05
647.876	13.07
648.205	12.84
648.534	12.87
648.863	13.35
649.192	13.01
649.521	13.08
649.85	13.08
650.179	13.57
650.508	13.52
650.837	13.25
651.165	13.04
651.494	13.47
651.822	13.1
652.151	12.95
652.479	13.24
652.808	13.46
653.136	12.94
653.465	13.44
653.793	13.74
654.121	13.2
654.449	13.2
654.777	13.66
655.105	13.45
655.433	13.62
655.761	13.55
656.089	13.26
656.417	13.29
656.745	14.09
657.073	13.27
657.4	13.31
657.728	13.74
658.056	14.32
658.383	13.62
658.711	14
659.038	14.14
659.365	13.87
659.693	13.97
660.02	14.23
660.347	14.01
660.674	14.29
661.001	14.29
661.329	14.13
661.656	14.14
661.982	14.43
662.309	14.13
662.636	14.39
662.963	14.2
663.29	14.2
663.616	13.82
663.943	14.89
664.27	14.19
664.596	14.61
664.923	14.11
665.249	14.37
665.576	14.38
665.902	14.83
666.228	14.88
666.554	14.58
666.881	14.23
667.207	15.06
667.533	15.24
667.859	15.29
668.185	15.17
668.511	14.59
668.837	15.48
669.162	15.01
669.488	14.63
669.814	14.97
670.139	15.26
670.465	14.61
670.791	14.64
671.116	14.95
671.442	15.05
671.767	15.71
672.092	15.36
672.418	15.43
672.743	15.07
673.068	15.91
673.393	15.76
673.718	15.31
674.043	15.1
674.368	15.4
674.693	15.24
675.018	15.03
675.343	15.86
675.667	16
675.992	16.26
676.317	15.53
676.641	15.36
676.966	15.81
677.29	15.61
677.615	15.58
677.939	15.79
678.264	16.39
678.588	15.76
678.912	15.08
679.236	15.85
679.56	16.27
679.885	16
680.209	15.7
680.532	16.56
680.856	16
681.18	15.94
681.504	16
681.828	16.05
682.152	15.69
682.475	16.38
682.799	15.96
683.122	16.65
683.446	16.41
683.769	16.25
684.093	16.13
684.416	16.37
684.739	16.89
685.062	16.22
685.386	17.16
685.709	16.86
686.032	16.31
686.355	16.35
686.678	16.5
687.001	15.96
687.324	16.01
687.646	16.12
687.969	16.43
