Data from 20-8_chest_Reflection__5__110.txt Node

Date: Fri Nov 11 20:59:05 CST 2022
User: ToomeyLab
Spectrometer: FLMS14357
Trigger mode: 0
Integration Time (sec): 1.000000E-2
Scans to average: 100
Electric dark correction enabled: true
Nonlinearity correction enabled: false
Boxcar width: 0
XAxis mode: Wavelengths
Number of Pixels in Spectrum: 2048
>>>>>Begin Spectral Data<<<<<
189.047	-676.74
189.435	-676.74
189.823	-676.74
190.211	52.99
190.599	663.42
190.987	42.09
191.375	-0.67
191.763	-570.43
192.151	63.17
192.538	-131.46
192.926	62.82
193.314	106.19
193.702	-32.59
194.089	37
194.477	65.85
194.864	92.96
195.252	84.07
195.639	36.36
196.027	-33.96
196.414	72.21
196.801	326.46
197.189	67.86
197.576	73.74
197.963	-546.13
198.351	-140.86
198.738	3
199.125	-13.35
199.512	26.12
199.899	-38.89
200.286	-18.95
200.673	10.12
201.06	43.41
201.447	9.8
201.833	23.21
202.22	-9.91
202.607	38.83
202.994	59.09
203.38	17.78
203.767	10.85
204.154	27.7
204.54	22.12
204.927	36.38
205.313	11.38
205.699	10.95
206.086	7.05
206.472	27.23
206.858	14.41
207.245	16.23
207.631	10.7
208.017	-8.42
208.403	2.03
208.789	26.15
209.175	26.91
209.561	32.58
209.947	-2.19
210.333	-26.24
210.719	18.13
211.105	24.17
211.491	3.64
211.876	10.9
212.262	3.45
212.648	-65.6
213.034	-10.15
213.419	-42.35
213.805	-2.4
214.19	27.8
214.576	44.67
214.961	-24.67
215.346	-16.97
215.732	-34.03
216.117	30.87
216.502	10.1
216.888	-12.62
217.273	7.42
217.658	-2.18
218.043	-8.44
218.428	-8.23
218.813	-7.36
219.198	6.97
219.583	7.8
219.968	0.07
220.353	-15.5
220.738	-15.12
221.122	-1.94
221.507	-17.27
221.892	-41.86
222.276	17.94
222.661	35.11
223.046	-24.69
223.43	-12.48
223.815	6.21
224.199	9.07
224.583	9.71
224.968	-6.12
225.352	-5.24
225.736	-10.49
226.121	-2.18
226.505	-2.57
226.889	-19.25
227.273	1.13
227.657	-3.1
228.041	0.89
228.425	1.27
228.809	1.98
229.193	2.73
229.577	2.39
229.961	2.51
230.344	2.21
230.728	1.02
231.112	0.63
231.495	2.44
231.879	-0.7
232.263	0.82
232.646	1.67
233.03	0.8
233.413	1.61
233.797	2.19
234.18	1.31
234.563	2.24
234.946	1.39
235.33	2.13
235.713	1
236.096	1.22
236.479	1.85
236.862	1.42
237.245	0.23
237.628	1.27
238.011	2.37
238.394	1.85
238.777	1.73
239.16	3.42
239.543	0.49
239.925	1.33
240.308	2.17
240.691	2.39
241.073	1.8
241.456	1.86
241.838	3.23
242.221	1.09
242.603	2.38
242.986	1.39
243.368	1.97
243.75	2.06
244.133	1.99
244.515	1.82
244.897	2.42
245.279	1.83
245.661	1.89
246.043	2.19
246.425	3.01
246.807	1.58
247.189	1.68
247.571	2.22
247.953	1.92
248.335	2.04
248.717	2.04
249.098	2.3
249.48	2.04
249.862	2.39
250.243	1.84
250.625	2.14
251.006	2.99
251.388	2.58
251.769	2.26
252.151	2.09
252.532	2.36
252.913	2.17
253.295	1.83
253.676	1.31
254.057	1.71
254.438	2.52
254.819	1.92
255.2	2.35
255.581	2.15
255.962	0.33
256.343	1.54
256.724	2.17
257.105	1.95
257.486	1.58
257.867	2.43
258.247	1.2
258.628	2.05
259.009	1.25
259.389	1.94
259.77	2.7
260.15	2.21
260.531	2.31
260.911	1.88
261.292	2.34
261.672	2.01
262.052	1.87
262.432	2.3
262.813	2
263.193	1.77
263.573	1.74
263.953	2.38
264.333	1.98
264.713	1.83
265.093	2.19
265.473	1.05
265.853	1.64
266.233	2.36
266.612	2.42
266.992	2.06
267.372	2.53
267.752	1.38
268.131	1.41
268.511	1.91
268.89	2.11
269.27	1.63
269.649	1.82
270.029	2.51
270.408	1.88
270.787	2.2
271.167	1.17
271.546	2.37
271.925	2.28
272.304	2.29
272.683	2.04
273.062	2
273.441	2.02
273.82	2.18
274.199	1.83
274.578	1.69
274.957	2.25
275.336	2.39
275.715	2.73
276.093	1.61
276.472	1.42
276.851	1.44
277.229	2.06
277.608	2.17
277.986	2.02
278.365	2.07
278.743	2.14
279.122	2.4
279.5	1.84
279.878	1.74
280.257	2.42
280.635	1.87
281.013	1.72
281.391	1.72
281.769	1.56
282.147	1.69
282.525	1.54
282.903	1.68
283.281	1.61
283.659	2.06
284.037	2.72
284.415	2.1
284.792	1.91
285.17	2.48
285.548	1.94
285.925	1.98
286.303	2.28
286.68	2.42
287.058	2.11
287.435	1.94
287.813	2.1
288.19	1.84
288.567	2.18
288.945	2.24
289.322	2.47
289.699	1.69
290.076	2.63
290.453	2.31
290.83	2.1
291.207	1.99
291.584	2.32
291.961	1.85
292.338	2.16
292.715	2.27
293.092	2.69
293.469	1.96
293.845	2.37
294.222	2.44
294.599	2.61
294.975	2.71
295.352	2.26
295.728	2.64
296.105	2.05
296.481	1.92
296.858	2.72
297.234	2.44
297.61	2.28
297.986	2.83
298.363	2.9
298.739	2.89
299.115	2.54
299.491	2.81
299.867	2.44
300.243	2.38
300.619	2.8
300.995	2.61
301.371	3.3
301.746	3.14
302.122	3.22
302.498	2.73
302.874	2.94
303.249	2.51
303.625	2.92
304	2.14
304.376	2.62
304.751	2.61
305.127	2.67
305.502	3.05
305.878	3.33
306.253	2.95
306.628	2.7
307.003	3.02
307.378	2.84
307.754	3.18
308.129	2.88
308.504	2.9
308.879	2.71
309.254	3.17
309.629	2.7
310.003	3.27
310.378	3.19
310.753	3.37
311.128	3.13
311.502	3.12
311.877	2.88
312.252	3.05
312.626	2.98
313.001	2.8
313.375	3.08
313.75	2.75
314.124	2.85
314.498	2.77
314.873	2.88
315.247	3.31
315.621	3.19
315.995	3.42
316.369	3.29
316.743	3.1
317.117	3.6
317.491	3.33
317.865	3.05
318.239	3.3
318.613	3.7
318.987	2.87
319.361	2.71
319.734	3.56
320.108	2.69
320.482	3.5
320.855	3.37
321.229	3.72
321.602	3.38
321.976	3.11
322.349	3.3
322.723	3.75
323.096	3.22
323.469	3.48
323.843	3.26
324.216	3.53
324.589	3.25
324.962	3.52
325.335	3.34
325.708	3.71
326.081	3.44
326.454	3.14
326.827	2.7
327.2	3.6
327.573	3.73
327.945	3.03
328.318	3.25
328.691	3.53
329.063	3.61
329.436	3.32
329.809	3.18
330.181	3.1
330.553	2.92
330.926	3.56
331.298	3.73
331.671	3.72
332.043	3.26
332.415	3.11
332.787	3.58
333.159	3.66
333.532	3.88
333.904	3.67
334.276	3.37
334.648	3.44
335.02	3.27
335.391	3.64
335.763	3.49
336.135	2.88
336.507	3.55
336.879	3.34
337.25	3.43
337.622	3.71
337.993	4.05
338.365	3.98
338.736	3.31
339.108	3.66
339.479	3.15
339.851	3.41
340.222	3.11
340.593	3.79
340.964	3.82
341.336	3.75
341.707	3.58
342.078	3.33
342.449	3.99
342.82	3.68
343.191	3.94
343.562	3.39
343.933	3.52
344.303	3.45
344.674	3.09
345.045	3.54
345.416	3.73
345.786	3.1
346.157	3.33
346.527	3.71
346.898	3.1
347.268	3.33
347.639	3.59
348.009	3.46
348.38	3.8
348.75	3.92
349.12	3.94
349.49	3.86
349.861	3.47
350.231	3.77
350.601	3.6
350.971	3.92
351.341	3.89
351.711	3.65
352.081	3.74
352.45	3.62
352.82	3.7
353.19	3.7
353.56	3.42
353.929	3.61
354.299	3.33
354.669	3.95
355.038	3.41
355.408	3.67
355.777	3.75
356.147	3.89
356.516	3.79
356.885	4.11
357.254	3.65
357.624	3.51
357.993	3.69
358.362	3.92
358.731	3.51
359.1	3.7
359.469	3.4
359.838	3.63
360.207	3.85
360.576	3.88
360.945	3.89
361.314	3.39
361.682	3.66
362.051	3.72
362.42	3.85
362.788	4.31
363.157	3.65
363.525	3.61
363.894	3.62
364.262	3.87
364.631	4.11
364.999	3.5
365.367	3.7
365.735	3.65
366.104	3.77
366.472	3.81
366.84	3.53
367.208	3.46
367.576	3.93
367.944	3.89
368.312	3.61
368.68	3.62
369.048	3.96
369.416	3.74
369.783	3.79
370.151	4.08
370.519	3.99
370.886	3.83
371.254	4.17
371.621	3.85
371.989	3.64
372.356	3.91
372.724	4.13
373.091	4.02
373.458	4.09
373.826	3.56
374.193	3.8
374.56	4.03
374.927	3.89
375.294	4.05
375.661	4.4
376.028	3.51
376.395	4.09
376.762	4
377.129	3.63
377.496	3.98
377.863	4.07
378.229	4.06
378.596	3.95
378.963	4.08
379.329	4.08
379.696	3.96
380.062	3.84
380.429	4.02
380.795	4.32
381.161	3.88
381.528	3.75
381.894	4.08
382.26	4.36
382.626	3.95
382.993	3.75
383.359	4.11
383.725	3.65
384.091	4.17
384.457	4.02
384.823	3.98
385.188	4.11
385.554	4.01
385.92	3.88
386.286	4.09
386.651	4.12
387.017	4.08
387.383	4.09
387.748	4.13
388.114	3.83
388.479	3.85
388.845	3.9
389.21	3.9
389.575	3.99
389.94	4.04
390.306	4.08
390.671	4.2
391.036	3.99
391.401	4.13
391.766	4.2
392.131	3.92
392.496	4.27
392.861	4.01
393.226	3.97
393.591	4.08
393.956	4.08
394.32	4.19
394.685	4.01
395.05	4.17
395.414	3.96
395.779	4.05
396.143	4.02
396.508	4.25
396.872	4.25
397.236	4.07
397.601	4.01
397.965	4.17
398.329	3.88
398.694	4.06
399.058	3.76
399.422	4.21
399.786	4.03
400.15	4.23
400.514	4
400.878	4.26
401.242	3.94
401.605	4.25
401.969	4.26
402.333	3.95
402.697	4.34
403.06	4.29
403.424	3.96
403.787	4.24
404.151	4
404.514	4.13
404.878	4.19
405.241	4.08
405.604	4.17
405.968	4.09
406.331	3.87
406.694	4.04
407.057	4.18
407.42	4.27
407.783	4.1
408.146	4.26
408.509	4.37
408.872	4.23
409.235	4.19
409.598	4.34
409.961	4.29
410.323	4.12
410.686	4.49
411.049	4.13
411.411	4.01
411.774	4.12
412.136	4.34
412.499	4.15
412.861	4.26
413.223	3.76
413.586	4.14
413.948	4.38
414.31	4.47
414.672	4.24
415.035	4.22
415.397	4.14
415.759	4.01
416.121	4.21
416.483	3.94
416.845	4.33
417.206	4.12
417.568	4.16
417.93	4.24
418.292	4.04
418.653	4.34
419.015	4.3
419.377	4.14
419.738	4.09
420.1	4.13
420.461	4.19
420.822	4.16
421.184	4.15
421.545	4.11
421.906	4.12
422.267	4.01
422.629	3.95
422.99	4.11
423.351	4.09
423.712	4.02
424.073	4.22
424.434	4.16
424.795	4.23
425.155	4.06
425.516	4.14
425.877	4.18
426.238	4.15
426.598	4.03
426.959	4.07
427.32	4.18
427.68	4.3
428.041	4.32
428.401	4.05
428.761	4.32
429.122	4.2
429.482	4.27
429.842	4.15
430.202	4.38
430.563	4.3
430.923	4.26
431.283	4.12
431.643	4.28
432.003	4.53
432.363	4.38
432.722	4.52
433.082	4.3
433.442	4.35
433.802	4.44
434.161	4.36
434.521	4.27
434.881	4.44
435.24	4.3
435.6	4.28
435.959	4.32
436.319	4.35
436.678	4.3
437.037	4.29
437.396	4.45
437.756	4.3
438.115	4.24
438.474	4.27
438.833	4.34
439.192	4.49
439.551	4.34
439.91	4.4
440.269	4.27
440.628	4.35
440.987	4.39
441.345	4.27
441.704	4.33
442.063	4.35
442.421	4.39
442.78	4.28
443.138	4.38
443.497	4.3
443.855	4.43
444.214	4.29
444.572	4.44
444.93	4.44
445.288	4.32
445.647	4.6
446.005	4.6
446.363	4.56
446.721	4.41
447.079	4.43
447.437	4.27
447.795	4.39
448.153	4.25
448.51	4.34
448.868	4.38
449.226	4.38
449.584	4.43
449.941	4.38
450.299	4.41
450.656	4.56
451.014	4.49
451.371	4.49
451.729	4.41
452.086	4.41
452.443	4.58
452.801	4.6
453.158	4.49
453.515	4.44
453.872	4.35
454.229	4.55
454.586	4.55
454.943	4.55
455.3	4.59
455.657	4.45
456.014	4.6
456.371	4.57
456.727	4.62
457.084	4.34
457.441	4.6
457.797	4.66
458.154	4.47
458.51	4.55
458.867	4.39
459.223	4.56
459.58	4.62
459.936	4.52
460.292	4.55
460.648	4.57
461.005	4.51
461.361	4.52
461.717	4.48
462.073	4.54
462.429	4.45
462.785	4.46
463.141	4.43
463.496	4.56
463.852	4.67
464.208	4.58
464.564	4.64
464.919	4.65
465.275	4.41
465.631	4.41
465.986	4.85
466.342	4.55
466.697	4.54
467.052	4.65
467.408	4.55
467.763	4.49
468.118	4.79
468.473	4.7
468.829	4.6
469.184	4.61
469.539	4.74
469.894	4.66
470.249	4.71
470.603	4.63
470.958	4.6
471.313	4.7
471.668	4.84
472.023	4.71
472.377	4.77
472.732	4.62
473.086	4.65
473.441	4.59
473.795	4.64
474.15	4.66
474.504	4.81
474.859	4.59
475.213	4.76
475.567	4.8
475.921	4.64
476.275	4.73
476.63	4.76
476.984	4.8
477.338	4.86
477.692	4.62
478.045	4.68
478.399	4.81
478.753	4.67
479.107	4.73
479.461	4.77
479.814	4.57
480.168	4.59
480.521	4.8
480.875	4.79
481.228	4.78
481.582	4.8
481.935	4.57
482.289	4.6
482.642	4.77
482.995	4.68
483.348	4.62
483.701	4.72
484.055	4.64
484.408	4.6
484.761	4.53
485.114	4.41
485.466	4.37
485.819	4.34
486.172	4.39
486.525	4.5
486.878	4.55
487.23	4.58
487.583	4.6
487.936	4.64
488.288	4.61
488.641	4.55
488.993	4.52
489.345	4.47
489.698	4.56
490.05	4.53
490.402	4.56
490.754	4.64
491.107	4.59
491.459	4.63
491.811	4.76
492.163	4.69
492.515	4.69
492.866	4.67
493.218	4.57
493.57	4.53
493.922	4.61
494.274	4.72
494.625	4.69
494.977	4.84
495.328	4.77
495.68	4.85
496.031	4.85
496.383	4.94
496.734	4.76
497.086	4.99
497.437	4.86
497.788	4.77
498.139	4.82
498.49	4.75
498.842	4.78
499.193	4.86
499.544	4.92
499.894	4.79
500.245	4.82
500.596	4.81
500.947	4.89
501.298	4.9
501.648	4.92
501.999	4.91
502.35	4.92
502.7	4.93
503.051	4.97
503.401	4.92
503.752	4.89
504.102	4.81
504.452	4.97
504.803	4.85
505.153	5.03
505.503	4.99
505.853	5.02
506.203	5.07
506.553	4.86
506.903	4.95
507.253	5.03
507.603	4.95
507.953	4.96
508.303	4.87
508.652	4.93
509.002	5
509.352	5.07
509.701	5.03
510.051	5.07
510.4	5.02
510.75	4.95
511.099	4.89
511.449	5
511.798	4.95
512.147	4.95
512.496	4.99
512.846	5.2
513.195	4.97
513.544	5.09
513.893	4.9
514.242	5.09
514.591	5.03
514.939	5.14
515.288	5.08
515.637	5.12
515.986	5.03
516.334	4.96
516.683	5.02
517.032	5.11
517.38	5.16
517.729	5.15
518.077	5.13
518.426	5.21
518.774	5.15
519.122	5.15
519.47	5.15
519.819	5.12
520.167	5
520.515	5.05
520.863	5.19
521.211	5.05
521.559	5.12
521.907	5.2
522.255	5.1
522.602	5.15
522.95	5.16
523.298	5.29
523.645	5.21
523.993	5.27
524.341	5.27
524.688	5.19
525.036	5.4
525.383	5.27
525.73	5.21
526.078	5.17
526.425	5.18
526.772	5.16
527.119	5.1
527.466	5.22
527.814	5.19
528.161	5.23
528.508	5.25
528.854	5.18
529.201	5.2
529.548	5.13
529.895	5.01
530.242	4.97
530.588	5.02
530.935	5.04
531.282	5.12
531.628	5.14
531.975	5.2
532.321	5.16
532.667	5.26
533.014	5.27
533.36	5.3
533.706	5.31
534.052	5.23
534.399	5.2
534.745	5.15
535.091	5.18
535.437	5.17
535.783	5.25
536.129	5.32
536.474	5.35
536.82	5.3
537.166	5.4
537.512	5.47
537.857	5.34
538.203	5.27
538.549	5.44
538.894	5.35
539.239	5.33
539.585	5.52
539.93	5.52
540.276	5.6
540.621	5.56
540.966	5.54
541.311	5.57
541.656	5.52
542.001	5.5
542.346	5.47
542.691	5.4
543.036	5.24
543.381	5.35
543.726	5.3
544.071	5.42
544.415	5.48
544.76	5.46
545.105	5.45
545.449	5.44
545.794	5.54
546.138	5.64
546.483	5.7
546.827	5.71
547.171	5.76
547.516	5.56
547.86	5.57
548.204	5.67
548.548	5.65
548.892	5.63
549.236	5.62
549.58	5.65
549.924	5.76
550.268	5.81
550.612	5.74
550.956	5.91
551.3	5.79
551.643	5.72
551.987	5.91
552.33	5.79
552.674	5.63
553.017	5.85
553.361	5.99
553.704	6.1
554.048	5.93
554.391	5.84
554.734	5.89
555.077	5.96
555.42	5.88
555.764	5.98
556.107	6.12
556.45	6.07
556.793	6.03
557.135	6.06
557.478	5.9
557.821	6.3
558.164	5.9
558.507	6.03
558.849	6.16
559.192	6.06
559.534	6.14
559.877	6.12
560.219	6.12
560.562	6.15
560.904	6.2
561.246	6.03
561.589	6.18
561.931	6.11
562.273	6.28
562.615	6.09
562.957	6.12
563.299	6.24
563.641	6.06
563.983	6.17
564.325	6.3
564.667	6.23
565.008	6.35
565.35	6.22
565.692	6.09
566.033	6.35
566.375	6.41
566.716	6.29
567.058	6.32
567.399	6.42
567.741	6.3
568.082	6.41
568.423	6.2
568.764	6.58
569.105	6.21
569.447	6.57
569.788	6.56
570.129	6.33
570.47	6.36
570.811	6.44
571.151	6.68
571.492	6.6
571.833	6.47
572.174	6.64
572.514	6.52
572.855	6.52
573.195	6.28
573.536	6.47
573.876	6.46
574.217	6.66
574.557	6.56
574.898	6.59
575.238	6.63
575.578	6.62
575.918	6.74
576.258	6.61
576.598	6.66
576.938	6.71
577.278	6.46
577.618	6.68
577.958	6.66
578.298	6.85
578.638	6.68
578.977	6.81
579.317	6.8
579.657	6.94
579.996	6.81
580.336	6.89
580.675	7.01
581.014	7.01
581.354	6.78
581.693	6.86
582.032	7.17
582.372	6.81
582.711	6.9
583.05	6.82
583.389	7.02
583.728	7.16
584.067	7.11
584.406	7.01
584.745	7.21
585.083	7.03
585.422	6.98
585.761	7.14
586.1	7.24
586.438	7.14
586.777	7.17
587.115	7.12
587.454	6.98
587.792	7.12
588.13	6.93
588.469	7.22
588.807	7.32
589.145	7.08
589.483	7.23
589.821	7.33
590.159	7.31
590.497	7.46
590.835	7.18
591.173	7.33
591.511	7.28
591.849	6.97
592.187	7.32
592.524	7.32
592.862	7.39
593.2	7.23
593.537	7.31
593.875	7.56
594.212	7.32
594.55	7.56
594.887	7.36
595.224	7.57
595.561	7.33
595.899	7.54
596.236	7.43
596.573	7.46
596.91	7.41
597.247	7.55
597.584	7.59
597.921	7.55
598.258	7.52
598.594	7.6
598.931	7.51
599.268	7.55
599.604	7.52
599.941	7.56
600.277	7.61
600.614	7.73
600.95	7.67
601.287	7.98
601.623	8
601.959	7.67
602.296	7.6
602.632	7.6
602.968	7.75
603.304	8.14
603.64	8.13
603.976	7.86
604.312	7.84
604.648	7.79
604.984	7.74
605.319	7.98
605.655	7.9
605.991	7.82
606.326	7.95
606.662	7.82
606.998	7.74
607.333	8.01
607.668	7.96
608.004	8.28
608.339	8.02
608.674	8.15
609.01	8.11
609.345	8
609.68	7.9
610.015	8.31
610.35	7.98
610.685	8.18
611.02	7.96
611.355	8.01
611.689	8.27
612.024	8.16
612.359	8.16
612.694	8.19
613.028	8.2
613.363	8.39
613.697	8.38
614.032	8.19
614.366	8.36
614.7	8.26
615.035	8.46
615.369	8
615.703	8.28
616.037	8.44
616.371	8.38
616.705	8.55
617.039	8.66
617.373	8.33
617.707	8.42
618.041	8.49
618.375	8.33
618.709	8.65
619.042	8.9
619.376	8.59
619.71	8.92
620.043	8.86
620.377	8.71
620.71	8.69
621.043	8.67
621.377	9.03
621.71	8.57
622.043	8.75
622.376	9.08
622.709	8.58
623.043	8.79
623.376	9.01
623.709	8.74
624.041	9.16
624.374	8.49
624.707	8.9
625.04	9.07
625.373	8.56
625.705	9.16
626.038	8.96
626.37	9.3
626.703	8.97
627.035	9.09
627.368	8.76
627.7	8.84
628.032	9.04
628.365	8.9
628.697	8.88
629.029	8.93
629.361	8.97
629.693	8.97
630.025	9.27
630.357	9.55
630.689	9.03
631.021	9.1
631.353	9.29
631.684	9.26
632.016	9.28
632.348	8.78
632.679	9.08
633.011	9.38
633.342	9.21
633.674	9.09
634.005	9.13
634.336	9.14
634.668	9.43
634.999	9.24
635.33	9.43
635.661	9.5
635.992	9.4
636.323	9.56
636.654	9.51
636.985	9.57
637.316	9.51
637.647	10
637.977	10.01
638.308	9.66
638.639	9.26
638.969	9.64
639.3	9.42
639.63	9.77
639.961	9.72
640.291	9.79
640.622	10.4
640.952	9.77
641.282	9.31
641.612	9.56
641.943	10.05
642.273	9.62
642.603	9.98
642.933	9.92
643.263	9.6
643.592	10.12
643.922	9.61
644.252	9.92
644.582	9.86
644.911	10.06
645.241	9.96
645.571	9.83
645.9	10.11
646.23	10.51
646.559	10.13
646.888	10.01
647.218	9.86
647.547	9.95
647.876	9.91
648.205	10.41
648.534	9.89
648.863	10.1
649.192	10.17
649.521	10.51
649.85	10.6
650.179	10.45
650.508	10.39
650.837	10.49
651.165	9.63
651.494	10.63
651.822	9.96
652.151	10.01
652.479	9.72
652.808	10.08
653.136	10.04
653.465	10.7
653.793	10.69
654.121	10.21
654.449	10.29
654.777	10.75
655.105	10.16
655.433	10.37
655.761	10.8
656.089	10.79
656.417	10.55
656.745	10.67
657.073	10.24
657.4	10.44
657.728	10.78
658.056	11.02
658.383	10.42
658.711	10.54
659.038	11.03
659.365	10.56
659.693	11.05
660.02	11.7
660.347	10.63
660.674	10.51
661.001	10.84
661.329	10.65
661.656	10.81
661.982	10.82
662.309	11.06
662.636	11.11
662.963	10.99
663.29	10.74
663.616	10.52
663.943	10.61
664.27	10.78
664.596	11.22
664.923	10.66
665.249	11.13
665.576	11.34
665.902	11.76
666.228	11.81
666.554	10.98
666.881	10.78
667.207	11.87
667.533	12.04
667.859	11.34
668.185	11.46
668.511	11.12
668.837	11.18
669.162	11.63
669.488	11.64
669.814	11.22
670.139	11.39
670.465	11.33
670.791	11
671.116	10.91
671.442	11.03
671.767	11.99
672.092	11.23
672.418	11.63
672.743	11.35
673.068	11.56
673.393	12.2
673.718	11.62
674.043	12.15
674.368	11.81
674.693	10.97
675.018	11.42
675.343	11.43
675.667	12.17
675.992	13.16
676.317	11.37
676.641	11.89
676.966	11.63
677.29	12.17
677.615	11.66
677.939	11.81
678.264	12.11
678.588	12.34
678.912	12.19
679.236	11.85
679.56	11.6
679.885	11.51
680.209	12.02
680.532	12.55
680.856	12.53
681.18	12.07
681.504	11.63
681.828	12.33
682.152	12.18
682.475	12.09
682.799	11.99
683.122	12.04
683.446	12.81
683.769	12.58
684.093	12.33
684.416	12.21
684.739	12.77
685.062	12.1
685.386	12.68
685.709	12.29
686.032	12.05
686.355	12.66
686.678	12.54
687.001	12.58
687.324	12.26
687.646	12.09
687.969	12.08
688.292	13.2
688.614	12.4
688.937	12.4
689.26	11.77
689.582	13.07
689.904	13.22
