Data from 20-8_crown_Reflection__4__115.txt Node

Date: Fri Nov 11 21:00:42 CST 2022
User: ToomeyLab
Spectrometer: FLMS14357
Trigger mode: 0
Integration Time (sec): 1.000000E-2
Scans to average: 100
Electric dark correction enabled: true
Nonlinearity correction enabled: false
Boxcar width: 0
XAxis mode: Wavelengths
Number of Pixels in Spectrum: 2048
>>>>>Begin Spectral Data<<<<<
189.047	-332.17
189.435	-332.17
189.823	-332.17
190.211	-89.26
190.599	369.49
190.987	81.91
191.375	88.91
191.763	298.29
192.151	8.22
192.538	45.05
192.926	37.28
193.314	62.19
193.702	59.29
194.089	32.47
194.477	63.46
194.864	36.42
195.252	29.48
195.639	8.4
196.027	65.72
196.414	42.26
196.801	132.72
197.189	88.22
197.576	-33.43
197.963	-369.07
198.351	-75.83
198.738	5.43
199.125	6.32
199.512	0.05
199.899	-87.05
200.286	-12.43
200.673	-4.95
201.06	35.35
201.447	19.43
201.833	-12.56
202.22	-38.12
202.607	5.79
202.994	16.86
203.38	-3.94
203.767	-9.11
204.154	26.44
204.54	-19.69
204.927	-18.69
205.313	-24.03
205.699	9.67
206.086	38.68
206.472	18.52
206.858	1.78
207.245	28.56
207.631	-7.73
208.017	12.1
208.403	11.29
208.789	0.59
209.175	7.08
209.561	34.33
209.947	18.39
210.333	25.62
210.719	27.53
211.105	13.24
211.491	-21.39
211.876	3.32
212.262	11.65
212.648	-96.91
213.034	-3.83
213.419	-86.59
213.805	-17.88
214.19	-56.9
214.576	27.82
214.961	-21.23
215.346	-17.64
215.732	-40.39
216.117	25.8
216.502	1.02
216.888	-1.38
217.273	8.29
217.658	-30.72
218.043	5.23
218.428	8.85
218.813	-13.42
219.198	13.12
219.583	-21.05
219.968	10.75
220.353	-32.7
220.738	-6.67
221.122	-11.25
221.507	-65.25
221.892	-11.97
222.276	3.74
222.661	17.44
223.046	-24.16
223.43	4.61
223.815	7.64
224.199	0.49
224.583	-16.5
224.968	-15.31
225.352	3.14
225.736	3.04
226.121	-5.41
226.505	-3.58
226.889	-12.99
227.273	2.73
227.657	-4.34
228.041	1.46
228.425	-1.79
228.809	7.57
229.193	5.72
229.577	5.13
229.961	4.87
230.344	3.18
230.728	3.71
231.112	2.41
231.495	3.43
231.879	2.47
232.263	1.61
232.646	2.99
233.03	2.76
233.413	4.02
233.797	1.42
234.18	3.28
234.563	4.03
234.946	1.9
235.33	3.49
235.713	3.83
236.096	2.59
236.479	2.53
236.862	5.68
237.245	4.14
237.628	4.5
238.011	6.31
238.394	4.6
238.777	2.34
239.16	1.85
239.543	1.22
239.925	4.53
240.308	1.86
240.691	4.63
241.073	2.86
241.456	3.76
241.838	3.67
242.221	2.89
242.603	4.34
242.986	3.58
243.368	3.46
243.75	3.46
244.133	3.37
244.515	3.78
244.897	3.59
245.279	3.16
245.661	3.61
246.043	3.71
246.425	5.13
246.807	3.14
247.189	3.1
247.571	3.3
247.953	2.85
248.335	3.81
248.717	3.7
249.098	3.85
249.48	3.36
249.862	3.63
250.243	3.51
250.625	3.84
251.006	4.25
251.388	3.9
251.769	4.21
252.151	3.16
252.532	4.41
252.913	3.89
253.295	3.78
253.676	3.1
254.057	3.05
254.438	3.67
254.819	3.17
255.2	4.09
255.581	3
255.962	2.8
256.343	2.36
256.724	2.6
257.105	3.3
257.486	3.28
257.867	4.42
258.247	3.25
258.628	2.56
259.009	3.05
259.389	2.3
259.77	3.99
260.15	2.65
260.531	3.47
260.911	3.63
261.292	3.51
261.672	3.32
262.052	3.37
262.432	3.53
262.813	3.27
263.193	2.46
263.573	2.62
263.953	3.73
264.333	3.45
264.713	2.54
265.093	3.98
265.473	2.82
265.853	3.46
266.233	2.86
266.612	3.06
266.992	2.52
267.372	3.44
267.752	2.39
268.131	2.89
268.511	3.38
268.89	3.25
269.27	3.13
269.649	3.24
270.029	3.75
270.408	3.17
270.787	3.06
271.167	2.84
271.546	3.53
271.925	2.96
272.304	3.43
272.683	3.4
273.062	3.1
273.441	2.87
273.82	3.23
274.199	3.02
274.578	2.69
274.957	3.44
275.336	3.08
275.715	3.28
276.093	2.76
276.472	2.74
276.851	2.4
277.229	3.19
277.608	3.09
277.986	3
278.365	3.18
278.743	3.04
279.122	3.2
279.5	2.69
279.878	3.31
280.257	3.15
280.635	3.07
281.013	3.21
281.391	2.7
281.769	2.9
282.147	3.16
282.525	2.04
282.903	2.78
283.281	3.41
283.659	3.25
284.037	3.08
284.415	2.66
284.792	3.06
285.17	3.05
285.548	2.92
285.925	2.28
286.303	3.1
286.68	3.26
287.058	3.33
287.435	2.93
287.813	3.05
288.19	2.46
288.567	2.85
288.945	3.22
289.322	3.4
289.699	2.11
290.076	3.54
290.453	2.77
290.83	2.48
291.207	3.04
291.584	2.97
291.961	2.88
292.338	3.18
292.715	3.29
293.092	3.36
293.469	2.76
293.845	3.27
294.222	2.61
294.599	3.25
294.975	2.8
295.352	3.02
295.728	3.05
296.105	2.94
296.481	2.71
296.858	2.93
297.234	2.66
297.61	2.72
297.986	3.11
298.363	3.18
298.739	3.21
299.115	3.47
299.491	3.17
299.867	2.96
300.243	3.12
300.619	2.84
300.995	3.29
301.371	3.27
301.746	3.64
302.122	3.58
302.498	3.49
302.874	3.14
303.249	2.7
303.625	2.61
304	2.56
304.376	2.88
304.751	3.03
305.127	2.88
305.502	3.44
305.878	3.51
306.253	3.23
306.628	3.17
307.003	2.94
307.378	2.82
307.754	3.49
308.129	3.44
308.504	3.34
308.879	3.51
309.254	3.28
309.629	2.75
310.003	2.96
310.378	3.38
310.753	3.37
311.128	3.61
311.502	3.24
311.877	2.85
312.252	3.24
312.626	3.27
313.001	3.06
313.375	2.95
313.75	3.03
314.124	3.18
314.498	2.92
314.873	3.14
315.247	3.03
315.621	3.54
315.995	3.28
316.369	3.36
316.743	3.07
317.117	2.91
317.491	3.18
317.865	2.52
318.239	3.09
318.613	3.07
318.987	2.78
319.361	2.86
319.734	3.32
320.108	2.72
320.482	3.48
320.855	3.3
321.229	2.78
321.602	3.27
321.976	3.28
322.349	3.49
322.723	3.79
323.096	3.11
323.469	3.67
323.843	3.73
324.216	2.66
324.589	3.15
324.962	3.74
325.335	3.48
325.708	3.73
326.081	3.4
326.454	3.04
326.827	3
327.2	3.53
327.573	4.28
327.945	3.18
328.318	2.7
328.691	3.68
329.063	3.52
329.436	2.83
329.809	3.05
330.181	3.13
330.553	3.17
330.926	3.32
331.298	3.79
331.671	3.01
332.043	2.82
332.415	3.04
332.787	3.51
333.159	3.57
333.532	2.98
333.904	3.33
334.276	2.77
334.648	3.02
335.02	3.01
335.391	3.61
335.763	3.06
336.135	3.1
336.507	3.13
336.879	3.41
337.25	2.71
337.622	3.23
337.993	3.47
338.365	3.67
338.736	3.29
339.108	3.54
339.479	2.97
339.851	3.14
340.222	2.96
340.593	3.08
340.964	2.85
341.336	3.63
341.707	2.94
342.078	2.88
342.449	3.69
342.82	3.47
343.191	3.62
343.562	3.44
343.933	3.22
344.303	2.77
344.674	3.27
345.045	3.1
345.416	3.41
345.786	3.11
346.157	3.18
346.527	3.53
346.898	2.73
347.268	2.9
347.639	3.23
348.009	3.13
348.38	3.82
348.75	3.61
349.12	4.13
349.49	3.63
349.861	3.31
350.231	3.47
350.601	3.43
350.971	3.65
351.341	3.56
351.711	3.65
352.081	3.62
352.45	3.49
352.82	2.8
353.19	3.65
353.56	3.12
353.929	3.35
354.299	3.49
354.669	3.57
355.038	3.46
355.408	4.04
355.777	3.37
356.147	3.66
356.516	3.2
356.885	3.72
357.254	3.29
357.624	3.09
357.993	3.58
358.362	3.78
358.731	3.54
359.1	3.43
359.469	2.89
359.838	3.18
360.207	3.74
360.576	3.5
360.945	3.51
361.314	3.29
361.682	3.41
362.051	3.58
362.42	3.74
362.788	3.61
363.157	3.29
363.525	3.42
363.894	3.32
364.262	3.45
364.631	3.71
364.999	3.53
365.367	3.39
365.735	3.48
366.104	3.21
366.472	3.42
366.84	3.05
367.208	3.42
367.576	3.61
367.944	3.87
368.312	3.25
368.68	3.41
369.048	3.37
369.416	3.43
369.783	3.67
370.151	3.33
370.519	3.69
370.886	3.52
371.254	3.78
371.621	3.39
371.989	3.42
372.356	3.63
372.724	3.77
373.091	3.92
373.458	3.71
373.826	3.38
374.193	3.35
374.56	3.52
374.927	3.49
375.294	3.84
375.661	3.84
376.028	3.26
376.395	3.47
376.762	3.95
377.129	3.26
377.496	3.64
377.863	3.7
378.229	3.44
378.596	3.59
378.963	3.64
379.329	3.96
379.696	3.77
380.062	3.59
380.429	3.76
380.795	4.14
381.161	3.83
381.528	3.68
381.894	3.67
382.26	3.66
382.626	3.95
382.993	3.61
383.359	3.83
383.725	3.61
384.091	3.77
384.457	3.39
384.823	3.44
385.188	3.74
385.554	3.55
385.92	3.63
386.286	3.53
386.651	3.76
387.017	3.71
387.383	3.6
387.748	3.64
388.114	3.74
388.479	3.42
388.845	3.72
389.21	3.33
389.575	3.81
389.94	3.73
390.306	3.69
390.671	3.73
391.036	3.75
391.401	3.6
391.766	3.66
392.131	3.57
392.496	3.76
392.861	3.57
393.226	3.72
393.591	3.69
393.956	3.74
394.32	3.96
394.685	3.72
395.05	3.84
395.414	4.01
395.779	3.71
396.143	3.81
396.508	3.79
396.872	4.1
397.236	3.71
397.601	3.8
397.965	3.85
398.329	3.67
398.694	4.03
399.058	3.86
399.422	3.88
399.786	3.74
400.15	3.8
400.514	3.77
400.878	3.62
401.242	3.7
401.605	4.02
401.969	3.76
402.333	3.62
402.697	3.96
403.06	3.88
403.424	3.74
403.787	3.78
404.151	3.87
404.514	3.64
404.878	3.92
405.241	3.69
405.604	3.88
405.968	3.76
406.331	3.6
406.694	3.81
407.057	3.83
407.42	3.82
407.783	3.8
408.146	3.94
408.509	3.99
408.872	3.91
409.235	3.97
409.598	3.88
409.961	4.04
410.323	3.8
410.686	4.02
411.049	3.84
411.411	3.78
411.774	3.69
412.136	3.84
412.499	3.78
412.861	3.98
413.223	3.9
413.586	3.8
413.948	4.2
414.31	3.92
414.672	3.88
415.035	3.78
415.397	3.8
415.759	3.72
416.121	3.97
416.483	3.99
416.845	3.98
417.206	3.8
417.568	3.74
417.93	3.75
418.292	3.67
418.653	3.95
419.015	3.92
419.377	3.85
419.738	3.84
420.1	3.84
420.461	3.88
420.822	3.85
421.184	3.88
421.545	3.79
421.906	3.9
422.267	3.77
422.629	3.76
422.99	3.76
423.351	3.78
423.712	3.78
424.073	3.93
424.434	3.93
424.795	3.85
425.155	3.89
425.516	3.9
425.877	3.9
426.238	3.81
426.598	3.76
426.959	3.78
427.32	3.88
427.68	4.09
428.041	4.15
428.401	3.77
428.761	4.03
429.122	3.8
429.482	4.06
429.842	3.85
430.202	3.94
430.563	4.15
430.923	4.12
431.283	3.83
431.643	3.82
432.003	4.16
432.363	4.06
432.722	4.06
433.082	3.95
433.442	4
433.802	3.9
434.161	3.97
434.521	4.08
434.881	4.05
435.24	3.93
435.6	3.96
435.959	3.99
436.319	4
436.678	4.07
437.037	4.01
437.396	4.1
437.756	4.16
438.115	3.87
438.474	3.99
438.833	4.01
439.192	4.02
439.551	4.06
439.91	4.02
440.269	4.01
440.628	4.1
440.987	4.02
441.345	3.95
441.704	3.97
442.063	3.93
442.421	4
442.78	3.92
443.138	4.12
443.497	4.01
443.855	3.96
444.214	4.04
444.572	4.16
444.93	4.04
445.288	4.1
445.647	4.14
446.005	4.11
446.363	4.03
446.721	4.03
447.079	4.09
447.437	3.96
447.795	4.03
448.153	4.01
448.51	3.98
448.868	4.1
449.226	4.09
449.584	4.03
449.941	4.11
450.299	3.98
450.656	4.07
451.014	4.23
451.371	4.23
451.729	4.02
452.086	4.1
452.443	4.17
452.801	3.99
453.158	4.19
453.515	4.09
453.872	4.09
454.229	4.13
454.586	4.08
454.943	4.26
455.3	4.18
455.657	4.18
456.014	4.13
456.371	4.23
456.727	4.07
457.084	3.93
457.441	4.15
457.797	4.21
458.154	4.12
458.51	4.16
458.867	4.12
459.223	4.19
459.58	4.27
459.936	4.17
460.292	4.2
460.648	4.19
461.005	4.12
461.361	4.08
461.717	3.98
462.073	4.14
462.429	4.02
462.785	4
463.141	4.11
463.496	4.27
463.852	4.27
464.208	4.24
464.564	4.24
464.919	4.26
465.275	4.13
465.631	4.28
465.986	4.36
466.342	4.28
466.697	4.06
467.052	4.28
467.408	4.21
467.763	4.15
468.118	4.3
468.473	4.34
468.829	4.1
469.184	4.18
469.539	4.18
469.894	4.4
470.249	4.39
470.603	4.22
470.958	4.3
471.313	4.4
471.668	4.47
472.023	4.09
472.377	4.22
472.732	4.17
473.086	4.17
473.441	4.23
473.795	4.25
474.15	4.17
474.504	4.35
474.859	4.25
475.213	4.32
475.567	4.35
475.921	4.44
476.275	4.23
476.63	4.35
476.984	4.36
477.338	4.37
477.692	4.15
478.045	4.21
478.399	4.4
478.753	4.21
479.107	4.41
479.461	4.26
479.814	4.23
480.168	4.32
480.521	4.32
480.875	4.4
481.228	4.24
481.582	4.25
481.935	4.25
482.289	4.21
482.642	4.33
482.995	4.23
483.348	4.18
483.701	4.21
484.055	4.26
484.408	4.21
484.761	4.15
485.114	3.95
485.466	3.9
485.819	3.96
486.172	3.98
486.525	4.11
486.878	4.18
487.23	4.16
487.583	4.2
487.936	4.24
488.288	4.21
488.641	4.09
488.993	4.09
489.345	4.01
489.698	4.04
490.05	4.09
490.402	4.12
490.754	4.15
491.107	4.19
491.459	4.26
491.811	4.33
492.163	4.26
492.515	4.25
492.866	4.18
493.218	4.1
493.57	4.09
493.922	4.15
494.274	4.21
494.625	4.35
494.977	4.35
495.328	4.43
495.68	4.38
496.031	4.37
496.383	4.46
496.734	4.36
497.086	4.35
497.437	4.46
497.788	4.26
498.139	4.33
498.49	4.33
498.842	4.35
499.193	4.42
499.544	4.43
499.894	4.37
500.245	4.37
500.596	4.42
500.947	4.37
501.298	4.38
501.648	4.43
501.999	4.44
502.35	4.41
502.7	4.41
503.051	4.44
503.401	4.56
503.752	4.35
504.102	4.33
504.452	4.48
504.803	4.44
505.153	4.38
505.503	4.44
505.853	4.49
506.203	4.43
506.553	4.35
506.903	4.25
507.253	4.44
507.603	4.42
507.953	4.41
508.303	4.33
508.652	4.45
509.002	4.46
509.352	4.4
509.701	4.45
510.051	4.48
510.4	4.46
510.75	4.36
511.099	4.27
511.449	4.44
511.798	4.31
512.147	4.38
512.496	4.33
512.846	4.56
513.195	4.38
513.544	4.51
513.893	4.29
514.242	4.32
514.591	4.43
514.939	4.47
515.288	4.46
515.637	4.42
515.986	4.5
516.334	4.55
516.683	4.56
517.032	4.52
517.38	4.52
517.729	4.51
518.077	4.53
518.426	4.46
518.774	4.49
519.122	4.63
519.47	4.5
519.819	4.36
520.167	4.39
520.515	4.37
520.863	4.46
521.211	4.37
521.559	4.45
521.907	4.46
522.255	4.36
522.602	4.65
522.95	4.42
523.298	4.64
523.645	4.53
523.993	4.58
524.341	4.7
524.688	4.56
525.036	4.58
525.383	4.52
525.73	4.51
526.078	4.51
526.425	4.43
526.772	4.49
527.119	4.32
527.466	4.44
527.814	4.48
528.161	4.49
528.508	4.47
528.854	4.35
529.201	4.45
529.548	4.37
529.895	4.27
530.242	4.2
530.588	4.26
530.935	4.28
531.282	4.36
531.628	4.4
531.975	4.54
532.321	4.45
532.667	4.46
533.014	4.51
533.36	4.53
533.706	4.55
534.052	4.46
534.399	4.43
534.745	4.39
535.091	4.4
535.437	4.34
535.783	4.4
536.129	4.54
536.474	4.62
536.82	4.5
537.166	4.56
537.512	4.51
537.857	4.46
538.203	4.42
538.549	4.54
538.894	4.47
539.239	4.56
539.585	4.62
539.93	4.65
540.276	4.83
540.621	4.71
540.966	4.73
541.311	4.62
541.656	4.52
542.001	4.49
542.346	4.47
542.691	4.41
543.036	4.33
543.381	4.46
543.726	4.44
544.071	4.48
544.415	4.64
544.76	4.6
545.105	4.58
545.449	4.49
545.794	4.6
546.138	4.61
546.483	4.63
546.827	4.7
547.171	4.61
547.516	4.53
547.86	4.54
548.204	4.58
548.548	4.5
548.892	4.6
549.236	4.59
549.58	4.69
549.924	4.74
550.268	4.78
550.612	4.79
550.956	4.91
551.3	4.78
551.643	4.85
551.987	4.77
552.33	4.76
552.674	4.79
553.017	4.91
553.361	4.73
553.704	4.78
554.048	4.75
554.391	4.8
554.734	4.62
555.077	4.84
555.42	4.71
555.764	4.82
556.107	4.68
556.45	4.91
556.793	4.93
557.135	4.75
557.478	4.79
557.821	4.94
558.164	4.89
558.507	4.76
558.849	4.8
559.192	4.87
559.534	4.84
559.877	4.98
560.219	4.78
560.562	4.69
560.904	5
561.246	4.82
561.589	4.92
561.931	4.7
562.273	4.92
562.615	4.81
562.957	5.12
563.299	4.84
563.641	4.9
563.983	4.71
564.325	4.89
564.667	4.95
565.008	5.02
565.35	5
565.692	4.77
566.033	4.97
566.375	5.05
566.716	4.81
567.058	4.89
567.399	4.93
567.741	4.83
568.082	4.88
568.423	4.81
568.764	4.96
569.105	4.86
569.447	5.04
569.788	5.06
570.129	4.94
570.47	4.87
570.811	5
571.151	5.09
571.492	4.81
571.833	4.96
572.174	5.1
572.514	4.88
572.855	4.94
573.195	4.65
573.536	5.01
573.876	4.99
574.217	4.95
574.557	4.77
574.898	5.04
575.238	4.9
575.578	5.09
575.918	4.9
576.258	5.04
576.598	4.97
576.938	4.92
577.278	4.88
577.618	4.91
577.958	5.06
578.298	5.1
578.638	5.07
578.977	5.09
579.317	5.17
579.657	5.08
579.996	5.04
580.336	5.11
580.675	5.2
581.014	5.08
581.354	4.86
581.693	4.8
582.032	4.93
582.372	4.9
582.711	5.23
583.05	5.06
583.389	5.23
583.728	5.09
584.067	4.96
584.406	4.95
584.745	5.16
585.083	5.05
585.422	5.06
585.761	5.1
586.1	5.21
586.438	4.89
586.777	4.95
587.115	5.02
587.454	4.98
587.792	5.12
588.13	5.09
588.469	5.06
588.807	5.1
589.145	5.08
589.483	5.31
589.821	5.09
590.159	5.15
590.497	5.38
590.835	5.25
591.173	5.37
591.511	4.92
591.849	4.98
592.187	5.19
592.524	4.76
592.862	5.03
593.2	5.27
593.537	5.15
593.875	5.39
594.212	5
594.55	5.32
594.887	5.19
595.224	5.09
595.561	5.13
595.899	5.05
596.236	5.13
596.573	5.3
596.91	5.2
597.247	5.23
597.584	5.16
597.921	5.32
598.258	5.13
598.594	5.05
598.931	4.95
599.268	5.11
599.604	5.07
599.941	5.16
600.277	5.14
600.614	5.24
600.95	5.15
601.287	5.38
601.623	5.58
601.959	5.44
602.296	5.16
602.632	5.19
602.968	5.26
603.304	5.29
603.64	5.36
603.976	5.37
604.312	5.24
604.648	5.17
604.984	5.19
605.319	5.2
605.655	5.25
605.991	5.16
606.326	5.39
606.662	5.1
606.998	5.11
607.333	5.11
607.668	5.22
608.004	5.35
608.339	5.29
608.674	5.19
609.01	5.39
609.345	5.07
609.68	5.26
610.015	5.23
610.35	5.05
610.685	5.44
611.02	5.37
611.355	5.17
611.689	5.04
612.024	5.12
612.359	5.16
612.694	5.22
613.028	5.31
613.363	5.36
613.697	5.25
614.032	5.45
614.366	5.26
614.7	5.36
615.035	5.28
615.369	5.18
615.703	5.47
616.037	5.1
616.371	5.24
616.705	5.61
617.039	5.61
617.373	5.59
617.707	5.3
618.041	5.78
618.375	5.29
618.709	5.6
619.042	5.64
619.376	5.52
619.71	5.5
620.043	5.25
620.377	5.37
620.71	5.46
621.043	5.4
621.377	5.45
621.71	5.4
622.043	5.42
622.376	5.72
622.709	5.07
623.043	5.43
623.376	5.38
623.709	5.49
624.041	5.57
624.374	5.29
624.707	5.51
625.04	5.48
625.373	5.02
625.705	5.71
626.038	5.41
626.37	5.36
626.703	5.45
627.035	5.4
627.368	5.15
627.7	5.2
628.032	5.37
628.365	5.37
628.697	5.36
629.029	5.61
629.361	5.22
629.693	5.33
630.025	5.52
630.357	5.71
630.689	5.41
631.021	5.31
631.353	5.48
631.684	5.5
632.016	5.39
632.348	5.6
632.679	5.15
633.011	5.42
633.342	5.36
633.674	5.32
634.005	5.31
634.336	5.66
634.668	5.58
634.999	5.31
635.33	5.53
635.661	5.89
635.992	5.67
636.323	5.21
636.654	5.47
636.985	5.23
637.316	5.64
637.647	5.74
637.977	5.71
638.308	5.75
638.639	5.33
638.969	5.26
639.3	5.92
639.63	6
639.961	5.86
640.291	6.11
640.622	5.9
640.952	5.62
641.282	5.32
641.612	5.45
641.943	5.5
642.273	5.73
642.603	5.9
642.933	5.68
643.263	5.26
643.592	5.69
643.922	5.5
644.252	5.76
644.582	5.51
644.911	5.57
645.241	5.51
645.571	5.58
645.9	5.57
646.23	5.71
646.559	5.85
646.888	6
647.218	5.74
647.547	5.58
647.876	5.57
648.205	5.7
648.534	5.62
648.863	5.64
649.192	5.68
649.521	5.69
649.85	5.77
650.179	5.85
650.508	5.62
650.837	6.56
651.165	5.74
651.494	5.96
651.822	5.45
652.151	5.5
652.479	5.35
652.808	5.6
653.136	5.88
653.465	5.82
653.793	5.84
654.121	5.78
654.449	5.34
654.777	5.96
655.105	5.43
655.433	5.52
655.761	5.85
656.089	5.6
656.417	5.55
656.745	5.87
657.073	5.75
657.4	5.49
657.728	5.7
658.056	6.19
658.383	5.25
658.711	5.83
659.038	5.69
659.365	5.45
659.693	6.23
660.02	6.08
660.347	5.88
660.674	5.75
661.001	5.62
661.329	5.61
661.656	5.72
661.982	5.96
662.309	5.78
662.636	5.88
662.963	5.93
663.29	5.53
663.616	5.45
663.943	5.68
664.27	6.05
664.596	6.12
664.923	5.57
665.249	6.22
665.576	6.1
665.902	6.25
666.228	5.98
666.554	6.21
666.881	5.76
667.207	6.29
667.533	6.22
667.859	6
668.185	6.56
668.511	5.65
668.837	6.19
669.162	5.88
669.488	5.9
669.814	5.86
670.139	6.1
670.465	5.29
670.791	5.64
671.116	5.54
671.442	5.78
671.767	6.16
672.092	5.76
672.418	5.46
672.743	5.63
673.068	6.12
673.393	6.21
673.718	6.43
674.043	6.15
674.368	6.01
674.693	5.92
675.018	5.74
675.343	6.46
675.667	6.41
675.992	6.39
676.317	5.69
676.641	5.64
676.966	6.54
677.29	5.98
677.615	5.59
677.939	6.07
678.264	5.75
678.588	5.32
678.912	6.04
679.236	6.17
679.56	6.33
679.885	5.81
680.209	6.03
680.532	6.57
680.856	6.34
681.18	5.88
681.504	5.94
681.828	6.3
682.152	5.77
682.475	5.71
682.799	5.78
683.122	6.33
683.446	6.5
683.769	6.53
684.093	6.31
684.416	5.88
684.739	6.35
685.062	5.97
685.386	6.47
685.709	6.2
686.032	6.01
686.355	6.18
686.678	6.51
687.001	6.1
687.324	6.39
687.646	5.44
687.969	6.61
688.292	7.28
688.614	6.14
688.937	6.27
689.26	5.52
689.582	6.46
689.904	6.49
690.227	6.44
690.549	6.42
690.871	6
691.194	5.83
691.516	5.9
691.838	6.03
692.16	6.36
692.482	6.12
692.804	6.29
