Data from 20-8_crown_Reflection__0__111.txt Node

Date: Fri Nov 11 20:59:56 CST 2022
User: ToomeyLab
Spectrometer: FLMS14357
Trigger mode: 0
Integration Time (sec): 1.000000E-2
Scans to average: 100
Electric dark correction enabled: true
Nonlinearity correction enabled: false
Boxcar width: 0
XAxis mode: Wavelengths
Number of Pixels in Spectrum: 2048
>>>>>Begin Spectral Data<<<<<
189.047	139.35
189.435	139.35
189.823	139.35
190.211	-50.87
190.599	142.23
190.987	38.17
191.375	-20.1
191.763	315.57
192.151	-41.91
192.538	96.02
192.926	68.06
193.314	108.96
193.702	-91.95
194.089	30.34
194.477	100.72
194.864	169.93
195.252	71.59
195.639	-2.61
196.027	0.98
196.414	10.19
196.801	34.41
197.189	50.19
197.576	-40.31
197.963	181.19
198.351	7.3
198.738	0.48
199.125	6.08
199.512	21.67
199.899	-92.45
200.286	4.16
200.673	18.74
201.06	22.62
201.447	4.75
201.833	-7.59
202.22	-13.74
202.607	38.91
202.994	21.38
203.38	11.08
203.767	26.36
204.154	11.32
204.54	16.06
204.927	24.67
205.313	-2.27
205.699	-39.41
206.086	14.93
206.472	7.87
206.858	52
207.245	23.67
207.631	16.93
208.017	23.71
208.403	36.4
208.789	-1.72
209.175	42.58
209.561	30.66
209.947	-7.88
210.333	-0.22
210.719	5.87
211.105	35.56
211.491	12.95
211.876	1.21
212.262	29.74
212.648	12.08
213.034	-28.71
213.419	-43.64
213.805	4.92
214.19	-2.67
214.576	29.77
214.961	-13.35
215.346	-38.27
215.732	-0.28
216.117	26.84
216.502	-19.48
216.888	-6.77
217.273	13.25
217.658	-4.96
218.043	13.9
218.428	9.19
218.813	9.55
219.198	-3.78
219.583	5.98
219.968	0.24
220.353	-13.07
220.738	-31.1
221.122	4.29
221.507	-38.36
221.892	-26.99
222.276	7.02
222.661	9.21
223.046	-13.51
223.43	-4.36
223.815	6.35
224.199	5.65
224.583	1.72
224.968	-5.37
225.352	6.49
225.736	-6
226.121	4.08
226.505	-0.35
226.889	-1.88
227.273	1.75
227.657	0.08
228.041	0.43
228.425	1.09
228.809	0.92
229.193	5.04
229.577	4.45
229.961	4.21
230.344	3.49
230.728	2.85
231.112	1.77
231.495	3.68
231.879	2.03
232.263	3.15
232.646	2.57
233.03	2.53
233.413	4.92
233.797	3.12
234.18	1.27
234.563	2.74
234.946	2.23
235.33	3.47
235.713	2.44
236.096	4.67
236.479	3.98
236.862	4.46
237.245	3.84
237.628	3.7
238.011	2.55
238.394	4.98
238.777	3.43
239.16	6.22
239.543	3.52
239.925	3.88
240.308	2.18
240.691	3.31
241.073	1.1
241.456	2.02
241.838	3.22
242.221	2.64
242.603	3.72
242.986	2.54
243.368	3.43
243.75	3.4
244.133	3.26
244.515	2.98
244.897	3.19
245.279	2.54
245.661	3.27
246.043	2.14
246.425	3.53
246.807	2.51
247.189	2.72
247.571	3.19
247.953	2.8
248.335	2.93
248.717	3.08
249.098	3.14
249.48	2.83
249.862	3.51
250.243	3.22
250.625	2.72
251.006	3.13
251.388	3.73
251.769	3.19
252.151	3.26
252.532	2.85
252.913	3.53
253.295	2.41
253.676	2.72
254.057	2.46
254.438	2.88
254.819	1.7
255.2	2.71
255.581	3.48
255.962	1.33
256.343	2.35
256.724	2.53
257.105	3.35
257.486	2.35
257.867	3
258.247	3.17
258.628	2.89
259.009	2.61
259.389	3.3
259.77	3.51
260.15	3.11
260.531	2.87
260.911	2.6
261.292	2.98
261.672	2.66
262.052	2.8
262.432	3.04
262.813	2.79
263.193	2.32
263.573	2.86
263.953	3.06
264.333	2.5
264.713	2.66
265.093	2.48
265.473	2.33
265.853	2.89
266.233	3.16
266.612	2.39
266.992	2.13
267.372	3.07
267.752	2.53
268.131	2.37
268.511	2.83
268.89	2.38
269.27	2.54
269.649	2.45
270.029	3.12
270.408	2.22
270.787	3.03
271.167	2.14
271.546	2.9
271.925	2.8
272.304	2.9
272.683	2.45
273.062	2.26
273.441	2.71
273.82	2.33
274.199	2.68
274.578	2.64
274.957	2.94
275.336	3.22
275.715	3.09
276.093	2.51
276.472	2.42
276.851	2.67
277.229	2.62
277.608	2.78
277.986	2.85
278.365	2.65
278.743	2.64
279.122	2.65
279.5	2.57
279.878	2.75
280.257	2.54
280.635	2.49
281.013	2.45
281.391	2.25
281.769	2.48
282.147	2.32
282.525	2.5
282.903	2.35
283.281	3
283.659	2.78
284.037	2.34
284.415	2.33
284.792	2.36
285.17	2.77
285.548	2.21
285.925	2.64
286.303	2.31
286.68	2.83
287.058	2.52
287.435	2.84
287.813	2.33
288.19	2.35
288.567	2.61
288.945	2.78
289.322	2.76
289.699	2.26
290.076	3.01
290.453	2.71
290.83	2.64
291.207	2.61
291.584	2.73
291.961	2.55
292.338	2.86
292.715	2.89
293.092	2.7
293.469	2.45
293.845	2.33
294.222	2.07
294.599	2.68
294.975	2.61
295.352	2.32
295.728	2.49
296.105	2.42
296.481	2.67
296.858	2.45
297.234	2.51
297.61	2.24
297.986	2.61
298.363	2.9
298.739	2.74
299.115	2.96
299.491	2.8
299.867	2.54
300.243	2.66
300.619	3.06
300.995	2.55
301.371	3.31
301.746	3.23
302.122	2.79
302.498	2.71
302.874	2.39
303.249	2.54
303.625	2.51
304	2.09
304.376	2.83
304.751	2.36
305.127	3.36
305.502	2.88
305.878	3.47
306.253	2.83
306.628	2.65
307.003	2.74
307.378	2.65
307.754	2.99
308.129	2.99
308.504	2.75
308.879	2.78
309.254	3.06
309.629	2.8
310.003	3.02
310.378	2.78
310.753	3.18
311.128	3.11
311.502	2.91
311.877	2.9
312.252	2.42
312.626	2.5
313.001	2.73
313.375	2.72
313.75	2.79
314.124	2.3
314.498	2.8
314.873	2.67
315.247	2.65
315.621	3.23
315.995	3.15
316.369	2.83
316.743	2.58
317.117	2.56
317.491	2.76
317.865	2.49
318.239	2.75
318.613	2.61
318.987	2.82
319.361	2.02
319.734	2.57
320.108	2.57
320.482	3.1
320.855	2.25
321.229	2.6
321.602	2.83
321.976	2.88
322.349	3.47
322.723	3.3
323.096	3.02
323.469	3.06
323.843	2.74
324.216	1.94
324.589	2.97
324.962	2.86
325.335	2.68
325.708	2.84
326.081	2.84
326.454	2.28
326.827	2.46
327.2	3.31
327.573	3.53
327.945	2.91
328.318	2.76
328.691	3.29
329.063	2.74
329.436	2.79
329.809	2.89
330.181	2.66
330.553	2.23
330.926	2.71
331.298	2.62
331.671	2.92
332.043	2.01
332.415	2.92
332.787	3.2
333.159	2.75
333.532	3.06
333.904	3.1
334.276	2.6
334.648	2.96
335.02	2.8
335.391	2.89
335.763	2.98
336.135	2.32
336.507	2.77
336.879	3.15
337.25	3.2
337.622	3.05
337.993	3.25
338.365	3.17
338.736	3.26
339.108	2.85
339.479	2.49
339.851	3.03
340.222	2.9
340.593	3.34
340.964	2.94
341.336	2.76
341.707	2.59
342.078	2.59
342.449	2.9
342.82	3.01
343.191	2.99
343.562	3.03
343.933	2.93
344.303	3.16
344.674	2.6
345.045	2.73
345.416	3.28
345.786	2.49
346.157	2.6
346.527	2.93
346.898	2.4
347.268	2.68
347.639	3.03
348.009	2.73
348.38	3.09
348.75	2.66
349.12	3.41
349.49	3.18
349.861	2.91
350.231	3.31
350.601	3.11
350.971	2.83
351.341	3.33
351.711	2.81
352.081	3.05
352.45	2.93
352.82	2.74
353.19	3.39
353.56	2.8
353.929	3.07
354.299	2.74
354.669	3.14
355.038	2.98
355.408	3.03
355.777	2.91
356.147	3.37
356.516	3.33
356.885	3.3
357.254	3.08
357.624	2.6
357.993	3.1
358.362	3
358.731	2.85
359.1	2.97
359.469	2.53
359.838	2.9
360.207	2.97
360.576	3.08
360.945	3.2
361.314	2.75
361.682	3.05
362.051	2.93
362.42	3.2
362.788	3.1
363.157	2.92
363.525	2.89
363.894	2.85
364.262	3.26
364.631	3.28
364.999	2.94
365.367	3.11
365.735	2.9
366.104	3.09
366.472	3.12
366.84	2.73
367.208	3.07
367.576	3.51
367.944	3.04
368.312	2.93
368.68	2.85
369.048	3.14
369.416	3.12
369.783	3.28
370.151	3.43
370.519	3.35
370.886	2.9
371.254	3.27
371.621	2.94
371.989	3.07
372.356	3.4
372.724	3.38
373.091	3.38
373.458	3
373.826	2.84
374.193	2.83
374.56	2.94
374.927	2.84
375.294	3.28
375.661	3.3
376.028	3.04
376.395	3.3
376.762	3.25
377.129	3.15
377.496	3.04
377.863	3.31
378.229	3.13
378.596	2.95
378.963	3.11
379.329	3.2
379.696	3.28
380.062	3.14
380.429	3.25
380.795	3.48
381.161	3.36
381.528	3.14
381.894	3.19
382.26	3.12
382.626	3.48
382.993	3.49
383.359	3.48
383.725	2.75
384.091	3.34
384.457	3.34
384.823	3.23
385.188	3.22
385.554	3.21
385.92	3.31
386.286	3.27
386.651	3.35
387.017	3.14
387.383	3.36
387.748	2.93
388.114	3
388.479	3.1
388.845	3.14
389.21	3.15
389.575	3.57
389.94	3.24
390.306	2.99
390.671	3.06
391.036	3.23
391.401	3.11
391.766	3.25
392.131	3.05
392.496	3.05
392.861	3.19
393.226	3.13
393.591	3.28
393.956	3.24
394.32	3.31
394.685	3.29
395.05	3.61
395.414	3.46
395.779	3.43
396.143	3.29
396.508	3.49
396.872	3.34
397.236	3.3
397.601	3.32
397.965	3.25
398.329	3.03
398.694	3.36
399.058	3.43
399.422	3.46
399.786	3.5
400.15	3.44
400.514	3.37
400.878	3.24
401.242	3.31
401.605	3.55
401.969	3.34
402.333	3.07
402.697	3.39
403.06	3.45
403.424	3.25
403.787	3.16
404.151	3.28
404.514	3.39
404.878	3.32
405.241	3.35
405.604	3.36
405.968	3.38
406.331	2.91
406.694	3.17
407.057	3.52
407.42	3.51
407.783	3.49
408.146	3.29
408.509	3.54
408.872	3.39
409.235	3.58
409.598	3.34
409.961	3.6
410.323	3.29
410.686	3.45
411.049	3.25
411.411	3.28
411.774	3.35
412.136	3.22
412.499	3.45
412.861	3.35
413.223	3.07
413.586	3.56
413.948	3.78
414.31	3.36
414.672	3.43
415.035	3.56
415.397	3.2
415.759	3.14
416.121	3.37
416.483	3.35
416.845	3.46
417.206	3.23
417.568	3.29
417.93	3.36
418.292	3.23
418.653	3.43
419.015	3.37
419.377	3.42
419.738	3.31
420.1	3.38
420.461	3.36
420.822	3.22
421.184	3.34
421.545	3.36
421.906	3.22
422.267	3.26
422.629	3.16
422.99	3.24
423.351	3.27
423.712	3.32
424.073	3.33
424.434	3.41
424.795	3.43
425.155	3.34
425.516	3.33
425.877	3.25
426.238	3.26
426.598	3.25
426.959	3.27
427.32	3.36
427.68	3.41
428.041	3.47
428.401	3.1
428.761	3.4
429.122	3.3
429.482	3.27
429.842	3.28
430.202	3.36
430.563	3.44
430.923	3.48
431.283	3.2
431.643	3.34
432.003	3.55
432.363	3.51
432.722	3.65
433.082	3.55
433.442	3.45
433.802	3.56
434.161	3.57
434.521	3.52
434.881	3.56
435.24	3.41
435.6	3.44
435.959	3.4
436.319	3.44
436.678	3.38
437.037	3.49
437.396	3.62
437.756	3.51
438.115	3.44
438.474	3.34
438.833	3.56
439.192	3.51
439.551	3.45
439.91	3.42
440.269	3.4
440.628	3.66
440.987	3.47
441.345	3.41
441.704	3.44
442.063	3.38
442.421	3.44
442.78	3.24
443.138	3.42
443.497	3.37
443.855	3.54
444.214	3.47
444.572	3.54
444.93	3.52
445.288	3.37
445.647	3.61
446.005	3.57
446.363	3.65
446.721	3.62
447.079	3.58
447.437	3.37
447.795	3.51
448.153	3.37
448.51	3.44
448.868	3.46
449.226	3.54
449.584	3.39
449.941	3.42
450.299	3.44
450.656	3.51
451.014	3.44
451.371	3.51
451.729	3.65
452.086	3.46
452.443	3.47
452.801	3.63
453.158	3.47
453.515	3.6
453.872	3.36
454.229	3.63
454.586	3.56
454.943	3.51
455.3	3.62
455.657	3.57
456.014	3.61
456.371	3.59
456.727	3.69
457.084	3.2
457.441	3.57
457.797	3.44
458.154	3.68
458.51	3.66
458.867	3.48
459.223	3.65
459.58	3.63
459.936	3.6
460.292	3.62
460.648	3.55
461.005	3.53
461.361	3.49
461.717	3.4
462.073	3.57
462.429	3.47
462.785	3.48
463.141	3.61
463.496	3.42
463.852	3.69
464.208	3.61
464.564	3.49
464.919	3.47
465.275	3.43
465.631	3.49
465.986	3.76
466.342	3.6
466.697	3.58
467.052	3.6
467.408	3.68
467.763	3.6
468.118	3.7
468.473	3.67
468.829	3.66
469.184	3.59
469.539	3.6
469.894	3.73
470.249	3.73
470.603	3.59
470.958	3.62
471.313	3.7
471.668	3.8
472.023	3.4
472.377	3.78
472.732	3.5
473.086	3.49
473.441	3.52
473.795	3.57
474.15	3.7
474.504	3.71
474.859	3.77
475.213	3.74
475.567	3.8
475.921	3.66
476.275	3.63
476.63	3.61
476.984	3.83
477.338	3.76
477.692	3.48
478.045	3.44
478.399	3.71
478.753	3.52
479.107	3.63
479.461	3.59
479.814	3.62
480.168	3.69
480.521	3.73
480.875	3.67
481.228	3.52
481.582	3.72
481.935	3.51
482.289	3.55
482.642	3.57
482.995	3.57
483.348	3.5
483.701	3.66
484.055	3.62
484.408	3.49
484.761	3.48
485.114	3.36
485.466	3.28
485.819	3.28
486.172	3.32
486.525	3.43
486.878	3.49
487.23	3.49
487.583	3.49
487.936	3.56
488.288	3.52
488.641	3.4
488.993	3.46
489.345	3.35
489.698	3.41
490.05	3.45
490.402	3.46
490.754	3.53
491.107	3.49
491.459	3.53
491.811	3.59
492.163	3.65
492.515	3.59
492.866	3.48
493.218	3.38
493.57	3.45
493.922	3.46
494.274	3.55
494.625	3.59
494.977	3.61
495.328	3.64
495.68	3.67
496.031	3.65
496.383	3.65
496.734	3.62
497.086	3.68
497.437	3.69
497.788	3.53
498.139	3.58
498.49	3.59
498.842	3.48
499.193	3.64
499.544	3.71
499.894	3.64
500.245	3.75
500.596	3.71
500.947	3.63
501.298	3.66
501.648	3.64
501.999	3.6
502.35	3.77
502.7	3.85
503.051	3.62
503.401	3.77
503.752	3.58
504.102	3.79
504.452	3.66
504.803	3.72
505.153	3.7
505.503	3.68
505.853	3.71
506.203	3.84
506.553	3.59
506.903	3.64
507.253	3.58
507.603	3.7
507.953	3.58
508.303	3.66
508.652	3.66
509.002	3.66
509.352	3.64
509.701	3.71
510.051	3.58
510.4	3.7
510.75	3.68
511.099	3.56
511.449	3.69
511.798	3.57
512.147	3.65
512.496	3.66
512.846	3.77
513.195	3.67
513.544	3.65
513.893	3.58
514.242	3.63
514.591	3.69
514.939	3.72
515.288	3.79
515.637	3.72
515.986	3.61
516.334	3.7
516.683	3.68
517.032	3.76
517.38	3.7
517.729	3.73
518.077	3.76
518.426	3.81
518.774	3.75
519.122	3.83
519.47	3.73
519.819	3.61
520.167	3.6
520.515	3.57
520.863	3.72
521.211	3.61
521.559	3.63
521.907	3.68
522.255	3.72
522.602	3.65
522.95	3.69
523.298	3.84
523.645	3.84
523.993	3.8
524.341	3.88
524.688	3.81
525.036	3.78
525.383	3.67
525.73	3.71
526.078	3.74
526.425	3.66
526.772	3.66
527.119	3.51
527.466	3.62
527.814	3.69
528.161	3.66
528.508	3.67
528.854	3.65
529.201	3.59
529.548	3.54
529.895	3.47
530.242	3.44
530.588	3.48
530.935	3.49
531.282	3.58
531.628	3.6
531.975	3.66
532.321	3.63
532.667	3.66
533.014	3.68
533.36	3.72
533.706	3.79
534.052	3.63
534.399	3.57
534.745	3.56
535.091	3.57
535.437	3.58
535.783	3.61
536.129	3.68
536.474	3.72
536.82	3.69
537.166	3.73
537.512	3.68
537.857	3.65
538.203	3.57
538.549	3.68
538.894	3.67
539.239	3.68
539.585	3.79
539.93	3.75
540.276	3.86
540.621	3.81
540.966	3.88
541.311	3.73
541.656	3.79
542.001	3.66
542.346	3.73
542.691	3.63
543.036	3.51
543.381	3.52
543.726	3.58
544.071	3.66
544.415	3.68
544.76	3.74
545.105	3.66
545.449	3.64
545.794	3.7
546.138	3.71
546.483	3.79
546.827	3.88
547.171	3.79
547.516	3.68
547.86	3.7
548.204	3.71
548.548	3.74
548.892	3.77
549.236	3.82
549.58	3.8
549.924	3.92
550.268	3.91
550.612	3.85
550.956	3.97
551.3	3.83
551.643	3.86
551.987	3.78
552.33	3.83
552.674	3.86
553.017	3.99
553.361	3.73
553.704	3.87
554.048	3.67
554.391	3.94
554.734	3.83
555.077	3.87
555.42	3.85
555.764	3.89
556.107	3.74
556.45	3.92
556.793	3.81
557.135	3.83
557.478	3.98
557.821	4
558.164	3.92
558.507	3.86
558.849	3.94
559.192	3.9
559.534	3.96
559.877	4.07
560.219	3.93
560.562	3.87
560.904	4.01
561.246	3.72
561.589	3.88
561.931	3.95
562.273	4.08
562.615	3.93
562.957	3.98
563.299	3.8
563.641	3.84
563.983	3.83
564.325	3.8
564.667	4.01
565.008	3.92
565.35	3.99
565.692	3.59
566.033	3.82
566.375	4.08
566.716	4
567.058	3.93
567.399	4.05
567.741	4.03
568.082	3.96
568.423	3.91
568.764	4.04
569.105	3.97
569.447	4.06
569.788	3.92
570.129	4.02
570.47	3.77
570.811	4.03
571.151	4.02
571.492	4.05
571.833	4
572.174	4.05
572.514	3.9
572.855	3.83
573.195	3.74
573.536	3.92
573.876	3.88
574.217	4.02
574.557	3.96
574.898	3.98
575.238	4.03
575.578	3.99
575.918	3.97
576.258	3.94
576.598	4.03
576.938	3.94
577.278	3.93
577.618	3.88
577.958	3.98
578.298	3.95
578.638	3.97
578.977	3.98
579.317	4.12
579.657	4.01
579.996	3.96
580.336	3.94
580.675	4.19
581.014	4.1
581.354	3.89
581.693	3.92
582.032	4.11
582.372	4.09
582.711	4.01
583.05	3.95
583.389	3.98
583.728	4.04
584.067	3.98
584.406	3.99
584.745	4.36
585.083	4.11
585.422	3.98
585.761	4.12
586.1	3.82
586.438	4.03
586.777	4.21
587.115	3.89
587.454	3.9
587.792	4.14
588.13	3.95
588.469	4.05
588.807	3.99
589.145	3.84
589.483	4.26
589.821	4.08
590.159	4.18
590.497	4.24
590.835	4.19
591.173	4.11
591.511	3.94
591.849	4.01
592.187	3.87
592.524	4.05
592.862	3.98
593.2	4.12
593.537	4.15
593.875	4.24
594.212	4.18
594.55	4.21
594.887	3.98
595.224	3.96
595.561	3.96
595.899	4
596.236	4.05
596.573	4.06
596.91	4.01
597.247	4.17
597.584	3.99
597.921	4.26
598.258	3.86
598.594	4.09
598.931	3.96
599.268	3.99
599.604	4.13
599.941	4.18
600.277	4.38
600.614	4.31
600.95	3.94
601.287	4.2
601.623	4.59
601.959	4.17
602.296	3.97
602.632	4.02
602.968	4.02
603.304	4.09
603.64	4.26
603.976	4.37
604.312	4.27
604.648	4.26
604.984	4.09
605.319	4.05
605.655	4
605.991	4
606.326	4.14
606.662	4.18
606.998	3.97
607.333	4.12
607.668	3.9
608.004	3.92
608.339	4.15
608.674	4.15
609.01	4.11
609.345	4.08
609.68	3.99
610.015	4.11
610.35	3.86
610.685	4.04
611.02	4
611.355	4.04
611.689	3.97
612.024	4.16
612.359	4.03
612.694	4.09
613.028	3.87
613.363	4.19
613.697	4.16
614.032	4.53
614.366	4.06
614.7	4.13
615.035	4.01
615.369	3.92
615.703	3.91
616.037	4.34
616.371	4.09
616.705	4.35
617.039	4.32
617.373	4.12
617.707	3.99
618.041	4.23
618.375	4.11
618.709	4.53
619.042	3.91
619.376	4.28
619.71	4.08
620.043	4.25
620.377	4.29
620.71	4.22
621.043	4.07
621.377	4.22
621.71	4.09
622.043	4.29
622.376	4.46
622.709	4.02
623.043	4.28
623.376	4.4
623.709	4.39
624.041	4.26
624.374	4.08
624.707	4.38
625.04	4.07
625.373	4.52
625.705	4.09
626.038	4.55
626.37	4.35
626.703	4.07
627.035	4.23
627.368	3.89
627.7	4.32
628.032	4.28
628.365	4.41
628.697	4.24
629.029	3.96
629.361	4.05
629.693	4.19
630.025	4.2
630.357	4.33
630.689	4.19
631.021	3.97
631.353	4.27
631.684	4.15
632.016	4.22
632.348	4.25
632.679	4.2
633.011	4.64
633.342	4.45
633.674	4.25
634.005	4.32
634.336	4.34
634.668	4.37
634.999	4.14
635.33	4.16
635.661	4.53
635.992	4.38
636.323	4.07
636.654	4.29
636.985	4.14
637.316	4.2
637.647	4.63
637.977	4.44
638.308	4.1
638.639	4.16
638.969	4.44
639.3	4.37
639.63	4.8
639.961	4.3
640.291	4.44
640.622	4.35
640.952	4.09
641.282	4.02
641.612	4.38
641.943	4.55
642.273	4.3
642.603	4.49
642.933	4.48
643.263	4.33
643.592	4.41
643.922	4.13
644.252	4.58
644.582	4.73
644.911	4.18
645.241	4.33
645.571	4.43
645.9	4.59
646.23	4.45
646.559	4.5
646.888	4.33
647.218	4.47
647.547	4.46
647.876	4.13
648.205	4.26
648.534	4.15
648.863	4.43
649.192	4.34
649.521	4.32
649.85	4.57
650.179	4.28
650.508	4.51
650.837	4.58
651.165	4.09
651.494	4.98
651.822	4.21
652.151	3.94
652.479	3.85
652.808	4.34
653.136	4.14
653.465	4.65
653.793	4.53
654.121	4.18
654.449	3.99
654.777	4.92
655.105	4.45
655.433	4.35
655.761	4.56
656.089	4.69
656.417	3.94
656.745	4.22
657.073	4.39
657.4	4.36
657.728	4.73
658.056	4.65
658.383	4.44
658.711	4.3
659.038	4.7
659.365	4.48
659.693	4.48
660.02	4.95
660.347	4.8
660.674	4.4
661.001	4.19
661.329	4.39
661.656	4.45
661.982	4.55
662.309	4.35
662.636	4.79
662.963	4.36
663.29	4.62
663.616	4.13
663.943	4.45
664.27	4.4
664.596	4.45
664.923	4.61
665.249	4.55
665.576	5.07
665.902	4.77
666.228	4.65
666.554	4.36
666.881	4.16
667.207	4.9
667.533	4.84
667.859	4.64
668.185	4.65
668.511	4.04
668.837	4.41
669.162	4.94
669.488	4.82
669.814	4.48
670.139	4.42
670.465	4.36
670.791	4.58
671.116	4.33
671.442	4.6
671.767	4.61
672.092	4.95
672.418	4.42
672.743	4.42
673.068	4.78
673.393	5.17
673.718	4.78
674.043	5.06
674.368	3.97
674.693	4.89
675.018	4.71
675.343	4.91
675.667	4.79
675.992	5.59
676.317	4.21
676.641	4.05
676.966	5.01
677.29	4.77
677.615	4.85
677.939	4.46
678.264	4.75
678.588	4.94
678.912	4.64
679.236	4.21
679.56	4.85
679.885	4.47
680.209	4.72
680.532	5.22
680.856	5.36
681.18	5.05
681.504	4.77
681.828	4.66
682.152	4.82
682.475	4.65
682.799	4.66
683.122	5.13
683.446	4.9
683.769	4.95
684.093	4.95
684.416	4.76
684.739	5.09
685.062	4.29
685.386	4.75
685.709	5.17
686.032	4.76
686.355	5.03
686.678	4.31
687.001	4.31
687.324	4.65
687.646	4.03
687.969	4.57
688.292	5.26
688.614	5.2
688.937	5.02
689.26	4.12
689.582	5.28
689.904	5.17
690.227	5.22
690.549	4.8
690.871	4.41
691.194	4.69
691.516	4.02
691.838	4.73
692.16	4.69
692.482	4.16
692.804	4.64
693.126	4.68
