Data from 20-8_chest_Reflection__3__108.txt Node

Date: Fri Nov 11 20:58:35 CST 2022
User: ToomeyLab
Spectrometer: FLMS14357
Trigger mode: 0
Integration Time (sec): 1.000000E-2
Scans to average: 100
Electric dark correction enabled: true
Nonlinearity correction enabled: false
Boxcar width: 0
XAxis mode: Wavelengths
Number of Pixels in Spectrum: 2048
>>>>>Begin Spectral Data<<<<<
189.047	-363.26
189.435	-363.26
189.823	-363.26
190.211	-112.29
190.599	507.2
190.987	33.1
191.375	-25.93
191.763	-174.71
192.151	-78.06
192.538	387.31
192.926	-2.96
193.314	72.68
193.702	38.83
194.089	46.13
194.477	65.88
194.864	147.04
195.252	136.14
195.639	4.79
196.027	40.12
196.414	32.39
196.801	405.53
197.189	110.26
197.576	5.07
197.963	-888.92
198.351	-209.65
198.738	-34.25
199.125	1.82
199.512	33.06
199.899	-89.5
200.286	16.22
200.673	8.78
201.06	15.27
201.447	4.92
201.833	33.82
202.22	-31.71
202.607	28.92
202.994	24.87
203.38	11.19
203.767	31.91
204.154	34.82
204.54	-24.25
204.927	34.68
205.313	14.83
205.699	-18.72
206.086	20.97
206.472	8.52
206.858	20.17
207.245	28.13
207.631	1.52
208.017	0.83
208.403	-3.47
208.789	6.38
209.175	-7.4
209.561	18.92
209.947	-14.12
210.333	-22.17
210.719	-10.32
211.105	27.19
211.491	34.12
211.876	15.75
212.262	31
212.648	16.16
213.034	14.89
213.419	-39.23
213.805	16.19
214.19	-30.1
214.576	6.26
214.961	-51.95
215.346	-29.15
215.732	1.86
216.117	40.39
216.502	3.16
216.888	9
217.273	-19.49
217.658	-16.85
218.043	15.33
218.428	-13.76
218.813	-7.37
219.198	-2.35
219.583	33.09
219.968	-22.54
220.353	-31.46
220.738	-21.61
221.122	-3.38
221.507	-33.39
221.892	-22.34
222.276	14.99
222.661	13.21
223.046	-11.86
223.43	-22.26
223.815	2.93
224.199	-10.41
224.583	-16.6
224.968	-9.9
225.352	-0.81
225.736	1.03
226.121	-3.31
226.505	2.26
226.889	-7.71
227.273	3.27
227.657	-10.15
228.041	-3.82
228.425	-1.59
228.809	3.85
229.193	3.47
229.577	0.96
229.961	1.33
230.344	1.47
230.728	1.27
231.112	0.31
231.495	1.79
231.879	-0.28
232.263	-0.06
232.646	-0.39
233.03	1.03
233.413	1.53
233.797	1.77
234.18	-2.29
234.563	0.3
234.946	-2.23
235.33	1.19
235.713	0.32
236.096	-0.93
236.479	1.14
236.862	2.7
237.245	1.79
237.628	2.35
238.011	0.49
238.394	1.88
238.777	3.24
239.16	4.81
239.543	0.52
239.925	0.11
240.308	0.66
240.691	2.31
241.073	2.33
241.456	-0.11
241.838	2.59
242.221	1.6
242.603	1.86
242.986	0.93
243.368	1.3
243.75	1.93
244.133	1.89
244.515	1.41
244.897	1.82
245.279	1.23
245.661	1.73
246.043	1.47
246.425	1.3
246.807	0.48
247.189	1.26
247.571	1.94
247.953	1.73
248.335	1.73
248.717	1.94
249.098	1.87
249.48	1.57
249.862	1.73
250.243	1.76
250.625	1.3
251.006	2.84
251.388	1.87
251.769	2.01
252.151	1.43
252.532	1.06
252.913	1.86
253.295	1.47
253.676	0.89
254.057	1.31
254.438	1.58
254.819	1.91
255.2	1.86
255.581	1.91
255.962	0.97
256.343	1.97
256.724	-0.1
257.105	1.03
257.486	1.15
257.867	2.29
258.247	0.6
258.628	0.61
259.009	1.42
259.389	1.36
259.77	2.07
260.15	1.79
260.531	1.18
260.911	1.79
261.292	1.59
261.672	1.35
262.052	1.61
262.432	1.77
262.813	2.19
263.193	1.56
263.573	1.74
263.953	1.9
264.333	1.77
264.713	1.21
265.093	1.58
265.473	0.94
265.853	0.85
266.233	1.5
266.612	1.12
266.992	1.67
267.372	1.93
267.752	1.13
268.131	0.98
268.511	1.56
268.89	1.31
269.27	1.69
269.649	1.24
270.029	1.65
270.408	1.66
270.787	1.23
271.167	0.96
271.546	1.89
271.925	1.73
272.304	1.27
272.683	1.18
273.062	0.98
273.441	1.53
273.82	1.75
274.199	1.07
274.578	1.56
274.957	1.48
275.336	1.87
275.715	2.15
276.093	1.06
276.472	1.33
276.851	1.03
277.229	1.61
277.608	1.4
277.986	1.42
278.365	0.84
278.743	1.93
279.122	1.73
279.5	1.55
279.878	1.67
280.257	1.75
280.635	1.36
281.013	1.49
281.391	1.33
281.769	1.47
282.147	1.2
282.525	0.91
282.903	0.86
283.281	1.73
283.659	1.66
284.037	1.54
284.415	1.37
284.792	1.74
285.17	1.63
285.548	1.19
285.925	1.6
286.303	1.47
286.68	1.98
287.058	1.78
287.435	1.74
287.813	1.57
288.19	1
288.567	1.51
288.945	1.71
289.322	1.62
289.699	1.4
290.076	1.84
290.453	1.52
290.83	1.26
291.207	1.4
291.584	1.77
291.961	1.71
292.338	1.7
292.715	2
293.092	2.12
293.469	1.48
293.845	1.72
294.222	1.35
294.599	1.93
294.975	2.28
295.352	2.15
295.728	1.4
296.105	1.8
296.481	1.46
296.858	1.91
297.234	1.88
297.61	1.44
297.986	2.16
298.363	1.96
298.739	1.9
299.115	2.19
299.491	1.98
299.867	2.15
300.243	1.89
300.619	1.9
300.995	2.38
301.371	2.42
301.746	2.2
302.122	1.97
302.498	2.23
302.874	2.15
303.249	1.86
303.625	1.82
304	1.53
304.376	2.13
304.751	1.68
305.127	2.11
305.502	1.96
305.878	2.13
306.253	1.92
306.628	2.25
307.003	2.17
307.378	1.96
307.754	2.17
308.129	2.2
308.504	2.15
308.879	2.26
309.254	1.93
309.629	1.57
310.003	1.5
310.378	2.1
310.753	2.4
311.128	2.75
311.502	2.33
311.877	1.97
312.252	2.2
312.626	2.14
313.001	1.99
313.375	2.23
313.75	2.21
314.124	1.97
314.498	2.26
314.873	1.89
315.247	2.19
315.621	2.23
315.995	2.38
316.369	2.45
316.743	2.26
317.117	2.66
317.491	2.06
317.865	1.41
318.239	2.38
318.613	2.18
318.987	2.21
319.361	2.05
319.734	2.25
320.108	1.48
320.482	2.35
320.855	2.2
321.229	2.28
321.602	1.93
321.976	2.29
322.349	2.42
322.723	2.77
323.096	2.56
323.469	2.31
323.843	2.55
324.216	1.52
324.589	2.63
324.962	3.13
325.335	2.25
325.708	2.52
326.081	2.12
326.454	2.34
326.827	1.93
327.2	2.85
327.573	3.11
327.945	2.27
328.318	2.19
328.691	2.34
329.063	2.27
329.436	1.83
329.809	2.29
330.181	1.76
330.553	1.76
330.926	2.66
331.298	2.66
331.671	2.07
332.043	1.75
332.415	2.42
332.787	2.52
333.159	2.2
333.532	2.77
333.904	2.67
334.276	1.84
334.648	1.85
335.02	2.51
335.391	2.52
335.763	2.85
336.135	2.3
336.507	2.04
336.879	2.47
337.25	2.4
337.622	2.43
337.993	2.43
338.365	2.46
338.736	2.25
339.108	2.72
339.479	2.15
339.851	2.55
340.222	1.88
340.593	2.63
340.964	2.24
341.336	2.83
341.707	2.49
342.078	1.78
342.449	2.3
342.82	2.37
343.191	2.39
343.562	2.4
343.933	2.16
344.303	1.96
344.674	2.52
345.045	2.3
345.416	2.59
345.786	2.43
346.157	2.02
346.527	2.57
346.898	2
347.268	2.4
347.639	2.29
348.009	2.5
348.38	2.44
348.75	2.13
349.12	3.08
349.49	2.36
349.861	1.93
350.231	2.35
350.601	2.39
350.971	2.66
351.341	2.56
351.711	2.45
352.081	2.77
352.45	2.59
352.82	2.32
353.19	2.48
353.56	2.3
353.929	2.27
354.299	2.51
354.669	2.67
355.038	2.4
355.408	2.31
355.777	2.68
356.147	2.49
356.516	2.34
356.885	2.8
357.254	2.28
357.624	2.1
357.993	2.53
358.362	2.98
358.731	2.24
359.1	2.22
359.469	2.14
359.838	2.59
360.207	2.58
360.576	2.24
360.945	2.8
361.314	2.32
361.682	2.55
362.051	2.41
362.42	2.6
362.788	2.92
363.157	2.35
363.525	2.51
363.894	2.48
364.262	2.65
364.631	2.78
364.999	2.54
365.367	2.72
365.735	2.53
366.104	2.51
366.472	2.26
366.84	2.08
367.208	2.5
367.576	2.98
367.944	2.67
368.312	2.6
368.68	2.34
369.048	2.49
369.416	2.25
369.783	2.51
370.151	2.86
370.519	2.76
370.886	2.5
371.254	2.76
371.621	2.37
371.989	2.51
372.356	2.68
372.724	2.63
373.091	2.78
373.458	2.33
373.826	2.46
374.193	2.4
374.56	2.32
374.927	2.38
375.294	2.64
375.661	2.82
376.028	2.34
376.395	2.6
376.762	2.83
377.129	2.52
377.496	2.65
377.863	2.74
378.229	2.66
378.596	2.38
378.963	2.71
379.329	2.59
379.696	2.63
380.062	2.66
380.429	2.64
380.795	2.66
381.161	2.8
381.528	2.34
381.894	2.57
382.26	2.96
382.626	2.84
382.993	2.47
383.359	2.79
383.725	2.72
384.091	2.68
384.457	2.6
384.823	2.76
385.188	2.7
385.554	2.5
385.92	2.67
386.286	2.49
386.651	2.84
387.017	2.59
387.383	2.76
387.748	2.8
388.114	2.6
388.479	2.73
388.845	2.58
389.21	2.68
389.575	2.78
389.94	2.77
390.306	2.84
390.671	2.74
391.036	2.65
391.401	2.63
391.766	2.77
392.131	2.85
392.496	2.73
392.861	2.7
393.226	2.85
393.591	2.82
393.956	2.53
394.32	2.83
394.685	2.81
395.05	2.93
395.414	2.42
395.779	2.65
396.143	2.71
396.508	2.95
396.872	2.89
397.236	2.58
397.601	2.74
397.965	2.91
398.329	2.59
398.694	2.92
399.058	3.07
399.422	2.94
399.786	2.65
400.15	2.71
400.514	2.75
400.878	2.83
401.242	2.7
401.605	2.84
401.969	2.69
402.333	2.59
402.697	2.83
403.06	2.93
403.424	2.55
403.787	2.78
404.151	2.83
404.514	2.86
404.878	2.91
405.241	2.7
405.604	2.67
405.968	2.88
406.331	2.73
406.694	2.76
407.057	2.79
407.42	3.06
407.783	2.68
408.146	2.86
408.509	2.87
408.872	2.83
409.235	2.89
409.598	2.91
409.961	2.88
410.323	2.77
410.686	2.93
411.049	2.81
411.411	2.89
411.774	2.84
412.136	2.71
412.499	2.93
412.861	2.72
413.223	2.97
413.586	2.76
413.948	3.2
414.31	2.87
414.672	2.83
415.035	2.65
415.397	2.89
415.759	2.9
416.121	2.81
416.483	2.72
416.845	2.88
417.206	2.64
417.568	2.78
417.93	2.8
418.292	2.87
418.653	2.93
419.015	2.97
419.377	2.71
419.738	2.85
420.1	3.02
420.461	2.92
420.822	2.71
421.184	2.9
421.545	2.78
421.906	2.79
422.267	2.7
422.629	2.7
422.99	2.85
423.351	2.79
423.712	2.75
424.073	2.88
424.434	2.83
424.795	2.85
425.155	2.87
425.516	2.93
425.877	2.92
426.238	2.81
426.598	2.77
426.959	2.84
427.32	2.94
427.68	2.8
428.041	3.07
428.401	2.74
428.761	3.1
429.122	2.89
429.482	3.04
429.842	2.8
430.202	3
430.563	3.18
430.923	3.06
431.283	2.94
431.643	2.97
432.003	2.94
432.363	2.79
432.722	3.12
433.082	3.02
433.442	3.12
433.802	2.94
434.161	2.93
434.521	3.04
434.881	3.01
435.24	2.89
435.6	2.89
435.959	2.98
436.319	2.88
436.678	3
437.037	3.06
437.396	3.09
437.756	2.98
438.115	2.91
438.474	2.98
438.833	3.05
439.192	3.01
439.551	3
439.91	3.06
440.269	3.03
440.628	3.06
440.987	2.95
441.345	2.95
441.704	2.99
442.063	2.94
442.421	2.96
442.78	2.95
443.138	3.15
443.497	2.89
443.855	3.04
444.214	3.01
444.572	3.07
444.93	3
445.288	3
445.647	3.08
446.005	3.21
446.363	3.07
446.721	3.15
447.079	3.06
447.437	2.95
447.795	3.08
448.153	2.99
448.51	2.95
448.868	3
449.226	3.13
449.584	3.06
449.941	3
450.299	3.06
450.656	3.15
451.014	3.16
451.371	3.13
451.729	3.06
452.086	3.24
452.443	3.17
452.801	3.18
453.158	3.1
453.515	3.18
453.872	2.98
454.229	3.1
454.586	3.14
454.943	3.17
455.3	3.19
455.657	3.22
456.014	3.24
456.371	3.16
456.727	3.21
457.084	2.98
457.441	3.42
457.797	3.09
458.154	3.05
458.51	3.15
458.867	3.14
459.223	3.33
459.58	3.25
459.936	3.26
460.292	3.32
460.648	3.2
461.005	3.16
461.361	3.16
461.717	3.12
462.073	3.13
462.429	3.18
462.785	3.09
463.141	3.16
463.496	3.14
463.852	3.33
464.208	3.14
464.564	3.29
464.919	3.32
465.275	3.18
465.631	3.3
465.986	3.44
466.342	3.29
466.697	3.29
467.052	3.23
467.408	3.26
467.763	3.22
468.118	3.3
468.473	3.53
468.829	3.38
469.184	3.2
469.539	3.23
469.894	3.38
470.249	3.47
470.603	3.26
470.958	3.35
471.313	3.51
471.668	3.46
472.023	3.3
472.377	3.27
472.732	3.14
473.086	3.11
473.441	3.23
473.795	3.3
474.15	3.41
474.504	3.46
474.859	3.32
475.213	3.44
475.567	3.3
475.921	3.33
476.275	3.3
476.63	3.28
476.984	3.55
477.338	3.44
477.692	3.34
478.045	3.21
478.399	3.44
478.753	3.18
479.107	3.22
479.461	3.4
479.814	3.19
480.168	3.3
480.521	3.42
480.875	3.55
481.228	3.27
481.582	3.36
481.935	3.32
482.289	3.29
482.642	3.41
482.995	3.33
483.348	3.3
483.701	3.42
484.055	3.29
484.408	3.3
484.761	3.18
485.114	3.18
485.466	3.12
485.819	3.17
486.172	3.18
486.525	3.21
486.878	3.28
487.23	3.25
487.583	3.37
487.936	3.3
488.288	3.38
488.641	3.27
488.993	3.27
489.345	3.26
489.698	3.29
490.05	3.29
490.402	3.29
490.754	3.33
491.107	3.27
491.459	3.37
491.811	3.4
492.163	3.48
492.515	3.34
492.866	3.38
493.218	3.35
493.57	3.3
493.922	3.31
494.274	3.35
494.625	3.37
494.977	3.48
495.328	3.5
495.68	3.56
496.031	3.59
496.383	3.63
496.734	3.6
497.086	3.57
497.437	3.6
497.788	3.5
498.139	3.58
498.49	3.48
498.842	3.43
499.193	3.58
499.544	3.62
499.894	3.52
500.245	3.62
500.596	3.63
500.947	3.49
501.298	3.56
501.648	3.5
501.999	3.75
502.35	3.73
502.7	3.62
503.051	3.66
503.401	3.63
503.752	3.59
504.102	3.68
504.452	3.65
504.803	3.58
505.153	3.62
505.503	3.69
505.853	3.63
506.203	3.68
506.553	3.67
506.903	3.58
507.253	3.82
507.603	3.75
507.953	3.62
508.303	3.66
508.652	3.71
509.002	3.63
509.352	3.63
509.701	3.64
510.051	3.7
510.4	3.73
510.75	3.63
511.099	3.64
511.449	3.67
511.798	3.79
512.147	3.68
512.496	3.58
512.846	3.83
513.195	3.86
513.544	3.75
513.893	3.59
514.242	3.73
514.591	3.81
514.939	3.65
515.288	3.76
515.637	3.75
515.986	3.85
516.334	3.78
516.683	3.81
517.032	3.81
517.38	3.75
517.729	3.93
518.077	3.88
518.426	3.95
518.774	3.82
519.122	3.94
519.47	3.9
519.819	3.84
520.167	3.76
520.515	3.9
520.863	3.84
521.211	3.8
521.559	3.85
521.907	3.94
522.255	3.99
522.602	3.91
522.95	3.92
523.298	4.02
523.645	4.04
523.993	4.07
524.341	3.98
524.688	4.07
525.036	4.09
525.383	4.05
525.73	4
526.078	3.95
526.425	3.9
526.772	3.98
527.119	3.94
527.466	3.98
527.814	4
528.161	3.98
528.508	3.98
528.854	4
529.201	4
529.548	3.94
529.895	3.93
530.242	3.87
530.588	3.87
530.935	3.87
531.282	3.89
531.628	3.98
531.975	3.97
532.321	3.92
532.667	4.11
533.014	4.08
533.36	4.05
533.706	4.13
534.052	4.11
534.399	4.03
534.745	4.04
535.091	4.04
535.437	4.04
535.783	4.09
536.129	4.11
536.474	4.19
536.82	4.17
537.166	4.2
537.512	4.2
537.857	4.27
538.203	4.12
538.549	4.32
538.894	4.26
539.239	4.22
539.585	4.23
539.93	4.36
540.276	4.45
540.621	4.45
540.966	4.46
541.311	4.51
541.656	4.41
542.001	4.37
542.346	4.3
542.691	4.27
543.036	4.21
543.381	4.22
543.726	4.22
544.071	4.26
544.415	4.36
544.76	4.39
545.105	4.39
545.449	4.29
545.794	4.42
546.138	4.4
546.483	4.53
546.827	4.56
547.171	4.51
547.516	4.49
547.86	4.46
548.204	4.61
548.548	4.42
548.892	4.57
549.236	4.56
549.58	4.75
549.924	4.68
550.268	4.6
550.612	4.74
550.956	4.93
551.3	4.64
551.643	4.67
551.987	4.77
552.33	4.68
552.674	4.77
553.017	4.91
553.361	4.72
553.704	4.83
554.048	4.71
554.391	4.88
554.734	4.87
555.077	4.96
555.42	4.9
555.764	4.83
556.107	4.99
556.45	4.91
556.793	5.01
557.135	5.05
557.478	5.04
557.821	5.04
558.164	4.93
558.507	5.04
558.849	5.02
559.192	5
559.534	5.21
559.877	5.12
560.219	5.07
560.562	5.06
560.904	5.26
561.246	4.9
561.589	5.1
561.931	4.98
562.273	5.2
562.615	5.08
562.957	5.24
563.299	5.25
563.641	5.13
563.983	5.08
564.325	5.17
564.667	5.44
565.008	5.43
565.35	5.3
565.692	5.09
566.033	5.13
566.375	5.28
566.716	5.47
567.058	5.32
567.399	5.31
567.741	5.5
568.082	5.44
568.423	5.47
568.764	5.47
569.105	5.4
569.447	5.46
569.788	5.44
570.129	5.44
570.47	5.47
570.811	5.56
571.151	5.6
571.492	5.75
571.833	5.54
572.174	5.69
572.514	5.5
572.855	5.65
573.195	5.47
573.536	5.77
573.876	5.49
574.217	5.67
574.557	5.67
574.898	5.75
575.238	5.74
575.578	5.7
575.918	5.69
576.258	5.78
576.598	5.84
576.938	5.8
577.278	5.71
577.618	5.89
577.958	5.81
578.298	5.77
578.638	5.88
578.977	5.99
579.317	6.01
579.657	5.98
579.996	5.88
580.336	5.87
580.675	6.19
581.014	6.22
581.354	6.05
581.693	5.96
582.032	5.95
582.372	6.05
582.711	6.18
583.05	6.13
583.389	6.26
583.728	6.24
584.067	6.2
584.406	6.16
584.745	6.48
585.083	6.11
585.422	6.27
585.761	6.46
586.1	6.46
586.438	6.47
586.777	6.37
587.115	6.45
587.454	6.04
587.792	6.42
588.13	6.3
588.469	6.56
588.807	6.46
589.145	6.36
589.483	6.74
589.821	6.53
590.159	6.69
590.497	6.8
590.835	6.68
591.173	6.4
591.511	6.48
591.849	6.55
592.187	6.58
592.524	6.36
592.862	6.59
593.2	6.66
593.537	6.7
593.875	6.77
594.212	6.69
594.55	6.82
594.887	6.79
595.224	6.65
595.561	6.67
595.899	6.67
596.236	6.74
596.573	6.92
596.91	6.93
597.247	6.7
597.584	6.91
597.921	7.12
598.258	6.79
598.594	6.92
598.931	6.86
599.268	7.05
599.604	6.96
599.941	6.91
600.277	7.1
600.614	7.31
600.95	6.95
601.287	7.07
601.623	7.55
601.959	7.25
602.296	7.24
602.632	7.08
602.968	7.23
603.304	7.25
603.64	7.37
603.976	7.33
604.312	7.26
604.648	7.17
604.984	7.2
605.319	7.44
605.655	7.22
605.991	7.37
606.326	7.51
606.662	7.46
606.998	7.37
607.333	7.5
607.668	7.38
608.004	7.55
608.339	7.59
608.674	7.66
609.01	7.65
609.345	7.6
609.68	7.51
610.015	7.79
610.35	7.38
610.685	7.82
611.02	7.6
611.355	7.62
611.689	7.62
612.024	7.42
612.359	7.71
612.694	7.7
613.028	7.84
613.363	7.92
613.697	7.91
614.032	8.03
614.366	7.93
614.7	8.04
615.035	7.97
615.369	7.87
615.703	7.94
616.037	8.38
616.371	8.12
616.705	8.12
617.039	8.23
617.373	8.26
617.707	8.01
618.041	8.11
618.375	8.04
618.709	8.13
619.042	8.61
619.376	8.25
619.71	8.27
620.043	8.27
620.377	8.12
620.71	8.17
621.043	8.16
621.377	8.4
621.71	8.37
622.043	8.67
622.376	8.57
622.709	8.24
623.043	8.42
623.376	8.85
623.709	8.59
624.041	8.59
624.374	8.24
624.707	8.75
625.04	8.66
625.373	8.42
625.705	8.84
626.038	8.44
626.37	8.56
626.703	8.47
627.035	8.96
627.368	8.36
627.7	8.53
628.032	8.7
628.365	8.81
628.697	8.66
629.029	8.76
629.361	8.81
629.693	8.85
630.025	8.78
630.357	9.2
630.689	8.92
631.021	8.87
631.353	9.02
631.684	8.83
632.016	9.04
632.348	8.79
632.679	8.9
633.011	8.96
633.342	8.96
633.674	9.12
634.005	9.11
634.336	9.11
634.668	9.34
634.999	9.02
635.33	9.42
635.661	9.48
635.992	9.36
636.323	9.11
636.654	9.39
636.985	9.24
637.316	9.39
637.647	9.43
637.977	9.61
638.308	9.28
638.639	9.26
638.969	9.58
639.3	9.32
639.63	9.84
639.961	9.19
640.291	9.68
640.622	10.09
640.952	9.47
641.282	9.44
641.612	9.61
641.943	9.76
642.273	9.72
642.603	9.97
642.933	10.01
643.263	9.79
643.592	9.9
643.922	9.75
644.252	9.81
644.582	9.73
644.911	9.58
645.241	9.91
645.571	9.68
645.9	9.92
646.23	10.02
646.559	9.97
646.888	9.95
647.218	9.72
647.547	9.76
647.876	9.9
648.205	10.09
648.534	9.8
648.863	9.85
649.192	10.15
649.521	10.19
649.85	10.27
650.179	10.17
650.508	10.09
650.837	9.98
651.165	10.19
651.494	10.22
651.822	10.28
652.151	10.15
652.479	10.18
652.808	9.92
653.136	9.93
653.465	10.53
653.793	10.53
654.121	9.81
654.449	9.94
654.777	10.75
655.105	10.65
655.433	10.3
655.761	10.31
656.089	10.51
656.417	10.1
656.745	10.57
657.073	10.39
657.4	10.08
657.728	10.54
658.056	11.16
658.383	10.32
658.711	10.61
659.038	10.6
659.365	10.22
659.693	10.92
660.02	11.2
660.347	11.01
660.674	10.76
661.001	10.94
661.329	11
661.656	10.53
661.982	10.92
662.309	10.59
662.636	11.07
662.963	10.83
663.29	10.74
663.616	10.76
663.943	10.92
664.27	10.63
664.596	10.83
664.923	11.08
665.249	11.72
665.576	11.85
665.902	11.21
666.228	11.25
666.554	10.91
666.881	11.16
667.207	11.34
667.533	11.92
667.859	11.48
668.185	12
668.511	11.39
668.837	11.78
669.162	11.24
669.488	11.32
669.814	11.21
670.139	11.44
670.465	11.19
670.791	11.26
671.116	11.76
671.442	11.42
671.767	11.87
672.092	11.7
672.418	11.78
672.743	11.9
673.068	11.62
673.393	12.3
673.718	11.4
674.043	11.36
674.368	11.78
674.693	10.84
675.018	11.38
675.343	12.03
675.667	12.3
675.992	12.34
676.317	11.66
676.641	12.09
676.966	12
677.29	11.56
677.615	12.11
677.939	12.06
678.264	11.79
678.588	12.26
678.912	12.01
679.236	12.43
679.56	12.05
679.885	11.76
680.209	12.19
680.532	12.31
680.856	13.19
681.18	12.33
681.504	11.94
681.828	12.2
682.152	12.56
682.475	12.62
682.799	12.34
683.122	12.34
683.446	12.55
683.769	12.27
684.093	11.96
684.416	11.99
684.739	12.38
685.062	12.35
685.386	13.06
685.709	12.36
686.032	12.14
686.355	12.8
686.678	12.47
687.001	12.39
687.324	12.52
687.646	12.63
687.969	13.06
688.292	13.91
688.614	12.06
688.937	12.45
689.26	11.98
689.582	13.61
689.904	12.44
690.227	13.06
