Data from 20-8_forehead_Reflection__1__117.txt Node

Date: Fri Nov 11 21:01:27 CST 2022
User: ToomeyLab
Spectrometer: FLMS14357
Trigger mode: 0
Integration Time (sec): 1.000000E-2
Scans to average: 100
Electric dark correction enabled: true
Nonlinearity correction enabled: false
Boxcar width: 0
XAxis mode: Wavelengths
Number of Pixels in Spectrum: 2048
>>>>>Begin Spectral Data<<<<<
189.047	403.04
189.435	403.04
189.823	403.04
190.211	-2.34
190.599	-411.02
190.987	52.83
191.375	12.66
191.763	303.71
192.151	30.45
192.538	325.68
192.926	159.39
193.314	91.91
193.702	81.77
194.089	-21.76
194.477	88.23
194.864	62.14
195.252	107.25
195.639	42.1
196.027	28.88
196.414	86.47
196.801	203.93
197.189	85.82
197.576	47.76
197.963	652.06
198.351	-191.47
198.738	17.84
199.125	8.16
199.512	29.74
199.899	13.23
200.286	4.56
200.673	4.45
201.06	15.61
201.447	25.26
201.833	23.94
202.22	-45.19
202.607	93.24
202.994	35.9
203.38	21.26
203.767	18.95
204.154	60.84
204.54	3.86
204.927	4.88
205.313	42.19
205.699	-24.38
206.086	39.11
206.472	1.54
206.858	46.82
207.245	36.52
207.631	-20.45
208.017	15.42
208.403	9.54
208.789	42.75
209.175	17.53
209.561	49.83
209.947	24.42
210.333	21.18
210.719	19.15
211.105	27.24
211.491	12.08
211.876	9.08
212.262	32.5
212.648	-40.99
213.034	7.68
213.419	-19.41
213.805	15.14
214.19	-16.31
214.576	9.72
214.961	-19.31
215.346	-8.94
215.732	9.68
216.117	60.58
216.502	20.44
216.888	-41.64
217.273	25.96
217.658	-3.68
218.043	66.43
218.428	-2.67
218.813	12.99
219.198	27.26
219.583	6.96
219.968	55.53
220.353	21.33
220.738	-32.91
221.122	14
221.507	-2.67
221.892	-12.56
222.276	16.68
222.661	17.57
223.046	-2.27
223.43	-19.15
223.815	14.14
224.199	13.83
224.583	-1.51
224.968	3.01
225.352	-0.51
225.736	-1.92
226.121	1.07
226.505	2.28
226.889	-11.75
227.273	5.12
227.657	0.55
228.041	2.75
228.425	-0.63
228.809	0.29
229.193	4.63
229.577	3.59
229.961	3.44
230.344	1.54
230.728	1.12
231.112	1.36
231.495	2.05
231.879	1.57
232.263	0.07
232.646	1.42
233.03	1.53
233.413	2.13
233.797	2.23
234.18	2.52
234.563	4.46
234.946	0.57
235.33	2.78
235.713	2.27
236.096	2.02
236.479	1.43
236.862	2.77
237.245	1.65
237.628	3.25
238.011	2.33
238.394	3.09
238.777	3.49
239.16	4.12
239.543	-0.75
239.925	3.31
240.308	0.79
240.691	2.4
241.073	0.07
241.456	1.14
241.838	2.35
242.221	1.08
242.603	2.38
242.986	1.01
243.368	1.44
243.75	1.71
244.133	1.82
244.515	1.65
244.897	2.03
245.279	1.03
245.661	1.91
246.043	0.85
246.425	2.93
246.807	1.19
247.189	1.83
247.571	1.85
247.953	1.69
248.335	1.83
248.717	1.99
249.098	2.34
249.48	1.7
249.862	2.23
250.243	1.98
250.625	1.52
251.006	2.26
251.388	1.75
251.769	1.87
252.151	2.53
252.532	1.98
252.913	2.91
253.295	2.19
253.676	1.63
254.057	1.25
254.438	1.75
254.819	0.95
255.2	3.18
255.581	1.97
255.962	1.61
256.343	1.28
256.724	2.03
257.105	2.44
257.486	1.49
257.867	2.76
258.247	1.13
258.628	1.46
259.009	0.9
259.389	1.02
259.77	2.4
260.15	1.92
260.531	1.56
260.911	1.97
261.292	1.85
261.672	1.73
262.052	2.03
262.432	1.93
262.813	2.04
263.193	2.01
263.573	2.09
263.953	2.49
264.333	1.72
264.713	2.28
265.093	1.76
265.473	1.05
265.853	2.34
266.233	1.62
266.612	2.37
266.992	1.25
267.372	2.25
267.752	1.93
268.131	1.89
268.511	1.77
268.89	1.78
269.27	2.37
269.649	1.6
270.029	1.92
270.408	1.97
270.787	1.92
271.167	1.24
271.546	1.8
271.925	2.04
272.304	2.15
272.683	1.75
273.062	1.69
273.441	2.05
273.82	1.82
274.199	1.6
274.578	1.55
274.957	1.97
275.336	2.52
275.715	1.67
276.093	1.82
276.472	1.63
276.851	2.05
277.229	1.29
277.608	2.12
277.986	1.98
278.365	1.51
278.743	1.95
279.122	1.88
279.5	1.57
279.878	1.87
280.257	2.17
280.635	1.93
281.013	1.61
281.391	1.55
281.769	1.73
282.147	2.03
282.525	1.3
282.903	1.71
283.281	1.74
283.659	2.32
284.037	2.03
284.415	1.43
284.792	2.07
285.17	2.74
285.548	1.84
285.925	1.46
286.303	1.84
286.68	1.75
287.058	1.86
287.435	1.58
287.813	1.92
288.19	1.84
288.567	1.69
288.945	1.95
289.322	2.7
289.699	1.72
290.076	2.2
290.453	1.91
290.83	1.89
291.207	2.29
291.584	2.42
291.961	1.95
292.338	2.37
292.715	2.32
293.092	1.8
293.469	1.91
293.845	2.12
294.222	1.81
294.599	2.59
294.975	2.15
295.352	1.96
295.728	2.25
296.105	2.25
296.481	1.92
296.858	1.91
297.234	2.27
297.61	1.95
297.986	2.33
298.363	2.84
298.739	2.58
299.115	2.58
299.491	2.9
299.867	2.55
300.243	2.31
300.619	2.44
300.995	2.82
301.371	3.26
301.746	3.07
302.122	2.98
302.498	2.65
302.874	2.78
303.249	2.65
303.625	2.51
304	2.29
304.376	3.29
304.751	2.77
305.127	3.25
305.502	3.49
305.878	3.4
306.253	3.47
306.628	2.84
307.003	3.35
307.378	2.85
307.754	3.24
308.129	2.99
308.504	3.56
308.879	3.56
309.254	3.31
309.629	3.46
310.003	3.32
310.378	3.66
310.753	3.78
311.128	3.79
311.502	3.79
311.877	3.46
312.252	3.34
312.626	3.6
313.001	3.68
313.375	3.71
313.75	3.88
314.124	3.66
314.498	3.51
314.873	3.64
315.247	4.29
315.621	4.58
315.995	4.13
316.369	4.03
316.743	4.12
317.117	4.39
317.491	4.62
317.865	4.45
318.239	4.05
318.613	4.47
318.987	4.41
319.361	4.58
319.734	4.91
320.108	4.4
320.482	4.44
320.855	4.18
321.229	4.78
321.602	4.58
321.976	4.61
322.349	4.77
322.723	5.36
323.096	4.8
323.469	4.92
323.843	4.95
324.216	4.52
324.589	4.76
324.962	5.22
325.335	4.61
325.708	5.1
326.081	5.22
326.454	5.12
326.827	4.85
327.2	5.44
327.573	5.92
327.945	5.04
328.318	4.98
328.691	5.1
329.063	5.25
329.436	5.07
329.809	5.13
330.181	5.47
330.553	4.66
330.926	5.99
331.298	5.46
331.671	5.04
332.043	5.64
332.415	5.31
332.787	5.87
333.159	5.79
333.532	6.04
333.904	5.93
334.276	5.77
334.648	5.56
335.02	5.41
335.391	6.03
335.763	5.7
336.135	5.59
336.507	5.79
336.879	6.17
337.25	5.84
337.622	6.19
337.993	6.3
338.365	5.89
338.736	6.09
339.108	5.87
339.479	5.73
339.851	6.08
340.222	6.13
340.593	6.58
340.964	6.46
341.336	6
341.707	6.12
342.078	5.87
342.449	6.41
342.82	6.5
343.191	6.57
343.562	6.36
343.933	6.48
344.303	6.48
344.674	6.47
345.045	6.38
345.416	6.51
345.786	6.31
346.157	6.47
346.527	6.7
346.898	6.5
347.268	6.41
347.639	6.32
348.009	6.63
348.38	6.63
348.75	6.81
349.12	6.75
349.49	7.02
349.861	6.76
350.231	7.1
350.601	6.79
350.971	6.97
351.341	7.17
351.711	6.96
352.081	6.88
352.45	7.17
352.82	6.61
353.19	7.37
353.56	6.57
353.929	7.58
354.299	6.92
354.669	7.45
355.038	7.19
355.408	7.35
355.777	7.6
356.147	7.32
356.516	7.38
356.885	7.62
357.254	7.2
357.624	7.15
357.993	7.27
358.362	7.66
358.731	6.78
359.1	7.21
359.469	7.06
359.838	7.25
360.207	7.76
360.576	7.61
360.945	7.55
361.314	7.62
361.682	7.57
362.051	7.59
362.42	7.79
362.788	7.74
363.157	7.62
363.525	7.66
363.894	7.56
364.262	7.94
364.631	8.01
364.999	7.86
365.367	7.98
365.735	7.92
366.104	7.7
366.472	7.98
366.84	7.62
367.208	7.93
367.576	8.35
367.944	8.36
368.312	8.31
368.68	8.26
369.048	8.11
369.416	8.15
369.783	8.3
370.151	8.57
370.519	8.57
370.886	8.47
371.254	8.54
371.621	8.32
371.989	8.27
372.356	8.47
372.724	8.81
373.091	8.58
373.458	8.6
373.826	8.42
374.193	8.47
374.56	8.73
374.927	8.34
375.294	8.83
375.661	9.09
376.028	8.46
376.395	9.04
376.762	9.15
377.129	8.98
377.496	8.91
377.863	9.04
378.229	9.09
378.596	8.9
378.963	9.04
379.329	9.05
379.696	9.15
380.062	8.99
380.429	9.26
380.795	9.63
381.161	9.3
381.528	9.01
381.894	9.42
382.26	9.36
382.626	9.64
382.993	9.41
383.359	9.56
383.725	9.16
384.091	9.38
384.457	9.48
384.823	9.52
385.188	9.54
385.554	9.71
385.92	9.51
386.286	9.48
386.651	9.77
387.017	9.35
387.383	9.61
387.748	9.7
388.114	9.77
388.479	9.58
388.845	9.83
389.21	9.66
389.575	9.69
389.94	9.98
390.306	9.64
390.671	9.77
391.036	9.95
391.401	9.89
391.766	9.95
392.131	10.03
392.496	10.05
392.861	9.97
393.226	10.13
393.591	10.01
393.956	10.07
394.32	10.02
394.685	10.26
395.05	10.36
395.414	10.02
395.779	10.11
396.143	9.97
396.508	10.28
396.872	10.48
397.236	10.2
397.601	10.37
397.965	10.4
398.329	10.42
398.694	10.46
399.058	10.55
399.422	10.65
399.786	10.44
400.15	10.29
400.514	10.66
400.878	10.52
401.242	10.59
401.605	10.73
401.969	10.53
402.333	10.24
402.697	10.76
403.06	10.42
403.424	10.44
403.787	10.79
404.151	10.65
404.514	10.47
404.878	10.75
405.241	10.76
405.604	10.61
405.968	10.68
406.331	10.46
406.694	10.6
407.057	10.89
407.42	10.83
407.783	10.82
408.146	10.88
408.509	10.96
408.872	10.89
409.235	11.12
409.598	10.91
409.961	11.17
410.323	11.18
410.686	11.09
411.049	10.83
411.411	10.99
411.774	11.09
412.136	10.8
412.499	10.94
412.861	11.08
413.223	11
413.586	11.27
413.948	11.41
414.31	11.31
414.672	11.46
415.035	11.3
415.397	11.05
415.759	11.13
416.121	11.35
416.483	11.29
416.845	11.44
417.206	11.12
417.568	11.32
417.93	11.49
418.292	11.4
418.653	11.66
419.015	11.5
419.377	11.38
419.738	11.51
420.1	11.46
420.461	11.6
420.822	11.58
421.184	11.56
421.545	11.64
421.906	11.71
422.267	11.5
422.629	11.56
422.99	11.58
423.351	11.57
423.712	11.77
424.073	11.96
424.434	11.98
424.795	11.95
425.155	11.98
425.516	11.91
425.877	11.9
426.238	12.07
426.598	11.99
426.959	12.08
427.32	12.22
427.68	12.41
428.041	12.59
428.401	12.31
428.761	12.67
429.122	12.63
429.482	12.88
429.842	12.8
430.202	12.88
430.563	13.02
430.923	12.97
431.283	12.94
431.643	13.03
432.003	13.26
432.363	13
432.722	13.24
433.082	13.28
433.442	13.38
433.802	13.22
434.161	13.35
434.521	13.23
434.881	13.41
435.24	13.35
435.6	13.53
435.959	13.43
436.319	13.45
436.678	13.58
437.037	13.69
437.396	13.94
437.756	13.82
438.115	13.84
438.474	13.93
438.833	13.79
439.192	14
439.551	13.97
439.91	14.02
440.269	14.03
440.628	14.05
440.987	14.05
441.345	14.01
441.704	14.1
442.063	14.06
442.421	14.05
442.78	14.06
443.138	14.27
443.497	14.2
443.855	14.35
444.214	14.44
444.572	14.5
444.93	14.45
445.288	14.5
445.647	14.82
446.005	14.68
446.363	14.68
446.721	14.67
447.079	14.69
447.437	14.54
447.795	14.62
448.153	14.59
448.51	14.5
448.868	14.75
449.226	14.83
449.584	14.77
449.941	15.01
450.299	14.98
450.656	15.12
451.014	15.23
451.371	15.08
451.729	15.08
452.086	15.48
452.443	15.43
452.801	15.42
453.158	15.46
453.515	15.6
453.872	15.46
454.229	15.54
454.586	15.7
454.943	15.63
455.3	15.72
455.657	15.69
456.014	15.85
456.371	15.77
456.727	16.03
457.084	15.58
457.441	16.11
457.797	16.1
458.154	16.03
458.51	16.2
458.867	16.11
459.223	16.13
459.58	16.15
459.936	16.03
460.292	16.17
460.648	16.11
461.005	16.06
461.361	16.03
461.717	15.91
462.073	16.15
462.429	16.15
462.785	16.37
463.141	16.36
463.496	16.57
463.852	16.76
464.208	16.73
464.564	16.74
464.919	16.93
465.275	16.88
465.631	16.83
465.986	17.1
466.342	16.84
466.697	16.89
467.052	17.03
467.408	16.99
467.763	17.13
468.118	17.19
468.473	17.22
468.829	17.08
469.184	17.14
469.539	17.28
469.894	17.24
470.249	17.4
470.603	17.51
470.958	17.38
471.313	17.49
471.668	17.68
472.023	17.53
472.377	17.55
472.732	17.57
473.086	17.62
473.441	17.64
473.795	17.46
474.15	17.76
474.504	18.07
474.859	17.95
475.213	17.97
475.567	18.06
475.921	17.9
476.275	17.92
476.63	18.06
476.984	18.29
477.338	18.23
477.692	18.03
478.045	18.11
478.399	18.35
478.753	18.23
479.107	18.23
479.461	18.29
479.814	18.28
480.168	18.28
480.521	18.4
480.875	18.55
481.228	18.48
481.582	18.64
481.935	18.5
482.289	18.47
482.642	18.64
482.995	18.41
483.348	18.52
483.701	18.46
484.055	18.5
484.408	18.38
484.761	18.15
485.114	17.85
485.466	17.76
485.819	17.79
486.172	17.95
486.525	18.1
486.878	18.23
487.23	18.37
487.583	18.53
487.936	18.6
488.288	18.55
488.641	18.39
488.993	18.35
489.345	18.31
489.698	18.4
490.05	18.45
490.402	18.62
490.754	18.73
491.107	18.91
491.459	19.09
491.811	19.17
492.163	19.13
492.515	19.26
492.866	18.98
493.218	18.76
493.57	18.78
493.922	19
494.274	19.24
494.625	19.4
494.977	19.69
495.328	19.81
495.68	20.01
496.031	19.85
496.383	20.13
496.734	20.36
497.086	20.14
497.437	20.25
497.788	20.18
498.139	20.02
498.49	19.99
498.842	20
499.193	20.13
499.544	20.2
499.894	20.18
500.245	20.36
500.596	20.58
500.947	20.51
501.298	20.53
501.648	20.55
501.999	20.79
502.35	20.91
502.7	20.76
503.051	20.76
503.401	20.85
503.752	20.83
504.102	20.88
504.452	21.09
504.803	21.06
505.153	21.11
505.503	21.06
505.853	21.11
506.203	21.18
506.553	20.99
506.903	21
507.253	21.31
507.603	21.25
507.953	21.33
508.303	21.19
508.652	21.34
509.002	21.47
509.352	21.44
509.701	21.55
510.051	21.27
510.4	21.43
510.75	21.34
511.099	21.36
511.449	21.52
511.798	21.55
512.147	21.49
512.496	21.52
512.846	21.68
513.195	21.74
513.544	21.85
513.893	21.68
514.242	21.87
514.591	21.81
514.939	21.98
515.288	22.09
515.637	22
515.986	21.98
516.334	22.26
516.683	22.23
517.032	22.32
517.38	22.2
517.729	22.42
518.077	22.4
518.426	22.35
518.774	22.4
519.122	22.34
519.47	22.35
519.819	22.15
520.167	22.02
520.515	22.08
520.863	22.16
521.211	22.33
521.559	22.29
521.907	22.56
522.255	22.51
522.602	22.8
522.95	22.79
523.298	22.84
523.645	22.86
523.993	22.84
524.341	23.02
524.688	23.16
525.036	23.11
525.383	22.94
525.73	23.05
526.078	23.01
526.425	22.89
526.772	22.88
527.119	22.74
527.466	22.76
527.814	22.87
528.161	22.85
528.508	22.83
528.854	22.97
529.201	22.99
529.548	22.69
529.895	22.44
530.242	22.38
530.588	22.52
530.935	22.63
531.282	22.76
531.628	22.91
531.975	23.07
532.321	23.07
532.667	23.35
533.014	23.39
533.36	23.54
533.706	23.57
534.052	23.64
534.399	23.34
534.745	23.24
535.091	23.17
535.437	23.22
535.783	23.39
536.129	23.74
536.474	23.78
536.82	23.76
537.166	24.01
537.512	24.09
537.857	24.1
538.203	23.98
538.549	23.98
538.894	23.95
539.239	24.15
539.585	24.35
539.93	24.4
540.276	24.61
540.621	24.5
540.966	24.79
541.311	24.71
541.656	24.57
542.001	24.49
542.346	24.32
542.691	24.04
543.036	23.84
543.381	23.93
543.726	23.99
544.071	24.22
544.415	24.53
544.76	24.61
545.105	24.63
545.449	24.73
545.794	24.92
546.138	25.18
546.483	25.07
546.827	25.26
547.171	25.34
547.516	25.12
547.86	25.25
548.204	25.21
548.548	25.1
548.892	25.33
549.236	25.28
549.58	25.53
549.924	25.82
550.268	25.84
550.612	25.87
550.956	26.27
551.3	26.07
551.643	26.16
551.987	26.14
552.33	26.03
552.674	25.92
553.017	26.5
553.361	26.36
553.704	26.4
554.048	26.52
554.391	26.32
554.734	26.29
555.077	26.56
555.42	26.53
555.764	26.55
556.107	26.6
556.45	26.68
556.793	26.84
557.135	26.72
557.478	26.83
557.821	27.03
558.164	27.11
558.507	27.1
558.849	27.05
559.192	27
559.534	27.22
559.877	27.26
560.219	27.22
560.562	27.4
560.904	27.32
561.246	27.5
561.589	27.42
561.931	27.35
562.273	27.6
562.615	27.53
562.957	27.64
563.299	27.51
563.641	27.31
563.983	27.55
564.325	27.7
564.667	27.99
565.008	27.72
565.35	27.77
565.692	27.72
566.033	27.7
566.375	28.08
566.716	27.78
567.058	28.04
567.399	27.92
567.741	27.94
568.082	27.86
568.423	27.81
568.764	27.82
569.105	28.03
569.447	28.06
569.788	28.23
570.129	28.14
570.47	28.55
570.811	28.62
571.151	28.63
571.492	28.47
571.833	28.47
572.174	28.59
572.514	28.44
572.855	28.69
573.195	28.53
573.536	28.6
573.876	28.63
574.217	28.6
574.557	28.65
574.898	28.74
575.238	28.98
575.578	28.68
575.918	28.97
576.258	29.02
576.598	29.02
576.938	28.93
577.278	28.86
577.618	29.28
577.958	29.21
578.298	29.23
578.638	29.42
578.977	29.4
579.317	29.57
579.657	29.32
579.996	29.77
580.336	29.73
580.675	29.78
581.014	30.03
581.354	29.75
581.693	29.98
582.032	29.93
582.372	29.87
582.711	29.98
583.05	29.97
583.389	30.17
583.728	30.03
584.067	30.29
584.406	30.23
584.745	30.64
585.083	30.3
585.422	30.58
585.761	30.27
586.1	30.12
586.438	30.41
586.777	30.45
587.115	30.86
587.454	30.43
587.792	30.59
588.13	30.86
588.469	30.94
588.807	30.71
589.145	30.77
589.483	31.25
589.821	30.76
590.159	31.03
590.497	30.86
590.835	31.21
591.173	31.12
591.511	31.06
591.849	30.82
592.187	31.31
592.524	31
592.862	31.07
593.2	31.32
593.537	31.41
593.875	31.69
594.212	31.39
594.55	31.44
594.887	31.41
595.224	31.65
595.561	31.37
595.899	31.52
596.236	31.84
596.573	31.71
596.91	31.76
597.247	31.77
597.584	31.7
597.921	31.92
598.258	31.67
598.594	31.68
598.931	31.48
599.268	31.7
599.604	32
599.941	31.75
600.277	32.21
600.614	32.16
600.95	31.82
601.287	32.2
601.623	32.53
601.959	32.45
602.296	32.33
602.632	32.38
602.968	32.62
603.304	32.39
603.64	32.79
603.976	32.66
604.312	32.41
604.648	32.49
604.984	32.6
605.319	32.34
605.655	32.56
605.991	32.33
606.326	32.76
606.662	32.43
606.998	32.62
607.333	32.77
607.668	32.65
608.004	32.95
608.339	32.73
608.674	32.99
609.01	33.31
609.345	33.28
609.68	33.3
610.015	33.42
610.35	33.13
610.685	33.35
611.02	33.03
611.355	33.04
611.689	33.31
612.024	33.23
612.359	33.47
612.694	33.55
613.028	33.43
613.363	33.96
613.697	33.97
614.032	33.88
614.366	33.68
614.7	33.72
615.035	33.93
615.369	34.31
615.703	34.11
616.037	34.06
616.371	33.97
616.705	34.42
617.039	34.46
617.373	34.51
617.707	34.39
618.041	34.39
618.375	34.26
618.709	34.81
619.042	34.56
619.376	34.77
619.71	34.75
620.043	35.04
620.377	34.52
620.71	34.66
621.043	34.43
621.377	34.86
621.71	34.81
622.043	34.88
622.376	35.03
622.709	34.33
623.043	34.76
623.376	35.19
623.709	35.35
624.041	35.6
624.374	34.97
624.707	35.3
625.04	35.59
625.373	34.92
625.705	35.15
626.038	35.35
626.37	35.45
626.703	35.38
627.035	35.77
627.368	35.5
627.7	35.52
628.032	35.67
628.365	35.37
628.697	35.5
629.029	35.29
629.361	35.43
629.693	35.7
630.025	35.71
630.357	35.85
630.689	35.61
631.021	35.85
631.353	36.08
631.684	35.84
632.016	36.05
632.348	36.08
632.679	36.05
633.011	36.34
633.342	36.35
633.674	35.97
634.005	35.75
634.336	36.42
634.668	36.3
634.999	36.19
635.33	36.56
635.661	36.41
635.992	36.48
636.323	36.31
636.654	36.09
636.985	36.37
637.316	36.75
637.647	37.18
637.977	36.68
638.308	36.42
638.639	36.34
638.969	36.59
639.3	37.16
639.63	36.87
639.961	37.14
640.291	36.98
640.622	37.27
640.952	36.86
641.282	37.21
641.612	37.04
641.943	37.05
642.273	36.97
642.603	37.29
642.933	37.52
643.263	36.87
643.592	37.47
643.922	37.79
644.252	37.52
644.582	37.49
644.911	37.34
645.241	37.73
645.571	37.56
645.9	37.96
646.23	37.79
646.559	37.76
646.888	37.88
647.218	37.73
647.547	37.31
647.876	37.5
648.205	38.21
648.534	37.76
648.863	38.51
649.192	37.61
649.521	38.47
649.85	38.31
650.179	38.34
650.508	38.32
650.837	38.17
651.165	37.95
651.494	38.62
651.822	38.33
652.151	38.52
652.479	38.46
652.808	38.01
653.136	38.13
653.465	38.71
653.793	38.13
654.121	38.58
654.449	38.38
654.777	38.94
655.105	38.1
655.433	38.94
655.761	38.83
656.089	38.65
656.417	38.7
656.745	39.49
657.073	38.59
657.4	39
657.728	39.5
658.056	39.44
658.383	39.01
658.711	39.36
659.038	39.38
659.365	39.38
659.693	39.28
660.02	39
660.347	39.23
660.674	39.49
661.001	39.09
661.329	38.97
661.656	38.84
661.982	39.33
662.309	39.32
662.636	39.72
662.963	39.73
663.29	39.38
663.616	39.97
663.943	40.02
664.27	39.76
664.596	39.96
664.923	39.98
665.249	40.29
665.576	40.34
665.902	39.66
666.228	40.3
666.554	40.29
666.881	39.88
667.207	40.46
667.533	40.2
667.859	39.98
668.185	40.27
668.511	39.34
668.837	40.35
669.162	40.61
669.488	40.41
669.814	40.01
670.139	40.16
670.465	40.41
670.791	40.15
671.116	40.62
671.442	40.64
671.767	40.42
672.092	40.25
672.418	40.06
672.743	40.19
673.068	40.97
673.393	40.93
