Data from 20-8_forehead_Reflection__0__116.txt Node

Date: Fri Nov 11 21:01:16 CST 2022
User: ToomeyLab
Spectrometer: FLMS14357
Trigger mode: 0
Integration Time (sec): 1.000000E-2
Scans to average: 100
Electric dark correction enabled: true
Nonlinearity correction enabled: false
Boxcar width: 0
XAxis mode: Wavelengths
Number of Pixels in Spectrum: 2048
>>>>>Begin Spectral Data<<<<<
189.047	-197.39
189.435	-197.39
189.823	-197.39
190.211	84.57
190.599	33.33
190.987	42.84
191.375	36.29
191.763	-104.57
192.151	-51.9
192.538	-283.78
192.926	25.17
193.314	100.37
193.702	105.96
194.089	-15.86
194.477	73.89
194.864	157.51
195.252	150.43
195.639	81.07
196.027	63.7
196.414	65.65
196.801	196.89
197.189	114.08
197.576	68.44
197.963	-1873.2
198.351	-155.9
198.738	-30.67
199.125	13.75
199.512	28.7
199.899	-37.43
200.286	12.11
200.673	30.23
201.06	42.15
201.447	2.41
201.833	17.78
202.22	-18.39
202.607	69.59
202.994	25.38
203.38	-1.78
203.767	-9.19
204.154	22.99
204.54	-3.45
204.927	-14.11
205.313	0.48
205.699	-36.74
206.086	22.38
206.472	21.73
206.858	18.95
207.245	31.5
207.631	18.21
208.017	-13.12
208.403	3.49
208.789	-7.97
209.175	14.98
209.561	57
209.947	-5.09
210.333	17.06
210.719	9.28
211.105	48.31
211.491	12.82
211.876	10.08
212.262	-21.14
212.648	15.98
213.034	27.09
213.419	-18.71
213.805	-1.49
214.19	52.69
214.576	11.55
214.961	-10.84
215.346	-17.28
215.732	-28.06
216.117	18.4
216.502	-21.41
216.888	-14.99
217.273	36.08
217.658	21.23
218.043	41.91
218.428	-11.89
218.813	3.21
219.198	23.61
219.583	23.1
219.968	15.93
220.353	-21.63
220.738	-15.41
221.122	14.29
221.507	-33.69
221.892	4.1
222.276	10.52
222.661	23.81
223.046	-15.08
223.43	2.72
223.815	7.9
224.199	4.77
224.583	8.1
224.968	-5.89
225.352	6.86
225.736	-3.54
226.121	-0.98
226.505	7.76
226.889	-0.78
227.273	6.84
227.657	-3.06
228.041	-0.29
228.425	-2.43
228.809	2.79
229.193	4.74
229.577	1.2
229.961	1.4
230.344	2.32
230.728	0.47
231.112	0.5
231.495	1.28
231.879	0.25
232.263	0.96
232.646	-0.21
233.03	-0.13
233.413	2.77
233.797	2.09
234.18	0.74
234.563	2
234.946	1.68
235.33	2.6
235.713	0.86
236.096	0.89
236.479	1.18
236.862	4.26
237.245	1.66
237.628	1.49
238.011	3.39
238.394	3.79
238.777	3.73
239.16	1.44
239.543	0.76
239.925	2.37
240.308	1.45
240.691	3.5
241.073	0.92
241.456	0.7
241.838	2.8
242.221	1.6
242.603	2.89
242.986	1.28
243.368	2.42
243.75	1.67
244.133	1.79
244.515	1.16
244.897	2.07
245.279	1.28
245.661	1.89
246.043	2.09
246.425	4.1
246.807	1.72
247.189	2.35
247.571	2.43
247.953	1.55
248.335	1.83
248.717	2.07
249.098	2.07
249.48	1.6
249.862	2.46
250.243	1.66
250.625	1.54
251.006	2.26
251.388	1.86
251.769	2.59
252.151	1.52
252.532	2.81
252.913	2.13
253.295	2.18
253.676	1.08
254.057	1.66
254.438	1.91
254.819	1.45
255.2	2.51
255.581	1.34
255.962	1.98
256.343	1.56
256.724	1.51
257.105	1.9
257.486	2.42
257.867	3.38
258.247	1.83
258.628	1.18
259.009	1.5
259.389	1.64
259.77	2.56
260.15	1.62
260.531	1.8
260.911	1.4
261.292	2
261.672	1.82
262.052	1.69
262.432	2.17
262.813	1.81
263.193	1.4
263.573	1.83
263.953	2.26
264.333	1.25
264.713	1.62
265.093	1.79
265.473	1.61
265.853	2.13
266.233	1.67
266.612	1.78
266.992	1.21
267.372	2.46
267.752	1.77
268.131	1.17
268.511	1.97
268.89	1.71
269.27	1.81
269.649	1.56
270.029	2.19
270.408	2.07
270.787	1.72
271.167	1.44
271.546	1.69
271.925	2.07
272.304	1.61
272.683	2
273.062	1.69
273.441	1.95
273.82	1.69
274.199	1.74
274.578	1.5
274.957	2.11
275.336	2.07
275.715	1.36
276.093	1.54
276.472	1.38
276.851	1.6
277.229	1.73
277.608	2.04
277.986	2.16
278.365	1.11
278.743	1.84
279.122	2.09
279.5	2.03
279.878	2.61
280.257	2.02
280.635	1.89
281.013	1.74
281.391	1.51
281.769	1.61
282.147	1.29
282.525	1.13
282.903	1.5
283.281	1.89
283.659	1.79
284.037	1.91
284.415	1.87
284.792	1.74
285.17	2.1
285.548	1.55
285.925	1.61
286.303	1.97
286.68	2.1
287.058	2.21
287.435	1.88
287.813	1.74
288.19	1.46
288.567	1.73
288.945	1.84
289.322	2.04
289.699	1.57
290.076	2.09
290.453	1.95
290.83	1.59
291.207	1.53
291.584	1.96
291.961	2.12
292.338	1.76
292.715	1.94
293.092	1.95
293.469	1.93
293.845	2.29
294.222	1.74
294.599	2.05
294.975	2.02
295.352	1.88
295.728	2.21
296.105	1.88
296.481	1.97
296.858	1.73
297.234	2.08
297.61	1.73
297.986	2.32
298.363	2.59
298.739	2.52
299.115	2.41
299.491	2.37
299.867	2.51
300.243	2.28
300.619	2.1
300.995	2.67
301.371	2.91
301.746	2.78
302.122	2.43
302.498	2.7
302.874	2.44
303.249	2.41
303.625	2.4
304	2.5
304.376	2.74
304.751	1.85
305.127	2.45
305.502	3.04
305.878	3.01
306.253	2.76
306.628	2.28
307.003	2.68
307.378	2.68
307.754	3.32
308.129	3.08
308.504	2.68
308.879	2.57
309.254	2.9
309.629	2.48
310.003	2.97
310.378	3.05
310.753	3.51
311.128	3.36
311.502	3.09
311.877	2.91
312.252	2.93
312.626	2.86
313.001	2.59
313.375	2.83
313.75	3.2
314.124	2.54
314.498	3.29
314.873	2.92
315.247	3.54
315.621	3.75
315.995	3.3
316.369	3.57
316.743	3.09
317.117	3.39
317.491	3.29
317.865	3.18
318.239	3.7
318.613	3.8
318.987	3.52
319.361	3.57
319.734	3.69
320.108	3.21
320.482	4.24
320.855	3.66
321.229	3.52
321.602	3.42
321.976	2.88
322.349	3.74
322.723	3.71
323.096	3.87
323.469	3.65
323.843	3.33
324.216	4.32
324.589	4.03
324.962	4.41
325.335	3.44
325.708	3.98
326.081	4.31
326.454	3.75
326.827	3.59
327.2	4.12
327.573	4.94
327.945	3.86
328.318	3.56
328.691	4.31
329.063	4.26
329.436	3.83
329.809	3.58
330.181	3.74
330.553	3.69
330.926	4.39
331.298	4.29
331.671	3.89
332.043	3.48
332.415	3.99
332.787	4.24
333.159	4.38
333.532	4.41
333.904	4.43
334.276	4.06
334.648	4.21
335.02	4.28
335.391	4.41
335.763	3.93
336.135	4.31
336.507	4.13
336.879	4.54
337.25	4.23
337.622	4.55
337.993	4.34
338.365	4.5
338.736	4.65
339.108	4.11
339.479	4.23
339.851	4.33
340.222	4.07
340.593	4.64
340.964	4.32
341.336	4.72
341.707	4.39
342.078	3.89
342.449	4.96
342.82	4.39
343.191	4.79
343.562	4.3
343.933	4.48
344.303	4.36
344.674	4.27
345.045	4.79
345.416	4.61
345.786	4.35
346.157	4.6
346.527	4.39
346.898	3.96
347.268	4.2
347.639	4.59
348.009	4.47
348.38	4.53
348.75	4.37
349.12	5.1
349.49	4.74
349.861	4.93
350.231	4.64
350.601	4.73
350.971	4.69
351.341	4.94
351.711	4.93
352.081	5.14
352.45	4.67
352.82	4.67
353.19	4.93
353.56	4.72
353.929	5.21
354.299	4.73
354.669	4.92
355.038	4.75
355.408	4.74
355.777	5.17
356.147	5.08
356.516	5.22
356.885	4.94
357.254	4.51
357.624	4.58
357.993	5.25
358.362	5.3
358.731	4.94
359.1	4.95
359.469	4.82
359.838	4.91
360.207	5.12
360.576	5.25
360.945	4.97
361.314	4.74
361.682	4.85
362.051	5.28
362.42	5.19
362.788	5.26
363.157	5.1
363.525	4.91
363.894	5.15
364.262	5.27
364.631	5.65
364.999	4.87
365.367	5.25
365.735	5.13
366.104	5.21
366.472	5.02
366.84	4.7
367.208	5.11
367.576	5.58
367.944	5.52
368.312	5.18
368.68	5.17
369.048	5.48
369.416	5.02
369.783	5.64
370.151	5.56
370.519	5.54
370.886	5.5
371.254	5.65
371.621	5.11
371.989	5.33
372.356	5.38
372.724	5.53
373.091	5.63
373.458	5.7
373.826	5.64
374.193	5.43
374.56	5.56
374.927	5.43
375.294	5.76
375.661	5.86
376.028	5.22
376.395	5.91
376.762	5.88
377.129	5.56
377.496	5.77
377.863	5.94
378.229	5.79
378.596	5.65
378.963	5.59
379.329	5.72
379.696	5.7
380.062	5.74
380.429	5.93
380.795	6.22
381.161	5.63
381.528	5.8
381.894	5.78
382.26	6.08
382.626	6.15
382.993	5.86
383.359	5.9
383.725	5.77
384.091	6.04
384.457	5.71
384.823	6
385.188	6.05
385.554	5.72
385.92	5.92
386.286	5.61
386.651	5.7
387.017	5.98
387.383	6.11
387.748	6.12
388.114	6.22
388.479	5.9
388.845	5.85
389.21	5.99
389.575	6.02
389.94	6.18
390.306	5.94
390.671	5.97
391.036	5.93
391.401	5.96
391.766	6.02
392.131	5.91
392.496	6.16
392.861	6.11
393.226	6.1
393.591	5.82
393.956	5.78
394.32	6.04
394.685	5.9
395.05	6.2
395.414	5.85
395.779	6.02
396.143	5.83
396.508	6.13
396.872	6.1
397.236	5.91
397.601	6.14
397.965	6.21
398.329	6.17
398.694	6.28
399.058	6.31
399.422	6.09
399.786	5.91
400.15	6.06
400.514	6.29
400.878	6.12
401.242	5.95
401.605	6.11
401.969	6.17
402.333	5.94
402.697	6.22
403.06	6.12
403.424	5.94
403.787	6.26
404.151	6.11
404.514	6.08
404.878	6.17
405.241	5.88
405.604	5.8
405.968	5.93
406.331	5.87
406.694	5.92
407.057	6.14
407.42	6.07
407.783	6.13
408.146	6.24
408.509	6.12
408.872	6.09
409.235	6.16
409.598	6.21
409.961	6.35
410.323	6
410.686	6
411.049	5.75
411.411	5.96
411.774	6.28
412.136	6.15
412.499	6.07
412.861	5.97
413.223	6.09
413.586	6.18
413.948	6.38
414.31	6.24
414.672	6.09
415.035	6.18
415.397	6.13
415.759	6.02
416.121	6.1
416.483	6.23
416.845	6.39
417.206	6.21
417.568	6.27
417.93	6.08
418.292	6.14
418.653	6.52
419.015	6.25
419.377	6.31
419.738	6.36
420.1	6.28
420.461	6.3
420.822	6.24
421.184	6.31
421.545	6.31
421.906	6.25
422.267	6.25
422.629	6.14
422.99	6.46
423.351	6.32
423.712	6.34
424.073	6.55
424.434	6.57
424.795	6.69
425.155	6.52
425.516	6.58
425.877	6.55
426.238	6.63
426.598	6.56
426.959	6.68
427.32	6.77
427.68	6.83
428.041	7.04
428.401	6.84
428.761	7.09
429.122	6.94
429.482	7.02
429.842	7.14
430.202	7.45
430.563	7.32
430.923	7.37
431.283	7.14
431.643	7.25
432.003	7.44
432.363	7.27
432.722	7.38
433.082	7.43
433.442	7.54
433.802	7.61
434.161	7.52
434.521	7.52
434.881	7.61
435.24	7.64
435.6	7.55
435.959	7.62
436.319	7.65
436.678	7.72
437.037	7.87
437.396	7.93
437.756	7.9
438.115	7.89
438.474	8.01
438.833	7.9
439.192	8.01
439.551	7.93
439.91	7.9
440.269	7.99
440.628	8.24
440.987	7.84
441.345	8.15
441.704	8
442.063	8.15
442.421	8.16
442.78	7.92
443.138	8.24
443.497	8.23
443.855	8.3
444.214	8.31
444.572	8.44
444.93	8.28
445.288	8.49
445.647	8.58
446.005	8.47
446.363	8.54
446.721	8.52
447.079	8.48
447.437	8.45
447.795	8.44
448.153	8.23
448.51	8.51
448.868	8.53
449.226	8.55
449.584	8.58
449.941	8.64
450.299	8.65
450.656	8.68
451.014	8.79
451.371	8.85
451.729	8.79
452.086	9.01
452.443	8.86
452.801	9.12
453.158	8.91
453.515	9.08
453.872	9.02
454.229	9.07
454.586	9.03
454.943	9.18
455.3	9.21
455.657	9.25
456.014	9.17
456.371	9.27
456.727	9.45
457.084	9.04
457.441	9.42
457.797	9.44
458.154	9.42
458.51	9.45
458.867	9.36
459.223	9.38
459.58	9.25
459.936	9.36
460.292	9.66
460.648	9.42
461.005	9.33
461.361	9.37
461.717	9.36
462.073	9.48
462.429	9.44
462.785	9.45
463.141	9.56
463.496	9.63
463.852	9.9
464.208	9.79
464.564	9.72
464.919	9.79
465.275	9.6
465.631	9.88
465.986	10.11
466.342	9.9
466.697	9.88
467.052	10.01
467.408	9.91
467.763	9.96
468.118	10.12
468.473	10.08
468.829	10.16
469.184	10.11
469.539	10.15
469.894	10.36
470.249	10.33
470.603	10.11
470.958	10.25
471.313	10.45
471.668	10.59
472.023	10.26
472.377	10.44
472.732	10.49
473.086	10.34
473.441	10.46
473.795	10.37
474.15	10.5
474.504	10.61
474.859	10.62
475.213	10.5
475.567	10.76
475.921	10.72
476.275	10.76
476.63	10.74
476.984	10.89
477.338	10.93
477.692	10.67
478.045	10.74
478.399	10.91
478.753	10.77
479.107	10.9
479.461	10.86
479.814	10.69
480.168	10.86
480.521	10.93
480.875	10.88
481.228	11.04
481.582	11.06
481.935	10.89
482.289	11.03
482.642	11.07
482.995	11.03
483.348	10.98
483.701	11.03
484.055	10.99
484.408	10.94
484.761	10.77
485.114	10.59
485.466	10.51
485.819	10.53
486.172	10.54
486.525	10.68
486.878	10.75
487.23	10.8
487.583	10.93
487.936	11.03
488.288	11.08
488.641	11.01
488.993	10.96
489.345	10.87
489.698	10.94
490.05	10.98
490.402	11.05
490.754	11.09
491.107	11.19
491.459	11.25
491.811	11.5
492.163	11.45
492.515	11.52
492.866	11.27
493.218	11.23
493.57	11.24
493.922	11.27
494.274	11.35
494.625	11.47
494.977	11.66
495.328	11.8
495.68	11.78
496.031	11.81
496.383	11.9
496.734	12.04
497.086	12.13
497.437	12.07
497.788	12.01
498.139	11.96
498.49	11.81
498.842	11.83
499.193	12.04
499.544	12.08
499.894	12.15
500.245	12.11
500.596	12.2
500.947	12.18
501.298	12.32
501.648	12.15
501.999	12.35
502.35	12.38
502.7	12.44
503.051	12.47
503.401	12.34
503.752	12.43
504.102	12.33
504.452	12.46
504.803	12.31
505.153	12.47
505.503	12.59
505.853	12.49
506.203	12.65
506.553	12.5
506.903	12.59
507.253	12.64
507.603	12.67
507.953	12.68
508.303	12.59
508.652	12.59
509.002	12.71
509.352	12.75
509.701	12.73
510.051	12.64
510.4	12.74
510.75	12.72
511.099	12.56
511.449	12.81
511.798	12.73
512.147	12.69
512.496	12.67
512.846	12.98
513.195	12.88
513.544	12.92
513.893	12.91
514.242	12.85
514.591	12.8
514.939	12.95
515.288	12.98
515.637	13.08
515.986	13.03
516.334	13.05
516.683	13.14
517.032	13.31
517.38	13.18
517.729	13.33
518.077	13.17
518.426	13.29
518.774	13.16
519.122	13.27
519.47	13.19
519.819	13.09
520.167	13.03
520.515	12.95
520.863	13.07
521.211	13
521.559	13.07
521.907	13.2
522.255	13.24
522.602	13.36
522.95	13.28
523.298	13.52
523.645	13.42
523.993	13.47
524.341	13.47
524.688	13.42
525.036	13.45
525.383	13.5
525.73	13.46
526.078	13.46
526.425	13.49
526.772	13.43
527.119	13.32
527.466	13.19
527.814	13.29
528.161	13.38
528.508	13.37
528.854	13.39
529.201	13.35
529.548	13.26
529.895	13.06
530.242	12.99
530.588	13.07
530.935	13.07
531.282	13.14
531.628	13.15
531.975	13.28
532.321	13.43
532.667	13.57
533.014	13.56
533.36	13.6
533.706	13.64
534.052	13.69
534.399	13.62
534.745	13.49
535.091	13.42
535.437	13.51
535.783	13.52
536.129	13.66
536.474	13.75
536.82	13.79
537.166	13.96
537.512	13.91
537.857	13.89
538.203	13.8
538.549	13.97
538.894	14.02
539.239	13.9
539.585	13.99
539.93	14.13
540.276	14.28
540.621	14.33
540.966	14.43
541.311	14.43
541.656	14.41
542.001	14.38
542.346	14.15
542.691	14.11
543.036	13.92
543.381	13.95
543.726	13.91
544.071	13.97
544.415	14.1
544.76	14.13
545.105	14.19
545.449	14.27
545.794	14.44
546.138	14.46
546.483	14.56
546.827	14.59
547.171	14.64
547.516	14.57
547.86	14.62
548.204	14.66
548.548	14.61
548.892	14.74
549.236	14.66
549.58	14.79
549.924	14.99
550.268	14.94
550.612	15.03
550.956	15.25
551.3	15.11
551.643	15.22
551.987	15.24
552.33	15.27
552.674	15.15
553.017	15.39
553.361	15.29
553.704	15.33
554.048	15.22
554.391	15.39
554.734	15.2
555.077	15.56
555.42	15.25
555.764	15.55
556.107	15.44
556.45	15.67
556.793	15.55
557.135	15.64
557.478	15.66
557.821	15.74
558.164	15.66
558.507	15.61
558.849	15.77
559.192	15.66
559.534	15.81
559.877	15.78
560.219	15.85
560.562	16.12
560.904	16.21
561.246	15.87
561.589	15.83
561.931	15.69
562.273	15.9
562.615	15.98
562.957	16.18
563.299	15.97
563.641	16
563.983	15.97
564.325	15.89
564.667	16.21
565.008	16.17
565.35	16.04
565.692	16.21
566.033	16.28
566.375	16.33
566.716	16.25
567.058	16.31
567.399	16.37
567.741	16.21
568.082	16.36
568.423	16.26
568.764	16.46
569.105	16.19
569.447	16.45
569.788	16.53
570.129	16.3
570.47	16.6
570.811	16.62
571.151	16.69
571.492	16.71
571.833	16.59
572.174	16.75
572.514	16.65
572.855	16.73
573.195	16.71
573.536	16.74
573.876	16.87
574.217	16.93
574.557	16.91
574.898	16.86
575.238	16.92
575.578	17
575.918	16.82
576.258	17.03
576.598	17.03
576.938	16.95
577.278	16.91
577.618	17.08
577.958	17.17
578.298	17.26
578.638	17.34
578.977	17.35
579.317	17.42
579.657	17.28
579.996	17.45
580.336	17.39
580.675	17.44
581.014	17.47
581.354	17.58
581.693	17.4
582.032	17.7
582.372	17.53
582.711	17.69
583.05	17.25
583.389	17.82
583.728	17.83
584.067	17.97
584.406	18.02
584.745	17.94
585.083	17.65
585.422	17.99
585.761	17.89
586.1	17.97
586.438	18.02
586.777	18.02
587.115	18.26
587.454	18
587.792	18.15
588.13	18.3
588.469	18.17
588.807	18.37
589.145	18.39
589.483	18.5
589.821	18.23
590.159	18.61
590.497	18.46
590.835	18.34
591.173	18.71
591.511	18.36
591.849	18.4
592.187	18.47
592.524	18.32
592.862	18.31
593.2	18.71
593.537	18.8
593.875	18.79
594.212	18.66
594.55	19.18
594.887	18.89
595.224	18.91
595.561	18.77
595.899	18.91
596.236	18.93
596.573	18.8
596.91	19.17
597.247	18.99
597.584	19.19
597.921	19.25
598.258	18.93
598.594	19.13
598.931	19.08
599.268	19.14
599.604	19.17
599.941	19.12
600.277	19.4
600.614	19.28
600.95	19.01
601.287	19.64
601.623	19.76
601.959	19.59
602.296	19.33
602.632	19.67
602.968	19.46
603.304	19.71
603.64	19.61
603.976	19.55
604.312	19.51
604.648	19.55
604.984	19.61
605.319	19.97
605.655	19.75
605.991	19.62
606.326	19.95
606.662	19.65
606.998	19.63
607.333	19.84
607.668	19.7
608.004	19.95
608.339	19.94
608.674	19.99
609.01	20.29
609.345	19.98
609.68	20.29
610.015	20.18
610.35	20.22
610.685	20.35
611.02	20.12
611.355	20.29
611.689	20.07
612.024	20.4
612.359	20.05
612.694	20.36
613.028	20.43
613.363	20.53
613.697	20.5
614.032	20.66
614.366	20.62
614.7	20.58
615.035	20.61
615.369	20.37
615.703	20.33
616.037	20.91
616.371	20.98
616.705	20.9
617.039	21.1
617.373	20.84
617.707	20.79
618.041	20.95
618.375	20.83
618.709	21.44
619.042	21.29
619.376	21.16
619.71	21.48
620.043	21.33
620.377	21.05
620.71	21.06
621.043	21.34
621.377	21.32
621.71	21.26
622.043	21.33
622.376	21.54
622.709	20.87
623.043	21.19
623.376	21.76
623.709	21.71
624.041	21.47
624.374	21.08
624.707	21.81
625.04	21.57
625.373	21.44
625.705	21.65
626.038	22.24
626.37	22.17
626.703	22.04
627.035	21.8
627.368	21.56
627.7	21.72
628.032	21.75
628.365	22.03
628.697	21.98
629.029	21.66
629.361	22.08
629.693	21.84
630.025	21.79
630.357	22.53
630.689	22.24
631.021	22.08
631.353	22.38
631.684	22.06
632.016	22.4
632.348	22.04
632.679	22.35
633.011	22.52
633.342	22.48
633.674	22.59
634.005	22.37
634.336	22.8
634.668	22.99
634.999	22.43
635.33	22.65
635.661	22.77
635.992	22.62
636.323	22.48
636.654	22.69
636.985	22.69
637.316	23
637.647	23.18
637.977	22.9
638.308	23.33
638.639	22.71
638.969	22.79
639.3	22.84
639.63	23.18
639.961	23.11
640.291	23.35
640.622	23.67
640.952	23.23
641.282	23
641.612	23.04
641.943	23.59
642.273	23.28
642.603	23.68
642.933	23.66
643.263	23.15
643.592	23.39
643.922	23.32
644.252	24.21
644.582	23.97
644.911	23.46
645.241	23.83
645.571	23.97
645.9	23.94
646.23	23.84
646.559	23.59
646.888	23.94
647.218	23.43
647.547	23.56
647.876	23.11
648.205	24.13
648.534	23.95
648.863	23.89
649.192	24.12
649.521	24.02
649.85	23.68
650.179	23.96
650.508	23.82
650.837	24.47
651.165	23.9
651.494	24.68
651.822	24.05
652.151	24.33
652.479	24.01
652.808	24.51
653.136	24.21
653.465	24.49
653.793	24.86
654.121	24.59
654.449	24.31
654.777	24.75
655.105	24.58
655.433	24.6
655.761	24.38
656.089	24.88
656.417	25.01
656.745	24.92
657.073	24.82
657.4	24.74
657.728	24.92
658.056	25.48
658.383	24.79
658.711	24.62
659.038	25.28
659.365	24.59
659.693	25.2
660.02	25.34
660.347	25.32
660.674	25.07
661.001	25.44
661.329	25.12
661.656	25.08
661.982	25.25
662.309	25.11
662.636	25.56
662.963	25.56
663.29	25.28
663.616	25
663.943	26
664.27	25.68
664.596	25.7
664.923	25.4
665.249	25.7
665.576	25.62
665.902	26.09
666.228	25.83
666.554	25.73
666.881	25.62
667.207	25.84
667.533	26.44
667.859	26.24
668.185	26.3
668.511	25.51
668.837	26.2
669.162	26.44
669.488	26.03
669.814	26.29
670.139	26.14
670.465	25.84
670.791	25.88
671.116	25.88
671.442	26.2
671.767	26.08
672.092	26.13
672.418	26.16
672.743	26.26
673.068	26.68
673.393	26.44
673.718	26.2
674.043	26.47
674.368	26.42
674.693	26.57
675.018	26.96
675.343	26.9
675.667	26.95
675.992	27.75
676.317	26.44
676.641	26.07
676.966	26.91
677.29	26.73
677.615	25.91
677.939	26.58
