Data from 20-8_crown_Reflection__1__112.txt Node

Date: Fri Nov 11 21:00:06 CST 2022
User: ToomeyLab
Spectrometer: FLMS14357
Trigger mode: 0
Integration Time (sec): 1.000000E-2
Scans to average: 100
Electric dark correction enabled: true
Nonlinearity correction enabled: false
Boxcar width: 0
XAxis mode: Wavelengths
Number of Pixels in Spectrum: 2048
>>>>>Begin Spectral Data<<<<<
189.047	592.83
189.435	592.83
189.823	592.83
190.211	-74.09
190.599	-778.39
190.987	54.58
191.375	153.35
191.763	5.57
192.151	37.41
192.538	54.73
192.926	-2.48
193.314	95.92
193.702	-75.71
194.089	31.19
194.477	72.19
194.864	50.77
195.252	66.53
195.639	65.66
196.027	92.26
196.414	5.21
196.801	281.86
197.189	95.73
197.576	78.22
197.963	171.39
198.351	-134.45
198.738	-17.02
199.125	19.73
199.512	11.12
199.899	-7.81
200.286	-45.25
200.673	-18.67
201.06	9.4
201.447	18.99
201.833	29.32
202.22	-17.37
202.607	-2.83
202.994	-0.36
203.38	13.73
203.767	1.28
204.154	-1.47
204.54	24.54
204.927	1.44
205.313	-43.29
205.699	-62.62
206.086	9.82
206.472	-8.75
206.858	19.12
207.245	44.4
207.631	-10.22
208.017	17.05
208.403	-5.8
208.789	-12.4
209.175	28.8
209.561	43.61
209.947	-29.51
210.333	5.82
210.719	-7.64
211.105	24.91
211.491	-3.62
211.876	-2.57
212.262	12.31
212.648	-7.74
213.034	6.03
213.419	-47.88
213.805	-7.67
214.19	2.76
214.576	3.58
214.961	-41.24
215.346	-21.28
215.732	-4.48
216.117	29.55
216.502	-37.08
216.888	-10.91
217.273	10.92
217.658	-5.48
218.043	-12.23
218.428	-6.93
218.813	-0.97
219.198	37.91
219.583	5.22
219.968	8.17
220.353	-23.19
220.738	-31.89
221.122	-6.39
221.507	-42.54
221.892	-21.9
222.276	2.87
222.661	14.69
223.046	-22.95
223.43	-11.59
223.815	1.91
224.199	2.04
224.583	7.48
224.968	-13.63
225.352	6.27
225.736	-7.07
226.121	-4.43
226.505	1.91
226.889	-3.86
227.273	4.89
227.657	-0.28
228.041	0.99
228.425	-1.28
228.809	4.81
229.193	4.66
229.577	6.15
229.961	6.01
230.344	5.77
230.728	4.89
231.112	4.79
231.495	4.87
231.879	3.57
232.263	4.48
232.646	4.59
233.03	5.7
233.413	4.97
233.797	5
234.18	3.44
234.563	5.09
234.946	3.91
235.33	5.22
235.713	5.03
236.096	5.74
236.479	4.22
236.862	5.31
237.245	5.13
237.628	4.95
238.011	3.31
238.394	5.39
238.777	4.66
239.16	6.84
239.543	4.99
239.925	5.97
240.308	4.56
240.691	5.33
241.073	5.09
241.456	4.25
241.838	5.87
242.221	4.72
242.603	4.7
242.986	4.54
243.368	5.34
243.75	5.2
244.133	5.16
244.515	4.82
244.897	5.29
245.279	4.21
245.661	5.11
246.043	3.91
246.425	5.24
246.807	4.3
247.189	5.32
247.571	4.51
247.953	4.67
248.335	4.89
248.717	5.05
249.098	4.97
249.48	4.87
249.862	5.38
250.243	4.76
250.625	4.35
251.006	5.54
251.388	4.72
251.769	4.64
252.151	4.75
252.532	4.79
252.913	5.32
253.295	4.59
253.676	4.3
254.057	4.28
254.438	5.11
254.819	4.13
255.2	5.08
255.581	3.81
255.962	3.98
256.343	3.87
256.724	4.58
257.105	4.37
257.486	4.28
257.867	5.4
258.247	4.32
258.628	3.87
259.009	4.17
259.389	4.24
259.77	4.5
260.15	4.31
260.531	4.56
260.911	4.33
261.292	4.6
261.672	4.44
262.052	4.36
262.432	4.61
262.813	5.08
263.193	3.62
263.573	4.14
263.953	4.99
264.333	4.04
264.713	4.31
265.093	4.74
265.473	3.63
265.853	4.1
266.233	4
266.612	4.08
266.992	4.16
267.372	5.05
267.752	3.87
268.131	4.2
268.511	4.19
268.89	3.53
269.27	3.97
269.649	3.82
270.029	4.46
270.408	4.41
270.787	4.42
271.167	4.03
271.546	4.48
271.925	4.53
272.304	4.12
272.683	4.23
273.062	3.86
273.441	4.37
273.82	4.03
274.199	4.15
274.578	3.94
274.957	4.61
275.336	4.55
275.715	4.17
276.093	3.6
276.472	4.37
276.851	4.06
277.229	4.13
277.608	4.31
277.986	3.99
278.365	3.51
278.743	3.68
279.122	4.55
279.5	4.13
279.878	4.11
280.257	3.54
280.635	3.92
281.013	3.88
281.391	3.97
281.769	4.48
282.147	3.53
282.525	3.59
282.903	3.91
283.281	3.88
283.659	4.36
284.037	4.42
284.415	3.79
284.792	3.6
285.17	4.18
285.548	3.88
285.925	4.06
286.303	3.69
286.68	4.04
287.058	4.23
287.435	4.09
287.813	3.97
288.19	3.8
288.567	3.82
288.945	4.17
289.322	4.17
289.699	3.58
290.076	4.14
290.453	3.95
290.83	3.78
291.207	3.88
291.584	4.2
291.961	4.2
292.338	3.83
292.715	4.15
293.092	4.4
293.469	3.88
293.845	3.88
294.222	3.94
294.599	4.11
294.975	3.95
295.352	3.99
295.728	4.36
296.105	3.58
296.481	3.3
296.858	3.52
297.234	3.83
297.61	3.55
297.986	3.92
298.363	4.04
298.739	3.67
299.115	3.9
299.491	3.98
299.867	3.76
300.243	3.72
300.619	3.79
300.995	3.8
301.371	4.42
301.746	3.7
302.122	3.87
302.498	4.25
302.874	3.9
303.249	3.77
303.625	3.5
304	3.1
304.376	4.09
304.751	3.37
305.127	3.31
305.502	4.27
305.878	4.05
306.253	3.4
306.628	3.84
307.003	4.04
307.378	3.94
307.754	4.25
308.129	3.45
308.504	3.99
308.879	3.52
309.254	4.13
309.629	3.5
310.003	3.99
310.378	3.74
310.753	3.94
311.128	4.07
311.502	4.24
311.877	3.56
312.252	3.82
312.626	3.96
313.001	3.77
313.375	3.92
313.75	3.54
314.124	3.48
314.498	3.5
314.873	3.89
315.247	4.09
315.621	3.89
315.995	3.71
316.369	3.6
316.743	3.55
317.117	4.06
317.491	3.45
317.865	2.95
318.239	3.68
318.613	3.66
318.987	3.78
319.361	3.32
319.734	3.65
320.108	3.93
320.482	4.01
320.855	3.85
321.229	3.34
321.602	4.18
321.976	3.89
322.349	4.54
322.723	3.83
323.096	3.67
323.469	4.05
323.843	4.46
324.216	3.6
324.589	3.61
324.962	4.33
325.335	3.99
325.708	3.84
326.081	3.65
326.454	4.09
326.827	3.36
327.2	4.45
327.573	4.74
327.945	3.74
328.318	3.87
328.691	3.84
329.063	3.96
329.436	3.84
329.809	3.93
330.181	3.92
330.553	3.38
330.926	3.69
331.298	3.53
331.671	3.9
332.043	3.57
332.415	4.09
332.787	4.15
333.159	3.54
333.532	3.94
333.904	3.83
334.276	3.76
334.648	3.81
335.02	3.71
335.391	3.96
335.763	4.04
336.135	3.53
336.507	3.6
336.879	4.17
337.25	3.77
337.622	3.98
337.993	3.85
338.365	3.82
338.736	3.95
339.108	3.66
339.479	3.59
339.851	3.76
340.222	3.53
340.593	4.1
340.964	3.99
341.336	4.11
341.707	3.53
342.078	3.84
342.449	4.08
342.82	3.83
343.191	3.74
343.562	3.77
343.933	3.89
344.303	3.66
344.674	3.6
345.045	3.63
345.416	4.16
345.786	3.45
346.157	3.79
346.527	3.96
346.898	3.26
347.268	3.73
347.639	3.78
348.009	3.8
348.38	4.12
348.75	3.88
349.12	4.3
349.49	3.84
349.861	4.07
350.231	3.95
350.601	3.84
350.971	4.02
351.341	4.09
351.711	3.95
352.081	4.16
352.45	3.91
352.82	3.71
353.19	4.18
353.56	3.61
353.929	3.57
354.299	3.91
354.669	4.22
355.038	3.85
355.408	4.29
355.777	4.07
356.147	4.39
356.516	4.02
356.885	4.33
357.254	3.61
357.624	3.73
357.993	4.32
358.362	4.17
358.731	3.78
359.1	3.8
359.469	3.5
359.838	3.88
360.207	4.08
360.576	4.1
360.945	4.01
361.314	3.79
361.682	3.83
362.051	4.15
362.42	4.44
362.788	4.14
363.157	3.89
363.525	3.85
363.894	3.78
364.262	4.24
364.631	4.13
364.999	4.06
365.367	4.1
365.735	4.01
366.104	4.2
366.472	3.89
366.84	3.69
367.208	3.86
367.576	4.37
367.944	4.29
368.312	4.21
368.68	4.18
369.048	4.17
369.416	4.38
369.783	4.39
370.151	4.02
370.519	4.24
370.886	4.25
371.254	4.14
371.621	4.01
371.989	4.1
372.356	3.99
372.724	4.41
373.091	4.21
373.458	4.09
373.826	4.03
374.193	3.9
374.56	4.26
374.927	3.92
375.294	4.18
375.661	4.4
376.028	3.76
376.395	4.3
376.762	4.26
377.129	4.14
377.496	4.2
377.863	4.14
378.229	4.26
378.596	3.91
378.963	4.3
379.329	4.28
379.696	4.37
380.062	4.37
380.429	4.46
380.795	4.48
381.161	4.47
381.528	4.29
381.894	4.31
382.26	4.47
382.626	4.46
382.993	4.07
383.359	4.51
383.725	4.07
384.091	4.26
384.457	4.32
384.823	4.15
385.188	4.17
385.554	4.02
385.92	3.99
386.286	4.1
386.651	4.2
387.017	4.26
387.383	4.19
387.748	4.01
388.114	4.03
388.479	4.12
388.845	4.46
389.21	4.18
389.575	4.32
389.94	4.13
390.306	4.27
390.671	4.28
391.036	4.28
391.401	4.32
391.766	4.71
392.131	4.3
392.496	4.3
392.861	4.41
393.226	4.22
393.591	4.34
393.956	4.29
394.32	4.36
394.685	4.39
395.05	4.6
395.414	4.04
395.779	4.21
396.143	4.14
396.508	4.36
396.872	4.41
397.236	4.29
397.601	4.34
397.965	4.31
398.329	4.39
398.694	4.53
399.058	4.18
399.422	4.09
399.786	4.35
400.15	4.38
400.514	4.53
400.878	4.5
401.242	4.44
401.605	4.53
401.969	4.5
402.333	4.22
402.697	4.23
403.06	4.57
403.424	4.2
403.787	4.57
404.151	4.33
404.514	4.33
404.878	4.34
405.241	4.32
405.604	4.11
405.968	4.26
406.331	4.31
406.694	4.37
407.057	4.26
407.42	4.35
407.783	4.28
408.146	4.57
408.509	4.44
408.872	4.15
409.235	4.44
409.598	4.35
409.961	4.42
410.323	4.26
410.686	4.43
411.049	4.1
411.411	4.29
411.774	4.29
412.136	4.19
412.499	4.32
412.861	4.54
413.223	4.29
413.586	4.34
413.948	4.51
414.31	4.33
414.672	4.5
415.035	4.32
415.397	4.22
415.759	4.46
416.121	4.42
416.483	4.19
416.845	4.53
417.206	4.44
417.568	4.34
417.93	4.24
418.292	4.23
418.653	4.53
419.015	4.5
419.377	4.36
419.738	4.4
420.1	4.36
420.461	4.44
420.822	4.31
421.184	4.3
421.545	4.24
421.906	4.32
422.267	4.3
422.629	4.2
422.99	4.24
423.351	4.35
423.712	4.28
424.073	4.36
424.434	4.42
424.795	4.44
425.155	4.29
425.516	4.25
425.877	4.43
426.238	4.31
426.598	4.28
426.959	4.34
427.32	4.41
427.68	4.43
428.041	4.54
428.401	4.25
428.761	4.54
429.122	4.29
429.482	4.57
429.842	4.46
430.202	4.38
430.563	4.69
430.923	4.52
431.283	4.35
431.643	4.28
432.003	4.6
432.363	4.32
432.722	4.6
433.082	4.47
433.442	4.68
433.802	4.38
434.161	4.34
434.521	4.24
434.881	4.42
435.24	4.37
435.6	4.37
435.959	4.41
436.319	4.36
436.678	4.39
437.037	4.42
437.396	4.62
437.756	4.45
438.115	4.39
438.474	4.31
438.833	4.43
439.192	4.42
439.551	4.43
439.91	4.55
440.269	4.45
440.628	4.47
440.987	4.52
441.345	4.42
441.704	4.41
442.063	4.43
442.421	4.32
442.78	4.23
443.138	4.39
443.497	4.27
443.855	4.43
444.214	4.33
444.572	4.5
444.93	4.32
445.288	4.44
445.647	4.51
446.005	4.5
446.363	4.36
446.721	4.42
447.079	4.48
447.437	4.31
447.795	4.43
448.153	4.28
448.51	4.29
448.868	4.33
449.226	4.42
449.584	4.37
449.941	4.44
450.299	4.33
450.656	4.5
451.014	4.48
451.371	4.45
451.729	4.47
452.086	4.51
452.443	4.42
452.801	4.53
453.158	4.52
453.515	4.47
453.872	4.35
454.229	4.4
454.586	4.41
454.943	4.44
455.3	4.45
455.657	4.5
456.014	4.52
456.371	4.6
456.727	4.52
457.084	4.18
457.441	4.62
457.797	4.49
458.154	4.51
458.51	4.5
458.867	4.35
459.223	4.5
459.58	4.4
459.936	4.56
460.292	4.49
460.648	4.43
461.005	4.34
461.361	4.41
461.717	4.3
462.073	4.35
462.429	4.4
462.785	4.36
463.141	4.34
463.496	4.41
463.852	4.54
464.208	4.52
464.564	4.49
464.919	4.39
465.275	4.43
465.631	4.53
465.986	4.57
466.342	4.61
466.697	4.45
467.052	4.56
467.408	4.5
467.763	4.38
468.118	4.48
468.473	4.6
468.829	4.51
469.184	4.43
469.539	4.46
469.894	4.54
470.249	4.55
470.603	4.38
470.958	4.44
471.313	4.57
471.668	4.69
472.023	4.45
472.377	4.51
472.732	4.38
473.086	4.39
473.441	4.45
473.795	4.38
474.15	4.48
474.504	4.33
474.859	4.51
475.213	4.58
475.567	4.48
475.921	4.5
476.275	4.46
476.63	4.57
476.984	4.62
477.338	4.55
477.692	4.28
478.045	4.48
478.399	4.67
478.753	4.42
479.107	4.41
479.461	4.44
479.814	4.38
480.168	4.43
480.521	4.51
480.875	4.52
481.228	4.34
481.582	4.43
481.935	4.4
482.289	4.38
482.642	4.45
482.995	4.34
483.348	4.41
483.701	4.45
484.055	4.34
484.408	4.3
484.761	4.25
485.114	4.09
485.466	4.09
485.819	4.07
486.172	4.12
486.525	4.23
486.878	4.26
487.23	4.32
487.583	4.29
487.936	4.38
488.288	4.31
488.641	4.23
488.993	4.2
489.345	4.13
489.698	4.2
490.05	4.21
490.402	4.19
490.754	4.35
491.107	4.29
491.459	4.3
491.811	4.47
492.163	4.45
492.515	4.31
492.866	4.24
493.218	4.16
493.57	4.19
493.922	4.22
494.274	4.31
494.625	4.37
494.977	4.45
495.328	4.49
495.68	4.39
496.031	4.34
496.383	4.46
496.734	4.45
497.086	4.44
497.437	4.56
497.788	4.27
498.139	4.45
498.49	4.38
498.842	4.38
499.193	4.46
499.544	4.47
499.894	4.3
500.245	4.46
500.596	4.44
500.947	4.38
501.298	4.48
501.648	4.48
501.999	4.5
502.35	4.46
502.7	4.43
503.051	4.5
503.401	4.39
503.752	4.38
504.102	4.44
504.452	4.46
504.803	4.33
505.153	4.3
505.503	4.55
505.853	4.42
506.203	4.49
506.553	4.35
506.903	4.35
507.253	4.47
507.603	4.4
507.953	4.43
508.303	4.34
508.652	4.38
509.002	4.4
509.352	4.45
509.701	4.45
510.051	4.35
510.4	4.39
510.75	4.34
511.099	4.35
511.449	4.34
511.798	4.45
512.147	4.26
512.496	4.25
512.846	4.48
513.195	4.4
513.544	4.35
513.893	4.38
514.242	4.21
514.591	4.41
514.939	4.33
515.288	4.29
515.637	4.4
515.986	4.47
516.334	4.37
516.683	4.49
517.032	4.43
517.38	4.33
517.729	4.46
518.077	4.44
518.426	4.37
518.774	4.4
519.122	4.37
519.47	4.41
519.819	4.27
520.167	4.25
520.515	4.37
520.863	4.38
521.211	4.33
521.559	4.26
521.907	4.42
522.255	4.31
522.602	4.44
522.95	4.31
523.298	4.41
523.645	4.44
523.993	4.45
524.341	4.49
524.688	4.48
525.036	4.38
525.383	4.33
525.73	4.34
526.078	4.31
526.425	4.34
526.772	4.42
527.119	4.23
527.466	4.32
527.814	4.32
528.161	4.35
528.508	4.3
528.854	4.29
529.201	4.3
529.548	4.23
529.895	4.1
530.242	4.02
530.588	4.09
530.935	4.12
531.282	4.2
531.628	4.22
531.975	4.29
532.321	4.26
532.667	4.33
533.014	4.32
533.36	4.32
533.706	4.36
534.052	4.34
534.399	4.3
534.745	4.24
535.091	4.17
535.437	4.15
535.783	4.26
536.129	4.32
536.474	4.37
536.82	4.3
537.166	4.32
537.512	4.36
537.857	4.28
538.203	4.16
538.549	4.31
538.894	4.26
539.239	4.34
539.585	4.31
539.93	4.37
540.276	4.51
540.621	4.45
540.966	4.47
541.311	4.34
541.656	4.4
542.001	4.27
542.346	4.29
542.691	4.14
543.036	4.03
543.381	4.14
543.726	4.18
544.071	4.24
544.415	4.28
544.76	4.3
545.105	4.21
545.449	4.25
545.794	4.38
546.138	4.31
546.483	4.27
546.827	4.4
547.171	4.36
547.516	4.27
547.86	4.32
548.204	4.28
548.548	4.24
548.892	4.28
549.236	4.29
549.58	4.44
549.924	4.32
550.268	4.41
550.612	4.47
550.956	4.55
551.3	4.34
551.643	4.47
551.987	4.39
552.33	4.31
552.674	4.35
553.017	4.39
553.361	4.4
553.704	4.3
554.048	4.16
554.391	4.43
554.734	4.34
555.077	4.46
555.42	4.36
555.764	4.45
556.107	4.35
556.45	4.46
556.793	4.5
557.135	4.39
557.478	4.51
557.821	4.56
558.164	4.48
558.507	4.36
558.849	4.3
559.192	4.43
559.534	4.58
559.877	4.6
560.219	4.3
560.562	4.29
560.904	4.51
561.246	4.34
561.589	4.39
561.931	4.27
562.273	4.48
562.615	4.39
562.957	4.49
563.299	4.35
563.641	4.34
563.983	4.2
564.325	4.31
564.667	4.46
565.008	4.51
565.35	4.43
565.692	4.17
566.033	4.29
566.375	4.35
566.716	4.46
567.058	4.45
567.399	4.6
567.741	4.4
568.082	4.41
568.423	4.44
568.764	4.54
569.105	4.35
569.447	4.58
569.788	4.42
570.129	4.25
570.47	4.33
570.811	4.36
571.151	4.49
571.492	4.54
571.833	4.48
572.174	4.51
572.514	4.35
572.855	4.26
573.195	4.17
573.536	4.41
573.876	4.31
574.217	4.33
574.557	4.3
574.898	4.33
575.238	4.35
575.578	4.34
575.918	4.57
576.258	4.4
576.598	4.36
576.938	4.26
577.278	4.26
577.618	4.31
577.958	4.23
578.298	4.41
578.638	4.39
578.977	4.43
579.317	4.72
579.657	4.37
579.996	4.38
580.336	4.45
580.675	4.4
581.014	4.59
581.354	4.15
581.693	4.19
582.032	4.31
582.372	4.37
582.711	4.45
583.05	4.39
583.389	4.42
583.728	4.43
584.067	4.57
584.406	4.27
584.745	4.58
585.083	4.5
585.422	4.21
585.761	4.42
586.1	4.43
586.438	4.5
586.777	4.33
587.115	4.31
587.454	4.48
587.792	4.3
588.13	4.25
588.469	4.57
588.807	4.33
589.145	4.39
589.483	4.39
589.821	4.4
590.159	4.43
590.497	4.67
590.835	4.39
591.173	4.48
591.511	4.24
591.849	4.5
592.187	4.41
592.524	4.42
592.862	4.43
593.2	4.48
593.537	4.36
593.875	4.68
594.212	4.16
594.55	4.39
594.887	4.31
595.224	4.42
595.561	4.27
595.899	4.18
596.236	4.27
596.573	4.25
596.91	4.56
597.247	4.44
597.584	4.48
597.921	4.4
598.258	4.3
598.594	4.19
598.931	4.25
599.268	4.28
599.604	4.24
599.941	4.35
600.277	4.41
600.614	4.45
600.95	4.21
601.287	4.38
601.623	4.59
601.959	4.57
602.296	4.17
602.632	4.41
602.968	4.26
603.304	4.54
603.64	4.46
603.976	4.36
604.312	4.37
604.648	4.24
604.984	4.28
605.319	4.44
605.655	4.26
605.991	4.34
606.326	4.43
606.662	4.28
606.998	4.37
607.333	4.27
607.668	4.27
608.004	4.33
608.339	4.42
608.674	4.44
609.01	4.37
609.345	4.34
609.68	4.47
610.015	4.29
610.35	4.36
610.685	4.46
611.02	4.26
611.355	4.36
611.689	4.36
612.024	4.32
612.359	4.44
612.694	4.33
613.028	4.41
613.363	4.52
613.697	4.43
614.032	4.33
614.366	4.29
614.7	4.28
615.035	4.24
615.369	4.27
615.703	4.41
616.037	4.68
616.371	4.23
616.705	4.5
617.039	4.54
617.373	4.35
617.707	4.29
618.041	4.22
618.375	4.2
618.709	4.71
619.042	4.41
619.376	4.29
619.71	4.51
620.043	4.36
620.377	4.47
620.71	4.23
621.043	4.05
621.377	4.22
621.71	4.25
622.043	4.32
622.376	4.5
622.709	4.16
623.043	4.07
623.376	4.27
623.709	4.47
624.041	4.63
624.374	4.01
624.707	4.55
625.04	4.36
625.373	4.32
625.705	4.2
626.038	4.57
626.37	4.54
626.703	3.74
627.035	4.58
627.368	4.1
627.7	4.26
628.032	4.25
628.365	4.36
628.697	4.51
629.029	4.21
629.361	4.32
629.693	4.46
630.025	4.3
630.357	4.54
630.689	4.09
631.021	4.41
631.353	4.78
631.684	4.41
632.016	4.09
632.348	4.13
632.679	4.17
633.011	4.73
633.342	4.17
633.674	4.44
634.005	4.06
634.336	4.37
634.668	4.41
634.999	4.5
635.33	4.35
635.661	4.35
635.992	4.53
636.323	4.32
636.654	4.41
636.985	4.44
637.316	4.39
637.647	4.54
637.977	4.45
638.308	4.31
638.639	4.1
638.969	4.43
639.3	4.56
639.63	4.55
639.961	4.23
640.291	4.74
640.622	4.68
640.952	4.26
641.282	4.11
641.612	4.16
641.943	4.61
642.273	4.18
642.603	4.37
642.933	4.84
643.263	4.22
643.592	4
643.922	4.44
644.252	4.78
644.582	4.08
644.911	4.17
645.241	4.49
645.571	4.23
645.9	4.5
646.23	4.32
646.559	4.67
646.888	4.28
647.218	3.95
647.547	4.19
647.876	4.43
648.205	4.16
648.534	3.83
648.863	4.4
649.192	4.07
649.521	4.13
649.85	4.66
650.179	4.46
650.508	4.11
650.837	4.53
651.165	3.87
651.494	4.69
651.822	4.39
652.151	4.24
652.479	3.55
652.808	3.76
653.136	4.04
653.465	4.65
653.793	4.19
654.121	4.26
654.449	4.01
654.777	4.71
655.105	4.05
655.433	4.13
655.761	4.43
656.089	4.24
656.417	3.98
656.745	4.59
657.073	4
657.4	4.05
657.728	4
658.056	4.7
658.383	4.46
658.711	4.53
659.038	4.75
659.365	4.65
659.693	3.91
660.02	5.22
660.347	4.4
660.674	4.33
661.001	4.62
661.329	4.09
661.656	4.35
661.982	4.55
662.309	4.15
662.636	4.71
662.963	4.59
663.29	4.37
663.616	3.87
663.943	4.49
664.27	4.6
664.596	4.65
664.923	4.32
665.249	4.53
665.576	4.77
665.902	4.59
666.228	4.75
666.554	4.76
666.881	3.73
667.207	4.58
667.533	4.9
667.859	4.62
668.185	4.36
668.511	4.13
668.837	4.46
669.162	4.52
669.488	4.05
669.814	4.23
670.139	4.16
670.465	4.11
670.791	4.16
671.116	4.69
671.442	4.06
671.767	4.44
672.092	4.3
672.418	4.28
672.743	4.42
673.068	4.2
673.393	5.17
673.718	4.35
674.043	4.2
674.368	4.17
674.693	4.08
675.018	4.45
675.343	4.61
675.667	4.69
675.992	5.24
676.317	4.14
676.641	4.06
676.966	4.9
677.29	3.67
677.615	4.68
677.939	4.72
678.264	4.12
678.588	4.5
678.912	4.52
679.236	4.96
679.56	4.49
679.885	4.03
680.209	3.8
680.532	4.67
680.856	4.9
681.18	4.64
681.504	4.52
681.828	4.67
682.152	4.29
682.475	4.73
682.799	4
683.122	4.17
683.446	4.4
683.769	4.36
684.093	4.55
684.416	4.34
684.739	4.44
685.062	4.26
685.386	4.46
685.709	3.96
686.032	5.15
686.355	4.3
686.678	4.43
687.001	4.09
687.324	4.15
687.646	4.41
687.969	4.93
688.292	5.42
688.614	4.7
688.937	4.38
689.26	3.55
689.582	4.57
689.904	4.76
690.227	4.07
690.549	3.72
690.871	4.47
691.194	4.25
691.516	4.02
691.838	4.22
692.16	4.38
692.482	4.21
692.804	3.96
