Data from 20-8_chest_Reflection__2__107.txt Node

Date: Fri Nov 11 20:58:24 CST 2022
User: ToomeyLab
Spectrometer: FLMS14357
Trigger mode: 0
Integration Time (sec): 1.000000E-2
Scans to average: 100
Electric dark correction enabled: true
Nonlinearity correction enabled: false
Boxcar width: 0
XAxis mode: Wavelengths
Number of Pixels in Spectrum: 2048
>>>>>Begin Spectral Data<<<<<
189.047	40.87
189.435	40.87
189.823	40.87
190.211	88.5
190.599	-35.59
190.987	67
191.375	-49.36
191.763	22.29
192.151	46.63
192.538	-123.42
192.926	27.07
193.314	75.08
193.702	175.46
194.089	65.13
194.477	78.15
194.864	155.32
195.252	17.66
195.639	92.43
196.027	35.94
196.414	15.48
196.801	133.64
197.189	104.18
197.576	-27.73
197.963	-308.25
198.351	14.78
198.738	2.47
199.125	23.64
199.512	30.85
199.899	-17.83
200.286	46.85
200.673	63.82
201.06	49.25
201.447	23.72
201.833	34.46
202.22	-23.24
202.607	56.86
202.994	50.89
203.38	31.28
203.767	48.89
204.154	42.39
204.54	21.08
204.927	5.43
205.313	-24.25
205.699	-10.8
206.086	41.2
206.472	-0.44
206.858	17.17
207.245	39.1
207.631	-9.51
208.017	3.29
208.403	11.78
208.789	-0.4
209.175	14.4
209.561	43.39
209.947	-0.2
210.333	8.1
210.719	32.42
211.105	49.46
211.491	16.56
211.876	23.12
212.262	20.15
212.648	2.7
213.034	-18.33
213.419	-35.38
213.805	-9.95
214.19	26.32
214.576	-2.93
214.961	-31.26
215.346	30.55
215.732	-28.82
216.117	39.28
216.502	-0.81
216.888	3.26
217.273	26.76
217.658	-2.11
218.043	19.22
218.428	3.24
218.813	-10.21
219.198	21.42
219.583	13.6
219.968	-9.67
220.353	-3.82
220.738	-15.98
221.122	16.87
221.507	-28.6
221.892	-11.98
222.276	6.47
222.661	31.63
223.046	-8.09
223.43	1.63
223.815	3.62
224.199	7.63
224.583	-1.36
224.968	-12.14
225.352	5.2
225.736	-13.01
226.121	0.65
226.505	1.82
226.889	-3.54
227.273	2.16
227.657	2.02
228.041	2.8
228.425	4.09
228.809	2.04
229.193	3.87
229.577	4.31
229.961	4.23
230.344	4.31
230.728	3.05
231.112	3.16
231.495	4.26
231.879	2.95
232.263	2.76
232.646	2.12
233.03	4.68
233.413	2.9
233.797	5.65
234.18	1.19
234.563	7.7
234.946	3.86
235.33	3.77
235.713	3.61
236.096	3.36
236.479	3.37
236.862	4.5
237.245	1.55
237.628	3.48
238.011	3.37
238.394	5.83
238.777	4.91
239.16	5.1
239.543	2.94
239.925	4.69
240.308	2.91
240.691	5.18
241.073	4.36
241.456	2.25
241.838	3.54
242.221	2.94
242.603	3.45
242.986	3.62
243.368	3.71
243.75	3.69
244.133	4.05
244.515	3.8
244.897	4.34
245.279	3.04
245.661	4.16
246.043	3.56
246.425	4.05
246.807	3.85
247.189	3.45
247.571	3.68
247.953	3.79
248.335	4.03
248.717	3.85
249.098	4.04
249.48	3.62
249.862	3.95
250.243	3.96
250.625	3.49
251.006	4.47
251.388	4.53
251.769	4.52
252.151	4.32
252.532	2.94
252.913	3.39
253.295	3.84
253.676	2.83
254.057	3.51
254.438	3.8
254.819	3.58
255.2	4.84
255.581	4.31
255.962	3.4
256.343	2.11
256.724	2.1
257.105	4.26
257.486	1.86
257.867	4.59
258.247	2.87
258.628	2.93
259.009	3.25
259.389	3.02
259.77	4.09
260.15	4.08
260.531	3.57
260.911	3.48
261.292	3.75
261.672	3.29
262.052	3.51
262.432	3.8
262.813	3.39
263.193	3.53
263.573	3.83
263.953	4.19
264.333	3.51
264.713	3.38
265.093	3.6
265.473	2.84
265.853	3.13
266.233	3.34
266.612	3.38
266.992	3.02
267.372	3.88
267.752	2.79
268.131	3.03
268.511	3.48
268.89	2.64
269.27	3.49
269.649	3.27
270.029	3.89
270.408	3.73
270.787	3.43
271.167	3.61
271.546	3.08
271.925	3.84
272.304	3.04
272.683	2.77
273.062	3.1
273.441	3.2
273.82	3.39
274.199	3.19
274.578	3.12
274.957	3.92
275.336	3.81
275.715	3.25
276.093	3.27
276.472	2.98
276.851	2.99
277.229	3.51
277.608	3.59
277.986	3.39
278.365	3.07
278.743	3.11
279.122	3.52
279.5	3.36
279.878	3.29
280.257	3.09
280.635	3.07
281.013	3.16
281.391	2.92
281.769	2.84
282.147	3.25
282.525	2.36
282.903	3.23
283.281	3.54
283.659	3.43
284.037	3.66
284.415	3.52
284.792	3.24
285.17	3.27
285.548	3.35
285.925	2.92
286.303	3.01
286.68	3.39
287.058	3.32
287.435	3.39
287.813	3.16
288.19	3.1
288.567	3.03
288.945	3.58
289.322	4.12
289.699	2.97
290.076	3.85
290.453	3.31
290.83	3.18
291.207	3.34
291.584	3.5
291.961	3.55
292.338	3.68
292.715	3.64
293.092	3.5
293.469	3.48
293.845	3.67
294.222	3.45
294.599	4.2
294.975	3.54
295.352	3.57
295.728	3.61
296.105	3.35
296.481	3.21
296.858	3.12
297.234	3.59
297.61	3.24
297.986	4.03
298.363	3.84
298.739	3.66
299.115	3.88
299.491	3.67
299.867	3.52
300.243	3.64
300.619	3.79
300.995	3.71
301.371	4.51
301.746	4.4
302.122	3.79
302.498	4.01
302.874	3.51
303.249	3.92
303.625	3.53
304	3.54
304.376	3.9
304.751	3.49
305.127	3.87
305.502	3.93
305.878	3.92
306.253	3.74
306.628	3.85
307.003	4.05
307.378	3.68
307.754	4.22
308.129	3.92
308.504	3.63
308.879	4.32
309.254	4.2
309.629	3.7
310.003	3.96
310.378	3.81
310.753	4.32
311.128	4.12
311.502	4.13
311.877	3.69
312.252	3.82
312.626	3.71
313.001	3.74
313.375	3.88
313.75	4.09
314.124	4.06
314.498	3.93
314.873	4.15
315.247	3.9
315.621	4.67
315.995	3.95
316.369	4.19
316.743	4.2
317.117	3.55
317.491	3.91
317.865	3.73
318.239	4.25
318.613	4.44
318.987	4.27
319.361	4.04
319.734	4.2
320.108	4.23
320.482	4.34
320.855	3.77
321.229	4.15
321.602	3.65
321.976	4.04
322.349	3.93
322.723	4.97
323.096	3.65
323.469	4.69
323.843	4.34
324.216	3.66
324.589	4.26
324.962	3.98
325.335	4.22
325.708	4.36
326.081	4.37
326.454	3.52
326.827	4.25
327.2	4.61
327.573	4.83
327.945	4.06
328.318	3.88
328.691	4.21
329.063	4.31
329.436	4
329.809	4.21
330.181	3.89
330.553	3.37
330.926	4.12
331.298	4.36
331.671	3.93
332.043	3.97
332.415	4.56
332.787	4.36
333.159	4.17
333.532	4.35
333.904	4.32
334.276	3.89
334.648	3.87
335.02	4.08
335.391	4.3
335.763	4.19
336.135	3.74
336.507	3.91
336.879	4.31
337.25	3.99
337.622	4.27
337.993	4.1
338.365	4.17
338.736	4.09
339.108	4.61
339.479	4.28
339.851	4.49
340.222	3.72
340.593	5.11
340.964	4.1
341.336	4.4
341.707	3.84
342.078	3.88
342.449	4.04
342.82	4.42
343.191	4.26
343.562	3.85
343.933	3.78
344.303	3.77
344.674	4.23
345.045	3.97
345.416	4.56
345.786	4.01
346.157	4.09
346.527	4.2
346.898	3.79
347.268	4.03
347.639	4.24
348.009	4.27
348.38	4.14
348.75	3.9
349.12	4.62
349.49	4.55
349.861	3.92
350.231	4.25
350.601	3.86
350.971	4.4
351.341	4.47
351.711	4.47
352.081	4.41
352.45	4.18
352.82	4.35
353.19	4.62
353.56	4.44
353.929	4
354.299	4.07
354.669	4.37
355.038	4.22
355.408	4.89
355.777	4.32
356.147	4.38
356.516	4.48
356.885	4.29
357.254	4.22
357.624	3.97
357.993	4.52
358.362	4.4
358.731	4.02
359.1	4.3
359.469	4.02
359.838	4.02
360.207	4.15
360.576	4.32
360.945	4.32
361.314	4.25
361.682	4.25
362.051	4.24
362.42	4.45
362.788	4.57
363.157	4.18
363.525	4.05
363.894	4.17
364.262	4.39
364.631	4.52
364.999	4.38
365.367	4.22
365.735	4.35
366.104	4.2
366.472	4.2
366.84	3.91
367.208	4.46
367.576	4.72
367.944	4.64
368.312	4.49
368.68	4.45
369.048	4.21
369.416	4.48
369.783	4.48
370.151	4.47
370.519	4.44
370.886	4.54
371.254	4.68
371.621	4.01
371.989	4.2
372.356	4.45
372.724	4.77
373.091	4.64
373.458	4.35
373.826	4.15
374.193	4.33
374.56	4.45
374.927	4.1
375.294	4.28
375.661	4.61
376.028	4.01
376.395	4.49
376.762	4.25
377.129	4.57
377.496	4.49
377.863	4.48
378.229	4.31
378.596	4.39
378.963	4.44
379.329	4.39
379.696	4.56
380.062	4.6
380.429	4.38
380.795	4.78
381.161	4.76
381.528	4.69
381.894	4.38
382.26	4.58
382.626	4.61
382.993	4.41
383.359	4.57
383.725	4.46
384.091	4.66
384.457	4.52
384.823	4.57
385.188	4.75
385.554	4.48
385.92	4.26
386.286	4.35
386.651	4.6
387.017	4.28
387.383	4.63
387.748	4.38
388.114	4.41
388.479	4.48
388.845	4.68
389.21	4.35
389.575	4.53
389.94	4.58
390.306	4.42
390.671	4.57
391.036	4.61
391.401	4.64
391.766	4.7
392.131	4.5
392.496	4.34
392.861	4.49
393.226	4.34
393.591	4.52
393.956	4.44
394.32	4.41
394.685	4.36
395.05	4.69
395.414	4.42
395.779	4.36
396.143	4.47
396.508	4.55
396.872	4.55
397.236	4.32
397.601	4.74
397.965	4.62
398.329	4.6
398.694	4.69
399.058	4.48
399.422	4.53
399.786	4.59
400.15	4.46
400.514	4.73
400.878	4.58
401.242	4.34
401.605	4.72
401.969	4.82
402.333	4.22
402.697	4.53
403.06	4.8
403.424	4.5
403.787	4.6
404.151	4.77
404.514	4.78
404.878	4.74
405.241	4.62
405.604	4.57
405.968	4.53
406.331	4.35
406.694	4.49
407.057	4.59
407.42	4.6
407.783	4.6
408.146	4.62
408.509	4.48
408.872	4.72
409.235	4.54
409.598	4.67
409.961	4.7
410.323	4.49
410.686	4.66
411.049	4.45
411.411	4.6
411.774	4.6
412.136	4.55
412.499	4.59
412.861	4.44
413.223	4.37
413.586	4.56
413.948	4.72
414.31	4.7
414.672	4.86
415.035	4.67
415.397	4.57
415.759	4.54
416.121	4.6
416.483	4.5
416.845	4.63
417.206	4.59
417.568	4.64
417.93	4.59
418.292	4.5
418.653	4.69
419.015	4.5
419.377	4.61
419.738	4.66
420.1	4.57
420.461	4.63
420.822	4.58
421.184	4.53
421.545	4.63
421.906	4.61
422.267	4.44
422.629	4.44
422.99	4.6
423.351	4.46
423.712	4.49
424.073	4.65
424.434	4.66
424.795	4.68
425.155	4.6
425.516	4.59
425.877	4.6
426.238	4.56
426.598	4.55
426.959	4.48
427.32	4.66
427.68	4.74
428.041	4.84
428.401	4.48
428.761	4.79
429.122	4.59
429.482	4.7
429.842	4.62
430.202	4.86
430.563	4.99
430.923	4.8
431.283	4.63
431.643	4.51
432.003	4.81
432.363	4.8
432.722	4.8
433.082	4.77
433.442	4.98
433.802	4.8
434.161	4.77
434.521	4.77
434.881	4.88
435.24	4.71
435.6	4.73
435.959	4.76
436.319	4.76
436.678	4.75
437.037	4.75
437.396	4.9
437.756	4.71
438.115	4.8
438.474	4.73
438.833	4.9
439.192	4.97
439.551	4.85
439.91	4.81
440.269	4.97
440.628	4.77
440.987	4.85
441.345	4.75
441.704	4.73
442.063	4.84
442.421	4.73
442.78	4.61
443.138	4.94
443.497	4.76
443.855	4.78
444.214	4.75
444.572	4.91
444.93	4.88
445.288	4.83
445.647	4.9
446.005	4.97
446.363	4.91
446.721	4.88
447.079	4.91
447.437	4.78
447.795	4.83
448.153	4.8
448.51	4.82
448.868	4.9
449.226	4.89
449.584	4.88
449.941	4.83
450.299	4.84
450.656	4.88
451.014	4.98
451.371	4.95
451.729	4.84
452.086	5.04
452.443	5.09
452.801	4.88
453.158	4.95
453.515	5.04
453.872	4.9
454.229	5
454.586	4.91
454.943	5.13
455.3	5.03
455.657	5.12
456.014	5.03
456.371	5.17
456.727	5.15
457.084	4.78
457.441	5.13
457.797	5
458.154	5
458.51	4.98
458.867	4.98
459.223	5.06
459.58	5.05
459.936	5.02
460.292	5.13
460.648	5.01
461.005	5
461.361	5.01
461.717	4.88
462.073	4.96
462.429	4.88
462.785	4.87
463.141	4.95
463.496	5.06
463.852	5.2
464.208	5.17
464.564	5.01
464.919	5.03
465.275	4.97
465.631	5.02
465.986	5.35
466.342	5.03
466.697	4.95
467.052	5.19
467.408	5.21
467.763	5.15
468.118	5.12
468.473	5.1
468.829	5.23
469.184	5.07
469.539	5.36
469.894	5.29
470.249	5.16
470.603	5.01
470.958	5.12
471.313	5.18
471.668	5.21
472.023	5.15
472.377	5.27
472.732	5.09
473.086	5.14
473.441	5.25
473.795	5.14
474.15	5.16
474.504	5.37
474.859	5.3
475.213	5.38
475.567	5.19
475.921	5.39
476.275	5.25
476.63	5.33
476.984	5.47
477.338	5.24
477.692	5.19
478.045	5.16
478.399	5.32
478.753	5.07
479.107	5.34
479.461	5.3
479.814	5.16
480.168	5.33
480.521	5.27
480.875	5.26
481.228	5.26
481.582	5.36
481.935	5.17
482.289	5.17
482.642	5.22
482.995	5.28
483.348	5.18
483.701	5.24
484.055	5.24
484.408	5.19
484.761	5.13
485.114	5.04
485.466	4.96
485.819	4.95
486.172	4.98
486.525	5.03
486.878	5.07
487.23	5.13
487.583	5.15
487.936	5.24
488.288	5.13
488.641	5.1
488.993	5.12
489.345	5.04
489.698	5.09
490.05	5.05
490.402	5.11
490.754	5.22
491.107	5.25
491.459	5.25
491.811	5.35
492.163	5.42
492.515	5.31
492.866	5.22
493.218	5.11
493.57	5.1
493.922	5.18
494.274	5.24
494.625	5.33
494.977	5.47
495.328	5.42
495.68	5.42
496.031	5.49
496.383	5.48
496.734	5.41
497.086	5.51
497.437	5.48
497.788	5.36
498.139	5.56
498.49	5.47
498.842	5.37
499.193	5.47
499.544	5.51
499.894	5.47
500.245	5.45
500.596	5.5
500.947	5.51
501.298	5.55
501.648	5.58
501.999	5.56
502.35	5.58
502.7	5.6
503.051	5.61
503.401	5.65
503.752	5.6
504.102	5.5
504.452	5.57
504.803	5.45
505.153	5.5
505.503	5.63
505.853	5.51
506.203	5.66
506.553	5.55
506.903	5.62
507.253	5.6
507.603	5.66
507.953	5.7
508.303	5.66
508.652	5.65
509.002	5.7
509.352	5.61
509.701	5.76
510.051	5.6
510.4	5.72
510.75	5.6
511.099	5.5
511.449	5.71
511.798	5.6
512.147	5.62
512.496	5.57
512.846	5.79
513.195	5.74
513.544	5.7
513.893	5.59
514.242	5.67
514.591	5.75
514.939	5.7
515.288	5.8
515.637	5.79
515.986	5.74
516.334	5.81
516.683	5.76
517.032	5.83
517.38	5.89
517.729	5.9
518.077	5.84
518.426	5.91
518.774	5.77
519.122	5.9
519.47	5.79
519.819	5.75
520.167	5.71
520.515	5.74
520.863	5.8
521.211	5.81
521.559	5.75
521.907	5.88
522.255	5.88
522.602	6
522.95	5.86
523.298	6.1
523.645	5.89
523.993	6.04
524.341	6.12
524.688	6.01
525.036	6
525.383	5.99
525.73	6.06
526.078	5.96
526.425	5.98
526.772	5.96
527.119	5.86
527.466	5.89
527.814	5.9
528.161	5.99
528.508	5.96
528.854	5.89
529.201	5.93
529.548	5.86
529.895	5.76
530.242	5.74
530.588	5.8
530.935	5.82
531.282	5.9
531.628	5.85
531.975	5.89
532.321	5.98
532.667	6.05
533.014	5.97
533.36	6.03
533.706	6.1
534.052	6.08
534.399	6.03
534.745	6
535.091	5.97
535.437	5.94
535.783	6.02
536.129	6.14
536.474	6.17
536.82	6.15
537.166	6.25
537.512	6.18
537.857	6.2
538.203	6.16
538.549	6.26
538.894	6.24
539.239	6.23
539.585	6.25
539.93	6.36
540.276	6.37
540.621	6.44
540.966	6.48
541.311	6.5
541.656	6.43
542.001	6.31
542.346	6.32
542.691	6.24
543.036	6.16
543.381	6.15
543.726	6.2
544.071	6.27
544.415	6.34
544.76	6.42
545.105	6.37
545.449	6.38
545.794	6.39
546.138	6.5
546.483	6.52
546.827	6.62
547.171	6.62
547.516	6.44
547.86	6.52
548.204	6.57
548.548	6.49
548.892	6.65
549.236	6.58
549.58	6.69
549.924	6.82
550.268	6.75
550.612	6.82
550.956	6.95
551.3	6.75
551.643	6.86
551.987	6.82
552.33	6.76
552.674	6.81
553.017	6.94
553.361	6.74
553.704	6.86
554.048	6.79
554.391	6.95
554.734	6.89
555.077	7.01
555.42	6.98
555.764	7.01
556.107	7.06
556.45	6.96
556.793	7.06
557.135	7.05
557.478	7.09
557.821	7.07
558.164	7.07
558.507	7.16
558.849	7.08
559.192	7.15
559.534	7.24
559.877	7.32
560.219	7.2
560.562	7.1
560.904	7.29
561.246	7.14
561.589	7.26
561.931	7.26
562.273	7.42
562.615	7.21
562.957	7.3
563.299	7.22
563.641	7.24
563.983	7.14
564.325	7.26
564.667	7.31
565.008	7.53
565.35	7.45
565.692	7.39
566.033	7.36
566.375	7.57
566.716	7.5
567.058	7.45
567.399	7.52
567.741	7.45
568.082	7.32
568.423	7.58
568.764	7.71
569.105	7.58
569.447	7.57
569.788	7.67
570.129	7.56
570.47	7.82
570.811	7.66
571.151	7.71
571.492	7.72
571.833	7.82
572.174	7.8
572.514	7.77
572.855	7.82
573.195	7.5
573.536	7.74
573.876	7.77
574.217	7.95
574.557	7.86
574.898	7.82
575.238	7.88
575.578	7.85
575.918	8.02
576.258	8.03
576.598	7.88
576.938	7.9
577.278	7.82
577.618	7.94
577.958	7.9
578.298	8.23
578.638	8.23
578.977	8.11
579.317	8.24
579.657	8.19
579.996	8.27
580.336	8.13
580.675	8.36
581.014	8.33
581.354	8.24
581.693	8.16
582.032	8.11
582.372	8.35
582.711	8.28
583.05	8.38
583.389	8.57
583.728	8.38
584.067	8.44
584.406	8.32
584.745	8.7
585.083	8.38
585.422	8.49
585.761	8.6
586.1	8.26
586.438	8.49
586.777	8.5
587.115	8.64
587.454	8.35
587.792	8.62
588.13	8.66
588.469	8.74
588.807	8.64
589.145	8.65
589.483	8.92
589.821	8.57
590.159	8.76
590.497	8.93
590.835	8.91
591.173	8.82
591.511	8.63
591.849	9.05
592.187	8.99
592.524	8.64
592.862	8.86
593.2	9.12
593.537	8.98
593.875	9.22
594.212	8.97
594.55	9.11
594.887	9
595.224	8.97
595.561	9.1
595.899	9.07
596.236	9.17
596.573	9.21
596.91	9.19
597.247	9.27
597.584	9.38
597.921	9.26
598.258	9.26
598.594	9.3
598.931	9.12
599.268	9.21
599.604	9.41
599.941	9.34
600.277	9.53
600.614	9.58
600.95	9.27
601.287	9.5
601.623	9.89
601.959	9.65
602.296	9.43
602.632	9.63
602.968	9.49
603.304	9.59
603.64	9.68
603.976	9.82
604.312	9.84
604.648	9.63
604.984	9.71
605.319	9.86
605.655	9.76
605.991	9.63
606.326	9.89
606.662	9.63
606.998	9.65
607.333	9.92
607.668	9.8
608.004	9.95
608.339	10.06
608.674	9.99
609.01	9.97
609.345	9.98
609.68	10.03
610.015	10.03
610.35	10.02
610.685	10.25
611.02	9.94
611.355	10.13
611.689	10.02
612.024	10.09
612.359	10.12
612.694	9.88
613.028	10.21
613.363	10.61
613.697	10.44
614.032	10.15
614.366	10.09
614.7	10.43
615.035	10.36
615.369	10.38
615.703	10.41
616.037	10.45
616.371	10.59
616.705	10.56
617.039	10.93
617.373	10.59
617.707	10.56
618.041	10.66
618.375	10.49
618.709	10.85
619.042	10.84
619.376	10.68
619.71	10.69
620.043	10.77
620.377	10.62
620.71	10.69
621.043	10.55
621.377	10.65
621.71	10.45
622.043	10.78
622.376	11.31
622.709	10.97
623.043	10.65
623.376	11.18
623.709	11.22
624.041	11.07
624.374	11.1
624.707	11.27
625.04	11.3
625.373	10.67
625.705	10.91
626.038	11.27
626.37	11.47
626.703	11.3
627.035	11.33
627.368	11.45
627.7	11.23
628.032	11.28
628.365	11.93
628.697	11.13
629.029	11.24
629.361	11.4
629.693	11.43
630.025	11.23
630.357	11.58
630.689	11.59
631.021	11.34
631.353	11.59
631.684	11.46
632.016	11.78
632.348	12
632.679	11.6
633.011	11.73
633.342	11.78
633.674	11.38
634.005	11.77
634.336	11.92
634.668	11.89
634.999	11.92
635.33	11.55
635.661	12.01
635.992	11.97
636.323	11.98
636.654	12.19
636.985	12.06
637.316	11.76
637.647	12.45
637.977	12.2
638.308	12.43
638.639	11.97
638.969	11.99
639.3	12.54
639.63	12.7
639.961	12.24
640.291	12.09
640.622	12.72
640.952	12.57
641.282	12.08
641.612	12.28
641.943	12.49
642.273	12.42
642.603	12.29
642.933	12.5
643.263	12.87
643.592	12.55
643.922	12.73
644.252	13.07
644.582	12.93
644.911	12.48
645.241	12.27
645.571	12.62
645.9	12.89
646.23	13.04
646.559	12.69
646.888	12.63
647.218	12.99
647.547	13.12
647.876	12.7
648.205	12.67
648.534	12.64
648.863	13.05
649.192	12.76
649.521	13.15
649.85	13.05
650.179	12.92
650.508	13.02
650.837	13.39
651.165	13.17
651.494	13.31
651.822	12.79
652.151	13.15
652.479	13.07
652.808	12.65
653.136	13.47
653.465	13.64
653.793	13.59
654.121	13.3
654.449	13.05
654.777	14.09
655.105	13.19
655.433	13.52
655.761	13.72
656.089	13.98
656.417	13.48
656.745	13.52
657.073	13.91
657.4	13.29
657.728	14.12
658.056	13.9
658.383	13.42
658.711	13.54
659.038	13.66
659.365	13.7
659.693	13.56
660.02	14.5
660.347	13.76
660.674	14.16
661.001	14.02
661.329	13.77
661.656	13.83
661.982	14.46
662.309	13.9
662.636	14.16
662.963	13.86
663.29	13.57
663.616	13.85
663.943	14.24
664.27	14.14
664.596	14.5
664.923	14.22
665.249	14.58
665.576	14.13
665.902	14.65
666.228	14.5
666.554	14.26
666.881	14.29
667.207	14.54
667.533	15.19
667.859	14.81
668.185	14.73
668.511	14.51
668.837	14.81
669.162	14.25
669.488	14.55
669.814	14.48
670.139	14.3
670.465	14.4
670.791	14.19
671.116	14.53
671.442	14.84
671.767	15.08
672.092	14.79
672.418	14.73
672.743	14.56
673.068	14.56
673.393	15.64
673.718	15.28
674.043	14.82
674.368	15.13
674.693	14.66
675.018	14.5
675.343	15.56
675.667	15.75
675.992	15.61
676.317	15.1
676.641	14.95
676.966	15.39
677.29	14.6
677.615	15.42
677.939	15.2
678.264	15.23
678.588	15.36
678.912	14.8
679.236	15.23
679.56	15.16
679.885	15.18
680.209	15.19
680.532	15.84
680.856	16.51
681.18	16
681.504	15.72
681.828	15.52
682.152	15.65
682.475	15.4
682.799	15.98
683.122	16.03
683.446	15.65
683.769	15.82
684.093	15.94
684.416	15.53
684.739	16.43
685.062	15.9
685.386	16.39
685.709	15.81
686.032	15.7
686.355	16.33
686.678	16.17
687.001	15.11
687.324	15.66
687.646	15.95
687.969	16.37
