Data from 20-8_crown_Reflection__3__114.txt Node

Date: Fri Nov 11 21:00:29 CST 2022
User: ToomeyLab
Spectrometer: FLMS14357
Trigger mode: 0
Integration Time (sec): 1.000000E-2
Scans to average: 100
Electric dark correction enabled: true
Nonlinearity correction enabled: false
Boxcar width: 0
XAxis mode: Wavelengths
Number of Pixels in Spectrum: 2048
>>>>>Begin Spectral Data<<<<<
189.047	383.7
189.435	383.7
189.823	383.7
190.211	122.66
190.599	647.88
190.987	31.28
191.375	34.86
191.763	-509
192.151	-54.71
192.538	-68.84
192.926	65.48
193.314	125.27
193.702	20.25
194.089	47.08
194.477	49.22
194.864	124.05
195.252	69.52
195.639	2.74
196.027	124.94
196.414	17.9
196.801	243.01
197.189	81.76
197.576	40.45
197.963	-920.88
198.351	-155.93
198.738	2.53
199.125	20.58
199.512	40.86
199.899	-45.57
200.286	64.89
200.673	16.34
201.06	21.69
201.447	36.61
201.833	9.4
202.22	3.68
202.607	38.23
202.994	11.03
203.38	15.42
203.767	6.99
204.154	9.34
204.54	29.39
204.927	37.67
205.313	12.44
205.699	-91.88
206.086	18.22
206.472	13.72
206.858	18.37
207.245	27.72
207.631	6.73
208.017	13.15
208.403	-12.44
208.789	32.18
209.175	-7.59
209.561	40.46
209.947	10.65
210.333	10.24
210.719	0.72
211.105	40.04
211.491	21.3
211.876	17.46
212.262	4.89
212.648	-11.39
213.034	-21.56
213.419	-19.32
213.805	9.49
214.19	39.89
214.576	-1.25
214.961	-32.13
215.346	-16.07
215.732	-13.02
216.117	33.07
216.502	13.34
216.888	1.3
217.273	11.8
217.658	-31.77
218.043	-17.85
218.428	-3.93
218.813	13.03
219.198	2.21
219.583	14.04
219.968	36.44
220.353	-38.64
220.738	-4.44
221.122	-0.34
221.507	-22.4
221.892	-12.38
222.276	-5.49
222.661	13.42
223.046	-18.74
223.43	-10.18
223.815	3.27
224.199	2
224.583	-7.77
224.968	-13.89
225.352	2.12
225.736	8.46
226.121	-3.33
226.505	4.28
226.889	-6.81
227.273	1.7
227.657	-1.3
228.041	1.08
228.425	-2.26
228.809	1.46
229.193	2.17
229.577	3.36
229.961	3.33
230.344	2.16
230.728	1.63
231.112	1.11
231.495	2.87
231.879	1.47
232.263	1.49
232.646	-0.55
233.03	1.89
233.413	1.98
233.797	0.29
234.18	2.56
234.563	2.81
234.946	-0.09
235.33	1.54
235.713	0.58
236.096	-0.01
236.479	1.51
236.862	3.66
237.245	1.32
237.628	3.71
238.011	1.61
238.394	3.06
238.777	3.15
239.16	3.04
239.543	0.23
239.925	0.81
240.308	1.94
240.691	1.67
241.073	2.28
241.456	1.1
241.838	3.33
242.221	3.19
242.603	3.42
242.986	2.29
243.368	1.59
243.75	2.52
244.133	2
244.515	1.91
244.897	1.99
245.279	1.58
245.661	2.33
246.043	1.46
246.425	2.98
246.807	1.43
247.189	1.65
247.571	1.57
247.953	2.31
248.335	2.16
248.717	2.25
249.098	2.34
249.48	1.88
249.862	2.18
250.243	1.84
250.625	2.27
251.006	2.97
251.388	2.52
251.769	1.63
252.151	1.5
252.532	2.37
252.913	2.63
253.295	2.05
253.676	1.26
254.057	1.87
254.438	1.71
254.819	1.07
255.2	2.16
255.581	1.62
255.962	2.14
256.343	1.58
256.724	2.63
257.105	2.68
257.486	1.66
257.867	2.52
258.247	1.21
258.628	1.87
259.009	1.87
259.389	1.57
259.77	2.5
260.15	2.23
260.531	2.18
260.911	1.81
261.292	2.1
261.672	1.8
262.052	1.98
262.432	2.15
262.813	1.78
263.193	1.82
263.573	1.68
263.953	2.14
264.333	1.79
264.713	2.15
265.093	2.01
265.473	1.67
265.853	1.38
266.233	1.94
266.612	1.45
266.992	1.5
267.372	3.01
267.752	1.16
268.131	1.48
268.511	1.67
268.89	1.46
269.27	1.41
269.649	1.6
270.029	2.42
270.408	2.19
270.787	2.14
271.167	1.06
271.546	1.94
271.925	2.09
272.304	1.63
272.683	1.74
273.062	1.54
273.441	1.9
273.82	2.02
274.199	1.37
274.578	1.48
274.957	1.87
275.336	1.82
275.715	1.96
276.093	1.5
276.472	1.61
276.851	1.81
277.229	1.6
277.608	1.8
277.986	2.16
278.365	1.27
278.743	2.01
279.122	2
279.5	1.83
279.878	1.82
280.257	1.91
280.635	2.24
281.013	2.04
281.391	1.79
281.769	1.94
282.147	1.74
282.525	0.74
282.903	1.47
283.281	1.87
283.659	1.81
284.037	1.56
284.415	1.29
284.792	1.86
285.17	2.3
285.548	1.35
285.925	1.38
286.303	1.83
286.68	2.19
287.058	2.03
287.435	1.83
287.813	1.96
288.19	1.72
288.567	1.96
288.945	1.6
289.322	2.35
289.699	0.98
290.076	2.33
290.453	1.78
290.83	1.77
291.207	1.76
291.584	2.08
291.961	1.64
292.338	1.69
292.715	2.03
293.092	2.13
293.469	1.78
293.845	1.51
294.222	1.63
294.599	2.48
294.975	1.88
295.352	1.63
295.728	1.95
296.105	1.55
296.481	1.52
296.858	1.76
297.234	2.03
297.61	1.49
297.986	1.99
298.363	2
298.739	2.08
299.115	1.87
299.491	2.13
299.867	1.87
300.243	2.02
300.619	1.61
300.995	1.54
301.371	2.16
301.746	2.22
302.122	1.6
302.498	2.24
302.874	1.65
303.249	1.9
303.625	1.77
304	1.57
304.376	1.92
304.751	1.43
305.127	1.75
305.502	1.71
305.878	2.3
306.253	1.79
306.628	1.86
307.003	1.63
307.378	2.08
307.754	2.58
308.129	1.7
308.504	1.83
308.879	1.34
309.254	2.25
309.629	1.82
310.003	1.96
310.378	2.01
310.753	2.11
311.128	2.21
311.502	1.75
311.877	1.85
312.252	2.04
312.626	1.89
313.001	1.73
313.375	1.77
313.75	1.73
314.124	1.38
314.498	2.05
314.873	1.65
315.247	1.8
315.621	2.21
315.995	2.18
316.369	1.88
316.743	1.6
317.117	2
317.491	1.77
317.865	1.54
318.239	2.1
318.613	2.01
318.987	1.85
319.361	2.19
319.734	1.7
320.108	1.28
320.482	2.17
320.855	1.67
321.229	2.11
321.602	2.06
321.976	1.79
322.349	2.43
322.723	2.8
323.096	2.1
323.469	2.15
323.843	1.81
324.216	1.53
324.589	1.95
324.962	2.45
325.335	1.65
325.708	2.02
326.081	1.85
326.454	1.65
326.827	1.77
327.2	2.53
327.573	2.76
327.945	1.73
328.318	1.87
328.691	2.12
329.063	1.9
329.436	1.68
329.809	1.63
330.181	1.12
330.553	1.59
330.926	1.72
331.298	1.7
331.671	2.05
332.043	1.51
332.415	2.42
332.787	1.93
333.159	1.73
333.532	1.95
333.904	1.86
334.276	1.49
334.648	1.43
335.02	1.8
335.391	2.29
335.763	1.69
336.135	1.99
336.507	2.08
336.879	2.48
337.25	1.85
337.622	1.69
337.993	2.72
338.365	2.21
338.736	1.89
339.108	2.02
339.479	1.72
339.851	2.15
340.222	1.95
340.593	2.69
340.964	2.37
341.336	1.94
341.707	1.55
342.078	1.54
342.449	1.89
342.82	2.29
343.191	2.42
343.562	1.83
343.933	2.42
344.303	1.91
344.674	2.29
345.045	1.53
345.416	2.27
345.786	1.61
346.157	2.03
346.527	2.11
346.898	1.69
347.268	1.99
347.639	1.98
348.009	2.06
348.38	2.31
348.75	1.7
349.12	2.5
349.49	2.21
349.861	1.74
350.231	2.2
350.601	2.24
350.971	2.18
351.341	2.5
351.711	2.14
352.081	2.31
352.45	2.16
352.82	2
353.19	2.07
353.56	1.58
353.929	1.86
354.299	1.94
354.669	1.93
355.038	1.93
355.408	1.94
355.777	2.04
356.147	2.16
356.516	1.91
356.885	2.07
357.254	1.94
357.624	1.73
357.993	2.21
358.362	2.39
358.731	1.75
359.1	1.9
359.469	1.77
359.838	1.88
360.207	2.15
360.576	2.1
360.945	2.16
361.314	1.92
361.682	2.18
362.051	1.88
362.42	2.23
362.788	1.98
363.157	1.99
363.525	2.18
363.894	1.83
364.262	2.11
364.631	2.15
364.999	2.16
365.367	2.27
365.735	1.99
366.104	1.98
366.472	2.13
366.84	1.83
367.208	1.79
367.576	2.21
367.944	2.11
368.312	1.82
368.68	1.84
369.048	2.28
369.416	2.01
369.783	2.48
370.151	2.04
370.519	2.11
370.886	1.99
371.254	2.27
371.621	2.28
371.989	1.87
372.356	2.19
372.724	2.41
373.091	2.38
373.458	2.12
373.826	1.9
374.193	2.17
374.56	2.29
374.927	2.22
375.294	2.12
375.661	2.47
376.028	1.89
376.395	2.3
376.762	2.49
377.129	1.92
377.496	1.97
377.863	2.37
378.229	2.23
378.596	2.21
378.963	2.23
379.329	2.26
379.696	2.02
380.062	2.21
380.429	2.08
380.795	2.55
381.161	2.16
381.528	2.12
381.894	2.26
382.26	2.49
382.626	2.42
382.993	2.04
383.359	2.41
383.725	2.16
384.091	2.17
384.457	2.37
384.823	1.99
385.188	1.96
385.554	2.01
385.92	2.22
386.286	2.11
386.651	2.36
387.017	2.04
387.383	2.16
387.748	2.06
388.114	1.98
388.479	1.91
388.845	2.21
389.21	1.95
389.575	2.32
389.94	2.03
390.306	2.13
390.671	2.25
391.036	2.33
391.401	1.94
391.766	2.32
392.131	2.17
392.496	2.18
392.861	2.13
393.226	2.35
393.591	1.98
393.956	1.94
394.32	2.19
394.685	2.2
395.05	2.52
395.414	2.16
395.779	2.27
396.143	2.1
396.508	2.49
396.872	2.3
397.236	2.09
397.601	2.17
397.965	2.1
398.329	2.18
398.694	2.33
399.058	2.55
399.422	2.28
399.786	2.18
400.15	2.09
400.514	2.48
400.878	2.21
401.242	2.23
401.605	2.32
401.969	2.36
402.333	1.89
402.697	2.3
403.06	2.4
403.424	2.16
403.787	2.24
404.151	2.17
404.514	2.23
404.878	2.39
405.241	2.06
405.604	2.41
405.968	2.16
406.331	2.12
406.694	2.33
407.057	2.19
407.42	2.44
407.783	2.38
408.146	2.48
408.509	2.37
408.872	2.3
409.235	2.4
409.598	2.38
409.961	2.37
410.323	2.35
410.686	2.25
411.049	2.18
411.411	2.32
411.774	2.17
412.136	2.33
412.499	2.35
412.861	2.49
413.223	2.26
413.586	2.35
413.948	2.54
414.31	2.28
414.672	2.26
415.035	2.17
415.397	2.31
415.759	2.27
416.121	2.36
416.483	2.23
416.845	2.38
417.206	2.13
417.568	2.12
417.93	2.24
418.292	2.08
418.653	2.33
419.015	2.18
419.377	2.22
419.738	2.28
420.1	2.35
420.461	2.34
420.822	2.14
421.184	2.25
421.545	2.24
421.906	2.18
422.267	2.16
422.629	2.16
422.99	2.22
423.351	2.22
423.712	2.18
424.073	2.31
424.434	2.32
424.795	2.32
425.155	2.29
425.516	2.27
425.877	2.23
426.238	2.3
426.598	2.16
426.959	2.18
427.32	2.37
427.68	2.31
428.041	2.44
428.401	2.16
428.761	2.46
429.122	2.21
429.482	2.37
429.842	2.24
430.202	2.32
430.563	2.46
430.923	2.48
431.283	2.14
431.643	2.3
432.003	2.46
432.363	2.33
432.722	2.53
433.082	2.45
433.442	2.35
433.802	2.32
434.161	2.29
434.521	2.32
434.881	2.43
435.24	2.22
435.6	2.31
435.959	2.41
436.319	2.2
436.678	2.32
437.037	2.35
437.396	2.4
437.756	2.33
438.115	2.28
438.474	2.31
438.833	2.39
439.192	2.31
439.551	2.4
439.91	2.4
440.269	2.39
440.628	2.3
440.987	2.37
441.345	2.42
441.704	2.36
442.063	2.35
442.421	2.26
442.78	2.22
443.138	2.26
443.497	2.31
443.855	2.4
444.214	2.37
444.572	2.39
444.93	2.41
445.288	2.31
445.647	2.4
446.005	2.48
446.363	2.4
446.721	2.49
447.079	2.37
447.437	2.31
447.795	2.36
448.153	2.29
448.51	2.27
448.868	2.3
449.226	2.33
449.584	2.3
449.941	2.37
450.299	2.3
450.656	2.33
451.014	2.41
451.371	2.33
451.729	2.24
452.086	2.51
452.443	2.36
452.801	2.45
453.158	2.41
453.515	2.42
453.872	2.34
454.229	2.38
454.586	2.42
454.943	2.47
455.3	2.3
455.657	2.32
456.014	2.61
456.371	2.38
456.727	2.64
457.084	2.15
457.441	2.48
457.797	2.23
458.154	2.12
458.51	2.32
458.867	2.35
459.223	2.48
459.58	2.43
459.936	2.39
460.292	2.45
460.648	2.39
461.005	2.39
461.361	2.3
461.717	2.32
462.073	2.41
462.429	2.23
462.785	2.34
463.141	2.38
463.496	2.41
463.852	2.56
464.208	2.36
464.564	2.38
464.919	2.42
465.275	2.34
465.631	2.43
465.986	2.55
466.342	2.51
466.697	2.51
467.052	2.48
467.408	2.34
467.763	2.42
468.118	2.51
468.473	2.44
468.829	2.54
469.184	2.39
469.539	2.57
469.894	2.49
470.249	2.57
470.603	2.44
470.958	2.47
471.313	2.49
471.668	2.64
472.023	2.38
472.377	2.5
472.732	2.35
473.086	2.33
473.441	2.39
473.795	2.52
474.15	2.42
474.504	2.47
474.859	2.52
475.213	2.55
475.567	2.55
475.921	2.6
476.275	2.46
476.63	2.55
476.984	2.65
477.338	2.46
477.692	2.46
478.045	2.36
478.399	2.61
478.753	2.4
479.107	2.53
479.461	2.6
479.814	2.47
480.168	2.42
480.521	2.62
480.875	2.59
481.228	2.42
481.582	2.49
481.935	2.51
482.289	2.4
482.642	2.37
482.995	2.38
483.348	2.46
483.701	2.48
484.055	2.39
484.408	2.4
484.761	2.35
485.114	2.26
485.466	2.22
485.819	2.23
486.172	2.24
486.525	2.31
486.878	2.37
487.23	2.35
487.583	2.38
487.936	2.41
488.288	2.41
488.641	2.31
488.993	2.31
489.345	2.24
489.698	2.28
490.05	2.35
490.402	2.32
490.754	2.44
491.107	2.35
491.459	2.37
491.811	2.43
492.163	2.5
492.515	2.4
492.866	2.42
493.218	2.37
493.57	2.33
493.922	2.35
494.274	2.37
494.625	2.44
494.977	2.53
495.328	2.51
495.68	2.5
496.031	2.39
496.383	2.48
496.734	2.5
497.086	2.53
497.437	2.48
497.788	2.49
498.139	2.4
498.49	2.39
498.842	2.31
499.193	2.48
499.544	2.52
499.894	2.47
500.245	2.39
500.596	2.55
500.947	2.48
501.298	2.47
501.648	2.46
501.999	2.54
502.35	2.69
502.7	2.46
503.051	2.53
503.401	2.49
503.752	2.44
504.102	2.44
504.452	2.6
504.803	2.46
505.153	2.51
505.503	2.49
505.853	2.51
506.203	2.5
506.553	2.46
506.903	2.51
507.253	2.49
507.603	2.58
507.953	2.45
508.303	2.47
508.652	2.54
509.002	2.47
509.352	2.47
509.701	2.51
510.051	2.47
510.4	2.51
510.75	2.41
511.099	2.39
511.449	2.43
511.798	2.45
512.147	2.37
512.496	2.43
512.846	2.67
513.195	2.52
513.544	2.46
513.893	2.45
514.242	2.46
514.591	2.57
514.939	2.48
515.288	2.49
515.637	2.57
515.986	2.51
516.334	2.51
516.683	2.58
517.032	2.53
517.38	2.48
517.729	2.55
518.077	2.45
518.426	2.54
518.774	2.47
519.122	2.53
519.47	2.61
519.819	2.46
520.167	2.41
520.515	2.42
520.863	2.52
521.211	2.45
521.559	2.45
521.907	2.52
522.255	2.47
522.602	2.56
522.95	2.6
523.298	2.55
523.645	2.5
523.993	2.57
524.341	2.59
524.688	2.56
525.036	2.68
525.383	2.56
525.73	2.47
526.078	2.36
526.425	2.46
526.772	2.51
527.119	2.48
527.466	2.54
527.814	2.56
528.161	2.53
528.508	2.53
528.854	2.5
529.201	2.48
529.548	2.39
529.895	2.41
530.242	2.31
530.588	2.35
530.935	2.36
531.282	2.43
531.628	2.46
531.975	2.5
532.321	2.45
532.667	2.58
533.014	2.5
533.36	2.48
533.706	2.54
534.052	2.5
534.399	2.44
534.745	2.43
535.091	2.43
535.437	2.43
535.783	2.44
536.129	2.56
536.474	2.59
536.82	2.49
537.166	2.57
537.512	2.47
537.857	2.46
538.203	2.48
538.549	2.6
538.894	2.55
539.239	2.51
539.585	2.57
539.93	2.52
540.276	2.7
540.621	2.57
540.966	2.51
541.311	2.52
541.656	2.56
542.001	2.56
542.346	2.5
542.691	2.44
543.036	2.37
543.381	2.42
543.726	2.43
544.071	2.42
544.415	2.47
544.76	2.56
545.105	2.46
545.449	2.4
545.794	2.53
546.138	2.53
546.483	2.53
546.827	2.54
547.171	2.54
547.516	2.52
547.86	2.49
548.204	2.67
548.548	2.55
548.892	2.49
549.236	2.53
549.58	2.63
549.924	2.65
550.268	2.66
550.612	2.73
550.956	2.73
551.3	2.58
551.643	2.74
551.987	2.77
552.33	2.51
552.674	2.55
553.017	2.78
553.361	2.57
553.704	2.52
554.048	2.67
554.391	2.62
554.734	2.6
555.077	2.73
555.42	2.65
555.764	2.66
556.107	2.66
556.45	2.71
556.793	2.66
557.135	2.44
557.478	2.59
557.821	2.77
558.164	2.49
558.507	2.73
558.849	2.53
559.192	2.65
559.534	2.82
559.877	2.68
560.219	2.72
560.562	2.61
560.904	2.64
561.246	2.72
561.589	2.61
561.931	2.51
562.273	2.7
562.615	2.69
562.957	2.73
563.299	2.71
563.641	2.54
563.983	2.47
564.325	2.74
564.667	2.56
565.008	2.83
565.35	2.68
565.692	2.59
566.033	2.54
566.375	2.73
566.716	2.84
567.058	2.8
567.399	2.75
567.741	2.69
568.082	2.7
568.423	2.6
568.764	2.77
569.105	2.63
569.447	2.76
569.788	2.8
570.129	2.62
570.47	2.71
570.811	2.61
571.151	2.89
571.492	2.78
571.833	2.7
572.174	2.66
572.514	2.57
572.855	2.63
573.195	2.52
573.536	2.72
573.876	2.77
574.217	2.83
574.557	2.64
574.898	2.64
575.238	2.75
575.578	2.72
575.918	2.87
576.258	2.77
576.598	2.65
576.938	2.61
577.278	2.62
577.618	2.75
577.958	2.71
578.298	2.67
578.638	2.7
578.977	2.8
579.317	2.79
579.657	2.72
579.996	2.66
580.336	2.43
580.675	2.81
581.014	2.97
581.354	2.75
581.693	2.71
582.032	2.62
582.372	2.71
582.711	2.7
583.05	2.73
583.389	2.88
583.728	2.82
584.067	2.63
584.406	2.54
584.745	2.89
585.083	2.78
585.422	2.71
585.761	2.76
586.1	2.8
586.438	2.65
586.777	2.77
587.115	2.82
587.454	2.67
587.792	2.73
588.13	2.5
588.469	2.85
588.807	2.84
589.145	2.78
589.483	2.94
589.821	2.78
590.159	2.95
590.497	2.99
590.835	2.79
591.173	2.82
591.511	2.67
591.849	2.61
592.187	2.69
592.524	2.84
592.862	2.67
593.2	2.97
593.537	2.9
593.875	3.12
594.212	2.65
594.55	2.74
594.887	2.75
595.224	2.63
595.561	2.63
595.899	2.63
596.236	2.79
596.573	2.69
596.91	2.8
597.247	2.74
597.584	2.68
597.921	2.72
598.258	2.78
598.594	2.81
598.931	2.61
599.268	2.65
599.604	2.72
599.941	2.72
600.277	2.77
600.614	2.91
600.95	2.65
601.287	2.79
601.623	3.42
601.959	2.85
602.296	2.66
602.632	2.92
602.968	2.71
603.304	2.69
603.64	3.03
603.976	2.93
604.312	2.86
604.648	2.7
604.984	2.74
605.319	2.89
605.655	2.76
605.991	2.76
606.326	2.91
606.662	2.71
606.998	2.79
607.333	2.77
607.668	2.91
608.004	2.82
608.339	2.86
608.674	2.83
609.01	2.88
609.345	2.74
609.68	2.65
610.015	2.63
610.35	2.66
610.685	2.87
611.02	2.65
611.355	2.9
611.689	2.82
612.024	2.71
612.359	2.75
612.694	2.68
613.028	2.68
613.363	2.91
613.697	3.09
614.032	3.03
614.366	2.78
614.7	3.1
615.035	2.75
615.369	2.66
615.703	2.91
616.037	3.07
616.371	2.47
616.705	2.9
617.039	2.64
617.373	2.76
617.707	2.8
618.041	2.86
618.375	3.08
618.709	3.17
619.042	2.86
619.376	2.81
619.71	3.02
620.043	3.09
620.377	2.85
620.71	2.89
621.043	2.59
621.377	3.13
621.71	2.78
622.043	3.04
622.376	3.07
622.709	2.83
623.043	3.01
623.376	3.16
623.709	2.95
624.041	2.95
624.374	2.44
624.707	2.94
625.04	2.85
625.373	2.34
625.705	2.93
626.038	2.71
626.37	2.9
626.703	2.79
627.035	2.87
627.368	2.52
627.7	2.74
628.032	2.98
628.365	2.85
628.697	2.67
629.029	2.76
629.361	2.66
629.693	3.03
630.025	2.77
630.357	2.98
630.689	2.85
631.021	2.92
631.353	3.12
631.684	2.86
632.016	2.94
632.348	2.8
632.679	2.69
633.011	3.11
633.342	2.82
633.674	2.8
634.005	2.81
634.336	2.93
634.668	3.18
634.999	2.89
635.33	2.8
635.661	3.25
635.992	2.97
636.323	3.13
636.654	3.13
636.985	3.05
637.316	2.88
637.647	3.32
637.977	2.98
638.308	3.13
638.639	2.81
638.969	2.71
639.3	2.96
639.63	3.12
639.961	2.83
640.291	3.07
640.622	3.28
640.952	2.86
641.282	2.86
641.612	2.52
641.943	3.14
642.273	2.81
642.603	2.89
642.933	3.07
643.263	2.89
643.592	3.18
643.922	2.73
644.252	3.25
644.582	3.15
644.911	2.96
645.241	2.92
645.571	2.68
645.9	2.97
646.23	3.91
646.559	3.46
646.888	2.96
647.218	2.74
647.547	2.82
647.876	2.68
648.205	3.33
648.534	3.1
648.863	3.11
649.192	2.96
649.521	3.04
649.85	3.14
650.179	2.43
650.508	3.14
650.837	3.2
651.165	2.98
651.494	3.21
651.822	2.87
652.151	2.84
652.479	2.75
652.808	3.05
653.136	2.82
653.465	3.31
653.793	3.14
654.121	2.79
654.449	2.85
654.777	3.31
655.105	3.08
655.433	2.98
655.761	2.95
656.089	2.86
656.417	2.87
656.745	3.07
657.073	2.95
657.4	2.75
657.728	2.94
658.056	3
658.383	3.01
658.711	3.19
659.038	2.84
659.365	2.92
659.693	2.94
660.02	3.35
660.347	3.19
660.674	3.04
661.001	3.5
661.329	2.82
661.656	2.88
661.982	3.4
662.309	3.11
662.636	3.34
662.963	2.8
663.29	3.05
663.616	2.66
663.943	3.19
664.27	2.56
664.596	3.17
664.923	2.74
665.249	3.2
665.576	3.42
665.902	3.42
666.228	3.43
666.554	3.05
666.881	2.64
667.207	3.25
667.533	3.53
667.859	3.48
668.185	3.44
668.511	3
668.837	3.45
669.162	3.15
669.488	2.82
669.814	3.1
670.139	3.26
670.465	2.58
670.791	2.71
671.116	3.7
671.442	3.1
671.767	3.69
672.092	3.37
672.418	3.04
672.743	3.16
673.068	3.46
673.393	3.03
673.718	3.23
674.043	3.03
674.368	3.47
674.693	2.11
675.018	2.9
675.343	3.22
675.667	3.93
675.992	3.92
676.317	2.81
676.641	2.99
676.966	3.26
677.29	3.01
677.615	3.4
677.939	3.25
678.264	3.16
678.588	2.84
678.912	3.01
679.236	3.74
679.56	3.73
679.885	2.91
680.209	2.66
680.532	3.7
680.856	3.48
681.18	3.23
681.504	3.06
681.828	2.98
682.152	3.01
682.475	2.89
682.799	3.04
683.122	2.95
683.446	3.9
683.769	3.63
684.093	3.61
684.416	3.19
684.739	4.14
685.062	3.38
685.386	3.33
685.709	3.71
686.032	3.16
686.355	3.18
686.678	3.67
687.001	2.94
687.324	2.56
687.646	2.99
687.969	3.77
688.292	3.89
688.614	3.23
688.937	3.24
689.26	2.29
689.582	3.48
689.904	3.2
690.227	3.08
690.549	2.87
690.871	3.15
691.194	2.79
691.516	2.88
691.838	3.39
692.16	3.17
692.482	3.3
