Data from 0280_chest_Reflection__1__314.txt Node

Date: Fri Sep 22 23:11:09 CDT 2023
User: ToomeyLab
Spectrometer: FLMS14357
Trigger mode: 0
Integration Time (sec): 1.000000E-2
Scans to average: 100
Electric dark correction enabled: true
Nonlinearity correction enabled: false
Boxcar width: 0
XAxis mode: Wavelengths
Number of Pixels in Spectrum: 2048
>>>>>Begin Spectral Data<<<<<
189.047	76.02
189.435	76.02
189.823	76.02
190.211	15.94
190.599	-38.87
190.987	-46.46
191.375	246.72
191.763	1299.27
192.151	27.09
192.538	41.91
192.926	107.75
193.314	92.61
193.702	160.28
194.089	330.88
194.477	-371.84
194.864	-85.01
195.252	27.71
195.639	63.13
196.027	663.51
196.414	498.21
196.801	505.6
197.189	230.01
197.576	37.36
197.963	-62.44
198.351	24.72
198.738	-9.99
199.125	27.62
199.512	-47.79
199.899	43.08
200.286	26.13
200.673	9.3
201.06	20.83
201.447	54.84
201.833	-31.51
202.22	19.6
202.607	25.08
202.994	58.48
203.38	33.16
203.767	32.04
204.154	64.83
204.54	41.58
204.927	-10.03
205.313	41.58
205.699	41.35
206.086	48.98
206.472	36.59
206.858	24.49
207.245	14.81
207.631	21.26
208.017	23.18
208.403	41.02
208.789	68.71
209.175	34.67
209.561	31.05
209.947	47.2
210.333	49.52
210.719	-4.29
211.105	15.42
211.491	26.73
211.876	46.71
212.262	20.34
212.648	12.65
213.034	34.56
213.419	19.52
213.805	11.24
214.19	5.93
214.576	4.63
214.961	33.21
215.346	28.47
215.732	28.78
216.117	1.82
216.502	32.5
216.888	24.34
217.273	4.53
217.658	-6.51
218.043	26.55
218.428	27.15
218.813	-3.45
219.198	17.41
219.583	14.19
219.968	-7.58
220.353	23.01
220.738	4.89
221.122	26.81
221.507	13.69
221.892	1.88
222.276	12.55
222.661	-34.79
223.046	32.62
223.43	24.2
223.815	5.49
224.199	1.01
224.583	16.21
224.968	7.18
225.352	8.43
225.736	7.76
226.121	-0.19
226.505	19.43
226.889	10.16
227.273	11.33
227.657	11.1
228.041	9.21
228.425	12.07
228.809	4.35
229.193	2.94
229.577	9.93
229.961	6.98
230.344	8.09
230.728	4.9
231.112	7.02
231.495	5.86
231.879	6.68
232.263	4.83
232.646	6.02
233.03	5.12
233.413	6.12
233.797	6.54
234.18	6.46
234.563	7.6
234.946	9.09
235.33	5.79
235.713	6
236.096	5.18
236.479	4.62
236.862	8.51
237.245	5.17
237.628	4.65
238.011	6.94
238.394	6.13
238.777	5.56
239.16	6.49
239.543	8.45
239.925	6.54
240.308	7.03
240.691	6.23
241.073	7.32
241.456	6.53
241.838	5.63
242.221	5.84
242.603	5
242.986	5.9
243.368	6
243.75	6.5
244.133	6.34
244.515	5.68
244.897	5.56
245.279	5.72
245.661	5.1
246.043	6.1
246.425	5.04
246.807	5.9
247.189	4.84
247.571	6.31
247.953	6.22
248.335	5.67
248.717	5.56
249.098	5.47
249.48	5.46
249.862	5.28
250.243	5.38
250.625	5.56
251.006	5.12
251.388	5.15
251.769	5.58
252.151	5.42
252.532	6.21
252.913	6.15
253.295	5.92
253.676	5.68
254.057	5.78
254.438	5.66
254.819	5.23
255.2	5.9
255.581	4.92
255.962	5.58
256.343	6.17
256.724	5.37
257.105	6.76
257.486	5.92
257.867	5.44
258.247	6.18
258.628	5.44
259.009	4.17
259.389	5.41
259.77	5.61
260.15	5.85
260.531	5.11
260.911	5.53
261.292	5.2
261.672	4.72
262.052	5.06
262.432	5.11
262.813	4.87
263.193	4.79
263.573	5.63
263.953	4.91
264.333	5.35
264.713	5.33
265.093	4.83
265.473	5.3
265.853	4.86
266.233	5.19
266.612	5.09
266.992	5.27
267.372	5.76
267.752	5.76
268.131	4.9
268.511	5.47
268.89	5.28
269.27	4.93
269.649	4.95
270.029	5.3
270.408	4.98
270.787	4.88
271.167	4.99
271.546	4.5
271.925	4.54
272.304	4.82
272.683	5.22
273.062	5.59
273.441	4.41
273.82	5.16
274.199	4.87
274.578	5.23
274.957	4.97
275.336	5.13
275.715	4.66
276.093	4.65
276.472	4.83
276.851	4.95
277.229	4.49
277.608	4.98
277.986	4.78
278.365	5.01
278.743	5.03
279.122	4.8
279.5	5.21
279.878	4.6
280.257	5.67
280.635	3.98
281.013	5.29
281.391	4.65
281.769	4.8
282.147	5.01
282.525	4.82
282.903	5.01
283.281	4.76
283.659	4.87
284.037	4.66
284.415	4.85
284.792	5.09
285.17	5.14
285.548	5.34
285.925	4.65
286.303	4.53
286.68	4.09
287.058	4.47
287.435	4.72
287.813	4.65
288.19	4.32
288.567	4.49
288.945	4.78
289.322	4.81
289.699	5.08
290.076	4.63
290.453	4.59
290.83	4.11
291.207	4.69
291.584	4.56
291.961	4.36
292.338	4.79
292.715	4.58
293.092	4.53
293.469	4.67
293.845	4.55
294.222	4.86
294.599	4.75
294.975	5.06
295.352	4.87
295.728	4.87
296.105	4.72
296.481	4.38
296.858	4.59
297.234	4.99
297.61	4.91
297.986	4.53
298.363	4.67
298.739	4.39
299.115	4.94
299.491	4.61
299.867	4.65
300.243	4.73
300.619	4.93
300.995	4.7
301.371	5.26
301.746	4.96
302.122	4.79
302.498	4.45
302.874	4.36
303.249	4.51
303.625	4.2
304	4.73
304.376	5.06
304.751	4.86
305.127	5.08
305.502	4.97
305.878	4.72
306.253	4.68
306.628	4.46
307.003	4.87
307.378	4.55
307.754	5.17
308.129	4.51
308.504	4.35
308.879	4.93
309.254	5.12
309.629	4.62
310.003	4.89
310.378	5.38
310.753	4.91
311.128	4.76
311.502	4.77
311.877	4.55
312.252	4.78
312.626	4.78
313.001	5
313.375	4.65
313.75	5.2
314.124	4.98
314.498	4.25
314.873	4.99
315.247	5.1
315.621	4.58
315.995	5.03
316.369	4.78
316.743	5.05
317.117	4.68
317.491	4.82
317.865	4.91
318.239	4.95
318.613	5.13
318.987	4.8
319.361	4.86
319.734	4.86
320.108	4.69
320.482	4.34
320.855	4.66
321.229	5.16
321.602	4.91
321.976	4.47
322.349	4.57
322.723	5.05
323.096	4.83
323.469	4.77
323.843	4.68
324.216	5.3
324.589	4.88
324.962	4.48
325.335	4.64
325.708	4.84
326.081	4.91
326.454	4.89
326.827	4.35
327.2	4.41
327.573	5.09
327.945	5.17
328.318	5.03
328.691	4.88
329.063	4.24
329.436	4.87
329.809	4.79
330.181	5.04
330.553	4.55
330.926	5.33
331.298	5.25
331.671	5.22
332.043	4.47
332.415	4.63
332.787	4.75
333.159	4.46
333.532	3.97
333.904	4.64
334.276	4.37
334.648	4.56
335.02	4.43
335.391	4.86
335.763	4.83
336.135	4.23
336.507	5.08
336.879	4.07
337.25	5
337.622	4.93
337.993	5.04
338.365	5.07
338.736	5.22
339.108	5.05
339.479	5.02
339.851	4.46
340.222	4.54
340.593	4.44
340.964	4.32
341.336	4.38
341.707	4.36
342.078	4.98
342.449	4.76
342.82	4.38
343.191	4.32
343.562	4.75
343.933	4.91
344.303	4.97
344.674	4.83
345.045	4.72
345.416	5.14
345.786	4.52
346.157	4.6
346.527	4.64
346.898	5.03
347.268	4.73
347.639	4.71
348.009	4.59
348.38	5.1
348.75	4.75
349.12	4.48
349.49	4.79
349.861	4.82
350.231	4.65
350.601	4.27
350.971	5.01
351.341	4.34
351.711	4.77
352.081	4.68
352.45	4.73
352.82	4.61
353.19	4.78
353.56	4.65
353.929	4.42
354.299	4.72
354.669	4.62
355.038	4.53
355.408	4.65
355.777	5.15
356.147	4.62
356.516	5.28
356.885	4.36
357.254	5.17
357.624	4.69
357.993	5.04
358.362	4.92
358.731	4.52
359.1	4.47
359.469	4.87
359.838	4.32
360.207	4.59
360.576	4.52
360.945	5.04
361.314	4.9
361.682	4.87
362.051	4.93
362.42	4.76
362.788	4.69
363.157	4.97
363.525	4.6
363.894	4.61
364.262	4.46
364.631	4.56
364.999	4.61
365.367	4.79
365.735	4.72
366.104	4.51
366.472	4.85
366.84	4.46
367.208	4.75
367.576	4.85
367.944	4.58
368.312	4.81
368.68	4.58
369.048	5.04
369.416	4.85
369.783	4.67
370.151	4.59
370.519	4.62
370.886	4.62
371.254	4.95
371.621	4.77
371.989	4.99
372.356	4.62
372.724	4.82
373.091	4.89
373.458	4.58
373.826	4.8
374.193	4.9
374.56	4.71
374.927	4.84
375.294	4.62
375.661	4.68
376.028	4.87
376.395	4.96
376.762	4.66
377.129	5.06
377.496	5.27
377.863	4.95
378.229	4.64
378.596	4.9
378.963	5.01
379.329	4.62
379.696	5.09
380.062	4.46
380.429	4.75
380.795	4.66
381.161	4.62
381.528	4.85
381.894	4.41
382.26	4.73
382.626	4.64
382.993	4.9
383.359	4.66
383.725	4.64
384.091	5.13
384.457	4.91
384.823	4.9
385.188	4.99
385.554	4.66
385.92	5.28
386.286	4.7
386.651	4.95
387.017	4.86
387.383	4.51
387.748	4.62
388.114	4.97
388.479	5.05
388.845	4.59
389.21	4.59
389.575	4.89
389.94	4.61
390.306	4.92
390.671	5.01
391.036	4.54
391.401	4.85
391.766	4.73
392.131	4.58
392.496	4.75
392.861	4.87
393.226	4.88
393.591	4.87
393.956	4.88
394.32	4.67
394.685	4.83
395.05	5.03
395.414	5.04
395.779	4.8
396.143	4.96
396.508	4.65
396.872	4.89
397.236	4.83
397.601	4.92
397.965	4.95
398.329	4.72
398.694	4.87
399.058	4.77
399.422	4.82
399.786	4.89
400.15	5.05
400.514	4.94
400.878	5.02
401.242	4.87
401.605	4.72
401.969	4.59
402.333	4.97
402.697	4.83
403.06	4.97
403.424	4.57
403.787	4.96
404.151	4.92
404.514	4.8
404.878	4.92
405.241	4.91
405.604	5.05
405.968	5.02
406.331	4.87
406.694	4.93
407.057	4.8
407.42	4.9
407.783	4.91
408.146	4.88
408.509	4.8
408.872	4.62
409.235	4.95
409.598	4.88
409.961	4.83
410.323	4.98
410.686	4.97
411.049	5
411.411	5
411.774	4.86
412.136	4.83
412.499	4.76
412.861	4.89
413.223	5.04
413.586	4.74
413.948	4.98
414.31	4.88
414.672	5.11
415.035	4.95
415.397	5.31
415.759	5.22
416.121	4.91
416.483	4.81
416.845	5.02
417.206	4.85
417.568	5.06
417.93	4.98
418.292	4.85
418.653	5
419.015	4.94
419.377	4.81
419.738	4.96
420.1	4.7
420.461	4.86
420.822	4.8
421.184	4.84
421.545	4.86
421.906	4.83
422.267	4.84
422.629	4.87
422.99	4.87
423.351	4.81
423.712	4.77
424.073	4.79
424.434	4.71
424.795	4.8
425.155	4.91
425.516	4.82
425.877	4.82
426.238	4.71
426.598	4.74
426.959	4.84
427.32	4.88
427.68	4.8
428.041	4.81
428.401	5.03
428.761	4.89
429.122	4.74
429.482	4.88
429.842	4.68
430.202	4.87
430.563	5.05
430.923	4.97
431.283	5.12
431.643	4.95
432.003	5.18
432.363	5.13
432.722	5.04
433.082	5.02
433.442	4.94
433.802	5.06
434.161	4.87
434.521	4.95
434.881	4.99
435.24	4.96
435.6	4.88
435.959	4.91
436.319	4.94
436.678	5.12
437.037	5.06
437.396	4.92
437.756	4.92
438.115	5.09
438.474	5.03
438.833	5.02
439.192	4.98
439.551	5.05
439.91	5.05
440.269	4.98
440.628	4.8
440.987	5
441.345	5.1
441.704	4.98
442.063	4.94
442.421	4.94
442.78	5
443.138	5.06
443.497	5.03
443.855	5.08
444.214	4.84
444.572	5.18
444.93	5.02
445.288	4.99
445.647	5.01
446.005	4.94
446.363	4.97
446.721	4.91
447.079	4.92
447.437	4.94
447.795	5.09
448.153	4.92
448.51	4.95
448.868	4.88
449.226	5
449.584	4.9
449.941	4.87
450.299	4.99
450.656	5.1
451.014	5.16
451.371	4.95
451.729	5.08
452.086	5.07
452.443	5.09
452.801	5.15
453.158	5.04
453.515	5.02
453.872	4.99
454.229	5.09
454.586	5.03
454.943	4.97
455.3	5.05
455.657	5.06
456.014	5.08
456.371	5.24
456.727	5.23
457.084	5.21
457.441	5.02
457.797	5.07
458.154	5.16
458.51	4.97
458.867	5.12
459.223	5.14
459.58	5.13
459.936	5.16
460.292	5.28
460.648	5.1
461.005	5.24
461.361	5.13
461.717	4.95
462.073	5.01
462.429	4.87
462.785	4.97
463.141	4.99
463.496	5.16
463.852	5.14
464.208	5.17
464.564	5.19
464.919	5.06
465.275	5.29
465.631	5.29
465.986	5.19
466.342	5.29
466.697	5.13
467.052	4.97
467.408	5.3
467.763	5.23
468.118	5.37
468.473	5.08
468.829	5.04
469.184	5.18
469.539	5.16
469.894	5.02
470.249	5.24
470.603	5.16
470.958	5.19
471.313	5.22
471.668	5.18
472.023	5.24
472.377	5.26
472.732	5.26
473.086	5.33
473.441	5.09
473.795	5.43
474.15	5.15
474.504	5.28
474.859	5.24
475.213	5.05
475.567	5.27
475.921	5.24
476.275	5.35
476.63	5.21
476.984	5.15
477.338	5.34
477.692	5.31
478.045	5.4
478.399	5.36
478.753	5.1
479.107	5.3
479.461	5.2
479.814	5.3
480.168	5.22
480.521	5.19
480.875	5.3
481.228	5.2
481.582	5.23
481.935	5.32
482.289	5.18
482.642	5.07
482.995	5.22
483.348	5.29
483.701	5.24
484.055	5.21
484.408	5.1
484.761	5.24
485.114	5.08
485.466	5.03
485.819	4.97
486.172	4.92
486.525	4.92
486.878	4.9
487.23	4.96
487.583	5.03
487.936	5.1
488.288	5.05
488.641	5.12
488.993	5.08
489.345	5.06
489.698	5.07
490.05	5.03
490.402	5.03
490.754	4.98
491.107	5.06
491.459	5.12
491.811	5.1
492.163	5.15
492.515	5.17
492.866	5.23
493.218	5.28
493.57	5.27
493.922	5.08
494.274	5.14
494.625	5.17
494.977	5.19
495.328	5.26
495.68	5.27
496.031	5.27
496.383	5.3
496.734	5.44
497.086	5.34
497.437	5.36
497.788	5.36
498.139	5.51
498.49	5.48
498.842	5.31
499.193	5.17
499.544	5.41
499.894	5.35
500.245	5.41
500.596	5.35
500.947	5.42
501.298	5.44
501.648	5.53
501.999	5.51
502.35	5.43
502.7	5.53
503.051	5.53
503.401	5.4
503.752	5.44
504.102	5.43
504.452	5.39
504.803	5.55
505.153	5.52
505.503	5.45
505.853	5.57
506.203	5.45
506.553	5.49
506.903	5.52
507.253	5.48
507.603	5.59
507.953	5.63
508.303	5.56
508.652	5.56
509.002	5.69
509.352	5.58
509.701	5.58
510.051	5.58
510.4	5.62
510.75	5.43
511.099	5.51
511.449	5.56
511.798	5.64
512.147	5.57
512.496	5.61
512.846	5.61
513.195	5.63
513.544	5.64
513.893	5.72
514.242	5.57
514.591	5.66
514.939	5.75
515.288	5.58
515.637	5.71
515.986	5.59
516.334	5.72
516.683	5.69
517.032	5.69
517.38	5.82
517.729	5.65
518.077	5.7
518.426	5.72
518.774	5.81
519.122	5.72
519.47	5.75
519.819	5.7
520.167	5.78
520.515	5.71
520.863	5.56
521.211	5.66
521.559	5.77
521.907	5.78
522.255	5.77
522.602	5.87
522.95	5.86
523.298	5.91
523.645	5.77
523.993	5.76
524.341	5.77
524.688	5.85
525.036	5.92
525.383	5.93
525.73	6.1
526.078	5.87
526.425	5.88
526.772	5.92
527.119	5.85
527.466	5.8
527.814	5.82
528.161	5.79
528.508	5.85
528.854	5.82
529.201	5.88
529.548	5.88
529.895	5.82
530.242	5.76
530.588	5.72
530.935	5.68
531.282	5.66
531.628	5.73
531.975	5.7
532.321	5.7
532.667	5.9
533.014	5.87
533.36	5.94
533.706	5.99
534.052	5.98
534.399	6.08
534.745	6.01
535.091	5.98
535.437	5.9
535.783	5.87
536.129	5.92
536.474	5.94
536.82	5.88
537.166	6.11
537.512	6.05
537.857	6.06
538.203	6.24
538.549	6.06
538.894	6.08
539.239	6.11
539.585	6.09
539.93	6.18
540.276	6.15
540.621	6.22
540.966	6.29
541.311	6.24
541.656	6.35
542.001	6.37
542.346	6.37
542.691	6.37
543.036	6.31
543.381	6.18
543.726	6.16
544.071	6.14
544.415	6.23
544.76	6.12
545.105	6.16
545.449	6.28
545.794	6.36
546.138	6.38
546.483	6.43
546.827	6.45
547.171	6.41
547.516	6.53
547.86	6.51
548.204	6.54
548.548	6.57
548.892	6.59
549.236	6.45
549.58	6.56
549.924	6.66
550.268	6.75
550.612	6.67
550.956	6.76
551.3	6.61
551.643	6.94
551.987	6.89
552.33	6.97
552.674	6.77
553.017	6.72
553.361	6.87
553.704	6.9
554.048	7.03
554.391	6.91
554.734	6.93
555.077	7.04
555.42	6.92
555.764	6.89
556.107	6.94
556.45	7.02
556.793	7.02
557.135	6.97
557.478	6.83
557.821	7.18
558.164	7.11
558.507	7.15
558.849	7.07
559.192	7.26
559.534	7.26
559.877	7.2
560.219	7.31
560.562	7.38
560.904	7.22
561.246	7.46
561.589	7.5
561.931	7.21
562.273	7.3
562.615	7.3
562.957	7.4
563.299	7.39
563.641	7.43
563.983	7.32
564.325	7.41
564.667	7.6
565.008	7.3
565.35	7.64
565.692	7.74
566.033	7.55
566.375	7.56
566.716	7.65
567.058	7.57
567.399	7.55
567.741	7.85
568.082	7.58
568.423	7.76
568.764	7.91
569.105	7.53
569.447	7.68
569.788	7.68
570.129	7.9
570.47	8
570.811	7.77
571.151	8.07
571.492	7.91
571.833	7.97
572.174	8.07
572.514	7.87
572.855	7.99
573.195	8.06
573.536	8.01
573.876	7.92
574.217	7.95
574.557	8
574.898	8.03
575.238	8.1
575.578	8.15
575.918	8.22
576.258	7.97
576.598	8.12
576.938	8.25
577.278	8.41
577.618	8.09
577.958	8.26
578.298	8.35
578.638	8.24
578.977	8.41
579.317	8.36
579.657	8.5
579.996	8.62
580.336	8.65
580.675	8.63
581.014	8.55
581.354	8.58
581.693	8.91
582.032	8.81
582.372	8.96
582.711	8.82
583.05	8.97
583.389	8.78
583.728	8.9
584.067	8.92
584.406	8.89
584.745	8.83
585.083	9.14
585.422	9.26
585.761	9.07
586.1	9.18
586.438	9.05
586.777	9.01
587.115	9.4
587.454	9.07
587.792	9.37
588.13	9.26
588.469	9.35
588.807	9.47
589.145	9.39
589.483	9.11
589.821	9.12
590.159	9.42
590.497	9.81
590.835	9.45
591.173	9.48
591.511	9.54
591.849	9.3
592.187	9.49
592.524	9.55
592.862	9.62
593.2	9.78
593.537	9.4
593.875	9.75
594.212	9.69
594.55	9.94
594.887	9.67
595.224	9.97
595.561	10.08
595.899	10.04
596.236	10.14
596.573	10.1
596.91	10.01
597.247	9.86
597.584	10.13
597.921	10.21
598.258	10.19
598.594	10.02
598.931	10.01
599.268	9.99
599.604	10.19
599.941	10.12
600.277	10.02
600.614	10.12
600.95	10.21
601.287	10.28
601.623	10.22
601.959	10.29
602.296	10.52
602.632	10.03
602.968	10.57
603.304	10.58
603.64	10.45
603.976	10.41
604.312	10.55
604.648	10.46
604.984	10.49
605.319	10.7
605.655	10.65
605.991	10.7
606.326	10.76
606.662	10.59
606.998	10.55
607.333	10.81
607.668	10.85
608.004	11.01
608.339	10.64
608.674	10.9
609.01	11.04
609.345	11.1
609.68	11.21
610.015	11.27
610.35	11.17
610.685	11.21
611.02	11.4
611.355	11.35
611.689	11.4
612.024	11.22
612.359	11.09
612.694	11.19
613.028	11.22
613.363	11.31
613.697	11.39
614.032	11.42
614.366	11.22
614.7	11.54
615.035	11.75
615.369	11.71
615.703	11.76
616.037	11.52
616.371	11.93
616.705	11.78
617.039	11.98
617.373	11.8
617.707	11.68
618.041	12
618.375	12.23
618.709	11.93
619.042	12.39
619.376	12.16
619.71	12.3
620.043	12.01
620.377	12.15
620.71	12.34
621.043	12.48
621.377	12.3
621.71	12.71
622.043	12.4
622.376	12.58
622.709	12.26
623.043	12.36
623.376	12.61
623.709	12.48
624.041	12.46
624.374	12.95
624.707	12.87
625.04	12.89
625.373	12.73
625.705	12.7
626.038	12.53
626.37	13.06
626.703	13.15
627.035	12.85
627.368	12.8
627.7	12.75
628.032	13.08
628.365	12.93
628.697	13.18
629.029	13.06
629.361	13.14
629.693	12.98
630.025	13.43
630.357	13
630.689	13.36
631.021	13.36
631.353	13.07
631.684	13.5
632.016	13.37
632.348	13.19
632.679	13.25
633.011	13.34
633.342	13.64
633.674	13.59
634.005	13.28
634.336	13.66
634.668	13.85
634.999	13.98
635.33	14.13
635.661	13.94
635.992	13.79
636.323	13.78
636.654	13.62
636.985	13.55
637.316	13.91
637.647	14.06
637.977	13.96
638.308	14.24
638.639	13.93
638.969	14.38
639.3	14.15
639.63	14.53
639.961	14.1
640.291	14.26
640.622	14.38
640.952	14.22
641.282	14.64
641.612	14.11
641.943	14.55
642.273	14.57
642.603	14.43
642.933	14.94
643.263	14.14
643.592	14.68
643.922	14.96
644.252	14.98
644.582	14.8
644.911	14.8
645.241	14.64
645.571	14.98
645.9	15.07
646.23	14.96
646.559	15.18
646.888	15.11
647.218	15.04
647.547	14.89
647.876	15.14
648.205	14.57
648.534	15.5
648.863	15.09
649.192	14.55
649.521	15.72
649.85	15.69
650.179	15.07
650.508	14.78
650.837	15.48
651.165	15.87
651.494	15.18
651.822	15.38
652.151	15.28
652.479	15.77
652.808	15.5
653.136	15.78
653.465	15.57
653.793	15.71
654.121	15.84
654.449	15.3
654.777	15.87
655.105	16.17
655.433	16.15
655.761	16.27
656.089	15.89
656.417	15.55
656.745	16.17
657.073	16.27
657.4	16.76
657.728	16.39
658.056	16.01
658.383	16.24
658.711	16.53
659.038	16.19
659.365	16.49
659.693	15.99
660.02	16.97
660.347	16.76
660.674	16.37
661.001	16.46
661.329	16.58
661.656	17.09
661.982	16.53
662.309	16.88
662.636	16.69
662.963	16.99
663.29	16.84
663.616	16.7
663.943	17.35
664.27	16.96
664.596	16.66
664.923	17.07
665.249	16.88
665.576	16.64
665.902	17.25
666.228	16.42
666.554	17.42
666.881	17.59
667.207	17.3
667.533	17.32
667.859	17.93
668.185	17.49
668.511	17.82
668.837	17.1
669.162	17.87
669.488	17.97
669.814	17.36
670.139	17.97
670.465	18
670.791	18.28
671.116	17.79
671.442	18.24
671.767	17.73
672.092	18.17
672.418	18.59
672.743	17.96
673.068	18.15
673.393	18.07
673.718	18.46
674.043	17.97
674.368	18.24
674.693	18.45
675.018	18.42
675.343	18.57
675.667	18.54
675.992	18.37
676.317	18.89
676.641	18.4
676.966	18.99
677.29	19.05
677.615	18.41
677.939	18.81
678.264	18.91
678.588	19.39
678.912	19.36
679.236	18.6
679.56	19.02
679.885	18.91
680.209	19.19
680.532	18.88
680.856	18.91
681.18	18.84
681.504	19.62
681.828	19.14
682.152	19.29
682.475	19.81
682.799	19.44
683.122	19.5
683.446	19.29
683.769	18.93
684.093	19.85
684.416	19.38
684.739	19.77
685.062	20.27
685.386	19.9
685.709	20.23
686.032	19.28
686.355	19.63
686.678	20.03
