Data from 0280_crown_Reflection__1__325.txt Node

Date: Fri Sep 22 23:19:45 CDT 2023
User: ToomeyLab
Spectrometer: FLMS14357
Trigger mode: 0
Integration Time (sec): 1.000000E-2
Scans to average: 100
Electric dark correction enabled: true
Nonlinearity correction enabled: false
Boxcar width: 0
XAxis mode: Wavelengths
Number of Pixels in Spectrum: 2048
>>>>>Begin Spectral Data<<<<<
189.047	38.42
189.435	38.42
189.823	38.42
190.211	45.71
190.599	14.95
190.987	134.24
191.375	430.54
191.763	-5.09
192.151	-133.91
192.538	-58.09
192.926	-14.35
193.314	-29.38
193.702	-6.08
194.089	15.99
194.477	248.93
194.864	-162.69
195.252	59.36
195.639	5.7
196.027	355.53
196.414	187.31
196.801	-200.64
197.189	208.08
197.576	77.52
197.963	-113.09
198.351	7.91
198.738	11.22
199.125	-4.45
199.512	-4.27
199.899	28.71
200.286	-16.44
200.673	-2.44
201.06	16.08
201.447	40.71
201.833	-3.56
202.22	68.65
202.607	52.75
202.994	48.66
203.38	55.85
203.767	8.82
204.154	16.13
204.54	20.42
204.927	-3.23
205.313	-14.31
205.699	59.61
206.086	23.81
206.472	49.02
206.858	17.24
207.245	-1.88
207.631	26.49
208.017	-3.2
208.403	-30.51
208.789	11.65
209.175	9.64
209.561	24.78
209.947	46.99
210.333	43.47
210.719	-16.35
211.105	24.9
211.491	-2.35
211.876	44.58
212.262	49.67
212.648	34.47
213.034	30.11
213.419	-2.51
213.805	-5.52
214.19	-16.78
214.576	14.92
214.961	-5.91
215.346	-27.87
215.732	38.31
216.117	0.35
216.502	24.55
216.888	4.93
217.273	17.14
217.658	-1.4
218.043	6.92
218.428	34.35
218.813	-15.58
219.198	30.63
219.583	8.02
219.968	-27.98
220.353	14.26
220.738	8.34
221.122	6.11
221.507	5.56
221.892	4.69
222.276	12.53
222.661	-11.39
223.046	16.01
223.43	19.75
223.815	2.7
224.199	3.73
224.583	18.09
224.968	19.44
225.352	2.87
225.736	12.36
226.121	4.11
226.505	13.28
226.889	10.8
227.273	4.4
227.657	10.36
228.041	9.83
228.425	16.3
228.809	10.01
229.193	8.75
229.577	14.3
229.961	11.75
230.344	12.39
230.728	9.57
231.112	10.09
231.495	10.17
231.879	9.92
232.263	7.93
232.646	9.26
233.03	7.67
233.413	9.53
233.797	9.69
234.18	10.33
234.563	10.84
234.946	6.38
235.33	5.48
235.713	8.91
236.096	7.66
236.479	9.67
236.862	10.35
237.245	7.8
237.628	11.48
238.011	11.88
238.394	8.75
238.777	11.08
239.16	9.11
239.543	10.4
239.925	9.11
240.308	7.57
240.691	9.97
241.073	10.18
241.456	8.99
241.838	8.87
242.221	8.35
242.603	9.22
242.986	10.21
243.368	8.8
243.75	9.98
244.133	9.75
244.515	9.48
244.897	8.93
245.279	9.47
245.661	9.21
246.043	9.17
246.425	9.21
246.807	9.27
247.189	8.5
247.571	7.96
247.953	10.45
248.335	9.24
248.717	9.66
249.098	9.18
249.48	8.73
249.862	8.97
250.243	9.14
250.625	9.57
251.006	8.92
251.388	9.07
251.769	9.17
252.151	8.13
252.532	7.85
252.913	9.36
253.295	9.63
253.676	8.61
254.057	9.41
254.438	8.74
254.819	8.08
255.2	8.84
255.581	8.65
255.962	9.22
256.343	8.62
256.724	7.07
257.105	8.64
257.486	8.48
257.867	8.34
258.247	8.79
258.628	7.82
259.009	8.28
259.389	8.47
259.77	8.64
260.15	8.91
260.531	8.52
260.911	8.53
261.292	8.54
261.672	8.29
262.052	8.42
262.432	8.22
262.813	8.42
263.193	8.09
263.573	9.03
263.953	8.31
264.333	8.35
264.713	8.11
265.093	8.02
265.473	8.3
265.853	7.53
266.233	8.01
266.612	7.22
266.992	8.45
267.372	8.34
267.752	8.35
268.131	7.93
268.511	7.85
268.89	8.59
269.27	7.99
269.649	7.84
270.029	7.81
270.408	7.98
270.787	8.23
271.167	8.05
271.546	7.13
271.925	8.3
272.304	7.76
272.683	7.78
273.062	8.43
273.441	7.74
273.82	7.88
274.199	8.15
274.578	7.99
274.957	7.68
275.336	7.89
275.715	7.86
276.093	7.28
276.472	7.89
276.851	7.69
277.229	6.97
277.608	7.66
277.986	7.23
278.365	8.29
278.743	7.76
279.122	7.74
279.5	8.32
279.878	7.89
280.257	7.83
280.635	7.9
281.013	7.64
281.391	6.89
281.769	7.38
282.147	7.23
282.525	7.97
282.903	7.52
283.281	7.54
283.659	7.69
284.037	7.12
284.415	7.15
284.792	7.37
285.17	7.42
285.548	8.39
285.925	7.14
286.303	7.59
286.68	7.39
287.058	7.2
287.435	6.95
287.813	6.95
288.19	7.01
288.567	7.4
288.945	6.93
289.322	7.19
289.699	7.33
290.076	7.15
290.453	7.3
290.83	6.9
291.207	6.74
291.584	7.48
291.961	7.07
292.338	7.21
292.715	7.13
293.092	6.93
293.469	6.81
293.845	6.84
294.222	7.37
294.599	7.07
294.975	7.29
295.352	7.28
295.728	6.47
296.105	7.12
296.481	6.84
296.858	7.13
297.234	6.84
297.61	6.66
297.986	6.94
298.363	6.83
298.739	6.9
299.115	7.34
299.491	6.82
299.867	6.93
300.243	6.54
300.619	6.7
300.995	6.66
301.371	6.94
301.746	6.69
302.122	6.42
302.498	6.73
302.874	6.27
303.249	6.29
303.625	6.19
304	6.82
304.376	6.76
304.751	6.82
305.127	6.77
305.502	7.18
305.878	6.85
306.253	6.71
306.628	6.43
307.003	6.8
307.378	6.07
307.754	6.63
308.129	6.84
308.504	6.69
308.879	6.34
309.254	6.55
309.629	6.73
310.003	6.78
310.378	6.67
310.753	6.62
311.128	6.71
311.502	6.76
311.877	6.34
312.252	6.48
312.626	6.48
313.001	6.71
313.375	6.61
313.75	6.82
314.124	6.45
314.498	5.74
314.873	6.19
315.247	6.48
315.621	6.81
315.995	6.42
316.369	6.39
316.743	6.24
317.117	6.16
317.491	6.07
317.865	6.22
318.239	6.25
318.613	6.67
318.987	6.04
319.361	6.03
319.734	5.77
320.108	6.7
320.482	5.72
320.855	5.76
321.229	6.43
321.602	6.48
321.976	5.97
322.349	6.22
322.723	6.03
323.096	5.46
323.469	6.32
323.843	5.52
324.216	6.06
324.589	6.03
324.962	5.71
325.335	6.12
325.708	6.36
326.081	6.48
326.454	5.63
326.827	5.72
327.2	6.07
327.573	5.91
327.945	6.11
328.318	6.12
328.691	6.62
329.063	5.89
329.436	5.94
329.809	6.64
330.181	6.43
330.553	5.85
330.926	6.41
331.298	5.97
331.671	6.03
332.043	6.07
332.415	5.61
332.787	6.1
333.159	5.99
333.532	5.96
333.904	6.13
334.276	5.83
334.648	5.38
335.02	6.11
335.391	6.21
335.763	6.41
336.135	6.15
336.507	6.29
336.879	5.87
337.25	6.27
337.622	6.14
337.993	5.87
338.365	6.5
338.736	6.22
339.108	5.89
339.479	6.32
339.851	5.76
340.222	5.72
340.593	6.17
340.964	5.99
341.336	5.92
341.707	6.23
342.078	5.65
342.449	5.98
342.82	5.82
343.191	5.61
343.562	6.02
343.933	5.97
344.303	5.89
344.674	6.23
345.045	6.1
345.416	5.94
345.786	5.78
346.157	5.92
346.527	5.53
346.898	5.92
347.268	6.01
347.639	5.75
348.009	5.82
348.38	5.84
348.75	6.17
349.12	6.06
349.49	6.09
349.861	5.9
350.231	6.24
350.601	5.97
350.971	6.28
351.341	5.72
351.711	5.9
352.081	5.71
352.45	5.98
352.82	6.2
353.19	6.31
353.56	5.92
353.929	6.07
354.299	6.15
354.669	5.88
355.038	6.05
355.408	6.08
355.777	6.13
356.147	5.92
356.516	6.38
356.885	6.09
357.254	6.53
357.624	5.51
357.993	5.97
358.362	5.91
358.731	5.98
359.1	6
359.469	6
359.838	5.92
360.207	5.91
360.576	6.2
360.945	5.78
361.314	6.18
361.682	6.17
362.051	6.29
362.42	5.95
362.788	5.87
363.157	6.26
363.525	6.15
363.894	5.96
364.262	6.03
364.631	6.36
364.999	6.07
365.367	6.32
365.735	6.14
366.104	5.8
366.472	6.61
366.84	5.99
367.208	6.52
367.576	6.38
367.944	6.31
368.312	6.4
368.68	6.22
369.048	6.32
369.416	6.43
369.783	6.14
370.151	6.27
370.519	6.21
370.886	6.08
371.254	6.73
371.621	6.31
371.989	6.61
372.356	6.18
372.724	6.43
373.091	6.46
373.458	6.36
373.826	6.17
374.193	6.28
374.56	6.48
374.927	6.36
375.294	6.01
375.661	6.3
376.028	6.27
376.395	6.7
376.762	6.05
377.129	6.53
377.496	6.66
377.863	6.45
378.229	6.27
378.596	6.45
378.963	6.48
379.329	6.47
379.696	6.73
380.062	6.56
380.429	6.38
380.795	6.3
381.161	6.14
381.528	6.32
381.894	6.33
382.26	6.14
382.626	6.45
382.993	6.45
383.359	6.08
383.725	6.4
384.091	6.33
384.457	6.27
384.823	6.81
385.188	6.69
385.554	6.26
385.92	6.66
386.286	6.79
386.651	6.65
387.017	6.76
387.383	6.6
387.748	6.48
388.114	6.66
388.479	6.59
388.845	6.27
389.21	6.1
389.575	6.83
389.94	6.44
390.306	6.49
390.671	7.05
391.036	6.39
391.401	6.61
391.766	6.54
392.131	6.48
392.496	6.74
392.861	6.59
393.226	6.63
393.591	6.62
393.956	6.55
394.32	6.62
394.685	6.57
395.05	6.69
395.414	6.59
395.779	6.6
396.143	6.61
396.508	6.53
396.872	6.76
397.236	6.72
397.601	6.46
397.965	6.96
398.329	6.57
398.694	6.7
399.058	6.55
399.422	6.71
399.786	6.85
400.15	6.55
400.514	6.68
400.878	6.53
401.242	6.71
401.605	6.71
401.969	6.46
402.333	6.75
402.697	6.67
403.06	6.82
403.424	6.66
403.787	6.85
404.151	6.62
404.514	6.7
404.878	6.91
405.241	6.8
405.604	6.78
405.968	6.85
406.331	6.86
406.694	6.68
407.057	6.74
407.42	6.98
407.783	6.81
408.146	6.72
408.509	6.64
408.872	6.73
409.235	6.9
409.598	6.7
409.961	6.99
410.323	6.88
410.686	6.87
411.049	6.99
411.411	6.96
411.774	6.53
412.136	7
412.499	6.75
412.861	6.82
413.223	6.91
413.586	7.02
413.948	6.99
414.31	6.67
414.672	6.69
415.035	6.93
415.397	7.28
415.759	7.24
416.121	6.75
416.483	6.86
416.845	7.03
417.206	6.81
417.568	6.87
417.93	6.86
418.292	6.86
418.653	6.95
419.015	7.13
419.377	6.87
419.738	6.9
420.1	6.9
420.461	6.84
420.822	6.84
421.184	6.88
421.545	6.86
421.906	6.81
422.267	6.76
422.629	6.85
422.99	6.86
423.351	6.78
423.712	6.78
424.073	6.86
424.434	6.87
424.795	6.83
425.155	6.93
425.516	6.81
425.877	6.89
426.238	6.73
426.598	6.83
426.959	6.75
427.32	6.9
427.68	6.69
428.041	6.89
428.401	7.02
428.761	6.96
429.122	6.88
429.482	6.81
429.842	7
430.202	6.93
430.563	7.05
430.923	7.17
431.283	7.09
431.643	7.16
432.003	7.08
432.363	7.22
432.722	7.15
433.082	7.12
433.442	7.09
433.802	7.2
434.161	7.1
434.521	6.96
434.881	7.09
435.24	7.03
435.6	7
435.959	6.89
436.319	7.07
436.678	7.11
437.037	7.17
437.396	6.97
437.756	7.03
438.115	6.98
438.474	7.07
438.833	7.14
439.192	7.12
439.551	7.02
439.91	7.18
440.269	7.14
440.628	7.11
440.987	7.02
441.345	7.04
441.704	7.01
442.063	7.06
442.421	6.98
442.78	7.02
443.138	7.05
443.497	7.09
443.855	7.02
444.214	6.92
444.572	7.2
444.93	7.12
445.288	7.06
445.647	7.23
446.005	7.06
446.363	7.06
446.721	7.16
447.079	6.98
447.437	7.07
447.795	7.18
448.153	7.03
448.51	7.06
448.868	6.9
449.226	7.06
449.584	7.09
449.941	6.94
450.299	7.21
450.656	7.13
451.014	7.13
451.371	7.16
451.729	7.26
452.086	7.18
452.443	7.26
452.801	7.12
453.158	7.14
453.515	7.03
453.872	7.17
454.229	7.21
454.586	7.23
454.943	7.17
455.3	7.2
455.657	7.15
456.014	7.08
456.371	7.11
456.727	7.34
457.084	7.12
457.441	7.15
457.797	7.11
458.154	6.97
458.51	7.07
458.867	7.27
459.223	7.29
459.58	7.19
459.936	7.26
460.292	7.29
460.648	7.34
461.005	7.3
461.361	7.32
461.717	7.15
462.073	7.1
462.429	6.97
462.785	7.06
463.141	7.07
463.496	7.2
463.852	7.1
464.208	7.17
464.564	7.33
464.919	6.98
465.275	7.41
465.631	7.52
465.986	7.45
466.342	7.14
466.697	7.41
467.052	7.08
467.408	7.46
467.763	7.35
468.118	7.25
468.473	7.22
468.829	7.24
469.184	7.19
469.539	7.2
469.894	7.27
470.249	7.2
470.603	7.24
470.958	7.24
471.313	7.46
471.668	7.29
472.023	7.31
472.377	7.18
472.732	7.23
473.086	7.31
473.441	6.98
473.795	7.53
474.15	7.2
474.504	7.32
474.859	7.42
475.213	7.15
475.567	7.2
475.921	7.41
476.275	7.29
476.63	7.42
476.984	7.2
477.338	7.48
477.692	7.26
478.045	7.26
478.399	7.42
478.753	7.3
479.107	7.36
479.461	7.24
479.814	7.36
480.168	7.3
480.521	7.29
480.875	7.36
481.228	7.35
481.582	7.25
481.935	7.4
482.289	7.28
482.642	7.25
482.995	7.23
483.348	7.22
483.701	7.17
484.055	7.22
484.408	7.19
484.761	7.18
485.114	7.13
485.466	7.04
485.819	6.97
486.172	6.93
486.525	6.93
486.878	6.88
487.23	6.9
487.583	7
487.936	7.04
488.288	7.09
488.641	7.2
488.993	7.05
489.345	7.08
489.698	6.96
490.05	6.98
490.402	7.01
490.754	6.97
491.107	7.02
491.459	7.02
491.811	7.1
492.163	7.17
492.515	7.19
492.866	7.15
493.218	7.18
493.57	7.17
493.922	7.06
494.274	7.03
494.625	7.06
494.977	7.17
495.328	7.14
495.68	7.22
496.031	7.23
496.383	7.38
496.734	7.35
497.086	7.22
497.437	7.22
497.788	7.3
498.139	7.3
498.49	7.43
498.842	7.21
499.193	7.1
499.544	7.34
499.894	7.22
500.245	7.36
500.596	7.3
500.947	7.42
501.298	7.4
501.648	7.38
501.999	7.39
502.35	7.32
502.7	7.41
503.051	7.36
503.401	7.38
503.752	7.32
504.102	7.42
504.452	7.41
504.803	7.39
505.153	7.35
505.503	7.33
505.853	7.39
506.203	7.32
506.553	7.42
506.903	7.36
507.253	7.35
507.603	7.35
507.953	7.47
508.303	7.57
508.652	7.23
509.002	7.55
509.352	7.34
509.701	7.25
510.051	7.41
510.4	7.4
510.75	7.38
511.099	7.29
511.449	7.32
511.798	7.37
512.147	7.38
512.496	7.44
512.846	7.32
513.195	7.44
513.544	7.37
513.893	7.41
514.242	7.25
514.591	7.41
514.939	7.37
515.288	7.47
515.637	7.37
515.986	7.4
516.334	7.36
516.683	7.39
517.032	7.41
517.38	7.52
517.729	7.32
518.077	7.47
518.426	7.35
518.774	7.46
519.122	7.33
519.47	7.37
519.819	7.35
520.167	7.47
520.515	7.35
520.863	7.19
521.211	7.29
521.559	7.25
521.907	7.28
522.255	7.39
522.602	7.34
522.95	7.27
523.298	7.47
523.645	7.38
523.993	7.35
524.341	7.35
524.688	7.39
525.036	7.41
525.383	7.48
525.73	7.47
526.078	7.4
526.425	7.28
526.772	7.52
527.119	7.44
527.466	7.28
527.814	7.28
528.161	7.32
528.508	7.26
528.854	7.3
529.201	7.37
529.548	7.31
529.895	7.25
530.242	7.24
530.588	7.12
530.935	7.07
531.282	7.11
531.628	7.12
531.975	7.02
532.321	7.16
532.667	7.19
533.014	7.21
533.36	7.24
533.706	7.28
534.052	7.35
534.399	7.34
534.745	7.39
535.091	7.18
535.437	7.18
535.783	7.12
536.129	7.22
536.474	7.27
536.82	7.18
537.166	7.39
537.512	7.3
537.857	7.32
538.203	7.32
538.549	7.33
538.894	7.22
539.239	7.32
539.585	7.28
539.93	7.35
540.276	7.42
540.621	7.38
540.966	7.41
541.311	7.27
541.656	7.36
542.001	7.23
542.346	7.39
542.691	7.52
543.036	7.35
543.381	7.2
543.726	7.17
544.071	7.17
544.415	7.15
544.76	7.11
545.105	7.11
545.449	7.22
545.794	7.28
546.138	7.32
546.483	7.29
546.827	7.33
547.171	7.34
547.516	7.29
547.86	7.46
548.204	7.37
548.548	7.3
548.892	7.4
549.236	7.35
549.58	7.34
549.924	7.54
550.268	7.46
550.612	7.29
550.956	7.41
551.3	7.41
551.643	7.45
551.987	7.52
552.33	7.61
552.674	7.4
553.017	7.36
553.361	7.38
553.704	7.56
554.048	7.49
554.391	7.41
554.734	7.47
555.077	7.4
555.42	7.36
555.764	7.34
556.107	7.41
556.45	7.39
556.793	7.45
557.135	7.48
557.478	7.38
557.821	7.46
558.164	7.55
558.507	7.53
558.849	7.38
559.192	7.6
559.534	7.51
559.877	7.52
560.219	7.35
560.562	7.49
560.904	7.53
561.246	7.56
561.589	7.51
561.931	7.48
562.273	7.34
562.615	7.45
562.957	7.36
563.299	7.38
563.641	7.3
563.983	7.51
564.325	7.56
564.667	7.64
565.008	7.35
565.35	7.49
565.692	7.56
566.033	7.38
566.375	7.33
566.716	7.51
567.058	7.4
567.399	7.41
567.741	7.74
568.082	7.41
568.423	7.58
568.764	7.39
569.105	7.25
569.447	7.38
569.788	7.2
570.129	7.33
570.47	7.44
570.811	7.46
571.151	7.48
571.492	7.16
571.833	7.23
572.174	7.44
572.514	7.38
572.855	7.48
573.195	7.31
573.536	7.32
573.876	7.48
574.217	7.39
574.557	7.3
574.898	7.41
575.238	7.37
575.578	7.4
575.918	7.4
576.258	7.28
576.598	7.25
576.938	7.28
577.278	7.5
577.618	7.25
577.958	7.35
578.298	7.33
578.638	7.29
578.977	7.32
579.317	7.36
579.657	7.27
579.996	7.38
580.336	7.4
580.675	7.43
581.014	7.31
581.354	7.37
581.693	7.44
582.032	7.36
582.372	7.33
582.711	7.32
583.05	7.46
583.389	7.25
583.728	7.4
584.067	7.45
584.406	7.39
584.745	7.02
585.083	7.55
585.422	7.67
585.761	7.31
586.1	7.37
586.438	7.31
586.777	7.28
587.115	7.62
587.454	7.11
587.792	7.28
588.13	7.45
588.469	7.32
588.807	7.46
589.145	7.4
589.483	7.41
589.821	7.37
590.159	7.26
590.497	7.5
590.835	7.35
591.173	7.29
591.511	7.52
591.849	7.65
592.187	7.17
592.524	7.3
592.862	7.29
593.2	7.29
593.537	7.28
593.875	7.24
594.212	7.35
594.55	7.37
594.887	7.49
595.224	7.05
595.561	7.55
595.899	7.44
596.236	7.49
596.573	7.47
596.91	7.42
597.247	7.33
597.584	7.52
597.921	7.78
598.258	7.4
598.594	7.31
598.931	7.33
599.268	7.18
599.604	7.43
599.941	7.42
600.277	7.12
600.614	7.4
600.95	7.28
601.287	7.15
601.623	7.26
601.959	7.51
602.296	7.14
602.632	7.2
602.968	7.41
603.304	7.18
603.64	7.3
603.976	7.36
604.312	7.46
604.648	7.14
604.984	7.37
605.319	7.41
605.655	7.21
605.991	7.29
606.326	7.38
606.662	7.24
606.998	7.28
607.333	7.45
607.668	7.18
608.004	7.21
608.339	7.29
608.674	7.21
609.01	7.37
609.345	7.29
609.68	7.53
610.015	7.34
610.35	7.28
610.685	7.4
611.02	7.33
611.355	7.38
611.689	7.24
612.024	7.15
612.359	7.26
612.694	7.07
613.028	7.14
613.363	7.11
613.697	7.06
614.032	7.28
614.366	7.14
614.7	7.35
615.035	7.38
615.369	7.08
615.703	7.03
616.037	7.35
616.371	7.27
616.705	7.52
617.039	7.25
617.373	7.28
617.707	7.09
618.041	7.16
618.375	7.31
618.709	7
619.042	7.67
619.376	7.33
619.71	7.24
620.043	7.23
620.377	7.19
620.71	7.24
621.043	7.22
621.377	7.02
621.71	7.27
622.043	7.24
622.376	7.44
622.709	7.01
623.043	7.18
623.376	7.21
623.709	7.42
624.041	7.24
624.374	6.83
624.707	7.37
625.04	7.34
625.373	7.05
625.705	7.28
626.038	7.14
626.37	7.3
626.703	7.36
627.035	7.12
627.368	7.01
627.7	7.03
628.032	7.22
628.365	7.31
628.697	7.41
629.029	7.3
629.361	7.12
629.693	7.11
630.025	7.19
630.357	7.14
630.689	7.33
631.021	7.06
631.353	7.34
631.684	7.01
632.016	7.26
632.348	6.98
632.679	6.63
633.011	6.92
633.342	7.24
633.674	7.31
634.005	6.96
634.336	7.18
634.668	7.42
634.999	7.17
635.33	7.12
635.661	7.29
635.992	7.26
636.323	6.83
636.654	6.84
636.985	6.76
637.316	7.13
637.647	6.96
637.977	6.49
638.308	7.3
638.639	7.09
638.969	7.28
639.3	6.86
639.63	7.26
639.961	7.01
640.291	7.18
640.622	7.05
640.952	7.06
641.282	6.9
641.612	7.08
641.943	7.23
642.273	7.02
642.603	6.91
642.933	6.87
643.263	6.73
643.592	7.32
643.922	7.18
644.252	6.86
644.582	7.14
644.911	6.67
645.241	7.33
645.571	7.27
645.9	7.25
646.23	7.11
646.559	7.58
646.888	7.15
647.218	7.23
647.547	7.22
647.876	6.92
648.205	6.99
648.534	7.27
648.863	6.99
649.192	6.69
649.521	7.35
649.85	7.19
650.179	6.92
650.508	6.97
650.837	7.37
651.165	7.09
651.494	6.99
651.822	6.83
652.151	6.91
652.479	6.77
652.808	6.81
653.136	7.55
653.465	7.22
653.793	7.01
654.121	7.32
654.449	6.88
654.777	6.72
655.105	7.27
655.433	7.34
655.761	7.45
656.089	7.26
656.417	6.74
656.745	7.13
657.073	7.08
657.4	7.8
657.728	7.43
658.056	6.89
658.383	7.03
658.711	7.2
659.038	6.68
659.365	7.34
659.693	6.91
660.02	7.18
660.347	6.74
660.674	6.64
661.001	7.02
661.329	7.33
661.656	7.06
661.982	6.84
662.309	7.26
662.636	6.86
662.963	7.13
663.29	7.09
663.616	7.07
663.943	7.01
664.27	7.06
664.596	7.17
664.923	6.91
665.249	6.94
665.576	6.7
665.902	7.26
666.228	6.77
666.554	6.57
666.881	7.26
667.207	6.97
667.533	7.18
667.859	7.26
668.185	7.43
668.511	7.79
668.837	6.71
669.162	6.83
669.488	7.31
669.814	7.07
670.139	7.03
670.465	7.68
670.791	6.89
671.116	7.14
671.442	7.4
671.767	6.56
672.092	6.93
672.418	7.62
672.743	7.19
673.068	7.29
673.393	6.64
673.718	7.61
674.043	7.71
674.368	7.65
674.693	7.07
675.018	7.2
675.343	7.36
675.667	6.71
675.992	7.37
676.317	7.36
676.641	7.51
676.966	7.22
677.29	7.09
677.615	7.5
677.939	7.17
678.264	6.98
678.588	7.2
678.912	7.59
679.236	7.26
679.56	8.05
679.885	7.14
680.209	7.68
680.532	7.39
680.856	7.38
681.18	7.61
681.504	7.13
681.828	7.59
682.152	7.03
682.475	7.53
682.799	7.39
683.122	6.93
683.446	6.93
683.769	7
684.093	7.6
684.416	7.17
684.739	7.23
685.062	7.73
685.386	6.86
685.709	7.17
686.032	7.11
686.355	6.86
686.678	7.42
687.001	6.79
687.324	7.54
687.646	7.22
687.969	7.42
688.292	7.59
688.614	7.9
688.937	7.12
689.26	7.27
689.582	7.6
689.904	7.32
690.227	7.52
690.549	8.03
690.871	7.19
691.194	6.99
691.516	7.38
691.838	7.11
