Data from 0280_forehead_Reflection__4__333.txt Node

Date: Fri Sep 22 23:21:27 CDT 2023
User: ToomeyLab
Spectrometer: FLMS14357
Trigger mode: 0
Integration Time (sec): 1.000000E-2
Scans to average: 100
Electric dark correction enabled: true
Nonlinearity correction enabled: false
Boxcar width: 0
XAxis mode: Wavelengths
Number of Pixels in Spectrum: 2048
>>>>>Begin Spectral Data<<<<<
189.047	-28.94
189.435	-28.94
189.823	-28.94
190.211	-11.35
190.599	-14.33
190.987	223.07
191.375	315.59
191.763	428
192.151	-182.5
192.538	20.45
192.926	184.24
193.314	-15.26
193.702	448.94
194.089	-96.16
194.477	91.84
194.864	108.69
195.252	23.13
195.639	48.03
196.027	70.13
196.414	404.15
196.801	-15.91
197.189	150.17
197.576	-31.77
197.963	-89.04
198.351	-1.81
198.738	21.39
199.125	30.89
199.512	85.83
199.899	41.16
200.286	35.33
200.673	3.99
201.06	53.12
201.447	44.69
201.833	22.01
202.22	51.36
202.607	63.79
202.994	46.85
203.38	68.09
203.767	5.97
204.154	50.22
204.54	37.05
204.927	29.19
205.313	36.47
205.699	57.51
206.086	68.93
206.472	66.87
206.858	25.33
207.245	1.13
207.631	37.44
208.017	47.52
208.403	16.56
208.789	38.18
209.175	42.34
209.561	48.83
209.947	55.53
210.333	64.52
210.719	-10.07
211.105	28.95
211.491	2.07
211.876	42.58
212.262	24.37
212.648	43.85
213.034	37.06
213.419	31.46
213.805	10.22
214.19	13.26
214.576	16.75
214.961	10.12
215.346	51.14
215.732	43.83
216.117	5.43
216.502	40.56
216.888	18.1
217.273	33.32
217.658	1.23
218.043	38.72
218.428	58.46
218.813	-20.87
219.198	18.65
219.583	15.01
219.968	8.35
220.353	40.99
220.738	3.97
221.122	13.78
221.507	22.41
221.892	4.16
222.276	15.35
222.661	17.46
223.046	24.46
223.43	20.03
223.815	16.94
224.199	2.71
224.583	14.4
224.968	15.32
225.352	12.11
225.736	15.09
226.121	11.55
226.505	5.2
226.889	21.55
227.273	6.84
227.657	9.93
228.041	7.39
228.425	11.57
228.809	4.9
229.193	3.14
229.577	6.33
229.961	7.5
230.344	6.7
230.728	1.86
231.112	5.65
231.495	3.9
231.879	3.42
232.263	2.93
232.646	3.87
233.03	3.45
233.413	4.67
233.797	2.58
234.18	3.23
234.563	6.19
234.946	7.97
235.33	2.77
235.713	4.5
236.096	3.77
236.479	4.98
236.862	5.36
237.245	3.54
237.628	5.32
238.011	4.98
238.394	5.61
238.777	5.28
239.16	4.76
239.543	5.77
239.925	7
240.308	4.95
240.691	3.28
241.073	6.48
241.456	5.01
241.838	3.34
242.221	4.86
242.603	4.65
242.986	4.67
243.368	3.76
243.75	3.63
244.133	3.73
244.515	3.49
244.897	3.05
245.279	3.61
245.661	3.62
246.043	3.52
246.425	3.9
246.807	4.05
247.189	3.16
247.571	3.81
247.953	3.91
248.335	4.22
248.717	3.99
249.098	3.56
249.48	3.38
249.862	3.28
250.243	3.29
250.625	4.05
251.006	3.5
251.388	3.73
251.769	4.34
252.151	3.99
252.532	4.17
252.913	3.39
253.295	4.6
253.676	4.19
254.057	4.29
254.438	3.65
254.819	3.53
255.2	3.93
255.581	4.32
255.962	4.4
256.343	4.33
256.724	3.68
257.105	4.16
257.486	4.35
257.867	4.24
258.247	3.71
258.628	4.5
259.009	3.94
259.389	4.27
259.77	4.97
260.15	3.68
260.531	3.83
260.911	3.93
261.292	3.71
261.672	3.28
262.052	3.52
262.432	3.53
262.813	3.69
263.193	3.34
263.573	4.27
263.953	3.73
264.333	4.32
264.713	3.95
265.093	4.18
265.473	3.34
265.853	3.42
266.233	4.49
266.612	3.74
266.992	4.47
267.372	4.16
267.752	4.23
268.131	4.04
268.511	3.22
268.89	3.82
269.27	3.69
269.649	3.29
270.029	3.71
270.408	3.65
270.787	3.61
271.167	3.69
271.546	2.97
271.925	4.33
272.304	3.32
272.683	4.07
273.062	3.98
273.441	3.68
273.82	3.83
274.199	3.81
274.578	3.91
274.957	3.65
275.336	3.73
275.715	4.13
276.093	3.21
276.472	3.76
276.851	3.95
277.229	2.79
277.608	3.98
277.986	3.43
278.365	3.85
278.743	3.71
279.122	3.77
279.5	3.98
279.878	3.92
280.257	4.26
280.635	3.75
281.013	3.66
281.391	3.68
281.769	3.09
282.147	3.8
282.525	3.82
282.903	3.7
283.281	3.74
283.659	3.03
284.037	3.56
284.415	3.5
284.792	3.61
285.17	3.87
285.548	4.2
285.925	3.72
286.303	3.77
286.68	3.59
287.058	3.74
287.435	3.65
287.813	3.88
288.19	3.37
288.567	3.83
288.945	3.75
289.322	4.15
289.699	3.94
290.076	4.02
290.453	3.74
290.83	3.85
291.207	4.09
291.584	3.59
291.961	3.64
292.338	3.9
292.715	4.21
293.092	3.62
293.469	4.1
293.845	4.33
294.222	3.99
294.599	4.23
294.975	4.75
295.352	4.52
295.728	4.44
296.105	4.47
296.481	4.5
296.858	4.57
297.234	4.28
297.61	4.49
297.986	4.73
298.363	4.65
298.739	4.1
299.115	4.76
299.491	4.82
299.867	4.47
300.243	4.37
300.619	4.86
300.995	4.4
301.371	4.92
301.746	4.98
302.122	5.05
302.498	4.55
302.874	4.73
303.249	4.93
303.625	5.25
304	5.12
304.376	5.49
304.751	5.86
305.127	5.47
305.502	5.95
305.878	5.67
306.253	5.55
306.628	5.17
307.003	6.01
307.378	5.53
307.754	6.03
308.129	5.31
308.504	6.19
308.879	5.34
309.254	5.92
309.629	5.69
310.003	6.56
310.378	6.64
310.753	5.73
311.128	5.98
311.502	6.1
311.877	5.82
312.252	6.57
312.626	6.51
313.001	6.64
313.375	6.55
313.75	6.45
314.124	6.89
314.498	6.5
314.873	7.1
315.247	6.95
315.621	7.32
315.995	7.17
316.369	7.28
316.743	7.02
317.117	7
317.491	7.35
317.865	7.12
318.239	7.93
318.613	7.65
318.987	7.89
319.361	7.14
319.734	7.44
320.108	8.22
320.482	7.87
320.855	7.68
321.229	7.77
321.602	7.56
321.976	8.05
322.349	8
322.723	7.92
323.096	8.74
323.469	8.18
323.843	7.86
324.216	9.12
324.589	8.01
324.962	8.31
325.335	8.54
325.708	8.31
326.081	9.07
326.454	7.85
326.827	8.69
327.2	8.51
327.573	9.16
327.945	8.71
328.318	9.17
328.691	8.78
329.063	8.77
329.436	9.47
329.809	9.27
330.181	9.4
330.553	9.21
330.926	9.11
331.298	9.46
331.671	9.41
332.043	8.77
332.415	9.4
332.787	9.58
333.159	9.53
333.532	9.19
333.904	9.85
334.276	9.49
334.648	9.59
335.02	9.98
335.391	9.5
335.763	10.18
336.135	10.06
336.507	10.03
336.879	9.87
337.25	10
337.622	10.74
337.993	10.4
338.365	10.34
338.736	10.45
339.108	9.78
339.479	10.43
339.851	9.7
340.222	10.56
340.593	10.74
340.964	10.14
341.336	10.74
341.707	10.47
342.078	10.43
342.449	10.6
342.82	10.51
343.191	10.55
343.562	11.09
343.933	11.23
344.303	11.42
344.674	11.14
345.045	11.46
345.416	11.68
345.786	10.7
346.157	11.14
346.527	11.04
346.898	11.13
347.268	11.34
347.639	11.28
348.009	11.46
348.38	11.59
348.75	11.49
349.12	11.74
349.49	11.75
349.861	11.51
350.231	11.41
350.601	12.18
350.971	12.11
351.341	11.57
351.711	11.69
352.081	11.73
352.45	12.07
352.82	12.24
353.19	12.24
353.56	12.25
353.929	12.34
354.299	12.38
354.669	12.12
355.038	12.62
355.408	12.5
355.777	13.16
356.147	12.81
356.516	12.87
356.885	12.33
357.254	12.76
357.624	12.46
357.993	12.67
358.362	12.73
358.731	12.86
359.1	12.83
359.469	13.07
359.838	12.9
360.207	13.01
360.576	13.44
360.945	13.38
361.314	13.52
361.682	13.07
362.051	13.5
362.42	13.24
362.788	13.35
363.157	13.47
363.525	13.37
363.894	13.31
364.262	13.36
364.631	13.43
364.999	13.36
365.367	13.67
365.735	13.66
366.104	13.79
366.472	14.06
366.84	14.24
367.208	14.21
367.576	14.08
367.944	13.96
368.312	14.18
368.68	14.44
369.048	14.08
369.416	14.14
369.783	13.94
370.151	14.26
370.519	14.75
370.886	14.29
371.254	15.01
371.621	14.5
371.989	14.6
372.356	14.5
372.724	14.67
373.091	14.91
373.458	14.91
373.826	15.12
374.193	15.07
374.56	14.96
374.927	15.37
375.294	15.21
375.661	14.78
376.028	15.39
376.395	15.61
376.762	15.47
377.129	15.78
377.496	15.39
377.863	15.55
378.229	15.6
378.596	15.75
378.963	16.11
379.329	15.91
379.696	15.44
380.062	15.58
380.429	15.87
380.795	15.78
381.161	15.77
381.528	15.88
381.894	15.58
382.26	16.18
382.626	16.01
382.993	16.13
383.359	16.07
383.725	16.47
384.091	16.23
384.457	16.37
384.823	16.3
385.188	16.75
385.554	16.9
385.92	17.11
386.286	16.7
386.651	17
387.017	16.9
387.383	16.88
387.748	16.93
388.114	16.94
388.479	16.89
388.845	17.02
389.21	16.87
389.575	17.04
389.94	17.06
390.306	17.09
390.671	17.39
391.036	17.16
391.401	17.25
391.766	17.48
392.131	17.32
392.496	17.42
392.861	17.5
393.226	17.6
393.591	17.7
393.956	17.77
394.32	17.44
394.685	17.58
395.05	18.03
395.414	18.12
395.779	18.16
396.143	17.87
396.508	18.03
396.872	18.08
397.236	18.23
397.601	18.01
397.965	18.31
398.329	18.36
398.694	18.44
399.058	18.35
399.422	18.46
399.786	18.61
400.15	18.75
400.514	18.67
400.878	18.53
401.242	18.59
401.605	18.84
401.969	18.55
402.333	18.74
402.697	18.84
403.06	18.9
403.424	18.89
403.787	19.13
404.151	19.11
404.514	19.13
404.878	19.42
405.241	19.49
405.604	19.28
405.968	19.34
406.331	19.48
406.694	19.31
407.057	19.2
407.42	19.49
407.783	19.52
408.146	19.54
408.509	19.64
408.872	19.57
409.235	19.59
409.598	19.79
409.961	20
410.323	20.15
410.686	19.9
411.049	20.12
411.411	20.14
411.774	19.99
412.136	20.06
412.499	20.11
412.861	20.2
413.223	20.42
413.586	20.43
413.948	20.36
414.31	20.48
414.672	20.6
415.035	20.55
415.397	20.83
415.759	21.04
416.121	20.58
416.483	20.96
416.845	20.46
417.206	20.75
417.568	20.89
417.93	20.73
418.292	20.89
418.653	20.85
419.015	20.95
419.377	20.85
419.738	21.02
420.1	20.87
420.461	21.01
420.822	20.93
421.184	20.95
421.545	20.88
421.906	21.05
422.267	20.96
422.629	21.04
422.99	20.96
423.351	20.84
423.712	20.79
424.073	21.07
424.434	21.15
424.795	21.29
425.155	21.47
425.516	21.46
425.877	21.39
426.238	21.25
426.598	21.28
426.959	21.56
427.32	21.36
427.68	21.54
428.041	21.67
428.401	21.8
428.761	22
429.122	21.84
429.482	22.09
429.842	22.2
430.202	22.15
430.563	22.46
430.923	22.77
431.283	22.6
431.643	22.56
432.003	22.59
432.363	22.81
432.722	22.73
433.082	22.89
433.442	22.73
433.802	22.71
434.161	22.85
434.521	22.86
434.881	22.89
435.24	22.72
435.6	22.75
435.959	22.69
436.319	22.82
436.678	22.91
437.037	23.12
437.396	23.18
437.756	23.33
438.115	23.33
438.474	23.34
438.833	23.39
439.192	23.51
439.551	23.48
439.91	23.64
440.269	23.58
440.628	23.49
440.987	23.57
441.345	23.55
441.704	23.61
442.063	23.44
442.421	23.45
442.78	23.59
443.138	23.69
443.497	23.5
443.855	23.82
444.214	23.67
444.572	24.12
444.93	24.06
445.288	24.1
445.647	24.31
446.005	24.07
446.363	24.23
446.721	24.26
447.079	24.15
447.437	24.29
447.795	24.22
448.153	24.15
448.51	23.97
448.868	24.09
449.226	24.19
449.584	24.09
449.941	24.22
450.299	24.33
450.656	24.6
451.014	24.64
451.371	24.49
451.729	24.76
452.086	24.86
452.443	24.92
452.801	25.03
453.158	25.17
453.515	25.37
453.872	25.13
454.229	25.4
454.586	25.03
454.943	25.14
455.3	25.09
455.657	25.33
456.014	25.47
456.371	25.49
456.727	25.4
457.084	25.58
457.441	25.52
457.797	25.62
458.154	25.72
458.51	25.76
458.867	25.8
459.223	26
459.58	25.95
459.936	25.92
460.292	25.94
460.648	25.84
461.005	25.98
461.361	25.85
461.717	25.73
462.073	25.51
462.429	25.56
462.785	25.51
463.141	25.97
463.496	26.04
463.852	26.18
464.208	26.1
464.564	26.33
464.919	26.43
465.275	26.7
465.631	26.68
465.986	26.63
466.342	26.73
466.697	26.69
467.052	26.61
467.408	26.86
467.763	26.66
468.118	26.92
468.473	26.83
468.829	26.97
469.184	26.79
469.539	26.96
469.894	26.89
470.249	27.21
470.603	27.06
470.958	27.27
471.313	27.34
471.668	27.31
472.023	27.52
472.377	27.55
472.732	27.21
473.086	27.46
473.441	27.11
473.795	27.68
474.15	27.51
474.504	27.56
474.859	27.72
475.213	27.64
475.567	27.51
475.921	27.7
476.275	27.99
476.63	27.59
476.984	28.04
477.338	28.25
477.692	27.94
478.045	28.1
478.399	28.15
478.753	28.04
479.107	27.93
479.461	27.74
479.814	28.09
480.168	28.01
480.521	27.97
480.875	28.23
481.228	28.05
481.582	28.01
481.935	28.38
482.289	28.33
482.642	28.08
482.995	28.25
483.348	28.32
483.701	28.17
484.055	28.31
484.408	27.99
484.761	28.15
485.114	28.01
485.466	27.66
485.819	27.48
486.172	27.49
486.525	27.47
486.878	27.54
487.23	27.72
487.583	27.92
487.936	28.16
488.288	28.22
488.641	28.33
488.993	28.18
489.345	28.14
489.698	28.08
490.05	28
490.402	28.06
490.754	28.17
491.107	28.23
491.459	28.59
491.811	28.69
492.163	28.94
492.515	28.94
492.866	28.9
493.218	28.89
493.57	28.65
493.922	28.5
494.274	28.63
494.625	28.7
494.977	28.94
495.328	29.05
495.68	29.43
496.031	29.51
496.383	29.74
496.734	29.73
497.086	29.84
497.437	29.9
497.788	29.84
498.139	30.13
498.49	30.12
498.842	29.8
499.193	29.85
499.544	29.95
499.894	30.03
500.245	29.98
500.596	30.13
500.947	30.16
501.298	30.25
501.648	30.2
501.999	30.42
502.35	30.35
502.7	30.59
503.051	30.38
503.401	30.62
503.752	30.77
504.102	30.79
504.452	30.84
504.803	30.77
505.153	30.78
505.503	30.98
505.853	30.89
506.203	30.92
506.553	31.16
506.903	30.97
507.253	30.91
507.603	31.02
507.953	31.26
508.303	31.24
508.652	31.03
509.002	31.22
509.352	31.27
509.701	31.13
510.051	31.18
510.4	31.32
510.75	31.17
511.099	31.22
511.449	31.24
511.798	31.25
512.147	31.34
512.496	31.27
512.846	31.44
513.195	31.54
513.544	31.57
513.893	31.54
514.242	31.44
514.591	31.64
514.939	31.61
515.288	31.62
515.637	31.92
515.986	31.77
516.334	31.92
516.683	31.96
517.032	31.94
517.38	32.21
517.729	32.09
518.077	32.25
518.426	32.24
518.774	32.28
519.122	32.17
519.47	32.06
519.819	32.02
520.167	32.08
520.515	31.89
520.863	31.78
521.211	31.84
521.559	31.9
521.907	31.94
522.255	32.17
522.602	32.4
522.95	32.36
523.298	32.51
523.645	32.64
523.993	32.62
524.341	32.68
524.688	32.77
525.036	32.71
525.383	32.81
525.73	32.99
526.078	32.81
526.425	32.8
526.772	32.91
527.119	32.88
527.466	32.58
527.814	32.54
528.161	32.51
528.508	32.56
528.854	32.66
529.201	32.7
529.548	32.83
529.895	32.63
530.242	32.46
530.588	32.29
530.935	32.2
531.282	32.23
531.628	32.32
531.975	32.44
532.321	32.49
532.667	32.75
533.014	32.95
533.36	33.1
533.706	33.04
534.052	33.38
534.399	33.29
534.745	33.26
535.091	32.98
535.437	33
535.783	32.78
536.129	33
536.474	33.1
536.82	33.19
537.166	33.58
537.512	33.67
537.857	33.74
538.203	33.84
538.549	33.68
538.894	33.54
539.239	33.51
539.585	33.57
539.93	33.87
540.276	33.75
540.621	34.21
540.966	34.3
541.311	34.5
541.656	34.48
542.001	34.48
542.346	34.55
542.691	34.24
543.036	34
543.381	33.8
543.726	33.52
544.071	33.66
544.415	33.83
544.76	33.96
545.105	34.11
545.449	33.94
545.794	34.16
546.138	34.35
546.483	34.61
546.827	34.71
547.171	34.77
547.516	35.09
547.86	34.93
548.204	34.86
548.548	34.85
548.892	34.79
549.236	34.86
549.58	35.03
549.924	35.24
550.268	35.17
550.612	35.45
550.956	35.29
551.3	35.38
551.643	35.52
551.987	35.71
552.33	35.69
552.674	35.83
553.017	35.83
553.361	35.75
553.704	35.79
554.048	35.91
554.391	35.88
554.734	35.92
555.077	35.75
555.42	35.82
555.764	35.87
556.107	35.91
556.45	36.04
556.793	35.85
557.135	36.23
557.478	36.16
557.821	36.07
558.164	36.39
558.507	36.72
558.849	36.34
559.192	36.71
559.534	36.73
559.877	36.54
560.219	36.51
560.562	36.71
560.904	36.66
561.246	36.81
561.589	36.95
561.931	36.98
562.273	36.66
562.615	36.76
562.957	36.77
563.299	36.59
563.641	36.92
563.983	36.86
564.325	37.11
564.667	36.96
565.008	37.28
565.35	37.34
565.692	37.2
566.033	37.23
566.375	37.31
566.716	37.29
567.058	37.3
567.399	37.22
567.741	37.49
568.082	37.12
568.423	37.2
568.764	37.28
569.105	37.11
569.447	37.25
569.788	37.36
570.129	37.56
570.47	37.4
570.811	37.57
571.151	37.78
571.492	37.87
571.833	37.49
572.174	37.83
572.514	38.1
572.855	37.71
573.195	37.65
573.536	37.84
573.876	37.65
574.217	37.79
574.557	37.58
574.898	38.13
575.238	37.87
575.578	38.06
575.918	37.86
576.258	38.32
576.598	38.3
576.938	38.18
577.278	38.33
577.618	38.02
577.958	38.18
578.298	38.47
578.638	38.12
578.977	38.44
579.317	38.73
579.657	38.43
579.996	38.57
580.336	38.68
580.675	38.92
581.014	38.66
581.354	39.04
581.693	39.04
582.032	38.82
582.372	39.13
582.711	39.21
583.05	39.19
583.389	39.16
583.728	39.28
584.067	38.95
584.406	39.58
584.745	39.14
585.083	39.16
585.422	39.43
585.761	39.47
586.1	39.2
586.438	39.29
586.777	39.44
587.115	39.39
587.454	39.32
587.792	39.58
588.13	39.62
588.469	39.36
588.807	39.65
589.145	39.71
589.483	39.67
589.821	39.49
590.159	39.84
590.497	39.91
590.835	39.71
591.173	39.96
591.511	39.73
591.849	39.58
592.187	39.81
592.524	39.69
592.862	39.65
593.2	39.85
593.537	39.73
593.875	39.75
594.212	40.19
594.55	40.4
594.887	39.92
595.224	40.1
595.561	40.57
595.899	40.06
596.236	40.58
596.573	40.48
596.91	40.36
597.247	40.36
597.584	40.31
597.921	40.36
598.258	40.58
598.594	40.14
598.931	40.21
599.268	40.16
599.604	40.47
599.941	40.42
600.277	40.2
600.614	40.62
600.95	40.7
601.287	40.66
601.623	40.82
601.959	40.94
602.296	40.88
602.632	40.79
602.968	40.92
603.304	40.79
603.64	41.03
603.976	40.93
604.312	41.35
604.648	40.88
604.984	40.86
605.319	41.36
605.655	41.08
605.991	40.98
606.326	41.04
606.662	40.81
606.998	40.77
607.333	40.73
607.668	40.96
608.004	40.93
608.339	40.96
608.674	41.38
609.01	40.93
609.345	41.09
609.68	41.39
610.015	41.55
610.35	41.32
610.685	41.42
611.02	41.45
611.355	41.7
611.689	41.79
612.024	41.31
612.359	41.38
612.694	41.42
613.028	41.47
613.363	41.69
613.697	41.83
614.032	41.74
614.366	41.99
614.7	41.69
615.035	42.16
615.369	41.76
615.703	41.87
616.037	41.86
616.371	42.6
616.705	42.51
617.039	42.15
617.373	42.22
617.707	42.08
618.041	42.36
618.375	42.19
618.709	42.3
619.042	42.31
619.376	42.78
619.71	42.15
620.043	42.44
620.377	42.3
620.71	42.36
621.043	42.95
621.377	42.64
621.71	42.24
622.043	42.19
622.376	42.92
622.709	42.62
623.043	42.54
623.376	42.65
623.709	42.63
624.041	42.93
624.374	42.86
624.707	42.98
625.04	42.82
625.373	42.48
625.705	43
626.038	42.78
626.37	43.1
626.703	42.85
627.035	42.82
627.368	43.36
627.7	43.54
628.032	43.15
628.365	43.39
628.697	42.91
629.029	43.43
629.361	43.3
629.693	43.05
630.025	43.46
630.357	42.91
630.689	43.42
631.021	43.21
631.353	43.15
631.684	43.46
632.016	43.42
632.348	43.54
632.679	43.42
633.011	43.42
633.342	43.67
633.674	44.2
634.005	43.66
634.336	43.7
634.668	43.69
634.999	43.33
635.33	43.75
635.661	43.63
635.992	43.49
636.323	43.48
636.654	44.04
636.985	43.84
637.316	43.84
637.647	43.66
637.977	43.56
638.308	44.41
638.639	44.14
638.969	44.43
639.3	43.82
639.63	44.14
639.961	43.79
640.291	44.29
640.622	44.55
640.952	44.08
641.282	44.24
641.612	44.15
641.943	44.31
642.273	44.52
642.603	43.94
642.933	44.44
643.263	44.19
643.592	44.28
643.922	44.82
644.252	44.53
644.582	44.8
644.911	44.89
645.241	44.66
645.571	44.79
645.9	44.83
646.23	44.68
646.559	44.94
646.888	44.82
647.218	44.97
647.547	44.46
647.876	44.91
648.205	45.29
648.534	44.83
648.863	44.81
649.192	44.73
649.521	44.64
649.85	44.73
650.179	45.03
650.508	45
650.837	44.5
651.165	44.5
651.494	44.53
651.822	44.85
652.151	45.53
652.479	44.79
652.808	45.18
653.136	45.27
653.465	45.08
653.793	44.46
654.121	44.98
654.449	45.06
654.777	44.98
655.105	45.32
655.433	45.64
655.761	45.45
656.089	45.22
656.417	45.58
656.745	45.46
657.073	45.55
657.4	46.1
657.728	45.44
658.056	46.05
658.383	45.17
658.711	45.83
659.038	45.51
659.365	45.68
659.693	45.38
660.02	45.75
660.347	45.91
660.674	45.59
661.001	45.66
661.329	45.66
661.656	46.04
661.982	46.07
662.309	45.94
662.636	45.73
662.963	45.79
663.29	45.8
663.616	45.54
663.943	46.37
664.27	46.15
664.596	46.23
664.923	46.27
665.249	45.78
665.576	45.59
665.902	46.64
666.228	46.03
666.554	45.78
666.881	46.64
667.207	46.65
667.533	46.52
667.859	46.21
668.185	46.88
668.511	46.37
668.837	45.98
669.162	46.43
669.488	45.88
669.814	46.9
670.139	46.44
