Data from 0280_crown_Reflection__0__324.txt Node

Date: Fri Sep 22 23:19:37 CDT 2023
User: ToomeyLab
Spectrometer: FLMS14357
Trigger mode: 0
Integration Time (sec): 1.000000E-2
Scans to average: 100
Electric dark correction enabled: true
Nonlinearity correction enabled: false
Boxcar width: 0
XAxis mode: Wavelengths
Number of Pixels in Spectrum: 2048
>>>>>Begin Spectral Data<<<<<
189.047	122.73
189.435	122.73
189.823	122.73
190.211	105.78
190.599	55.19
190.987	-83.5
191.375	91.16
191.763	1266.55
192.151	50.55
192.538	-16.98
192.926	192.46
193.314	-27.5
193.702	344.06
194.089	141.3
194.477	-215.34
194.864	-42.53
195.252	38.69
195.639	65.46
196.027	582.55
196.414	-63.38
196.801	113.43
197.189	76.74
197.576	69.56
197.963	-43.63
198.351	2.22
198.738	36.81
199.125	25.98
199.512	20.52
199.899	37.46
200.286	4.45
200.673	-24.35
201.06	15.14
201.447	39.09
201.833	39.44
202.22	31.04
202.607	11.28
202.994	41.78
203.38	35.49
203.767	2.22
204.154	42.07
204.54	23.07
204.927	38.8
205.313	19.43
205.699	44.97
206.086	23.05
206.472	67.75
206.858	31.84
207.245	12.37
207.631	29.07
208.017	22.44
208.403	30.81
208.789	31.51
209.175	29.19
209.561	63.1
209.947	71.96
210.333	37.83
210.719	-1.12
211.105	23.56
211.491	12.86
211.876	22.92
212.262	-7.8
212.648	20.96
213.034	35.94
213.419	5.28
213.805	13.26
214.19	-9.75
214.576	23.55
214.961	-6.74
215.346	13.16
215.732	37.08
216.117	9.92
216.502	19.75
216.888	8.62
217.273	16.05
217.658	4.2
218.043	29.84
218.428	38.97
218.813	-5.16
219.198	3.87
219.583	19.43
219.968	-8.66
220.353	28.98
220.738	5.31
221.122	3.45
221.507	8.23
221.892	1.35
222.276	7.47
222.661	-29.44
223.046	8.65
223.43	22.6
223.815	10.33
224.199	5.98
224.583	11.39
224.968	9.46
225.352	11.14
225.736	5.79
226.121	9.27
226.505	15.47
226.889	21.22
227.273	7.2
227.657	9.91
228.041	3.85
228.425	8.41
228.809	5.82
229.193	9.3
229.577	12.05
229.961	6.29
230.344	8.44
230.728	7.26
231.112	7.37
231.495	7.84
231.879	7.92
232.263	7.36
232.646	7.71
233.03	5.91
233.413	6.71
233.797	7.75
234.18	6.72
234.563	6.75
234.946	9.14
235.33	4.28
235.713	5.15
236.096	7.38
236.479	5.45
236.862	8.26
237.245	6.38
237.628	6.99
238.011	7.25
238.394	7.52
238.777	9.38
239.16	8.2
239.543	9.75
239.925	7.52
240.308	6.93
240.691	6.22
241.073	7.65
241.456	6.47
241.838	5.63
242.221	6.33
242.603	5.95
242.986	6.8
243.368	6.55
243.75	7.35
244.133	7.43
244.515	6.77
244.897	6.68
245.279	6.83
245.661	6.78
246.043	6.96
246.425	6.15
246.807	7.01
247.189	5.88
247.571	6.52
247.953	6.61
248.335	6.14
248.717	6.8
249.098	6.67
249.48	6.34
249.862	6.57
250.243	6.3
250.625	6.2
251.006	6.2
251.388	6.48
251.769	6.63
252.151	5.93
252.532	6.73
252.913	5.91
253.295	7.11
253.676	6.01
254.057	6.23
254.438	6.7
254.819	5.57
255.2	6.28
255.581	5.98
255.962	6.86
256.343	5.49
256.724	4.6
257.105	6.59
257.486	6.6
257.867	5.75
258.247	6.41
258.628	5.92
259.009	6.06
259.389	6.08
259.77	6.31
260.15	6.34
260.531	5.85
260.911	5.57
261.292	5.8
261.672	5.64
262.052	5.87
262.432	5.88
262.813	5.93
263.193	5.68
263.573	6.12
263.953	5.33
264.333	6.16
264.713	6.06
265.093	5.55
265.473	5.88
265.853	5.65
266.233	5.4
266.612	5.93
266.992	5.4
267.372	5.47
267.752	5.66
268.131	5.78
268.511	4.93
268.89	5.61
269.27	5.69
269.649	5.52
270.029	4.94
270.408	5.75
270.787	5.88
271.167	5.64
271.546	5.36
271.925	5.34
272.304	5.24
272.683	5.3
273.062	5.81
273.441	5.42
273.82	5.96
274.199	5.94
274.578	5.89
274.957	5.25
275.336	5.23
275.715	5.55
276.093	5.21
276.472	5.46
276.851	5.2
277.229	5.19
277.608	5.89
277.986	5.61
278.365	6.09
278.743	5.54
279.122	5.57
279.5	5.69
279.878	4.99
280.257	5.85
280.635	5.88
281.013	6.01
281.391	5.3
281.769	5.15
282.147	5.05
282.525	4.82
282.903	5.35
283.281	5.18
283.659	5.33
284.037	5.18
284.415	5.34
284.792	4.89
285.17	5.44
285.548	5.77
285.925	5.32
286.303	5.24
286.68	4.79
287.058	4.69
287.435	4.94
287.813	5.08
288.19	4.87
288.567	5.29
288.945	5.32
289.322	5.52
289.699	4.91
290.076	5.15
290.453	4.69
290.83	4.86
291.207	5.23
291.584	4.52
291.961	5.01
292.338	4.93
292.715	5.02
293.092	4.56
293.469	4.8
293.845	4.77
294.222	5.24
294.599	5.28
294.975	4.82
295.352	4.88
295.728	4.82
296.105	5.34
296.481	5.05
296.858	4.8
297.234	4.85
297.61	4.96
297.986	4.55
298.363	4.83
298.739	5.04
299.115	4.92
299.491	4.91
299.867	4.99
300.243	4.69
300.619	4.89
300.995	4.6
301.371	5.08
301.746	4.77
302.122	4.79
302.498	4.57
302.874	4.72
303.249	4.83
303.625	4.74
304	5.13
304.376	5.09
304.751	4.92
305.127	4.68
305.502	5.1
305.878	5.11
306.253	4.89
306.628	4.91
307.003	4.72
307.378	4.43
307.754	4.94
308.129	4.5
308.504	5.06
308.879	4.73
309.254	4.83
309.629	5.03
310.003	4.97
310.378	5.11
310.753	5
311.128	4.94
311.502	4.83
311.877	3.93
312.252	4.74
312.626	4.67
313.001	4.81
313.375	4.65
313.75	4.98
314.124	5.2
314.498	4.19
314.873	4.85
315.247	4.66
315.621	4.59
315.995	4.43
316.369	5.03
316.743	4.41
317.117	4.72
317.491	5.12
317.865	4.16
318.239	4.47
318.613	4.94
318.987	4.75
319.361	4.13
319.734	4.65
320.108	4.83
320.482	4.47
320.855	4.47
321.229	5.23
321.602	4.89
321.976	4.08
322.349	4.4
322.723	4.98
323.096	4.84
323.469	4.79
323.843	4.43
324.216	4.69
324.589	4.68
324.962	3.99
325.335	4.69
325.708	4.35
326.081	4.69
326.454	4.2
326.827	4.38
327.2	4.63
327.573	4.93
327.945	4.38
328.318	4.9
328.691	5.15
329.063	4.68
329.436	4.85
329.809	4.69
330.181	5.05
330.553	4.3
330.926	4.5
331.298	4.63
331.671	4.72
332.043	4.17
332.415	4.43
332.787	5.23
333.159	4.54
333.532	4.1
333.904	4.19
334.276	4.38
334.648	4.21
335.02	4.46
335.391	4.81
335.763	5.15
336.135	4.4
336.507	4.61
336.879	4.76
337.25	4.52
337.622	4.97
337.993	4.47
338.365	5.18
338.736	4.81
339.108	4.9
339.479	4.69
339.851	4.31
340.222	4.45
340.593	4.67
340.964	3.92
341.336	4.53
341.707	4.72
342.078	4.88
342.449	4.56
342.82	4.56
343.191	4.29
343.562	4.75
343.933	4.94
344.303	4.68
344.674	4.94
345.045	5.03
345.416	4.96
345.786	4.02
346.157	4.72
346.527	4.63
346.898	4.12
347.268	4.67
347.639	4.7
348.009	4.82
348.38	5
348.75	5.34
349.12	4.54
349.49	4.88
349.861	4.76
350.231	5.13
350.601	5.11
350.971	5.19
351.341	4.68
351.711	4.79
352.081	4.33
352.45	4.64
352.82	4.81
353.19	5
353.56	4.95
353.929	4.64
354.299	4.69
354.669	4.75
355.038	4.39
355.408	4.67
355.777	5.32
356.147	4.84
356.516	5.18
356.885	4.77
357.254	5.13
357.624	4.59
357.993	4.88
358.362	4.71
358.731	4.63
359.1	4.86
359.469	4.97
359.838	4.42
360.207	4.87
360.576	4.68
360.945	4.93
361.314	4.92
361.682	5.12
362.051	5.14
362.42	4.77
362.788	4.76
363.157	5.05
363.525	4.94
363.894	4.87
364.262	4.66
364.631	4.76
364.999	4.77
365.367	4.86
365.735	4.95
366.104	4.91
366.472	5.08
366.84	4.84
367.208	5.41
367.576	5.24
367.944	4.8
368.312	5.11
368.68	5.02
369.048	5.06
369.416	5.12
369.783	4.81
370.151	4.69
370.519	4.98
370.886	5.26
371.254	5.38
371.621	5
371.989	4.9
372.356	4.84
372.724	5.03
373.091	5.22
373.458	4.92
373.826	5.05
374.193	5.07
374.56	5.11
374.927	5.17
375.294	5.05
375.661	4.95
376.028	4.96
376.395	5.28
376.762	4.69
377.129	5.11
377.496	5.47
377.863	5.14
378.229	4.88
378.596	5.05
378.963	5.49
379.329	4.97
379.696	5.38
380.062	4.99
380.429	4.96
380.795	5.3
381.161	5.1
381.528	4.96
381.894	4.93
382.26	5.38
382.626	5.19
382.993	5.28
383.359	4.88
383.725	5
384.091	5.52
384.457	5
384.823	5.2
385.188	5.09
385.554	5.13
385.92	5.74
386.286	5.11
386.651	5.25
387.017	5.35
387.383	5.21
387.748	5.13
388.114	5.13
388.479	5.21
388.845	5.15
389.21	5.07
389.575	5.22
389.94	4.98
390.306	5.37
390.671	5.58
391.036	5.04
391.401	5.2
391.766	5.35
392.131	5.23
392.496	5.42
392.861	5.18
393.226	5.38
393.591	5.39
393.956	5.36
394.32	5.28
394.685	5.34
395.05	5.44
395.414	5.33
395.779	5.22
396.143	5.39
396.508	5.05
396.872	5.34
397.236	5.6
397.601	5.04
397.965	5.58
398.329	5.32
398.694	5.22
399.058	5.16
399.422	5.17
399.786	5.33
400.15	5.69
400.514	5.65
400.878	5.32
401.242	5.59
401.605	5.35
401.969	5.09
402.333	5.33
402.697	5.42
403.06	5.29
403.424	5.22
403.787	5.6
404.151	5.39
404.514	5.59
404.878	5.51
405.241	5.69
405.604	5.65
405.968	5.65
406.331	5.58
406.694	5.4
407.057	5.25
407.42	5.56
407.783	5.38
408.146	5.53
408.509	5.47
408.872	5.41
409.235	5.55
409.598	5.15
409.961	5.41
410.323	5.38
410.686	5.54
411.049	5.69
411.411	5.57
411.774	5.33
412.136	5.49
412.499	5.56
412.861	5.51
413.223	5.48
413.586	5.38
413.948	5.45
414.31	5.34
414.672	5.27
415.035	5.58
415.397	5.79
415.759	5.95
416.121	5.38
416.483	5.51
416.845	5.35
417.206	5.31
417.568	5.42
417.93	5.56
418.292	5.38
418.653	5.2
419.015	5.48
419.377	5.26
419.738	5.51
420.1	5.22
420.461	5.5
420.822	5.4
421.184	5.47
421.545	5.39
421.906	5.32
422.267	5.33
422.629	5.46
422.99	5.35
423.351	5.33
423.712	5.31
424.073	5.26
424.434	5.38
424.795	5.38
425.155	5.38
425.516	5.46
425.877	5.39
426.238	5.34
426.598	5.34
426.959	5.35
427.32	5.39
427.68	5.37
428.041	5.38
428.401	5.44
428.761	5.41
429.122	5.39
429.482	5.39
429.842	5.33
430.202	5.43
430.563	5.7
430.923	5.64
431.283	5.5
431.643	5.66
432.003	5.5
432.363	5.57
432.722	5.65
433.082	5.6
433.442	5.49
433.802	5.58
434.161	5.46
434.521	5.53
434.881	5.43
435.24	5.49
435.6	5.36
435.959	5.4
436.319	5.55
436.678	5.54
437.037	5.51
437.396	5.49
437.756	5.43
438.115	5.48
438.474	5.6
438.833	5.62
439.192	5.43
439.551	5.48
439.91	5.64
440.269	5.56
440.628	5.45
440.987	5.47
441.345	5.52
441.704	5.56
442.063	5.53
442.421	5.38
442.78	5.46
443.138	5.5
443.497	5.51
443.855	5.53
444.214	5.33
444.572	5.58
444.93	5.59
445.288	5.59
445.647	5.56
446.005	5.54
446.363	5.41
446.721	5.42
447.079	5.39
447.437	5.5
447.795	5.49
448.153	5.41
448.51	5.42
448.868	5.32
449.226	5.48
449.584	5.42
449.941	5.28
450.299	5.54
450.656	5.61
451.014	5.6
451.371	5.55
451.729	5.5
452.086	5.54
452.443	5.5
452.801	5.57
453.158	5.63
453.515	5.6
453.872	5.56
454.229	5.43
454.586	5.65
454.943	5.6
455.3	5.46
455.657	5.52
456.014	5.6
456.371	5.55
456.727	5.58
457.084	5.68
457.441	5.44
457.797	5.55
458.154	5.55
458.51	5.47
458.867	5.61
459.223	5.61
459.58	5.68
459.936	5.65
460.292	5.68
460.648	5.68
461.005	5.6
461.361	5.6
461.717	5.29
462.073	5.45
462.429	5.33
462.785	5.39
463.141	5.39
463.496	5.56
463.852	5.51
464.208	5.65
464.564	5.75
464.919	5.57
465.275	5.77
465.631	5.8
465.986	5.74
466.342	5.6
466.697	5.74
467.052	5.65
467.408	5.7
467.763	5.61
468.118	5.73
468.473	5.58
468.829	5.45
469.184	5.56
469.539	5.68
469.894	5.55
470.249	5.57
470.603	5.62
470.958	5.67
471.313	5.63
471.668	5.71
472.023	5.64
472.377	5.72
472.732	5.39
473.086	5.68
473.441	5.32
473.795	5.66
474.15	5.49
474.504	5.49
474.859	5.67
475.213	5.45
475.567	5.59
475.921	5.64
476.275	5.71
476.63	5.38
476.984	5.45
477.338	5.73
477.692	5.53
478.045	5.75
478.399	5.57
478.753	5.58
479.107	5.54
479.461	5.61
479.814	5.62
480.168	5.56
480.521	5.51
480.875	5.67
481.228	5.55
481.582	5.41
481.935	5.64
482.289	5.5
482.642	5.41
482.995	5.53
483.348	5.56
483.701	5.43
484.055	5.47
484.408	5.45
484.761	5.58
485.114	5.24
485.466	5.23
485.819	5.18
486.172	5.14
486.525	5.17
486.878	5.19
487.23	5.23
487.583	5.35
487.936	5.34
488.288	5.35
488.641	5.33
488.993	5.27
489.345	5.29
489.698	5.23
490.05	5.23
490.402	5.28
490.754	5.2
491.107	5.27
491.459	5.38
491.811	5.32
492.163	5.4
492.515	5.4
492.866	5.41
493.218	5.46
493.57	5.4
493.922	5.28
494.274	5.25
494.625	5.29
494.977	5.41
495.328	5.4
495.68	5.52
496.031	5.46
496.383	5.6
496.734	5.62
497.086	5.42
497.437	5.6
497.788	5.5
498.139	5.52
498.49	5.67
498.842	5.38
499.193	5.44
499.544	5.56
499.894	5.41
500.245	5.48
500.596	5.51
500.947	5.54
501.298	5.45
501.648	5.65
501.999	5.61
502.35	5.62
502.7	5.59
503.051	5.54
503.401	5.65
503.752	5.65
504.102	5.61
504.452	5.63
504.803	5.53
505.153	5.51
505.503	5.51
505.853	5.5
506.203	5.52
506.553	5.63
506.903	5.63
507.253	5.58
507.603	5.63
507.953	5.57
508.303	5.6
508.652	5.51
509.002	5.65
509.352	5.6
509.701	5.65
510.051	5.57
510.4	5.52
510.75	5.52
511.099	5.44
511.449	5.41
511.798	5.49
512.147	5.54
512.496	5.45
512.846	5.51
513.195	5.47
513.544	5.49
513.893	5.59
514.242	5.45
514.591	5.49
514.939	5.54
515.288	5.42
515.637	5.53
515.986	5.5
516.334	5.49
516.683	5.43
517.032	5.55
517.38	5.65
517.729	5.48
518.077	5.6
518.426	5.49
518.774	5.64
519.122	5.5
519.47	5.35
519.819	5.53
520.167	5.49
520.515	5.52
520.863	5.37
521.211	5.4
521.559	5.41
521.907	5.43
522.255	5.44
522.602	5.41
522.95	5.44
523.298	5.47
523.645	5.59
523.993	5.39
524.341	5.51
524.688	5.41
525.036	5.43
525.383	5.49
525.73	5.65
526.078	5.46
526.425	5.47
526.772	5.47
527.119	5.43
527.466	5.32
527.814	5.31
528.161	5.26
528.508	5.4
528.854	5.36
529.201	5.33
529.548	5.34
529.895	5.3
530.242	5.22
530.588	5.19
530.935	5.12
531.282	5.16
531.628	5.17
531.975	5.15
532.321	5.18
532.667	5.26
533.014	5.35
533.36	5.32
533.706	5.3
534.052	5.45
534.399	5.36
534.745	5.35
535.091	5.23
535.437	5.23
535.783	5.11
536.129	5.28
536.474	5.31
536.82	5.21
537.166	5.32
537.512	5.34
537.857	5.3
538.203	5.49
538.549	5.29
538.894	5.28
539.239	5.25
539.585	5.24
539.93	5.34
540.276	5.38
540.621	5.41
540.966	5.38
541.311	5.56
541.656	5.43
542.001	5.44
542.346	5.43
542.691	5.45
543.036	5.35
543.381	5.16
543.726	5.15
544.071	5.12
544.415	5.16
544.76	5.1
545.105	5.09
545.449	5.12
545.794	5.27
546.138	5.33
546.483	5.31
546.827	5.32
547.171	5.31
547.516	5.39
547.86	5.43
548.204	5.34
548.548	5.22
548.892	5.33
549.236	5.34
549.58	5.38
549.924	5.4
550.268	5.34
550.612	5.37
550.956	5.37
551.3	5.39
551.643	5.46
551.987	5.56
552.33	5.35
552.674	5.32
553.017	5.3
553.361	5.27
553.704	5.56
554.048	5.53
554.391	5.45
554.734	5.45
555.077	5.37
555.42	5.35
555.764	5.4
556.107	5.46
556.45	5.52
556.793	5.51
557.135	5.56
557.478	5.25
557.821	5.41
558.164	5.63
558.507	5.43
558.849	5.33
559.192	5.53
559.534	5.55
559.877	5.52
560.219	5.47
560.562	5.53
560.904	5.32
561.246	5.58
561.589	5.49
561.931	5.56
562.273	5.36
562.615	5.33
562.957	5.41
563.299	5.39
563.641	5.48
563.983	5.36
564.325	5.36
564.667	5.33
565.008	5.48
565.35	5.46
565.692	5.26
566.033	5.5
566.375	5.25
566.716	5.43
567.058	5.25
567.399	5.24
567.741	5.48
568.082	5.4
568.423	5.34
568.764	5.38
569.105	5.25
569.447	5.24
569.788	5.12
570.129	5.36
570.47	5.39
570.811	5.36
571.151	5.42
571.492	5.32
571.833	5.39
572.174	5.32
572.514	5.31
572.855	5.43
573.195	5.24
573.536	5.41
573.876	5.23
574.217	5.28
574.557	5.27
574.898	5.35
575.238	5.17
575.578	5.33
575.918	5.27
576.258	5.15
576.598	5.44
576.938	5.15
577.278	5.31
577.618	5.15
577.958	5.51
578.298	5.47
578.638	5.22
578.977	5.35
579.317	5.22
579.657	5.35
579.996	5.34
580.336	5.39
580.675	5.38
581.014	5.24
581.354	5.25
581.693	5.4
582.032	5.47
582.372	5.46
582.711	5.29
583.05	5.37
583.389	5.47
583.728	5.36
584.067	5.4
584.406	5.46
584.745	5.1
585.083	5.45
585.422	5.18
585.761	5.35
586.1	5.35
586.438	5.24
586.777	5.17
587.115	5.2
587.454	5.1
587.792	5.54
588.13	5.38
588.469	5.26
588.807	5.48
589.145	5.22
589.483	5.24
589.821	5.38
590.159	5.21
590.497	5.29
590.835	5.39
591.173	5.25
591.511	5.36
591.849	5.49
592.187	5.26
592.524	5.17
592.862	5.29
593.2	5.2
593.537	5.01
593.875	5.26
594.212	5.29
594.55	5.45
594.887	5.17
595.224	5.42
595.561	5.5
595.899	5.38
596.236	5.45
596.573	5.32
596.91	5.4
597.247	5.14
597.584	5.33
597.921	5.43
598.258	5.22
598.594	5.36
598.931	5.15
599.268	5.3
599.604	5.2
599.941	5.18
600.277	5.1
600.614	5.22
600.95	5.1
601.287	5.26
601.623	5.23
601.959	5.34
602.296	5.36
602.632	5.19
602.968	5.31
603.304	5.28
603.64	5.11
603.976	5.35
604.312	5.24
604.648	4.88
604.984	5.3
605.319	5.12
605.655	5.03
605.991	5.05
606.326	5.24
606.662	5.22
606.998	5.04
607.333	5.11
607.668	5.03
608.004	5.25
608.339	4.95
608.674	5.21
609.01	5.25
609.345	5.16
609.68	5.57
610.015	5.38
610.35	5.04
610.685	5.35
611.02	5.31
611.355	5.33
611.689	5.11
612.024	5.15
612.359	5.34
612.694	5.18
613.028	5.02
613.363	4.86
613.697	5.16
614.032	4.92
614.366	4.94
614.7	5.17
615.035	4.9
615.369	5.03
615.703	5.01
616.037	5.03
616.371	5.54
616.705	5.28
617.039	5.21
617.373	5.03
617.707	4.97
618.041	5.4
618.375	5.03
618.709	5.06
619.042	5.42
619.376	5.43
619.71	5.06
620.043	4.77
620.377	5.22
620.71	5.58
621.043	5.33
621.377	5.01
621.71	5.09
622.043	5.13
622.376	5.48
622.709	4.92
623.043	5.08
623.376	5.36
623.709	5.28
624.041	5.07
624.374	5.19
624.707	5.76
625.04	5.44
625.373	5.03
625.705	5.16
626.038	4.74
626.37	5.25
626.703	5.05
627.035	5.03
627.368	5.04
627.7	5.36
628.032	5.18
628.365	5.35
628.697	5.19
629.029	5.36
629.361	5.11
629.693	5.16
630.025	5.01
630.357	4.96
630.689	5.15
631.021	4.89
631.353	4.91
631.684	4.87
632.016	5.2
632.348	5.17
632.679	5.08
633.011	5.17
633.342	5.08
633.674	5.22
634.005	4.96
634.336	5.1
634.668	5.26
634.999	5.15
635.33	5.69
635.661	5.13
635.992	4.99
636.323	5.11
636.654	4.91
636.985	4.95
637.316	5.33
637.647	5.13
637.977	4.65
638.308	5.25
638.639	5.22
638.969	5.02
639.3	5.16
639.63	5.75
639.961	4.96
640.291	5
640.622	5.39
640.952	5.34
641.282	5.15
641.612	4.92
641.943	5.24
642.273	5.24
642.603	5.04
642.933	4.98
643.263	4.86
643.592	5.24
643.922	5.52
644.252	5.04
644.582	5.22
644.911	4.81
645.241	5.34
645.571	4.74
645.9	5.4
646.23	5.35
646.559	5.14
646.888	5.15
647.218	5.34
647.547	5.01
647.876	5.19
648.205	4.87
648.534	5.44
648.863	5.09
649.192	4.6
649.521	5.13
649.85	5.61
650.179	5.03
650.508	5.07
650.837	5.36
651.165	5
651.494	5.07
651.822	4.95
652.151	4.71
652.479	4.75
652.808	4.7
653.136	5.38
653.465	5.78
653.793	5.32
654.121	5.42
654.449	5
654.777	5.37
655.105	5.59
655.433	5.65
655.761	5.44
656.089	5.39
656.417	4.6
656.745	5.07
657.073	5
657.4	5.95
657.728	5.43
658.056	5.15
658.383	5.69
658.711	5.36
659.038	5
659.365	5.07
659.693	4.91
660.02	5.29
660.347	5.48
660.674	4.92
661.001	4.94
661.329	5.06
661.656	5.34
661.982	5.04
662.309	5.54
662.636	5.28
662.963	5.16
663.29	4.93
663.616	5.29
663.943	5.62
664.27	4.77
664.596	4.99
664.923	5.25
665.249	5.49
665.576	4.91
665.902	5.25
666.228	5.32
666.554	5.15
666.881	5.56
667.207	5.03
667.533	5.01
667.859	5.73
668.185	4.96
668.511	5.75
668.837	4.87
669.162	5.46
669.488	5.33
669.814	5.05
670.139	5.09
670.465	5.86
670.791	5.68
671.116	4.92
671.442	5.29
671.767	4.55
672.092	5.44
672.418	5.9
672.743	5.49
673.068	5.63
673.393	4.91
673.718	5.37
674.043	5.31
674.368	4.7
674.693	5.14
675.018	4.72
675.343	5.31
675.667	5
675.992	5.51
676.317	5.24
676.641	5.69
676.966	5.33
677.29	4.89
677.615	5.46
677.939	5.92
678.264	5.48
678.588	5.8
678.912	5.76
679.236	5.75
679.56	5.1
679.885	5.16
680.209	5.67
680.532	5.17
680.856	4.88
681.18	4.95
681.504	5.2
681.828	5.41
682.152	5.21
682.475	5.74
682.799	5.89
683.122	5.22
683.446	4.97
683.769	5.2
684.093	5.46
684.416	5.49
684.739	5.48
685.062	5.86
685.386	4.88
685.709	5.69
686.032	4.65
686.355	5.2
686.678	5.03
687.001	5.18
687.324	5.96
687.646	5.24
687.969	5.53
688.292	5.71
688.614	5.8
688.937	5.25
689.26	5.31
689.582	5.16
689.904	5
690.227	5.67
690.549	5.82
690.871	5.71
691.194	5.51
691.516	5.45
691.838	5.35
692.16	5.06
692.482	4.6
692.804	5.42
693.126	4.74
