Data from 0280_chest_Reflection__2__315.txt Node

Date: Fri Sep 22 23:11:20 CDT 2023
User: ToomeyLab
Spectrometer: FLMS14357
Trigger mode: 0
Integration Time (sec): 1.000000E-2
Scans to average: 100
Electric dark correction enabled: true
Nonlinearity correction enabled: false
Boxcar width: 0
XAxis mode: Wavelengths
Number of Pixels in Spectrum: 2048
>>>>>Begin Spectral Data<<<<<
189.047	61.39
189.435	61.39
189.823	61.39
190.211	-71.08
190.599	17.84
190.987	-7.99
191.375	250.88
191.763	-1231.64
192.151	-132.81
192.538	-48.54
192.926	168.27
193.314	51.78
193.702	390.32
194.089	260.71
194.477	659.61
194.864	-10.4
195.252	67.23
195.639	179.12
196.027	12.2
196.414	315.95
196.801	-23.9
197.189	160.62
197.576	78.24
197.963	-76.55
198.351	23.34
198.738	32.35
199.125	-5.81
199.512	25.09
199.899	26.97
200.286	-23.55
200.673	12.92
201.06	28.35
201.447	21.34
201.833	10.31
202.22	40.7
202.607	9.97
202.994	49.05
203.38	-10.66
203.767	7.77
204.154	66.2
204.54	19.92
204.927	-22.71
205.313	51.24
205.699	42.89
206.086	13.37
206.472	44.48
206.858	34.57
207.245	-9.77
207.631	22.27
208.017	34.17
208.403	20.31
208.789	40
209.175	45.94
209.561	33.38
209.947	29.11
210.333	75.1
210.719	-5.77
211.105	36.22
211.491	1.96
211.876	38.77
212.262	11.48
212.648	2.37
213.034	34.77
213.419	14.91
213.805	23.75
214.19	0.77
214.576	22.89
214.961	12.21
215.346	7.32
215.732	-4.9
216.117	-1.08
216.502	27.83
216.888	26.63
217.273	23.99
217.658	-5.61
218.043	-3.07
218.428	22.98
218.813	-10.32
219.198	3.6
219.583	-5.66
219.968	-8.92
220.353	28.91
220.738	3.49
221.122	-4.56
221.507	-9.96
221.892	9.14
222.276	2
222.661	-1.09
223.046	22.68
223.43	18.28
223.815	-1.81
224.199	4.73
224.583	6.73
224.968	2.22
225.352	-4.99
225.736	17.54
226.121	7.23
226.505	13.89
226.889	7.28
227.273	-0.64
227.657	10.05
228.041	2.48
228.425	10.28
228.809	4.39
229.193	7.98
229.577	5.92
229.961	6.39
230.344	5.74
230.728	2.4
231.112	3.1
231.495	2.32
231.879	3.28
232.263	1.71
232.646	2.56
233.03	1.63
233.413	2.85
233.797	3.1
234.18	1.99
234.563	4.33
234.946	5.78
235.33	2.85
235.713	1.94
236.096	3.13
236.479	1.68
236.862	4.27
237.245	2.66
237.628	3.5
238.011	3.24
238.394	3.81
238.777	3.62
239.16	2.54
239.543	6.04
239.925	4.07
240.308	4.08
240.691	2.74
241.073	4.09
241.456	3.84
241.838	1.18
242.221	2.7
242.603	3.22
242.986	3.42
243.368	2.21
243.75	3.03
244.133	3.66
244.515	2.69
244.897	2.44
245.279	3.03
245.661	3.14
246.043	3.14
246.425	2.71
246.807	3.26
247.189	2.03
247.571	3.12
247.953	3.22
248.335	2.61
248.717	3.12
249.098	2.77
249.48	2.6
249.862	2.65
250.243	2.68
250.625	3.1
251.006	2.59
251.388	3.38
251.769	3.32
252.151	2.38
252.532	3.15
252.913	3.56
253.295	3.41
253.676	2.89
254.057	3.03
254.438	3.07
254.819	2.58
255.2	2.91
255.581	2.79
255.962	3.38
256.343	2.26
256.724	1.36
257.105	3.07
257.486	2.46
257.867	3.51
258.247	3.11
258.628	3.05
259.009	3.27
259.389	2.4
259.77	3.06
260.15	3.06
260.531	3.11
260.911	2.66
261.292	2.65
261.672	2.46
262.052	2.67
262.432	2.77
262.813	2.82
263.193	2.4
263.573	3.36
263.953	2.59
264.333	2.95
264.713	2.73
265.093	3.07
265.473	2.46
265.853	2.56
266.233	2.68
266.612	2.77
266.992	2.79
267.372	2.98
267.752	3.36
268.131	2.97
268.511	2.57
268.89	2.88
269.27	2.73
269.649	2.71
270.029	2.79
270.408	2.96
270.787	2.64
271.167	3.02
271.546	2.17
271.925	2.59
272.304	2.29
272.683	2.51
273.062	3.2
273.441	2.48
273.82	2.87
274.199	3.12
274.578	2.79
274.957	2.75
275.336	2.61
275.715	2.69
276.093	2.87
276.472	2.38
276.851	2.88
277.229	2.48
277.608	3.08
277.986	1.88
278.365	2.98
278.743	2.72
279.122	2.98
279.5	3.31
279.878	2.48
280.257	3.19
280.635	2.44
281.013	3.23
281.391	2.26
281.769	2.29
282.147	2.6
282.525	2.3
282.903	2.96
283.281	2.91
283.659	2.87
284.037	2.68
284.415	2.8
284.792	2.6
285.17	3.29
285.548	2.92
285.925	2.75
286.303	2.71
286.68	2.16
287.058	2.56
287.435	2.28
287.813	2.48
288.19	1.95
288.567	2.82
288.945	2.6
289.322	2.48
289.699	2.68
290.076	2.5
290.453	2.57
290.83	2.37
291.207	2.46
291.584	2.83
291.961	2.27
292.338	3.03
292.715	3.02
293.092	2.73
293.469	2.8
293.845	2.53
294.222	2.76
294.599	2.86
294.975	2.9
295.352	3.28
295.728	2.81
296.105	2.77
296.481	2.92
296.858	2.83
297.234	2.75
297.61	2.6
297.986	2.87
298.363	2.88
298.739	2.71
299.115	2.99
299.491	2.99
299.867	3.01
300.243	2.71
300.619	2.9
300.995	2.87
301.371	3.14
301.746	3.14
302.122	2.58
302.498	2.5
302.874	2.79
303.249	2.8
303.625	2.39
304	3.24
304.376	3.22
304.751	3.47
305.127	3.42
305.502	3.22
305.878	2.56
306.253	3.35
306.628	3.13
307.003	3.18
307.378	2.86
307.754	2.98
308.129	3.54
308.504	2.88
308.879	2.66
309.254	2.78
309.629	3.27
310.003	3.03
310.378	3.39
310.753	2.99
311.128	3.33
311.502	3.21
311.877	2.75
312.252	2.92
312.626	2.85
313.001	3.04
313.375	3.13
313.75	3.47
314.124	3.49
314.498	2.73
314.873	2.91
315.247	3.13
315.621	3.08
315.995	2.73
316.369	3.01
316.743	3.02
317.117	3.38
317.491	3.48
317.865	2.87
318.239	3.12
318.613	3.52
318.987	2.73
319.361	2.86
319.734	2.96
320.108	3.63
320.482	2.99
320.855	2.79
321.229	3.31
321.602	3.53
321.976	3.41
322.349	3.81
322.723	3.08
323.096	2.8
323.469	3.25
323.843	3
324.216	3.52
324.589	3.34
324.962	3.03
325.335	2.95
325.708	2.9
326.081	3.26
326.454	2.83
326.827	3.05
327.2	3.34
327.573	3.66
327.945	3.07
328.318	3.51
328.691	3.2
329.063	2.95
329.436	3.44
329.809	3.17
330.181	2.73
330.553	3.41
330.926	3.68
331.298	3.72
331.671	3.12
332.043	2.8
332.415	3.12
332.787	3.48
333.159	2.5
333.532	2.77
333.904	2.74
334.276	2.78
334.648	2.8
335.02	2.69
335.391	3.7
335.763	3.22
336.135	3.6
336.507	3.1
336.879	2.78
337.25	3.45
337.622	4.04
337.993	3.15
338.365	3.34
338.736	3.33
339.108	3.78
339.479	3.29
339.851	2.88
340.222	3.15
340.593	3.01
340.964	2.97
341.336	2.81
341.707	3.17
342.078	3.09
342.449	3.25
342.82	2.91
343.191	2.97
343.562	3.15
343.933	3.6
344.303	3.2
344.674	3.11
345.045	3.35
345.416	2.92
345.786	3.07
346.157	2.74
346.527	3.28
346.898	3.46
347.268	3.1
347.639	3.02
348.009	2.98
348.38	3.23
348.75	3.45
349.12	3
349.49	3.44
349.861	3.16
350.231	3.36
350.601	3.07
350.971	3.07
351.341	2.96
351.711	3.21
352.081	3.39
352.45	3.42
352.82	3.46
353.19	3.24
353.56	3.03
353.929	3.2
354.299	3.13
354.669	3.23
355.038	3.29
355.408	3.61
355.777	3.66
356.147	3.49
356.516	3.33
356.885	3.17
357.254	3.43
357.624	3.01
357.993	3.4
358.362	3.39
358.731	2.92
359.1	3.24
359.469	3.39
359.838	3.14
360.207	3
360.576	3.34
360.945	3.17
361.314	3.28
361.682	3.37
362.051	3.28
362.42	3.19
362.788	3.19
363.157	3.32
363.525	3.23
363.894	3.17
364.262	3.12
364.631	3.22
364.999	3.01
365.367	3.23
365.735	3.14
366.104	3.18
366.472	3.25
366.84	2.89
367.208	3.46
367.576	3.36
367.944	3.26
368.312	3.29
368.68	3
369.048	3.3
369.416	3.2
369.783	3.18
370.151	3
370.519	3.16
370.886	3.41
371.254	3.22
371.621	3.46
371.989	3.32
372.356	3.2
372.724	3.69
373.091	3.51
373.458	3.25
373.826	3.52
374.193	3.49
374.56	3.21
374.927	3.35
375.294	3.1
375.661	3.53
376.028	3.54
376.395	3.5
376.762	3.25
377.129	3.5
377.496	3.61
377.863	3.47
378.229	3.5
378.596	3.41
378.963	3.44
379.329	3.19
379.696	3.56
380.062	3
380.429	3.32
380.795	3.25
381.161	3.17
381.528	3.13
381.894	3.06
382.26	3.15
382.626	3.5
382.993	3.52
383.359	3.12
383.725	3.35
384.091	3.45
384.457	3.16
384.823	3.3
385.188	3.42
385.554	3.3
385.92	3.51
386.286	3.36
386.651	3.33
387.017	3.3
387.383	3.34
387.748	3.45
388.114	3.45
388.479	3.13
388.845	3.04
389.21	2.81
389.575	3.53
389.94	3.35
390.306	3.43
390.671	3.68
391.036	2.75
391.401	3.51
391.766	3.29
392.131	3.15
392.496	3.48
392.861	3.29
393.226	3.67
393.591	3.52
393.956	3.41
394.32	3.39
394.685	3.2
395.05	3.6
395.414	3.39
395.779	3.51
396.143	3.36
396.508	3.34
396.872	3.28
397.236	3.32
397.601	3.17
397.965	3.36
398.329	3.24
398.694	3.3
399.058	3.32
399.422	3.36
399.786	3.49
400.15	3.62
400.514	3.46
400.878	3.43
401.242	3.44
401.605	3.28
401.969	3.14
402.333	3.49
402.697	3.38
403.06	3.35
403.424	3.36
403.787	3.41
404.151	3.48
404.514	3.42
404.878	3.6
405.241	3.57
405.604	3.34
405.968	3.33
406.331	3.48
406.694	3.4
407.057	3.33
407.42	3.52
407.783	3.45
408.146	3.38
408.509	3.33
408.872	3.44
409.235	3.48
409.598	3.49
409.961	3.49
410.323	3.74
410.686	3.63
411.049	3.78
411.411	3.42
411.774	3.6
412.136	3.31
412.499	3.32
412.861	3.58
413.223	3.7
413.586	3.57
413.948	3.64
414.31	3.27
414.672	3.65
415.035	3.44
415.397	3.46
415.759	3.89
416.121	3.46
416.483	3.58
416.845	3.43
417.206	3.47
417.568	3.55
417.93	3.55
418.292	3.44
418.653	3.3
419.015	3.46
419.377	3.24
419.738	3.47
420.1	3.35
420.461	3.33
420.822	3.4
421.184	3.39
421.545	3.36
421.906	3.24
422.267	3.31
422.629	3.39
422.99	3.39
423.351	3.24
423.712	3.25
424.073	3.34
424.434	3.35
424.795	3.35
425.155	3.5
425.516	3.35
425.877	3.35
426.238	3.24
426.598	3.33
426.959	3.37
427.32	3.43
427.68	3.35
428.041	3.36
428.401	3.4
428.761	3.57
429.122	3.45
429.482	3.46
429.842	3.51
430.202	3.38
430.563	3.59
430.923	3.62
431.283	3.62
431.643	3.58
432.003	3.57
432.363	3.72
432.722	3.56
433.082	3.53
433.442	3.47
433.802	3.6
434.161	3.44
434.521	3.58
434.881	3.51
435.24	3.58
435.6	3.64
435.959	3.25
436.319	3.47
436.678	3.45
437.037	3.66
437.396	3.54
437.756	3.6
438.115	3.54
438.474	3.39
438.833	3.48
439.192	3.57
439.551	3.44
439.91	3.52
440.269	3.52
440.628	3.42
440.987	3.49
441.345	3.63
441.704	3.74
442.063	3.46
442.421	3.47
442.78	3.52
443.138	3.54
443.497	3.46
443.855	3.52
444.214	3.47
444.572	3.55
444.93	3.53
445.288	3.61
445.647	3.6
446.005	3.56
446.363	3.41
446.721	3.51
447.079	3.49
447.437	3.58
447.795	3.62
448.153	3.45
448.51	3.47
448.868	3.4
449.226	3.47
449.584	3.49
449.941	3.45
450.299	3.54
450.656	3.58
451.014	3.61
451.371	3.54
451.729	3.62
452.086	3.52
452.443	3.49
452.801	3.69
453.158	3.61
453.515	3.6
453.872	3.61
454.229	3.69
454.586	3.66
454.943	3.51
455.3	3.55
455.657	3.57
456.014	3.53
456.371	3.76
456.727	3.82
457.084	3.55
457.441	3.71
457.797	3.71
458.154	3.6
458.51	3.64
458.867	3.62
459.223	3.57
459.58	3.72
459.936	3.74
460.292	3.73
460.648	3.77
461.005	3.71
461.361	3.61
461.717	3.58
462.073	3.46
462.429	3.56
462.785	3.52
463.141	3.65
463.496	3.75
463.852	3.63
464.208	3.61
464.564	3.79
464.919	3.69
465.275	3.81
465.631	3.8
465.986	3.83
466.342	3.77
466.697	3.79
467.052	3.64
467.408	3.82
467.763	3.8
468.118	3.87
468.473	3.79
468.829	3.79
469.184	3.77
469.539	3.84
469.894	3.83
470.249	3.75
470.603	3.71
470.958	3.9
471.313	3.75
471.668	3.71
472.023	3.79
472.377	3.77
472.732	3.6
473.086	3.98
473.441	3.49
473.795	3.96
474.15	3.69
474.504	3.83
474.859	3.85
475.213	3.7
475.567	3.57
475.921	3.73
476.275	3.72
476.63	3.74
476.984	3.87
477.338	4.01
477.692	3.91
478.045	3.81
478.399	3.99
478.753	3.91
479.107	3.94
479.461	3.72
479.814	3.81
480.168	3.76
480.521	3.93
480.875	3.95
481.228	3.94
481.582	3.73
481.935	3.81
482.289	3.84
482.642	3.73
482.995	3.86
483.348	3.85
483.701	3.74
484.055	3.88
484.408	3.71
484.761	3.81
485.114	3.67
485.466	3.61
485.819	3.58
486.172	3.5
486.525	3.54
486.878	3.58
487.23	3.63
487.583	3.68
487.936	3.73
488.288	3.75
488.641	3.71
488.993	3.68
489.345	3.65
489.698	3.64
490.05	3.69
490.402	3.67
490.754	3.68
491.107	3.66
491.459	3.8
491.811	3.77
492.163	3.77
492.515	3.8
492.866	3.82
493.218	3.81
493.57	3.78
493.922	3.71
494.274	3.73
494.625	3.75
494.977	3.89
495.328	3.93
495.68	3.93
496.031	3.94
496.383	4.01
496.734	3.88
497.086	3.82
497.437	3.93
497.788	3.98
498.139	4
498.49	4.09
498.842	3.98
499.193	3.92
499.544	3.96
499.894	3.95
500.245	4.1
500.596	4.03
500.947	4.03
501.298	4.01
501.648	4.07
501.999	4.13
502.35	4.08
502.7	4.14
503.051	4.13
503.401	4.04
503.752	4.06
504.102	4.1
504.452	4
504.803	4.11
505.153	4.17
505.503	4.2
505.853	4.23
506.203	4.13
506.553	4.1
506.903	4.13
507.253	4.05
507.603	4.18
507.953	4.25
508.303	4.19
508.652	4.12
509.002	4.28
509.352	4.05
509.701	4.18
510.051	4.22
510.4	4.11
510.75	4.15
511.099	4.01
511.449	4.11
511.798	4.26
512.147	4.12
512.496	4.16
512.846	4.19
513.195	4.22
513.544	4.13
513.893	4.24
514.242	4.12
514.591	4.21
514.939	4.31
515.288	4.15
515.637	4.18
515.986	4.21
516.334	4.26
516.683	4.4
517.032	4.44
517.38	4.31
517.729	4.26
518.077	4.29
518.426	4.32
518.774	4.32
519.122	4.29
519.47	4.26
519.819	4.3
520.167	4.38
520.515	4.32
520.863	4.2
521.211	4.25
521.559	4.31
521.907	4.35
522.255	4.31
522.602	4.38
522.95	4.32
523.298	4.39
523.645	4.35
523.993	4.42
524.341	4.37
524.688	4.47
525.036	4.5
525.383	4.48
525.73	4.54
526.078	4.33
526.425	4.45
526.772	4.54
527.119	4.46
527.466	4.34
527.814	4.28
528.161	4.28
528.508	4.41
528.854	4.45
529.201	4.47
529.548	4.49
529.895	4.31
530.242	4.27
530.588	4.25
530.935	4.23
531.282	4.28
531.628	4.32
531.975	4.33
532.321	4.32
532.667	4.48
533.014	4.51
533.36	4.51
533.706	4.48
534.052	4.61
534.399	4.54
534.745	4.52
535.091	4.46
535.437	4.45
535.783	4.34
536.129	4.53
536.474	4.58
536.82	4.53
537.166	4.71
537.512	4.7
537.857	4.66
538.203	4.71
538.549	4.66
538.894	4.62
539.239	4.61
539.585	4.58
539.93	4.84
540.276	4.74
540.621	4.78
540.966	4.87
541.311	4.98
541.656	4.9
542.001	4.83
542.346	4.82
542.691	4.92
543.036	4.77
543.381	4.66
543.726	4.65
544.071	4.74
544.415	4.74
544.76	4.78
545.105	4.75
545.449	4.79
545.794	4.85
546.138	4.95
546.483	4.98
546.827	4.96
547.171	4.98
547.516	5.06
547.86	5.11
548.204	5.11
548.548	5.02
548.892	5.05
549.236	4.95
549.58	5.12
549.924	5.16
550.268	5.3
550.612	5.13
550.956	5.26
551.3	5.25
551.643	5.18
551.987	5.31
552.33	5.33
552.674	5.46
553.017	5.26
553.361	5.25
553.704	5.37
554.048	5.47
554.391	5.48
554.734	5.46
555.077	5.3
555.42	5.44
555.764	5.33
556.107	5.5
556.45	5.49
556.793	5.47
557.135	5.55
557.478	5.34
557.821	5.61
558.164	5.58
558.507	5.68
558.849	5.55
559.192	5.53
559.534	5.65
559.877	5.7
560.219	5.49
560.562	5.67
560.904	5.78
561.246	6
561.589	5.82
561.931	5.55
562.273	5.46
562.615	5.8
562.957	5.79
563.299	5.72
563.641	5.75
563.983	5.97
564.325	5.95
564.667	6.05
565.008	5.98
565.35	5.77
565.692	6.15
566.033	5.86
566.375	5.97
566.716	5.72
567.058	6.11
567.399	6.17
567.741	6.28
568.082	6.05
568.423	6.03
568.764	6.36
569.105	5.95
569.447	6.13
569.788	5.73
570.129	6.39
570.47	6.31
570.811	6.13
571.151	6.27
571.492	6.26
571.833	6.19
572.174	6.31
572.514	6.22
572.855	6.41
573.195	6.19
573.536	6.26
573.876	6.16
574.217	6.31
574.557	6.22
574.898	6.41
575.238	6.37
575.578	6.47
575.918	6.43
576.258	6.22
576.598	6.43
576.938	6.42
577.278	6.71
577.618	6.44
577.958	6.52
578.298	6.62
578.638	6.55
578.977	6.67
579.317	6.63
579.657	6.61
579.996	6.77
580.336	6.82
580.675	6.98
581.014	6.67
581.354	6.65
581.693	6.92
582.032	6.82
582.372	6.94
582.711	7.18
583.05	6.86
583.389	6.89
583.728	7.14
584.067	7.03
584.406	6.99
584.745	6.88
585.083	7.14
585.422	7.2
585.761	6.89
586.1	7.04
586.438	7.29
586.777	7.28
587.115	7.46
587.454	7.06
587.792	7.32
588.13	7.35
588.469	7.39
588.807	7.35
589.145	7.58
589.483	7.38
589.821	7.29
590.159	7.49
590.497	7.57
590.835	7.59
591.173	7.51
591.511	7.69
591.849	7.67
592.187	7.37
592.524	7.63
592.862	7.57
593.2	7.59
593.537	7.56
593.875	7.7
594.212	7.97
594.55	8
594.887	7.86
595.224	8.02
595.561	8
595.899	7.86
596.236	8.09
596.573	8
596.91	8.01
597.247	7.95
597.584	8.08
597.921	8.27
598.258	8.09
598.594	7.88
598.931	7.96
599.268	8.07
599.604	8.26
599.941	8.13
600.277	7.96
600.614	8.13
600.95	8.27
601.287	8.14
601.623	8.21
601.959	8.36
602.296	8.41
602.632	8.1
602.968	8.55
603.304	8.5
603.64	8.47
603.976	8.49
604.312	8.53
604.648	8.46
604.984	8.31
605.319	8.61
605.655	8.56
605.991	8.5
606.326	8.6
606.662	8.46
606.998	8.48
607.333	8.61
607.668	8.67
608.004	8.64
608.339	8.63
608.674	8.77
609.01	8.91
609.345	8.91
609.68	9.07
610.015	9.04
610.35	8.97
610.685	9.27
611.02	8.94
611.355	9.01
611.689	9
612.024	8.96
612.359	8.81
612.694	9.05
613.028	9.08
613.363	9.14
613.697	9.15
614.032	8.95
614.366	9.26
614.7	9.23
615.035	9.28
615.369	9.2
615.703	9.17
616.037	9.31
616.371	9.59
616.705	9.66
617.039	9.53
617.373	9.35
617.707	9.3
618.041	9.76
618.375	9.68
618.709	9.5
619.042	10.07
619.376	9.56
619.71	9.77
620.043	9.68
620.377	9.62
620.71	10.09
621.043	10.15
621.377	9.59
621.71	10.01
622.043	9.79
622.376	10.08
622.709	10.05
623.043	10.04
623.376	10.08
623.709	10.15
624.041	9.92
624.374	10.05
624.707	10.38
625.04	10.29
625.373	10.16
625.705	10.31
626.038	10.32
626.37	10.28
626.703	10.48
627.035	10.18
627.368	10.39
627.7	10.76
628.032	10.31
628.365	10.65
628.697	10.55
629.029	10.62
629.361	10.7
629.693	10.52
630.025	10.8
630.357	10.45
630.689	10.48
631.021	10.65
631.353	10.58
631.684	10.78
632.016	10.91
632.348	10.93
632.679	10.49
633.011	10.56
633.342	11.02
633.674	11.24
634.005	10.74
634.336	11.04
634.668	11.26
634.999	11.08
635.33	11.07
635.661	11.09
635.992	10.83
636.323	10.74
636.654	11.19
636.985	10.88
637.316	11.04
637.647	11.25
637.977	10.94
638.308	11.46
638.639	11.08
638.969	11.49
639.3	11.15
639.63	11.69
639.961	11.28
640.291	11.38
640.622	11.72
640.952	11.46
641.282	11.93
641.612	11.52
641.943	11.71
642.273	11.69
642.603	11.82
642.933	11.77
643.263	11.22
643.592	11.51
643.922	11.89
644.252	11.86
644.582	11.99
644.911	11.92
645.241	12.14
645.571	12.33
645.9	12.16
646.23	12.59
646.559	12.17
646.888	12.3
647.218	12.2
647.547	12.24
647.876	12.52
648.205	12.12
648.534	12.67
648.863	12.13
649.192	12.39
649.521	12.43
649.85	12.57
650.179	12.27
650.508	12.32
650.837	12.72
651.165	12.67
651.494	12.86
651.822	12.62
652.151	12.65
652.479	12.83
652.808	12.72
653.136	12.81
653.465	12.97
653.793	12.47
654.121	13
654.449	12.16
654.777	12.8
655.105	13.31
655.433	12.84
655.761	13.43
656.089	12.92
656.417	13.17
656.745	13.46
657.073	12.72
657.4	13.6
657.728	13.19
658.056	13.4
658.383	13.26
658.711	12.88
659.038	13.05
659.365	13.47
659.693	13.11
660.02	13.35
660.347	13.63
660.674	13.03
661.001	13.3
661.329	13.33
661.656	13.52
661.982	13.29
662.309	13.32
662.636	13.48
662.963	13.38
663.29	13.78
663.616	13.48
663.943	13.69
664.27	13.41
664.596	13.59
664.923	13.64
665.249	13.84
665.576	13.4
665.902	13.92
666.228	13.98
666.554	14.08
666.881	14.09
667.207	14.07
667.533	14.12
667.859	14.3
668.185	14.34
668.511	14.21
668.837	13.64
669.162	14.28
669.488	14.2
669.814	14.08
670.139	14.67
670.465	14.96
670.791	14.79
671.116	14.09
671.442	14.7
671.767	13.83
672.092	14.52
672.418	15.21
672.743	14.75
673.068	14.68
673.393	14.53
673.718	14.84
674.043	15.21
674.368	14.83
674.693	14.37
675.018	14.67
675.343	15.32
675.667	15.09
675.992	14.76
676.317	14.76
676.641	14.93
676.966	15.29
677.29	14.8
677.615	15.29
677.939	15.39
678.264	15.01
678.588	15.28
678.912	15.94
679.236	15.62
679.56	15.72
679.885	14.78
680.209	15.87
680.532	14.77
680.856	15.45
681.18	15.88
681.504	15.66
681.828	15.53
682.152	15.58
682.475	16.44
682.799	15.9
683.122	15.79
683.446	15.59
683.769	15.7
684.093	15.55
684.416	15.75
684.739	16.16
685.062	16.16
685.386	16.01
685.709	15.9
686.032	15.99
686.355	15.56
686.678	16.17
687.001	15.95
687.324	15.79
687.646	16.13
687.969	16.42
688.292	16.41
