Data from 0280_forehead_Reflection__2__331.txt Node

Date: Fri Sep 22 23:21:09 CDT 2023
User: ToomeyLab
Spectrometer: FLMS14357
Trigger mode: 0
Integration Time (sec): 1.000000E-2
Scans to average: 100
Electric dark correction enabled: true
Nonlinearity correction enabled: false
Boxcar width: 0
XAxis mode: Wavelengths
Number of Pixels in Spectrum: 2048
>>>>>Begin Spectral Data<<<<<
189.047	-79.01
189.435	-79.01
189.823	-79.01
190.211	68.63
190.599	-14.6
190.987	169.01
191.375	162.77
191.763	2057.09
192.151	-174.18
192.538	55.35
192.926	94.9
193.314	-11.83
193.702	59.63
194.089	212.29
194.477	-162.91
194.864	-252.25
195.252	-1.03
195.639	2.42
196.027	316.42
196.414	310.41
196.801	-122.06
197.189	94.97
197.576	3.94
197.963	-86.28
198.351	7.71
198.738	20.32
199.125	45.53
199.512	20.16
199.899	65.41
200.286	28.03
200.673	84.57
201.06	14.99
201.447	39.08
201.833	-23.54
202.22	17.94
202.607	54.7
202.994	68.13
203.38	22.65
203.767	30.13
204.154	64.41
204.54	55.18
204.927	22.2
205.313	34.22
205.699	62.89
206.086	57.48
206.472	56.44
206.858	30.53
207.245	35.76
207.631	58.24
208.017	37.11
208.403	29.07
208.789	100.29
209.175	64.56
209.561	41.07
209.947	55.63
210.333	79.93
210.719	4.41
211.105	32.88
211.491	8.72
211.876	49.11
212.262	27.3
212.648	25.93
213.034	36.13
213.419	32.51
213.805	21.15
214.19	5.12
214.576	17.84
214.961	18.83
215.346	25.95
215.732	54.77
216.117	30.71
216.502	37.84
216.888	39.19
217.273	34.52
217.658	12.15
218.043	21.65
218.428	45.22
218.813	-1.03
219.198	12.8
219.583	49.84
219.968	23.69
220.353	33.4
220.738	4.7
221.122	28.77
221.507	0.27
221.892	14.24
222.276	-1.94
222.661	-15.22
223.046	18.26
223.43	17.55
223.815	2.29
224.199	1.96
224.583	18.6
224.968	21.8
225.352	1.45
225.736	7.33
226.121	14.6
226.505	15.8
226.889	5.59
227.273	8.82
227.657	3.42
228.041	4.88
228.425	16.62
228.809	5.22
229.193	6.61
229.577	6.6
229.961	5.2
230.344	4.6
230.728	2.78
231.112	4.52
231.495	2.66
231.879	3.12
232.263	3.25
232.646	2.4
233.03	2.83
233.413	4.63
233.797	2.55
234.18	2.47
234.563	3.71
234.946	5.33
235.33	2.74
235.713	3.64
236.096	2.45
236.479	2.81
236.862	5.34
237.245	3.77
237.628	5.52
238.011	3.55
238.394	2.33
238.777	4.75
239.16	5.37
239.543	4.94
239.925	4.91
240.308	3.75
240.691	3.82
241.073	5.95
241.456	4.86
241.838	1.85
242.221	3.56
242.603	3.67
242.986	3.22
243.368	2.62
243.75	3.58
244.133	3.61
244.515	2.46
244.897	2.41
245.279	3.01
245.661	2.98
246.043	2.79
246.425	2.81
246.807	4.14
247.189	2.31
247.571	3.77
247.953	3.81
248.335	3.38
248.717	3.14
249.098	2.79
249.48	3.06
249.862	2.81
250.243	3.28
250.625	2.91
251.006	2.8
251.388	3
251.769	3.35
252.151	3.07
252.532	4.2
252.913	3.88
253.295	4.39
253.676	3.79
254.057	2.99
254.438	3.32
254.819	3.04
255.2	3.62
255.581	3.37
255.962	3.41
256.343	3.55
256.724	2.24
257.105	3.23
257.486	3.61
257.867	3.57
258.247	4
258.628	4.34
259.009	3.17
259.389	4.09
259.77	3.44
260.15	3.39
260.531	3.39
260.911	3.58
261.292	2.94
261.672	2.87
262.052	2.82
262.432	3.06
262.813	3.24
263.193	2.81
263.573	3.57
263.953	3.82
264.333	3.76
264.713	3.23
265.093	3.5
265.473	3.51
265.853	2.97
266.233	3.48
266.612	2.88
266.992	4.87
267.372	4.27
267.752	3.69
268.131	2.9
268.511	3.34
268.89	3.44
269.27	3.17
269.649	3.19
270.029	3.47
270.408	3.89
270.787	2.58
271.167	3.02
271.546	3.3
271.925	3.41
272.304	2.9
272.683	3.23
273.062	3.32
273.441	3.39
273.82	3.29
274.199	3.25
274.578	3.22
274.957	3.19
275.336	2.9
275.715	3.14
276.093	3.05
276.472	3.35
276.851	3.88
277.229	2.8
277.608	3.41
277.986	3.07
278.365	3.22
278.743	3.27
279.122	2.64
279.5	3.85
279.878	3.08
280.257	4.33
280.635	2.34
281.013	3.36
281.391	3.01
281.769	3.26
282.147	3.22
282.525	3.14
282.903	3.39
283.281	3.4
283.659	3.21
284.037	2.8
284.415	3.37
284.792	3.07
285.17	3.42
285.548	3.52
285.925	3.25
286.303	3.39
286.68	3.21
287.058	3.28
287.435	3.2
287.813	3.06
288.19	2.78
288.567	3.28
288.945	3.24
289.322	3.4
289.699	3.35
290.076	3.73
290.453	3.47
290.83	3.28
291.207	3.32
291.584	3.41
291.961	3.13
292.338	3.6
292.715	3.69
293.092	3.42
293.469	3.38
293.845	3.7
294.222	3.54
294.599	4.22
294.975	4.11
295.352	4.41
295.728	3.75
296.105	3.98
296.481	4.01
296.858	4.13
297.234	3.82
297.61	4.29
297.986	3.91
298.363	4.15
298.739	3.93
299.115	4.29
299.491	4.35
299.867	4.1
300.243	4.14
300.619	4.3
300.995	4.46
301.371	4.87
301.746	4.57
302.122	4.55
302.498	4.62
302.874	4.73
303.249	4.84
303.625	4.72
304	4.88
304.376	4.86
304.751	5.64
305.127	5.28
305.502	5.42
305.878	5
306.253	4.93
306.628	5.23
307.003	5.33
307.378	4.88
307.754	5.12
308.129	5.59
308.504	5.43
308.879	5.45
309.254	5.8
309.629	6.27
310.003	6.29
310.378	6.26
310.753	6.13
311.128	6.15
311.502	5.84
311.877	5.54
312.252	5.65
312.626	5.95
313.001	6.41
313.375	6.45
313.75	6.38
314.124	6.44
314.498	6.08
314.873	6.5
315.247	6.56
315.621	6.59
315.995	6.9
316.369	6.77
316.743	6.78
317.117	6.86
317.491	7.38
317.865	6.57
318.239	7.38
318.613	6.79
318.987	7.47
319.361	6.83
319.734	6.75
320.108	7.63
320.482	7.02
320.855	7.14
321.229	7.97
321.602	7.52
321.976	7.35
322.349	7.23
322.723	7.57
323.096	7.81
323.469	7.13
323.843	7.52
324.216	8.07
324.589	7.43
324.962	7.7
325.335	7.9
325.708	8.35
326.081	8.54
326.454	7.53
326.827	8.11
327.2	7.91
327.573	8.4
327.945	8.27
328.318	8.22
328.691	8.25
329.063	7.93
329.436	8.68
329.809	8.82
330.181	8.79
330.553	8.81
330.926	8.85
331.298	8.45
331.671	9.02
332.043	8.28
332.415	8.2
332.787	9.29
333.159	8.55
333.532	8.92
333.904	9.09
334.276	9.1
334.648	8.26
335.02	8.7
335.391	9.71
335.763	9.4
336.135	9.06
336.507	9.52
336.879	9.34
337.25	9.21
337.622	9.66
337.993	9.13
338.365	9.91
338.736	10.13
339.108	9.7
339.479	9.87
339.851	9.01
340.222	8.9
340.593	9.57
340.964	9.16
341.336	9.43
341.707	9.61
342.078	9.99
342.449	9.83
342.82	9.87
343.191	9.23
343.562	10.04
343.933	9.82
344.303	9.85
344.674	10.29
345.045	10.55
345.416	10.38
345.786	10.44
346.157	10.14
346.527	9.74
346.898	10.37
347.268	10.49
347.639	10.05
348.009	10.26
348.38	10.34
348.75	10.28
349.12	10.51
349.49	11.07
349.861	10.9
350.231	10.51
350.601	10.57
350.971	10.77
351.341	10.64
351.711	10.74
352.081	10.78
352.45	10.65
352.82	10.93
353.19	11.17
353.56	10.7
353.929	11.01
354.299	10.85
354.669	11.05
355.038	10.81
355.408	11.15
355.777	11.47
356.147	11.44
356.516	11.59
356.885	11.52
357.254	11.81
357.624	10.87
357.993	11.36
358.362	11.28
358.731	11.45
359.1	11.35
359.469	11.55
359.838	11.52
360.207	11.6
360.576	11.73
360.945	11.79
361.314	11.97
361.682	11.56
362.051	11.89
362.42	11.65
362.788	11.7
363.157	11.78
363.525	12.05
363.894	11.64
364.262	11.87
364.631	11.85
364.999	11.65
365.367	12.31
365.735	11.91
366.104	12.27
366.472	12.5
366.84	12.04
367.208	12.53
367.576	12.48
367.944	12.38
368.312	12.47
368.68	12.58
369.048	12.83
369.416	12.51
369.783	12.17
370.151	12.32
370.519	12.67
370.886	12.9
371.254	13.05
371.621	12.56
371.989	13.03
372.356	12.57
372.724	13.07
373.091	12.88
373.458	12.74
373.826	13.05
374.193	13.13
374.56	13.28
374.927	13.42
375.294	13.07
375.661	12.94
376.028	13.42
376.395	13.16
376.762	13.36
377.129	13.49
377.496	13.51
377.863	13.41
378.229	13.58
378.596	13.6
378.963	13.69
379.329	13.8
379.696	13.79
380.062	13.49
380.429	13.72
380.795	13.91
381.161	13.65
381.528	13.79
381.894	13.6
382.26	13.69
382.626	13.71
382.993	14.04
383.359	13.93
383.725	14.03
384.091	14.07
384.457	14.23
384.823	14.3
385.188	14.46
385.554	14.34
385.92	14.72
386.286	14.21
386.651	14.44
387.017	14.48
387.383	14.31
387.748	14.23
388.114	14.46
388.479	14.53
388.845	14.42
389.21	14.5
389.575	14.54
389.94	14.65
390.306	14.65
390.671	14.99
391.036	14.52
391.401	14.73
391.766	14.81
392.131	14.83
392.496	15.21
392.861	14.85
393.226	15.07
393.591	15.14
393.956	14.84
394.32	14.86
394.685	14.88
395.05	15.32
395.414	15.33
395.779	15.09
396.143	15.32
396.508	15.28
396.872	15.22
397.236	15.49
397.601	15.11
397.965	15.6
398.329	15.48
398.694	15.54
399.058	15.65
399.422	15.67
399.786	15.75
400.15	15.91
400.514	15.72
400.878	15.54
401.242	15.67
401.605	15.72
401.969	15.67
402.333	16.09
402.697	15.97
403.06	16.18
403.424	16.06
403.787	16.26
404.151	16.18
404.514	15.97
404.878	16.34
405.241	16.23
405.604	16.09
405.968	16.17
406.331	16.36
406.694	16.15
407.057	16.08
407.42	16.48
407.783	16.51
408.146	16.4
408.509	16.27
408.872	16.51
409.235	16.35
409.598	16.66
409.961	16.71
410.323	16.67
410.686	16.51
411.049	17.07
411.411	17.24
411.774	16.71
412.136	17.03
412.499	16.96
412.861	16.81
413.223	16.8
413.586	16.83
413.948	17.08
414.31	17.16
414.672	17.13
415.035	17.1
415.397	17.36
415.759	17.18
416.121	17.08
416.483	17.35
416.845	17.19
417.206	17.35
417.568	17.17
417.93	17.39
418.292	17.72
418.653	17.22
419.015	17.33
419.377	17.19
419.738	17.34
420.1	17.43
420.461	17.23
420.822	17.26
421.184	17.43
421.545	17.36
421.906	17.28
422.267	17.23
422.629	17.32
422.99	17.26
423.351	17.19
423.712	17.19
424.073	17.36
424.434	17.5
424.795	17.51
425.155	17.75
425.516	17.49
425.877	17.61
426.238	17.59
426.598	17.53
426.959	17.59
427.32	17.68
427.68	17.69
428.041	17.89
428.401	18.09
428.761	18.01
429.122	18.26
429.482	18.13
429.842	18.19
430.202	18.17
430.563	18.37
430.923	18.45
431.283	18.55
431.643	18.42
432.003	18.51
432.363	18.94
432.722	18.63
433.082	18.64
433.442	18.58
433.802	18.67
434.161	18.78
434.521	18.77
434.881	18.77
435.24	18.76
435.6	18.61
435.959	18.64
436.319	18.68
436.678	18.87
437.037	18.79
437.396	18.88
437.756	18.99
438.115	19.08
438.474	19.03
438.833	19.24
439.192	19.1
439.551	19.17
439.91	19.4
440.269	19.38
440.628	19.06
440.987	19.24
441.345	19.23
441.704	19.32
442.063	19.2
442.421	19.16
442.78	19.23
443.138	19.23
443.497	19.22
443.855	19.45
444.214	19.37
444.572	19.61
444.93	19.78
445.288	19.52
445.647	19.75
446.005	19.9
446.363	19.65
446.721	19.71
447.079	19.43
447.437	19.73
447.795	19.67
448.153	19.57
448.51	19.49
448.868	19.54
449.226	19.68
449.584	19.71
449.941	19.68
450.299	19.91
450.656	20.05
451.014	20.18
451.371	20.06
451.729	20.33
452.086	20.24
452.443	20.37
452.801	20.39
453.158	20.67
453.515	20.73
453.872	20.44
454.229	20.56
454.586	20.58
454.943	20.71
455.3	20.58
455.657	20.57
456.014	20.78
456.371	20.85
456.727	20.92
457.084	20.86
457.441	20.72
457.797	20.87
458.154	20.93
458.51	20.93
458.867	21.1
459.223	21
459.58	21.22
459.936	21.21
460.292	21.21
460.648	21.12
461.005	20.95
461.361	21.1
461.717	20.88
462.073	20.77
462.429	20.76
462.785	20.86
463.141	21.07
463.496	21.21
463.852	21.26
464.208	21.29
464.564	21.56
464.919	21.45
465.275	21.8
465.631	21.72
465.986	21.82
466.342	21.95
466.697	21.9
467.052	21.73
467.408	21.7
467.763	21.78
468.118	22.2
468.473	21.84
468.829	21.79
469.184	21.86
469.539	22.1
469.894	22.1
470.249	22.14
470.603	22
470.958	21.95
471.313	22.29
471.668	22.12
472.023	22.29
472.377	22.29
472.732	22.14
473.086	22.37
473.441	22.18
473.795	22.53
474.15	22.38
474.504	22.53
474.859	22.53
475.213	22.37
475.567	22.55
475.921	22.69
476.275	22.77
476.63	22.63
476.984	22.69
477.338	23.04
477.692	23.03
478.045	22.96
478.399	22.78
478.753	22.91
479.107	22.94
479.461	22.87
479.814	22.83
480.168	22.85
480.521	22.9
480.875	23.04
481.228	23.1
481.582	22.89
481.935	23.07
482.289	22.99
482.642	22.93
482.995	23.02
483.348	23.02
483.701	22.96
484.055	22.99
484.408	23
484.761	23.01
485.114	22.67
485.466	22.37
485.819	22.25
486.172	22.2
486.525	22.27
486.878	22.22
487.23	22.49
487.583	22.65
487.936	22.79
488.288	22.95
488.641	22.99
488.993	22.88
489.345	22.78
489.698	22.67
490.05	22.73
490.402	22.8
490.754	22.79
491.107	22.94
491.459	23.12
491.811	23.32
492.163	23.56
492.515	23.59
492.866	23.54
493.218	23.49
493.57	23.39
493.922	23.19
494.274	23.24
494.625	23.34
494.977	23.49
495.328	23.78
495.68	23.92
496.031	24.07
496.383	24.21
496.734	24.42
497.086	24.44
497.437	24.6
497.788	24.46
498.139	24.61
498.49	24.61
498.842	24.37
499.193	24.26
499.544	24.38
499.894	24.38
500.245	24.46
500.596	24.63
500.947	24.65
501.298	24.75
501.648	24.67
501.999	24.83
502.35	25.04
502.7	24.92
503.051	24.94
503.401	25.11
503.752	25.2
504.102	25.13
504.452	25.15
504.803	25.18
505.153	25.29
505.503	25.33
505.853	25.31
506.203	25.28
506.553	25.43
506.903	25.26
507.253	25.32
507.603	25.5
507.953	25.45
508.303	25.4
508.652	25.46
509.002	25.64
509.352	25.53
509.701	25.7
510.051	25.59
510.4	25.6
510.75	25.56
511.099	25.42
511.449	25.53
511.798	25.59
512.147	25.66
512.496	25.67
512.846	25.69
513.195	25.86
513.544	25.97
513.893	25.82
514.242	25.96
514.591	25.95
514.939	26.06
515.288	26.01
515.637	26.14
515.986	26.28
516.334	26.25
516.683	26.27
517.032	26.5
517.38	26.48
517.729	26.38
518.077	26.61
518.426	26.51
518.774	26.54
519.122	26.38
519.47	26.54
519.819	26.39
520.167	26.41
520.515	26.32
520.863	26.23
521.211	26.2
521.559	26.26
521.907	26.39
522.255	26.54
522.602	26.63
522.95	26.68
523.298	26.93
523.645	27.03
523.993	27.1
524.341	26.97
524.688	27.21
525.036	27.06
525.383	27.17
525.73	27.29
526.078	27.08
526.425	27.2
526.772	27.35
527.119	27.15
527.466	26.92
527.814	26.99
528.161	26.73
528.508	26.97
528.854	26.98
529.201	27.12
529.548	27.17
529.895	27.02
530.242	26.78
530.588	26.63
530.935	26.59
531.282	26.64
531.628	26.69
531.975	26.77
532.321	26.9
532.667	27.11
533.014	27.27
533.36	27.44
533.706	27.36
534.052	27.62
534.399	27.68
534.745	27.6
535.091	27.38
535.437	27.28
535.783	27.23
536.129	27.37
536.474	27.5
536.82	27.58
537.166	27.87
537.512	27.95
537.857	28.06
538.203	28.2
538.549	28.08
538.894	27.79
539.239	27.95
539.585	28.07
539.93	28.2
540.276	28.31
540.621	28.3
540.966	28.6
541.311	28.58
541.656	28.8
542.001	28.79
542.346	28.62
542.691	28.53
543.036	28.22
543.381	28.09
543.726	27.95
544.071	28.01
544.415	28.1
544.76	28.3
545.105	28.31
545.449	28.38
545.794	28.5
546.138	28.68
546.483	28.94
546.827	29.04
547.171	29.18
547.516	29.14
547.86	29.21
548.204	29.29
548.548	29.2
548.892	29.05
549.236	29.2
549.58	29.33
549.924	29.38
550.268	29.55
550.612	29.61
550.956	29.76
551.3	29.89
551.643	29.77
551.987	30.18
552.33	29.83
552.674	30.23
553.017	30.07
553.361	30.24
553.704	30.11
554.048	30.15
554.391	30.2
554.734	30.08
555.077	30.09
555.42	30.21
555.764	30.05
556.107	30.34
556.45	30.28
556.793	30.28
557.135	30.46
557.478	30.71
557.821	30.63
558.164	30.93
558.507	30.99
558.849	30.79
559.192	30.79
559.534	31.06
559.877	30.96
560.219	30.97
560.562	31.12
560.904	31.27
561.246	31.22
561.589	31.23
561.931	31.23
562.273	31
562.615	31.29
562.957	31.25
563.299	31.17
563.641	31.27
563.983	31.35
564.325	31.36
564.667	31.34
565.008	31.42
565.35	31.62
565.692	31.58
566.033	31.63
566.375	31.67
566.716	31.54
567.058	31.55
567.399	31.64
567.741	31.74
568.082	31.52
568.423	31.75
568.764	31.54
569.105	31.32
569.447	31.71
569.788	31.57
570.129	31.73
570.47	32.09
570.811	31.92
571.151	31.93
571.492	31.9
571.833	31.72
572.174	32.19
572.514	31.99
572.855	32.23
573.195	32.28
573.536	32.1
573.876	31.91
574.217	31.95
574.557	32.05
574.898	32.23
575.238	32.15
575.578	32.32
575.918	32.4
576.258	32.43
576.598	32.4
576.938	32.51
577.278	32.69
577.618	32.34
577.958	32.44
578.298	32.8
578.638	32.5
578.977	32.85
579.317	32.85
579.657	32.75
579.996	33
580.336	33.29
580.675	32.89
581.014	33.2
581.354	33.31
581.693	33.3
582.032	33.53
582.372	33.46
582.711	33.39
583.05	33.52
583.389	33.4
583.728	33.71
584.067	33.41
584.406	33.79
584.745	33.52
585.083	33.6
585.422	33.84
585.761	33.75
586.1	33.92
586.438	33.93
586.777	33.91
587.115	34.28
587.454	34.03
587.792	33.94
588.13	34.32
588.469	33.78
588.807	34.1
589.145	34.12
589.483	33.87
589.821	34.21
590.159	34.24
590.497	34.55
590.835	34.18
591.173	34.11
591.511	34.22
591.849	34.15
592.187	34.44
592.524	34.3
592.862	34.4
593.2	34.36
593.537	34.66
593.875	34.43
594.212	34.89
594.55	34.75
594.887	34.79
595.224	34.71
595.561	34.77
595.899	34.67
596.236	34.93
596.573	35.09
596.91	34.79
597.247	34.87
597.584	34.94
597.921	34.87
598.258	35.25
598.594	34.62
598.931	34.82
599.268	34.62
599.604	34.87
599.941	34.63
600.277	34.72
600.614	35.07
600.95	35.1
601.287	35.05
601.623	35.5
601.959	35.35
602.296	35.33
602.632	35.45
602.968	35.57
603.304	35.56
603.64	35.8
603.976	35.56
604.312	35.6
604.648	35.59
604.984	35.6
605.319	35.89
605.655	35.52
605.991	35.66
606.326	35.71
606.662	35.33
606.998	35.33
607.333	35.55
607.668	35.74
608.004	35.6
608.339	35.66
608.674	35.8
609.01	35.82
609.345	35.96
609.68	36.28
610.015	36.4
610.35	36.25
610.685	36.13
611.02	35.99
611.355	36.37
611.689	36.2
612.024	36.22
612.359	36.08
612.694	36.14
613.028	36.07
613.363	36.26
613.697	36.29
614.032	36.35
614.366	36.66
614.7	36.9
615.035	36.86
615.369	36.33
615.703	36.81
616.037	36.97
616.371	36.99
616.705	36.81
617.039	36.81
617.373	36.88
617.707	36.85
618.041	37.19
618.375	36.67
618.709	36.82
619.042	37.36
619.376	37.37
619.71	36.85
620.043	37.03
620.377	37.17
620.71	37.36
621.043	37.37
621.377	37.64
621.71	37.24
622.043	37.32
622.376	37.36
622.709	37.19
623.043	37.64
623.376	37.12
623.709	37.52
624.041	37.66
624.374	37.23
624.707	38.2
625.04	37.57
625.373	37.54
625.705	37.35
626.038	37.6
626.37	37.86
626.703	37.59
627.035	37.94
627.368	37.5
627.7	38.34
628.032	37.74
628.365	38.34
628.697	37.9
629.029	38.18
629.361	38.28
629.693	37.8
630.025	38.14
630.357	37.81
630.689	38.08
631.021	38.15
631.353	38.16
631.684	38.43
632.016	38.16
632.348	38.56
632.679	38.18
633.011	38.63
633.342	38.03
633.674	38.58
634.005	38.57
634.336	38.62
634.668	38.76
634.999	38.37
635.33	38.91
635.661	38.26
635.992	38.78
636.323	38.34
636.654	38.65
636.985	38.7
637.316	38.72
637.647	39.1
637.977	38.66
638.308	39.07
638.639	38.9
638.969	39.07
639.3	38.6
639.63	39.17
639.961	38.81
640.291	38.91
640.622	39.19
640.952	39.68
641.282	39.53
641.612	39.41
641.943	39.14
642.273	39.35
642.603	39.34
642.933	39.27
643.263	38.88
643.592	39.51
643.922	39.68
644.252	39.63
644.582	40.35
644.911	39.73
645.241	39.84
645.571	39.85
645.9	39.91
646.23	39.46
646.559	39.58
646.888	40.19
647.218	39.72
647.547	39.92
647.876	40.06
648.205	39.46
648.534	40.09
648.863	40.18
649.192	40.2
649.521	40.1
649.85	39.8
650.179	40.25
650.508	40.17
650.837	40.2
651.165	40.09
651.494	40.16
651.822	40.52
652.151	40.24
652.479	40.37
652.808	39.73
653.136	40.48
653.465	40.26
653.793	40.26
654.121	40.26
654.449	40.53
654.777	40.59
655.105	40.67
655.433	40.41
655.761	40.93
656.089	40.72
656.417	40.55
656.745	40.9
657.073	40.71
657.4	40.86
657.728	40.95
658.056	40.88
658.383	41.38
658.711	40.56
659.038	40.61
659.365	41.02
659.693	40.71
660.02	41.12
660.347	41.29
660.674	41.16
661.001	40.71
661.329	40.93
661.656	40.69
661.982	40.7
662.309	41.27
662.636	41.23
662.963	41.2
663.29	40.84
663.616	40.86
663.943	41.22
664.27	41.33
664.596	41.3
664.923	40.93
665.249	41.59
665.576	41.3
665.902	41.39
666.228	42.19
666.554	41.41
666.881	41.77
667.207	41.82
667.533	41.62
667.859	41.67
668.185	42.19
668.511	41.45
668.837	41.4
669.162	42.51
669.488	42.19
669.814	41.81
670.139	41.9
670.465	42.48
670.791	42.36
671.116	42.53
