Data from 0280_forehead_Reflection__3__332.txt Node

Date: Fri Sep 22 23:21:18 CDT 2023
User: ToomeyLab
Spectrometer: FLMS14357
Trigger mode: 0
Integration Time (sec): 1.000000E-2
Scans to average: 100
Electric dark correction enabled: true
Nonlinearity correction enabled: false
Boxcar width: 0
XAxis mode: Wavelengths
Number of Pixels in Spectrum: 2048
>>>>>Begin Spectral Data<<<<<
189.047	-157.25
189.435	-157.25
189.823	-157.25
190.211	-17.16
190.599	31.8
190.987	188.3
191.375	41.72
191.763	477.82
192.151	-38.71
192.538	-33.87
192.926	116.3
193.314	40.87
193.702	446.64
194.089	140.25
194.477	-474.95
194.864	-90
195.252	10.59
195.639	-68.15
196.027	339.11
196.414	132.63
196.801	327.58
197.189	-2.46
197.576	74.15
197.963	-63.73
198.351	13.8
198.738	4.75
199.125	2.95
199.512	24.03
199.899	36.86
200.286	45.81
200.673	-4.18
201.06	45.03
201.447	30.36
201.833	0.8
202.22	25.66
202.607	44.82
202.994	50.7
203.38	77.27
203.767	6.35
204.154	75.37
204.54	21.46
204.927	-33.63
205.313	35.28
205.699	54.57
206.086	28.86
206.472	38.67
206.858	24.97
207.245	11.36
207.631	47.63
208.017	47.67
208.403	23.31
208.789	35.4
209.175	49.14
209.561	47.46
209.947	51.34
210.333	37.99
210.719	-4.45
211.105	49.31
211.491	30.25
211.876	37.07
212.262	27.51
212.648	11.89
213.034	55.78
213.419	5.23
213.805	16.48
214.19	-5.81
214.576	39.58
214.961	20.68
215.346	10.8
215.732	36.92
216.117	20.03
216.502	39.59
216.888	40.68
217.273	15.41
217.658	34.84
218.043	25.66
218.428	36.36
218.813	4.27
219.198	6.18
219.583	6.17
219.968	-7.26
220.353	29.33
220.738	18.47
221.122	6.18
221.507	13.15
221.892	34.12
222.276	6.88
222.661	3.87
223.046	14.46
223.43	24.27
223.815	18.96
224.199	-4.76
224.583	22.19
224.968	21.88
225.352	-4.26
225.736	6.5
226.121	4.84
226.505	2.03
226.889	2.56
227.273	3.42
227.657	5.98
228.041	2.98
228.425	13.83
228.809	2.38
229.193	3.47
229.577	4.76
229.961	2.84
230.344	4.54
230.728	2.78
231.112	2.91
231.495	2.56
231.879	2.42
232.263	2.15
232.646	2.53
233.03	2.91
233.413	3.41
233.797	3.04
234.18	3.73
234.563	5.94
234.946	3.94
235.33	2.35
235.713	1.18
236.096	0.7
236.479	1.16
236.862	4.53
237.245	2.28
237.628	3.43
238.011	2.62
238.394	3.5
238.777	5.48
239.16	2.89
239.543	5.24
239.925	4.05
240.308	4.01
240.691	3.16
241.073	3.61
241.456	3.12
241.838	2.05
242.221	3.4
242.603	2.31
242.986	3.28
243.368	1.99
243.75	2.62
244.133	3.2
244.515	2.9
244.897	2.17
245.279	1.93
245.661	2.26
246.043	2.18
246.425	2.4
246.807	2.16
247.189	1.95
247.571	3.1
247.953	3.43
248.335	2.64
248.717	2.31
249.098	2.2
249.48	2.16
249.862	2.18
250.243	2.57
250.625	2.42
251.006	1.76
251.388	2.5
251.769	2.68
252.151	2.56
252.532	2.95
252.913	2.93
253.295	4.02
253.676	2.87
254.057	3.27
254.438	3.12
254.819	1.92
255.2	2.33
255.581	2.48
255.962	3.31
256.343	2.78
256.724	2.04
257.105	1.7
257.486	2.41
257.867	2.67
258.247	3.91
258.628	3.62
259.009	2.28
259.389	2.99
259.77	3.21
260.15	2.57
260.531	2.23
260.911	2.27
261.292	2.44
261.672	2.43
262.052	2.26
262.432	2.41
262.813	2.41
263.193	2.65
263.573	2.95
263.953	2.55
264.333	3.03
264.713	2.47
265.093	2.66
265.473	2.62
265.853	2.26
266.233	3.16
266.612	1.79
266.992	2.7
267.372	3.42
267.752	3.16
268.131	2.66
268.511	2.63
268.89	3.04
269.27	2.29
269.649	2.86
270.029	2.33
270.408	2.29
270.787	2.6
271.167	2.63
271.546	2.23
271.925	2.28
272.304	2.05
272.683	2.42
273.062	2.9
273.441	2.54
273.82	2.92
274.199	2.58
274.578	2.77
274.957	2.53
275.336	2.72
275.715	2.4
276.093	2.43
276.472	2.47
276.851	2.59
277.229	1.88
277.608	2.74
277.986	2.24
278.365	2.6
278.743	2.27
279.122	2.58
279.5	2.52
279.878	2.6
280.257	3.49
280.635	2.36
281.013	2.25
281.391	2.29
281.769	2.79
282.147	2.48
282.525	2.53
282.903	2.55
283.281	2.97
283.659	2.95
284.037	2.31
284.415	2.56
284.792	2.16
285.17	2.46
285.548	2.74
285.925	2.64
286.303	2.64
286.68	2.24
287.058	2.59
287.435	2.6
287.813	2.57
288.19	2.36
288.567	2.47
288.945	2.84
289.322	2.6
289.699	2.49
290.076	2.6
290.453	2.33
290.83	2.18
291.207	3.07
291.584	2.57
291.961	2.39
292.338	2.99
292.715	3.08
293.092	2.72
293.469	2.77
293.845	3.02
294.222	3.4
294.599	3.17
294.975	3.33
295.352	3.66
295.728	3.36
296.105	3.34
296.481	2.95
296.858	3.25
297.234	3.36
297.61	3.49
297.986	3.35
298.363	3.39
298.739	3.45
299.115	3.54
299.491	3.68
299.867	3.43
300.243	3.18
300.619	3.76
300.995	3.57
301.371	3.95
301.746	4.3
302.122	3.34
302.498	4.02
302.874	3.25
303.249	3.89
303.625	3.2
304	4.02
304.376	4.44
304.751	4.16
305.127	4.16
305.502	4.77
305.878	4.1
306.253	4.21
306.628	4
307.003	4.19
307.378	3.94
307.754	4.15
308.129	4.17
308.504	4.68
308.879	4.38
309.254	4.64
309.629	4.77
310.003	4.46
310.378	5.18
310.753	4.69
311.128	4.44
311.502	4.65
311.877	4.63
312.252	4.61
312.626	4.73
313.001	5.29
313.375	5.12
313.75	5.18
314.124	5.38
314.498	4.71
314.873	5.18
315.247	5.24
315.621	5.21
315.995	5.45
316.369	5.27
316.743	5.7
317.117	5.85
317.491	5.87
317.865	5.2
318.239	6
318.613	6.57
318.987	5.72
319.361	5.64
319.734	5.64
320.108	6.65
320.482	6.11
320.855	5.81
321.229	6.55
321.602	6.35
321.976	6.57
322.349	6.68
322.723	5.96
323.096	6.83
323.469	6.1
323.843	5.82
324.216	6.61
324.589	6.57
324.962	6.15
325.335	6.09
325.708	6.58
326.081	7.05
326.454	6.09
326.827	6.52
327.2	7.09
327.573	7.01
327.945	6.7
328.318	6.78
328.691	7.46
329.063	6.46
329.436	6.58
329.809	6.53
330.181	7.13
330.553	7.34
330.926	7.04
331.298	7.38
331.671	7.35
332.043	6.48
332.415	7.29
332.787	7.34
333.159	7.16
333.532	6.97
333.904	7.41
334.276	7.24
334.648	6.62
335.02	7.35
335.391	7.18
335.763	8.14
336.135	7.05
336.507	7.5
336.879	7.55
337.25	8.11
337.622	7.97
337.993	7.96
338.365	8.14
338.736	7.81
339.108	7.87
339.479	7.57
339.851	7.35
340.222	7.45
340.593	7.75
340.964	7.6
341.336	7.9
341.707	7.88
342.078	8.05
342.449	8.34
342.82	7.78
343.191	7.66
343.562	8.14
343.933	8.09
344.303	8.29
344.674	8.09
345.045	8.34
345.416	8.6
345.786	8.5
346.157	8.53
346.527	8.03
346.898	8.3
347.268	8.21
347.639	8.45
348.009	8.37
348.38	8.57
348.75	8.81
349.12	8.86
349.49	9.05
349.861	8.61
350.231	8.76
350.601	8.65
350.971	9.06
351.341	8.46
351.711	8.64
352.081	8.45
352.45	8.71
352.82	9.05
353.19	9.39
353.56	9.05
353.929	9.32
354.299	9.51
354.669	8.95
355.038	9.02
355.408	9
355.777	9.74
356.147	9.48
356.516	9.53
356.885	8.94
357.254	9.5
357.624	8.89
357.993	9.21
358.362	9.33
358.731	9.43
359.1	9.29
359.469	9.73
359.838	9.39
360.207	9.37
360.576	9.58
360.945	9.51
361.314	9.65
361.682	10.17
362.051	9.66
362.42	9.71
362.788	9.27
363.157	9.84
363.525	9.45
363.894	9.53
364.262	9.72
364.631	9.7
364.999	9.72
365.367	10.06
365.735	9.93
366.104	9.95
366.472	10.36
366.84	9.95
367.208	10.31
367.576	10.15
367.944	10.09
368.312	10.25
368.68	10.19
369.048	10.41
369.416	10.34
369.783	10.34
370.151	10.35
370.519	10.73
370.886	10.32
371.254	11.01
371.621	10.62
371.989	10.73
372.356	10.53
372.724	10.81
373.091	10.99
373.458	10.89
373.826	11
374.193	11.21
374.56	10.72
374.927	11.02
375.294	10.84
375.661	10.95
376.028	10.89
376.395	11.45
376.762	10.91
377.129	11.21
377.496	11.87
377.863	11.14
378.229	11.35
378.596	11.21
378.963	11.4
379.329	11.24
379.696	11.43
380.062	11.23
380.429	11.39
380.795	11.4
381.161	11.58
381.528	11.44
381.894	11.23
382.26	11.36
382.626	11.64
382.993	11.64
383.359	11.43
383.725	11.95
384.091	11.88
384.457	11.68
384.823	11.63
385.188	12.14
385.554	11.79
385.92	12.11
386.286	11.95
386.651	11.92
387.017	12.04
387.383	11.95
387.748	11.91
388.114	12.15
388.479	12.21
388.845	12.01
389.21	12.27
389.575	12.4
389.94	12.29
390.306	12.39
390.671	12.6
391.036	12.01
391.401	12.42
391.766	12.47
392.131	12.59
392.496	12.36
392.861	12.5
393.226	12.31
393.591	12.65
393.956	12.42
394.32	12.65
394.685	12.49
395.05	12.83
395.414	12.69
395.779	12.64
396.143	12.77
396.508	12.7
396.872	12.7
397.236	12.74
397.601	12.62
397.965	13.28
398.329	13.05
398.694	13.08
399.058	13.09
399.422	13.18
399.786	13.28
400.15	13.17
400.514	13.24
400.878	13.22
401.242	13.4
401.605	13.5
401.969	13.15
402.333	13.18
402.697	13.48
403.06	13.47
403.424	13.46
403.787	13.51
404.151	13.39
404.514	13.69
404.878	13.83
405.241	13.75
405.604	13.53
405.968	13.72
406.331	13.54
406.694	13.69
407.057	13.61
407.42	13.76
407.783	13.95
408.146	13.86
408.509	13.69
408.872	13.95
409.235	13.86
409.598	13.84
409.961	14.02
410.323	14
410.686	13.79
411.049	14.56
411.411	14.36
411.774	14.19
412.136	14.07
412.499	14.13
412.861	14.18
413.223	14.19
413.586	14.21
413.948	14.36
414.31	14.28
414.672	14.37
415.035	14.46
415.397	14.88
415.759	14.67
416.121	14.5
416.483	14.33
416.845	14.81
417.206	14.51
417.568	14.51
417.93	14.55
418.292	14.68
418.653	14.56
419.015	14.55
419.377	14.34
419.738	14.64
420.1	14.52
420.461	14.59
420.822	14.47
421.184	14.55
421.545	14.57
421.906	14.52
422.267	14.57
422.629	14.73
422.99	14.77
423.351	14.47
423.712	14.54
424.073	14.73
424.434	14.77
424.795	14.8
425.155	14.91
425.516	14.91
425.877	14.82
426.238	14.83
426.598	14.82
426.959	14.87
427.32	14.94
427.68	15.01
428.041	15.12
428.401	15.11
428.761	15.23
429.122	15.36
429.482	15.49
429.842	15.48
430.202	15.62
430.563	15.63
430.923	15.72
431.283	15.81
431.643	15.63
432.003	15.76
432.363	15.92
432.722	15.93
433.082	15.91
433.442	15.82
433.802	15.89
434.161	15.77
434.521	15.97
434.881	15.97
435.24	15.86
435.6	15.8
435.959	15.89
436.319	15.83
436.678	16.02
437.037	16.06
437.396	16
437.756	16.27
438.115	16.27
438.474	16.36
438.833	16.26
439.192	16.35
439.551	16.23
439.91	16.53
440.269	16.37
440.628	16.28
440.987	16.32
441.345	16.46
441.704	16.5
442.063	16.31
442.421	16.28
442.78	16.25
443.138	16.41
443.497	16.4
443.855	16.61
444.214	16.51
444.572	16.6
444.93	16.72
445.288	16.65
445.647	16.65
446.005	16.64
446.363	16.71
446.721	16.91
447.079	16.63
447.437	16.84
447.795	16.82
448.153	16.62
448.51	16.69
448.868	16.6
449.226	16.78
449.584	16.81
449.941	16.73
450.299	16.99
450.656	17.15
451.014	17.21
451.371	17.09
451.729	17.21
452.086	17.33
452.443	17.37
452.801	17.4
453.158	17.35
453.515	17.6
453.872	17.48
454.229	17.55
454.586	17.58
454.943	17.54
455.3	17.46
455.657	17.64
456.014	17.71
456.371	17.81
456.727	17.87
457.084	17.89
457.441	17.79
457.797	17.8
458.154	17.95
458.51	17.98
458.867	18.02
459.223	18.07
459.58	17.97
459.936	18.13
460.292	18.26
460.648	17.93
461.005	17.99
461.361	18.04
461.717	17.82
462.073	17.85
462.429	17.67
462.785	17.79
463.141	18.12
463.496	18.24
463.852	18.35
464.208	18.3
464.564	18.53
464.919	18.4
465.275	18.6
465.631	18.84
465.986	18.85
466.342	18.82
466.697	18.7
467.052	18.7
467.408	18.88
467.763	18.73
468.118	19.08
468.473	18.74
468.829	18.71
469.184	18.85
469.539	18.95
469.894	19.01
470.249	19.03
470.603	19.03
470.958	19.01
471.313	19.04
471.668	19.12
472.023	19.21
472.377	19.15
472.732	19.26
473.086	19.25
473.441	19
473.795	19.2
474.15	19.27
474.504	19.49
474.859	19.34
475.213	19.08
475.567	19.24
475.921	19.48
476.275	19.5
476.63	19.53
476.984	19.61
477.338	19.67
477.692	19.68
478.045	19.7
478.399	19.65
478.753	19.6
479.107	19.77
479.461	19.73
479.814	19.71
480.168	19.76
480.521	19.84
480.875	19.7
481.228	19.69
481.582	19.67
481.935	19.95
482.289	20.04
482.642	19.86
482.995	19.85
483.348	20.03
483.701	19.7
484.055	19.92
484.408	19.74
484.761	19.77
485.114	19.5
485.466	19.42
485.819	19.08
486.172	18.96
486.525	19.08
486.878	19.32
487.23	19.5
487.583	19.62
487.936	19.74
488.288	19.88
488.641	19.9
488.993	19.81
489.345	19.65
489.698	19.57
490.05	19.65
490.402	19.62
490.754	19.67
491.107	19.77
491.459	20.12
491.811	20.33
492.163	20.39
492.515	20.41
492.866	20.44
493.218	20.3
493.57	20.18
493.922	19.98
494.274	20.01
494.625	20.2
494.977	20.47
495.328	20.51
495.68	20.83
496.031	20.94
496.383	21.01
496.734	21.17
497.086	21.08
497.437	21.12
497.788	21.17
498.139	21.48
498.49	21.41
498.842	21.18
499.193	21.07
499.544	21.22
499.894	21.17
500.245	21.42
500.596	21.32
500.947	21.53
501.298	21.44
501.648	21.75
501.999	21.63
502.35	21.72
502.7	21.63
503.051	21.78
503.401	21.77
503.752	21.82
504.102	21.85
504.452	21.96
504.803	22.01
505.153	21.99
505.503	21.97
505.853	22.04
506.203	22.16
506.553	22.04
506.903	22.07
507.253	22.04
507.603	22.06
507.953	22.29
508.303	22.35
508.652	22.27
509.002	22.29
509.352	22.37
509.701	22.46
510.051	22.28
510.4	22.4
510.75	22.19
511.099	22.25
511.449	22.41
511.798	22.34
512.147	22.31
512.496	22.39
512.846	22.52
513.195	22.53
513.544	22.52
513.893	22.67
514.242	22.48
514.591	22.73
514.939	22.78
515.288	22.85
515.637	22.94
515.986	22.81
516.334	23.02
516.683	22.93
517.032	23.13
517.38	22.86
517.729	23.04
518.077	23.11
518.426	23.26
518.774	23.32
519.122	23.17
519.47	23.16
519.819	22.98
520.167	22.97
520.515	23.04
520.863	22.77
521.211	22.83
521.559	22.95
521.907	23.21
522.255	23.34
522.602	23.33
522.95	23.42
523.298	23.58
523.645	23.6
523.993	23.55
524.341	23.75
524.688	23.71
525.036	23.65
525.383	23.88
525.73	23.75
526.078	23.83
526.425	23.82
526.772	23.99
527.119	23.81
527.466	23.56
527.814	23.5
528.161	23.5
528.508	23.56
528.854	23.67
529.201	23.75
529.548	23.77
529.895	23.65
530.242	23.39
530.588	23.26
530.935	23.11
531.282	23.26
531.628	23.45
531.975	23.51
532.321	23.64
532.667	23.88
533.014	24.05
533.36	24.2
533.706	24.08
534.052	24.33
534.399	24.28
534.745	24.22
535.091	23.99
535.437	23.88
535.783	23.72
536.129	24.04
536.474	24.26
536.82	24.38
537.166	24.61
537.512	24.74
537.857	24.72
538.203	24.87
538.549	24.66
538.894	24.45
539.239	24.51
539.585	24.74
539.93	24.9
540.276	25.06
540.621	25.13
540.966	25.14
541.311	25.33
541.656	25.27
542.001	25.28
542.346	25.24
542.691	25.18
543.036	24.94
543.381	24.61
543.726	24.4
544.071	24.58
544.415	24.72
544.76	24.92
545.105	24.98
545.449	25.03
545.794	25.19
546.138	25.46
546.483	25.62
546.827	25.7
547.171	25.74
547.516	25.75
547.86	25.85
548.204	25.76
548.548	25.96
548.892	25.7
549.236	25.68
549.58	25.78
549.924	25.89
550.268	26.21
550.612	26.27
550.956	26.51
551.3	26.45
551.643	26.67
551.987	26.58
552.33	26.63
552.674	26.67
553.017	26.46
553.361	26.59
553.704	26.91
554.048	26.82
554.391	26.81
554.734	26.79
555.077	26.67
555.42	26.76
555.764	26.71
556.107	26.91
556.45	26.89
556.793	27.05
557.135	27.27
557.478	27.21
557.821	26.92
558.164	27.22
558.507	27.51
558.849	27.24
559.192	27.28
559.534	27.49
559.877	27.51
560.219	27.34
560.562	27.5
560.904	27.47
561.246	27.85
561.589	27.89
561.931	27.7
562.273	27.39
562.615	27.71
562.957	27.68
563.299	27.74
563.641	27.7
563.983	27.71
564.325	27.88
564.667	27.82
565.008	28.06
565.35	28.02
565.692	27.99
566.033	27.93
566.375	28.2
566.716	28.11
567.058	28.16
567.399	28.38
567.741	28.39
568.082	28.08
568.423	28.24
568.764	28.38
569.105	28.1
569.447	28.42
569.788	28.25
570.129	28.58
570.47	28.67
570.811	28.5
571.151	28.52
571.492	28.45
571.833	28.52
572.174	28.7
572.514	28.88
572.855	28.66
573.195	28.58
573.536	28.57
573.876	28.82
574.217	28.75
574.557	28.71
574.898	28.81
575.238	28.7
575.578	28.93
575.918	28.91
576.258	29.01
576.598	29.06
576.938	29.01
577.278	29.09
577.618	28.84
577.958	29.2
578.298	29.21
578.638	29.38
578.977	29.42
579.317	29.38
579.657	29.3
579.996	29.58
580.336	29.91
580.675	29.61
581.014	29.49
581.354	29.9
581.693	29.81
582.032	29.7
582.372	30.05
582.711	30.14
583.05	29.99
583.389	30.01
583.728	30.31
584.067	29.9
584.406	30.31
584.745	29.89
585.083	30.05
585.422	30.22
585.761	30.32
586.1	29.99
586.438	30.36
586.777	30.6
587.115	30.78
587.454	30.36
587.792	30.45
588.13	30.52
588.469	30.88
588.807	30.83
589.145	30.93
589.483	30.51
589.821	30.6
590.159	30.82
590.497	31.06
590.835	30.83
591.173	30.84
591.511	30.96
591.849	30.94
592.187	31.01
592.524	30.78
592.862	31.06
593.2	31.08
593.537	31.04
593.875	31.06
594.212	30.93
594.55	31.51
594.887	31.08
595.224	31.4
595.561	31.29
595.899	31.36
596.236	31.53
596.573	31.24
596.91	31.5
597.247	31.2
597.584	31.61
597.921	31.61
598.258	31.71
598.594	31.45
598.931	31.42
599.268	31.41
599.604	31.46
599.941	31.52
600.277	31.5
600.614	31.49
600.95	31.73
601.287	31.59
601.623	31.87
601.959	31.95
602.296	32.05
602.632	31.91
602.968	32.02
603.304	32.3
603.64	32
603.976	32.11
604.312	31.93
604.648	32.22
604.984	32.28
605.319	32.35
605.655	32.41
605.991	32.15
606.326	32.27
606.662	31.95
606.998	31.88
607.333	31.94
607.668	32.22
608.004	32.07
608.339	32.2
608.674	32.47
609.01	32.57
609.345	32.85
609.68	32.88
610.015	32.89
610.35	32.65
610.685	32.66
611.02	33.02
611.355	32.57
611.689	32.81
612.024	32.5
612.359	32.59
612.694	32.86
613.028	32.96
613.363	33.04
613.697	32.84
614.032	33.19
614.366	33.03
614.7	33.07
615.035	33.36
615.369	33.04
615.703	33.21
616.037	33.14
616.371	33.37
616.705	33.68
617.039	33.51
617.373	33.51
617.707	33.58
618.041	33.54
618.375	33.63
618.709	33.61
619.042	33.7
619.376	33.66
619.71	34.11
620.043	33.66
620.377	33.53
620.71	33.73
621.043	33.95
621.377	34.05
621.71	33.76
622.043	33.71
622.376	33.91
622.709	33.75
623.043	33.77
623.376	34.12
623.709	33.98
624.041	34.11
624.374	34.03
624.707	34.45
625.04	34.05
625.373	34.02
625.705	34.36
626.038	34.49
626.37	34.71
626.703	34.35
627.035	34.42
627.368	34.44
627.7	34.89
628.032	34.76
628.365	34.61
628.697	34.3
629.029	34.71
629.361	34.71
629.693	34.73
630.025	34.51
630.357	34.52
630.689	34.43
631.021	34.47
631.353	34.57
631.684	34.93
632.016	34.81
632.348	34.79
632.679	35
633.011	35.24
633.342	34.93
633.674	35.1
634.005	34.6
634.336	35.23
634.668	35.1
634.999	35.32
635.33	35.31
635.661	35.35
635.992	35.32
636.323	35.08
636.654	34.95
636.985	35.4
637.316	35.34
637.647	35.47
637.977	35.4
638.308	35.87
638.639	35.55
638.969	35.83
639.3	35.67
639.63	35.98
639.961	35.68
640.291	35.79
640.622	35.58
640.952	35.73
641.282	35.97
641.612	35.57
641.943	35.81
642.273	36.49
642.603	35.96
642.933	36.25
643.263	36.11
643.592	36.07
643.922	36.19
644.252	36.33
644.582	35.74
644.911	36.3
645.241	36.43
645.571	36.31
645.9	36.24
646.23	36.56
646.559	36.65
646.888	36.49
647.218	36.43
647.547	36.52
647.876	36.66
648.205	36.61
648.534	36.42
648.863	36.5
649.192	36.26
649.521	36.83
649.85	36.87
650.179	36.7
650.508	36.83
650.837	36.77
651.165	36.99
651.494	36.74
651.822	36.93
652.151	37.35
652.479	37.56
652.808	37.42
653.136	36.89
653.465	37.3
653.793	36.8
654.121	36.65
654.449	36.91
654.777	36.97
655.105	37.38
655.433	37.25
655.761	37.08
656.089	37.18
656.417	37.11
656.745	37.49
657.073	37.62
657.4	37.8
657.728	37.81
658.056	37.64
658.383	37.31
658.711	37.32
659.038	37.4
659.365	37.49
659.693	37.03
660.02	37.89
660.347	37.89
660.674	37.18
661.001	37.67
661.329	37.67
661.656	37.15
661.982	37.7
662.309	37.93
662.636	38.1
662.963	37.97
663.29	37.94
663.616	37.78
663.943	37.95
664.27	38.43
664.596	38.5
664.923	38.25
665.249	37.75
665.576	37.97
665.902	38.58
666.228	37.94
666.554	38.33
666.881	38.71
667.207	38.39
667.533	38.23
667.859	38.08
668.185	38.49
668.511	37.97
668.837	38.52
669.162	38.38
669.488	38.71
669.814	38.61
670.139	38.72
670.465	38.76
670.791	39.08
671.116	38.61
671.442	39.26
671.767	37.92
672.092	39.52
