Data from 0280_chest_Reflection__0__313.txt Node

Date: Fri Sep 22 23:10:59 CDT 2023
User: ToomeyLab
Spectrometer: FLMS14357
Trigger mode: 0
Integration Time (sec): 1.000000E-2
Scans to average: 100
Electric dark correction enabled: true
Nonlinearity correction enabled: false
Boxcar width: 0
XAxis mode: Wavelengths
Number of Pixels in Spectrum: 2048
>>>>>Begin Spectral Data<<<<<
189.047	24.89
189.435	24.89
189.823	24.89
190.211	30.84
190.599	46.9
190.987	441.52
191.375	84.93
191.763	987.27
192.151	-323.8
192.538	-53.66
192.926	182.86
193.314	16.19
193.702	413.36
194.089	273.6
194.477	-644.08
194.864	-118.41
195.252	59.46
195.639	115.86
196.027	460.32
196.414	-72.5
196.801	-56.67
197.189	137.46
197.576	54.06
197.963	-62.33
198.351	-22.84
198.738	13.11
199.125	-14.07
199.512	-6.91
199.899	44.04
200.286	-3.77
200.673	10.95
201.06	15.77
201.447	51.54
201.833	-10.93
202.22	50.98
202.607	41.82
202.994	69.99
203.38	-8.65
203.767	28.75
204.154	64.76
204.54	42.55
204.927	-0.7
205.313	63.05
205.699	59.14
206.086	5.92
206.472	52.11
206.858	23.63
207.245	5.87
207.631	1.92
208.017	15.04
208.403	31.57
208.789	36.34
209.175	40.05
209.561	40.25
209.947	25.38
210.333	21.52
210.719	42.84
211.105	19.38
211.491	12.44
211.876	55.57
212.262	14.77
212.648	33.15
213.034	3.58
213.419	3.89
213.805	-18.48
214.19	2.88
214.576	28.15
214.961	-17.57
215.346	14.64
215.732	29.25
216.117	-22.63
216.502	40.12
216.888	20.99
217.273	24.62
217.658	27.85
218.043	-0.1
218.428	43.31
218.813	-4.07
219.198	3.79
219.583	1.02
219.968	-3.17
220.353	18.33
220.738	17.51
221.122	26.07
221.507	2.98
221.892	9.57
222.276	1.07
222.661	-20.01
223.046	15.08
223.43	28.08
223.815	4.2
224.199	1.07
224.583	10.21
224.968	16.08
225.352	3.83
225.736	7.27
226.121	14.2
226.505	13.38
226.889	8.29
227.273	7.4
227.657	10.06
228.041	4.14
228.425	9.75
228.809	2.86
229.193	6.38
229.577	7.34
229.961	5.67
230.344	5.57
230.728	3.54
231.112	4.8
231.495	4.47
231.879	5.13
232.263	4.13
232.646	3.47
233.03	5.24
233.413	4.21
233.797	4.39
234.18	5.26
234.563	7.41
234.946	7.21
235.33	1.97
235.713	0.8
236.096	5.01
236.479	3.31
236.862	5.51
237.245	5.2
237.628	6.07
238.011	5.12
238.394	6.21
238.777	5.91
239.16	3.41
239.543	7.25
239.925	5.29
240.308	6.43
240.691	3.63
241.073	5.14
241.456	5.15
241.838	3.03
242.221	4
242.603	4.32
242.986	4.54
243.368	4.64
243.75	4.92
244.133	5.44
244.515	4.74
244.897	4.62
245.279	4.95
245.661	4.45
246.043	5.18
246.425	4.67
246.807	4.55
247.189	3.63
247.571	5.47
247.953	5.5
248.335	5.24
248.717	5.34
249.098	5.01
249.48	4.7
249.862	4.83
250.243	4.68
250.625	4.8
251.006	4.53
251.388	4.91
251.769	4.94
252.151	4.55
252.532	3.25
252.913	5.2
253.295	5.92
253.676	4.49
254.057	4.73
254.438	5.08
254.819	4.21
255.2	5.1
255.581	5.06
255.962	5.56
256.343	4.51
256.724	4.43
257.105	5.78
257.486	4.13
257.867	5.79
258.247	5.06
258.628	5.07
259.009	5.26
259.389	4.31
259.77	4.93
260.15	5.58
260.531	4.73
260.911	5.17
261.292	4.44
261.672	4.54
262.052	4.57
262.432	4.57
262.813	4.61
263.193	4.53
263.573	4.97
263.953	4.75
264.333	5.02
264.713	4.78
265.093	4.59
265.473	4.44
265.853	4
266.233	4.19
266.612	3.69
266.992	4.24
267.372	5
267.752	4.73
268.131	4.64
268.511	4.25
268.89	4.88
269.27	4.43
269.649	4.7
270.029	4.85
270.408	4.25
270.787	4.54
271.167	4.86
271.546	4.15
271.925	4.15
272.304	4.19
272.683	4.7
273.062	5.22
273.441	4.48
273.82	5.1
274.199	4.47
274.578	4.88
274.957	4.16
275.336	4.42
275.715	4.43
276.093	4.47
276.472	4.31
276.851	3.93
277.229	3.75
277.608	4.75
277.986	4.24
278.365	4.18
278.743	4.65
279.122	4.66
279.5	4.66
279.878	3.89
280.257	4.86
280.635	4.39
281.013	4.66
281.391	3.57
281.769	4.79
282.147	4.31
282.525	4.58
282.903	4.23
283.281	4.62
283.659	4.55
284.037	4.07
284.415	4.55
284.792	4.35
285.17	4.73
285.548	4.76
285.925	4.71
286.303	4.38
286.68	3.91
287.058	4
287.435	4.23
287.813	3.99
288.19	3.86
288.567	4.6
288.945	4.21
289.322	4.14
289.699	4.39
290.076	4.5
290.453	3.99
290.83	4.37
291.207	4.28
291.584	4.22
291.961	4.13
292.338	4.28
292.715	4.79
293.092	4.27
293.469	4.43
293.845	4.03
294.222	4.42
294.599	4.48
294.975	4.88
295.352	4.2
295.728	4.76
296.105	4.82
296.481	4.74
296.858	4.62
297.234	4.76
297.61	4.54
297.986	4.76
298.363	4.56
298.739	4.87
299.115	4.68
299.491	4.62
299.867	4.54
300.243	4.55
300.619	4.36
300.995	4.61
301.371	4.6
301.746	5.09
302.122	4.39
302.498	4.48
302.874	4.13
303.249	4.27
303.625	4.24
304	4.79
304.376	5.09
304.751	4.58
305.127	4.84
305.502	5.39
305.878	4.79
306.253	4.97
306.628	4.91
307.003	4.83
307.378	4.38
307.754	4.86
308.129	4.6
308.504	4.87
308.879	4.35
309.254	4.52
309.629	4.82
310.003	5.42
310.378	5.13
310.753	4.68
311.128	5.07
311.502	5.16
311.877	4.43
312.252	4.44
312.626	4.88
313.001	4.92
313.375	5.05
313.75	4.8
314.124	5.1
314.498	4.37
314.873	4.9
315.247	4.96
315.621	4.98
315.995	5.49
316.369	4.93
316.743	5.12
317.117	5.29
317.491	5.16
317.865	4.81
318.239	5.24
318.613	5.18
318.987	5.28
319.361	5.18
319.734	4.68
320.108	5.39
320.482	4.44
320.855	4.9
321.229	5.37
321.602	5.6
321.976	5.31
322.349	5.09
322.723	5.08
323.096	5.27
323.469	5.06
323.843	4.76
324.216	4.61
324.589	4.53
324.962	4.96
325.335	5.07
325.708	4.58
326.081	5.51
326.454	4.59
326.827	4.99
327.2	4.79
327.573	5.84
327.945	5
328.318	5.3
328.691	5.52
329.063	4.65
329.436	5.11
329.809	4.95
330.181	5.3
330.553	5.21
330.926	4.83
331.298	5.09
331.671	5.23
332.043	4.5
332.415	4.84
332.787	5.51
333.159	4.49
333.532	4.58
333.904	5.11
334.276	4.98
334.648	4.39
335.02	4.66
335.391	5.23
335.763	5.06
336.135	5.36
336.507	5.17
336.879	4.93
337.25	5.06
337.622	5.41
337.993	5.26
338.365	5.24
338.736	5.01
339.108	5.02
339.479	4.83
339.851	4.58
340.222	4.69
340.593	5.09
340.964	4.79
341.336	5.03
341.707	5.01
342.078	4.91
342.449	4.97
342.82	4.78
343.191	4.61
343.562	5.09
343.933	5.36
344.303	5.18
344.674	4.93
345.045	4.83
345.416	4.89
345.786	4.99
346.157	4.98
346.527	5.23
346.898	5.01
347.268	4.85
347.639	5.09
348.009	4.91
348.38	5.22
348.75	4.84
349.12	5.05
349.49	5.35
349.861	5.06
350.231	4.99
350.601	5.22
350.971	4.96
351.341	5.23
351.711	4.89
352.081	4.66
352.45	4.59
352.82	4.92
353.19	5.05
353.56	4.73
353.929	5.03
354.299	4.82
354.669	4.59
355.038	4.68
355.408	4.94
355.777	5.35
356.147	5.13
356.516	5.39
356.885	4.79
357.254	4.91
357.624	4.91
357.993	4.99
358.362	5.09
358.731	4.85
359.1	4.73
359.469	5.12
359.838	4.86
360.207	4.71
360.576	4.9
360.945	4.89
361.314	5.03
361.682	4.82
362.051	5.12
362.42	4.77
362.788	4.69
363.157	5.02
363.525	5.26
363.894	4.91
364.262	4.7
364.631	4.8
364.999	4.88
365.367	5.07
365.735	5.17
366.104	5.11
366.472	5.2
366.84	4.95
367.208	5.22
367.576	5.15
367.944	4.95
368.312	5.32
368.68	5.07
369.048	5.14
369.416	4.68
369.783	5.01
370.151	4.98
370.519	5.3
370.886	4.83
371.254	5.32
371.621	4.88
371.989	4.9
372.356	4.83
372.724	5.33
373.091	5.25
373.458	5.05
373.826	5.32
374.193	5.36
374.56	5.17
374.927	4.99
375.294	5.04
375.661	5.01
376.028	5.14
376.395	5.37
376.762	4.81
377.129	5.22
377.496	5.09
377.863	5.36
378.229	4.94
378.596	4.83
378.963	5.16
379.329	5.14
379.696	5.25
380.062	4.99
380.429	5.16
380.795	5.06
381.161	5.05
381.528	4.97
381.894	4.79
382.26	5.19
382.626	5.15
382.993	5.19
383.359	4.87
383.725	4.72
384.091	4.97
384.457	4.99
384.823	5
385.188	5.16
385.554	5.02
385.92	5.56
386.286	5.14
386.651	5.07
387.017	5.2
387.383	5.02
387.748	5.1
388.114	4.88
388.479	5.21
388.845	5.18
389.21	4.83
389.575	5.58
389.94	4.97
390.306	5.16
390.671	5.39
391.036	4.94
391.401	5.29
391.766	4.76
392.131	5.3
392.496	5.31
392.861	4.98
393.226	5.19
393.591	5.24
393.956	5.14
394.32	4.9
394.685	4.77
395.05	5.26
395.414	5.16
395.779	5.31
396.143	5.28
396.508	4.96
396.872	4.96
397.236	4.95
397.601	4.95
397.965	5.27
398.329	5.18
398.694	4.87
399.058	5.18
399.422	5.26
399.786	5.23
400.15	5.23
400.514	5.27
400.878	5.02
401.242	5.35
401.605	5.17
401.969	4.97
402.333	5.18
402.697	5.12
403.06	5.12
403.424	5.15
403.787	5.35
404.151	5.32
404.514	5.38
404.878	5.46
405.241	5.25
405.604	5.18
405.968	5.3
406.331	5.18
406.694	5.32
407.057	4.98
407.42	5.14
407.783	5.23
408.146	5.2
408.509	5.11
408.872	5.13
409.235	5.24
409.598	5.41
409.961	5.3
410.323	5.43
410.686	5.2
411.049	5.37
411.411	5.35
411.774	5.03
412.136	5.14
412.499	5.18
412.861	5.32
413.223	5.25
413.586	5.12
413.948	5.06
414.31	5.06
414.672	5.36
415.035	5.39
415.397	5.4
415.759	5.48
416.121	5.01
416.483	5.12
416.845	5.03
417.206	4.96
417.568	5.18
417.93	5.14
418.292	5.24
418.653	5.13
419.015	5.27
419.377	5.29
419.738	5.22
420.1	5.19
420.461	5.31
420.822	5.05
421.184	5.27
421.545	5.15
421.906	5.21
422.267	5.03
422.629	5.1
422.99	5.09
423.351	4.94
423.712	5.03
424.073	5.05
424.434	5.13
424.795	5.01
425.155	5.11
425.516	5.11
425.877	5.13
426.238	5.01
426.598	5.03
426.959	5.05
427.32	5.03
427.68	5.07
428.041	5.05
428.401	5.13
428.761	5.34
429.122	5.2
429.482	5.25
429.842	5.19
430.202	5.08
430.563	5.33
430.923	5.27
431.283	5.16
431.643	5.29
432.003	5.3
432.363	5.51
432.722	5.3
433.082	5.45
433.442	5.28
433.802	5.41
434.161	5.21
434.521	5.26
434.881	5.25
435.24	5.25
435.6	5.12
435.959	5.09
436.319	5.26
436.678	5.43
437.037	5.25
437.396	5.22
437.756	5.26
438.115	5.39
438.474	5.39
438.833	5.39
439.192	5.29
439.551	5.33
439.91	5.35
440.269	5.25
440.628	5.22
440.987	5.18
441.345	5.36
441.704	5.27
442.063	5.29
442.421	5.21
442.78	5.25
443.138	5.34
443.497	5.19
443.855	5.25
444.214	5.15
444.572	5.34
444.93	5.29
445.288	5.39
445.647	5.38
446.005	5.16
446.363	5.18
446.721	5.35
447.079	5.17
447.437	5.23
447.795	5.33
448.153	5.2
448.51	5.25
448.868	5.18
449.226	5.24
449.584	5.3
449.941	5.22
450.299	5.35
450.656	5.35
451.014	5.36
451.371	5.37
451.729	5.31
452.086	5.3
452.443	5.48
452.801	5.44
453.158	5.26
453.515	5.44
453.872	5.42
454.229	5.48
454.586	5.41
454.943	5.33
455.3	5.25
455.657	5.38
456.014	5.38
456.371	5.5
456.727	5.55
457.084	5.54
457.441	5.34
457.797	5.37
458.154	5.36
458.51	5.24
458.867	5.45
459.223	5.56
459.58	5.43
459.936	5.78
460.292	5.48
460.648	5.52
461.005	5.45
461.361	5.52
461.717	5.25
462.073	5.41
462.429	5.19
462.785	5.3
463.141	5.37
463.496	5.46
463.852	5.36
464.208	5.31
464.564	5.74
464.919	5.52
465.275	5.53
465.631	5.54
465.986	5.54
466.342	5.57
466.697	5.56
467.052	5.5
467.408	5.52
467.763	5.64
468.118	5.7
468.473	5.49
468.829	5.42
469.184	5.42
469.539	5.65
469.894	5.48
470.249	5.71
470.603	5.54
470.958	5.58
471.313	5.63
471.668	5.55
472.023	5.66
472.377	5.52
472.732	5.48
473.086	5.6
473.441	5.31
473.795	5.87
474.15	5.52
474.504	5.57
474.859	5.66
475.213	5.43
475.567	5.44
475.921	5.78
476.275	5.54
476.63	5.46
476.984	5.53
477.338	5.59
477.692	5.64
478.045	5.75
478.399	5.78
478.753	5.58
479.107	5.64
479.461	5.46
479.814	5.65
480.168	5.63
480.521	5.62
480.875	5.68
481.228	5.65
481.582	5.56
481.935	5.6
482.289	5.64
482.642	5.57
482.995	5.61
483.348	5.57
483.701	5.62
484.055	5.6
484.408	5.49
484.761	5.56
485.114	5.39
485.466	5.4
485.819	5.25
486.172	5.26
486.525	5.24
486.878	5.28
487.23	5.33
487.583	5.47
487.936	5.5
488.288	5.54
488.641	5.43
488.993	5.41
489.345	5.46
489.698	5.35
490.05	5.38
490.402	5.43
490.754	5.4
491.107	5.43
491.459	5.51
491.811	5.58
492.163	5.64
492.515	5.62
492.866	5.59
493.218	5.65
493.57	5.55
493.922	5.44
494.274	5.47
494.625	5.53
494.977	5.6
495.328	5.74
495.68	5.79
496.031	5.67
496.383	5.84
496.734	5.82
497.086	5.76
497.437	5.83
497.788	5.95
498.139	5.9
498.49	5.87
498.842	5.65
499.193	5.66
499.544	5.72
499.894	5.72
500.245	5.69
500.596	5.74
500.947	5.88
501.298	5.9
501.648	5.81
501.999	5.95
502.35	5.95
502.7	5.97
503.051	5.83
503.401	5.99
503.752	6.07
504.102	5.9
504.452	5.87
504.803	5.83
505.153	6.01
505.503	5.87
505.853	6.01
506.203	5.84
506.553	6.08
506.903	5.95
507.253	5.93
507.603	5.93
507.953	6.11
508.303	5.97
508.652	6.08
509.002	6.04
509.352	5.96
509.701	5.98
510.051	6.06
510.4	6.13
510.75	5.88
511.099	6.01
511.449	6.03
511.798	6.01
512.147	6.12
512.496	6.06
512.846	5.98
513.195	6
513.544	6.04
513.893	6.12
514.242	6.04
514.591	6.09
514.939	6.07
515.288	5.97
515.637	6.17
515.986	6.04
516.334	6.08
516.683	6.25
517.032	6.27
517.38	6.21
517.729	6.17
518.077	6.16
518.426	6.24
518.774	6.28
519.122	6.25
519.47	6.19
519.819	6.15
520.167	6.22
520.515	6.15
520.863	6.02
521.211	6.05
521.559	6.11
521.907	6.15
522.255	6.25
522.602	6.26
522.95	6.22
523.298	6.32
523.645	6.38
523.993	6.35
524.341	6.36
524.688	6.44
525.036	6.39
525.383	6.34
525.73	6.47
526.078	6.4
526.425	6.4
526.772	6.46
527.119	6.19
527.466	6.25
527.814	6.2
528.161	6.18
528.508	6.26
528.854	6.35
529.201	6.35
529.548	6.3
529.895	6.27
530.242	6.21
530.588	6.15
530.935	6.06
531.282	6.12
531.628	6.22
531.975	6.24
532.321	6.25
532.667	6.28
533.014	6.37
533.36	6.43
533.706	6.44
534.052	6.56
534.399	6.54
534.745	6.53
535.091	6.41
535.437	6.4
535.783	6.26
536.129	6.4
536.474	6.52
536.82	6.47
537.166	6.67
537.512	6.63
537.857	6.73
538.203	6.66
538.549	6.59
538.894	6.49
539.239	6.56
539.585	6.66
539.93	6.73
540.276	6.75
540.621	6.82
540.966	6.77
541.311	6.88
541.656	6.89
542.001	6.71
542.346	6.85
542.691	6.89
543.036	6.79
543.381	6.63
543.726	6.63
544.071	6.61
544.415	6.65
544.76	6.67
545.105	6.68
545.449	6.78
545.794	6.84
546.138	6.89
546.483	6.97
546.827	6.95
547.171	7.04
547.516	7.06
547.86	7.08
548.204	7.01
548.548	7.04
548.892	7.07
549.236	7.02
549.58	7
549.924	7.19
550.268	7.19
550.612	7.23
550.956	7.14
551.3	7.27
551.643	7.3
551.987	7.32
552.33	7.56
552.674	7.51
553.017	7.22
553.361	7.38
553.704	7.42
554.048	7.47
554.391	7.38
554.734	7.44
555.077	7.35
555.42	7.45
555.764	7.32
556.107	7.55
556.45	7.5
556.793	7.53
557.135	7.48
557.478	7.45
557.821	7.69
558.164	7.85
558.507	7.79
558.849	7.51
559.192	7.86
559.534	7.83
559.877	7.87
560.219	7.74
560.562	7.7
560.904	7.86
561.246	8.03
561.589	7.88
561.931	7.86
562.273	7.8
562.615	7.79
562.957	7.92
563.299	8.04
563.641	8.07
563.983	7.93
564.325	8.08
564.667	8.22
565.008	8.08
565.35	8.23
565.692	8.09
566.033	8
566.375	8.09
566.716	8.06
567.058	8.17
567.399	8.19
567.741	8.28
568.082	8.19
568.423	8.24
568.764	8.38
569.105	8.13
569.447	8.27
569.788	8.19
570.129	8.22
570.47	8.36
570.811	8.37
571.151	8.47
571.492	8.27
571.833	8.37
572.174	8.58
572.514	8.52
572.855	8.47
573.195	8.41
573.536	8.46
573.876	8.45
574.217	8.57
574.557	8.45
574.898	8.63
575.238	8.37
575.578	8.72
575.918	8.66
576.258	8.59
576.598	8.74
576.938	8.73
577.278	8.68
577.618	8.57
577.958	8.79
578.298	8.81
578.638	8.85
578.977	9.03
579.317	8.85
579.657	8.92
579.996	8.9
580.336	9.03
580.675	9.1
581.014	8.99
581.354	9.05
581.693	9.34
582.032	9.32
582.372	9.21
582.711	9.26
583.05	9.21
583.389	9.32
583.728	9.38
584.067	9.31
584.406	9.19
584.745	9.3
585.083	9.53
585.422	9.62
585.761	9.32
586.1	9.56
586.438	9.64
586.777	9.68
587.115	9.59
587.454	9.41
587.792	9.78
588.13	9.83
588.469	9.45
588.807	9.89
589.145	9.71
589.483	9.9
589.821	9.85
590.159	9.79
590.497	9.87
590.835	9.91
591.173	9.74
591.511	9.97
591.849	9.92
592.187	9.97
592.524	10.17
592.862	10.05
593.2	10.05
593.537	9.83
593.875	10.02
594.212	10.07
594.55	10.3
594.887	10.33
595.224	10.41
595.561	10.22
595.899	10.4
596.236	10.56
596.573	10.42
596.91	10.47
597.247	10.13
597.584	10.64
597.921	10.58
598.258	10.74
598.594	10.58
598.931	10.56
599.268	10.34
599.604	10.67
599.941	10.49
600.277	10.43
600.614	10.77
600.95	10.87
601.287	10.62
601.623	10.61
601.959	11.04
602.296	11.03
602.632	10.62
602.968	11
603.304	10.93
603.64	10.63
603.976	10.84
604.312	11.07
604.648	10.85
604.984	11.15
605.319	11.09
605.655	10.82
605.991	11.08
606.326	11.21
606.662	11.02
606.998	11.04
607.333	11.24
607.668	11.14
608.004	11.19
608.339	11.23
608.674	11.27
609.01	11.37
609.345	11.39
609.68	11.66
610.015	11.6
610.35	11.54
610.685	11.63
611.02	11.47
611.355	11.43
611.689	11.73
612.024	11.71
612.359	11.41
612.694	11.38
613.028	11.59
613.363	11.66
613.697	11.87
614.032	11.87
614.366	11.75
614.7	11.62
615.035	11.81
615.369	11.91
615.703	11.97
616.037	12.08
616.371	11.87
616.705	12.07
617.039	12.28
617.373	12.01
617.707	12.59
618.041	12.41
618.375	12.29
618.709	12.06
619.042	12.28
619.376	12.44
619.71	12.32
620.043	12.18
620.377	12.31
620.71	12.58
621.043	12.95
621.377	12.58
621.71	12.48
622.043	12.67
622.376	12.89
622.709	12.52
623.043	12.63
623.376	12.56
623.709	13.06
624.041	12.69
624.374	12.7
624.707	13.05
625.04	13.04
625.373	12.57
625.705	12.95
626.038	12.68
626.37	12.97
626.703	13.09
627.035	13.24
627.368	12.95
627.7	13.43
628.032	13.22
628.365	13.18
628.697	13.4
629.029	13.14
629.361	13.26
629.693	13.31
630.025	13.27
630.357	13.25
630.689	13.4
631.021	13.53
631.353	13.26
631.684	13.72
632.016	13.76
632.348	13.47
632.679	13.42
633.011	13.48
633.342	13.55
633.674	13.7
634.005	13.49
634.336	13.93
634.668	14.07
634.999	13.73
635.33	13.84
635.661	13.93
635.992	13.83
636.323	13.74
636.654	13.67
636.985	13.9
637.316	13.98
637.647	13.77
637.977	14.01
638.308	14.34
638.639	13.99
638.969	14.29
639.3	14.14
639.63	14.49
639.961	14.02
640.291	14.51
640.622	14.41
640.952	14.34
641.282	14
641.612	14.21
641.943	14.53
642.273	14.5
642.603	14.17
642.933	14.52
643.263	14.06
643.592	14.55
643.922	15.23
644.252	14.5
644.582	14.51
644.911	14.77
645.241	14.8
645.571	15.07
645.9	14.96
646.23	14.63
646.559	14.95
646.888	15.13
647.218	14.78
647.547	15
647.876	14.83
648.205	15.09
648.534	15.28
648.863	15.47
649.192	14.86
649.521	15.21
649.85	15.66
650.179	14.82
650.508	14.83
650.837	15.45
651.165	15.46
651.494	15.54
651.822	15.35
652.151	15.39
652.479	15.25
652.808	15.53
653.136	16.03
653.465	15.71
653.793	15.38
654.121	15.89
654.449	15.68
654.777	15.32
655.105	16.29
655.433	15.87
655.761	15.85
656.089	15.63
656.417	15.8
656.745	16.06
657.073	16.16
657.4	16.54
657.728	16.08
658.056	16.07
658.383	16.07
658.711	16.23
659.038	16.14
659.365	16.29
659.693	16.29
660.02	15.77
660.347	16.12
660.674	16.24
661.001	15.79
661.329	16.17
661.656	16.55
661.982	16.27
662.309	16.46
662.636	16.41
662.963	16.53
663.29	16.34
663.616	16.45
663.943	16.65
664.27	16.41
664.596	16.72
664.923	16.53
665.249	16.79
665.576	16.47
665.902	16.94
666.228	16.36
666.554	16.98
666.881	17.42
667.207	17.2
667.533	16.83
667.859	17.41
668.185	16.94
668.511	17.15
668.837	17.17
669.162	17.44
669.488	17.43
669.814	17.3
670.139	17.44
670.465	17.62
670.791	17.92
671.116	17.34
671.442	17.6
671.767	17.12
672.092	17.69
672.418	17.98
672.743	17.52
673.068	17.46
673.393	17.53
673.718	18.11
674.043	17.75
674.368	17.56
674.693	16.89
675.018	17.95
675.343	18.02
675.667	18.32
675.992	17.19
676.317	17.58
676.641	18.58
676.966	17.86
677.29	18.32
677.615	17.65
677.939	17.9
678.264	18.64
678.588	18.51
678.912	18.26
679.236	17.83
679.56	18.32
679.885	18.34
680.209	19.01
680.532	18.51
680.856	17.8
681.18	18.51
681.504	18.6
681.828	18.77
682.152	18.15
682.475	19.13
682.799	18.44
683.122	18.42
683.446	18.5
683.769	19.04
684.093	18.63
684.416	18.72
684.739	19.05
685.062	19.15
685.386	18.45
685.709	19.02
