Data from 0280_chest_Reflection__3__316.txt Node

Date: Fri Sep 22 23:11:33 CDT 2023
User: ToomeyLab
Spectrometer: FLMS14357
Trigger mode: 0
Integration Time (sec): 1.000000E-2
Scans to average: 100
Electric dark correction enabled: true
Nonlinearity correction enabled: false
Boxcar width: 0
XAxis mode: Wavelengths
Number of Pixels in Spectrum: 2048
>>>>>Begin Spectral Data<<<<<
189.047	-31.44
189.435	-31.44
189.823	-31.44
190.211	-14.49
190.599	56.5
190.987	431.25
191.375	146.39
191.763	1616.36
192.151	-319.99
192.538	-43.02
192.926	181.96
193.314	55.35
193.702	180.18
194.089	211.38
194.477	-752.43
194.864	-50.26
195.252	69.6
195.639	8.61
196.027	720.98
196.414	156.47
196.801	253
197.189	164.17
197.576	61.5
197.963	-61.07
198.351	9
198.738	6.23
199.125	-26.68
199.512	-22.49
199.899	27.94
200.286	45.14
200.673	-1.33
201.06	17.83
201.447	56.2
201.833	16.76
202.22	21.86
202.607	8.01
202.994	57.51
203.38	36.81
203.767	30.16
204.154	38.11
204.54	29.2
204.927	-10.11
205.313	2.55
205.699	35.76
206.086	37.67
206.472	48.57
206.858	31.85
207.245	23.85
207.631	53.28
208.017	31.4
208.403	19.39
208.789	38.58
209.175	42.12
209.561	40.01
209.947	55.36
210.333	40.53
210.719	22.3
211.105	25.45
211.491	9.76
211.876	12.51
212.262	31.5
212.648	37.3
213.034	36.16
213.419	1.64
213.805	-0.55
214.19	-1.1
214.576	22.31
214.961	53.93
215.346	2
215.732	11.57
216.117	26.48
216.502	23.36
216.888	17.1
217.273	13.06
217.658	-9.66
218.043	-0.65
218.428	46.85
218.813	-23.24
219.198	-9.68
219.583	23.12
219.968	32.78
220.353	27.35
220.738	17.19
221.122	17.89
221.507	-5.19
221.892	-4.21
222.276	2.44
222.661	-7.39
223.046	21.19
223.43	24.91
223.815	4.95
224.199	-13.78
224.583	13.92
224.968	14.67
225.352	11.25
225.736	5.38
226.121	5.29
226.505	0.66
226.889	10.87
227.273	0.95
227.657	9.68
228.041	5.68
228.425	7.65
228.809	4.42
229.193	8.06
229.577	5.53
229.961	6.46
230.344	5.96
230.728	4.48
231.112	5.44
231.495	4.54
231.879	5.13
232.263	4.18
232.646	5.63
233.03	4.19
233.413	5.12
233.797	4.54
234.18	4.16
234.563	5.4
234.946	7.21
235.33	4.41
235.713	1.66
236.096	7.1
236.479	3.96
236.862	5.83
237.245	4.9
237.628	5.46
238.011	6.33
238.394	7.86
238.777	5.68
239.16	5.29
239.543	5.81
239.925	6.38
240.308	6.56
240.691	6.82
241.073	7.57
241.456	5.36
241.838	4.66
242.221	5.14
242.603	4.62
242.986	5.11
243.368	4.64
243.75	4.97
244.133	5.94
244.515	5.11
244.897	4.99
245.279	5.22
245.661	4.64
246.043	4.99
246.425	4.57
246.807	5.45
247.189	2.95
247.571	6.22
247.953	4.6
248.335	5.35
248.717	4.85
249.098	4.94
249.48	4.59
249.862	4.79
250.243	4.79
250.625	4.82
251.006	4.99
251.388	4.79
251.769	4.8
252.151	4.49
252.532	4.41
252.913	4.31
253.295	6.71
253.676	5
254.057	5.61
254.438	5.34
254.819	4.44
255.2	4.6
255.581	4.61
255.962	5.13
256.343	5.4
256.724	4.34
257.105	5.2
257.486	6.01
257.867	4.18
258.247	5.4
258.628	5.52
259.009	4.42
259.389	4.11
259.77	5.1
260.15	4.93
260.531	4.29
260.911	5.17
261.292	4.68
261.672	4.41
262.052	4.56
262.432	4.62
262.813	4.84
263.193	4.28
263.573	4.79
263.953	4
264.333	4.13
264.713	4.84
265.093	4.29
265.473	4.7
265.853	3.94
266.233	4.78
266.612	4.46
266.992	5.08
267.372	4.34
267.752	4.49
268.131	4.74
268.511	4.53
268.89	4.71
269.27	4.7
269.649	4.85
270.029	4.13
270.408	4.63
270.787	4.52
271.167	5.08
271.546	4.2
271.925	4.98
272.304	4.69
272.683	4.39
273.062	5.12
273.441	4.63
273.82	4.81
274.199	4.83
274.578	4.58
274.957	4.3
275.336	4.44
275.715	4.91
276.093	3.96
276.472	4.3
276.851	4.62
277.229	3.96
277.608	5.08
277.986	4.09
278.365	4.52
278.743	4.78
279.122	4.99
279.5	4.41
279.878	4.24
280.257	4.89
280.635	4.46
281.013	4.68
281.391	3.75
281.769	4.1
282.147	4.47
282.525	4.21
282.903	4.65
283.281	4.06
283.659	4.08
284.037	4.34
284.415	4.55
284.792	4.22
285.17	4.24
285.548	5.21
285.925	4.66
286.303	4.39
286.68	3.8
287.058	4.26
287.435	4.18
287.813	4.05
288.19	4.02
288.567	4.62
288.945	4.02
289.322	3.87
289.699	4.62
290.076	4.52
290.453	4.33
290.83	4.36
291.207	4.18
291.584	3.92
291.961	3.95
292.338	4.38
292.715	4.65
293.092	4.62
293.469	4.91
293.845	4.49
294.222	4.2
294.599	4.63
294.975	4.71
295.352	4.7
295.728	4.84
296.105	4.29
296.481	5.08
296.858	4.57
297.234	4.54
297.61	4.92
297.986	4.74
298.363	4.51
298.739	4.84
299.115	4.66
299.491	4.71
299.867	4.79
300.243	4.68
300.619	4.73
300.995	4.8
301.371	4.75
301.746	5.3
302.122	4.88
302.498	4.53
302.874	5.08
303.249	4.4
303.625	4.26
304	5.41
304.376	4.84
304.751	5.03
305.127	5.02
305.502	4.66
305.878	4.78
306.253	4.62
306.628	4.96
307.003	4.84
307.378	4.84
307.754	4.31
308.129	4.99
308.504	4.61
308.879	5.05
309.254	5.19
309.629	5.35
310.003	5.11
310.378	5.16
310.753	5.02
311.128	4.68
311.502	5.09
311.877	4.4
312.252	4.82
312.626	4.73
313.001	4.94
313.375	4.89
313.75	5.05
314.124	5.32
314.498	4.64
314.873	4.66
315.247	5.16
315.621	5.5
315.995	4.92
316.369	4.68
316.743	4.97
317.117	5.05
317.491	4.85
317.865	4.46
318.239	4.93
318.613	5.06
318.987	4.98
319.361	4.9
319.734	4.58
320.108	5.4
320.482	4.79
320.855	4.75
321.229	5.01
321.602	5.18
321.976	4.69
322.349	4.96
322.723	4.77
323.096	4.89
323.469	5.25
323.843	5.13
324.216	4.94
324.589	5.08
324.962	5.02
325.335	5.06
325.708	4.79
326.081	5.68
326.454	4.85
326.827	5.51
327.2	4.99
327.573	5.11
327.945	4.89
328.318	5.3
328.691	5.63
329.063	4.99
329.436	5.28
329.809	5.05
330.181	5.1
330.553	5.28
330.926	5.09
331.298	5.15
331.671	5.65
332.043	4.64
332.415	4.71
332.787	5.49
333.159	4.71
333.532	5.2
333.904	5.04
334.276	5.01
334.648	4.38
335.02	4.59
335.391	4.63
335.763	5.3
336.135	4.56
336.507	5.17
336.879	4.89
337.25	4.64
337.622	5.25
337.993	4.87
338.365	5.22
338.736	5.15
339.108	5.06
339.479	5.18
339.851	4.78
340.222	4.94
340.593	4.86
340.964	5.16
341.336	4.75
341.707	4.85
342.078	5.25
342.449	5.16
342.82	4.51
343.191	4.64
343.562	4.79
343.933	4.82
344.303	4.52
344.674	5.01
345.045	5.75
345.416	4.92
345.786	4.37
346.157	4.98
346.527	5.03
346.898	5.19
347.268	4.97
347.639	4.67
348.009	4.67
348.38	4.73
348.75	5.05
349.12	4.88
349.49	4.97
349.861	4.74
350.231	5.12
350.601	5.28
350.971	5.06
351.341	4.75
351.711	4.85
352.081	4.61
352.45	4.47
352.82	4.83
353.19	5
353.56	4.78
353.929	5.12
354.299	4.97
354.669	4.6
355.038	4.81
355.408	4.79
355.777	5.02
356.147	4.79
356.516	5.23
356.885	5.14
357.254	5.09
357.624	4.78
357.993	5.07
358.362	4.92
358.731	4.94
359.1	4.65
359.469	4.97
359.838	4.47
360.207	4.79
360.576	5
360.945	4.87
361.314	5.05
361.682	5.09
362.051	5.21
362.42	5.05
362.788	4.74
363.157	5.2
363.525	4.77
363.894	4.71
364.262	4.75
364.631	4.89
364.999	4.53
365.367	4.97
365.735	4.71
366.104	4.81
366.472	5.03
366.84	5.06
367.208	5.08
367.576	4.95
367.944	4.84
368.312	5.04
368.68	4.69
369.048	5.16
369.416	5.03
369.783	4.87
370.151	4.98
370.519	4.78
370.886	5.06
371.254	5.33
371.621	4.82
371.989	5
372.356	4.95
372.724	4.97
373.091	5.02
373.458	5.12
373.826	5.04
374.193	5.21
374.56	4.98
374.927	4.99
375.294	5.09
375.661	4.85
376.028	4.88
376.395	4.84
376.762	4.89
377.129	5.21
377.496	5.18
377.863	5.16
378.229	4.87
378.596	4.81
378.963	5.05
379.329	4.91
379.696	5.21
380.062	4.82
380.429	5.18
380.795	5.15
381.161	4.83
381.528	4.79
381.894	4.71
382.26	5.16
382.626	4.75
382.993	5.23
383.359	4.78
383.725	4.87
384.091	5.11
384.457	5
384.823	4.9
385.188	5.16
385.554	5.16
385.92	5.16
386.286	5.27
386.651	4.86
387.017	4.94
387.383	5.18
387.748	4.81
388.114	4.89
388.479	5.1
388.845	4.64
389.21	4.85
389.575	5.36
389.94	4.79
390.306	5.02
390.671	5.14
391.036	4.73
391.401	4.83
391.766	4.9
392.131	5
392.496	4.91
392.861	4.72
393.226	5.04
393.591	5.05
393.956	4.92
394.32	5.07
394.685	4.94
395.05	5.31
395.414	5.14
395.779	5.14
396.143	5.13
396.508	5.08
396.872	4.86
397.236	5.03
397.601	4.95
397.965	5.13
398.329	5.06
398.694	4.98
399.058	5.03
399.422	5.04
399.786	4.98
400.15	5.03
400.514	5.24
400.878	5.05
401.242	5.03
401.605	5.03
401.969	4.71
402.333	5.17
402.697	4.84
403.06	5.01
403.424	4.98
403.787	5.19
404.151	5.17
404.514	5.17
404.878	5.3
405.241	5.32
405.604	5.02
405.968	5.14
406.331	4.97
406.694	5.01
407.057	4.85
407.42	5.26
407.783	5.02
408.146	5
408.509	4.88
408.872	4.94
409.235	4.92
409.598	5.04
409.961	5.03
410.323	5.07
410.686	5.1
411.049	5.11
411.411	5.15
411.774	4.98
412.136	4.95
412.499	4.92
412.861	5.19
413.223	5.09
413.586	5
413.948	5
414.31	4.89
414.672	5.12
415.035	5.15
415.397	5.38
415.759	5.29
416.121	5.07
416.483	5.17
416.845	4.81
417.206	4.98
417.568	5.25
417.93	5.09
418.292	5.07
418.653	4.92
419.015	4.92
419.377	5.07
419.738	5.25
420.1	4.97
420.461	4.98
420.822	4.99
421.184	5.1
421.545	4.9
421.906	4.95
422.267	4.84
422.629	4.97
422.99	4.9
423.351	4.91
423.712	4.93
424.073	4.86
424.434	5.02
424.795	5.03
425.155	5.09
425.516	5.01
425.877	5.04
426.238	4.86
426.598	4.91
426.959	4.98
427.32	5
427.68	5.06
428.041	4.98
428.401	5.01
428.761	5.12
429.122	4.98
429.482	5.09
429.842	4.96
430.202	5.04
430.563	5.11
430.923	5.25
431.283	5.23
431.643	5.27
432.003	5.1
432.363	5.18
432.722	5.2
433.082	5.12
433.442	4.91
433.802	5.14
434.161	5.19
434.521	5.13
434.881	5.22
435.24	5.1
435.6	5.04
435.959	5.04
436.319	5.06
436.678	5.2
437.037	5.18
437.396	5.03
437.756	5.03
438.115	5.25
438.474	5.13
438.833	5.35
439.192	5.11
439.551	5.15
439.91	5.32
440.269	5.12
440.628	5.14
440.987	5.11
441.345	5.14
441.704	5.21
442.063	5.15
442.421	5.14
442.78	5.19
443.138	5.16
443.497	5.09
443.855	5.23
444.214	5.06
444.572	5.2
444.93	5.15
445.288	5.29
445.647	5.26
446.005	5.03
446.363	5.13
446.721	5.1
447.079	5.06
447.437	5.17
447.795	5.28
448.153	5.18
448.51	5.13
448.868	5.11
449.226	5.12
449.584	5.07
449.941	5.01
450.299	5.17
450.656	5.24
451.014	5.37
451.371	5.25
451.729	5.28
452.086	5.32
452.443	5.2
452.801	5.23
453.158	5.21
453.515	5.3
453.872	5.25
454.229	5.3
454.586	5.19
454.943	5.13
455.3	5.12
455.657	5.12
456.014	5.28
456.371	5.25
456.727	5.36
457.084	5.3
457.441	5.23
457.797	5.27
458.154	5.4
458.51	5.08
458.867	5.22
459.223	5.39
459.58	5.47
459.936	5.39
460.292	5.34
460.648	5.41
461.005	5.38
461.361	5.32
461.717	5.17
462.073	5.25
462.429	5.02
462.785	5.19
463.141	5.15
463.496	5.33
463.852	5.33
464.208	5.26
464.564	5.42
464.919	5.35
465.275	5.63
465.631	5.32
465.986	5.31
466.342	5.26
466.697	5.35
467.052	5.32
467.408	5.39
467.763	5.41
468.118	5.56
468.473	5.32
468.829	5.36
469.184	5.31
469.539	5.42
469.894	5.5
470.249	5.37
470.603	5.29
470.958	5.29
471.313	5.48
471.668	5.39
472.023	5.36
472.377	5.49
472.732	5.42
473.086	5.54
473.441	5.25
473.795	5.63
474.15	5.23
474.504	5.39
474.859	5.5
475.213	5.36
475.567	5.31
475.921	5.31
476.275	5.51
476.63	5.45
476.984	5.33
477.338	5.46
477.692	5.45
478.045	5.59
478.399	5.66
478.753	5.43
479.107	5.47
479.461	5.35
479.814	5.46
480.168	5.49
480.521	5.42
480.875	5.54
481.228	5.61
481.582	5.34
481.935	5.47
482.289	5.37
482.642	5.33
482.995	5.46
483.348	5.34
483.701	5.38
484.055	5.41
484.408	5.34
484.761	5.46
485.114	5.32
485.466	5.16
485.819	5.16
486.172	5.13
486.525	5.15
486.878	5.13
487.23	5.15
487.583	5.26
487.936	5.33
488.288	5.35
488.641	5.35
488.993	5.33
489.345	5.3
489.698	5.25
490.05	5.25
490.402	5.26
490.754	5.25
491.107	5.26
491.459	5.34
491.811	5.34
492.163	5.5
492.515	5.48
492.866	5.49
493.218	5.46
493.57	5.51
493.922	5.29
494.274	5.38
494.625	5.35
494.977	5.44
495.328	5.58
495.68	5.57
496.031	5.45
496.383	5.5
496.734	5.5
497.086	5.64
497.437	5.67
497.788	5.65
498.139	5.76
498.49	5.82
498.842	5.52
499.193	5.62
499.544	5.59
499.894	5.44
500.245	5.65
500.596	5.62
500.947	5.75
501.298	5.7
501.648	5.71
501.999	5.64
502.35	5.68
502.7	5.83
503.051	5.75
503.401	5.74
503.752	5.73
504.102	5.7
504.452	5.64
504.803	5.85
505.153	5.76
505.503	5.79
505.853	5.86
506.203	5.74
506.553	5.88
506.903	5.73
507.253	5.73
507.603	5.87
507.953	5.88
508.303	5.88
508.652	5.81
509.002	6
509.352	5.86
509.701	5.82
510.051	5.97
510.4	5.82
510.75	5.82
511.099	5.76
511.449	5.79
511.798	5.96
512.147	5.8
512.496	5.8
512.846	5.9
513.195	5.82
513.544	5.98
513.893	6.01
514.242	5.92
514.591	6.07
514.939	5.94
515.288	5.88
515.637	6.02
515.986	5.91
516.334	5.93
516.683	5.92
517.032	5.97
517.38	6.19
517.729	5.98
518.077	6.07
518.426	6.08
518.774	6.11
519.122	6.07
519.47	5.91
519.819	6.01
520.167	6.1
520.515	6.05
520.863	5.95
521.211	6
521.559	6.04
521.907	6.09
522.255	6.16
522.602	6.04
522.95	6
523.298	6.2
523.645	6.16
523.993	6.13
524.341	6.1
524.688	6.28
525.036	6.16
525.383	6.25
525.73	6.33
526.078	6.19
526.425	6.22
526.772	6.23
527.119	6.18
527.466	6.06
527.814	6.17
528.161	5.98
528.508	6.17
528.854	6.17
529.201	6.19
529.548	6.16
529.895	6.2
530.242	6.13
530.588	6.05
530.935	6.04
531.282	6.05
531.628	6.07
531.975	6.1
532.321	6.14
532.667	6.2
533.014	6.23
533.36	6.34
533.706	6.31
534.052	6.43
534.399	6.38
534.745	6.35
535.091	6.28
535.437	6.28
535.783	6.21
536.129	6.34
536.474	6.35
536.82	6.29
537.166	6.53
537.512	6.53
537.857	6.53
538.203	6.69
538.549	6.53
538.894	6.49
539.239	6.53
539.585	6.48
539.93	6.57
540.276	6.58
540.621	6.61
540.966	6.73
541.311	6.8
541.656	6.7
542.001	6.79
542.346	6.73
542.691	6.84
543.036	6.7
543.381	6.56
543.726	6.55
544.071	6.59
544.415	6.59
544.76	6.62
545.105	6.6
545.449	6.64
545.794	6.77
546.138	6.81
546.483	6.84
546.827	6.92
547.171	6.91
547.516	6.77
547.86	7.1
548.204	6.91
548.548	7.04
548.892	6.96
549.236	7
549.58	6.94
549.924	7.05
550.268	7.18
550.612	7.11
550.956	7.14
551.3	7.27
551.643	7.13
551.987	7.21
552.33	7.33
552.674	7.23
553.017	7.22
553.361	7.41
553.704	7.41
554.048	7.27
554.391	7.54
554.734	7.54
555.077	7.29
555.42	7.34
555.764	7.31
556.107	7.39
556.45	7.4
556.793	7.39
557.135	7.52
557.478	7.36
557.821	7.49
558.164	7.71
558.507	7.65
558.849	7.48
559.192	7.66
559.534	7.63
559.877	7.66
560.219	7.7
560.562	7.78
560.904	7.72
561.246	7.91
561.589	7.73
561.931	7.69
562.273	7.63
562.615	7.75
562.957	7.77
563.299	7.92
563.641	7.81
563.983	7.91
564.325	7.89
564.667	8.1
565.008	8
565.35	7.93
565.692	8.15
566.033	8.06
566.375	8.21
566.716	8.01
567.058	8.07
567.399	8.1
567.741	8.36
568.082	8.26
568.423	8.22
568.764	8.28
569.105	7.95
569.447	8.29
569.788	8.09
570.129	8.27
570.47	8.51
570.811	8.24
571.151	8.4
571.492	8.22
571.833	8.25
572.174	8.33
572.514	8.58
572.855	8.54
573.195	8.34
573.536	8.53
573.876	8.38
574.217	8.55
574.557	8.48
574.898	8.66
575.238	8.52
575.578	8.62
575.918	8.72
576.258	8.6
576.598	8.69
576.938	8.54
577.278	8.8
577.618	8.77
577.958	8.87
578.298	8.87
578.638	8.83
578.977	9.05
579.317	9.01
579.657	9.03
579.996	9.05
580.336	9.07
580.675	9.08
581.014	8.94
581.354	8.91
581.693	9.22
582.032	9.22
582.372	9.26
582.711	9.06
583.05	9.33
583.389	9.12
583.728	9.21
584.067	9.5
584.406	9.45
584.745	9.38
585.083	9.68
585.422	9.63
585.761	9.46
586.1	9.56
586.438	9.53
586.777	9.61
587.115	9.56
587.454	9.46
587.792	9.68
588.13	9.74
588.469	9.74
588.807	9.94
589.145	9.82
589.483	9.9
589.821	9.76
590.159	9.9
590.497	10.09
590.835	9.79
591.173	9.86
591.511	9.98
591.849	10.13
592.187	10.14
592.524	10.15
592.862	9.96
593.2	10.18
593.537	9.97
593.875	10.05
594.212	10.26
594.55	10.36
594.887	10.5
595.224	10.43
595.561	10.3
595.899	10.46
596.236	10.54
596.573	10.43
596.91	10.44
597.247	10.5
597.584	10.73
597.921	10.74
598.258	10.73
598.594	10.65
598.931	10.64
599.268	10.69
599.604	10.82
599.941	10.74
600.277	10.75
600.614	10.82
600.95	10.99
601.287	10.74
601.623	10.9
601.959	10.96
602.296	11.1
602.632	10.78
602.968	10.99
603.304	10.86
603.64	10.88
603.976	11.19
604.312	11.26
604.648	11.07
604.984	11.21
605.319	11.2
605.655	10.99
605.991	11.1
606.326	11.33
606.662	11.15
606.998	11.29
607.333	11.36
607.668	11.27
608.004	11.43
608.339	11.35
608.674	11.42
609.01	11.32
609.345	11.52
609.68	11.54
610.015	11.7
610.35	11.69
610.685	11.66
611.02	11.73
611.355	11.78
611.689	11.73
612.024	11.63
612.359	11.68
612.694	11.79
613.028	11.73
613.363	11.93
613.697	12
614.032	11.81
614.366	11.87
614.7	11.86
615.035	12.1
615.369	12.38
615.703	12.28
616.037	12.15
616.371	12.44
616.705	12.49
617.039	12.33
617.373	12.41
617.707	12.6
618.041	12.22
618.375	12.86
618.709	12.3
619.042	13.06
619.376	12.52
619.71	12.73
620.043	12.6
620.377	12.68
620.71	12.68
621.043	12.94
621.377	12.75
621.71	12.83
622.043	12.82
622.376	12.82
622.709	12.97
623.043	12.96
623.376	12.92
623.709	13.42
624.041	13.14
624.374	12.91
624.707	13.39
625.04	13.01
625.373	13.11
625.705	13.56
626.038	12.91
626.37	13.47
626.703	13.36
627.035	13.2
627.368	13.54
627.7	13.64
628.032	13.83
628.365	13.57
628.697	13.44
629.029	13.72
629.361	13.74
629.693	13.88
630.025	13.75
630.357	13.39
630.689	14.01
631.021	13.92
631.353	13.79
631.684	13.92
632.016	14.11
632.348	14.12
632.679	13.85
633.011	14.05
633.342	14.33
633.674	14.43
634.005	14.08
634.336	14.45
634.668	14.51
634.999	14.42
635.33	14.57
635.661	14.37
635.992	14.32
636.323	14.37
636.654	14.54
636.985	13.97
637.316	14.54
637.647	14.38
637.977	14.49
638.308	14.76
638.639	14.65
638.969	14.57
639.3	14.62
639.63	14.8
639.961	14.77
640.291	14.9
640.622	14.86
640.952	15.31
641.282	14.79
641.612	14.86
641.943	15.44
642.273	15.02
642.603	14.63
642.933	15.02
643.263	14.46
643.592	14.88
643.922	15.73
644.252	15.11
644.582	15.38
644.911	15.45
645.241	15.55
645.571	15.72
645.9	15.57
646.23	15.5
646.559	15.85
646.888	15.75
647.218	15.32
647.547	15.27
647.876	15.54
648.205	15.51
648.534	16.03
648.863	15.73
649.192	15.51
649.521	15.96
649.85	16.04
650.179	15.84
650.508	15.55
650.837	16.04
651.165	16.43
651.494	16.12
651.822	15.79
652.151	16.3
652.479	16.3
652.808	15.83
653.136	16.46
653.465	16.34
653.793	16.23
654.121	16.18
654.449	15.91
654.777	16.79
655.105	16.66
655.433	16.51
655.761	16.6
656.089	16.41
656.417	16.79
656.745	16.6
657.073	16.89
657.4	16.92
657.728	17.25
658.056	17.16
658.383	16.96
658.711	16.55
659.038	16.53
659.365	16.83
659.693	16.72
660.02	17.37
660.347	17.09
660.674	16.9
661.001	17.06
661.329	16.92
661.656	17.17
661.982	16.93
662.309	17.46
662.636	17.26
662.963	17.62
663.29	17.22
663.616	17.55
663.943	17.63
664.27	17.67
664.596	17.34
664.923	17.16
665.249	17.79
665.576	17.29
665.902	18.15
666.228	17.93
666.554	17.89
666.881	18.35
667.207	17.75
667.533	18.12
667.859	18.43
668.185	18.21
668.511	18.08
668.837	17.68
669.162	18.1
669.488	18.23
669.814	17.94
670.139	18.35
670.465	18.81
670.791	18.28
671.116	18.45
671.442	19.03
671.767	17.64
672.092	18.89
672.418	18.62
672.743	18.81
673.068	18.08
673.393	18.22
673.718	18.5
674.043	19.06
674.368	18.48
674.693	18.27
675.018	18.8
675.343	19.02
675.667	18.73
675.992	18.84
676.317	19.2
676.641	18.49
676.966	19.09
677.29	19.08
677.615	19.06
677.939	19.02
678.264	19.34
678.588	19.53
678.912	19.43
679.236	19.83
679.56	20.02
679.885	19.94
680.209	20.37
680.532	19.47
680.856	18.85
681.18	20.02
681.504	19.66
681.828	19.93
682.152	19.19
682.475	20.29
682.799	20.41
683.122	20.02
683.446	19.88
683.769	19.97
684.093	19.99
684.416	20.26
684.739	20.5
685.062	20.54
685.386	20.03
685.709	19.93
686.032	20.28
686.355	20.12
686.678	20.46
