Data from 0280_crown_Reflection__4__328.txt Node

Date: Fri Sep 22 23:20:12 CDT 2023
User: ToomeyLab
Spectrometer: FLMS14357
Trigger mode: 0
Integration Time (sec): 1.000000E-2
Scans to average: 100
Electric dark correction enabled: true
Nonlinearity correction enabled: false
Boxcar width: 0
XAxis mode: Wavelengths
Number of Pixels in Spectrum: 2048
>>>>>Begin Spectral Data<<<<<
189.047	-153.44
189.435	-153.44
189.823	-153.44
190.211	-1.1
190.599	-24.66
190.987	176.93
191.375	-21.64
191.763	36
192.151	-196.71
192.538	20.23
192.926	133.14
193.314	119.42
193.702	80.83
194.089	401.87
194.477	-39.81
194.864	-165.92
195.252	64.77
195.639	62.2
196.027	101.82
196.414	236.7
196.801	201.04
197.189	-128.68
197.576	76.86
197.963	-25.69
198.351	-1.1
198.738	-4.4
199.125	-20.3
199.512	-34.95
199.899	30.85
200.286	48.15
200.673	-5.9
201.06	13.29
201.447	38.69
201.833	-34.64
202.22	30.33
202.607	20.84
202.994	18.24
203.38	17.4
203.767	20.32
204.154	34.75
204.54	29.24
204.927	-11.19
205.313	18.38
205.699	35.62
206.086	37.7
206.472	25.86
206.858	6.84
207.245	-17.59
207.631	13.89
208.017	22.68
208.403	3.47
208.789	15.12
209.175	41.9
209.561	27.78
209.947	56.68
210.333	26.83
210.719	-14.31
211.105	19.5
211.491	17.7
211.876	38.76
212.262	3.36
212.648	7.12
213.034	28.57
213.419	5.06
213.805	-33.17
214.19	-3.72
214.576	10.4
214.961	-0.54
215.346	-20.32
215.732	7.21
216.117	-14.85
216.502	16.06
216.888	11.29
217.273	25.25
217.658	0.28
218.043	-10.71
218.428	23.05
218.813	2.31
219.198	1.4
219.583	1.38
219.968	0.69
220.353	23.66
220.738	8.54
221.122	9.8
221.507	-6.29
221.892	5.34
222.276	3.62
222.661	-41.49
223.046	24.49
223.43	10.66
223.815	5.92
224.199	10.86
224.583	8.61
224.968	18.61
225.352	10
225.736	14.22
226.121	10.84
226.505	7.1
226.889	11.58
227.273	5.75
227.657	9.04
228.041	13.04
228.425	9.74
228.809	5.36
229.193	8.31
229.577	10.99
229.961	9.5
230.344	10.83
230.728	7.65
231.112	8.78
231.495	8.7
231.879	8.37
232.263	8.48
232.646	9.72
233.03	6.62
233.413	9.85
233.797	7.23
234.18	7.6
234.563	7.02
234.946	10.02
235.33	5.58
235.713	5.17
236.096	8.84
236.479	8.79
236.862	10.09
237.245	8.35
237.628	7.73
238.011	8.11
238.394	6.64
238.777	9
239.16	7.12
239.543	10.67
239.925	10.39
240.308	9.03
240.691	8.19
241.073	8.65
241.456	6.99
241.838	8.11
242.221	7.26
242.603	7.68
242.986	7.6
243.368	7.73
243.75	8.55
244.133	8.3
244.515	7.8
244.897	7.51
245.279	7.85
245.661	7.59
246.043	7.78
246.425	6.85
246.807	8.18
247.189	4.9
247.571	7.57
247.953	7.93
248.335	7.69
248.717	7.83
249.098	7.82
249.48	7.27
249.862	7.15
250.243	7.41
250.625	7.62
251.006	7.4
251.388	7.16
251.769	7.69
252.151	8.21
252.532	7.51
252.913	7.99
253.295	8.27
253.676	7.66
254.057	7.91
254.438	7.48
254.819	6.95
255.2	7.12
255.581	6.52
255.962	7.29
256.343	6.87
256.724	7.16
257.105	6.56
257.486	7.43
257.867	7.68
258.247	7.88
258.628	7.81
259.009	7.18
259.389	7.05
259.77	6.64
260.15	7.45
260.531	7
260.911	6.85
261.292	7.06
261.672	6.58
262.052	6.96
262.432	6.86
262.813	6.83
263.193	6.57
263.573	7.75
263.953	6.5
264.333	6.59
264.713	6.47
265.093	6.41
265.473	7.23
265.853	6.5
266.233	5.92
266.612	6.83
266.992	7.78
267.372	7.03
267.752	7.37
268.131	7.42
268.511	6.27
268.89	7.06
269.27	6.26
269.649	6.73
270.029	6.6
270.408	6.57
270.787	6.62
271.167	6.34
271.546	6.11
271.925	6.01
272.304	6.74
272.683	6.71
273.062	6.93
273.441	6.31
273.82	6.69
274.199	6.78
274.578	6.49
274.957	6.59
275.336	6.44
275.715	6.16
276.093	5.91
276.472	6.03
276.851	6.45
277.229	5.43
277.608	6.22
277.986	6.14
278.365	6.61
278.743	6.53
279.122	6.28
279.5	6.66
279.878	6.1
280.257	6.92
280.635	5.99
281.013	6.8
281.391	5.82
281.769	6.84
282.147	6.26
282.525	6.09
282.903	6.55
283.281	6.55
283.659	6.28
284.037	6.35
284.415	6.5
284.792	5.82
285.17	5.97
285.548	6.5
285.925	6.02
286.303	6.12
286.68	5.95
287.058	6.08
287.435	5.74
287.813	5.91
288.19	5.48
288.567	6.28
288.945	5.65
289.322	6.02
289.699	6.54
290.076	5.87
290.453	5.95
290.83	5.48
291.207	5.83
291.584	5.54
291.961	5.39
292.338	5.79
292.715	5.92
293.092	5.83
293.469	5.97
293.845	5.54
294.222	6.01
294.599	5.66
294.975	6.06
295.352	5.98
295.728	5.78
296.105	6.4
296.481	6.04
296.858	5.57
297.234	5.84
297.61	5.91
297.986	5.82
298.363	5.49
298.739	6.06
299.115	5.9
299.491	5.95
299.867	5.78
300.243	5.13
300.619	5.57
300.995	5.3
301.371	5.56
301.746	5.6
302.122	5.37
302.498	5.4
302.874	5.33
303.249	5.47
303.625	5.43
304	5.71
304.376	5.88
304.751	5.26
305.127	5.92
305.502	5.72
305.878	5.3
306.253	5.39
306.628	5
307.003	5.68
307.378	5.17
307.754	5.55
308.129	5.25
308.504	5.52
308.879	5.36
309.254	5.43
309.629	5.71
310.003	5.82
310.378	5.47
310.753	5.23
311.128	5.64
311.502	5.56
311.877	5
312.252	5.3
312.626	5.23
313.001	5.78
313.375	5.17
313.75	5.63
314.124	5.83
314.498	4.94
314.873	5.53
315.247	5.53
315.621	4.81
315.995	5.2
316.369	5.25
316.743	5.28
317.117	5.54
317.491	5.84
317.865	5.55
318.239	4.92
318.613	5.56
318.987	5.07
319.361	4.98
319.734	5.13
320.108	5.04
320.482	4.91
320.855	4.99
321.229	5.62
321.602	4.86
321.976	4.99
322.349	5.02
322.723	4.84
323.096	5.46
323.469	4.93
323.843	5.02
324.216	5.11
324.589	5.33
324.962	4.87
325.335	4.62
325.708	4.87
326.081	5.29
326.454	4.76
326.827	5.37
327.2	5.06
327.573	5.44
327.945	4.88
328.318	5.15
328.691	4.79
329.063	4.72
329.436	5.24
329.809	4.95
330.181	5.32
330.553	4.76
330.926	5.21
331.298	5.18
331.671	4.99
332.043	4.87
332.415	5.1
332.787	5.34
333.159	4.65
333.532	4.95
333.904	4.59
334.276	4.96
334.648	4.75
335.02	4.51
335.391	4.49
335.763	5.05
336.135	5.44
336.507	5.5
336.879	4.67
337.25	4.7
337.622	5.13
337.993	5.25
338.365	5.06
338.736	5.61
339.108	4.65
339.479	4.84
339.851	4.65
340.222	4.53
340.593	4.86
340.964	4.51
341.336	4.76
341.707	4.9
342.078	5.17
342.449	4.84
342.82	4.57
343.191	4.43
343.562	4.8
343.933	4.95
344.303	5.13
344.674	5.31
345.045	5
345.416	5.09
345.786	4.96
346.157	5.19
346.527	4.77
346.898	4.84
347.268	4.93
347.639	5.18
348.009	4.77
348.38	5.12
348.75	5.12
349.12	5.01
349.49	5.36
349.861	4.89
350.231	4.91
350.601	5.05
350.971	5.16
351.341	5.02
351.711	5.19
352.081	4.58
352.45	4.88
352.82	5.05
353.19	5.2
353.56	4.58
353.929	5.01
354.299	5.06
354.669	4.59
355.038	4.64
355.408	5.04
355.777	5.04
356.147	5.54
356.516	5.47
356.885	5.29
357.254	5.15
357.624	4.4
357.993	5.39
358.362	5.01
358.731	4.73
359.1	5.14
359.469	5.16
359.838	4.62
360.207	4.96
360.576	5.09
360.945	5.18
361.314	4.98
361.682	5.41
362.051	5.44
362.42	5.2
362.788	4.92
363.157	5.21
363.525	5.03
363.894	5.09
364.262	5.18
364.631	4.83
364.999	4.97
365.367	5.28
365.735	5.04
366.104	5.09
366.472	5.23
366.84	4.87
367.208	5.29
367.576	5.16
367.944	5.2
368.312	5.46
368.68	5.22
369.048	5.51
369.416	5.07
369.783	5.15
370.151	4.9
370.519	5.1
370.886	5
371.254	5.5
371.621	5.03
371.989	5.35
372.356	5.3
372.724	5.36
373.091	5.4
373.458	5.15
373.826	5.31
374.193	5.44
374.56	5.54
374.927	5.39
375.294	5.24
375.661	5.22
376.028	5.23
376.395	5.32
376.762	5.03
377.129	5.51
377.496	5.73
377.863	5.51
378.229	5.4
378.596	5.55
378.963	5.73
379.329	5.5
379.696	5.54
380.062	5.07
380.429	5.27
380.795	5.54
381.161	5.11
381.528	5.34
381.894	4.75
382.26	5.22
382.626	5.36
382.993	5.48
383.359	5.19
383.725	5.4
384.091	5.52
384.457	5.52
384.823	5.67
385.188	5.55
385.554	5.55
385.92	5.78
386.286	5.47
386.651	5.35
387.017	5.34
387.383	5.46
387.748	5.27
388.114	5.63
388.479	5.45
388.845	5.55
389.21	5.23
389.575	5.51
389.94	5.45
390.306	5.46
390.671	5.82
391.036	5.25
391.401	5.55
391.766	5.51
392.131	5.31
392.496	5.83
392.861	5.34
393.226	5.69
393.591	5.61
393.956	5.52
394.32	5.37
394.685	5.48
395.05	5.77
395.414	5.59
395.779	5.67
396.143	5.59
396.508	5.49
396.872	5.51
397.236	5.83
397.601	5.67
397.965	5.82
398.329	5.65
398.694	5.59
399.058	5.32
399.422	5.76
399.786	5.69
400.15	5.83
400.514	5.68
400.878	5.69
401.242	5.79
401.605	5.77
401.969	5.5
402.333	5.94
402.697	5.64
403.06	5.71
403.424	5.63
403.787	5.75
404.151	5.77
404.514	6.04
404.878	5.91
405.241	5.95
405.604	5.72
405.968	5.79
406.331	5.85
406.694	5.69
407.057	5.49
407.42	5.76
407.783	5.81
408.146	5.82
408.509	5.77
408.872	5.72
409.235	5.83
409.598	5.68
409.961	6.07
410.323	5.88
410.686	6
411.049	5.84
411.411	5.92
411.774	5.67
412.136	5.82
412.499	5.88
412.861	5.99
413.223	5.92
413.586	5.8
413.948	5.95
414.31	5.84
414.672	5.93
415.035	5.72
415.397	5.96
415.759	6.28
416.121	5.88
416.483	5.77
416.845	5.97
417.206	5.64
417.568	6.07
417.93	5.8
418.292	5.82
418.653	5.76
419.015	5.57
419.377	5.83
419.738	5.93
420.1	5.78
420.461	5.91
420.822	5.82
421.184	6.06
421.545	5.79
421.906	5.87
422.267	5.69
422.629	5.86
422.99	5.85
423.351	5.72
423.712	5.75
424.073	5.81
424.434	5.86
424.795	5.81
425.155	5.89
425.516	5.83
425.877	5.82
426.238	5.77
426.598	5.85
426.959	5.76
427.32	5.82
427.68	5.83
428.041	5.81
428.401	5.87
428.761	5.9
429.122	5.86
429.482	6
429.842	6.03
430.202	6
430.563	6.07
430.923	6.27
431.283	6.17
431.643	6.14
432.003	5.96
432.363	6.29
432.722	6.11
433.082	6.01
433.442	5.76
433.802	6.01
434.161	6.03
434.521	6.07
434.881	6
435.24	5.93
435.6	5.96
435.959	5.86
436.319	6.02
436.678	6.15
437.037	6.14
437.396	5.85
437.756	6.05
438.115	6.1
438.474	6.04
438.833	6.09
439.192	5.96
439.551	6.18
439.91	6.17
440.269	6.1
440.628	5.83
440.987	6.11
441.345	6.05
441.704	6.12
442.063	6.07
442.421	6.02
442.78	6.07
443.138	6.14
443.497	6.04
443.855	6.12
444.214	6
444.572	6.01
444.93	6.11
445.288	6.16
445.647	6.21
446.005	6.02
446.363	5.92
446.721	6.12
447.079	6.04
447.437	6.15
447.795	6.16
448.153	6.03
448.51	6.05
448.868	6.04
449.226	6.04
449.584	6.05
449.941	5.92
450.299	6.18
450.656	6.18
451.014	6.11
451.371	6.09
451.729	6.15
452.086	6.07
452.443	6.15
452.801	6.24
453.158	6.13
453.515	6.14
453.872	6.12
454.229	6.29
454.586	6.35
454.943	6.08
455.3	6.14
455.657	6.1
456.014	6.15
456.371	6.25
456.727	6.31
457.084	6.23
457.441	6.13
457.797	6.27
458.154	6.16
458.51	6.3
458.867	6.31
459.223	6.3
459.58	6.29
459.936	6.33
460.292	6.26
460.648	6.3
461.005	6.29
461.361	6.33
461.717	6.02
462.073	6.11
462.429	5.99
462.785	6.09
463.141	6.15
463.496	6.31
463.852	6.21
464.208	6.19
464.564	6.41
464.919	6.22
465.275	6.35
465.631	6.33
465.986	6.38
466.342	6.36
466.697	6.25
467.052	6.24
467.408	6.34
467.763	6.33
468.118	6.47
468.473	6.34
468.829	6.29
469.184	6.29
469.539	6.32
469.894	6.33
470.249	6.28
470.603	6.25
470.958	6.48
471.313	6.32
471.668	6.33
472.023	6.3
472.377	6.47
472.732	6.34
473.086	6.6
473.441	6.24
473.795	6.39
474.15	6.32
474.504	6.2
474.859	6.45
475.213	6.12
475.567	6.1
475.921	6.38
476.275	6.27
476.63	6.38
476.984	6.4
477.338	6.48
477.692	6.38
478.045	6.51
478.399	6.53
478.753	6.38
479.107	6.41
479.461	6.35
479.814	6.45
480.168	6.43
480.521	6.35
480.875	6.41
481.228	6.43
481.582	6.29
481.935	6.35
482.289	6.44
482.642	6.28
482.995	6.29
483.348	6.47
483.701	6.3
484.055	6.35
484.408	6.28
484.761	6.34
485.114	6.28
485.466	6.08
485.819	6.05
486.172	6.02
486.525	6.04
486.878	5.99
487.23	6.05
487.583	6.12
487.936	6.16
488.288	6.22
488.641	6.21
488.993	6.12
489.345	6.11
489.698	6.05
490.05	6.11
490.402	6.13
490.754	6.1
491.107	6.07
491.459	6.22
491.811	6.2
492.163	6.19
492.515	6.26
492.866	6.29
493.218	6.26
493.57	6.25
493.922	6.19
494.274	6.2
494.625	6.15
494.977	6.25
495.328	6.35
495.68	6.38
496.031	6.28
496.383	6.37
496.734	6.34
497.086	6.4
497.437	6.55
497.788	6.53
498.139	6.59
498.49	6.37
498.842	6.39
499.193	6.28
499.544	6.48
499.894	6.37
500.245	6.39
500.596	6.46
500.947	6.48
501.298	6.52
501.648	6.49
501.999	6.45
502.35	6.45
502.7	6.54
503.051	6.52
503.401	6.6
503.752	6.51
504.102	6.56
504.452	6.45
504.803	6.45
505.153	6.51
505.503	6.48
505.853	6.57
506.203	6.4
506.553	6.52
506.903	6.47
507.253	6.37
507.603	6.57
507.953	6.59
508.303	6.53
508.652	6.49
509.002	6.59
509.352	6.45
509.701	6.5
510.051	6.55
510.4	6.44
510.75	6.46
511.099	6.43
511.449	6.45
511.798	6.5
512.147	6.46
512.496	6.51
512.846	6.44
513.195	6.49
513.544	6.48
513.893	6.59
514.242	6.47
514.591	6.52
514.939	6.53
515.288	6.56
515.637	6.5
515.986	6.44
516.334	6.47
516.683	6.63
517.032	6.56
517.38	6.62
517.729	6.43
518.077	6.61
518.426	6.53
518.774	6.64
519.122	6.56
519.47	6.52
519.819	6.53
520.167	6.55
520.515	6.42
520.863	6.46
521.211	6.43
521.559	6.43
521.907	6.47
522.255	6.49
522.602	6.53
522.95	6.54
523.298	6.68
523.645	6.62
523.993	6.7
524.341	6.47
524.688	6.61
525.036	6.53
525.383	6.62
525.73	6.73
526.078	6.57
526.425	6.55
526.772	6.67
527.119	6.57
527.466	6.49
527.814	6.5
528.161	6.32
528.508	6.46
528.854	6.42
529.201	6.52
529.548	6.5
529.895	6.33
530.242	6.33
530.588	6.29
530.935	6.24
531.282	6.25
531.628	6.27
531.975	6.21
532.321	6.25
532.667	6.36
533.014	6.42
533.36	6.43
533.706	6.44
534.052	6.51
534.399	6.51
534.745	6.44
535.091	6.39
535.437	6.35
535.783	6.26
536.129	6.32
536.474	6.4
536.82	6.34
537.166	6.51
537.512	6.53
537.857	6.5
538.203	6.52
538.549	6.45
538.894	6.4
539.239	6.42
539.585	6.34
539.93	6.53
540.276	6.38
540.621	6.44
540.966	6.53
541.311	6.61
541.656	6.5
542.001	6.51
542.346	6.46
542.691	6.47
543.036	6.46
543.381	6.37
543.726	6.33
544.071	6.32
544.415	6.31
544.76	6.29
545.105	6.28
545.449	6.36
545.794	6.43
546.138	6.5
546.483	6.48
546.827	6.44
547.171	6.43
547.516	6.49
547.86	6.63
548.204	6.51
548.548	6.47
548.892	6.49
549.236	6.49
549.58	6.48
549.924	6.62
550.268	6.65
550.612	6.62
550.956	6.63
551.3	6.71
551.643	6.68
551.987	6.63
552.33	6.58
552.674	6.46
553.017	6.43
553.361	6.51
553.704	6.54
554.048	6.82
554.391	6.64
554.734	6.62
555.077	6.65
555.42	6.53
555.764	6.69
556.107	6.54
556.45	6.57
556.793	6.58
557.135	6.67
557.478	6.42
557.821	6.73
558.164	6.66
558.507	6.69
558.849	6.42
559.192	6.87
559.534	6.64
559.877	6.42
560.219	6.72
560.562	6.59
560.904	6.64
561.246	6.68
561.589	6.58
561.931	6.45
562.273	6.6
562.615	6.52
562.957	6.69
563.299	6.37
563.641	6.73
563.983	6.57
564.325	6.7
564.667	6.76
565.008	6.52
565.35	6.53
565.692	6.74
566.033	6.6
566.375	6.68
566.716	6.68
567.058	6.45
567.399	6.62
567.741	6.7
568.082	6.4
568.423	6.64
568.764	6.64
569.105	6.41
569.447	6.41
569.788	6.33
570.129	6.65
570.47	6.61
570.811	6.66
571.151	6.83
571.492	6.49
571.833	6.45
572.174	6.52
572.514	6.58
572.855	6.66
573.195	6.46
573.536	6.51
573.876	6.42
574.217	6.51
574.557	6.52
574.898	6.54
575.238	6.58
575.578	6.56
575.918	6.46
576.258	6.33
576.598	6.51
576.938	6.52
577.278	6.68
577.618	6.37
577.958	6.54
578.298	6.65
578.638	6.51
578.977	6.58
579.317	6.51
579.657	6.59
579.996	6.58
580.336	6.61
580.675	6.65
581.014	6.47
581.354	6.5
581.693	6.36
582.032	6.38
582.372	6.62
582.711	6.67
583.05	6.47
583.389	6.55
583.728	6.71
584.067	6.52
584.406	6.59
584.745	6.2
585.083	6.75
585.422	6.96
585.761	6.64
586.1	6.52
586.438	6.51
586.777	6.54
587.115	6.57
587.454	6.29
587.792	6.54
588.13	6.74
588.469	6.49
588.807	6.7
589.145	6.76
589.483	6.4
589.821	6.52
590.159	6.55
590.497	6.62
590.835	6.4
591.173	6.41
591.511	6.47
591.849	6.58
592.187	6.67
592.524	6.58
592.862	6.44
593.2	6.26
593.537	6.33
593.875	6.41
594.212	6.29
594.55	6.49
594.887	6.08
595.224	6.44
595.561	6.63
595.899	6.75
596.236	6.61
596.573	6.62
596.91	6.59
597.247	6.26
597.584	6.67
597.921	6.62
598.258	6.7
598.594	6.25
598.931	6.24
599.268	6.36
599.604	6.47
599.941	6.44
600.277	6.34
600.614	6.37
600.95	6.32
601.287	6.25
601.623	6.61
601.959	6.67
602.296	6.34
602.632	6.16
602.968	6.51
603.304	6.32
603.64	6.23
603.976	6.58
604.312	6.49
604.648	6.54
604.984	6.42
605.319	6.31
605.655	6.32
605.991	6.37
606.326	6.31
606.662	6.23
606.998	6.23
607.333	6.44
607.668	6.32
608.004	6.43
608.339	6.05
608.674	6.46
609.01	6.33
609.345	6.3
609.68	6.4
610.015	6.52
610.35	6.17
610.685	6.46
611.02	6.46
611.355	6.39
611.689	6.31
612.024	6.54
612.359	6.26
612.694	6.12
613.028	6.12
613.363	6.38
613.697	6.33
614.032	6.17
614.366	6.16
614.7	6.45
615.035	6.31
615.369	6.29
615.703	6.24
616.037	6.35
616.371	6.68
616.705	6.25
617.039	6.2
617.373	6.55
617.707	6.12
618.041	6.46
618.375	6.13
618.709	6.08
619.042	6.28
619.376	6.62
619.71	6.44
620.043	6.24
620.377	5.93
620.71	6.48
621.043	6.33
621.377	6.12
621.71	6.33
622.043	5.99
622.376	6.55
622.709	6.39
623.043	6.42
623.376	6.5
623.709	6.23
624.041	6.11
624.374	6.12
624.707	6.34
625.04	6.16
625.373	5.87
625.705	6.25
626.038	6.33
626.37	6.52
626.703	6.33
627.035	5.94
627.368	6.44
627.7	6.24
628.032	6.4
628.365	6.28
628.697	6.23
629.029	6.34
629.361	6.18
629.693	6.32
630.025	6.29
630.357	6.21
630.689	6.29
631.021	6.05
631.353	6.34
631.684	6.04
632.016	6.53
632.348	6.13
632.679	6.13
633.011	6.19
633.342	6.22
633.674	6.41
634.005	6.11
634.336	6.69
634.668	6.33
634.999	6.24
635.33	6.35
635.661	6.29
635.992	6.14
636.323	6.35
636.654	6.18
636.985	5.92
637.316	6.37
637.647	6.26
637.977	5.84
638.308	6.59
638.639	6
638.969	6.24
639.3	6.1
639.63	6.52
639.961	5.99
640.291	6.09
640.622	6.35
640.952	6.61
641.282	6.55
641.612	6.28
641.943	6.24
642.273	6.48
642.603	6.19
642.933	6.15
643.263	5.88
643.592	6.13
643.922	6.39
644.252	6.4
644.582	6.47
644.911	6.3
645.241	6.42
645.571	6.37
645.9	6.55
646.23	6.56
646.559	6.35
646.888	6.58
647.218	6.58
647.547	5.92
647.876	6.11
648.205	5.84
648.534	6.28
648.863	6.38
649.192	5.98
649.521	6.51
649.85	6.22
650.179	6.2
650.508	6.03
650.837	6.41
651.165	6.38
651.494	6.03
651.822	6.52
652.151	6.09
652.479	6.01
652.808	5.76
653.136	6.83
653.465	6.52
653.793	6.18
654.121	6.12
654.449	5.95
654.777	6.22
655.105	6.73
655.433	6.23
655.761	6.72
656.089	6.28
656.417	6.17
656.745	6.13
657.073	5.78
657.4	6.75
657.728	6.03
658.056	6.21
658.383	6.4
658.711	5.89
659.038	5.82
659.365	6.57
659.693	5.85
660.02	5.97
660.347	6.1
660.674	6.07
661.001	5.72
661.329	5.93
661.656	6.23
661.982	6.03
662.309	6.22
662.636	6.03
662.963	6.31
663.29	6.32
663.616	6.26
663.943	6.48
664.27	6.09
664.596	5.97
664.923	6.14
665.249	6.34
665.576	5.52
665.902	6.06
666.228	5.64
666.554	6.07
666.881	7.03
667.207	6.08
667.533	5.98
667.859	6.25
668.185	6.71
668.511	6.73
668.837	6.14
669.162	6.79
669.488	6.17
669.814	5.92
670.139	6.46
670.465	7.03
670.791	6.39
671.116	6
671.442	6.36
671.767	5.56
672.092	6.22
672.418	6.64
672.743	6.39
673.068	6.31
673.393	6.12
673.718	6.84
674.043	6.93
674.368	6.7
674.693	6.71
675.018	6.3
675.343	6.32
675.667	5.94
675.992	5.71
676.317	6.44
676.641	6.19
676.966	6.29
677.29	6.25
677.615	5.92
677.939	6.56
678.264	6.9
678.588	6.48
678.912	6.48
679.236	6.09
679.56	6.17
679.885	6.16
680.209	7.15
680.532	5.82
680.856	6.27
681.18	6.39
681.504	6.86
681.828	6.08
682.152	6.46
682.475	7.09
682.799	6.23
683.122	6.23
683.446	6.03
683.769	6.29
684.093	6.17
684.416	6.35
684.739	6.38
685.062	6.65
685.386	6.32
685.709	6.09
686.032	6.07
686.355	6.43
686.678	6.24
687.001	6.42
687.324	6.87
687.646	6.25
687.969	6.12
688.292	6.49
688.614	6.79
688.937	6.51
689.26	5.87
689.582	6.4
689.904	6.62
690.227	6.85
690.549	7.29
690.871	5.66
691.194	6.75
691.516	6.8
691.838	6.9
692.16	6.58
692.482	6.68
