Data from 0280_crown_Reflection__3__327.txt Node

Date: Fri Sep 22 23:20:03 CDT 2023
User: ToomeyLab
Spectrometer: FLMS14357
Trigger mode: 0
Integration Time (sec): 1.000000E-2
Scans to average: 100
Electric dark correction enabled: true
Nonlinearity correction enabled: false
Boxcar width: 0
XAxis mode: Wavelengths
Number of Pixels in Spectrum: 2048
>>>>>Begin Spectral Data<<<<<
189.047	-182.23
189.435	-182.23
189.823	-182.23
190.211	-33.98
190.599	-51.51
190.987	370.7
191.375	94.15
191.763	1155.27
192.151	-180.65
192.538	67.46
192.926	205.37
193.314	20.44
193.702	280.83
194.089	247.37
194.477	-374.17
194.864	-118.33
195.252	38.04
195.639	81.05
196.027	429.53
196.414	164.61
196.801	60.83
197.189	-84.82
197.576	58.98
197.963	-16.69
198.351	-1.68
198.738	5.12
199.125	10.1
199.512	-43.8
199.899	29.77
200.286	45.11
200.673	20.05
201.06	4.41
201.447	35.39
201.833	4.29
202.22	48.64
202.607	25.21
202.994	64.43
203.38	28.33
203.767	13.59
204.154	46.02
204.54	33.94
204.927	-4.46
205.313	47.9
205.699	67.93
206.086	25.56
206.472	45.65
206.858	29.72
207.245	-0.52
207.631	6.98
208.017	19.31
208.403	15.59
208.789	24.94
209.175	34.12
209.561	30.15
209.947	44.66
210.333	47.99
210.719	49.45
211.105	14.21
211.491	-16.04
211.876	25.2
212.262	30.64
212.648	21.79
213.034	33.97
213.419	18.84
213.805	35.64
214.19	11.52
214.576	22.76
214.961	26.98
215.346	7.89
215.732	28.6
216.117	23.77
216.502	36.84
216.888	24.2
217.273	2.37
217.658	-26.4
218.043	-9.25
218.428	24.6
218.813	-4.63
219.198	-3.04
219.583	28.22
219.968	-0.38
220.353	14.67
220.738	20.1
221.122	10.45
221.507	4.25
221.892	10.53
222.276	15.35
222.661	-18.56
223.046	15.76
223.43	25.73
223.815	-6.15
224.199	11.02
224.583	16.71
224.968	17.42
225.352	4.32
225.736	13.23
226.121	5.68
226.505	10.74
226.889	6.15
227.273	2.85
227.657	9.21
228.041	4.33
228.425	10.86
228.809	6.23
229.193	9.41
229.577	9.03
229.961	8.8
230.344	8.91
230.728	6.7
231.112	8.08
231.495	7.08
231.879	6.89
232.263	6.62
232.646	7.14
233.03	7.77
233.413	7.66
233.797	7.2
234.18	8.14
234.563	8.74
234.946	6.67
235.33	4.49
235.713	6.21
236.096	5.51
236.479	6.26
236.862	8.48
237.245	6.16
237.628	7.27
238.011	6.89
238.394	5.5
238.777	7.3
239.16	6.39
239.543	6.97
239.925	7.72
240.308	8.15
240.691	6.11
241.073	8.7
241.456	6.96
241.838	6.62
242.221	5.32
242.603	6.68
242.986	6.03
243.368	5.42
243.75	7.12
244.133	6.73
244.515	6.51
244.897	5.95
245.279	6.66
245.661	6.48
246.043	6.59
246.425	6.55
246.807	6.26
247.189	4.98
247.571	6.57
247.953	7.21
248.335	6.44
248.717	6.15
249.098	6.41
249.48	6.12
249.862	6.25
250.243	6.44
250.625	6.85
251.006	5.91
251.388	6.04
251.769	6.13
252.151	6.26
252.532	6.21
252.913	6.03
253.295	6.94
253.676	6.52
254.057	6.39
254.438	6.84
254.819	5.96
255.2	6.41
255.581	6.21
255.962	7.04
256.343	6.5
256.724	5.58
257.105	5.79
257.486	6.16
257.867	6
258.247	7.06
258.628	6.77
259.009	5.57
259.389	5.64
259.77	7.02
260.15	6.38
260.531	5.59
260.911	5.53
261.292	5.58
261.672	5.6
262.052	6.22
262.432	5.93
262.813	6.11
263.193	5.93
263.573	6.08
263.953	5.73
264.333	6.25
264.713	6.18
265.093	5.9
265.473	5.42
265.853	6.06
266.233	5.81
266.612	5.69
266.992	5.6
267.372	6.08
267.752	6.16
268.131	6.41
268.511	5.61
268.89	5.85
269.27	5.79
269.649	6.14
270.029	5.79
270.408	5.6
270.787	5.6
271.167	5.69
271.546	5.71
271.925	6.36
272.304	5.38
272.683	5.98
273.062	6.41
273.441	5.58
273.82	5.83
274.199	5.77
274.578	6.06
274.957	5.85
275.336	5.76
275.715	5.92
276.093	5.45
276.472	5.68
276.851	5.88
277.229	5.41
277.608	5.76
277.986	5.77
278.365	6.33
278.743	5.88
279.122	5.7
279.5	6.27
279.878	5.86
280.257	6.18
280.635	5.78
281.013	5.82
281.391	5.12
281.769	5.63
282.147	5.44
282.525	5.91
282.903	5.48
283.281	5.56
283.659	5.5
284.037	5.29
284.415	5.76
284.792	5.88
285.17	5.63
285.548	5.9
285.925	5.78
286.303	5.5
286.68	5.13
287.058	5.33
287.435	5.59
287.813	5.09
288.19	5.1
288.567	5.27
288.945	5.07
289.322	5.32
289.699	5.47
290.076	5.64
290.453	5.27
290.83	5.2
291.207	5.51
291.584	4.95
291.961	4.84
292.338	5.09
292.715	5.57
293.092	5.15
293.469	5.37
293.845	5.1
294.222	5.35
294.599	5.57
294.975	5.45
295.352	5.51
295.728	4.54
296.105	5.41
296.481	5.2
296.858	4.54
297.234	5.12
297.61	5
297.986	5.03
298.363	4.96
298.739	4.84
299.115	5.11
299.491	5.17
299.867	5.27
300.243	4.9
300.619	5.48
300.995	4.84
301.371	5.48
301.746	5.05
302.122	4.93
302.498	4.5
302.874	4.89
303.249	4.9
303.625	5.11
304	5.31
304.376	5.6
304.751	5.04
305.127	5.22
305.502	5.32
305.878	4.87
306.253	5.07
306.628	4.97
307.003	4.95
307.378	5.02
307.754	4.99
308.129	4.94
308.504	5.16
308.879	4.98
309.254	4.41
309.629	4.68
310.003	5.15
310.378	5.85
310.753	4.63
311.128	5.01
311.502	5.17
311.877	4.51
312.252	4.73
312.626	5.04
313.001	5.04
313.375	5.06
313.75	5.45
314.124	5.09
314.498	4.74
314.873	4.63
315.247	5.15
315.621	5.05
315.995	4.93
316.369	4.68
316.743	4.7
317.117	4.95
317.491	5.36
317.865	4.48
318.239	4.81
318.613	5.28
318.987	4.43
319.361	4.14
319.734	4.71
320.108	4.82
320.482	4.11
320.855	4.92
321.229	5.47
321.602	4.52
321.976	4.12
322.349	5.05
322.723	4.86
323.096	4.79
323.469	5.2
323.843	4.79
324.216	4.41
324.589	4.99
324.962	4.32
325.335	5.09
325.708	4.62
326.081	5.4
326.454	4.23
326.827	4.63
327.2	4.79
327.573	4.76
327.945	4.78
328.318	4.63
328.691	4.99
329.063	4.34
329.436	4.83
329.809	4.9
330.181	5.09
330.553	4.51
330.926	4.8
331.298	4.66
331.671	5.1
332.043	4.53
332.415	4.18
332.787	4.84
333.159	4.6
333.532	4.75
333.904	4.44
334.276	3.61
334.648	4.1
335.02	4.25
335.391	4.6
335.763	4.82
336.135	5.06
336.507	4.85
336.879	4.24
337.25	4.69
337.622	4.58
337.993	4.23
338.365	4.28
338.736	4.31
339.108	4.52
339.479	4.03
339.851	4.31
340.222	4.4
340.593	4.33
340.964	3.98
341.336	4.22
341.707	4.33
342.078	4.56
342.449	4.42
342.82	4.02
343.191	4
343.562	4.32
343.933	4.24
344.303	4.6
344.674	4.51
345.045	4.62
345.416	4.82
345.786	4.11
346.157	4.61
346.527	4.7
346.898	4.32
347.268	4.48
347.639	4.14
348.009	4.59
348.38	4.49
348.75	4.63
349.12	4.37
349.49	4.64
349.861	4.22
350.231	4.46
350.601	4.41
350.971	4.23
351.341	4.64
351.711	4.31
352.081	4.37
352.45	4.05
352.82	4.7
353.19	4.59
353.56	4.28
353.929	4.68
354.299	4.45
354.669	4.25
355.038	4.39
355.408	4.65
355.777	4.32
356.147	4.44
356.516	4.51
356.885	4.46
357.254	4.78
357.624	4.05
357.993	4.45
358.362	4.71
358.731	4.4
359.1	4.76
359.469	4.73
359.838	4.16
360.207	4.3
360.576	4.4
360.945	4.29
361.314	4.41
361.682	4.67
362.051	5.01
362.42	4.16
362.788	4.3
363.157	4.54
363.525	4.38
363.894	4.4
364.262	4.51
364.631	4.5
364.999	4.4
365.367	4.55
365.735	4.53
366.104	4.72
366.472	4.74
366.84	4.39
367.208	4.71
367.576	4.85
367.944	4.29
368.312	4.61
368.68	4.43
369.048	4.52
369.416	4.41
369.783	4.49
370.151	4.58
370.519	4.73
370.886	4.7
371.254	4.77
371.621	4.37
371.989	4.81
372.356	4.53
372.724	4.77
373.091	4.49
373.458	4.68
373.826	4.61
374.193	4.88
374.56	4.49
374.927	4.51
375.294	4.45
375.661	4.34
376.028	4.95
376.395	4.69
376.762	4.71
377.129	4.85
377.496	5.13
377.863	4.97
378.229	4.84
378.596	4.58
378.963	5.14
379.329	4.71
379.696	4.93
380.062	4.49
380.429	4.55
380.795	4.81
381.161	4.72
381.528	4.53
381.894	4.55
382.26	4.88
382.626	4.52
382.993	4.87
383.359	4.43
383.725	4.53
384.091	4.79
384.457	4.66
384.823	4.49
385.188	4.87
385.554	4.81
385.92	4.75
386.286	4.98
386.651	4.71
387.017	4.96
387.383	4.83
387.748	4.65
388.114	4.77
388.479	4.71
388.845	4.44
389.21	4.5
389.575	4.93
389.94	4.64
390.306	4.93
390.671	4.99
391.036	4.51
391.401	4.7
391.766	4.61
392.131	4.83
392.496	4.66
392.861	4.85
393.226	4.96
393.591	4.66
393.956	4.72
394.32	4.94
394.685	4.68
395.05	4.87
395.414	4.95
395.779	4.8
396.143	5.01
396.508	4.69
396.872	4.76
397.236	4.8
397.601	4.68
397.965	5.01
398.329	4.88
398.694	4.69
399.058	5.03
399.422	4.79
399.786	5.01
400.15	4.91
400.514	4.83
400.878	4.91
401.242	4.95
401.605	4.68
401.969	4.89
402.333	5.02
402.697	4.84
403.06	4.63
403.424	4.89
403.787	5.18
404.151	5
404.514	5.06
404.878	5.13
405.241	5.2
405.604	5.09
405.968	5.07
406.331	4.97
406.694	5.08
407.057	5
407.42	5.21
407.783	5.03
408.146	5.03
408.509	4.86
408.872	4.78
409.235	5.06
409.598	4.95
409.961	5.11
410.323	4.96
410.686	4.95
411.049	5.1
411.411	5.17
411.774	4.77
412.136	5.16
412.499	5.02
412.861	4.97
413.223	5.18
413.586	5
413.948	5.13
414.31	4.92
414.672	5.02
415.035	5.09
415.397	5.22
415.759	5.43
416.121	5.05
416.483	4.91
416.845	5.02
417.206	4.8
417.568	5
417.93	4.97
418.292	4.88
418.653	4.83
419.015	5.04
419.377	4.93
419.738	5.09
420.1	4.87
420.461	4.92
420.822	4.82
421.184	4.88
421.545	4.9
421.906	4.89
422.267	4.91
422.629	4.97
422.99	4.96
423.351	4.85
423.712	4.89
424.073	4.88
424.434	4.96
424.795	4.84
425.155	5.03
425.516	4.96
425.877	4.93
426.238	4.89
426.598	4.85
426.959	4.98
427.32	5.02
427.68	4.92
428.041	4.88
428.401	5.05
428.761	5.14
429.122	4.92
429.482	5.01
429.842	5.1
430.202	5.07
430.563	5.14
430.923	5.25
431.283	5.37
431.643	5.2
432.003	5.11
432.363	5.18
432.722	5.14
433.082	5.33
433.442	5.16
433.802	5.04
434.161	5.21
434.521	5.15
434.881	5.29
435.24	5.08
435.6	4.86
435.959	5.09
436.319	5.17
436.678	5.25
437.037	5.26
437.396	5.09
437.756	5.12
438.115	5.18
438.474	5.06
438.833	5.21
439.192	5.15
439.551	5.28
439.91	5.45
440.269	5.12
440.628	5.11
440.987	4.99
441.345	5.15
441.704	5.2
442.063	5.09
442.421	5.08
442.78	5.13
443.138	5.16
443.497	5.06
443.855	5.15
444.214	5.01
444.572	5.17
444.93	5.22
445.288	5.29
445.647	5.18
446.005	5.28
446.363	5.08
446.721	5.07
447.079	4.98
447.437	5.25
447.795	5.29
448.153	5.06
448.51	5.05
448.868	4.97
449.226	5.17
449.584	5.05
449.941	5.09
450.299	5.16
450.656	5.23
451.014	5.34
451.371	5.19
451.729	5.23
452.086	5.21
452.443	5.25
452.801	5.32
453.158	4.99
453.515	5.2
453.872	5.14
454.229	5.4
454.586	5.19
454.943	5.24
455.3	5.23
455.657	5.25
456.014	5.22
456.371	5.37
456.727	5.38
457.084	5.42
457.441	5.25
457.797	5.31
458.154	5.28
458.51	5.28
458.867	5.15
459.223	5.24
459.58	5.42
459.936	5.37
460.292	5.19
460.648	5.35
461.005	5.22
461.361	5.27
461.717	5.06
462.073	5.15
462.429	5.1
462.785	5.13
463.141	5.16
463.496	5.37
463.852	5.39
464.208	5.34
464.564	5.4
464.919	5.12
465.275	5.33
465.631	5.41
465.986	5.3
466.342	5.37
466.697	5.31
467.052	5.32
467.408	5.43
467.763	5.31
468.118	5.53
468.473	5.38
468.829	5.31
469.184	5.33
469.539	5.26
469.894	5.29
470.249	5.54
470.603	5.47
470.958	5.45
471.313	5.46
471.668	5.52
472.023	5.35
472.377	5.39
472.732	5.36
473.086	5.54
473.441	5.2
473.795	5.52
474.15	5.28
474.504	5.42
474.859	5.45
475.213	5.33
475.567	5.34
475.921	5.34
476.275	5.39
476.63	5.36
476.984	5.32
477.338	5.56
477.692	5.44
478.045	5.38
478.399	5.69
478.753	5.33
479.107	5.39
479.461	5.36
479.814	5.33
480.168	5.43
480.521	5.6
480.875	5.54
481.228	5.51
481.582	5.3
481.935	5.38
482.289	5.45
482.642	5.37
482.995	5.3
483.348	5.45
483.701	5.36
484.055	5.39
484.408	5.39
484.761	5.39
485.114	5.21
485.466	5.16
485.819	5.07
486.172	5.04
486.525	5.03
486.878	5.04
487.23	5.1
487.583	5.2
487.936	5.24
488.288	5.26
488.641	5.22
488.993	5.16
489.345	5.15
489.698	5.13
490.05	5.17
490.402	5.14
490.754	5.07
491.107	5.17
491.459	5.28
491.811	5.27
492.163	5.21
492.515	5.27
492.866	5.32
493.218	5.39
493.57	5.31
493.922	5.19
494.274	5.17
494.625	5.26
494.977	5.31
495.328	5.35
495.68	5.47
496.031	5.41
496.383	5.51
496.734	5.6
497.086	5.45
497.437	5.55
497.788	5.42
498.139	5.48
498.49	5.61
498.842	5.27
499.193	5.37
499.544	5.54
499.894	5.35
500.245	5.44
500.596	5.44
500.947	5.47
501.298	5.49
501.648	5.55
501.999	5.48
502.35	5.47
502.7	5.5
503.051	5.52
503.401	5.58
503.752	5.48
504.102	5.39
504.452	5.57
504.803	5.43
505.153	5.49
505.503	5.61
505.853	5.68
506.203	5.46
506.553	5.51
506.903	5.6
507.253	5.47
507.603	5.56
507.953	5.57
508.303	5.73
508.652	5.53
509.002	5.72
509.352	5.71
509.701	5.45
510.051	5.6
510.4	5.59
510.75	5.52
511.099	5.41
511.449	5.51
511.798	5.56
512.147	5.5
512.496	5.56
512.846	5.54
513.195	5.58
513.544	5.45
513.893	5.51
514.242	5.5
514.591	5.51
514.939	5.54
515.288	5.47
515.637	5.57
515.986	5.55
516.334	5.56
516.683	5.67
517.032	5.69
517.38	5.65
517.729	5.47
518.077	5.71
518.426	5.54
518.774	5.62
519.122	5.62
519.47	5.58
519.819	5.62
520.167	5.49
520.515	5.5
520.863	5.47
521.211	5.42
521.559	5.49
521.907	5.48
522.255	5.52
522.602	5.52
522.95	5.58
523.298	5.59
523.645	5.62
523.993	5.56
524.341	5.56
524.688	5.64
525.036	5.63
525.383	5.49
525.73	5.63
526.078	5.59
526.425	5.59
526.772	5.76
527.119	5.56
527.466	5.44
527.814	5.47
528.161	5.37
528.508	5.46
528.854	5.5
529.201	5.53
529.548	5.55
529.895	5.48
530.242	5.38
530.588	5.29
530.935	5.22
531.282	5.27
531.628	5.35
531.975	5.29
532.321	5.34
532.667	5.47
533.014	5.49
533.36	5.48
533.706	5.47
534.052	5.69
534.399	5.53
534.745	5.54
535.091	5.48
535.437	5.41
535.783	5.29
536.129	5.39
536.474	5.49
536.82	5.41
537.166	5.56
537.512	5.58
537.857	5.49
538.203	5.7
538.549	5.56
538.894	5.42
539.239	5.51
539.585	5.45
539.93	5.71
540.276	5.62
540.621	5.57
540.966	5.63
541.311	5.71
541.656	5.69
542.001	5.63
542.346	5.6
542.691	5.74
543.036	5.55
543.381	5.4
543.726	5.41
544.071	5.4
544.415	5.38
544.76	5.47
545.105	5.34
545.449	5.44
545.794	5.48
546.138	5.48
546.483	5.6
546.827	5.54
547.171	5.64
547.516	5.69
547.86	5.72
548.204	5.73
548.548	5.61
548.892	5.56
549.236	5.6
549.58	5.6
549.924	5.7
550.268	5.74
550.612	5.74
550.956	5.78
551.3	5.75
551.643	5.78
551.987	5.76
552.33	5.97
552.674	5.72
553.017	5.75
553.361	5.7
553.704	5.81
554.048	5.84
554.391	5.71
554.734	5.81
555.077	5.57
555.42	5.74
555.764	5.68
556.107	5.75
556.45	5.63
556.793	5.7
557.135	5.65
557.478	5.73
557.821	5.76
558.164	5.73
558.507	5.86
558.849	5.8
559.192	5.94
559.534	5.95
559.877	5.78
560.219	5.89
560.562	5.65
560.904	5.8
561.246	6.02
561.589	5.84
561.931	5.78
562.273	5.73
562.615	5.72
562.957	5.69
563.299	5.9
563.641	5.77
563.983	5.83
564.325	5.7
564.667	5.77
565.008	5.91
565.35	5.75
565.692	5.7
566.033	5.76
566.375	5.95
566.716	5.91
567.058	5.8
567.399	5.85
567.741	6.12
568.082	5.7
568.423	5.82
568.764	6.07
569.105	5.66
569.447	5.69
569.788	5.71
570.129	5.92
570.47	5.85
570.811	5.72
571.151	5.87
571.492	5.73
571.833	5.66
572.174	5.78
572.514	5.75
572.855	5.72
573.195	5.64
573.536	5.7
573.876	5.62
574.217	5.62
574.557	5.72
574.898	5.86
575.238	5.75
575.578	5.79
575.918	5.81
576.258	5.66
576.598	5.7
576.938	5.8
577.278	5.89
577.618	5.78
577.958	5.74
578.298	5.83
578.638	5.62
578.977	5.81
579.317	5.82
579.657	5.8
579.996	5.87
580.336	6.01
580.675	5.82
581.014	5.87
581.354	5.59
581.693	5.87
582.032	6.03
582.372	5.96
582.711	5.76
583.05	5.91
583.389	5.77
583.728	5.87
584.067	5.86
584.406	5.97
584.745	5.72
585.083	5.84
585.422	5.92
585.761	5.82
586.1	5.76
586.438	5.66
586.777	5.85
587.115	5.97
587.454	5.5
587.792	5.77
588.13	5.76
588.469	5.6
588.807	5.83
589.145	5.77
589.483	5.95
589.821	5.8
590.159	5.64
590.497	6.14
590.835	5.87
591.173	5.79
591.511	5.89
591.849	5.88
592.187	5.81
592.524	5.81
592.862	5.88
593.2	5.98
593.537	5.65
593.875	5.85
594.212	5.81
594.55	6.17
594.887	5.98
595.224	5.64
595.561	5.99
595.899	5.94
596.236	6.02
596.573	5.92
596.91	5.87
597.247	5.64
597.584	6
597.921	6
598.258	5.73
598.594	5.83
598.931	5.73
599.268	5.63
599.604	5.72
599.941	5.7
600.277	5.68
600.614	5.84
600.95	6
601.287	5.55
601.623	5.91
601.959	5.94
602.296	5.67
602.632	5.63
602.968	5.99
603.304	5.89
603.64	5.68
603.976	5.81
604.312	5.85
604.648	5.65
604.984	5.81
605.319	5.98
605.655	5.68
605.991	5.79
606.326	5.94
606.662	5.64
606.998	5.73
607.333	5.82
607.668	5.71
608.004	5.79
608.339	5.59
608.674	5.98
609.01	5.71
609.345	5.65
609.68	5.8
610.015	5.78
610.35	5.8
610.685	6.09
611.02	5.97
611.355	5.85
611.689	5.77
612.024	5.89
612.359	5.76
612.694	5.76
613.028	5.66
613.363	5.6
613.697	5.73
614.032	5.79
614.366	5.69
614.7	5.73
615.035	5.71
615.369	5.75
615.703	5.89
616.037	5.66
616.371	6
616.705	6.17
617.039	6.17
617.373	5.95
617.707	5.7
618.041	6.34
618.375	5.99
618.709	5.79
619.042	6.05
619.376	6.31
619.71	5.7
620.043	5.64
620.377	5.67
620.71	5.82
621.043	5.94
621.377	5.76
621.71	5.64
622.043	5.95
622.376	6.05
622.709	5.74
623.043	5.8
623.376	5.71
623.709	5.97
624.041	5.89
624.374	6.01
624.707	6.06
625.04	5.92
625.373	5.69
625.705	5.95
626.038	5.98
626.37	6.35
626.703	5.77
627.035	5.51
627.368	5.55
627.7	6.08
628.032	6.13
628.365	5.77
628.697	5.8
629.029	5.83
629.361	5.72
629.693	5.95
630.025	5.91
630.357	5.69
630.689	5.83
631.021	5.67
631.353	5.82
631.684	5.58
632.016	6.06
632.348	5.82
632.679	5.69
633.011	6
633.342	5.73
633.674	5.85
634.005	5.53
634.336	5.95
634.668	5.84
634.999	5.63
635.33	6.14
635.661	5.83
635.992	6.07
636.323	5.63
636.654	5.92
636.985	5.79
637.316	5.79
637.647	5.66
637.977	5.48
638.308	5.97
638.639	5.72
638.969	5.9
639.3	5.99
639.63	6.08
639.961	5.44
640.291	5.96
640.622	6.01
640.952	6.05
641.282	5.86
641.612	5.9
641.943	6.02
642.273	5.72
642.603	5.62
642.933	6.12
643.263	5.44
643.592	5.83
643.922	5.88
644.252	5.53
644.582	6.57
644.911	5.76
645.241	6.23
645.571	5.65
645.9	5.73
646.23	6.03
646.559	6.13
646.888	5.87
647.218	5.96
647.547	5.8
647.876	5.79
648.205	5.87
648.534	6.13
648.863	5.89
649.192	5.51
649.521	5.64
649.85	6.31
650.179	5.74
650.508	5.81
650.837	6.47
651.165	5.91
651.494	5.89
651.822	5.95
652.151	5.62
652.479	5.81
652.808	6.08
653.136	5.45
653.465	6.19
653.793	5.33
654.121	5.68
654.449	5.61
654.777	5.72
655.105	6.02
655.433	6.17
655.761	5.96
656.089	5.68
656.417	5.45
656.745	6.28
657.073	5.57
657.4	6.42
657.728	5.87
658.056	5.63
658.383	6.16
658.711	5.73
659.038	5.71
659.365	5.86
659.693	5.34
660.02	5.82
660.347	6.35
660.674	6.05
661.001	5.83
661.329	5.69
661.656	6
661.982	5.69
662.309	6.06
662.636	5.61
662.963	5.59
663.29	5.66
663.616	5.9
663.943	6.02
664.27	5.91
664.596	5.75
664.923	5.86
665.249	5.85
665.576	4.99
665.902	6.36
666.228	5.59
666.554	5.29
666.881	6.16
667.207	6.12
667.533	5.96
667.859	5.92
668.185	5.9
668.511	6.16
668.837	5.98
669.162	6.14
669.488	5.93
669.814	5.66
670.139	6.15
670.465	6.05
670.791	6.26
671.116	5.63
671.442	6.73
671.767	5.68
672.092	6.19
672.418	6.32
672.743	6.11
673.068	5.6
673.393	5.64
673.718	6.18
674.043	6.28
674.368	6.01
674.693	5.63
675.018	6.05
675.343	5.91
675.667	5.92
675.992	5.26
676.317	6.37
676.641	6.39
676.966	6.25
677.29	5.79
677.615	6.1
677.939	6.03
678.264	6.11
678.588	6.06
678.912	6.23
679.236	5.84
679.56	5.88
679.885	5.98
680.209	6.39
680.532	6.23
680.856	5.16
681.18	5.85
681.504	6.33
681.828	6.19
682.152	6.13
682.475	6.45
682.799	6.03
683.122	5.71
683.446	6.24
683.769	5.97
684.093	5.99
684.416	5.52
684.739	5.99
685.062	6.37
685.386	5.97
685.709	6.02
686.032	5.53
686.355	6.01
686.678	6.45
687.001	6.12
687.324	6.47
687.646	6.3
687.969	6.53
688.292	6.5
688.614	6.69
688.937	6.16
689.26	6.11
689.582	6.09
689.904	6.07
690.227	6.27
690.549	6.58
690.871	5.8
691.194	6.52
691.516	5.59
691.838	6.06
692.16	6.36
692.482	6.3
692.804	5.35
