Data from 0014_chest_Reflection__3__23.txt Node

Date: Mon Oct 17 14:36:14 CDT 2022
User: ToomeyLab
Spectrometer: FLMS14357
Trigger mode: 0
Integration Time (sec): 1.000000E-2
Scans to average: 100
Electric dark correction enabled: true
Nonlinearity correction enabled: false
Boxcar width: 0
XAxis mode: Wavelengths
Number of Pixels in Spectrum: 2048
>>>>>Begin Spectral Data<<<<<
189.047	39.04
189.435	39.04
189.823	39.04
190.211	-251.77
190.599	-58.88
190.987	-446.96
191.375	80.31
191.763	-2240.18
192.151	-2392.19
192.538	17.26
192.926	401.74
193.314	10.31
193.702	135.44
194.089	48.94
194.477	1344.27
194.864	-308.65
195.252	-28.21
195.639	13.84
196.027	131.74
196.414	-99.45
196.801	-0.92
197.189	70.03
197.576	109.48
197.963	2.45
198.351	-180.79
198.738	6.72
199.125	-26.29
199.512	-103.51
199.899	-7.27
200.286	41.17
200.673	7.43
201.06	-5.55
201.447	25.14
201.833	39.59
202.22	34.75
202.607	12.45
202.994	-16.45
203.38	-10.01
203.767	10.88
204.154	31.74
204.54	29.1
204.927	9.91
205.313	2.87
205.699	8.36
206.086	-25.14
206.472	25.12
206.858	4.19
207.245	4.94
207.631	-0.89
208.017	21.31
208.403	45.46
208.789	14.9
209.175	-21.22
209.561	-79.96
209.947	-7.95
210.333	60.25
210.719	22.56
211.105	28.39
211.491	36.53
211.876	-11.26
212.262	13.77
212.648	6.81
213.034	-24.11
213.419	21.14
213.805	-6.51
214.19	3.72
214.576	2.87
214.961	-26.53
215.346	-49.37
215.732	-5.23
216.117	13.33
216.502	15.66
216.888	8.31
217.273	18.97
217.658	13.1
218.043	-6.46
218.428	-15.49
218.813	14.35
219.198	8.95
219.583	-3.3
219.968	9.04
220.353	0.49
220.738	-9.26
221.122	10.26
221.507	-3.09
221.892	4
222.276	7.53
222.661	5.26
223.046	13.3
223.43	5.43
223.815	-4.31
224.199	7.86
224.583	-1.69
224.968	-3.66
225.352	-11.15
225.736	2.44
226.121	5.76
226.505	-7.68
226.889	0.67
227.273	2.01
227.657	6.11
228.041	5.04
228.425	-0.07
228.809	3.16
229.193	3
229.577	3.6
229.961	3.76
230.344	1.21
230.728	2.12
231.112	2.37
231.495	2.47
231.879	2.59
232.263	1.96
232.646	3.86
233.03	2.36
233.413	0.73
233.797	2.56
234.18	3.74
234.563	1.34
234.946	1.67
235.33	2.68
235.713	1.53
236.096	3.07
236.479	2.1
236.862	2.02
237.245	2.58
237.628	2.3
238.011	3.28
238.394	3.57
238.777	3.68
239.16	1.73
239.543	2.3
239.925	1.95
240.308	2.25
240.691	1.01
241.073	2.81
241.456	2.84
241.838	2.63
242.221	2.05
242.603	2.5
242.986	1.88
243.368	3.08
243.75	2.08
244.133	2.64
244.515	2.5
244.897	2.87
245.279	2.47
245.661	3.14
246.043	2.9
246.425	1
246.807	2.02
247.189	3.4
247.571	2.22
247.953	2.28
248.335	2.44
248.717	2.49
249.098	2.44
249.48	2.35
249.862	2.24
250.243	2.24
250.625	2.53
251.006	2.19
251.388	2.51
251.769	2.27
252.151	2.04
252.532	2.59
252.913	2.27
253.295	1.72
253.676	2.69
254.057	2.69
254.438	2.27
254.819	3.21
255.2	2.73
255.581	3.36
255.962	1.49
256.343	2.15
256.724	1.66
257.105	2.06
257.486	1.4
257.867	2.32
258.247	1.85
258.628	2.57
259.009	2.03
259.389	2.23
259.77	2.32
260.15	2.57
260.531	1.83
260.911	2.38
261.292	2.34
261.672	2.15
262.052	2.25
262.432	2.21
262.813	1.9
263.193	2.78
263.573	2.57
263.953	2.22
264.333	1.89
264.713	2.18
265.093	1.96
265.473	2
265.853	2.68
266.233	3.3
266.612	2.59
266.992	2.86
267.372	2.33
267.752	2.14
268.131	2.83
268.511	1.87
268.89	2.7
269.27	2.09
269.649	2.22
270.029	2.21
270.408	2.71
270.787	1.96
271.167	2.25
271.546	2.07
271.925	2.1
272.304	2.17
272.683	2.2
273.062	2.07
273.441	2.22
273.82	2.04
274.199	2.58
274.578	2.22
274.957	2.29
275.336	2.31
275.715	2.26
276.093	1.83
276.472	2.01
276.851	2.64
277.229	1.51
277.608	2.34
277.986	1.87
278.365	2.33
278.743	2.21
279.122	1.88
279.5	2.28
279.878	2.35
280.257	1.85
280.635	1.8
281.013	1.92
281.391	1.99
281.769	2.05
282.147	2.51
282.525	2.09
282.903	1.61
283.281	2.11
283.659	1.78
284.037	2.03
284.415	2.35
284.792	2.16
285.17	1.54
285.548	2.12
285.925	2.12
286.303	1.82
286.68	2.03
287.058	2.07
287.435	2.2
287.813	2.08
288.19	1.89
288.567	1.78
288.945	2
289.322	2.55
289.699	2.47
290.076	2.2
290.453	1.95
290.83	2.17
291.207	2.32
291.584	2.17
291.961	2.09
292.338	2.21
292.715	2.23
293.092	2.28
293.469	2.33
293.845	2.08
294.222	2.09
294.599	2.83
294.975	1.72
295.352	2.19
295.728	2.34
296.105	2.14
296.481	2.06
296.858	2.55
297.234	2.15
297.61	2.3
297.986	2.06
298.363	2.31
298.739	2.56
299.115	2.07
299.491	2.32
299.867	2
300.243	2.46
300.619	2.03
300.995	2.37
301.371	2.26
301.746	2.65
302.122	2.02
302.498	2.45
302.874	2.9
303.249	2.61
303.625	2.47
304	2.37
304.376	2.55
304.751	2.9
305.127	2.57
305.502	1.99
305.878	2.65
306.253	2.18
306.628	2.72
307.003	2.33
307.378	2.9
307.754	2.17
308.129	2.18
308.504	2.89
308.879	2.54
309.254	2.52
309.629	2.03
310.003	2.59
310.378	2.5
310.753	2.4
311.128	2.68
311.502	2.67
311.877	2.64
312.252	2.39
312.626	2.31
313.001	2.36
313.375	2.24
313.75	2.43
314.124	2.43
314.498	2.38
314.873	2.02
315.247	2.8
315.621	2.63
315.995	2.24
316.369	1.97
316.743	2.91
317.117	2.85
317.491	2.48
317.865	2.86
318.239	2.56
318.613	2.97
318.987	2.07
319.361	2.05
319.734	2.82
320.108	2.62
320.482	2.61
320.855	2.64
321.229	2.49
321.602	2.29
321.976	2.63
322.349	1.85
322.723	2.13
323.096	2.58
323.469	3.23
323.843	2.55
324.216	2.89
324.589	2.19
324.962	2.72
325.335	2.32
325.708	2.83
326.081	2.57
326.454	2.46
326.827	2.38
327.2	2.52
327.573	2.48
327.945	2.52
328.318	2.52
328.691	2.58
329.063	2.92
329.436	2.21
329.809	2.33
330.181	3.04
330.553	2.2
330.926	2.58
331.298	2.39
331.671	3.16
332.043	2.25
332.415	2.54
332.787	2.42
333.159	2.61
333.532	1.78
333.904	2.31
334.276	2.8
334.648	2.66
335.02	2.55
335.391	2.26
335.763	2.51
336.135	1.97
336.507	2.64
336.879	2.21
337.25	2.81
337.622	2.57
337.993	2.83
338.365	2.62
338.736	2.65
339.108	2.97
339.479	2.46
339.851	2.79
340.222	2.34
340.593	2.31
340.964	2.37
341.336	2.47
341.707	2.82
342.078	2.79
342.449	2.85
342.82	2.73
343.191	2.69
343.562	2.68
343.933	2.53
344.303	2.41
344.674	3.17
345.045	2.99
345.416	2.37
345.786	2.86
346.157	2.8
346.527	2.52
346.898	2.97
347.268	2.77
347.639	2.46
348.009	2.78
348.38	2.81
348.75	2.55
349.12	2.56
349.49	2.46
349.861	2.67
350.231	2.45
350.601	2.66
350.971	2.53
351.341	2.41
351.711	2.69
352.081	2.86
352.45	2.63
352.82	2.78
353.19	2.62
353.56	2.23
353.929	2.68
354.299	2.68
354.669	2.97
355.038	3.03
355.408	2.49
355.777	2.58
356.147	2.36
356.516	2.65
356.885	2.7
357.254	2.88
357.624	2.99
357.993	2.84
358.362	2.66
358.731	2.35
359.1	2.51
359.469	2.41
359.838	2.8
360.207	2.86
360.576	2.56
360.945	2.77
361.314	2.73
361.682	2.65
362.051	2.77
362.42	2.61
362.788	2.9
363.157	2.95
363.525	2.49
363.894	2.68
364.262	2.78
364.631	2.8
364.999	2.93
365.367	2.42
365.735	2.76
366.104	2.67
366.472	2.6
366.84	2.77
367.208	2.7
367.576	2.66
367.944	2.5
368.312	2.9
368.68	3.07
369.048	2.72
369.416	2.76
369.783	2.82
370.151	2.98
370.519	2.85
370.886	2.86
371.254	2.6
371.621	2.87
371.989	2.59
372.356	2.76
372.724	2.91
373.091	2.99
373.458	2.54
373.826	2.8
374.193	2.9
374.56	2.89
374.927	2.49
375.294	2.76
375.661	2.91
376.028	3.1
376.395	2.49
376.762	2.72
377.129	2.51
377.496	2.71
377.863	2.42
378.229	2.85
378.596	2.48
378.963	2.64
379.329	2.59
379.696	2.5
380.062	3.1
380.429	2.64
380.795	2.93
381.161	2.96
381.528	2.84
381.894	2.71
382.26	2.67
382.626	2.83
382.993	2.87
383.359	2.74
383.725	3.06
384.091	2.7
384.457	2.55
384.823	2.55
385.188	2.76
385.554	2.74
385.92	2.86
386.286	2.85
386.651	2.61
387.017	2.55
387.383	2.82
387.748	2.66
388.114	2.58
388.479	2.74
388.845	3.08
389.21	2.86
389.575	2.84
389.94	2.69
390.306	2.91
390.671	3.07
391.036	3.07
391.401	2.83
391.766	2.87
392.131	2.94
392.496	2.98
392.861	2.75
393.226	2.83
393.591	2.67
393.956	2.77
394.32	2.82
394.685	2.78
395.05	2.56
395.414	3.02
395.779	2.69
396.143	2.83
396.508	2.72
396.872	2.73
397.236	2.85
397.601	3.03
397.965	2.78
398.329	3.04
398.694	2.87
399.058	2.67
399.422	2.7
399.786	2.68
400.15	2.89
400.514	2.77
400.878	2.93
401.242	2.89
401.605	3.15
401.969	2.94
402.333	2.82
402.697	2.85
403.06	2.83
403.424	2.82
403.787	3.02
404.151	2.83
404.514	2.96
404.878	2.76
405.241	2.89
405.604	2.95
405.968	2.95
406.331	2.8
406.694	2.83
407.057	2.74
407.42	2.83
407.783	3.08
408.146	2.99
408.509	2.98
408.872	2.87
409.235	3.06
409.598	2.81
409.961	2.76
410.323	2.93
410.686	2.91
411.049	2.82
411.411	2.98
411.774	2.86
412.136	2.91
412.499	2.91
412.861	2.9
413.223	2.99
413.586	2.89
413.948	2.86
414.31	2.74
414.672	2.92
415.035	2.98
415.397	3.04
415.759	3.08
416.121	2.85
416.483	2.96
416.845	2.99
417.206	2.88
417.568	3.03
417.93	2.81
418.292	3.12
418.653	2.87
419.015	3
419.377	3.13
419.738	2.84
420.1	3.02
420.461	2.89
420.822	2.81
421.184	2.77
421.545	2.91
421.906	2.92
422.267	2.95
422.629	2.84
422.99	2.88
423.351	2.94
423.712	2.92
424.073	3
424.434	2.93
424.795	3
425.155	2.98
425.516	2.91
425.877	2.89
426.238	2.85
426.598	2.94
426.959	2.91
427.32	3.01
427.68	2.92
428.041	2.8
428.401	3.05
428.761	2.93
429.122	3.07
429.482	2.97
429.842	2.99
430.202	3.16
430.563	2.87
430.923	3
431.283	3.11
431.643	2.95
432.003	3.05
432.363	3.09
432.722	3.05
433.082	2.93
433.442	2.98
433.802	2.96
434.161	2.93
434.521	3.1
434.881	3.04
435.24	2.94
435.6	3.04
435.959	2.95
436.319	3.16
436.678	2.98
437.037	3.03
437.396	2.85
437.756	3.13
438.115	3.01
438.474	2.92
438.833	3.05
439.192	2.97
439.551	2.91
439.91	3
440.269	2.88
440.628	2.91
440.987	2.89
441.345	3.01
441.704	3.08
442.063	2.97
442.421	3.07
442.78	3.05
443.138	2.92
443.497	2.9
443.855	3.09
444.214	3.09
444.572	2.83
444.93	3.07
445.288	3.04
445.647	3.08
446.005	3.25
446.363	3.18
446.721	3.01
447.079	3.04
447.437	3.05
447.795	3.07
448.153	3.07
448.51	3.01
448.868	3.06
449.226	3.02
449.584	3.04
449.941	3.06
450.299	3.16
450.656	3.05
451.014	3.14
451.371	3.21
451.729	3.06
452.086	3.14
452.443	3.26
452.801	3.3
453.158	3.18
453.515	3.02
453.872	3.05
454.229	3.11
454.586	3.01
454.943	3.07
455.3	3.22
455.657	3.09
456.014	3.25
456.371	3.19
456.727	3.16
457.084	3.15
457.441	3.17
457.797	3.23
458.154	3.16
458.51	3.31
458.867	3.28
459.223	3.3
459.58	3.18
459.936	3.16
460.292	3.27
460.648	3.02
461.005	3.13
461.361	3.05
461.717	3.14
462.073	3.19
462.429	3.15
462.785	3.11
463.141	3.41
463.496	3.16
463.852	3.21
464.208	3.28
464.564	3.24
464.919	3.34
465.275	3.18
465.631	3.26
465.986	3.09
466.342	3.25
466.697	3.35
467.052	3.16
467.408	3.33
467.763	3.19
468.118	3.32
468.473	3.25
468.829	3.21
469.184	3.28
469.539	3.13
469.894	3.26
470.249	3.24
470.603	3.37
470.958	3.32
471.313	3.23
471.668	3.46
472.023	3.12
472.377	3.31
472.732	3.08
473.086	3.26
473.441	3.27
473.795	3.16
474.15	3.2
474.504	3.31
474.859	3.23
475.213	3.36
475.567	3.34
475.921	3.24
476.275	3.26
476.63	3.35
476.984	3.47
477.338	3.35
477.692	3.29
478.045	3.41
478.399	3.41
478.753	3.42
479.107	3.29
479.461	3.27
479.814	3.37
480.168	3.36
480.521	3.35
480.875	3.24
481.228	3.4
481.582	3.5
481.935	3.35
482.289	3.27
482.642	3.28
482.995	3.4
483.348	3.33
483.701	3.32
484.055	3.26
484.408	3.29
484.761	3.22
485.114	3.15
485.466	3.1
485.819	3.12
486.172	3.14
486.525	3.16
486.878	3.2
487.23	3.26
487.583	3.27
487.936	3.3
488.288	3.23
488.641	3.22
488.993	3.19
489.345	3.18
489.698	3.22
490.05	3.22
490.402	3.19
490.754	3.3
491.107	3.27
491.459	3.36
491.811	3.43
492.163	3.29
492.515	3.3
492.866	3.25
493.218	3.28
493.57	3.33
493.922	3.32
494.274	3.34
494.625	3.35
494.977	3.43
495.328	3.34
495.68	3.44
496.031	3.49
496.383	3.48
496.734	3.57
497.086	3.34
497.437	3.53
497.788	3.56
498.139	3.46
498.49	3.49
498.842	3.48
499.193	3.33
499.544	3.43
499.894	3.49
500.245	3.5
500.596	3.46
500.947	3.58
501.298	3.58
501.648	3.53
501.999	3.5
502.35	3.62
502.7	3.55
503.051	3.57
503.401	3.64
503.752	3.63
504.102	3.65
504.452	3.6
504.803	3.65
505.153	3.58
505.503	3.63
505.853	3.63
506.203	3.61
506.553	3.71
506.903	3.66
507.253	3.53
507.603	3.6
507.953	3.71
508.303	3.63
508.652	3.62
509.002	3.79
509.352	3.53
509.701	3.63
510.051	3.68
510.4	3.6
510.75	3.67
511.099	3.7
511.449	3.65
511.798	3.62
512.147	3.62
512.496	3.71
512.846	3.65
513.195	3.67
513.544	3.66
513.893	3.75
514.242	3.86
514.591	3.62
514.939	3.66
515.288	3.65
515.637	3.75
515.986	3.84
516.334	3.74
516.683	3.8
517.032	3.7
517.38	3.64
517.729	3.87
518.077	3.84
518.426	3.73
518.774	3.71
519.122	3.81
519.47	3.81
519.819	3.81
520.167	3.77
520.515	3.78
520.863	3.77
521.211	3.74
521.559	3.77
521.907	3.86
522.255	3.88
522.602	3.93
522.95	3.88
523.298	3.86
523.645	3.82
523.993	3.94
524.341	4
524.688	3.87
525.036	4
525.383	3.94
525.73	3.86
526.078	3.88
526.425	3.98
526.772	3.93
527.119	3.88
527.466	3.81
527.814	3.94
528.161	3.88
528.508	3.91
528.854	3.86
529.201	3.92
529.548	3.93
529.895	3.87
530.242	3.85
530.588	3.87
530.935	3.86
531.282	3.8
531.628	3.89
531.975	3.94
532.321	3.92
532.667	4.05
533.014	4.03
533.36	4.07
533.706	4.08
534.052	4.11
534.399	4.05
534.745	4.04
535.091	3.97
535.437	4.04
535.783	4.06
536.129	4.08
536.474	4.13
536.82	4.23
537.166	4.2
537.512	4.16
537.857	4.28
538.203	4.25
538.549	4.15
538.894	4.21
539.239	4.27
539.585	4.22
539.93	4.28
540.276	4.27
540.621	4.31
540.966	4.3
541.311	4.23
541.656	4.37
542.001	4.32
542.346	4.24
542.691	4.3
543.036	4.19
543.381	4.24
543.726	4.23
544.071	4.17
544.415	4.31
544.76	4.34
545.105	4.31
545.449	4.39
545.794	4.38
546.138	4.37
546.483	4.48
546.827	4.5
547.171	4.46
547.516	4.54
547.86	4.55
548.204	4.45
548.548	4.51
548.892	4.54
549.236	4.59
549.58	4.52
549.924	4.56
550.268	4.69
550.612	4.64
550.956	4.85
551.3	4.62
551.643	4.76
551.987	4.75
552.33	4.83
552.674	4.79
553.017	4.87
553.361	4.81
553.704	4.81
554.048	4.76
554.391	4.84
554.734	4.79
555.077	4.77
555.42	4.76
555.764	4.85
556.107	4.92
556.45	4.97
556.793	4.97
557.135	5.08
557.478	5.07
557.821	5.14
558.164	4.89
558.507	4.98
558.849	4.93
559.192	5.01
559.534	5.1
559.877	5
560.219	4.89
560.562	4.93
560.904	5.01
561.246	5.23
561.589	5.24
561.931	5.17
562.273	5.36
562.615	5.11
562.957	5.27
563.299	5.26
563.641	5.25
563.983	5.27
564.325	5.44
564.667	5.39
565.008	5.34
565.35	5.4
565.692	5.54
566.033	5.46
566.375	5.31
566.716	5.52
567.058	5.37
567.399	5.43
567.741	5.41
568.082	5.48
568.423	5.43
568.764	5.54
569.105	5.42
569.447	5.45
569.788	5.61
570.129	5.54
570.47	5.74
570.811	5.7
571.151	5.51
571.492	5.77
571.833	5.54
572.174	5.74
572.514	5.8
572.855	5.66
573.195	5.62
573.536	5.67
573.876	5.79
574.217	5.71
574.557	5.64
574.898	5.79
575.238	5.77
575.578	5.72
575.918	5.99
576.258	5.88
576.598	5.81
576.938	5.93
577.278	5.98
577.618	5.97
577.958	5.96
578.298	5.95
578.638	6.02
578.977	6.04
579.317	5.93
579.657	6.11
579.996	5.97
580.336	6.16
580.675	6.12
581.014	5.94
581.354	6.16
581.693	6.14
582.032	6.19
582.372	6.12
582.711	6.26
583.05	6.08
583.389	6.18
583.728	6.45
584.067	6.57
584.406	6.22
584.745	6.43
585.083	6.51
585.422	6.54
585.761	6.62
586.1	6.35
586.438	6.73
586.777	6.64
587.115	6.44
587.454	6.63
587.792	6.72
588.13	6.6
588.469	6.73
588.807	6.65
589.145	6.81
589.483	6.75
589.821	6.7
590.159	6.86
590.497	6.79
590.835	6.7
591.173	6.92
591.511	6.84
591.849	6.83
592.187	6.86
592.524	6.9
592.862	6.87
593.2	6.91
593.537	7.12
593.875	7.13
594.212	6.92
594.55	6.93
594.887	7.21
595.224	7.14
595.561	7.24
595.899	7.2
596.236	7.42
596.573	7.1
596.91	7.19
597.247	7.31
597.584	7.25
597.921	7.23
598.258	7.38
598.594	7.33
598.931	7.28
599.268	7.3
599.604	7.36
599.941	7.5
600.277	7.52
600.614	7.39
600.95	7.42
601.287	7.38
601.623	7.66
601.959	7.66
602.296	7.53
602.632	7.47
602.968	7.64
603.304	7.67
603.64	7.78
603.976	7.43
604.312	7.9
604.648	7.69
604.984	7.8
605.319	7.43
605.655	7.79
605.991	7.98
606.326	7.72
606.662	7.72
606.998	7.99
607.333	7.81
607.668	7.71
608.004	8
608.339	8.11
608.674	7.96
609.01	8.23
609.345	8.1
609.68	8.19
610.015	8.2
610.35	8.12
610.685	8.06
611.02	8.2
611.355	8.19
611.689	8.15
612.024	8.46
612.359	8.26
612.694	8.27
613.028	8.32
613.363	8.48
613.697	8.37
614.032	8.66
614.366	8.7
614.7	8.53
615.035	8.44
615.369	8.84
615.703	8.74
616.037	8.88
616.371	8.58
616.705	8.6
617.039	9.45
617.373	9.09
617.707	8.96
618.041	8.8
618.375	8.9
618.709	9.13
619.042	8.96
619.376	8.85
619.71	8.77
620.043	8.91
620.377	9.43
620.71	9.21
621.043	9.47
621.377	9.4
621.71	9.53
622.043	9.46
622.376	9.13
622.709	9.28
623.043	9.11
623.376	9.12
623.709	9.1
624.041	9.38
624.374	9.6
624.707	9.34
625.04	9.71
625.373	9.71
625.705	9.46
626.038	9.08
626.37	9.46
626.703	9.85
627.035	9.59
627.368	9.73
627.7	9.99
628.032	9.7
628.365	9.41
628.697	9.68
629.029	9.71
629.361	9.67
629.693	9.66
630.025	9.62
630.357	9.83
630.689	9.56
631.021	9.98
631.353	9.55
631.684	9.61
632.016	9.82
632.348	10.49
632.679	10.12
633.011	10.25
633.342	9.99
633.674	10.47
634.005	10.08
634.336	9.79
634.668	10.37
634.999	10.04
635.33	10.29
635.661	10.43
635.992	10.16
636.323	10.52
636.654	10.41
636.985	10.21
637.316	10.34
637.647	10.67
637.977	10.23
638.308	10.63
638.639	10.76
638.969	10.33
639.3	10.52
639.63	10.72
639.961	10.68
640.291	10.6
640.622	10.23
640.952	10.87
641.282	10.93
641.612	10.58
641.943	11.05
642.273	10.46
642.603	10.85
642.933	10.83
643.263	11.5
643.592	10.93
643.922	10.96
644.252	10.93
644.582	11.31
644.911	11.22
645.241	11.26
645.571	10.98
645.9	11.16
646.23	10.7
646.559	11.35
646.888	10.86
647.218	11.34
647.547	11.51
647.876	11.28
648.205	11.25
648.534	11.73
648.863	11.47
649.192	11.52
649.521	11.44
649.85	11.21
650.179	11.99
650.508	11.12
650.837	11.76
651.165	11.87
651.494	11.7
651.822	11.9
652.151	11.62
652.479	11.69
652.808	11.53
653.136	12.08
653.465	11.72
653.793	11.96
654.121	11.86
654.449	12.49
654.777	12.04
655.105	11.88
655.433	12.04
655.761	11.82
656.089	12.09
656.417	11.73
656.745	11.92
657.073	12.59
657.4	12.31
657.728	12.44
658.056	11.92
658.383	12.74
658.711	12.34
659.038	12.13
659.365	12.32
659.693	12.16
660.02	12.44
660.347	12.65
660.674	12.35
661.001	12.59
661.329	12.58
661.656	12.69
661.982	12.47
662.309	13.07
662.636	12.94
662.963	12.73
663.29	12.56
663.616	12.76
663.943	12.65
664.27	12.7
664.596	12.44
664.923	12.56
665.249	12.87
665.576	12.9
665.902	12.92
666.228	13.26
666.554	12.89
666.881	13.03
667.207	13.59
667.533	13.11
667.859	13.17
668.185	13.55
668.511	13.19
668.837	13.01
669.162	13.62
669.488	13.39
669.814	13.55
670.139	13.02
670.465	13.38
670.791	14
671.116	13.89
671.442	13.65
671.767	13.2
672.092	13.09
672.418	13.69
672.743	13.39
673.068	13.75
673.393	13.66
673.718	13.36
674.043	14.04
674.368	13.41
674.693	13.99
675.018	13.34
675.343	14.01
675.667	13.77
675.992	13.46
676.317	13.99
676.641	14
676.966	13.3
677.29	13.67
677.615	13.78
677.939	14.83
678.264	13.81
678.588	14.24
678.912	13.85
679.236	14.59
679.56	14.13
679.885	14.66
680.209	14.32
680.532	14.2
680.856	14.44
681.18	14.42
681.504	15.07
681.828	14.75
682.152	14.45
682.475	14.99
682.799	14.39
683.122	13.98
683.446	15
683.769	14.67
684.093	14.07
684.416	14.9
684.739	14.67
685.062	14.69
685.386	14.55
685.709	14.52
686.032	15.12
686.355	14.57
686.678	14.6
687.001	14.46
687.324	14.6
687.646	14.85
687.969	14.77
688.292	15.17
688.614	15.31
688.937	15.97
