Data from 0014_forehead_Reflection__2__32.txt Node

Date: Mon Oct 17 14:39:56 CDT 2022
User: ToomeyLab
Spectrometer: FLMS14357
Trigger mode: 0
Integration Time (sec): 1.000000E-2
Scans to average: 100
Electric dark correction enabled: true
Nonlinearity correction enabled: false
Boxcar width: 0
XAxis mode: Wavelengths
Number of Pixels in Spectrum: 2048
>>>>>Begin Spectral Data<<<<<
189.047	-2.94
189.435	-2.94
189.823	-2.94
190.211	-135.87
190.599	86.9
190.987	235.14
191.375	10.5
191.763	-771.43
192.151	-937.5
192.538	29.36
192.926	61.11
193.314	115.67
193.702	235.05
194.089	24.53
194.477	579.17
194.864	310.26
195.252	54
195.639	27.27
196.027	49.15
196.414	-84.21
196.801	144.12
197.189	-74.36
197.576	155.48
197.963	34.41
198.351	-186.29
198.738	28.35
199.125	1.02
199.512	-6.87
199.899	33.79
200.286	-3.64
200.673	89.06
201.06	-52.11
201.447	51.08
201.833	72.99
202.22	29.35
202.607	20.04
202.994	33.97
203.38	31.94
203.767	25.82
204.154	53.39
204.54	30.67
204.927	-8.1
205.313	-2.16
205.699	-1.82
206.086	6.98
206.472	-3.14
206.858	11.65
207.245	26.87
207.631	17.18
208.017	48.61
208.403	48.5
208.789	20.98
209.175	5.62
209.561	-39.87
209.947	-22.98
210.333	46.43
210.719	3.61
211.105	44.47
211.491	21.88
211.876	0.19
212.262	40.99
212.648	3.6
213.034	4.42
213.419	28.87
213.805	-12.58
214.19	17.89
214.576	30.46
214.961	38.52
215.346	7.34
215.732	-1.81
216.117	28.98
216.502	-0.88
216.888	29.71
217.273	26.84
217.658	20.76
218.043	3.03
218.428	-4.52
218.813	29.56
219.198	31.3
219.583	9.81
219.968	2
220.353	6.59
220.738	6.7
221.122	12.69
221.507	-1.95
221.892	11.73
222.276	10.02
222.661	2.04
223.046	8.82
223.43	20.12
223.815	7.88
224.199	2.18
224.583	-10.19
224.968	2.21
225.352	1.11
225.736	15.41
226.121	-4.69
226.505	6.39
226.889	8.76
227.273	9.52
227.657	8.26
228.041	7.64
228.425	5.9
228.809	5.61
229.193	2.39
229.577	4.95
229.961	6.28
230.344	3.61
230.728	4.51
231.112	4.66
231.495	4.48
231.879	5.5
232.263	5.2
232.646	4.41
233.03	4.16
233.413	3.09
233.797	5.82
234.18	3.67
234.563	3.32
234.946	5.24
235.33	5.68
235.713	4.35
236.096	5.3
236.479	3.6
236.862	4.74
237.245	3.73
237.628	4.82
238.011	5.62
238.394	5.44
238.777	4.37
239.16	5.39
239.543	3.21
239.925	3.22
240.308	3.21
240.691	2.39
241.073	5.12
241.456	4.25
241.838	4.6
242.221	4.06
242.603	4.21
242.986	4.3
243.368	4.64
243.75	4.25
244.133	4.37
244.515	4.16
244.897	4.31
245.279	4.8
245.661	4.54
246.043	4.85
246.425	4.26
246.807	4.37
247.189	4.71
247.571	3.93
247.953	4.33
248.335	4.22
248.717	4.35
249.098	4.58
249.48	4.39
249.862	4.45
250.243	4.16
250.625	4.88
251.006	4.51
251.388	5.34
251.769	4.73
252.151	4.7
252.532	5.29
252.913	5.35
253.295	4.04
253.676	5.19
254.057	4.99
254.438	4.68
254.819	5.7
255.2	6.18
255.581	5.05
255.962	4.65
256.343	4.61
256.724	4.81
257.105	4.66
257.486	3.45
257.867	3.92
258.247	4.35
258.628	5.48
259.009	4.67
259.389	4.75
259.77	4.83
260.15	4.24
260.531	4.11
260.911	4.27
261.292	4.4
261.672	4.19
262.052	4.34
262.432	4.57
262.813	4.24
263.193	4.85
263.573	5.02
263.953	4.27
264.333	4.45
264.713	4.43
265.093	4.85
265.473	4.6
265.853	4.86
266.233	5.66
266.612	4.47
266.992	5.73
267.372	4.8
267.752	5.09
268.131	4.52
268.511	4.68
268.89	4.76
269.27	4.61
269.649	4.52
270.029	4.59
270.408	4.32
270.787	4.29
271.167	4.34
271.546	4.58
271.925	4.65
272.304	4.53
272.683	4.97
273.062	4.48
273.441	4.53
273.82	4.34
274.199	4.63
274.578	4.55
274.957	4.6
275.336	4.87
275.715	4.66
276.093	4.72
276.472	4.19
276.851	4.36
277.229	4.15
277.608	4.48
277.986	4.46
278.365	4.57
278.743	4.98
279.122	4.57
279.5	4.93
279.878	4.7
280.257	4.29
280.635	4.21
281.013	4.39
281.391	4.3
281.769	4.39
282.147	5.39
282.525	4.22
282.903	4.21
283.281	4.25
283.659	4.26
284.037	4.15
284.415	4.75
284.792	4.62
285.17	4.29
285.548	4.26
285.925	4.63
286.303	4.64
286.68	4.68
287.058	4.79
287.435	4.61
287.813	4.47
288.19	4.48
288.567	4.49
288.945	4.55
289.322	5.03
289.699	4.78
290.076	4.92
290.453	4.7
290.83	4.45
291.207	4.99
291.584	4.81
291.961	4.91
292.338	4.86
292.715	5.05
293.092	4.67
293.469	5.24
293.845	5.21
294.222	5.25
294.599	5.85
294.975	5.1
295.352	5.26
295.728	5.33
296.105	5.06
296.481	5.42
296.858	5.66
297.234	5.44
297.61	5.3
297.986	5.29
298.363	5.35
298.739	5.8
299.115	5.48
299.491	5.4
299.867	5.43
300.243	5.59
300.619	5.81
300.995	5.97
301.371	5.65
301.746	5.82
302.122	5.79
302.498	6.17
302.874	6.69
303.249	6.16
303.625	6.3
304	5.89
304.376	6.1
304.751	6.75
305.127	6.7
305.502	5.96
305.878	5.96
306.253	6.55
306.628	6.35
307.003	6.51
307.378	6.75
307.754	6.21
308.129	6.45
308.504	6.63
308.879	6.89
309.254	7.38
309.629	6.79
310.003	7.12
310.378	6.73
310.753	6.7
311.128	6.92
311.502	7.02
311.877	7.24
312.252	7.1
312.626	7.02
313.001	6.96
313.375	7.08
313.75	7.17
314.124	7.2
314.498	7.25
314.873	7.3
315.247	7.12
315.621	7.7
315.995	7.16
316.369	7.38
316.743	7.13
317.117	7.8
317.491	7.48
317.865	8.04
318.239	8.21
318.613	7.67
318.987	7.55
319.361	7.69
319.734	8.06
320.108	7.93
320.482	8.15
320.855	8.01
321.229	7.83
321.602	8.29
321.976	8.42
322.349	8.34
322.723	8.09
323.096	8.47
323.469	8.26
323.843	8.62
324.216	8.57
324.589	8.23
324.962	8.89
325.335	8.22
325.708	8.89
326.081	8.33
326.454	8.47
326.827	8.9
327.2	8.67
327.573	8.83
327.945	9.04
328.318	9.1
328.691	9.16
329.063	8.88
329.436	8.92
329.809	9.23
330.181	9.38
330.553	9.15
330.926	9.44
331.298	9.51
331.671	9.85
332.043	9.22
332.415	9.81
332.787	9.97
333.159	9.61
333.532	9.1
333.904	9.24
334.276	9.79
334.648	9.25
335.02	9.63
335.391	10.08
335.763	9.89
336.135	9.47
336.507	9.81
336.879	10.06
337.25	10.25
337.622	9.93
337.993	10.52
338.365	9.72
338.736	10.04
339.108	10.42
339.479	9.98
339.851	10.23
340.222	10.08
340.593	10.45
340.964	10.53
341.336	10.43
341.707	10.67
342.078	10.81
342.449	10.61
342.82	10.32
343.191	10.64
343.562	10.53
343.933	10.74
344.303	10.6
344.674	11.01
345.045	10.88
345.416	10.7
345.786	10.88
346.157	10.85
346.527	11.12
346.898	11.17
347.268	11.3
347.639	10.97
348.009	11.1
348.38	11.18
348.75	11.33
349.12	11.26
349.49	11.13
349.861	11.26
350.231	11.26
350.601	11.79
350.971	11.62
351.341	11.53
351.711	11.54
352.081	11.78
352.45	11.76
352.82	11.84
353.19	11.72
353.56	11.56
353.929	11.91
354.299	11.5
354.669	12.14
355.038	12.29
355.408	12.11
355.777	12.11
356.147	11.92
356.516	12.12
356.885	12
357.254	12.44
357.624	12.21
357.993	12.45
358.362	12.31
358.731	12.04
359.1	12.14
359.469	12.14
359.838	12.41
360.207	12.3
360.576	12.16
360.945	12.44
361.314	12.75
361.682	12.72
362.051	12.46
362.42	12.4
362.788	12.55
363.157	12.8
363.525	12.57
363.894	12.73
364.262	12.68
364.631	12.82
364.999	13.1
365.367	12.58
365.735	13.05
366.104	12.86
366.472	13.07
366.84	12.99
367.208	13.32
367.576	13.6
367.944	13.15
368.312	13.26
368.68	13.56
369.048	13.26
369.416	13.55
369.783	13.38
370.151	13.84
370.519	13.81
370.886	14.07
371.254	13.64
371.621	13.84
371.989	13.87
372.356	13.94
372.724	14.47
373.091	13.88
373.458	13.88
373.826	14.14
374.193	14.24
374.56	13.96
374.927	13.94
375.294	14.1
375.661	14.55
376.028	14.44
376.395	14.28
376.762	14.28
377.129	14.21
377.496	14.21
377.863	14.34
378.229	14.35
378.596	14.58
378.963	14.51
379.329	14.6
379.696	14.29
380.062	14.93
380.429	14.63
380.795	14.85
381.161	14.82
381.528	14.9
381.894	14.73
382.26	14.84
382.626	14.96
382.993	15.18
383.359	15.04
383.725	15.46
384.091	15.54
384.457	15.06
384.823	15.08
385.188	14.98
385.554	15.46
385.92	15.47
386.286	15.38
386.651	15.62
387.017	15.31
387.383	15.38
387.748	15.53
388.114	15.55
388.479	15.76
388.845	16.06
389.21	15.94
389.575	15.83
389.94	15.83
390.306	15.84
390.671	16.23
391.036	15.91
391.401	15.87
391.766	16.24
392.131	16.1
392.496	16.05
392.861	16.09
393.226	15.92
393.591	16.26
393.956	15.95
394.32	16.21
394.685	16.37
395.05	16.43
395.414	16.42
395.779	16.45
396.143	16.53
396.508	16.45
396.872	16.54
397.236	16.34
397.601	16.24
397.965	16.68
398.329	17.07
398.694	16.82
399.058	16.81
399.422	17.03
399.786	16.99
400.15	17.17
400.514	17.02
400.878	17.14
401.242	16.85
401.605	17.25
401.969	17.32
402.333	17.25
402.697	17
403.06	17.23
403.424	17.45
403.787	17.23
404.151	17.49
404.514	17.4
404.878	17.37
405.241	17.32
405.604	17.62
405.968	17.46
406.331	17.36
406.694	17.48
407.057	17.35
407.42	17.5
407.783	17.85
408.146	17.76
408.509	17.87
408.872	17.62
409.235	17.69
409.598	17.98
409.961	18.03
410.323	18.23
410.686	18.17
411.049	17.91
411.411	18.36
411.774	18.13
412.136	17.97
412.499	18.29
412.861	18.36
413.223	18.29
413.586	18.37
413.948	18.51
414.31	18.4
414.672	18.49
415.035	18.69
415.397	18.63
415.759	18.68
416.121	18.59
416.483	19.02
416.845	18.87
417.206	18.65
417.568	18.91
417.93	18.85
418.292	18.83
418.653	18.98
419.015	18.85
419.377	18.95
419.738	18.84
420.1	18.93
420.461	18.84
420.822	18.9
421.184	18.94
421.545	18.82
421.906	18.87
422.267	18.8
422.629	18.83
422.99	18.75
423.351	19.02
423.712	18.94
424.073	19.01
424.434	19.1
424.795	19.21
425.155	19.29
425.516	19.18
425.877	19.02
426.238	19.08
426.598	19.25
426.959	19.26
427.32	19.48
427.68	19.62
428.041	19.64
428.401	19.91
428.761	19.76
429.122	19.95
429.482	20.18
429.842	19.8
430.202	20.16
430.563	20.21
430.923	20.16
431.283	20.23
431.643	20.16
432.003	20.16
432.363	20.37
432.722	20.37
433.082	20.28
433.442	20.47
433.802	20.47
434.161	20.28
434.521	20.58
434.881	20.28
435.24	20.34
435.6	20.62
435.959	20.66
436.319	20.65
436.678	20.6
437.037	20.87
437.396	20.6
437.756	20.83
438.115	20.79
438.474	20.9
438.833	20.9
439.192	20.97
439.551	20.87
439.91	20.95
440.269	21.07
440.628	20.82
440.987	20.82
441.345	21.01
441.704	21.03
442.063	20.91
442.421	20.94
442.78	21.06
443.138	20.9
443.497	21.21
443.855	21.24
444.214	21.34
444.572	21.32
444.93	21.71
445.288	21.58
445.647	21.72
446.005	21.62
446.363	21.68
446.721	21.54
447.079	21.59
447.437	21.46
447.795	21.49
448.153	21.39
448.51	21.43
448.868	21.43
449.226	21.65
449.584	21.57
449.941	21.76
450.299	22
450.656	22.01
451.014	22
451.371	22.05
451.729	21.99
452.086	22.23
452.443	22.3
452.801	22.51
453.158	22.3
453.515	22.3
453.872	22.28
454.229	22.44
454.586	22.32
454.943	22.52
455.3	22.66
455.657	22.6
456.014	22.63
456.371	22.68
456.727	22.76
457.084	22.77
457.441	22.76
457.797	22.91
458.154	22.97
458.51	23.02
458.867	22.95
459.223	23.02
459.58	22.89
459.936	23.04
460.292	22.92
460.648	22.93
461.005	22.91
461.361	22.89
461.717	22.7
462.073	22.88
462.429	22.92
462.785	23.05
463.141	23.41
463.496	23.13
463.852	23.48
464.208	23.55
464.564	23.55
464.919	23.62
465.275	23.69
465.631	23.87
465.986	23.76
466.342	23.71
466.697	23.82
467.052	23.87
467.408	23.96
467.763	23.71
468.118	23.99
468.473	23.78
468.829	23.95
469.184	23.95
469.539	24.1
469.894	24.06
470.249	24.09
470.603	24.3
470.958	24.48
471.313	24.3
471.668	24.3
472.023	24.37
472.377	24.48
472.732	24.39
473.086	24.56
473.441	24.41
473.795	24.52
474.15	24.46
474.504	24.41
474.859	24.64
475.213	24.67
475.567	24.88
475.921	24.73
476.275	24.78
476.63	24.87
476.984	24.87
477.338	24.85
477.692	24.79
478.045	25.06
478.399	24.98
478.753	25.02
479.107	24.65
479.461	25.06
479.814	25.12
480.168	25.11
480.521	25.27
480.875	25.12
481.228	25.33
481.582	25.25
481.935	25.34
482.289	25.17
482.642	25.04
482.995	25.42
483.348	25.23
483.701	25.22
484.055	25.11
484.408	25.03
484.761	24.8
485.114	24.53
485.466	24.59
485.819	24.69
486.172	24.72
486.525	24.81
486.878	24.9
487.23	25.1
487.583	25.09
487.936	25.26
488.288	25.19
488.641	25.23
488.993	25.13
489.345	25.17
489.698	25.12
490.05	25.22
490.402	25.28
490.754	25.38
491.107	25.5
491.459	25.71
491.811	25.87
492.163	25.94
492.515	25.8
492.866	25.61
493.218	25.66
493.57	25.67
493.922	25.7
494.274	25.78
494.625	25.94
494.977	26.21
495.328	26.37
495.68	26.39
496.031	26.66
496.383	26.65
496.734	26.74
497.086	26.75
497.437	26.82
497.788	26.82
498.139	26.69
498.49	26.77
498.842	26.64
499.193	26.87
499.544	26.7
499.894	26.92
500.245	26.97
500.596	27
500.947	27.14
501.298	27.23
501.648	27.25
501.999	27.31
502.35	27.42
502.7	27.52
503.051	27.51
503.401	27.58
503.752	27.69
504.102	27.73
504.452	27.69
504.803	27.78
505.153	27.63
505.503	27.73
505.853	27.74
506.203	27.75
506.553	27.88
506.903	27.87
507.253	27.86
507.603	27.91
507.953	28.12
508.303	28.1
508.652	28.07
509.002	28.22
509.352	27.94
509.701	28.06
510.051	28.08
510.4	27.9
510.75	28.06
511.099	28.05
511.449	28.11
511.798	28.22
512.147	28.22
512.496	28.28
512.846	28.44
513.195	28.32
513.544	28.47
513.893	28.5
514.242	28.51
514.591	28.3
514.939	28.66
515.288	28.6
515.637	28.84
515.986	28.91
516.334	28.99
516.683	28.91
517.032	28.91
517.38	29.1
517.729	29.06
518.077	29.17
518.426	29.18
518.774	29.07
519.122	28.92
519.47	28.96
519.819	29.04
520.167	28.88
520.515	28.89
520.863	28.94
521.211	29.02
521.559	29.08
521.907	29.28
522.255	29.24
522.602	29.41
522.95	29.48
523.298	29.57
523.645	29.64
523.993	29.67
524.341	29.85
524.688	29.74
525.036	29.86
525.383	29.87
525.73	29.93
526.078	29.74
526.425	29.69
526.772	29.65
527.119	29.47
527.466	29.57
527.814	29.56
528.161	29.7
528.508	29.8
528.854	29.7
529.201	29.72
529.548	29.74
529.895	29.41
530.242	29.52
530.588	29.57
530.935	29.62
531.282	29.66
531.628	29.76
531.975	29.94
532.321	30
532.667	30.27
533.014	30.28
533.36	30.39
533.706	30.32
534.052	30.51
534.399	30.32
534.745	30.21
535.091	30.28
535.437	30.26
535.783	30.4
536.129	30.62
536.474	30.7
536.82	30.95
537.166	31.01
537.512	30.86
537.857	30.99
538.203	30.72
538.549	30.88
538.894	31.08
539.239	31
539.585	31.12
539.93	31.3
540.276	31.38
540.621	31.55
540.966	31.48
541.311	31.61
541.656	31.66
542.001	31.55
542.346	31.29
542.691	31.23
543.036	30.96
543.381	31.16
543.726	31.1
544.071	31.31
544.415	31.43
544.76	31.42
545.105	31.41
545.449	31.73
545.794	31.76
546.138	31.91
546.483	32.04
546.827	32.3
547.171	32.11
547.516	32.2
547.86	32.04
548.204	32.25
548.548	32.3
548.892	32.29
549.236	32.28
549.58	32.33
549.924	32.55
550.268	32.96
550.612	32.71
550.956	33.12
551.3	33.08
551.643	32.97
551.987	33.15
552.33	33.24
552.674	33.15
553.017	33.1
553.361	33.49
553.704	33.34
554.048	33.18
554.391	33.27
554.734	33.2
555.077	33.34
555.42	33.63
555.764	33.61
556.107	33.41
556.45	33.65
556.793	33.77
557.135	33.87
557.478	33.77
557.821	33.8
558.164	34.05
558.507	33.97
558.849	34.01
559.192	34.06
559.534	34.25
559.877	34.18
560.219	33.85
560.562	34.24
560.904	34.3
561.246	34.55
561.589	34.42
561.931	34.44
562.273	34.59
562.615	34.38
562.957	34.29
563.299	34.5
563.641	34.58
563.983	34.48
564.325	34.75
564.667	34.7
565.008	34.99
565.35	34.75
565.692	34.79
566.033	35.03
566.375	34.93
566.716	34.85
567.058	34.82
567.399	35.09
567.741	35.01
568.082	34.92
568.423	34.95
568.764	35.14
569.105	35.04
569.447	34.98
569.788	35.4
570.129	34.99
570.47	35.22
570.811	35.43
571.151	35.33
571.492	35.32
571.833	35.69
572.174	35.72
572.514	35.51
572.855	35.51
573.195	35.42
573.536	35.5
573.876	35.46
574.217	35.61
574.557	35.61
574.898	35.8
575.238	35.87
575.578	35.79
575.918	35.95
576.258	35.88
576.598	35.89
576.938	36.14
577.278	36.18
577.618	36.28
577.958	36.22
578.298	36.02
578.638	36.45
578.977	36.36
579.317	36.62
579.657	36.41
579.996	36.38
580.336	36.5
580.675	36.81
581.014	36.56
581.354	36.66
581.693	36.39
582.032	36.67
582.372	37.01
582.711	36.88
583.05	37.04
583.389	37.36
583.728	37.01
584.067	37.39
584.406	36.93
584.745	37.36
585.083	37.23
585.422	37.35
585.761	37.41
586.1	37.32
586.438	37.56
586.777	37.72
587.115	37.5
587.454	37.53
587.792	37.7
588.13	37.82
588.469	37.56
588.807	37.77
589.145	37.63
589.483	37.76
589.821	37.96
590.159	37.8
590.497	37.97
590.835	37.84
591.173	38.14
591.511	37.95
591.849	38.04
592.187	38.36
592.524	38.03
592.862	38.03
593.2	38.3
593.537	38.45
593.875	38.46
594.212	38.37
594.55	38.41
594.887	38.19
595.224	38.58
595.561	38.41
595.899	38.58
596.236	38.7
596.573	38.54
596.91	38.58
597.247	38.63
597.584	38.44
597.921	38.46
598.258	38.75
598.594	38.18
598.931	38.59
599.268	38.64
599.604	38.84
599.941	38.78
600.277	38.65
600.614	38.9
600.95	39.14
601.287	39.25
601.623	39.24
601.959	39.44
602.296	39.27
602.632	38.95
602.968	39.38
603.304	39.56
603.64	39.12
603.976	39.58
604.312	39.82
604.648	39.22
604.984	39.41
605.319	39.28
605.655	39.2
605.991	39.49
606.326	39.35
606.662	39.56
606.998	39.65
607.333	39.76
607.668	39.67
608.004	39.48
608.339	39.9
608.674	40.08
609.01	40.05
609.345	40.09
609.68	39.83
610.015	40.07
610.35	40.21
610.685	40.11
611.02	40.31
611.355	40.23
611.689	40.04
612.024	40.44
612.359	40.35
612.694	40.49
613.028	40.26
613.363	40.35
613.697	40.47
614.032	40.78
614.366	40.71
614.7	40.54
615.035	40.93
615.369	41.23
615.703	41.03
616.037	41.08
616.371	41.02
616.705	40.87
617.039	41.24
617.373	40.93
617.707	41.18
618.041	40.92
618.375	41.16
618.709	41.46
619.042	41.51
619.376	41.27
619.71	41.52
620.043	41.26
620.377	41.26
620.71	41.71
621.043	41.54
621.377	41.81
621.71	41.55
622.043	41.63
622.376	41.33
622.709	41.75
623.043	41.75
623.376	41.76
623.709	41.29
624.041	41.7
624.374	41.84
624.707	41.7
625.04	42.05
625.373	42.38
625.705	42.02
626.038	41.94
626.37	42.65
626.703	42.34
627.035	41.93
627.368	42.22
627.7	42.25
628.032	42.14
628.365	42.22
628.697	41.96
629.029	42.38
629.361	42.32
629.693	42.54
630.025	42.58
630.357	42.47
630.689	42.25
631.021	42.95
631.353	42.5
631.684	42.51
632.016	42.25
632.348	43.02
632.679	42.74
633.011	42.78
633.342	43.03
633.674	43.35
634.005	42.56
634.336	42.69
634.668	43.38
634.999	42.9
635.33	43
635.661	43.19
635.992	43.14
636.323	43.75
636.654	43.2
636.985	42.88
637.316	43.12
637.647	43.54
637.977	43.24
638.308	43.65
638.639	43.56
638.969	43.49
639.3	43.46
639.63	43.74
639.961	43.76
640.291	43.82
640.622	43.87
640.952	43.38
641.282	43.88
641.612	43.85
641.943	43.88
642.273	44.08
642.603	43.73
642.933	43.93
643.263	44.33
643.592	44.33
643.922	44.31
644.252	43.84
644.582	43.95
644.911	44.05
645.241	44.36
645.571	44.14
645.9	44.78
646.23	44.48
646.559	44.32
646.888	43.77
647.218	44.46
647.547	44.73
647.876	44.64
648.205	43.97
648.534	44.1
648.863	44.67
649.192	44.86
649.521	44.83
649.85	44.46
650.179	45.13
650.508	44.72
650.837	44.51
651.165	44.76
651.494	45
651.822	44.77
652.151	44.9
652.479	45.15
652.808	45.04
653.136	45
653.465	45.03
653.793	45.17
654.121	45.32
654.449	46.06
654.777	45.62
655.105	45.36
655.433	45.04
655.761	45.53
656.089	44.98
656.417	44.88
656.745	45.29
657.073	45.29
657.4	45.33
657.728	45.69
658.056	46.02
658.383	45.65
658.711	44.99
659.038	45.62
659.365	45.18
659.693	44.79
660.02	45.54
660.347	46
660.674	45.63
661.001	45.61
661.329	45.84
661.656	45.87
661.982	45.74
662.309	46.28
662.636	46.04
662.963	46.09
663.29	45.73
663.616	46.45
663.943	46.51
664.27	46.28
664.596	46
664.923	45.92
665.249	46.25
665.576	46.13
665.902	46.13
666.228	46.04
666.554	46.11
666.881	46.76
667.207	46.83
667.533	46.63
667.859	46.44
668.185	46.7
668.511	46.59
668.837	45.95
669.162	46.79
669.488	46.93
669.814	47.56
670.139	46.55
670.465	46.77
670.791	47.11
