Data from 0014_crown_Reflection__3__28.txt Node

Date: Mon Oct 17 14:38:07 CDT 2022
User: ToomeyLab
Spectrometer: FLMS14357
Trigger mode: 0
Integration Time (sec): 1.000000E-2
Scans to average: 100
Electric dark correction enabled: true
Nonlinearity correction enabled: false
Boxcar width: 0
XAxis mode: Wavelengths
Number of Pixels in Spectrum: 2048
>>>>>Begin Spectral Data<<<<<
189.047	-100.15
189.435	-100.15
189.823	-100.15
190.211	144.29
190.599	39.38
190.987	49.32
191.375	160.12
191.763	-1494.64
192.151	3.13
192.538	-86.58
192.926	-260.42
193.314	52.71
193.702	-3.35
194.089	-33.57
194.477	1092.71
194.864	-330.13
195.252	50.25
195.639	20.69
196.027	98.52
196.414	123.9
196.801	-15.07
197.189	233.65
197.576	226.37
197.963	-31.75
198.351	-236.43
198.738	14.5
199.125	-15.52
199.512	-91.56
199.899	3.13
200.286	-2.96
200.673	-22.05
201.06	-54.03
201.447	20.67
201.833	17.54
202.22	-18.45
202.607	-41.37
202.994	17.31
203.38	-10.05
203.767	22.67
204.154	24.57
204.54	-24.12
204.927	-12.32
205.313	-12
205.699	27.41
206.086	-14.9
206.472	21.41
206.858	11.21
207.245	-0.71
207.631	26.36
208.017	19.45
208.403	38.33
208.789	9.97
209.175	0.4
209.561	-76.51
209.947	-69.6
210.333	31.33
210.719	14.28
211.105	5.67
211.491	-23.88
211.876	-34.05
212.262	18.59
212.648	-13.58
213.034	-0.69
213.419	-6.95
213.805	-6.64
214.19	16.89
214.576	-5.79
214.961	3.8
215.346	-13.06
215.732	-24.42
216.117	19.63
216.502	16.11
216.888	0.12
217.273	43.44
217.658	13.91
218.043	8.32
218.428	4.26
218.813	6.22
219.198	-12.35
219.583	-7.01
219.968	-4.81
220.353	-9.75
220.738	1.01
221.122	-4.39
221.507	1.81
221.892	9.3
222.276	-2.26
222.661	-1.54
223.046	0.51
223.43	1.12
223.815	-1.37
224.199	3.3
224.583	-7.87
224.968	-13.65
225.352	-11.19
225.736	1.25
226.121	-1.57
226.505	-3.84
226.889	1.77
227.273	3.32
227.657	5.13
228.041	4.18
228.425	2.52
228.809	0.62
229.193	1.62
229.577	4.47
229.961	5.34
230.344	2.69
230.728	3.16
231.112	3.3
231.495	3.69
231.879	3.14
232.263	3.42
232.646	3.96
233.03	3.23
233.413	1.08
233.797	2.34
234.18	4.33
234.563	2.14
234.946	3.51
235.33	2.84
235.713	1.86
236.096	3.92
236.479	2.02
236.862	2.33
237.245	1.78
237.628	2.39
238.011	3.49
238.394	3.13
238.777	2.22
239.16	3.66
239.543	1.37
239.925	2.4
240.308	3.22
240.691	2.23
241.073	2.49
241.456	2.25
241.838	2.7
242.221	1.77
242.603	2.68
242.986	2.21
243.368	3.31
243.75	2.73
244.133	3.14
244.515	3.3
244.897	3.3
245.279	3.47
245.661	3.78
246.043	2.71
246.425	1.86
246.807	2.34
247.189	3.32
247.571	2.66
247.953	2.86
248.335	3.12
248.717	3.22
249.098	3.16
249.48	3.1
249.862	3.1
250.243	2.73
250.625	3.1
251.006	2.75
251.388	3.54
251.769	2.41
252.151	2.57
252.532	3.25
252.913	2.69
253.295	1.95
253.676	3.18
254.057	3.17
254.438	3.28
254.819	3.69
255.2	2.98
255.581	2.84
255.962	2.04
256.343	3.15
256.724	1.86
257.105	2.64
257.486	1.67
257.867	1.67
258.247	2.48
258.628	3.24
259.009	3.55
259.389	2.25
259.77	2.97
260.15	2.69
260.531	2.73
260.911	2.94
261.292	2.86
261.672	2.77
262.052	2.66
262.432	2.77
262.813	3.07
263.193	2.87
263.573	3.17
263.953	1.93
264.333	2.45
264.713	2.37
265.093	2.53
265.473	2.42
265.853	2.95
266.233	3.74
266.612	3.06
266.992	3.88
267.372	3.12
267.752	3.58
268.131	3.35
268.511	3.01
268.89	3.08
269.27	2.58
269.649	2.93
270.029	2.43
270.408	2.95
270.787	2.6
271.167	2.67
271.546	2.75
271.925	2.84
272.304	2.71
272.683	2.72
273.062	2.4
273.441	2.79
273.82	2.92
274.199	2.77
274.578	2.55
274.957	2.7
275.336	2.72
275.715	2.59
276.093	2.6
276.472	2.2
276.851	2.83
277.229	2.34
277.608	2.46
277.986	2.43
278.365	2.43
278.743	2.95
279.122	2.51
279.5	3.15
279.878	3.11
280.257	2.65
280.635	2.12
281.013	3.11
281.391	2.92
281.769	2.37
282.147	3.05
282.525	2.26
282.903	1.77
283.281	2.51
283.659	2.81
284.037	2.12
284.415	2.52
284.792	2.49
285.17	2.15
285.548	1.83
285.925	2.64
286.303	2.58
286.68	2.48
287.058	2.6
287.435	2.44
287.813	2.75
288.19	2.64
288.567	2.38
288.945	2.3
289.322	2.6
289.699	2.55
290.076	2.53
290.453	2.33
290.83	2.62
291.207	2.82
291.584	2.57
291.961	2.25
292.338	2.8
292.715	2.69
293.092	2.45
293.469	2.46
293.845	2.43
294.222	2.9
294.599	2.76
294.975	1.85
295.352	2.18
295.728	2.29
296.105	2.35
296.481	2.5
296.858	2.63
297.234	2.23
297.61	2.13
297.986	1.98
298.363	2.56
298.739	2.89
299.115	2.25
299.491	2.46
299.867	2.39
300.243	2.69
300.619	2.14
300.995	2.59
301.371	2.21
301.746	2.25
302.122	2.37
302.498	2.52
302.874	2.51
303.249	2.58
303.625	2.44
304	2.53
304.376	2.61
304.751	2.78
305.127	2.53
305.502	2.62
305.878	2.69
306.253	2.32
306.628	2.86
307.003	2.08
307.378	2.36
307.754	1.92
308.129	2.44
308.504	2.45
308.879	2.13
309.254	2.08
309.629	2.46
310.003	2.28
310.378	2.22
310.753	2.42
311.128	2.71
311.502	2.42
311.877	2.67
312.252	2.45
312.626	2.43
313.001	2.2
313.375	2.46
313.75	2.41
314.124	2.52
314.498	2.4
314.873	2.61
315.247	2.33
315.621	2.88
315.995	2.49
316.369	2.45
316.743	2.08
317.117	2.69
317.491	2.32
317.865	2.42
318.239	2.67
318.613	3
318.987	1.86
319.361	2.09
319.734	2.74
320.108	2.42
320.482	2.35
320.855	1.88
321.229	2.4
321.602	2.64
321.976	1.89
322.349	2.1
322.723	2.37
323.096	2.5
323.469	2.07
323.843	2.31
324.216	2.6
324.589	2.41
324.962	2.09
325.335	2.19
325.708	2.34
326.081	2.28
326.454	2.88
326.827	2.48
327.2	2.07
327.573	2.38
327.945	2.05
328.318	2.29
328.691	2.3
329.063	2.36
329.436	2.1
329.809	2.27
330.181	2.35
330.553	2.08
330.926	2.62
331.298	2.21
331.671	2.57
332.043	2.19
332.415	2.47
332.787	2.69
333.159	2.86
333.532	2.09
333.904	2.25
334.276	2.45
334.648	2.08
335.02	2.54
335.391	2.2
335.763	2.42
336.135	2.29
336.507	2.56
336.879	2.92
337.25	2.34
337.622	2.47
337.993	2.16
338.365	2.3
338.736	2.4
339.108	2.5
339.479	2.13
339.851	2.66
340.222	2.38
340.593	2.37
340.964	2.14
341.336	2.66
341.707	2.78
342.078	2.71
342.449	2.33
342.82	2.5
343.191	2.64
343.562	2.58
343.933	2.54
344.303	2.16
344.674	2.89
345.045	2.81
345.416	2.39
345.786	2.53
346.157	2.24
346.527	2.13
346.898	2.85
347.268	2.83
347.639	2.3
348.009	2.42
348.38	2.6
348.75	2.58
349.12	2.05
349.49	2.3
349.861	2.81
350.231	2.85
350.601	2.52
350.971	2.55
351.341	2.34
351.711	1.9
352.081	2.8
352.45	2.61
352.82	2.73
353.19	1.89
353.56	2.35
353.929	2.75
354.299	2.37
354.669	2.66
355.038	2.66
355.408	2.52
355.777	2.12
356.147	2.35
356.516	2.42
356.885	2.38
357.254	2.83
357.624	2.53
357.993	2.71
358.362	2.26
358.731	2.25
359.1	2.33
359.469	2.43
359.838	2.56
360.207	2.65
360.576	2.32
360.945	2.58
361.314	2.81
361.682	2.98
362.051	2.68
362.42	2.53
362.788	2.62
363.157	2.68
363.525	2.48
363.894	2.51
364.262	2.59
364.631	2.57
364.999	2.42
365.367	2.36
365.735	2.51
366.104	2.27
366.472	2.46
366.84	2.41
367.208	2.61
367.576	2.68
367.944	2.4
368.312	2.48
368.68	2.81
369.048	2.55
369.416	2.38
369.783	2.71
370.151	2.61
370.519	2.55
370.886	2.71
371.254	2.2
371.621	2.37
371.989	2.54
372.356	2.66
372.724	2.51
373.091	2.63
373.458	2.3
373.826	2.68
374.193	2.77
374.56	2.67
374.927	2.64
375.294	2.27
375.661	2.07
376.028	2.78
376.395	2.36
376.762	2.67
377.129	2.47
377.496	2.14
377.863	2.35
378.229	2.79
378.596	2.33
378.963	2.59
379.329	2.45
379.696	2.71
380.062	2.95
380.429	2.51
380.795	2.85
381.161	2.91
381.528	2.61
381.894	2.6
382.26	2.54
382.626	2.6
382.993	2.61
383.359	2.51
383.725	2.36
384.091	2.47
384.457	2.43
384.823	2.45
385.188	2.47
385.554	2.6
385.92	2.72
386.286	2.68
386.651	2.77
387.017	2.42
387.383	2.71
387.748	2.57
388.114	2.61
388.479	2.69
388.845	2.75
389.21	2.77
389.575	2.74
389.94	2.76
390.306	2.84
390.671	3.13
391.036	2.72
391.401	2.75
391.766	2.87
392.131	2.61
392.496	2.76
392.861	2.57
393.226	2.64
393.591	2.66
393.956	2.61
394.32	2.59
394.685	2.64
395.05	2.56
395.414	2.88
395.779	2.72
396.143	2.73
396.508	2.7
396.872	2.69
397.236	2.58
397.601	2.68
397.965	2.68
398.329	2.89
398.694	2.92
399.058	2.67
399.422	2.76
399.786	2.6
400.15	2.75
400.514	2.59
400.878	2.61
401.242	2.77
401.605	2.93
401.969	2.96
402.333	2.75
402.697	2.67
403.06	2.65
403.424	2.73
403.787	2.74
404.151	2.82
404.514	2.79
404.878	2.83
405.241	2.6
405.604	2.96
405.968	2.77
406.331	2.72
406.694	2.68
407.057	2.72
407.42	2.58
407.783	2.77
408.146	2.91
408.509	3.02
408.872	2.78
409.235	2.71
409.598	2.7
409.961	2.56
410.323	2.88
410.686	2.72
411.049	2.75
411.411	2.75
411.774	2.82
412.136	2.76
412.499	2.9
412.861	3.05
413.223	2.77
413.586	2.78
413.948	2.9
414.31	2.84
414.672	2.68
415.035	2.98
415.397	2.9
415.759	2.86
416.121	2.84
416.483	2.85
416.845	2.88
417.206	2.81
417.568	2.93
417.93	2.77
418.292	2.81
418.653	2.79
419.015	2.79
419.377	2.86
419.738	2.8
420.1	2.83
420.461	2.75
420.822	2.91
421.184	2.7
421.545	2.81
421.906	2.84
422.267	2.86
422.629	2.73
422.99	2.73
423.351	2.76
423.712	2.83
424.073	2.91
424.434	2.9
424.795	2.86
425.155	2.86
425.516	2.66
425.877	2.74
426.238	2.76
426.598	2.77
426.959	2.77
427.32	2.88
427.68	2.8
428.041	2.75
428.401	2.85
428.761	2.93
429.122	2.93
429.482	2.91
429.842	2.85
430.202	3.11
430.563	2.82
430.923	3.03
431.283	3
431.643	2.9
432.003	2.99
432.363	3.12
432.722	2.88
433.082	2.84
433.442	2.94
433.802	2.75
434.161	2.8
434.521	2.94
434.881	2.87
435.24	2.89
435.6	2.95
435.959	3.01
436.319	2.88
436.678	2.99
437.037	3.04
437.396	2.89
437.756	3.12
438.115	2.81
438.474	2.98
438.833	2.8
439.192	2.79
439.551	2.8
439.91	2.79
440.269	2.83
440.628	2.75
440.987	2.86
441.345	2.85
441.704	2.86
442.063	2.82
442.421	2.91
442.78	2.84
443.138	2.95
443.497	2.99
443.855	2.98
444.214	2.93
444.572	2.87
444.93	2.93
445.288	3.01
445.647	3.05
446.005	3.09
446.363	3.01
446.721	2.86
447.079	2.95
447.437	2.92
447.795	2.9
448.153	3
448.51	2.83
448.868	2.94
449.226	2.84
449.584	2.98
449.941	2.92
450.299	3.1
450.656	2.87
451.014	2.9
451.371	3.08
451.729	2.98
452.086	2.89
452.443	3.06
452.801	3.09
453.158	3.06
453.515	2.83
453.872	2.97
454.229	2.99
454.586	2.95
454.943	2.86
455.3	3.08
455.657	2.95
456.014	3.19
456.371	3.04
456.727	3.02
457.084	2.91
457.441	3
457.797	3.07
458.154	2.97
458.51	2.96
458.867	3.02
459.223	3.08
459.58	2.86
459.936	3.02
460.292	3.03
460.648	2.89
461.005	2.96
461.361	2.91
461.717	2.93
462.073	2.97
462.429	3.02
462.785	3.02
463.141	3.19
463.496	2.93
463.852	3.05
464.208	2.99
464.564	2.91
464.919	3.1
465.275	2.99
465.631	3.1
465.986	2.9
466.342	3.07
466.697	3.23
467.052	3.04
467.408	2.9
467.763	2.78
468.118	3.03
468.473	3.18
468.829	2.94
469.184	3.06
469.539	2.9
469.894	3.03
470.249	3.1
470.603	2.99
470.958	3.21
471.313	2.97
471.668	3.12
472.023	3.02
472.377	3.14
472.732	2.94
473.086	3.19
473.441	3.16
473.795	2.96
474.15	2.94
474.504	3.07
474.859	3.2
475.213	3.15
475.567	3.09
475.921	2.99
476.275	3.14
476.63	2.99
476.984	3.21
477.338	3.06
477.692	3.02
478.045	3.13
478.399	3.09
478.753	3.05
479.107	3.1
479.461	3.09
479.814	3.05
480.168	3.16
480.521	3
480.875	2.99
481.228	3
481.582	3.14
481.935	3.12
482.289	3.08
482.642	3.03
482.995	3.06
483.348	3.1
483.701	3.02
484.055	2.99
484.408	3.08
484.761	2.93
485.114	2.84
485.466	2.82
485.819	2.81
486.172	2.89
486.525	3
486.878	3.06
487.23	3.1
487.583	3.13
487.936	3.12
488.288	2.99
488.641	2.92
488.993	2.91
489.345	2.88
489.698	2.93
490.05	2.95
490.402	3.01
490.754	3.1
491.107	3.01
491.459	3.11
491.811	3.16
492.163	3.04
492.515	2.98
492.866	2.94
493.218	2.9
493.57	2.98
493.922	2.98
494.274	3.08
494.625	3.19
494.977	3.18
495.328	3.16
495.68	3.12
496.031	3.25
496.383	3.13
496.734	3.12
497.086	3.16
497.437	3.1
497.788	3.12
498.139	2.99
498.49	3.12
498.842	3.07
499.193	3.03
499.544	3.07
499.894	3
500.245	3.09
500.596	3.11
500.947	3.35
501.298	3.2
501.648	3.1
501.999	3.06
502.35	3.22
502.7	3.16
503.051	3.18
503.401	3.32
503.752	3.26
504.102	3.12
504.452	3.12
504.803	3.25
505.153	3.1
505.503	3.11
505.853	3.1
506.203	3.19
506.553	3.22
506.903	3.24
507.253	3.15
507.603	3.17
507.953	3.24
508.303	3.19
508.652	3.21
509.002	3.25
509.352	3.19
509.701	3.19
510.051	3.16
510.4	3.03
510.75	3.19
511.099	3.06
511.449	3.08
511.798	3.17
512.147	3.11
512.496	3.23
512.846	3.14
513.195	3.1
513.544	3.12
513.893	3.08
514.242	3.21
514.591	3.12
514.939	3.14
515.288	3.09
515.637	3.16
515.986	3.2
516.334	3.23
516.683	3.26
517.032	3.21
517.38	3.01
517.729	3.16
518.077	3.28
518.426	3.01
518.774	3.1
519.122	3.17
519.47	3.13
519.819	3.16
520.167	3.03
520.515	3.13
520.863	3.15
521.211	3.18
521.559	3.23
521.907	3.18
522.255	3.24
522.602	3.29
522.95	3.26
523.298	3.1
523.645	3.19
523.993	3.1
524.341	3.37
524.688	3.2
525.036	3.32
525.383	3.19
525.73	3.24
526.078	3.17
526.425	3.21
526.772	3.11
527.119	3.11
527.466	3.01
527.814	3.08
528.161	3.16
528.508	3.11
528.854	3.12
529.201	3.17
529.548	3.1
529.895	2.98
530.242	2.94
530.588	2.97
530.935	3.01
531.282	3.11
531.628	3.17
531.975	3.19
532.321	3.17
532.667	3.27
533.014	3.21
533.36	3.18
533.706	3.17
534.052	3.24
534.399	3.13
534.745	3.04
535.091	3.01
535.437	3.11
535.783	3.11
536.129	3.23
536.474	3.23
536.82	3.33
537.166	3.28
537.512	3.23
537.857	3.18
538.203	3.19
538.549	3.16
538.894	3.12
539.239	3.21
539.585	3.2
539.93	3.29
540.276	3.22
540.621	3.21
540.966	3.21
541.311	3.12
541.656	3.2
542.001	3.17
542.346	3.18
542.691	3.16
543.036	3.01
543.381	3.07
543.726	3.15
544.071	3.17
544.415	3.24
544.76	3.27
545.105	3.14
545.449	3.26
545.794	3.22
546.138	3.27
546.483	3.25
546.827	3.21
547.171	3.21
547.516	3.33
547.86	3.19
548.204	3.12
548.548	3.24
548.892	3.19
549.236	3.22
549.58	3.27
549.924	3.25
550.268	3.32
550.612	3.24
550.956	3.46
551.3	3.28
551.643	3.42
551.987	3.15
552.33	3.41
552.674	3.26
553.017	3.25
553.361	3.19
553.704	3.34
554.048	3.07
554.391	3.28
554.734	3.16
555.077	3.3
555.42	3.24
555.764	3.3
556.107	3.2
556.45	3.38
556.793	3.11
557.135	3.38
557.478	3.35
557.821	3.4
558.164	3.31
558.507	3.26
558.849	3.29
559.192	3.26
559.534	3.37
559.877	3.12
560.219	3.2
560.562	3.01
560.904	3.29
561.246	3.34
561.589	3.34
561.931	3.25
562.273	3.31
562.615	3.25
562.957	3.29
563.299	3.21
563.641	3.18
563.983	3.34
564.325	3.49
564.667	3.25
565.008	3.35
565.35	3.46
565.692	3.49
566.033	3.29
566.375	3.19
566.716	3.39
567.058	3.11
567.399	3.19
567.741	3.29
568.082	3.28
568.423	3.21
568.764	3.29
569.105	3.23
569.447	3.21
569.788	3.33
570.129	3.41
570.47	3.31
570.811	3.39
571.151	3.26
571.492	3.36
571.833	3.25
572.174	3.35
572.514	3.37
572.855	3.39
573.195	3.14
573.536	3.35
573.876	3.26
574.217	3.26
574.557	3.27
574.898	3.24
575.238	3.42
575.578	3.32
575.918	3.32
576.258	3.35
576.598	3.21
576.938	3.33
577.278	3.35
577.618	3.53
577.958	3.18
578.298	3.27
578.638	3.44
578.977	3.4
579.317	3.07
579.657	3.22
579.996	3.23
580.336	3.52
580.675	3.35
581.014	3.22
581.354	3.18
581.693	3.42
582.032	3.44
582.372	3.39
582.711	3.22
583.05	3.3
583.389	3.25
583.728	3.39
584.067	3.37
584.406	3.28
584.745	3.34
585.083	3.4
585.422	3.4
585.761	3.47
586.1	3.5
586.438	3.47
586.777	3.45
587.115	3.25
587.454	3.19
587.792	3.43
588.13	3.37
588.469	3.55
588.807	3.31
589.145	3.32
589.483	3.25
589.821	3.46
590.159	3.34
590.497	3.57
590.835	3.27
591.173	3.39
591.511	3.54
591.849	3.29
592.187	3.29
592.524	3.29
592.862	3.16
593.2	3.35
593.537	3.43
593.875	3.44
594.212	3.56
594.55	3.37
594.887	3.36
595.224	3.4
595.561	3.41
595.899	3.4
596.236	3.42
596.573	3.48
596.91	3.38
597.247	3.34
597.584	3.34
597.921	3.34
598.258	3.22
598.594	3.16
598.931	3.3
599.268	3.25
599.604	3.26
599.941	3.42
600.277	3.39
600.614	3.5
600.95	3.31
601.287	3.33
601.623	3.66
601.959	3.28
602.296	3.29
602.632	3.36
602.968	3.54
603.304	3.29
603.64	3.35
603.976	3.25
604.312	3.51
604.648	3.44
604.984	3.4
605.319	3.37
605.655	3.39
605.991	3.56
606.326	3.27
606.662	3.29
606.998	3.31
607.333	3.53
607.668	3.16
608.004	3.42
608.339	3.53
608.674	3.53
609.01	3.39
609.345	3.54
609.68	3.44
610.015	3.63
610.35	3.22
610.685	3.15
611.02	3.4
611.355	3.27
611.689	3.3
612.024	3.58
612.359	3.32
612.694	3.43
613.028	3.44
613.363	3.78
613.697	3.21
614.032	3.53
614.366	3.34
614.7	3.3
615.035	3.22
615.369	3.77
615.703	3.29
616.037	3.75
616.371	3.32
616.705	3.42
617.039	3.79
617.373	3.73
617.707	3.31
618.041	3.46
618.375	3.11
618.709	3.53
619.042	3.69
619.376	3.59
619.71	3.35
620.043	3.45
620.377	3.76
620.71	3.81
621.043	3.73
621.377	3.84
621.71	3.67
622.043	3.49
622.376	3.46
622.709	3.47
623.043	3.31
623.376	3.44
623.709	3.68
624.041	3.1
624.374	3.44
624.707	3.59
625.04	3.54
625.373	3.9
625.705	3
626.038	3.22
626.37	3.27
626.703	3.81
627.035	3.43
627.368	3.41
627.7	3.49
628.032	3.46
628.365	3.3
628.697	3.51
629.029	3.65
629.361	3.54
629.693	3.56
630.025	3.33
630.357	3.58
630.689	3.11
631.021	3.45
631.353	3.2
631.684	3.45
632.016	3.64
632.348	3.65
632.679	3.85
633.011	3.42
633.342	3.75
633.674	3.82
634.005	3.28
634.336	3.39
634.668	3.8
634.999	3.46
635.33	3.34
635.661	3.39
635.992	3.48
636.323	3.63
636.654	3.61
636.985	3.2
637.316	3.47
637.647	3.51
637.977	3.2
638.308	3.61
638.639	3.38
638.969	3.63
639.3	3.2
639.63	3.87
639.961	3.56
640.291	3.66
640.622	3.4
640.952	3.28
641.282	3.44
641.612	3.69
641.943	3.69
642.273	3.09
642.603	3.42
642.933	3.2
643.263	3.47
643.592	3.63
643.922	3.33
644.252	3.37
644.582	4.08
644.911	3.78
645.241	3.7
645.571	3.37
645.9	3.92
646.23	3.32
646.559	3.33
646.888	3.09
647.218	3.43
647.547	3.33
647.876	3.73
648.205	3.56
648.534	3.45
648.863	3.39
649.192	3.21
649.521	2.94
649.85	3.31
650.179	3.89
650.508	3.44
650.837	3.74
651.165	3.99
651.494	3.45
651.822	3.44
652.151	3.29
652.479	3.8
652.808	3.17
653.136	3.46
653.465	2.98
653.793	3.47
654.121	3.66
654.449	3.71
654.777	3.92
655.105	3.66
655.433	3.87
655.761	3.58
656.089	3.39
656.417	3.66
656.745	3.33
657.073	3.78
657.4	3.26
657.728	3.95
658.056	3.8
658.383	3.69
658.711	3.69
659.038	4.21
659.365	3.41
659.693	3.19
660.02	3.49
660.347	4.15
660.674	3.5
661.001	3.42
661.329	3.75
661.656	3.51
661.982	3.69
662.309	3.79
662.636	3.68
662.963	3.67
663.29	3.62
663.616	3.9
663.943	3.61
664.27	3.61
664.596	3.57
664.923	3.69
665.249	3.24
665.576	3.95
665.902	3.78
666.228	3.95
666.554	3.65
666.881	3.78
667.207	3.78
667.533	3.87
667.859	3.7
668.185	3.99
668.511	3.57
668.837	3.9
669.162	3.69
669.488	4.25
669.814	4.19
670.139	4
670.465	3.61
670.791	3.77
671.116	3.6
671.442	3.77
671.767	3.71
672.092	3.54
672.418	4.37
672.743	3.43
673.068	3.68
673.393	3.4
673.718	3.6
674.043	4.04
674.368	3.65
674.693	3.56
675.018	4.23
675.343	3.87
675.667	4.12
675.992	3.7
676.317	3.38
676.641	3.5
676.966	3.58
677.29	3.63
677.615	4.12
677.939	3.78
678.264	3.17
678.588	4.03
678.912	3.96
679.236	4.12
679.56	3.22
679.885	4.07
680.209	3.58
680.532	4.29
680.856	3.63
681.18	3.66
681.504	4.36
681.828	3.87
682.152	4.04
682.475	3.85
682.799	3.84
683.122	3.68
683.446	3.59
683.769	3.63
684.093	3.69
684.416	4.13
684.739	3.41
685.062	3.53
685.386	4.09
685.709	3.85
686.032	4.49
686.355	3.47
686.678	3.13
687.001	3.89
687.324	3.42
687.646	3.58
687.969	3.76
688.292	4.32
688.614	3.82
688.937	4.41
689.26	3.95
689.582	3.69
689.904	4.61
690.227	4.22
690.549	4.53
690.871	3.9
691.194	3.94
691.516	4.21
691.838	4.01
692.16	3.95
692.482	4.26
