Data from 0014_crown_Reflection__4__29.txt Node

Date: Mon Oct 17 14:38:17 CDT 2022
User: ToomeyLab
Spectrometer: FLMS14357
Trigger mode: 0
Integration Time (sec): 1.000000E-2
Scans to average: 100
Electric dark correction enabled: true
Nonlinearity correction enabled: false
Boxcar width: 0
XAxis mode: Wavelengths
Number of Pixels in Spectrum: 2048
>>>>>Begin Spectral Data<<<<<
189.047	125.55
189.435	125.55
189.823	125.55
190.211	-189.74
190.599	19.27
190.987	-201.18
191.375	162.28
191.763	-1382.59
192.151	-3230.47
192.538	-94.7
192.926	382.12
193.314	64.02
193.702	23.13
194.089	-15.86
194.477	714.84
194.864	-683.17
195.252	172.81
195.639	38.33
196.027	-17.96
196.414	211.9
196.801	-378.77
197.189	-249.28
197.576	250.79
197.963	-30.69
198.351	-80.82
198.738	30.32
199.125	-14.29
199.512	4.88
199.899	25.65
200.286	-24.11
200.673	32.52
201.06	-48.5
201.447	21.63
201.833	38.95
202.22	22.88
202.607	-42.33
202.994	-24.66
203.38	-15.9
203.767	-11.43
204.154	8.75
204.54	-1.41
204.927	-31.93
205.313	-54.7
205.699	17.38
206.086	-76.55
206.472	18.3
206.858	5.48
207.245	-9.07
207.631	14.21
208.017	22.18
208.403	26.35
208.789	38.54
209.175	6.71
209.561	-46.81
209.947	-53.08
210.333	67.6
210.719	9.84
211.105	14.21
211.491	-3.36
211.876	-14.63
212.262	51.66
212.648	3.56
213.034	-7.04
213.419	21.14
213.805	10.48
214.19	26.71
214.576	5.23
214.961	6.63
215.346	-2.42
215.732	8.26
216.117	7.78
216.502	-8.84
216.888	-9.85
217.273	19.1
217.658	19.28
218.043	18.07
218.428	-8.15
218.813	16.46
219.198	21.08
219.583	2.34
219.968	5.97
220.353	-6.03
220.738	-1.8
221.122	-2.54
221.507	-8.22
221.892	9.94
222.276	-7.67
222.661	4.07
223.046	4.41
223.43	11.33
223.815	-0.49
224.199	12.1
224.583	0.13
224.968	-2.51
225.352	2.44
225.736	11.82
226.121	7.48
226.505	4.15
226.889	4.61
227.273	10.89
227.657	12.8
228.041	11.86
228.425	8.19
228.809	8.03
229.193	9.78
229.577	10.94
229.961	9.5
230.344	10.34
230.728	9.25
231.112	9.97
231.495	9.85
231.879	9.61
232.263	10.24
232.646	11.79
233.03	8.72
233.413	7.45
233.797	10.13
234.18	10.78
234.563	6.34
234.946	10
235.33	9.31
235.713	7.65
236.096	9.51
236.479	10.13
236.862	9.66
237.245	9.22
237.628	8.15
238.011	9.36
238.394	10.17
238.777	10.58
239.16	11.38
239.543	9.43
239.925	8.93
240.308	8.93
240.691	8.54
241.073	9.71
241.456	8.39
241.838	9.02
242.221	9.4
242.603	8.85
242.986	9.12
243.368	9.93
243.75	9
244.133	9.49
244.515	9.63
244.897	9.32
245.279	9.57
245.661	9.11
246.043	9.77
246.425	8.02
246.807	7.94
247.189	9.49
247.571	9.36
247.953	9.06
248.335	9.08
248.717	9.1
249.098	8.88
249.48	8.78
249.862	9.03
250.243	8.71
250.625	9.04
251.006	8.26
251.388	8.58
251.769	8.77
252.151	8.69
252.532	8.91
252.913	8.84
253.295	8.18
253.676	9.32
254.057	8.94
254.438	8.53
254.819	9.53
255.2	9.42
255.581	9.47
255.962	8.06
256.343	7.85
256.724	7.86
257.105	7.65
257.486	6.61
257.867	7.8
258.247	8.34
258.628	8.57
259.009	8.41
259.389	8.57
259.77	8.95
260.15	8.33
260.531	8.48
260.911	8.31
261.292	8.41
261.672	8.01
262.052	8.09
262.432	8.1
262.813	8.19
263.193	8.42
263.573	8.42
263.953	7.58
264.333	7.84
264.713	8.14
265.093	7.58
265.473	8.08
265.853	8.16
266.233	8.87
266.612	7.4
266.992	8.75
267.372	8.07
267.752	8.38
268.131	8.39
268.511	8.08
268.89	8
269.27	7.81
269.649	7.9
270.029	8
270.408	8.18
270.787	7.11
271.167	7.53
271.546	7.81
271.925	7.85
272.304	7.84
272.683	7.99
273.062	7.61
273.441	7.54
273.82	7.68
274.199	7.76
274.578	7.43
274.957	7.07
275.336	7.8
275.715	7.74
276.093	7.45
276.472	7.53
276.851	7.07
277.229	6.78
277.608	7.11
277.986	7.27
278.365	7.58
278.743	7.31
279.122	6.86
279.5	7.29
279.878	7.04
280.257	6.94
280.635	7.07
281.013	7.11
281.391	6.5
281.769	7.03
282.147	7.45
282.525	6.92
282.903	7.06
283.281	6.94
283.659	7.14
284.037	6.79
284.415	6.91
284.792	6.72
285.17	6.26
285.548	6.5
285.925	7.38
286.303	6.76
286.68	6.75
287.058	7
287.435	6.73
287.813	6.81
288.19	6.6
288.567	6.67
288.945	6.75
289.322	7.2
289.699	6.79
290.076	6.84
290.453	6.49
290.83	6.59
291.207	6.76
291.584	6.35
291.961	6.46
292.338	6.67
292.715	6.41
293.092	6.29
293.469	6.55
293.845	6.57
294.222	6.54
294.599	6.81
294.975	6.15
295.352	6.09
295.728	6.43
296.105	5.98
296.481	6.55
296.858	6.58
297.234	6.03
297.61	6.06
297.986	6.09
298.363	6.47
298.739	6.5
299.115	6.41
299.491	6.44
299.867	6.18
300.243	6.24
300.619	5.86
300.995	6.22
301.371	5.98
301.746	6.09
302.122	5.91
302.498	5.93
302.874	6.59
303.249	6.23
303.625	6.28
304	6.44
304.376	5.9
304.751	6.5
305.127	6.57
305.502	5.9
305.878	5.95
306.253	6.08
306.628	6.18
307.003	6.13
307.378	6.23
307.754	5.92
308.129	6.16
308.504	6.72
308.879	6.11
309.254	6.02
309.629	5.78
310.003	6.22
310.378	6.05
310.753	5.76
311.128	6.08
311.502	6.36
311.877	6.25
312.252	6.18
312.626	6.04
313.001	5.93
313.375	6.11
313.75	5.99
314.124	5.95
314.498	5.7
314.873	5.93
315.247	6.01
315.621	6.41
315.995	6.02
316.369	5.62
316.743	6.12
317.117	6.17
317.491	5.87
317.865	5.73
318.239	6.16
318.613	5.94
318.987	5.98
319.361	5.55
319.734	6.28
320.108	5.98
320.482	5.84
320.855	5.73
321.229	5.78
321.602	5.99
321.976	5.27
322.349	5.93
322.723	5.77
323.096	6.19
323.469	6.26
323.843	5.92
324.216	6.32
324.589	5.43
324.962	5.63
325.335	5.8
325.708	5.91
326.081	5.96
326.454	6.13
326.827	6.03
327.2	5.84
327.573	5.92
327.945	5.65
328.318	5.86
328.691	5.98
329.063	5.74
329.436	5.53
329.809	5.79
330.181	6.57
330.553	5.85
330.926	6.3
331.298	5.99
331.671	5.94
332.043	5.95
332.415	6.24
332.787	5.68
333.159	5.98
333.532	5.68
333.904	5.57
334.276	5.97
334.648	5.52
335.02	5.72
335.391	6.36
335.763	6.3
336.135	5.69
336.507	6.02
336.879	6.43
337.25	6.46
337.622	6.47
337.993	6.2
338.365	6
338.736	5.78
339.108	6.33
339.479	5.87
339.851	6.12
340.222	5.73
340.593	6.3
340.964	5.6
341.336	5.93
341.707	6.11
342.078	6.11
342.449	6.15
342.82	5.95
343.191	6.19
343.562	6.14
343.933	5.95
344.303	6.02
344.674	6.56
345.045	6.24
345.416	6.42
345.786	6.3
346.157	6.1
346.527	6.37
346.898	6.36
347.268	6.4
347.639	6.1
348.009	6.13
348.38	6.25
348.75	6
349.12	6.37
349.49	6.01
349.861	6.47
350.231	6.27
350.601	6.52
350.971	6.32
351.341	6.24
351.711	6.05
352.081	6.43
352.45	6.58
352.82	6.78
353.19	6.01
353.56	6.21
353.929	6.42
354.299	6.27
354.669	6.45
355.038	6.27
355.408	6.43
355.777	6.24
356.147	5.99
356.516	6.53
356.885	6.47
357.254	6.64
357.624	6.42
357.993	6.65
358.362	6.23
358.731	6.37
359.1	6.26
359.469	6.41
359.838	6.48
360.207	6.49
360.576	6.53
360.945	6.44
361.314	6.45
361.682	6.45
362.051	6.5
362.42	6.67
362.788	6.7
363.157	6.71
363.525	6.46
363.894	6.79
364.262	6.74
364.631	6.78
364.999	6.67
365.367	6.26
365.735	6.68
366.104	6.54
366.472	6.51
366.84	6.78
367.208	6.99
367.576	6.66
367.944	6.59
368.312	6.56
368.68	6.98
369.048	6.63
369.416	6.93
369.783	6.91
370.151	6.74
370.519	6.99
370.886	6.76
371.254	6.59
371.621	6.58
371.989	7
372.356	6.73
372.724	7.06
373.091	6.96
373.458	6.94
373.826	6.96
374.193	6.87
374.56	6.57
374.927	7.07
375.294	6.88
375.661	6.92
376.028	7.3
376.395	6.78
376.762	6.81
377.129	6.8
377.496	6.8
377.863	6.74
378.229	7.17
378.596	7.07
378.963	7.03
379.329	7.06
379.696	6.84
380.062	7.31
380.429	6.7
380.795	7.2
381.161	7.25
381.528	7.05
381.894	6.65
382.26	7.05
382.626	7.14
382.993	7.16
383.359	7.03
383.725	7.13
384.091	7.23
384.457	7.07
384.823	7.17
385.188	7.04
385.554	7.28
385.92	7.15
386.286	7.18
386.651	7.4
387.017	7.13
387.383	7.41
387.748	7.28
388.114	7.1
388.479	7.37
388.845	7.31
389.21	6.99
389.575	7.21
389.94	7.34
390.306	7.41
390.671	7.52
391.036	7.31
391.401	7.33
391.766	7.28
392.131	7.18
392.496	7.56
392.861	7.47
393.226	7.38
393.591	7.13
393.956	7.32
394.32	7.49
394.685	7.32
395.05	7.53
395.414	7.54
395.779	7.59
396.143	7.53
396.508	7.4
396.872	7.37
397.236	7.35
397.601	7.36
397.965	7.51
398.329	7.77
398.694	7.59
399.058	7.36
399.422	7.53
399.786	7.53
400.15	7.59
400.514	7.52
400.878	7.49
401.242	7.49
401.605	7.65
401.969	7.69
402.333	7.62
402.697	7.53
403.06	7.45
403.424	7.66
403.787	7.62
404.151	7.76
404.514	7.66
404.878	7.8
405.241	7.66
405.604	7.67
405.968	7.52
406.331	7.58
406.694	7.65
407.057	7.55
407.42	7.58
407.783	7.83
408.146	7.74
408.509	7.74
408.872	7.56
409.235	7.61
409.598	7.93
409.961	7.53
410.323	7.82
410.686	7.83
411.049	7.62
411.411	7.76
411.774	7.69
412.136	7.82
412.499	7.85
412.861	7.68
413.223	7.61
413.586	7.63
413.948	7.99
414.31	7.75
414.672	7.63
415.035	7.92
415.397	8.15
415.759	7.9
416.121	7.72
416.483	7.88
416.845	7.81
417.206	7.89
417.568	8.02
417.93	7.91
418.292	8.12
418.653	7.73
419.015	7.91
419.377	7.94
419.738	7.65
420.1	7.94
420.461	7.8
420.822	7.78
421.184	7.76
421.545	7.81
421.906	7.84
422.267	7.79
422.629	7.71
422.99	7.84
423.351	7.76
423.712	7.76
424.073	7.83
424.434	7.82
424.795	7.84
425.155	7.82
425.516	7.74
425.877	7.84
426.238	7.78
426.598	7.86
426.959	7.84
427.32	7.91
427.68	7.83
428.041	7.71
428.401	7.96
428.761	7.9
429.122	8.11
429.482	8.05
429.842	7.94
430.202	8.17
430.563	8.01
430.923	7.93
431.283	8.15
431.643	8.02
432.003	8.15
432.363	8.13
432.722	8.02
433.082	8.1
433.442	8.12
433.802	8.04
434.161	8.06
434.521	8.08
434.881	8.07
435.24	7.97
435.6	8.08
435.959	8.03
436.319	8.08
436.678	7.94
437.037	8.18
437.396	7.92
437.756	8.14
438.115	7.98
438.474	7.97
438.833	7.86
439.192	7.98
439.551	7.92
439.91	8.06
440.269	8.1
440.628	7.99
440.987	8.11
441.345	8.04
441.704	7.99
442.063	7.97
442.421	7.99
442.78	7.95
443.138	7.99
443.497	8.09
443.855	8.1
444.214	8.01
444.572	8.13
444.93	8.18
445.288	8.07
445.647	8.2
446.005	8.18
446.363	8.19
446.721	8.14
447.079	8.12
447.437	8.11
447.795	8.06
448.153	8.13
448.51	8.05
448.868	8.04
449.226	8.15
449.584	8.06
449.941	8.12
450.299	8.11
450.656	8.03
451.014	8.18
451.371	8.3
451.729	8.19
452.086	8.22
452.443	8.31
452.801	8.1
453.158	8.41
453.515	8.03
453.872	8.18
454.229	8.13
454.586	8.14
454.943	8.26
455.3	8.04
455.657	8.15
456.014	8.21
456.371	8.24
456.727	8.21
457.084	8.27
457.441	8.16
457.797	8.25
458.154	8.31
458.51	8.34
458.867	8.44
459.223	8.26
459.58	8.19
459.936	8.35
460.292	8.33
460.648	8.26
461.005	8.3
461.361	8.35
461.717	8.14
462.073	8.17
462.429	8.14
462.785	8.14
463.141	8.21
463.496	8.21
463.852	8.42
464.208	8.37
464.564	8.37
464.919	8.44
465.275	8.1
465.631	8.21
465.986	8.34
466.342	8.4
466.697	8.32
467.052	8.37
467.408	8.24
467.763	8.11
468.118	8.44
468.473	8.33
468.829	8.32
469.184	8.28
469.539	8.3
469.894	8.26
470.249	8.4
470.603	8.38
470.958	8.5
471.313	8.27
471.668	8.39
472.023	8.22
472.377	8.37
472.732	8.26
473.086	8.45
473.441	8.48
473.795	8.35
474.15	8.28
474.504	8.39
474.859	8.45
475.213	8.4
475.567	8.49
475.921	8.17
476.275	8.31
476.63	8.47
476.984	8.46
477.338	8.36
477.692	8.33
478.045	8.45
478.399	8.37
478.753	8.29
479.107	8.22
479.461	8.33
479.814	8.41
480.168	8.24
480.521	8.28
480.875	8.35
481.228	8.29
481.582	8.42
481.935	8.37
482.289	8.29
482.642	8.4
482.995	8.43
483.348	8.37
483.701	8.17
484.055	8.18
484.408	8.26
484.761	8.15
485.114	8.05
485.466	8.04
485.819	7.99
486.172	7.95
486.525	7.86
486.878	7.84
487.23	7.85
487.583	7.92
487.936	8.01
488.288	8.01
488.641	8.08
488.993	8.02
489.345	8.06
489.698	8.03
490.05	7.99
490.402	7.95
490.754	7.92
491.107	7.9
491.459	8.02
491.811	8.16
492.163	8.12
492.515	8.15
492.866	8.18
493.218	8.18
493.57	8.1
493.922	8.03
494.274	7.94
494.625	7.99
494.977	8.04
495.328	8.01
495.68	8.22
496.031	8.13
496.383	8.12
496.734	8.19
497.086	8.18
497.437	8.19
497.788	8.24
498.139	8.16
498.49	8.28
498.842	8.19
499.193	8.06
499.544	8.18
499.894	8.17
500.245	8.11
500.596	8.18
500.947	8.3
501.298	8.25
501.648	8.18
501.999	8.25
502.35	8.2
502.7	8.39
503.051	8.33
503.401	8.31
503.752	8.27
504.102	8.35
504.452	8.07
504.803	8.17
505.153	8.3
505.503	8.22
505.853	8.27
506.203	8.29
506.553	8.23
506.903	8.17
507.253	8.27
507.603	8.28
507.953	8.16
508.303	8.19
508.652	8.19
509.002	8.26
509.352	8.14
509.701	8.21
510.051	8.27
510.4	8.07
510.75	8.1
511.099	8.23
511.449	8.14
511.798	8.04
512.147	8.03
512.496	8.13
512.846	8.08
513.195	8.12
513.544	7.98
513.893	7.96
514.242	8.18
514.591	8.07
514.939	8.02
515.288	7.97
515.637	8.25
515.986	8.12
516.334	8.1
516.683	8.15
517.032	8.08
517.38	8.09
517.729	8.1
518.077	8.15
518.426	8.07
518.774	8.12
519.122	8.01
519.47	8.04
519.819	8.12
520.167	8
520.515	8.03
520.863	7.95
521.211	7.9
521.559	7.9
521.907	7.95
522.255	7.98
522.602	7.91
522.95	8.11
523.298	7.99
523.645	8.12
523.993	8.02
524.341	8.01
524.688	7.98
525.036	8.07
525.383	8.04
525.73	8.07
526.078	7.92
526.425	7.97
526.772	7.98
527.119	7.89
527.466	7.84
527.814	7.81
528.161	7.82
528.508	7.77
528.854	7.8
529.201	7.83
529.548	7.85
529.895	7.73
530.242	7.77
530.588	7.71
530.935	7.65
531.282	7.55
531.628	7.43
531.975	7.57
532.321	7.56
532.667	7.66
533.014	7.72
533.36	7.79
533.706	7.75
534.052	7.83
534.399	7.8
534.745	7.75
535.091	7.81
535.437	7.77
535.783	7.69
536.129	7.62
536.474	7.66
536.82	7.68
537.166	7.65
537.512	7.77
537.857	7.75
538.203	7.72
538.549	7.72
538.894	7.69
539.239	7.75
539.585	7.67
539.93	7.68
540.276	7.61
540.621	7.62
540.966	7.79
541.311	7.77
541.656	7.88
542.001	7.87
542.346	7.73
542.691	7.73
543.036	7.57
543.381	7.57
543.726	7.51
544.071	7.5
544.415	7.48
544.76	7.42
545.105	7.49
545.449	7.58
545.794	7.45
546.138	7.48
546.483	7.57
546.827	7.64
547.171	7.54
547.516	7.66
547.86	7.6
548.204	7.55
548.548	7.64
548.892	7.62
549.236	7.6
549.58	7.56
549.924	7.56
550.268	7.58
550.612	7.66
550.956	7.73
551.3	7.55
551.643	7.65
551.987	7.54
552.33	7.52
552.674	7.6
553.017	7.63
553.361	7.63
553.704	7.57
554.048	7.42
554.391	7.62
554.734	7.49
555.077	7.6
555.42	7.59
555.764	7.56
556.107	7.63
556.45	7.53
556.793	7.48
557.135	7.52
557.478	7.55
557.821	7.51
558.164	7.58
558.507	7.5
558.849	7.41
559.192	7.42
559.534	7.38
559.877	7.35
560.219	7.29
560.562	7.19
560.904	7.37
561.246	7.57
561.589	7.66
561.931	7.53
562.273	7.5
562.615	7.36
562.957	7.41
563.299	7.49
563.641	7.29
563.983	7.18
564.325	7.58
564.667	7.46
565.008	7.5
565.35	7.26
565.692	7.5
566.033	7.4
566.375	7.3
566.716	7.36
567.058	7.3
567.399	7.27
567.741	7.36
568.082	7.33
568.423	7.34
568.764	7.38
569.105	7.24
569.447	7.16
569.788	7.3
570.129	7.24
570.47	7.21
570.811	7.38
571.151	7.27
571.492	7.37
571.833	7.16
572.174	7.2
572.514	7.27
572.855	7.15
573.195	7.25
573.536	7.11
573.876	7.15
574.217	7.08
574.557	6.97
574.898	7.03
575.238	7.09
575.578	7.03
575.918	7.14
576.258	7.1
576.598	7
576.938	7.29
577.278	7.22
577.618	7.2
577.958	7.09
578.298	7.04
578.638	7.25
578.977	7.19
579.317	6.86
579.657	7
579.996	6.96
580.336	7.17
580.675	6.91
581.014	6.91
581.354	6.91
581.693	6.96
582.032	6.92
582.372	6.95
582.711	6.9
583.05	7.1
583.389	6.99
583.728	7.14
584.067	6.86
584.406	6.73
584.745	7.24
585.083	7.03
585.422	6.95
585.761	7.09
586.1	7.1
586.438	7.34
586.777	7.01
587.115	6.83
587.454	6.93
587.792	7.11
588.13	7.03
588.469	7.05
588.807	6.92
589.145	6.91
589.483	6.79
589.821	6.88
590.159	6.82
590.497	7.12
590.835	7.05
591.173	6.99
591.511	7.08
591.849	6.92
592.187	6.9
592.524	6.69
592.862	6.75
593.2	7.01
593.537	7.01
593.875	6.83
594.212	6.83
594.55	6.91
594.887	6.95
595.224	7
595.561	6.9
595.899	7.13
596.236	6.97
596.573	6.75
596.91	6.79
597.247	6.93
597.584	6.64
597.921	6.89
598.258	6.97
598.594	6.84
598.931	6.75
599.268	6.79
599.604	6.74
599.941	6.66
600.277	6.7
600.614	6.64
600.95	6.5
601.287	6.65
601.623	6.94
601.959	6.53
602.296	6.59
602.632	6.69
602.968	6.59
603.304	6.82
603.64	6.82
603.976	6.48
604.312	6.82
604.648	6.61
604.984	6.79
605.319	6.63
605.655	6.63
605.991	6.64
606.326	6.74
606.662	6.75
606.998	6.53
607.333	6.84
607.668	6.44
608.004	6.5
608.339	6.45
608.674	6.6
609.01	6.78
609.345	6.77
609.68	6.67
610.015	6.84
610.35	6.6
610.685	6.46
611.02	6.81
611.355	6.6
611.689	6.64
612.024	6.74
612.359	6.42
612.694	6.66
613.028	6.2
613.363	6.84
613.697	6.51
614.032	6.45
614.366	6.32
614.7	6.12
615.035	6.43
615.369	6.78
615.703	6.56
616.037	6.55
616.371	6.71
616.705	6.43
617.039	6.83
617.373	6.68
617.707	6.74
618.041	6.39
618.375	6.24
618.709	6.63
619.042	6.87
619.376	6.53
619.71	6.25
620.043	6.41
620.377	6.64
620.71	6.51
621.043	6.77
621.377	7.12
621.71	6.78
622.043	6.65
622.376	6
622.709	6.35
623.043	6.49
623.376	6.25
623.709	6.38
624.041	6.57
624.374	6.64
624.707	6.37
625.04	6.49
625.373	6.61
625.705	6.35
626.038	6.33
626.37	6.44
626.703	6.65
627.035	6.41
627.368	6.4
627.7	6.43
628.032	6.58
628.365	6.21
628.697	6.42
629.029	6.49
629.361	6.41
629.693	6.25
630.025	6.26
630.357	6.15
630.689	6.13
631.021	6.35
631.353	6.44
631.684	5.94
632.016	6.32
632.348	6.55
632.679	6.65
633.011	6.46
633.342	6.46
633.674	6.92
634.005	6.42
634.336	6.22
634.668	6.39
634.999	6.61
635.33	6.39
635.661	6.41
635.992	6.16
636.323	6.55
636.654	6.29
636.985	6.18
637.316	6.21
637.647	6.15
637.977	6.43
638.308	6.2
638.639	6.24
638.969	6.2
639.3	6.48
639.63	6.45
639.961	6.39
640.291	6.17
640.622	6.39
640.952	6.48
641.282	6.53
641.612	6.13
641.943	6.4
642.273	6.33
642.603	6.36
642.933	6.29
643.263	6.52
643.592	6.15
643.922	6.36
644.252	6.14
644.582	6.71
644.911	6.71
645.241	6.42
645.571	6.05
645.9	6.65
646.23	6.11
646.559	6.18
646.888	6.31
647.218	5.97
647.547	6.37
647.876	6.03
648.205	6.36
648.534	6.4
648.863	6.41
649.192	5.98
649.521	6.04
649.85	6.26
650.179	6.64
650.508	6.37
650.837	6.23
651.165	6.13
651.494	6.07
651.822	6.24
652.151	6.33
652.479	6.07
652.808	5.98
653.136	6.37
653.465	5.79
653.793	6.1
654.121	6.37
654.449	6.42
654.777	6.12
655.105	6.06
655.433	6.12
655.761	6.32
656.089	6.07
656.417	6.08
656.745	6.04
657.073	6.4
657.4	6.08
657.728	6.15
658.056	6.41
658.383	6.69
658.711	6.67
659.038	6.21
659.365	6.02
659.693	5.91
660.02	5.87
660.347	6.61
660.674	6.32
661.001	5.97
661.329	6.29
661.656	6.32
661.982	6.17
662.309	6.64
662.636	6.3
662.963	6.07
663.29	6.3
663.616	6.02
663.943	5.87
664.27	6.16
664.596	6.12
664.923	6.19
665.249	6.24
665.576	6.06
665.902	6.16
666.228	6.57
666.554	6.29
666.881	6.28
667.207	6.95
667.533	6.35
667.859	6.48
668.185	6.98
668.511	6.26
668.837	5.99
669.162	6.47
669.488	6.47
669.814	6.23
670.139	6.05
670.465	6.38
670.791	6.26
671.116	6.09
671.442	6.37
671.767	6.1
672.092	5.85
672.418	6.16
672.743	6
673.068	6.7
673.393	5.93
673.718	6.01
674.043	6.2
674.368	6.24
674.693	6.29
675.018	6.51
675.343	6.44
675.667	6.25
675.992	5.91
676.317	6.43
676.641	6.03
676.966	6.36
677.29	5.65
677.615	5.66
677.939	5.69
678.264	5.62
678.588	6.14
678.912	6.33
679.236	6.89
679.56	5.74
679.885	6.53
680.209	6.09
680.532	5.77
680.856	6.33
681.18	5.75
681.504	6.83
681.828	6.54
682.152	6.17
682.475	6.16
682.799	6.64
683.122	6.03
683.446	6.09
683.769	6.59
684.093	5.75
684.416	6.69
684.739	6.08
685.062	6.39
685.386	6.47
685.709	6.23
686.032	6.83
686.355	5.97
686.678	5.29
687.001	6.25
687.324	6.2
687.646	5.55
687.969	6.05
688.292	7.05
688.614	6.34
688.937	6.59
689.26	6.36
689.582	6.06
689.904	6.9
690.227	6.65
690.549	6.39
690.871	6.48
691.194	6.27
691.516	6.34
691.838	6.67
692.16	6.28
