Data from 0014_forehead_Reflection__4__34.txt Node

Date: Mon Oct 17 14:40:24 CDT 2022
User: ToomeyLab
Spectrometer: FLMS14357
Trigger mode: 0
Integration Time (sec): 1.000000E-2
Scans to average: 100
Electric dark correction enabled: true
Nonlinearity correction enabled: false
Boxcar width: 0
XAxis mode: Wavelengths
Number of Pixels in Spectrum: 2048
>>>>>Begin Spectral Data<<<<<
189.047	-199.34
189.435	-199.34
189.823	-199.34
190.211	-394.43
190.599	76.14
190.987	-503.04
191.375	-75.06
191.763	965.18
192.151	-101.56
192.538	-17.95
192.926	385.76
193.314	25.33
193.702	-209.15
194.089	80.46
194.477	1457.81
194.864	171.47
195.252	78.71
195.639	16.58
196.027	46.93
196.414	-192.21
196.801	-189.52
197.189	576.76
197.576	138.1
197.963	24.4
198.351	-137.79
198.738	41.15
199.125	-36.23
199.512	-44.49
199.899	28.8
200.286	35.87
200.673	46.54
201.06	-40.73
201.447	16.4
201.833	30.54
202.22	41
202.607	-20.82
202.994	-8.95
203.38	1.01
203.767	-4.45
204.154	71.05
204.54	48.98
204.927	-11.7
205.313	1.99
205.699	11.95
206.086	-12.74
206.472	35.84
206.858	-3.07
207.245	23.77
207.631	24.11
208.017	23.67
208.403	39.66
208.789	-0.66
209.175	41.13
209.561	-7.56
209.947	-48.05
210.333	39.17
210.719	34.53
211.105	19.15
211.491	68.48
211.876	2.2
212.262	27.61
212.648	13.86
213.034	13.16
213.419	4.15
213.805	9
214.19	37.64
214.576	15.16
214.961	-26.02
215.346	11.5
215.732	-6.27
216.117	32.33
216.502	11.2
216.888	13.29
217.273	8.46
217.658	18.08
218.043	12.48
218.428	-6.04
218.813	28.82
219.198	7.23
219.583	10.86
219.968	3.58
220.353	7.24
220.738	8.9
221.122	-2.64
221.507	3.99
221.892	8.85
222.276	0.33
222.661	11.81
223.046	0.5
223.43	5.83
223.815	-6.44
224.199	9.99
224.583	-8.87
224.968	2.03
225.352	-7.1
225.736	7.82
226.121	-3.02
226.505	1.65
226.889	2.17
227.273	2.32
227.657	6.21
228.041	0.8
228.425	4.15
228.809	1.47
229.193	2.41
229.577	4.41
229.961	4.04
230.344	1.67
230.728	1.92
231.112	2.29
231.495	2.69
231.879	2.96
232.263	2.55
232.646	3.3
233.03	1.58
233.413	-0.05
233.797	3.01
234.18	3.27
234.563	1.67
234.946	4.67
235.33	2.5
235.713	1.32
236.096	3.16
236.479	1.72
236.862	2.57
237.245	1.58
237.628	2.28
238.011	4.44
238.394	2.49
238.777	3.39
239.16	2.87
239.543	1.8
239.925	3.55
240.308	2.37
240.691	2.32
241.073	2.15
241.456	1.69
241.838	1.78
242.221	1.17
242.603	2.52
242.986	2.03
243.368	2.75
243.75	2.26
244.133	2.37
244.515	2.52
244.897	2.59
245.279	3.02
245.661	2.6
246.043	2.72
246.425	1.63
246.807	2.84
247.189	2.56
247.571	2.62
247.953	2.04
248.335	2.06
248.717	2.45
249.098	2.27
249.48	2.44
249.862	1.99
250.243	2.1
250.625	2.8
251.006	1.92
251.388	2.41
251.769	2.5
252.151	2.2
252.532	1.64
252.913	2.03
253.295	1.93
253.676	2.56
254.057	2.58
254.438	2.62
254.819	3.42
255.2	3.18
255.581	2.64
255.962	1.39
256.343	2
256.724	2.75
257.105	3.34
257.486	1.21
257.867	2.66
258.247	1.8
258.628	2.92
259.009	2.97
259.389	2.17
259.77	2.05
260.15	1.76
260.531	2.33
260.911	2.48
261.292	2.3
261.672	2.16
262.052	2.37
262.432	2.27
262.813	2.37
263.193	2.54
263.573	2.8
263.953	1.89
264.333	2.48
264.713	1.6
265.093	2.43
265.473	2.79
265.853	2.78
266.233	3.26
266.612	1.87
266.992	3.02
267.372	2.1
267.752	2.9
268.131	2.71
268.511	2.81
268.89	2.74
269.27	2.66
269.649	2.53
270.029	2.46
270.408	2.81
270.787	2.18
271.167	2.1
271.546	2.14
271.925	2.21
272.304	2.83
272.683	2.56
273.062	2.75
273.441	2.42
273.82	2.59
274.199	2.38
274.578	2.59
274.957	2.36
275.336	2.29
275.715	1.89
276.093	2.35
276.472	2.51
276.851	2.36
277.229	2.1
277.608	2.2
277.986	2.29
278.365	2.84
278.743	2.49
279.122	1.9
279.5	2.67
279.878	2.65
280.257	2.81
280.635	2.16
281.013	2.13
281.391	1.72
281.769	2.07
282.147	3.22
282.525	2.74
282.903	2
283.281	2.34
283.659	2.06
284.037	2.22
284.415	2.59
284.792	2.45
285.17	1.8
285.548	1.76
285.925	2.54
286.303	2.15
286.68	2.6
287.058	2.64
287.435	2.61
287.813	2.35
288.19	2.31
288.567	2.33
288.945	2.54
289.322	2.7
289.699	2.69
290.076	2.58
290.453	2.67
290.83	2.35
291.207	2.72
291.584	2.51
291.961	2.38
292.338	2.39
292.715	2.37
293.092	2.5
293.469	2.91
293.845	2.95
294.222	3.03
294.599	2.94
294.975	2.57
295.352	2.57
295.728	2.83
296.105	2.66
296.481	2.91
296.858	3.25
297.234	2.83
297.61	2.62
297.986	2.44
298.363	3.31
298.739	3.28
299.115	2.86
299.491	2.92
299.867	3.1
300.243	3.06
300.619	2.59
300.995	2.91
301.371	3.27
301.746	2.9
302.122	3.01
302.498	3.21
302.874	3.58
303.249	2.7
303.625	3.56
304	3.57
304.376	3.29
304.751	3.62
305.127	3.57
305.502	3.35
305.878	3.71
306.253	3.43
306.628	3.48
307.003	3.37
307.378	3.44
307.754	3.28
308.129	3.22
308.504	3.69
308.879	3.67
309.254	3.62
309.629	3.43
310.003	3.79
310.378	3.39
310.753	3.81
311.128	3.72
311.502	3.66
311.877	3.94
312.252	3.66
312.626	3.82
313.001	3.51
313.375	3.62
313.75	3.83
314.124	3.84
314.498	4.06
314.873	4.21
315.247	4.15
315.621	4.56
315.995	3.49
316.369	4.16
316.743	3.99
317.117	4.58
317.491	4.15
317.865	4.84
318.239	4.68
318.613	4.62
318.987	4.27
319.361	3.88
319.734	4.91
320.108	4.43
320.482	4.71
320.855	4.06
321.229	4.23
321.602	4.94
321.976	4.27
322.349	4.35
322.723	4.38
323.096	4.79
323.469	4.72
323.843	4.85
324.216	5.07
324.589	4.56
324.962	5.06
325.335	4.64
325.708	5.02
326.081	4.84
326.454	4.54
326.827	4.59
327.2	4.52
327.573	4.77
327.945	4.84
328.318	4.93
328.691	5.12
329.063	4.89
329.436	4.76
329.809	5.22
330.181	5.12
330.553	4.64
330.926	5.47
331.298	5.38
331.671	5.58
332.043	4.91
332.415	5.08
332.787	5.68
333.159	5.42
333.532	5.2
333.904	4.89
334.276	5.02
334.648	5.08
335.02	5.32
335.391	5.58
335.763	5.59
336.135	5.71
336.507	5.48
336.879	5.54
337.25	5.66
337.622	5.62
337.993	5.57
338.365	5.75
338.736	5.78
339.108	5.94
339.479	5.65
339.851	5.94
340.222	5.61
340.593	5.85
340.964	5.78
341.336	5.63
341.707	5.82
342.078	6.05
342.449	6.11
342.82	5.69
343.191	5.67
343.562	5.68
343.933	5.68
344.303	5.63
344.674	6.41
345.045	5.92
345.416	6.03
345.786	6.24
346.157	6.03
346.527	5.9
346.898	6.23
347.268	6.65
347.639	6.06
348.009	6.11
348.38	6.37
348.75	6.18
349.12	6.3
349.49	6.35
349.861	6.6
350.231	6.02
350.601	6.46
350.971	6.22
351.341	6.29
351.711	6.11
352.081	6.55
352.45	6.65
352.82	6.72
353.19	6.17
353.56	6.54
353.929	6.9
354.299	6.31
354.669	6.83
355.038	6.93
355.408	7.05
355.777	6.52
356.147	6.53
356.516	6.74
356.885	6.87
357.254	7.16
357.624	7.17
357.993	7.1
358.362	6.86
358.731	6.74
359.1	6.73
359.469	6.94
359.838	6.73
360.207	6.89
360.576	7.12
360.945	7.01
361.314	7.26
361.682	7.13
362.051	6.99
362.42	6.93
362.788	7.1
363.157	7.26
363.525	7.12
363.894	7.36
364.262	7.25
364.631	7.24
364.999	7.1
365.367	7.17
365.735	7.33
366.104	7.24
366.472	7.13
366.84	7.37
367.208	7.65
367.576	7.56
367.944	7.23
368.312	7.7
368.68	7.67
369.048	7.66
369.416	7.49
369.783	7.59
370.151	7.53
370.519	7.71
370.886	7.75
371.254	7.61
371.621	7.66
371.989	7.87
372.356	7.98
372.724	7.88
373.091	7.87
373.458	7.76
373.826	8.12
374.193	8.39
374.56	7.72
374.927	8.18
375.294	8.1
375.661	8.28
376.028	8.32
376.395	7.96
376.762	8.23
377.129	7.88
377.496	8.12
377.863	7.93
378.229	8.26
378.596	8.05
378.963	8.09
379.329	8.35
379.696	8.16
380.062	8.55
380.429	8.29
380.795	8.45
381.161	8.43
381.528	8.33
381.894	8.31
382.26	8.59
382.626	8.52
382.993	8.66
383.359	8.5
383.725	8.61
384.091	8.34
384.457	8.66
384.823	8.59
385.188	8.41
385.554	8.57
385.92	8.77
386.286	8.82
386.651	8.72
387.017	8.68
387.383	8.93
387.748	8.9
388.114	8.78
388.479	8.99
388.845	9.11
389.21	8.75
389.575	8.75
389.94	9.18
390.306	9.25
390.671	9.28
391.036	9.12
391.401	9.01
391.766	9.23
392.131	9.33
392.496	9.22
392.861	9.13
393.226	9.09
393.591	9.16
393.956	9.25
394.32	9.33
394.685	9.31
395.05	9.34
395.414	9.68
395.779	9.51
396.143	9.39
396.508	9.49
396.872	9.64
397.236	9.44
397.601	9.32
397.965	9.47
398.329	9.66
398.694	9.71
399.058	9.72
399.422	9.63
399.786	9.74
400.15	9.91
400.514	9.48
400.878	9.84
401.242	9.76
401.605	10.1
401.969	9.92
402.333	9.94
402.697	10.02
403.06	9.77
403.424	9.83
403.787	9.91
404.151	10.15
404.514	10.23
404.878	9.75
405.241	9.97
405.604	10.14
405.968	10.15
406.331	9.94
406.694	10.08
407.057	9.92
407.42	9.89
407.783	10.09
408.146	10.4
408.509	10.41
408.872	10.23
409.235	10.35
409.598	10.38
409.961	10.18
410.323	10.43
410.686	10.28
411.049	10.36
411.411	10.53
411.774	10.52
412.136	10.47
412.499	10.59
412.861	10.6
413.223	10.61
413.586	10.51
413.948	10.77
414.31	10.74
414.672	10.65
415.035	10.84
415.397	10.62
415.759	11.01
416.121	10.76
416.483	10.82
416.845	10.78
417.206	10.81
417.568	10.72
417.93	10.68
418.292	10.97
418.653	10.78
419.015	10.89
419.377	10.89
419.738	10.76
420.1	10.9
420.461	10.82
420.822	10.94
421.184	10.87
421.545	10.81
421.906	10.84
422.267	10.88
422.629	10.79
422.99	10.88
423.351	10.99
423.712	10.92
424.073	11
424.434	10.93
424.795	11.05
425.155	11.04
425.516	10.97
425.877	10.94
426.238	11.03
426.598	11.13
426.959	11.08
427.32	11.07
427.68	11.25
428.041	11.22
428.401	11.45
428.761	11.46
429.122	11.46
429.482	11.62
429.842	11.31
430.202	11.6
430.563	11.6
430.923	11.7
431.283	11.97
431.643	11.86
432.003	11.64
432.363	11.79
432.722	11.78
433.082	11.82
433.442	11.98
433.802	11.82
434.161	11.8
434.521	11.79
434.881	11.71
435.24	11.85
435.6	11.93
435.959	11.91
436.319	12.03
436.678	11.91
437.037	11.96
437.396	11.97
437.756	12.09
438.115	12.07
438.474	12.11
438.833	11.93
439.192	12.1
439.551	12.05
439.91	12.04
440.269	12.11
440.628	12.01
440.987	12.1
441.345	12.14
441.704	12.16
442.063	12.14
442.421	12.12
442.78	12.27
443.138	12.1
443.497	12.28
443.855	12.35
444.214	12.39
444.572	12.26
444.93	12.65
445.288	12.49
445.647	12.41
446.005	12.64
446.363	12.58
446.721	12.48
447.079	12.49
447.437	12.46
447.795	12.48
448.153	12.56
448.51	12.58
448.868	12.6
449.226	12.55
449.584	12.54
449.941	12.62
450.299	12.79
450.656	12.7
451.014	12.8
451.371	12.87
451.729	12.93
452.086	12.91
452.443	13.02
452.801	13.14
453.158	13.25
453.515	12.75
453.872	13.05
454.229	12.98
454.586	13.09
454.943	13.15
455.3	13.09
455.657	13.11
456.014	13.09
456.371	13.24
456.727	13.26
457.084	13.23
457.441	13.25
457.797	13.26
458.154	13.4
458.51	13.49
458.867	13.54
459.223	13.61
459.58	13.52
459.936	13.42
460.292	13.5
460.648	13.36
461.005	13.45
461.361	13.38
461.717	13.36
462.073	13.29
462.429	13.33
462.785	13.5
463.141	13.67
463.496	13.51
463.852	13.61
464.208	13.71
464.564	13.71
464.919	13.9
465.275	13.84
465.631	13.99
465.986	13.98
466.342	13.97
466.697	14.19
467.052	14.12
467.408	14.03
467.763	13.8
468.118	13.95
468.473	14.12
468.829	14.16
469.184	14.21
469.539	13.96
469.894	14.07
470.249	14.22
470.603	14.11
470.958	14.33
471.313	14.2
471.668	14.34
472.023	14.29
472.377	14.24
472.732	14.31
473.086	14.35
473.441	14.43
473.795	14.45
474.15	14.36
474.504	14.52
474.859	14.42
475.213	14.56
475.567	14.63
475.921	14.59
476.275	14.65
476.63	14.8
476.984	14.77
477.338	14.63
477.692	14.68
478.045	14.81
478.399	14.8
478.753	14.73
479.107	14.91
479.461	14.86
479.814	14.83
480.168	14.7
480.521	14.79
480.875	14.88
481.228	14.84
481.582	14.89
481.935	14.9
482.289	14.83
482.642	14.9
482.995	15.01
483.348	14.78
483.701	14.8
484.055	14.82
484.408	14.77
484.761	14.6
485.114	14.39
485.466	14.35
485.819	14.4
486.172	14.45
486.525	14.44
486.878	14.5
487.23	14.55
487.583	14.71
487.936	14.86
488.288	14.78
488.641	14.72
488.993	14.68
489.345	14.78
489.698	14.74
490.05	14.72
490.402	14.76
490.754	14.88
491.107	14.9
491.459	15.11
491.811	15.28
492.163	15.16
492.515	15.25
492.866	15.14
493.218	15.03
493.57	15.1
493.922	15.12
494.274	15.09
494.625	15.23
494.977	15.49
495.328	15.52
495.68	15.58
496.031	15.8
496.383	15.84
496.734	15.75
497.086	15.71
497.437	15.95
497.788	16.11
498.139	15.93
498.49	15.96
498.842	15.88
499.193	15.8
499.544	15.83
499.894	15.86
500.245	15.95
500.596	16.12
500.947	16.15
501.298	16.27
501.648	16.3
501.999	16.25
502.35	16.31
502.7	16.41
503.051	16.43
503.401	16.58
503.752	16.59
504.102	16.58
504.452	16.37
504.803	16.61
505.153	16.45
505.503	16.58
505.853	16.6
506.203	16.55
506.553	16.65
506.903	16.64
507.253	16.56
507.603	16.55
507.953	16.66
508.303	16.81
508.652	16.93
509.002	16.91
509.352	16.76
509.701	16.89
510.051	16.77
510.4	16.58
510.75	16.7
511.099	16.82
511.449	16.86
511.798	16.96
512.147	16.89
512.496	16.83
512.846	16.94
513.195	16.94
513.544	16.96
513.893	17.02
514.242	17.12
514.591	16.97
514.939	17.03
515.288	16.99
515.637	17.25
515.986	17.34
516.334	17.36
516.683	17.35
517.032	17.31
517.38	17.31
517.729	17.45
518.077	17.46
518.426	17.39
518.774	17.41
519.122	17.25
519.47	17.4
519.819	17.36
520.167	17.22
520.515	17.37
520.863	17.3
521.211	17.16
521.559	17.36
521.907	17.51
522.255	17.47
522.602	17.56
522.95	17.75
523.298	17.68
523.645	17.71
523.993	17.8
524.341	17.99
524.688	17.78
525.036	17.91
525.383	17.89
525.73	17.89
526.078	17.9
526.425	17.98
526.772	17.85
527.119	17.8
527.466	17.75
527.814	17.65
528.161	17.7
528.508	17.76
528.854	17.82
529.201	17.82
529.548	17.81
529.895	17.62
530.242	17.59
530.588	17.61
530.935	17.61
531.282	17.54
531.628	17.59
531.975	17.7
532.321	17.75
532.667	17.89
533.014	18.12
533.36	18.22
533.706	18.23
534.052	18.31
534.399	18.25
534.745	18
535.091	18.12
535.437	18.19
535.783	18.21
536.129	18.24
536.474	18.29
536.82	18.43
537.166	18.6
537.512	18.61
537.857	18.66
538.203	18.62
538.549	18.65
538.894	18.68
539.239	18.62
539.585	18.71
539.93	18.78
540.276	18.87
540.621	18.81
540.966	19
541.311	19.08
541.656	19.13
542.001	19.15
542.346	18.9
542.691	18.82
543.036	18.63
543.381	18.68
543.726	18.67
544.071	18.69
544.415	18.77
544.76	18.87
545.105	18.9
545.449	19.07
545.794	19.08
546.138	19.11
546.483	19.25
546.827	19.48
547.171	19.41
547.516	19.59
547.86	19.59
548.204	19.54
548.548	19.58
548.892	19.47
549.236	19.53
549.58	19.51
549.924	19.69
550.268	19.81
550.612	19.81
550.956	20.08
551.3	19.97
551.643	20.24
551.987	20.07
552.33	20.18
552.674	20.33
553.017	20.3
553.361	20.27
553.704	20.04
554.048	20.25
554.391	20.28
554.734	20.32
555.077	20.42
555.42	20.36
555.764	20.4
556.107	20.52
556.45	20.37
556.793	20.64
557.135	20.62
557.478	20.67
557.821	20.86
558.164	20.81
558.507	20.7
558.849	20.69
559.192	20.86
559.534	20.84
559.877	20.86
560.219	20.7
560.562	20.8
560.904	20.93
561.246	20.73
561.589	21.03
561.931	21.1
562.273	21.09
562.615	21.07
562.957	21.11
563.299	21.15
563.641	20.99
563.983	21.2
564.325	21.34
564.667	21.3
565.008	21.25
565.35	21.1
565.692	21.65
566.033	21.42
566.375	21.26
566.716	21.35
567.058	21.23
567.399	21.22
567.741	21.35
568.082	21.41
568.423	21.41
568.764	21.34
569.105	21.45
569.447	21.43
569.788	21.52
570.129	21.58
570.47	21.63
570.811	21.87
571.151	21.8
571.492	21.87
571.833	21.79
572.174	22
572.514	21.9
572.855	21.79
573.195	21.98
573.536	21.85
573.876	21.93
574.217	21.73
574.557	21.74
574.898	21.87
575.238	22
575.578	22.04
575.918	22.01
576.258	22.21
576.598	21.98
576.938	22.33
577.278	22.29
577.618	22.3
577.958	22.24
578.298	22.03
578.638	22.37
578.977	22.33
579.317	22.3
579.657	22.43
579.996	22.21
580.336	22.59
580.675	22.68
581.014	22.45
581.354	22.57
581.693	22.51
582.032	22.82
582.372	22.75
582.711	22.82
583.05	23.01
583.389	22.5
583.728	23.08
584.067	23.09
584.406	22.76
584.745	23.07
585.083	23.02
585.422	22.97
585.761	23.13
586.1	23.19
586.438	23.17
586.777	23.19
587.115	23.04
587.454	22.99
587.792	23.37
588.13	23.35
588.469	23.33
588.807	23.32
589.145	23.36
589.483	23.64
589.821	23.34
590.159	23.29
590.497	23.59
590.835	23.26
591.173	23.4
591.511	23.4
591.849	23.31
592.187	23.39
592.524	23.62
592.862	23.56
593.2	23.61
593.537	23.91
593.875	23.74
594.212	23.9
594.55	23.7
594.887	23.69
595.224	24.08
595.561	23.84
595.899	24.26
596.236	24.02
596.573	23.82
596.91	23.88
597.247	23.77
597.584	23.97
597.921	23.73
598.258	24.15
598.594	24.05
598.931	24.26
599.268	24.1
599.604	24.1
599.941	24.12
600.277	24.07
600.614	24.24
600.95	24.29
601.287	24.11
601.623	24.43
601.959	24.3
602.296	24.32
602.632	24.56
602.968	24.51
603.304	24.56
603.64	24.6
603.976	24.28
604.312	24.77
604.648	24.71
604.984	24.51
605.319	24.48
605.655	24.57
605.991	24.53
606.326	24.33
606.662	24.59
606.998	24.66
607.333	24.68
607.668	24.62
608.004	24.67
608.339	24.71
608.674	24.98
609.01	25.05
609.345	24.68
609.68	25.09
610.015	25.36
610.35	25.12
610.685	24.9
611.02	25.15
611.355	25.01
611.689	25.02
612.024	25.06
612.359	25.11
612.694	25.23
613.028	24.95
613.363	25.46
613.697	25.18
614.032	25.25
614.366	25.5
614.7	25.46
615.035	25.2
615.369	25.38
615.703	25.49
616.037	25.79
616.371	25.94
616.705	25.64
617.039	26.01
617.373	25.93
617.707	25.94
618.041	25.85
618.375	25.83
618.709	26.31
619.042	25.86
619.376	25.97
619.71	25.87
620.043	25.74
620.377	26.16
620.71	26.19
621.043	26.14
621.377	26.44
621.71	26.21
622.043	26.19
622.376	26.24
622.709	26.17
623.043	26.11
623.376	26.25
623.709	26.25
624.041	26.1
624.374	26.28
624.707	26.38
625.04	26.34
625.373	26.34
625.705	26.14
626.038	26.13
626.37	26.3
626.703	26.68
627.035	26.84
627.368	26.32
627.7	26.81
628.032	26.62
628.365	26.6
628.697	26.82
629.029	26.65
629.361	26.77
629.693	26.56
630.025	26.33
630.357	26.69
630.689	26.36
631.021	26.84
631.353	26.57
631.684	26.98
632.016	26.76
632.348	27.35
632.679	26.99
633.011	27.02
633.342	27.1
633.674	27.46
634.005	27.25
634.336	26.65
634.668	27.38
634.999	27.45
635.33	27.08
635.661	27.29
635.992	27.11
636.323	27.19
636.654	27.34
636.985	27.03
637.316	27.02
637.647	27.2
637.977	27.18
638.308	27.01
638.639	27.44
638.969	27.28
639.3	27.34
639.63	27.48
639.961	27.46
640.291	27.63
640.622	27.81
640.952	28.09
641.282	27.87
641.612	27.69
641.943	28.06
642.273	27.34
642.603	27.74
642.933	27.79
643.263	28.16
643.592	28.36
643.922	27.82
644.252	27.65
644.582	28.02
644.911	27.81
645.241	27.89
645.571	28
645.9	28.09
646.23	27.95
646.559	28.22
646.888	28.14
647.218	27.79
647.547	28.37
647.876	28.12
648.205	28.11
648.534	28.53
648.863	28.03
649.192	28.47
649.521	28.29
649.85	28.15
650.179	28.61
650.508	28.29
650.837	28.57
651.165	28.5
651.494	28.52
651.822	28.31
652.151	28.67
652.479	28.55
652.808	28.27
653.136	28.69
653.465	28.43
653.793	28.91
654.121	28.54
654.449	28.84
654.777	28.95
655.105	28.91
655.433	28.49
655.761	28.8
656.089	28.71
656.417	28.76
656.745	28.94
657.073	29.05
657.4	28.94
657.728	28.54
658.056	29.2
658.383	29.44
658.711	29.2
659.038	29.3
659.365	28.82
659.693	28.94
660.02	29.07
660.347	29.63
660.674	29.25
661.001	29.36
661.329	29.32
661.656	29.01
661.982	29.09
662.309	29.25
662.636	29.28
662.963	29.04
663.29	29.25
663.616	29.09
663.943	29.22
664.27	29.42
664.596	29.54
664.923	29.47
665.249	29.19
665.576	29.16
665.902	29.38
666.228	29.78
666.554	29.79
666.881	29.94
667.207	30.22
667.533	29.88
667.859	29.8
668.185	29.82
668.511	29.78
668.837	29.63
669.162	29.47
669.488	30.27
669.814	30.34
670.139	30.13
670.465	29.79
670.791	29.68
671.116	30.45
671.442	30.32
671.767	30.06
672.092	29.73
672.418	30.34
672.743	29.7
673.068	30.15
673.393	30.6
673.718	29.71
674.043	29.98
674.368	29.89
