Data from 0014_crown_Reflection__0__25.txt Node

Date: Mon Oct 17 14:37:21 CDT 2022
User: ToomeyLab
Spectrometer: FLMS14357
Trigger mode: 0
Integration Time (sec): 1.000000E-2
Scans to average: 100
Electric dark correction enabled: true
Nonlinearity correction enabled: false
Boxcar width: 0
XAxis mode: Wavelengths
Number of Pixels in Spectrum: 2048
>>>>>Begin Spectral Data<<<<<
189.047	-41.91
189.435	-41.91
189.823	-41.91
190.211	-275.27
190.599	-34.82
190.987	365.54
191.375	58.13
191.763	-758.93
192.151	-3409.38
192.538	83.6
192.926	-288.19
193.314	-7
193.702	-82.73
194.089	74.61
194.477	55.21
194.864	-332.69
195.252	164.58
195.639	44.93
196.027	68.01
196.414	273.9
196.801	-395.96
197.189	370.83
197.576	106.37
197.963	-44.29
198.351	-282.71
198.738	16.28
199.125	-62.23
199.512	-101.1
199.899	35.38
200.286	-23.5
200.673	-32.35
201.06	-25
201.447	42.23
201.833	63.32
202.22	29.77
202.607	-33.05
202.994	71.34
203.38	-9.6
203.767	31.43
204.154	23.56
204.54	-16.62
204.927	43.46
205.313	21.49
205.699	24.33
206.086	-13.31
206.472	18.89
206.858	-12.32
207.245	19.24
207.631	27.29
208.017	17.76
208.403	32.05
208.789	28.42
209.175	14.46
209.561	-50.54
209.947	-13.85
210.333	44.46
210.719	35.5
211.105	24.92
211.491	-16.92
211.876	-7.37
212.262	59.36
212.648	1.55
213.034	-24.46
213.419	14.32
213.805	13.83
214.19	6.32
214.576	20.8
214.961	-5.56
215.346	-2.79
215.732	-13.56
216.117	6.74
216.502	-0.46
216.888	-2.99
217.273	-3.97
217.658	23
218.043	-0.96
218.428	-26.56
218.813	19
219.198	12.09
219.583	-5.38
219.968	-9.93
220.353	-10.42
220.738	3
221.122	16.87
221.507	17.75
221.892	11.79
222.276	-0.13
222.661	6.76
223.046	2.74
223.43	14.19
223.815	6.48
224.199	11.81
224.583	8.52
224.968	7.84
225.352	-7.5
225.736	9.03
226.121	-0.81
226.505	2.58
226.889	8.45
227.273	14.53
227.657	9.73
228.041	11.01
228.425	7.5
228.809	9.63
229.193	9.45
229.577	10.64
229.961	10.73
230.344	9.69
230.728	9.8
231.112	9.47
231.495	9.96
231.879	9.2
232.263	10.68
232.646	10.18
233.03	9.6
233.413	6.42
233.797	8.84
234.18	10.93
234.563	7.77
234.946	8.73
235.33	9.22
235.713	9.21
236.096	10.69
236.479	8.93
236.862	9.14
237.245	9.09
237.628	9.34
238.011	10.06
238.394	9.6
238.777	9.2
239.16	10.25
239.543	7.48
239.925	9.13
240.308	10.56
240.691	8.9
241.073	8.91
241.456	8.87
241.838	9.8
242.221	8.76
242.603	8.89
242.986	8.74
243.368	9.71
243.75	8.88
244.133	9.22
244.515	9.05
244.897	9.32
245.279	9.17
245.661	9.43
246.043	9.62
246.425	7.46
246.807	8.28
247.189	8.35
247.571	9.07
247.953	8.84
248.335	8.73
248.717	8.78
249.098	8.71
249.48	8.59
249.862	8.56
250.243	8.43
250.625	9.09
251.006	8.23
251.388	9.08
251.769	8.48
252.151	9.1
252.532	7.97
252.913	8.64
253.295	8.55
253.676	8.69
254.057	8.53
254.438	8.81
254.819	9.2
255.2	8.64
255.581	8.18
255.962	7.31
256.343	8.24
256.724	8.57
257.105	7.42
257.486	7.87
257.867	7.6
258.247	7.67
258.628	7.61
259.009	8.44
259.389	7.82
259.77	7.74
260.15	8.1
260.531	7.55
260.911	8.02
261.292	7.87
261.672	7.71
262.052	7.87
262.432	7.67
262.813	7.76
263.193	7.46
263.573	7.9
263.953	7.49
264.333	7.54
264.713	7.68
265.093	7.63
265.473	7.78
265.853	7.91
266.233	8.26
266.612	7.33
266.992	7.83
267.372	7.19
267.752	7.94
268.131	7.9
268.511	7.49
268.89	7.84
269.27	7.7
269.649	7.47
270.029	7.45
270.408	7.69
270.787	7.04
271.167	7.77
271.546	7.44
271.925	6.83
272.304	7.46
272.683	7.42
273.062	7
273.441	6.96
273.82	7.72
274.199	7.45
274.578	7.11
274.957	7.34
275.336	7.21
275.715	6.81
276.093	7.43
276.472	6.96
276.851	6.68
277.229	6.78
277.608	6.48
277.986	7.02
278.365	7.08
278.743	7.35
279.122	6.85
279.5	7.51
279.878	7.01
280.257	7.21
280.635	6.52
281.013	6.93
281.391	6.95
281.769	7.11
282.147	7.37
282.525	6.63
282.903	6.55
283.281	6.93
283.659	7.05
284.037	6.73
284.415	7
284.792	6.73
285.17	6.34
285.548	5.98
285.925	6.68
286.303	6.51
286.68	6.84
287.058	6.7
287.435	6.68
287.813	6.55
288.19	6.56
288.567	6.2
288.945	6.42
289.322	6.61
289.699	6.48
290.076	6.42
290.453	6.3
290.83	6.11
291.207	6.72
291.584	6.41
291.961	6.17
292.338	6.7
292.715	6.39
293.092	6.35
293.469	6.4
293.845	6.86
294.222	6.46
294.599	6.52
294.975	5.77
295.352	6.19
295.728	5.81
296.105	6.43
296.481	6.34
296.858	6.31
297.234	6.09
297.61	6.13
297.986	5.95
298.363	5.94
298.739	6.44
299.115	6
299.491	6.09
299.867	5.91
300.243	5.85
300.619	5.7
300.995	6.17
301.371	5.96
301.746	6.24
302.122	6.01
302.498	5.97
302.874	6.38
303.249	6.12
303.625	6.15
304	6.25
304.376	6.3
304.751	6.27
305.127	5.87
305.502	5.8
305.878	5.69
306.253	5.85
306.628	6.31
307.003	5.99
307.378	6.27
307.754	5.65
308.129	5.77
308.504	6.07
308.879	6.28
309.254	5.86
309.629	5.66
310.003	6.12
310.378	6.16
310.753	5.39
311.128	5.98
311.502	6
311.877	6.03
312.252	5.93
312.626	5.59
313.001	5.59
313.375	5.77
313.75	5.5
314.124	6.23
314.498	5.66
314.873	5.17
315.247	5.67
315.621	6.17
315.995	5.7
316.369	5.88
316.743	5.7
317.117	5.9
317.491	5.37
317.865	6.07
318.239	6.15
318.613	5.77
318.987	5.59
319.361	5.15
319.734	5.89
320.108	5.34
320.482	5.3
320.855	5.4
321.229	5.93
321.602	5.64
321.976	5.6
322.349	5.5
322.723	5.49
323.096	5.89
323.469	5.86
323.843	5.74
324.216	6.13
324.589	5.95
324.962	6.3
325.335	5.73
325.708	6.1
326.081	5.87
326.454	5.62
326.827	5.56
327.2	5.66
327.573	5.95
327.945	5.86
328.318	5.84
328.691	5.39
329.063	5.33
329.436	6.07
329.809	5.48
330.181	6.39
330.553	5.83
330.926	6.23
331.298	5.64
331.671	5.81
332.043	5.56
332.415	6.3
332.787	5.88
333.159	5.9
333.532	5.75
333.904	5.57
334.276	5.54
334.648	5.66
335.02	5.95
335.391	6.06
335.763	5.99
336.135	5.5
336.507	5.94
336.879	6.26
337.25	6.44
337.622	6.14
337.993	5.97
338.365	5.83
338.736	5.58
339.108	6.06
339.479	5.47
339.851	5.99
340.222	5.74
340.593	5.99
340.964	5.99
341.336	5.79
341.707	6.28
342.078	6.32
342.449	6.03
342.82	5.86
343.191	5.94
343.562	6.34
343.933	5.75
344.303	5.9
344.674	6.41
345.045	6.14
345.416	5.9
345.786	6.06
346.157	5.89
346.527	6.35
346.898	6.11
347.268	6.13
347.639	5.89
348.009	6.17
348.38	6.25
348.75	6.15
349.12	6.12
349.49	6.14
349.861	6.44
350.231	6.03
350.601	6.57
350.971	6.09
351.341	5.82
351.711	6.05
352.081	6.24
352.45	6.43
352.82	6.09
353.19	6
353.56	5.99
353.929	6.37
354.299	6.42
354.669	6.45
355.038	6.66
355.408	6.41
355.777	5.95
356.147	6.35
356.516	6.56
356.885	6.38
357.254	6.55
357.624	6.79
357.993	6.47
358.362	6.35
358.731	6.36
359.1	6.24
359.469	6.42
359.838	6.56
360.207	6.54
360.576	6.07
360.945	6.52
361.314	6.78
361.682	6.51
362.051	6.63
362.42	6.56
362.788	6.64
363.157	6.7
363.525	6.33
363.894	6.65
364.262	6.81
364.631	6.68
364.999	6.7
365.367	6.33
365.735	6.84
366.104	6.4
366.472	6.39
366.84	6.46
367.208	6.77
367.576	6.5
367.944	6.39
368.312	6.7
368.68	6.81
369.048	6.63
369.416	6.41
369.783	6.62
370.151	6.79
370.519	6.36
370.886	6.75
371.254	6.42
371.621	6.61
371.989	6.86
372.356	6.92
372.724	6.9
373.091	6.61
373.458	6.81
373.826	6.66
374.193	7.11
374.56	6.68
374.927	6.96
375.294	6.93
375.661	6.66
376.028	6.84
376.395	6.79
376.762	6.86
377.129	6.97
377.496	6.38
377.863	6.79
378.229	6.67
378.596	6.92
378.963	6.76
379.329	6.78
379.696	6.78
380.062	6.87
380.429	6.7
380.795	7.08
381.161	7.08
381.528	6.75
381.894	6.9
382.26	6.93
382.626	7.08
382.993	7.17
383.359	7.05
383.725	7.16
384.091	6.88
384.457	6.95
384.823	6.91
385.188	6.62
385.554	7.01
385.92	6.88
386.286	6.97
386.651	6.9
387.017	6.69
387.383	7.01
387.748	7.06
388.114	6.92
388.479	7.1
388.845	7.25
389.21	6.94
389.575	6.87
389.94	7.32
390.306	7.12
390.671	7.39
391.036	6.85
391.401	7.1
391.766	7.25
392.131	7.23
392.496	7.13
392.861	7.14
393.226	7.25
393.591	7.04
393.956	7.18
394.32	7.29
394.685	6.89
395.05	7.15
395.414	7.21
395.779	7.21
396.143	7.27
396.508	7.13
396.872	7.29
397.236	7.17
397.601	7.3
397.965	7.21
398.329	7.28
398.694	7.24
399.058	7.32
399.422	7.48
399.786	7.46
400.15	7.44
400.514	7.3
400.878	7
401.242	7.17
401.605	7.55
401.969	7.22
402.333	7.29
402.697	7.23
403.06	7.22
403.424	7.37
403.787	7.26
404.151	7.27
404.514	7.49
404.878	7.52
405.241	7.36
405.604	7.61
405.968	7.39
406.331	7.4
406.694	7.37
407.057	7.2
407.42	7.37
407.783	7.54
408.146	7.56
408.509	7.6
408.872	7.4
409.235	7.45
409.598	7.4
409.961	7.28
410.323	7.53
410.686	7.45
411.049	7.44
411.411	7.5
411.774	7.54
412.136	7.64
412.499	7.74
412.861	7.47
413.223	7.38
413.586	7.52
413.948	7.42
414.31	7.54
414.672	7.44
415.035	7.75
415.397	7.64
415.759	7.71
416.121	7.59
416.483	7.68
416.845	7.58
417.206	7.5
417.568	7.61
417.93	7.52
418.292	7.87
418.653	7.42
419.015	7.57
419.377	7.57
419.738	7.48
420.1	7.56
420.461	7.44
420.822	7.55
421.184	7.44
421.545	7.44
421.906	7.48
422.267	7.5
422.629	7.36
422.99	7.4
423.351	7.45
423.712	7.49
424.073	7.49
424.434	7.55
424.795	7.52
425.155	7.51
425.516	7.37
425.877	7.48
426.238	7.43
426.598	7.49
426.959	7.47
427.32	7.53
427.68	7.58
428.041	7.53
428.401	7.71
428.761	7.61
429.122	7.68
429.482	7.56
429.842	7.71
430.202	7.57
430.563	7.58
430.923	7.72
431.283	7.81
431.643	7.74
432.003	7.74
432.363	7.71
432.722	7.67
433.082	7.58
433.442	7.8
433.802	7.68
434.161	7.61
434.521	7.86
434.881	7.8
435.24	7.48
435.6	7.71
435.959	7.79
436.319	7.61
436.678	7.59
437.037	7.67
437.396	7.73
437.756	7.96
438.115	7.58
438.474	7.66
438.833	7.66
439.192	7.65
439.551	7.54
439.91	7.74
440.269	7.68
440.628	7.65
440.987	7.64
441.345	7.72
441.704	7.69
442.063	7.57
442.421	7.68
442.78	7.66
443.138	7.59
443.497	7.71
443.855	7.91
444.214	7.78
444.572	7.77
444.93	7.83
445.288	7.61
445.647	7.73
446.005	7.88
446.363	7.94
446.721	7.72
447.079	7.65
447.437	7.63
447.795	7.68
448.153	7.77
448.51	7.67
448.868	7.74
449.226	7.58
449.584	7.74
449.941	7.76
450.299	7.78
450.656	7.7
451.014	7.72
451.371	8.01
451.729	7.81
452.086	7.78
452.443	7.86
452.801	7.94
453.158	8.03
453.515	7.82
453.872	7.8
454.229	7.95
454.586	7.83
454.943	7.86
455.3	7.89
455.657	7.8
456.014	7.87
456.371	7.91
456.727	7.83
457.084	7.81
457.441	7.95
457.797	7.93
458.154	7.92
458.51	7.88
458.867	7.89
459.223	8.09
459.58	7.78
459.936	7.87
460.292	7.96
460.648	7.79
461.005	7.9
461.361	7.74
461.717	7.62
462.073	7.76
462.429	7.74
462.785	7.83
463.141	7.93
463.496	7.73
463.852	7.97
464.208	7.95
464.564	7.84
464.919	7.74
465.275	7.76
465.631	7.82
465.986	7.91
466.342	7.88
466.697	7.97
467.052	7.89
467.408	7.86
467.763	7.78
468.118	7.98
468.473	7.93
468.829	7.84
469.184	7.93
469.539	7.78
469.894	7.66
470.249	7.97
470.603	7.83
470.958	7.92
471.313	7.76
471.668	7.77
472.023	7.87
472.377	7.96
472.732	7.73
473.086	8.02
473.441	8
473.795	7.92
474.15	7.88
474.504	7.81
474.859	7.92
475.213	7.93
475.567	8.13
475.921	7.64
476.275	7.86
476.63	8.01
476.984	7.95
477.338	7.89
477.692	7.88
478.045	8
478.399	7.78
478.753	7.91
479.107	7.87
479.461	7.98
479.814	7.9
480.168	7.79
480.521	7.78
480.875	7.82
481.228	7.94
481.582	7.91
481.935	7.87
482.289	7.75
482.642	7.91
482.995	7.92
483.348	7.87
483.701	7.75
484.055	7.74
484.408	7.76
484.761	7.67
485.114	7.54
485.466	7.46
485.819	7.42
486.172	7.44
486.525	7.46
486.878	7.48
487.23	7.52
487.583	7.53
487.936	7.58
488.288	7.63
488.641	7.48
488.993	7.55
489.345	7.47
489.698	7.54
490.05	7.49
490.402	7.52
490.754	7.52
491.107	7.51
491.459	7.63
491.811	7.7
492.163	7.68
492.515	7.66
492.866	7.56
493.218	7.55
493.57	7.55
493.922	7.6
494.274	7.56
494.625	7.59
494.977	7.66
495.328	7.64
495.68	7.68
496.031	7.73
496.383	7.82
496.734	7.73
497.086	7.62
497.437	7.73
497.788	7.82
498.139	7.68
498.49	7.8
498.842	7.68
499.193	7.7
499.544	7.7
499.894	7.7
500.245	7.68
500.596	7.68
500.947	7.86
501.298	7.86
501.648	7.75
501.999	7.61
502.35	7.78
502.7	7.77
503.051	7.76
503.401	7.87
503.752	7.84
504.102	7.62
504.452	7.62
504.803	7.74
505.153	7.8
505.503	7.78
505.853	7.73
506.203	7.82
506.553	7.73
506.903	7.65
507.253	7.66
507.603	7.72
507.953	7.66
508.303	7.67
508.652	7.72
509.002	7.64
509.352	7.74
509.701	7.62
510.051	7.75
510.4	7.6
510.75	7.63
511.099	7.68
511.449	7.58
511.798	7.62
512.147	7.64
512.496	7.65
512.846	7.63
513.195	7.51
513.544	7.58
513.893	7.62
514.242	7.67
514.591	7.54
514.939	7.69
515.288	7.53
515.637	7.67
515.986	7.61
516.334	7.7
516.683	7.75
517.032	7.54
517.38	7.49
517.729	7.66
518.077	7.61
518.426	7.45
518.774	7.53
519.122	7.55
519.47	7.54
519.819	7.64
520.167	7.44
520.515	7.38
520.863	7.51
521.211	7.41
521.559	7.48
521.907	7.51
522.255	7.43
522.602	7.49
522.95	7.5
523.298	7.35
523.645	7.54
523.993	7.49
524.341	7.62
524.688	7.48
525.036	7.55
525.383	7.41
525.73	7.47
526.078	7.47
526.425	7.44
526.772	7.41
527.119	7.48
527.466	7.3
527.814	7.34
528.161	7.44
528.508	7.42
528.854	7.25
529.201	7.25
529.548	7.3
529.895	7.18
530.242	7.14
530.588	7.15
530.935	7.14
531.282	7.15
531.628	7.09
531.975	7.14
532.321	7.12
532.667	7.24
533.014	7.28
533.36	7.24
533.706	7.23
534.052	7.3
534.399	7.23
534.745	7.13
535.091	7.19
535.437	7.22
535.783	7.19
536.129	7.13
536.474	7.21
536.82	7.27
537.166	7.3
537.512	7.2
537.857	7.25
538.203	7.24
538.549	7.2
538.894	7.24
539.239	7.27
539.585	7.2
539.93	7.22
540.276	7.17
540.621	7.22
540.966	7.33
541.311	7.14
541.656	7.16
542.001	7.2
542.346	7.22
542.691	7.15
543.036	7.01
543.381	7.04
543.726	7.01
544.071	7
544.415	7.02
544.76	7.07
545.105	7.02
545.449	7.07
545.794	7.07
546.138	7.13
546.483	7.08
546.827	6.99
547.171	7.05
547.516	7.25
547.86	7.15
548.204	7.01
548.548	7.21
548.892	7.13
549.236	7.03
549.58	7.02
549.924	7.1
550.268	7.31
550.612	7.04
550.956	7.14
551.3	7.05
551.643	7.25
551.987	7.16
552.33	7.13
552.674	7.12
553.017	7.19
553.361	7.06
553.704	7.02
554.048	6.96
554.391	7.2
554.734	7.1
555.077	7.07
555.42	7.05
555.764	6.93
556.107	7.02
556.45	7.14
556.793	7.01
557.135	7.09
557.478	7.03
557.821	7.03
558.164	7.03
558.507	6.94
558.849	6.88
559.192	7.11
559.534	7
559.877	6.87
560.219	6.8
560.562	6.79
560.904	7
561.246	7
561.589	6.91
561.931	6.93
562.273	7.15
562.615	7
562.957	7.14
563.299	7
563.641	7.05
563.983	6.88
564.325	7.05
564.667	6.97
565.008	7.01
565.35	6.93
565.692	7.09
566.033	6.94
566.375	6.83
566.716	6.77
567.058	6.75
567.399	6.9
567.741	6.86
568.082	6.85
568.423	6.83
568.764	6.82
569.105	6.73
569.447	6.72
569.788	6.72
570.129	6.9
570.47	6.76
570.811	6.85
571.151	6.71
571.492	6.76
571.833	6.8
572.174	6.82
572.514	6.86
572.855	6.82
573.195	6.76
573.536	6.64
573.876	6.69
574.217	6.74
574.557	6.6
574.898	6.67
575.238	6.68
575.578	6.6
575.918	6.82
576.258	6.55
576.598	6.74
576.938	6.8
577.278	6.74
577.618	6.79
577.958	6.57
578.298	6.66
578.638	6.73
578.977	6.72
579.317	6.65
579.657	6.61
579.996	6.61
580.336	6.79
580.675	6.55
581.014	6.4
581.354	6.66
581.693	6.44
582.032	6.82
582.372	6.57
582.711	6.77
583.05	6.68
583.389	6.58
583.728	6.62
584.067	6.5
584.406	6.62
584.745	6.84
585.083	6.6
585.422	6.66
585.761	6.71
586.1	6.55
586.438	6.67
586.777	6.79
587.115	6.44
587.454	6.46
587.792	6.68
588.13	6.63
588.469	6.57
588.807	6.51
589.145	6.66
589.483	6.36
589.821	6.39
590.159	6.44
590.497	6.62
590.835	6.56
591.173	6.61
591.511	6.64
591.849	6.51
592.187	6.59
592.524	6.52
592.862	6.32
593.2	6.4
593.537	6.56
593.875	6.51
594.212	6.63
594.55	6.34
594.887	6.43
595.224	6.48
595.561	6.56
595.899	6.5
596.236	6.65
596.573	6.45
596.91	6.39
597.247	6.32
597.584	6.43
597.921	6.41
598.258	6.46
598.594	6.26
598.931	6.41
599.268	6.42
599.604	6.34
599.941	6.23
600.277	6.57
600.614	6.06
600.95	6.28
601.287	6.1
601.623	6.4
601.959	6.37
602.296	6.34
602.632	6.2
602.968	6.25
603.304	6.44
603.64	6.23
603.976	6.21
604.312	6.53
604.648	6.37
604.984	6.53
605.319	6.24
605.655	6.46
605.991	6.4
606.326	6.38
606.662	6.24
606.998	6.27
607.333	6.35
607.668	6.19
608.004	6.29
608.339	6.3
608.674	6.21
609.01	6.04
609.345	6.46
609.68	6.3
610.015	6.38
610.35	6.31
610.685	6.11
611.02	6.24
611.355	6.2
611.689	6.21
612.024	6.42
612.359	6.3
612.694	6.26
613.028	6.25
613.363	6.4
613.697	5.82
614.032	6.43
614.366	6.17
614.7	6.2
615.035	5.94
615.369	6.39
615.703	6.36
616.037	6.24
616.371	6.13
616.705	6.05
617.039	6.58
617.373	6.31
617.707	6.11
618.041	6.12
618.375	6.28
618.709	6.42
619.042	6.34
619.376	6.07
619.71	6.13
620.043	5.97
620.377	6.09
620.71	6.19
621.043	6.48
621.377	6.38
621.71	6.6
622.043	6.16
622.376	6.32
622.709	6.27
623.043	5.91
623.376	5.72
623.709	6.22
624.041	6.33
624.374	6.08
624.707	6.08
625.04	6.13
625.373	6.48
625.705	6.08
626.038	5.68
626.37	6.27
626.703	6.51
627.035	6.25
627.368	6.24
627.7	6.24
628.032	6.13
628.365	5.91
628.697	6.26
629.029	6.22
629.361	6.24
629.693	6.15
630.025	5.92
630.357	5.9
630.689	6.05
631.021	6.3
631.353	5.88
631.684	5.81
632.016	6.03
632.348	6.24
632.679	6.54
633.011	6
633.342	6.16
633.674	6.19
634.005	6.05
634.336	5.89
634.668	6.25
634.999	6.08
635.33	6.04
635.661	6.36
635.992	5.78
636.323	6.22
636.654	6.17
636.985	5.66
637.316	6.04
637.647	6.07
637.977	5.82
638.308	5.87
638.639	6.16
638.969	5.91
639.3	5.98
639.63	6.3
639.961	6.15
640.291	6.12
640.622	6.1
640.952	6.24
641.282	5.97
641.612	6.3
641.943	5.83
642.273	5.8
642.603	5.91
642.933	6.08
643.263	5.97
643.592	5.78
643.922	5.89
644.252	5.94
644.582	6.33
644.911	6.26
645.241	5.89
645.571	5.65
645.9	6.24
646.23	5.53
646.559	6.11
646.888	6.02
647.218	5.67
647.547	6.15
647.876	5.9
648.205	6
648.534	6.02
648.863	6.11
649.192	5.9
649.521	5.87
649.85	5.77
650.179	6.16
650.508	5.88
650.837	5.82
651.165	6.12
651.494	6.03
651.822	5.92
652.151	5.61
652.479	5.96
652.808	5.5
653.136	6.16
653.465	5.8
653.793	6.25
654.121	6.17
654.449	6
654.777	5.94
655.105	5.88
655.433	5.81
655.761	5.91
656.089	6.08
656.417	5.81
656.745	5.68
657.073	6
657.4	5.66
657.728	6.11
658.056	5.56
658.383	6.19
658.711	6.06
659.038	5.88
659.365	5.96
659.693	5.74
660.02	6
660.347	6.29
660.674	5.91
661.001	6.1
661.329	6.01
661.656	6.19
661.982	5.63
662.309	6.1
662.636	6.09
662.963	5.85
663.29	5.89
663.616	6.1
663.943	6.19
664.27	5.73
664.596	5.7
664.923	5.49
665.249	5.8
665.576	5.9
665.902	5.7
666.228	6.2
666.554	6.14
666.881	6.21
667.207	6.13
667.533	6.53
667.859	6.03
668.185	6.27
668.511	6.02
668.837	5.7
669.162	6.28
669.488	5.81
669.814	6.08
670.139	5.83
670.465	6.03
670.791	6.15
671.116	6.04
671.442	6.07
671.767	5.61
672.092	5.52
672.418	5.91
672.743	5.89
673.068	6.14
673.393	6.24
673.718	5.83
674.043	6.08
674.368	5.69
674.693	6.35
675.018	6.13
675.343	6.26
675.667	5.64
675.992	5.49
676.317	6.19
676.641	5.31
676.966	5.82
677.29	6.27
677.615	5.71
677.939	5.99
678.264	5.75
678.588	5.66
678.912	5.83
679.236	6.68
679.56	5.75
679.885	5.96
680.209	5.95
680.532	6.16
680.856	5.49
681.18	6.08
681.504	6.67
681.828	6.08
682.152	6.12
682.475	5.95
682.799	5.97
683.122	5.87
683.446	5.71
683.769	6.16
684.093	5.84
684.416	6.49
684.739	5.89
685.062	6.52
685.386	5.81
685.709	5.73
686.032	6.44
686.355	5.61
686.678	5.21
687.001	5.75
687.324	5.9
687.646	5.54
687.969	5.93
688.292	6.53
688.614	6.08
688.937	6.32
689.26	6.58
689.582	6.01
689.904	6.52
690.227	6.68
690.549	6.69
690.871	5.76
691.194	5.92
691.516	6.32
691.838	5.87
692.16	6.05
692.482	5.86
692.804	5.6
693.126	6.42
693.448	5.87
