Data from 0014_forehead_Reflection__1__31.txt Node

Date: Mon Oct 17 14:39:44 CDT 2022
User: ToomeyLab
Spectrometer: FLMS14357
Trigger mode: 0
Integration Time (sec): 1.000000E-2
Scans to average: 100
Electric dark correction enabled: true
Nonlinearity correction enabled: false
Boxcar width: 0
XAxis mode: Wavelengths
Number of Pixels in Spectrum: 2048
>>>>>Begin Spectral Data<<<<<
189.047	13.42
189.435	13.42
189.823	13.42
190.211	135.67
190.599	48.88
190.987	443.75
191.375	37.09
191.763	-644.2
192.151	-335.16
192.538	-104.5
192.926	-2.26
193.314	59.4
193.702	-302.26
194.089	32.45
194.477	992.45
194.864	131.25
195.252	-14.06
195.639	42.85
196.027	121.98
196.414	-171.77
196.801	218.84
197.189	265.63
197.576	181.23
197.963	-56.85
198.351	-184.46
198.738	26.71
199.125	-62.24
199.512	-23.82
199.899	40.17
200.286	22.65
200.673	-30
201.06	20.15
201.447	12.2
201.833	29.32
202.22	31.24
202.607	22.47
202.994	40.73
203.38	18.93
203.767	30.74
204.154	72.45
204.54	30.7
204.927	6
205.313	-31.76
205.699	6.67
206.086	-7.69
206.472	12.49
206.858	20.38
207.245	38.94
207.631	26.21
208.017	33.96
208.403	51.7
208.789	9.75
209.175	-14.79
209.561	-6
209.947	-8.37
210.333	46.03
210.719	14.28
211.105	20.65
211.491	73.66
211.876	0.02
212.262	17.04
212.648	19.3
213.034	-11.71
213.419	42.19
213.805	-18.57
214.19	5.72
214.576	35.43
214.961	17.28
215.346	17.85
215.732	-18.24
216.117	16.11
216.502	-9.67
216.888	3.61
217.273	18.6
217.658	0.62
218.043	-0.96
218.428	8.03
218.813	19.94
219.198	29.95
219.583	3.78
219.968	12.42
220.353	-8.35
220.738	-8.35
221.122	5.21
221.507	-7.73
221.892	14.8
222.276	-8.27
222.661	7.94
223.046	-0.5
223.43	11.57
223.815	-5.06
224.199	3.21
224.583	-2.91
224.968	-4.53
225.352	-14.31
225.736	8.84
226.121	8.33
226.505	-1.04
226.889	-0.62
227.273	-0.35
227.657	2.98
228.041	2.57
228.425	1.03
228.809	1.45
229.193	2.36
229.577	3.38
229.961	2.91
230.344	0.76
230.728	1.41
231.112	1.21
231.495	1.67
231.879	1.5
232.263	1.98
232.646	2.27
233.03	1.15
233.413	-1.48
233.797	1.87
234.18	0.75
234.563	-1.79
234.946	1.89
235.33	0.66
235.713	0.3
236.096	1.68
236.479	0.26
236.862	1.09
237.245	1.42
237.628	1.77
238.011	1.94
238.394	1.44
238.777	0.6
239.16	1.98
239.543	1.22
239.925	3.19
240.308	1.27
240.691	0.12
241.073	0.8
241.456	1.07
241.838	0.37
242.221	0.28
242.603	1.39
242.986	1.29
243.368	1.75
243.75	0.96
244.133	1.64
244.515	1.31
244.897	1.78
245.279	1.8
245.661	1.66
246.043	1.66
246.425	0.87
246.807	1.28
247.189	1.8
247.571	1.54
247.953	1.41
248.335	1.33
248.717	1.59
249.098	1.42
249.48	1.22
249.862	1.11
250.243	1.18
250.625	1.72
251.006	1.26
251.388	1.73
251.769	1.04
252.151	0.2
252.532	1.36
252.913	1.2
253.295	1.39
253.676	1.65
254.057	1.76
254.438	1.27
254.819	2.07
255.2	1.39
255.581	1.88
255.962	1.66
256.343	1.09
256.724	1.91
257.105	1.37
257.486	0.7
257.867	0.8
258.247	1.39
258.628	1.91
259.009	1.8
259.389	1.39
259.77	2.03
260.15	1.55
260.531	1.06
260.911	1.58
261.292	1.4
261.672	1.44
262.052	1.5
262.432	1.12
262.813	1.58
263.193	1.39
263.573	1.79
263.953	0.93
264.333	1.21
264.713	1.05
265.093	1.72
265.473	1.93
265.853	1.48
266.233	2.5
266.612	1.35
266.992	1.96
267.372	1.39
267.752	1.69
268.131	1.83
268.511	1.31
268.89	1.87
269.27	1.24
269.649	1.38
270.029	1.58
270.408	1.36
270.787	0.85
271.167	0.99
271.546	1.27
271.925	1.48
272.304	1.52
272.683	1.64
273.062	1.18
273.441	1.33
273.82	1.28
274.199	1.62
274.578	1.42
274.957	1.14
275.336	1.42
275.715	1.41
276.093	1.26
276.472	1.35
276.851	1.37
277.229	0.64
277.608	1.32
277.986	1.24
278.365	1.63
278.743	1.65
279.122	1.29
279.5	1.51
279.878	1.75
280.257	1.71
280.635	1.3
281.013	1.39
281.391	1.43
281.769	1.45
282.147	1.98
282.525	1.6
282.903	0.78
283.281	0.95
283.659	1.27
284.037	1.38
284.415	1.76
284.792	1.48
285.17	1
285.548	1.04
285.925	1.52
286.303	1.62
286.68	1.9
287.058	1.56
287.435	1.5
287.813	1.4
288.19	1.53
288.567	1.67
288.945	1.73
289.322	1.66
289.699	1.85
290.076	1.5
290.453	1.83
290.83	1.66
291.207	2
291.584	1.63
291.961	1.72
292.338	1.6
292.715	1.58
293.092	1.31
293.469	1.26
293.845	2.11
294.222	2.24
294.599	2.04
294.975	1.48
295.352	1.64
295.728	1.57
296.105	1.76
296.481	1.67
296.858	2.27
297.234	1.67
297.61	1.78
297.986	1.74
298.363	1.89
298.739	2.21
299.115	1.89
299.491	1.8
299.867	2.02
300.243	1.85
300.619	1.82
300.995	1.96
301.371	1.75
301.746	1.78
302.122	1.74
302.498	2.08
302.874	2
303.249	1.95
303.625	2.35
304	2.04
304.376	2.54
304.751	2.43
305.127	2.22
305.502	2.29
305.878	2.43
306.253	2.19
306.628	2.3
307.003	1.89
307.378	2.36
307.754	2
308.129	1.79
308.504	2.15
308.879	2
309.254	2.06
309.629	2.22
310.003	2.36
310.378	2.33
310.753	2.05
311.128	2.32
311.502	2.46
311.877	2.4
312.252	2.45
312.626	2.19
313.001	2.18
313.375	2.26
313.75	2.31
314.124	2.66
314.498	2.29
314.873	2.4
315.247	2.43
315.621	3.13
315.995	2.6
316.369	2.54
316.743	2.73
317.117	3.13
317.491	2.67
317.865	2.9
318.239	2.77
318.613	2.97
318.987	2.42
319.361	2.19
319.734	2.58
320.108	2.81
320.482	2.6
320.855	2.18
321.229	2.4
321.602	2.51
321.976	2.44
322.349	2.87
322.723	3.17
323.096	2.71
323.469	2.97
323.843	2.71
324.216	3.57
324.589	2.34
324.962	3.11
325.335	2.79
325.708	3.07
326.081	2.8
326.454	3.44
326.827	3.3
327.2	2.98
327.573	2.64
327.945	3.2
328.318	3
328.691	3
329.063	2.9
329.436	2.68
329.809	3.09
330.181	3.76
330.553	2.88
330.926	3.25
331.298	3.48
331.671	3.41
332.043	2.95
332.415	3.26
332.787	3.33
333.159	3.02
333.532	2.9
333.904	3.17
334.276	3.26
334.648	3.47
335.02	3.51
335.391	3.31
335.763	3.45
336.135	2.87
336.507	3
336.879	3.51
337.25	3.33
337.622	3.59
337.993	3.31
338.365	3.12
338.736	3.24
339.108	3.3
339.479	3.48
339.851	3.37
340.222	3.17
340.593	3.36
340.964	3.77
341.336	2.86
341.707	3.49
342.078	3.82
342.449	3.4
342.82	3.48
343.191	3.71
343.562	3.58
343.933	3.54
344.303	3.29
344.674	3.82
345.045	3.55
345.416	3.65
345.786	3.61
346.157	3.74
346.527	3.52
346.898	3.85
347.268	3.74
347.639	3.64
348.009	3.48
348.38	3.74
348.75	3.39
349.12	3.43
349.49	3.68
349.861	3.63
350.231	3.66
350.601	3.87
350.971	3.52
351.341	3.79
351.711	3.53
352.081	3.81
352.45	4.28
352.82	4.09
353.19	3.76
353.56	3.64
353.929	4.25
354.299	3.64
354.669	4.13
355.038	4.37
355.408	4.03
355.777	3.59
356.147	3.89
356.516	4.12
356.885	3.87
357.254	4.13
357.624	4.21
357.993	3.85
358.362	3.9
358.731	3.94
359.1	3.93
359.469	3.95
359.838	4.09
360.207	4.43
360.576	3.96
360.945	4.06
361.314	4.13
361.682	4.34
362.051	3.98
362.42	4.09
362.788	4.19
363.157	4.35
363.525	3.89
363.894	4.16
364.262	4.43
364.631	4.34
364.999	4.26
365.367	3.94
365.735	4.28
366.104	4.29
366.472	4.38
366.84	4.3
367.208	4.52
367.576	4.41
367.944	4.24
368.312	4.21
368.68	4.91
369.048	4.25
369.416	4.47
369.783	4.42
370.151	4.55
370.519	4.71
370.886	4.4
371.254	4.24
371.621	4.45
371.989	4.46
372.356	4.73
372.724	4.65
373.091	4.67
373.458	4.59
373.826	4.72
374.193	4.81
374.56	4.49
374.927	4.84
375.294	4.61
375.661	4.53
376.028	4.76
376.395	4.61
376.762	4.59
377.129	4.65
377.496	4.42
377.863	4.57
378.229	4.88
378.596	4.97
378.963	4.81
379.329	4.71
379.696	4.76
380.062	5.03
380.429	4.44
380.795	4.8
381.161	4.85
381.528	4.69
381.894	4.85
382.26	5.02
382.626	4.81
382.993	4.87
383.359	5.06
383.725	5.08
384.091	4.76
384.457	4.97
384.823	4.93
385.188	4.71
385.554	5.14
385.92	5.09
386.286	5.16
386.651	5.12
387.017	4.9
387.383	5.36
387.748	5.15
388.114	5.11
388.479	5.28
388.845	5.44
389.21	4.91
389.575	5.32
389.94	5.3
390.306	5.41
390.671	5.39
391.036	5.36
391.401	5.39
391.766	5.3
392.131	5.41
392.496	5.24
392.861	5.05
393.226	5.22
393.591	5.09
393.956	5.29
394.32	5.43
394.685	5.35
395.05	5.5
395.414	5.74
395.779	5.43
396.143	5.56
396.508	5.42
396.872	5.49
397.236	5.3
397.601	5.51
397.965	5.4
398.329	5.73
398.694	5.61
399.058	5.57
399.422	5.66
399.786	5.69
400.15	5.78
400.514	5.67
400.878	5.62
401.242	5.6
401.605	5.75
401.969	5.55
402.333	5.69
402.697	5.6
403.06	5.6
403.424	5.66
403.787	5.77
404.151	5.74
404.514	5.61
404.878	5.91
405.241	5.63
405.604	5.71
405.968	5.8
406.331	5.7
406.694	5.8
407.057	5.72
407.42	5.87
407.783	5.95
408.146	5.91
408.509	5.96
408.872	5.93
409.235	6.04
409.598	6
409.961	5.86
410.323	6.11
410.686	5.89
411.049	5.87
411.411	6.13
411.774	6.14
412.136	5.97
412.499	6.24
412.861	6.17
413.223	6.24
413.586	6.03
413.948	6.18
414.31	5.97
414.672	6
415.035	6.24
415.397	6.44
415.759	6.25
416.121	6.09
416.483	6.26
416.845	6.15
417.206	6.21
417.568	6.29
417.93	6.11
418.292	6.2
418.653	6.22
419.015	6.23
419.377	6.4
419.738	6.09
420.1	6.28
420.461	6.29
420.822	6.21
421.184	6.09
421.545	6.07
421.906	6.27
422.267	6.14
422.629	6.13
422.99	6.21
423.351	6.37
423.712	6.24
424.073	6.3
424.434	6.35
424.795	6.32
425.155	6.38
425.516	6.33
425.877	6.27
426.238	6.3
426.598	6.37
426.959	6.41
427.32	6.48
427.68	6.42
428.041	6.56
428.401	6.62
428.761	6.57
429.122	6.69
429.482	6.58
429.842	6.45
430.202	6.9
430.563	6.63
430.923	6.84
431.283	6.92
431.643	6.75
432.003	6.84
432.363	6.77
432.722	6.88
433.082	6.7
433.442	6.89
433.802	6.71
434.161	6.72
434.521	6.82
434.881	6.77
435.24	6.71
435.6	6.97
435.959	6.91
436.319	6.94
436.678	6.8
437.037	6.99
437.396	6.84
437.756	7.09
438.115	6.94
438.474	6.88
438.833	6.83
439.192	6.92
439.551	6.87
439.91	6.92
440.269	6.82
440.628	6.88
440.987	6.94
441.345	6.92
441.704	6.97
442.063	7.03
442.421	6.94
442.78	6.95
443.138	7.07
443.497	7.07
443.855	7.18
444.214	7.14
444.572	7.12
444.93	7.28
445.288	7.22
445.647	7.12
446.005	7.39
446.363	7.19
446.721	7.11
447.079	7.11
447.437	7.07
447.795	7.08
448.153	7.09
448.51	7.19
448.868	7.22
449.226	7.16
449.584	7.28
449.941	7.26
450.299	7.41
450.656	7.34
451.014	7.26
451.371	7.48
451.729	7.46
452.086	7.43
452.443	7.61
452.801	7.47
453.158	7.66
453.515	7.59
453.872	7.41
454.229	7.35
454.586	7.5
454.943	7.48
455.3	7.58
455.657	7.53
456.014	7.67
456.371	7.54
456.727	7.71
457.084	7.56
457.441	7.7
457.797	7.76
458.154	7.62
458.51	7.89
458.867	7.66
459.223	7.76
459.58	7.7
459.936	7.69
460.292	7.77
460.648	7.62
461.005	7.57
461.361	7.5
461.717	7.51
462.073	7.64
462.429	7.75
462.785	7.87
463.141	7.92
463.496	7.74
463.852	7.85
464.208	8.07
464.564	7.87
464.919	8.05
465.275	7.96
465.631	7.91
465.986	8.07
466.342	8.09
466.697	8
467.052	8.02
467.408	7.96
467.763	7.97
468.118	8.13
468.473	8.22
468.829	8.1
469.184	8.1
469.539	7.98
469.894	8.17
470.249	8.22
470.603	8.21
470.958	8.39
471.313	8.21
471.668	8.13
472.023	8.17
472.377	8.47
472.732	8.33
473.086	8.35
473.441	8.26
473.795	8.28
474.15	8.27
474.504	8.32
474.859	8.34
475.213	8.58
475.567	8.43
475.921	8.37
476.275	8.37
476.63	8.45
476.984	8.47
477.338	8.6
477.692	8.6
478.045	8.49
478.399	8.41
478.753	8.56
479.107	8.37
479.461	8.54
479.814	8.54
480.168	8.5
480.521	8.56
480.875	8.54
481.228	8.47
481.582	8.61
481.935	8.63
482.289	8.6
482.642	8.46
482.995	8.59
483.348	8.58
483.701	8.52
484.055	8.43
484.408	8.41
484.761	8.35
485.114	8.15
485.466	8.03
485.819	8.03
486.172	8.15
486.525	8.39
486.878	8.52
487.23	8.58
487.583	8.64
487.936	8.61
488.288	8.55
488.641	8.36
488.993	8.33
489.345	8.34
489.698	8.37
490.05	8.45
490.402	8.5
490.754	8.62
491.107	8.74
491.459	8.92
491.811	8.95
492.163	8.88
492.515	8.78
492.866	8.65
493.218	8.49
493.57	8.58
493.922	8.66
494.274	8.87
494.625	8.97
494.977	9.1
495.328	9.07
495.68	9.09
496.031	9.32
496.383	9.31
496.734	9.15
497.086	9.18
497.437	9.22
497.788	9.14
498.139	9.1
498.49	9.17
498.842	9.07
499.193	9.13
499.544	9.25
499.894	9.26
500.245	9.31
500.596	9.31
500.947	9.39
501.298	9.43
501.648	9.43
501.999	9.36
502.35	9.6
502.7	9.52
503.051	9.52
503.401	9.67
503.752	9.55
504.102	9.46
504.452	9.49
504.803	9.61
505.153	9.63
505.503	9.54
505.853	9.56
506.203	9.66
506.553	9.65
506.903	9.64
507.253	9.57
507.603	9.6
507.953	9.76
508.303	9.68
508.652	9.63
509.002	9.77
509.352	9.69
509.701	9.79
510.051	9.8
510.4	9.58
510.75	9.73
511.099	9.71
511.449	9.62
511.798	9.78
512.147	9.8
512.496	9.82
512.846	9.88
513.195	9.81
513.544	9.8
513.893	9.92
514.242	9.93
514.591	9.89
514.939	9.84
515.288	9.9
515.637	10.05
515.986	10.07
516.334	9.99
516.683	10.2
517.032	10.03
517.38	10.07
517.729	10.11
518.077	10.19
518.426	10.04
518.774	10.17
519.122	10.15
519.47	10
519.819	10.04
520.167	9.83
520.515	9.97
520.863	9.89
521.211	10.11
521.559	10.21
521.907	10.31
522.255	10.25
522.602	10.29
522.95	10.37
523.298	10.27
523.645	10.36
523.993	10.32
524.341	10.52
524.688	10.44
525.036	10.37
525.383	10.45
525.73	10.33
526.078	10.39
526.425	10.41
526.772	10.4
527.119	10.23
527.466	10.24
527.814	10.34
528.161	10.39
528.508	10.41
528.854	10.35
529.201	10.34
529.548	10.21
529.895	10.03
530.242	9.93
530.588	9.94
530.935	10.13
531.282	10.28
531.628	10.39
531.975	10.54
532.321	10.58
532.667	10.74
533.014	10.71
533.36	10.75
533.706	10.73
534.052	10.7
534.399	10.52
534.745	10.43
535.091	10.43
535.437	10.48
535.783	10.64
536.129	10.79
536.474	10.91
536.82	11.01
537.166	10.93
537.512	10.93
537.857	10.85
538.203	10.88
538.549	10.72
538.894	10.92
539.239	11.09
539.585	10.98
539.93	11.14
540.276	11.07
540.621	11.19
540.966	11.17
541.311	11.03
541.656	11.27
542.001	11.16
542.346	10.98
542.691	10.87
543.036	10.63
543.381	10.78
543.726	10.82
544.071	11.04
544.415	11.12
544.76	11.16
545.105	11.11
545.449	11.26
545.794	11.3
546.138	11.46
546.483	11.46
546.827	11.35
547.171	11.38
547.516	11.55
547.86	11.45
548.204	11.43
548.548	11.46
548.892	11.35
549.236	11.44
549.58	11.6
549.924	11.64
550.268	11.8
550.612	11.76
550.956	12.02
551.3	11.75
551.643	11.95
551.987	12.01
552.33	11.91
552.674	11.98
553.017	11.93
553.361	11.95
553.704	11.86
554.048	11.83
554.391	11.87
554.734	11.91
555.077	12.02
555.42	12.06
555.764	12.13
556.107	12.14
556.45	12.25
556.793	12.16
557.135	12.23
557.478	12.34
557.821	12.28
558.164	12.23
558.507	12.31
558.849	12.22
559.192	12.34
559.534	12.36
559.877	12.19
560.219	12.06
560.562	12.38
560.904	12.39
561.246	12.46
561.589	12.51
561.931	12.43
562.273	12.43
562.615	12.45
562.957	12.56
563.299	12.38
563.641	12.51
563.983	12.65
564.325	12.8
564.667	12.64
565.008	12.66
565.35	12.88
565.692	12.6
566.033	12.8
566.375	12.59
566.716	12.67
567.058	12.48
567.399	12.54
567.741	12.77
568.082	12.75
568.423	12.57
568.764	12.76
569.105	12.69
569.447	12.94
569.788	12.8
570.129	12.98
570.47	12.91
570.811	13.16
571.151	12.85
571.492	13.02
571.833	12.95
572.174	12.95
572.514	12.96
572.855	12.99
573.195	12.73
573.536	12.79
573.876	12.98
574.217	13.03
574.557	13.03
574.898	13.11
575.238	13.11
575.578	13.28
575.918	13.19
576.258	13.15
576.598	13.16
576.938	13.12
577.278	13.41
577.618	13.17
577.958	13.31
578.298	13.23
578.638	13.3
578.977	13.47
579.317	13.36
579.657	13.18
579.996	13.55
580.336	13.38
580.675	13.45
581.014	13.49
581.354	13.63
581.693	13.47
582.032	13.57
582.372	13.74
582.711	13.52
583.05	13.83
583.389	13.7
583.728	13.85
584.067	13.88
584.406	13.62
584.745	13.9
585.083	13.75
585.422	13.93
585.761	13.84
586.1	13.95
586.438	14.01
586.777	14.12
587.115	13.56
587.454	13.81
587.792	14.13
588.13	14.03
588.469	14.14
588.807	13.92
589.145	14
589.483	13.79
589.821	14.01
590.159	14.08
590.497	14.11
590.835	14.06
591.173	13.92
591.511	14.14
591.849	14.26
592.187	14.36
592.524	14.15
592.862	14.03
593.2	14.33
593.537	14.72
593.875	14.39
594.212	14.54
594.55	14.18
594.887	14.46
595.224	14.52
595.561	14.38
595.899	14.55
596.236	14.54
596.573	14.42
596.91	14.39
597.247	14.31
597.584	14.38
597.921	14.4
598.258	14.41
598.594	14.23
598.931	14.3
599.268	14.33
599.604	14.33
599.941	14.53
600.277	14.62
600.614	14.7
600.95	14.6
601.287	14.53
601.623	14.85
601.959	14.59
602.296	14.88
602.632	14.74
602.968	14.72
603.304	14.81
603.64	14.79
603.976	14.94
604.312	15.1
604.648	14.8
604.984	14.81
605.319	14.65
605.655	14.87
605.991	14.84
606.326	14.61
606.662	14.61
606.998	14.93
607.333	15
607.668	14.92
608.004	14.94
608.339	14.94
608.674	14.99
609.01	15.19
609.345	15.13
609.68	15.14
610.015	15.21
610.35	15.07
610.685	14.99
611.02	15.05
611.355	15.03
611.689	15.05
612.024	15.25
612.359	15.26
612.694	15.58
613.028	15.21
613.363	15.67
613.697	15.34
614.032	15.73
614.366	15.26
614.7	15.63
615.035	15.36
615.369	15.47
615.703	15.57
616.037	16.19
616.371	15.71
616.705	15.55
617.039	15.9
617.373	15.75
617.707	15.76
618.041	15.7
618.375	15.53
618.709	16.25
619.042	15.79
619.376	15.81
619.71	15.68
620.043	15.96
620.377	15.73
620.71	15.78
621.043	16.21
621.377	15.98
621.71	16.19
622.043	16.38
622.376	16.12
622.709	15.86
623.043	15.86
623.376	15.75
623.709	16.11
624.041	16
624.374	16.18
624.707	16.1
625.04	15.9
625.373	16.27
625.705	15.94
626.038	15.65
626.37	16.21
626.703	16.3
627.035	16.28
627.368	16.15
627.7	16.21
628.032	16.19
628.365	16.04
628.697	16.16
629.029	16.33
629.361	16.16
629.693	16.23
630.025	16.26
630.357	16.26
630.689	16.12
631.021	16.38
631.353	16.23
631.684	16.29
632.016	16.22
632.348	16.95
632.679	16.4
633.011	16.29
633.342	16.73
633.674	16.69
634.005	16.48
634.336	16.59
634.668	16.76
634.999	16.39
635.33	16.81
635.661	16.96
635.992	16.68
636.323	16.8
636.654	16.4
636.985	16.52
637.316	16.54
637.647	16.52
637.977	16.69
638.308	16.96
638.639	16.83
638.969	16.56
639.3	16.82
639.63	17.04
639.961	17.25
640.291	16.96
640.622	16.97
640.952	17.26
641.282	16.88
641.612	17.06
641.943	16.82
642.273	16.71
642.603	16.75
642.933	17.04
643.263	17.34
643.592	17.16
643.922	16.93
644.252	17.01
644.582	17.28
644.911	17.35
645.241	17.61
645.571	17.15
645.9	17.72
646.23	17.28
646.559	17.47
646.888	17.1
647.218	17.28
647.547	17.91
647.876	17.77
648.205	17.49
648.534	17.49
648.863	16.95
649.192	17.57
649.521	17.35
649.85	17.32
650.179	17.5
650.508	17.67
650.837	17.54
651.165	17.59
651.494	17.56
651.822	17.6
652.151	17.37
652.479	17.67
652.808	17.61
653.136	17.56
653.465	17.45
653.793	17.83
654.121	17.5
654.449	17.54
654.777	17.5
655.105	17.29
655.433	17.42
655.761	18.1
656.089	17.55
656.417	17.59
656.745	18.01
657.073	18.34
657.4	17.95
657.728	18.08
658.056	18.11
658.383	17.69
658.711	17.69
659.038	17.65
659.365	18.1
659.693	17.72
660.02	18.17
660.347	18.09
660.674	17.95
661.001	17.74
661.329	17.92
661.656	18.21
661.982	17.91
662.309	18.22
662.636	18.27
662.963	18.12
663.29	18.36
663.616	17.88
663.943	17.81
664.27	18.44
664.596	17.65
664.923	18.13
665.249	18.36
665.576	19
665.902	18.37
666.228	18.28
666.554	18.59
666.881	18.65
667.207	18.75
667.533	18.85
667.859	18.45
668.185	18.69
668.511	18.57
668.837	18.24
669.162	18.3
669.488	19.07
669.814	18.52
670.139	17.9
670.465	18.56
670.791	19.02
671.116	18.77
671.442	18.48
671.767	18.37
672.092	18.57
672.418	18.37
672.743	18.59
673.068	18.99
673.393	18.61
673.718	18.65
674.043	18.88
674.368	18.49
674.693	18.98
675.018	18.84
675.343	19.57
675.667	18.92
675.992	18.24
676.317	18.63
676.641	18.34
676.966	19.12
677.29	19.68
677.615	18.58
677.939	19.05
678.264	18.93
678.588	19.33
678.912	18.95
679.236	19.22
679.56	18.7
679.885	19.23
680.209	18.91
680.532	18.74
680.856	19.21
681.18	18.96
681.504	19.49
681.828	19.05
