Data from 0014_chest_Reflection__1__21.txt Node

Date: Mon Oct 17 14:35:46 CDT 2022
User: ToomeyLab
Spectrometer: FLMS14357
Trigger mode: 0
Integration Time (sec): 1.000000E-2
Scans to average: 100
Electric dark correction enabled: true
Nonlinearity correction enabled: false
Boxcar width: 0
XAxis mode: Wavelengths
Number of Pixels in Spectrum: 2048
>>>>>Begin Spectral Data<<<<<
189.047	74.04
189.435	74.04
189.823	74.04
190.211	-353.4
190.599	90.92
190.987	343.58
191.375	169.06
191.763	-3093.75
192.151	-998.44
192.538	-10.95
192.926	136.46
193.314	113.48
193.702	173.07
194.089	-115.37
194.477	-291.15
194.864	215.71
195.252	73.96
195.639	32.37
196.027	60.7
196.414	-0.77
196.801	74.82
197.189	371.96
197.576	126.41
197.963	-108.96
198.351	-193.07
198.738	-8.53
199.125	-85.09
199.512	-116.39
199.899	-37.37
200.286	22.51
200.673	12.47
201.06	-20.56
201.447	31.28
201.833	-9.68
202.22	13.35
202.607	-3.6
202.994	7.19
203.38	-6.89
203.767	-7.49
204.154	38.84
204.54	10.02
204.927	36.14
205.313	-38.1
205.699	4.6
206.086	-29.36
206.472	-4.49
206.858	-24.57
207.245	35.43
207.631	14.54
208.017	-3.73
208.403	21.58
208.789	29.64
209.175	-8.33
209.561	-64.97
209.947	-0.49
210.333	61.99
210.719	16.25
211.105	20.57
211.491	-23.9
211.876	-3.73
212.262	44.88
212.648	19.11
213.034	-25.71
213.419	0.83
213.805	-11.63
214.19	-20.86
214.576	-13.23
214.961	-29.27
215.346	-11.95
215.732	-7.08
216.117	0.87
216.502	21.55
216.888	34.87
217.273	13.57
217.658	40.54
218.043	-6.41
218.428	13.49
218.813	9.06
219.198	-10.55
219.583	-9.88
219.968	1.54
220.353	10.74
220.738	-2.43
221.122	2.52
221.507	10.46
221.892	5.85
222.276	3.73
222.661	-2.94
223.046	2.49
223.43	9.81
223.815	-5.76
224.199	1.49
224.583	-5.68
224.968	-9.3
225.352	-19.79
225.736	1.58
226.121	1.7
226.505	1.45
226.889	-0.56
227.273	-0.06
227.657	7.46
228.041	4.74
228.425	-2.71
228.809	-0.59
229.193	2.28
229.577	4.32
229.961	3.91
230.344	1.14
230.728	1.56
231.112	1.97
231.495	2.14
231.879	1.84
232.263	2.75
232.646	1.59
233.03	1.21
233.413	0.5
233.797	1.83
234.18	2.57
234.563	0.14
234.946	2.65
235.33	2.54
235.713	0.7
236.096	2.59
236.479	0.95
236.862	1.59
237.245	2.02
237.628	1.78
238.011	1.74
238.394	1.72
238.777	3.45
239.16	2.42
239.543	1.12
239.925	1.57
240.308	1.94
240.691	0.24
241.073	2.09
241.456	1.45
241.838	1.05
242.221	1.59
242.603	1.47
242.986	1.11
243.368	2.42
243.75	1.54
244.133	1.7
244.515	1.8
244.897	2.11
245.279	2.5
245.661	2.03
246.043	2.84
246.425	0.7
246.807	0.64
247.189	1.78
247.571	2.25
247.953	1.59
248.335	1.96
248.717	1.73
249.098	1.96
249.48	1.88
249.862	1.53
250.243	1.66
250.625	1.76
251.006	1.77
251.388	2.18
251.769	2.08
252.151	1.62
252.532	1.81
252.913	1.86
253.295	0.89
253.676	1.84
254.057	2.04
254.438	1.65
254.819	2.07
255.2	2.43
255.581	2.07
255.962	1.35
256.343	1.7
256.724	1.47
257.105	2.47
257.486	0.82
257.867	1.78
258.247	1.46
258.628	1.92
259.009	1.89
259.389	2.45
259.77	1.95
260.15	1.85
260.531	1.46
260.911	1.71
261.292	1.83
261.672	1.76
262.052	1.61
262.432	1.69
262.813	1.62
263.193	1.81
263.573	1.93
263.953	1.49
264.333	1.32
264.713	0.91
265.093	1.84
265.473	1.98
265.853	1.36
266.233	2.8
266.612	1.06
266.992	1.82
267.372	2.08
267.752	2.22
268.131	2.06
268.511	1.74
268.89	1.72
269.27	1.96
269.649	1.72
270.029	1.54
270.408	1.82
270.787	1.53
271.167	1.73
271.546	1.45
271.925	1.83
272.304	1.74
272.683	1.47
273.062	1.86
273.441	1.66
273.82	1.69
274.199	2.26
274.578	1.93
274.957	1.42
275.336	2.06
275.715	1.43
276.093	1.83
276.472	1.53
276.851	2.17
277.229	1.39
277.608	1.59
277.986	1.45
278.365	1.66
278.743	1.93
279.122	1.41
279.5	1.79
279.878	1.89
280.257	1.71
280.635	1.32
281.013	2.1
281.391	1.5
281.769	1.53
282.147	2.29
282.525	1.62
282.903	0.89
283.281	1.14
283.659	1.54
284.037	0.99
284.415	1.74
284.792	1.12
285.17	1.23
285.548	1.17
285.925	2.07
286.303	1.91
286.68	1.83
287.058	2.03
287.435	1.66
287.813	1.76
288.19	1.8
288.567	1.3
288.945	1.53
289.322	2.03
289.699	1.64
290.076	1.82
290.453	1.77
290.83	1.71
291.207	1.84
291.584	1.48
291.961	1.7
292.338	1.83
292.715	1.66
293.092	1.78
293.469	1.7
293.845	2.05
294.222	1.71
294.599	2.04
294.975	1.43
295.352	1.44
295.728	1.78
296.105	1.15
296.481	1.46
296.858	2.15
297.234	1.78
297.61	1.53
297.986	1.62
298.363	1.69
298.739	2.21
299.115	1.82
299.491	1.64
299.867	1.75
300.243	2.05
300.619	1.47
300.995	1.71
301.371	1.7
301.746	1.57
302.122	1.89
302.498	1.8
302.874	1.93
303.249	1.69
303.625	1.96
304	2.12
304.376	2.03
304.751	1.94
305.127	2.26
305.502	1.66
305.878	1.97
306.253	1.92
306.628	1.93
307.003	1.65
307.378	2.07
307.754	1.44
308.129	1.67
308.504	2.01
308.879	1.71
309.254	1.74
309.629	1.95
310.003	2.2
310.378	1.58
310.753	1.54
311.128	2.05
311.502	2.04
311.877	1.86
312.252	1.84
312.626	1.53
313.001	1.56
313.375	1.23
313.75	1.94
314.124	1.98
314.498	1.76
314.873	1.56
315.247	1.41
315.621	2.28
315.995	1.75
316.369	1.67
316.743	1.59
317.117	2.26
317.491	1.63
317.865	1.66
318.239	1.87
318.613	1.95
318.987	1.87
319.361	1.38
319.734	2.17
320.108	1.99
320.482	1.95
320.855	1.56
321.229	1.81
321.602	2.13
321.976	1.12
322.349	1.77
322.723	1.75
323.096	1.72
323.469	2.43
323.843	1.54
324.216	1.93
324.589	1.76
324.962	2.14
325.335	1.59
325.708	2.06
326.081	1.76
326.454	2.34
326.827	2.11
327.2	1.51
327.573	2.34
327.945	1.6
328.318	1.69
328.691	2.06
329.063	2.06
329.436	1.84
329.809	1.63
330.181	2.02
330.553	1.72
330.926	1.76
331.298	2.14
331.671	2.24
332.043	2.25
332.415	1.97
332.787	1.69
333.159	1.96
333.532	1.64
333.904	1.87
334.276	1.85
334.648	1.37
335.02	1.66
335.391	2.21
335.763	1.98
336.135	2.01
336.507	1.96
336.879	1.89
337.25	2.23
337.622	1.83
337.993	2.11
338.365	1.96
338.736	1.33
339.108	1.73
339.479	1.74
339.851	1.73
340.222	1.97
340.593	2.18
340.964	1.98
341.336	1.81
341.707	2.2
342.078	1.89
342.449	2.14
342.82	1.83
343.191	1.79
343.562	1.98
343.933	1.92
344.303	1.42
344.674	2.24
345.045	2.23
345.416	2.24
345.786	1.69
346.157	1.91
346.527	1.99
346.898	1.78
347.268	2.32
347.639	1.76
348.009	1.89
348.38	2.02
348.75	1.86
349.12	1.88
349.49	1.53
349.861	2.3
350.231	2.1
350.601	1.98
350.971	2.24
351.341	2
351.711	1.59
352.081	2.05
352.45	2
352.82	1.98
353.19	1.8
353.56	1.89
353.929	2.11
354.299	1.85
354.669	2.04
355.038	2.03
355.408	1.98
355.777	1.79
356.147	1.94
356.516	1.97
356.885	1.88
357.254	2.12
357.624	2.16
357.993	2.21
358.362	1.78
358.731	1.81
359.1	2.05
359.469	1.76
359.838	1.77
360.207	2.05
360.576	1.94
360.945	2.23
361.314	2.29
361.682	2.22
362.051	2.16
362.42	1.91
362.788	2.12
363.157	2.15
363.525	1.98
363.894	2.11
364.262	2.02
364.631	2.19
364.999	1.99
365.367	1.77
365.735	2.23
366.104	1.89
366.472	1.87
366.84	1.96
367.208	1.99
367.576	1.98
367.944	1.99
368.312	2.06
368.68	2.06
369.048	1.8
369.416	2.17
369.783	2.18
370.151	2.15
370.519	2.33
370.886	2.04
371.254	1.8
371.621	2.05
371.989	2.01
372.356	2.01
372.724	1.99
373.091	2.18
373.458	1.94
373.826	2.16
374.193	2.24
374.56	1.83
374.927	2.07
375.294	1.9
375.661	2.15
376.028	1.93
376.395	2.12
376.762	1.99
377.129	2.14
377.496	1.85
377.863	1.88
378.229	1.93
378.596	2.02
378.963	2
379.329	1.82
379.696	1.97
380.062	2.12
380.429	1.87
380.795	2.34
381.161	2.08
381.528	1.86
381.894	1.83
382.26	1.97
382.626	2.26
382.993	2.01
383.359	2
383.725	2.24
384.091	1.99
384.457	1.99
384.823	1.66
385.188	1.83
385.554	2.01
385.92	2.03
386.286	2.07
386.651	2.04
387.017	1.94
387.383	2.17
387.748	1.99
388.114	1.98
388.479	2.38
388.845	2.33
389.21	2.11
389.575	1.96
389.94	2.2
390.306	2.34
390.671	2.48
391.036	2.31
391.401	1.92
391.766	2.06
392.131	1.94
392.496	2.24
392.861	2.09
393.226	2.1
393.591	1.85
393.956	2.03
394.32	2.05
394.685	2.22
395.05	2.18
395.414	2.07
395.779	1.95
396.143	2.14
396.508	2.02
396.872	2.03
397.236	1.99
397.601	2.05
397.965	2.13
398.329	2.15
398.694	2.31
399.058	2.2
399.422	2.24
399.786	2.28
400.15	2.11
400.514	2.08
400.878	2.01
401.242	2.19
401.605	2.32
401.969	1.98
402.333	2.11
402.697	2.09
403.06	1.85
403.424	2.05
403.787	2.05
404.151	2.23
404.514	2.25
404.878	2.05
405.241	2.05
405.604	2.04
405.968	2.17
406.331	2.12
406.694	2.24
407.057	2.23
407.42	2.01
407.783	2.23
408.146	2.11
408.509	2.41
408.872	1.98
409.235	2.22
409.598	2.09
409.961	2.05
410.323	2.31
410.686	2.14
411.049	2.07
411.411	2.32
411.774	1.99
412.136	2.16
412.499	2.17
412.861	2.11
413.223	2.03
413.586	2.13
413.948	2.33
414.31	2.1
414.672	2.04
415.035	2.09
415.397	2.44
415.759	2.32
416.121	1.97
416.483	2.27
416.845	2.27
417.206	2.21
417.568	2.27
417.93	2.14
418.292	2.24
418.653	2.19
419.015	2.25
419.377	2.26
419.738	2.1
420.1	2.31
420.461	2.14
420.822	2.18
421.184	2.13
421.545	2.09
421.906	2.06
422.267	2.2
422.629	2.07
422.99	2.1
423.351	2.12
423.712	2.14
424.073	2.26
424.434	2.1
424.795	2.24
425.155	2.27
425.516	2.16
425.877	2.13
426.238	2.08
426.598	2.14
426.959	2.17
427.32	2.16
427.68	2.17
428.041	2
428.401	2.2
428.761	2.22
429.122	2.26
429.482	2.22
429.842	2.2
430.202	2.31
430.563	2
430.923	2.15
431.283	2.28
431.643	2.25
432.003	2.27
432.363	2.33
432.722	2.24
433.082	2.06
433.442	2.35
433.802	2.27
434.161	2.22
434.521	2.35
434.881	2.23
435.24	2.12
435.6	2.28
435.959	2.21
436.319	2.25
436.678	2.26
437.037	2.21
437.396	2.34
437.756	2.39
438.115	2.1
438.474	2.2
438.833	2.17
439.192	2.24
439.551	2.21
439.91	2.23
440.269	2.25
440.628	2.12
440.987	2.22
441.345	2.25
441.704	2.25
442.063	2.18
442.421	2.24
442.78	2.09
443.138	2.2
443.497	2.24
443.855	2.29
444.214	2.38
444.572	2.2
444.93	2.21
445.288	2.18
445.647	2.17
446.005	2.4
446.363	2.39
446.721	2.23
447.079	2.19
447.437	2.26
447.795	2.18
448.153	2.25
448.51	2.23
448.868	2.28
449.226	2.27
449.584	2.28
449.941	2.2
450.299	2.32
450.656	2.19
451.014	2.27
451.371	2.35
451.729	2.36
452.086	2.29
452.443	2.35
452.801	2.39
453.158	2.39
453.515	2.32
453.872	2.36
454.229	2.17
454.586	2.11
454.943	2.28
455.3	2.28
455.657	2.31
456.014	2.36
456.371	2.24
456.727	2.26
457.084	2.18
457.441	2.36
457.797	2.27
458.154	2.48
458.51	2.37
458.867	2.31
459.223	2.33
459.58	2.25
459.936	2.25
460.292	2.29
460.648	2.28
461.005	2.32
461.361	2.23
461.717	2.23
462.073	2.18
462.429	2.23
462.785	2.28
463.141	2.36
463.496	2.25
463.852	2.4
464.208	2.44
464.564	2.25
464.919	2.43
465.275	2.22
465.631	2.36
465.986	2.3
466.342	2.32
466.697	2.42
467.052	2.32
467.408	2.28
467.763	2.16
468.118	2.42
468.473	2.47
468.829	2.46
469.184	2.38
469.539	2.36
469.894	2.5
470.249	2.45
470.603	2.37
470.958	2.44
471.313	2.36
471.668	2.34
472.023	2.22
472.377	2.52
472.732	2.3
473.086	2.43
473.441	2.37
473.795	2.38
474.15	2.45
474.504	2.45
474.859	2.42
475.213	2.46
475.567	2.58
475.921	2.29
476.275	2.43
476.63	2.31
476.984	2.54
477.338	2.35
477.692	2.4
478.045	2.61
478.399	2.47
478.753	2.46
479.107	2.3
479.461	2.35
479.814	2.5
480.168	2.28
480.521	2.38
480.875	2.37
481.228	2.38
481.582	2.39
481.935	2.43
482.289	2.37
482.642	2.43
482.995	2.45
483.348	2.41
483.701	2.37
484.055	2.41
484.408	2.41
484.761	2.38
485.114	2.27
485.466	2.26
485.819	2.26
486.172	2.27
486.525	2.34
486.878	2.33
487.23	2.39
487.583	2.43
487.936	2.41
488.288	2.36
488.641	2.36
488.993	2.3
489.345	2.32
489.698	2.33
490.05	2.32
490.402	2.31
490.754	2.36
491.107	2.38
491.459	2.44
491.811	2.45
492.163	2.45
492.515	2.39
492.866	2.35
493.218	2.33
493.57	2.46
493.922	2.4
494.274	2.44
494.625	2.46
494.977	2.53
495.328	2.54
495.68	2.54
496.031	2.6
496.383	2.54
496.734	2.57
497.086	2.3
497.437	2.51
497.788	2.58
498.139	2.49
498.49	2.56
498.842	2.51
499.193	2.44
499.544	2.49
499.894	2.59
500.245	2.54
500.596	2.49
500.947	2.53
501.298	2.6
501.648	2.53
501.999	2.48
502.35	2.6
502.7	2.56
503.051	2.62
503.401	2.75
503.752	2.71
504.102	2.61
504.452	2.58
504.803	2.6
505.153	2.52
505.503	2.69
505.853	2.65
506.203	2.54
506.553	2.69
506.903	2.62
507.253	2.64
507.603	2.67
507.953	2.65
508.303	2.66
508.652	2.74
509.002	2.74
509.352	2.61
509.701	2.6
510.051	2.69
510.4	2.62
510.75	2.7
511.099	2.64
511.449	2.68
511.798	2.77
512.147	2.67
512.496	2.7
512.846	2.66
513.195	2.65
513.544	2.73
513.893	2.67
514.242	2.8
514.591	2.59
514.939	2.68
515.288	2.68
515.637	2.68
515.986	2.74
516.334	2.81
516.683	2.83
517.032	2.73
517.38	2.63
517.729	2.76
518.077	2.73
518.426	2.69
518.774	2.77
519.122	2.65
519.47	2.73
519.819	2.75
520.167	2.71
520.515	2.69
520.863	2.82
521.211	2.73
521.559	2.77
521.907	2.85
522.255	2.74
522.602	2.75
522.95	2.88
523.298	2.81
523.645	2.86
523.993	2.74
524.341	2.84
524.688	2.76
525.036	2.96
525.383	2.86
525.73	2.83
526.078	2.77
526.425	2.78
526.772	2.88
527.119	2.82
527.466	2.74
527.814	2.87
528.161	2.81
528.508	2.8
528.854	2.81
529.201	2.76
529.548	2.84
529.895	2.75
530.242	2.72
530.588	2.72
530.935	2.77
531.282	2.76
531.628	2.84
531.975	2.87
532.321	2.86
532.667	2.94
533.014	2.99
533.36	2.91
533.706	2.97
534.052	2.93
534.399	2.88
534.745	2.85
535.091	2.89
535.437	2.92
535.783	2.9
536.129	2.9
536.474	3.03
536.82	3.04
537.166	3.07
537.512	3
537.857	3.1
538.203	3.01
538.549	3
538.894	3.08
539.239	3.07
539.585	3.09
539.93	3.12
540.276	3.08
540.621	3.08
540.966	3.09
541.311	3.05
541.656	3.07
542.001	3.09
542.346	3.15
542.691	3.05
543.036	3.02
543.381	3.02
543.726	3.06
544.071	3.07
544.415	3.05
544.76	3.09
545.105	3.07
545.449	3.24
545.794	3.17
546.138	3.2
546.483	3.26
546.827	3.34
547.171	3.27
547.516	3.31
547.86	3.32
548.204	3.34
548.548	3.29
548.892	3.29
549.236	3.3
549.58	3.27
549.924	3.32
550.268	3.34
550.612	3.27
550.956	3.45
551.3	3.27
551.643	3.36
551.987	3.35
552.33	3.47
552.674	3.44
553.017	3.51
553.361	3.43
553.704	3.28
554.048	3.39
554.391	3.57
554.734	3.41
555.077	3.53
555.42	3.54
555.764	3.52
556.107	3.44
556.45	3.56
556.793	3.45
557.135	3.71
557.478	3.58
557.821	3.55
558.164	3.71
558.507	3.67
558.849	3.62
559.192	3.42
559.534	3.59
559.877	3.62
560.219	3.5
560.562	3.46
560.904	3.6
561.246	3.79
561.589	3.97
561.931	3.78
562.273	3.82
562.615	3.68
562.957	3.8
563.299	3.86
563.641	3.79
563.983	3.69
564.325	3.94
564.667	3.81
565.008	3.95
565.35	3.87
565.692	4.06
566.033	3.99
566.375	3.9
566.716	3.92
567.058	3.82
567.399	3.8
567.741	3.94
568.082	3.98
568.423	3.87
568.764	3.92
569.105	3.91
569.447	4.08
569.788	3.92
570.129	4.04
570.47	4.12
570.811	4.08
571.151	3.98
571.492	4.16
571.833	4.16
572.174	4.17
572.514	4.29
572.855	4.14
573.195	4.23
573.536	4.13
573.876	4.09
574.217	4.18
574.557	4.06
574.898	4.16
575.238	4.26
575.578	4.4
575.918	4.31
576.258	4.23
576.598	4.19
576.938	4.4
577.278	4.43
577.618	4.3
577.958	4.12
578.298	4.39
578.638	4.39
578.977	4.54
579.317	4.44
579.657	4.32
579.996	4.53
580.336	4.55
580.675	4.51
581.014	4.49
581.354	4.56
581.693	4.48
582.032	4.58
582.372	4.68
582.711	4.43
583.05	4.54
583.389	4.51
583.728	4.75
584.067	4.73
584.406	4.71
584.745	4.77
585.083	4.89
585.422	4.89
585.761	4.78
586.1	5.01
586.438	4.84
586.777	4.97
587.115	4.69
587.454	4.84
587.792	4.82
588.13	5.03
588.469	5.17
588.807	5.06
589.145	4.94
589.483	4.98
589.821	4.87
590.159	4.99
590.497	5.22
590.835	5.09
591.173	5.07
591.511	5.15
591.849	5.15
592.187	5.16
592.524	5.32
592.862	5.21
593.2	5
593.537	5.49
593.875	5.35
594.212	5.37
594.55	5.27
594.887	5.28
595.224	5.23
595.561	5.25
595.899	5.43
596.236	5.33
596.573	5.21
596.91	5.42
597.247	5.53
597.584	5.38
597.921	5.44
598.258	5.44
598.594	5.51
598.931	5.48
599.268	5.45
599.604	5.49
599.941	5.51
600.277	5.53
600.614	5.6
600.95	5.65
601.287	5.68
601.623	5.68
601.959	5.84
602.296	5.93
602.632	5.57
602.968	5.76
603.304	5.87
603.64	5.64
603.976	5.73
604.312	5.99
604.648	5.8
604.984	5.97
605.319	5.56
605.655	5.88
605.991	6.12
606.326	5.83
606.662	6.07
606.998	5.98
607.333	6.06
607.668	6.1
608.004	6
608.339	6.05
608.674	6.3
609.01	6.2
609.345	6.32
609.68	6.2
610.015	6.42
610.35	6.05
610.685	5.96
611.02	6.45
611.355	6.29
611.689	6.34
612.024	6.34
612.359	6.33
612.694	6.41
613.028	6.44
613.363	6.42
613.697	6.4
614.032	6.69
614.366	6.46
614.7	6.48
615.035	6.58
615.369	6.75
615.703	6.67
616.037	6.82
616.371	6.54
616.705	6.59
617.039	7.09
617.373	6.9
617.707	7.03
618.041	6.86
618.375	6.66
618.709	6.73
619.042	7.04
619.376	6.63
619.71	7.06
620.043	7.07
620.377	6.99
620.71	6.92
621.043	7.23
621.377	7.19
621.71	6.86
622.043	7.14
622.376	7
622.709	6.84
623.043	7.13
623.376	6.95
623.709	7.16
624.041	7.01
624.374	7.48
624.707	7.31
625.04	7.15
625.373	7.58
625.705	7.18
626.038	7.01
626.37	7.41
626.703	7.53
627.035	7.2
627.368	7.44
627.7	7.61
628.032	7.63
628.365	7.43
628.697	7.65
629.029	7.63
629.361	7.47
629.693	7.56
630.025	7.58
630.357	7.48
630.689	7.56
631.021	7.51
631.353	7.24
631.684	7.62
632.016	7.83
632.348	7.93
632.679	8.06
633.011	7.82
633.342	7.88
633.674	8.33
634.005	7.85
634.336	7.69
634.668	8.21
634.999	8.13
635.33	7.94
635.661	8.48
635.992	7.93
636.323	8.05
636.654	8.21
636.985	7.94
637.316	7.92
637.647	7.95
637.977	8.08
638.308	8.42
638.639	8.33
638.969	8.11
639.3	8.25
639.63	8.77
639.961	8.68
640.291	8.02
640.622	8.59
640.952	8.47
641.282	8.5
641.612	8.59
641.943	8.27
642.273	8.14
642.603	8.55
642.933	8.45
643.263	8.81
643.592	8.7
643.922	8.63
644.252	8.53
644.582	9.12
644.911	9.17
645.241	9.06
645.571	8.46
645.9	9.11
646.23	8.82
646.559	8.73
646.888	8.83
647.218	8.67
647.547	9.34
647.876	9.31
648.205	8.76
648.534	9.02
648.863	9.41
649.192	9.36
649.521	8.95
649.85	8.91
650.179	9.67
650.508	9.37
650.837	9.16
651.165	9.49
651.494	9.62
651.822	9.2
652.151	9.19
652.479	9.71
652.808	9.18
653.136	9.55
653.465	9.41
653.793	10.12
654.121	9.88
654.449	10.19
654.777	9.73
655.105	9.23
655.433	9.57
655.761	9.85
656.089	10.02
656.417	9.78
656.745	9.63
657.073	9.91
657.4	9.5
657.728	9.87
658.056	9.71
658.383	9.89
658.711	9.71
659.038	9.86
659.365	9.8
659.693	9.89
660.02	10.12
660.347	10.45
660.674	9.95
661.001	10.1
661.329	10.26
661.656	9.91
661.982	10.2
662.309	10.49
662.636	10.49
662.963	10.25
663.29	10.1
663.616	10.37
663.943	10.58
664.27	10.47
664.596	10.45
664.923	10.32
665.249	10.05
665.576	10.84
665.902	10.67
666.228	10.91
666.554	10.72
666.881	10.86
667.207	10.84
667.533	10.88
667.859	10.69
668.185	10.89
668.511	10.83
668.837	11.18
669.162	11.18
669.488	10.96
669.814	11.52
670.139	10.95
670.465	11.17
670.791	10.69
671.116	11.6
671.442	11.41
671.767	11.06
672.092	10.96
672.418	11.31
672.743	11.41
673.068	11.59
673.393	11.51
673.718	11.42
674.043	11.81
674.368	10.99
674.693	10.98
675.018	11.67
675.343	11.76
675.667	11.04
675.992	11.6
676.317	11.53
676.641	10.9
676.966	11.48
677.29	12.03
677.615	11.67
677.939	11.86
678.264	11.37
678.588	11.86
678.912	12.34
679.236	12.18
679.56	11.71
679.885	11.86
680.209	12.38
680.532	11.82
680.856	11.45
681.18	11.81
681.504	12.25
681.828	12.39
682.152	11.91
682.475	11.95
682.799	12.14
683.122	12.21
683.446	12.33
683.769	12.03
684.093	11.81
684.416	12.73
684.739	12.12
685.062	12.51
685.386	12.95
685.709	12.37
686.032	12.99
686.355	12.02
686.678	12.47
687.001	12.24
687.324	12.02
687.646	12.15
687.969	12.32
688.292	12.91
688.614	13.36
688.937	13.17
689.26	13.1
689.582	12.44
