Data from 0014_forehead_Reflection__0__30.txt Node

Date: Mon Oct 17 14:39:25 CDT 2022
User: ToomeyLab
Spectrometer: FLMS14357
Trigger mode: 0
Integration Time (sec): 1.000000E-2
Scans to average: 100
Electric dark correction enabled: true
Nonlinearity correction enabled: false
Boxcar width: 0
XAxis mode: Wavelengths
Number of Pixels in Spectrum: 2048
>>>>>Begin Spectral Data<<<<<
189.047	25.88
189.435	25.88
189.823	25.88
190.211	59.78
190.599	72.22
190.987	-340.54
191.375	30.5
191.763	300
192.151	-662.5
192.538	-69.27
192.926	63.89
193.314	-20.15
193.702	-207.22
194.089	-33.33
194.477	1779.17
194.864	-451.28
195.252	-23
195.639	10.49
196.027	100.56
196.414	214.04
196.801	-123.53
197.189	-100
197.576	108.71
197.963	7.72
198.351	-47.43
198.738	24.67
199.125	-30.12
199.512	2.48
199.899	42.71
200.286	22.76
200.673	-10.3
201.06	42.93
201.447	55.11
201.833	45.46
202.22	39.03
202.607	3.29
202.994	-27.23
203.38	14.95
203.767	12.97
204.154	38.92
204.54	10.83
204.927	35.86
205.313	32.41
205.699	57.56
206.086	-26.19
206.472	-3.46
206.858	4.47
207.245	0.81
207.631	20.97
208.017	30.57
208.403	36.03
208.789	49.6
209.175	18.93
209.561	-59.46
209.947	-50.09
210.333	25.32
210.719	12.29
211.105	25.14
211.491	43.56
211.876	7.29
212.262	34.81
212.648	12.79
213.034	5.76
213.419	18.55
213.805	28.73
214.19	-2.64
214.576	14.75
214.961	-9.23
215.346	-13.32
215.732	-1.73
216.117	8.36
216.502	19.06
216.888	2.04
217.273	14.59
217.658	25.04
218.043	17.48
218.428	-7.45
218.813	6.13
219.198	13.8
219.583	-3.27
219.968	10.41
220.353	12.88
220.738	14.11
221.122	6.06
221.507	-3.33
221.892	-7.13
222.276	-3.63
222.661	2.7
223.046	-0.61
223.43	6.05
223.815	2.56
224.199	9.08
224.583	4.73
224.968	4.09
225.352	-2.39
225.736	9.38
226.121	2.61
226.505	-1.91
226.889	2.25
227.273	1.32
227.657	8.46
228.041	5.76
228.425	3.58
228.809	4.12
229.193	3.22
229.577	4.61
229.961	5.18
230.344	3.17
230.728	3.9
231.112	4.11
231.495	3.83
231.879	4.46
232.263	3.59
232.646	4.88
233.03	3.63
233.413	1.96
233.797	3.08
234.18	5.46
234.563	2.61
234.946	3.49
235.33	4.81
235.713	3.33
236.096	5.15
236.479	2.76
236.862	2.99
237.245	3.24
237.628	1.26
238.011	3.65
238.394	4.01
238.777	3.8
239.16	5.67
239.543	3.02
239.925	6.1
240.308	3.33
240.691	3.57
241.073	4.26
241.456	3.69
241.838	3.38
242.221	2.7
242.603	3.82
242.986	3.22
243.368	3.43
243.75	3.84
244.133	3.52
244.515	3.78
244.897	4.33
245.279	3.57
245.661	4.19
246.043	3.78
246.425	3.02
246.807	3.74
247.189	4.07
247.571	3.4
247.953	3.77
248.335	3.6
248.717	3.51
249.098	3.56
249.48	3.54
249.862	3.31
250.243	3.35
250.625	3.96
251.006	3.4
251.388	4.38
251.769	4.27
252.151	3.52
252.532	3.48
252.913	3.95
253.295	2.73
253.676	3.85
254.057	3.97
254.438	3.81
254.819	4.62
255.2	4.26
255.581	4.24
255.962	3.3
256.343	3.14
256.724	3.67
257.105	3.19
257.486	2.86
257.867	3.4
258.247	3.84
258.628	4.56
259.009	3.97
259.389	3.51
259.77	3.94
260.15	3.53
260.531	3.5
260.911	3.72
261.292	3.67
261.672	3.6
262.052	3.59
262.432	3.38
262.813	3.7
263.193	3.63
263.573	4.05
263.953	3.52
264.333	3.42
264.713	2.94
265.093	3.89
265.473	3.66
265.853	3.74
266.233	5.09
266.612	3.68
266.992	4.05
267.372	3.64
267.752	3.74
268.131	4
268.511	3.89
268.89	3.98
269.27	3.65
269.649	3.52
270.029	3.71
270.408	4.37
270.787	3.52
271.167	3.63
271.546	3.16
271.925	3.95
272.304	3.78
272.683	4.25
273.062	3.59
273.441	3.46
273.82	3.68
274.199	4.02
274.578	3.73
274.957	3.51
275.336	4.04
275.715	3.58
276.093	3.52
276.472	3.87
276.851	3.66
277.229	3.33
277.608	3.35
277.986	3.23
278.365	4.01
278.743	3.56
279.122	3.31
279.5	4.19
279.878	3.59
280.257	3.31
280.635	3.62
281.013	3.55
281.391	3.78
281.769	4
282.147	4
282.525	3.71
282.903	3.66
283.281	3.26
283.659	3.26
284.037	3.57
284.415	3.78
284.792	3.42
285.17	3.14
285.548	3.32
285.925	3.95
286.303	3.63
286.68	3.98
287.058	3.75
287.435	3.79
287.813	3.71
288.19	3.76
288.567	3.62
288.945	4.04
289.322	3.97
289.699	3.81
290.076	4.1
290.453	4.05
290.83	3.67
291.207	3.95
291.584	3.75
291.961	3.94
292.338	3.97
292.715	3.77
293.092	3.92
293.469	3.9
293.845	4.14
294.222	4.39
294.599	4.56
294.975	3.58
295.352	4.06
295.728	4.16
296.105	4.13
296.481	4.44
296.858	4.91
297.234	4.17
297.61	4.26
297.986	4.04
298.363	4.15
298.739	4.66
299.115	4.47
299.491	4.47
299.867	4.32
300.243	4.32
300.619	4.26
300.995	4.76
301.371	4.83
301.746	4.61
302.122	4.65
302.498	4.88
302.874	5.23
303.249	4.82
303.625	5.32
304	4.94
304.376	5.28
304.751	5.58
305.127	4.83
305.502	5.02
305.878	5.1
306.253	5.07
306.628	4.87
307.003	5.11
307.378	5.22
307.754	5.06
308.129	5.07
308.504	5.84
308.879	5.09
309.254	5.3
309.629	5.37
310.003	5.56
310.378	5.5
310.753	5.2
311.128	5.49
311.502	5.56
311.877	6.02
312.252	5.43
312.626	5.73
313.001	5.59
313.375	5.97
313.75	5.67
314.124	5.87
314.498	5.74
314.873	5.95
315.247	5.56
315.621	5.98
315.995	6.33
316.369	5.87
316.743	6.07
317.117	6.52
317.491	6.21
317.865	6.5
318.239	6.67
318.613	6.37
318.987	6.19
319.361	6.4
319.734	6.57
320.108	6.62
320.482	6.82
320.855	6.18
321.229	6.74
321.602	7.09
321.976	6.52
322.349	7.01
322.723	6.87
323.096	7.01
323.469	6.92
323.843	7.02
324.216	6.89
324.589	6.6
324.962	6.97
325.335	6.69
325.708	7.28
326.081	7.14
326.454	7.05
326.827	7.16
327.2	6.72
327.573	7.31
327.945	7.23
328.318	7.26
328.691	7.32
329.063	7.23
329.436	7.12
329.809	7.46
330.181	7.98
330.553	7.22
330.926	8.02
331.298	7.87
331.671	7.91
332.043	7.45
332.415	7.71
332.787	7.69
333.159	8.29
333.532	8.06
333.904	8.25
334.276	8.01
334.648	7.63
335.02	8.13
335.391	8.2
335.763	8.13
336.135	7.92
336.507	8.38
336.879	8.27
337.25	8.53
337.622	8.28
337.993	8.21
338.365	8.29
338.736	8.28
339.108	8.55
339.479	8.04
339.851	9.13
340.222	8.79
340.593	9
340.964	8.5
341.336	8.76
341.707	8.82
342.078	9.06
342.449	9.22
342.82	8.78
343.191	8.83
343.562	9.17
343.933	8.8
344.303	8.66
344.674	9.48
345.045	8.98
345.416	9.27
345.786	9.39
346.157	9.54
346.527	9.31
346.898	9.14
347.268	9.26
347.639	9.32
348.009	9.43
348.38	9.62
348.75	9.84
349.12	9.55
349.49	9.54
349.861	9.53
350.231	9.66
350.601	9.57
350.971	9.72
351.341	9.79
351.711	9.77
352.081	9.8
352.45	10.26
352.82	10.05
353.19	9.95
353.56	9.87
353.929	10.01
354.299	9.88
354.669	10.27
355.038	10.48
355.408	10.34
355.777	10.21
356.147	10.39
356.516	10.55
356.885	10.5
357.254	10.69
357.624	10.47
357.993	10.46
358.362	10.5
358.731	10.42
359.1	10.37
359.469	10.65
359.838	10.74
360.207	10.7
360.576	10.68
360.945	10.94
361.314	10.84
361.682	11.09
362.051	10.73
362.42	10.68
362.788	10.93
363.157	11.07
363.525	10.87
363.894	10.97
364.262	10.93
364.631	11.15
364.999	11.19
365.367	10.92
365.735	11.12
366.104	11.17
366.472	11.42
366.84	11.36
367.208	11.86
367.576	11.44
367.944	11.39
368.312	11.44
368.68	12.11
369.048	11.48
369.416	11.63
369.783	11.82
370.151	11.8
370.519	11.93
370.886	11.88
371.254	11.96
371.621	12.13
371.989	12.39
372.356	12.39
372.724	12.26
373.091	12.23
373.458	12.02
373.826	12.29
374.193	12.47
374.56	12.69
374.927	12.64
375.294	12.57
375.661	12.53
376.028	12.57
376.395	12.83
376.762	12.73
377.129	12.63
377.496	12.46
377.863	12.45
378.229	12.74
378.596	12.77
378.963	12.8
379.329	12.63
379.696	12.71
380.062	13.15
380.429	12.75
380.795	13.16
381.161	13.23
381.528	13.01
381.894	12.93
382.26	13.05
382.626	12.99
382.993	13.51
383.359	13.24
383.725	13.7
384.091	13.64
384.457	13.41
384.823	13.29
385.188	13.66
385.554	13.83
385.92	13.69
386.286	13.65
386.651	13.88
387.017	13.52
387.383	13.6
387.748	13.6
388.114	13.99
388.479	14.04
388.845	14.07
389.21	13.71
389.575	13.9
389.94	14.16
390.306	14.13
390.671	14.65
391.036	14.46
391.401	14.34
391.766	14.36
392.131	14.33
392.496	14.32
392.861	14.16
393.226	14.46
393.591	14.27
393.956	14.53
394.32	14.42
394.685	14.61
395.05	14.63
395.414	14.88
395.779	14.84
396.143	14.77
396.508	14.93
396.872	14.84
397.236	14.98
397.601	15.07
397.965	14.96
398.329	15.1
398.694	15.1
399.058	15.04
399.422	15.15
399.786	15.34
400.15	15.51
400.514	15.29
400.878	15.25
401.242	15.45
401.605	15.59
401.969	15.49
402.333	15.43
402.697	15.32
403.06	15.5
403.424	15.67
403.787	15.69
404.151	15.66
404.514	15.73
404.878	15.8
405.241	15.64
405.604	15.98
405.968	15.78
406.331	15.7
406.694	15.75
407.057	15.82
407.42	15.71
407.783	16
408.146	15.92
408.509	16.16
408.872	16.13
409.235	15.9
409.598	16.49
409.961	16.23
410.323	16.69
410.686	16.33
411.049	16.4
411.411	16.45
411.774	16.47
412.136	16.56
412.499	16.73
412.861	16.79
413.223	16.86
413.586	16.73
413.948	16.74
414.31	16.72
414.672	16.85
415.035	16.87
415.397	17.06
415.759	17.03
416.121	16.99
416.483	17.15
416.845	17.05
417.206	16.93
417.568	16.89
417.93	17
418.292	17.25
418.653	16.98
419.015	16.97
419.377	17.26
419.738	17.2
420.1	17.21
420.461	17.27
420.822	17.35
421.184	17.3
421.545	17.19
421.906	17.29
422.267	17.35
422.629	17.07
422.99	17.23
423.351	17.36
423.712	17.4
424.073	17.36
424.434	17.43
424.795	17.56
425.155	17.51
425.516	17.5
425.877	17.48
426.238	17.48
426.598	17.67
426.959	17.88
427.32	17.91
427.68	17.86
428.041	17.93
428.401	18.09
428.761	18.16
429.122	18.25
429.482	18.2
429.842	18.17
430.202	18.59
430.563	18.52
430.923	18.51
431.283	18.52
431.643	18.43
432.003	18.57
432.363	18.72
432.722	18.74
433.082	18.73
433.442	18.82
433.802	18.74
434.161	18.56
434.521	18.94
434.881	18.73
435.24	18.77
435.6	18.85
435.959	18.86
436.319	19.01
436.678	18.92
437.037	19.09
437.396	18.95
437.756	19.22
438.115	19.21
438.474	18.93
438.833	19.15
439.192	19.19
439.551	19.22
439.91	19.31
440.269	19.4
440.628	19.32
440.987	19.28
441.345	19.26
441.704	19.33
442.063	19.2
442.421	19.36
442.78	19.36
443.138	19.4
443.497	19.52
443.855	19.58
444.214	19.65
444.572	19.62
444.93	19.85
445.288	19.83
445.647	19.95
446.005	20.04
446.363	19.94
446.721	19.74
447.079	19.8
447.437	19.9
447.795	19.81
448.153	19.8
448.51	19.82
448.868	19.95
449.226	19.93
449.584	20.04
449.941	20.07
450.299	20.2
450.656	20.31
451.014	20.17
451.371	20.51
451.729	20.55
452.086	20.55
452.443	20.65
452.801	20.7
453.158	20.9
453.515	20.59
453.872	20.61
454.229	20.63
454.586	20.82
454.943	20.86
455.3	20.89
455.657	20.86
456.014	21.03
456.371	21.02
456.727	21.06
457.084	21.03
457.441	21.41
457.797	21.25
458.154	21.41
458.51	21.35
458.867	21.39
459.223	21.23
459.58	21.23
459.936	21.48
460.292	21.31
460.648	21.31
461.005	21.34
461.361	21.08
461.717	21.13
462.073	21.23
462.429	21.31
462.785	21.36
463.141	21.5
463.496	21.46
463.852	21.62
464.208	21.86
464.564	21.83
464.919	21.83
465.275	22.03
465.631	22
465.986	22.21
466.342	22.08
466.697	22.16
467.052	22.11
467.408	22.24
467.763	22.02
468.118	22.34
468.473	22.17
468.829	22.16
469.184	22.37
469.539	22.36
469.894	22.35
470.249	22.3
470.603	22.43
470.958	22.66
471.313	22.57
471.668	22.53
472.023	22.63
472.377	22.72
472.732	22.49
473.086	22.99
473.441	22.79
473.795	22.88
474.15	22.91
474.504	22.94
474.859	22.94
475.213	23.06
475.567	23.14
475.921	23.06
476.275	22.99
476.63	23.14
476.984	23.25
477.338	23.15
477.692	23.13
478.045	23.34
478.399	23.24
478.753	23.27
479.107	23.19
479.461	23.29
479.814	23.5
480.168	23.37
480.521	23.39
480.875	23.41
481.228	23.42
481.582	23.46
481.935	23.56
482.289	23.24
482.642	23.36
482.995	23.65
483.348	23.43
483.701	23.49
484.055	23.38
484.408	23.31
484.761	23.13
485.114	22.87
485.466	22.76
485.819	22.88
486.172	23
486.525	23.14
486.878	23.18
487.23	23.34
487.583	23.38
487.936	23.46
488.288	23.39
488.641	23.52
488.993	23.35
489.345	23.41
489.698	23.44
490.05	23.47
490.402	23.55
490.754	23.65
491.107	23.71
491.459	23.88
491.811	24.14
492.163	24.06
492.515	24
492.866	23.73
493.218	23.81
493.57	23.79
493.922	24.05
494.274	24.06
494.625	24.28
494.977	24.34
495.328	24.51
495.68	24.67
496.031	24.86
496.383	24.91
496.734	25.08
497.086	24.8
497.437	24.98
497.788	25.06
498.139	24.83
498.49	24.93
498.842	24.87
499.193	24.85
499.544	25.02
499.894	25.12
500.245	25.1
500.596	25.09
500.947	25.35
501.298	25.44
501.648	25.5
501.999	25.41
502.35	25.63
502.7	25.59
503.051	25.76
503.401	25.69
503.752	25.71
504.102	25.72
504.452	25.89
504.803	25.86
505.153	25.86
505.503	25.88
505.853	25.74
506.203	25.91
506.553	25.88
506.903	26
507.253	25.92
507.603	25.99
507.953	26.26
508.303	26.19
508.652	26.26
509.002	26.2
509.352	26.1
509.701	26.17
510.051	26.15
510.4	26.08
510.75	26.02
511.099	26.36
511.449	26.38
511.798	26.23
512.147	26.31
512.496	26.25
512.846	26.59
513.195	26.44
513.544	26.47
513.893	26.56
514.242	26.6
514.591	26.46
514.939	26.57
515.288	26.74
515.637	26.98
515.986	26.99
516.334	26.99
516.683	27.05
517.032	26.91
517.38	27.17
517.729	27.23
518.077	27.23
518.426	27.12
518.774	27.02
519.122	27.03
519.47	27.11
519.819	26.97
520.167	26.88
520.515	27.02
520.863	26.97
521.211	27.01
521.559	27.08
521.907	27.22
522.255	27.24
522.602	27.54
522.95	27.48
523.298	27.51
523.645	27.56
523.993	27.61
524.341	27.78
524.688	27.72
525.036	27.81
525.383	27.86
525.73	27.86
526.078	27.82
526.425	27.83
526.772	27.63
527.119	27.53
527.466	27.55
527.814	27.67
528.161	27.63
528.508	27.79
528.854	27.69
529.201	27.69
529.548	27.67
529.895	27.44
530.242	27.54
530.588	27.6
530.935	27.58
531.282	27.65
531.628	27.59
531.975	27.84
532.321	27.7
532.667	27.98
533.014	28.12
533.36	28.2
533.706	28.19
534.052	28.33
534.399	28.27
534.745	28.04
535.091	28.04
535.437	28.23
535.783	28.25
536.129	28.33
536.474	28.53
536.82	28.62
537.166	28.7
537.512	28.63
537.857	28.75
538.203	28.78
538.549	28.65
538.894	28.89
539.239	29.05
539.585	28.99
539.93	29.24
540.276	29.22
540.621	29.49
540.966	29.47
541.311	29.3
541.656	29.48
542.001	29.28
542.346	29.22
542.691	29.11
543.036	28.83
543.381	29.09
543.726	29.02
544.071	29.14
544.415	29.2
544.76	29.18
545.105	29.27
545.449	29.4
545.794	29.51
546.138	29.71
546.483	29.78
546.827	29.9
547.171	29.83
547.516	29.96
547.86	30.12
548.204	30.02
548.548	29.98
548.892	30.03
549.236	30
549.58	30.05
549.924	30.19
550.268	30.51
550.612	30.38
550.956	30.7
551.3	30.68
551.643	30.69
551.987	30.9
552.33	30.85
552.674	30.84
553.017	30.92
553.361	30.81
553.704	30.94
554.048	30.98
554.391	30.99
554.734	30.88
555.077	30.81
555.42	31.26
555.764	31.04
556.107	30.99
556.45	31.11
556.793	31.41
557.135	31.3
557.478	31.29
557.821	31.64
558.164	31.44
558.507	31.37
558.849	31.6
559.192	31.6
559.534	31.43
559.877	31.51
560.219	31.54
560.562	31.57
560.904	31.6
561.246	31.96
561.589	31.9
561.931	31.97
562.273	31.9
562.615	31.9
562.957	32.05
563.299	31.87
563.641	31.98
563.983	32.05
564.325	32.27
564.667	32.24
565.008	32.13
565.35	32.31
565.692	32.45
566.033	32.33
566.375	32.05
566.716	32.5
567.058	32.29
567.399	32.26
567.741	32.36
568.082	32.39
568.423	32.6
568.764	32.5
569.105	32.41
569.447	32.62
569.788	32.62
570.129	32.59
570.47	32.72
570.811	32.99
571.151	32.83
571.492	32.9
571.833	32.94
572.174	32.96
572.514	33.05
572.855	33.03
573.195	32.88
573.536	33.09
573.876	33.03
574.217	32.89
574.557	32.89
574.898	33.23
575.238	33.05
575.578	33.09
575.918	33.22
576.258	33.36
576.598	33.33
576.938	33.51
577.278	33.39
577.618	33.64
577.958	33.39
578.298	33.44
578.638	33.57
578.977	33.63
579.317	33.59
579.657	33.45
579.996	33.84
580.336	33.91
580.675	33.81
581.014	33.61
581.354	33.71
581.693	33.82
582.032	34.01
582.372	34.32
582.711	33.96
583.05	34.4
583.389	34.15
583.728	34.29
584.067	34.53
584.406	34.04
584.745	34.64
585.083	34.59
585.422	34.47
585.761	34.51
586.1	34.57
586.438	34.87
586.777	34.55
587.115	34.52
587.454	34.46
587.792	34.59
588.13	34.96
588.469	34.99
588.807	34.76
589.145	35.05
589.483	34.99
589.821	34.94
590.159	34.95
590.497	35.18
590.835	34.72
591.173	35.11
591.511	35.12
591.849	35.28
592.187	35.02
592.524	35.07
592.862	35.01
593.2	35.1
593.537	35.78
593.875	35.37
594.212	35.65
594.55	35.52
594.887	35.62
595.224	35.58
595.561	35.37
595.899	35.67
596.236	35.88
596.573	35.59
596.91	35.69
597.247	35.78
597.584	35.54
597.921	35.78
598.258	35.78
598.594	35.68
598.931	35.88
599.268	35.52
599.604	35.69
599.941	35.64
600.277	35.65
600.614	35.94
600.95	35.82
601.287	36.06
601.623	36.17
601.959	36.21
602.296	36.24
602.632	36.38
602.968	36.23
603.304	36.37
603.64	36.41
603.976	36.39
604.312	36.52
604.648	36.57
604.984	36.48
605.319	36.41
605.655	36.61
605.991	36.47
606.326	36.35
606.662	36.53
606.998	36.45
607.333	36.57
607.668	36.39
608.004	36.57
608.339	36.7
608.674	36.71
609.01	37.04
609.345	36.96
609.68	36.97
610.015	36.82
610.35	37.18
610.685	37.05
611.02	37.27
611.355	37.14
611.689	36.99
612.024	37.16
612.359	36.92
612.694	37.34
613.028	36.79
613.363	37.32
613.697	37.21
614.032	37.53
614.366	37.34
614.7	37.42
615.035	37.43
615.369	37.64
615.703	37.36
616.037	38.14
616.371	37.71
616.705	37.75
617.039	38.08
617.373	38.05
617.707	37.8
618.041	37.79
618.375	37.92
618.709	38.37
619.042	38.02
619.376	37.83
619.71	38.04
620.043	37.88
620.377	38.25
620.71	38.57
621.043	38.34
621.377	38.49
621.71	38.47
622.043	38.31
622.376	38.25
622.709	38.39
623.043	38.41
623.376	38.6
623.709	38.54
624.041	38.43
624.374	38.46
624.707	38.7
625.04	38.65
625.373	38.55
625.705	38.45
626.038	38.46
626.37	39.23
626.703	39.08
627.035	38.9
627.368	38.61
627.7	39.18
628.032	38.71
628.365	38.95
628.697	39.03
629.029	39.13
629.361	38.94
629.693	38.96
630.025	39.23
630.357	39.1
630.689	39.09
631.021	39.25
631.353	39.52
631.684	39.08
632.016	39.08
632.348	39.61
632.679	39.76
633.011	39.54
633.342	39.26
633.674	39.11
634.005	39.29
634.336	39.19
634.668	39.67
634.999	39.56
635.33	39.4
635.661	40.1
635.992	39.33
636.323	39.84
636.654	39.72
636.985	39.7
637.316	39.85
637.647	40.03
637.977	39.45
638.308	39.47
638.639	39.82
638.969	39.63
639.3	40.34
639.63	40.14
639.961	40.25
640.291	40.17
640.622	39.97
640.952	40.33
641.282	40.21
641.612	40.81
641.943	40.59
642.273	39.52
642.603	40.39
642.933	40.49
643.263	40.48
643.592	40.33
643.922	40.9
644.252	40.52
644.582	40.76
644.911	40.49
645.241	40.07
645.571	40.34
645.9	40.87
646.23	40.56
646.559	40.77
646.888	40.33
647.218	40.89
647.547	41.08
647.876	40.65
648.205	40.28
648.534	41.13
648.863	40.95
649.192	41.64
649.521	41.02
649.85	41.04
650.179	41.42
650.508	40.95
650.837	41.17
651.165	40.99
651.494	41.27
651.822	41.12
652.151	40.65
652.479	40.72
652.808	40.61
653.136	41.16
653.465	40.97
653.793	41.49
654.121	41.09
654.449	41.54
654.777	41.1
655.105	41.39
655.433	41.99
655.761	41.76
656.089	41.04
656.417	41.08
656.745	41.74
657.073	41.84
657.4	41.79
657.728	41.4
658.056	41.43
658.383	41.91
658.711	41.97
659.038	41.95
659.365	41.46
659.693	41.14
660.02	41.75
660.347	41.84
660.674	41.98
661.001	41.9
661.329	42.09
661.656	42.27
661.982	42.12
662.309	42.49
662.636	42.3
662.963	41.94
663.29	42.31
663.616	42.27
663.943	42.25
664.27	42.37
664.596	41.34
664.923	41.94
665.249	42.32
665.576	42.15
665.902	42.07
666.228	42.26
666.554	42.39
666.881	42.8
667.207	43.04
667.533	42.71
667.859	42.46
668.185	43.1
668.511	42.33
668.837	42.52
669.162	42.68
669.488	43.26
669.814	42.97
670.139	42.75
670.465	42.61
670.791	42.84
671.116	42.56
671.442	42.82
