Data from 0014_chest_Reflection__2__22.txt Node

Date: Mon Oct 17 14:36:03 CDT 2022
User: ToomeyLab
Spectrometer: FLMS14357
Trigger mode: 0
Integration Time (sec): 1.000000E-2
Scans to average: 100
Electric dark correction enabled: true
Nonlinearity correction enabled: false
Boxcar width: 0
XAxis mode: Wavelengths
Number of Pixels in Spectrum: 2048
>>>>>Begin Spectral Data<<<<<
189.047	-33.13
189.435	-33.13
189.823	-33.13
190.211	-74.25
190.599	119.17
190.987	-423.48
191.375	160.16
191.763	1719.2
192.151	2428.91
192.538	22.16
192.926	1303.65
193.314	102.36
193.702	12.05
194.089	-45.5
194.477	380.47
194.864	177.72
195.252	93.23
195.639	74.05
196.027	49.35
196.414	-96.22
196.801	46.6
197.189	145.27
197.576	89.25
197.963	39.33
198.351	-175.25
198.738	0.99
199.125	-33.11
199.512	-24.75
199.899	11.03
200.286	-30.26
200.673	-46.07
201.06	64.1
201.447	5.19
201.833	52.38
202.22	38.37
202.607	-6.32
202.994	35.62
203.38	19.85
203.767	34.05
204.154	51.77
204.54	-1.61
204.927	15.45
205.313	-28.04
205.699	29.16
206.086	-46.35
206.472	13.03
206.858	-8.43
207.245	26.33
207.631	13.19
208.017	35.58
208.403	44.61
208.789	22.88
209.175	19.8
209.561	-35.79
209.947	-28.93
210.333	39.84
210.719	45.04
211.105	18.04
211.491	76.75
211.876	6.46
212.262	41.25
212.648	3.09
213.034	-11.59
213.419	14.42
213.805	-1
214.19	23.71
214.576	27.05
214.961	25.55
215.346	10.87
215.732	-7.97
216.117	16.59
216.502	3.79
216.888	24.59
217.273	8.35
217.658	37.58
218.043	-16.21
218.428	-0.91
218.813	22.65
219.198	5.3
219.583	9.1
219.968	-5.98
220.353	-11.3
220.738	2.73
221.122	10.93
221.507	-0.7
221.892	0.11
222.276	1.13
222.661	9.54
223.046	14.26
223.43	5.99
223.815	4.18
224.199	11.26
224.583	4.8
224.968	-3.73
225.352	-4.29
225.736	7.52
226.121	4.2
226.505	-1.29
226.889	7.48
227.273	5.69
227.657	4.85
228.041	2.84
228.425	5.09
228.809	4.83
229.193	2.67
229.577	5.07
229.961	6.22
230.344	3.92
230.728	3.94
231.112	3.37
231.495	4.56
231.879	4.74
232.263	4.39
232.646	4.48
233.03	4.68
233.413	3.24
233.797	4.48
234.18	4.38
234.563	0.32
234.946	4.8
235.33	4.26
235.713	4.34
236.096	5.06
236.479	3.85
236.862	5.32
237.245	4.84
237.628	3.37
238.011	5.21
238.394	4.92
238.777	4.67
239.16	5.94
239.543	4.81
239.925	3.67
240.308	4.93
240.691	4.55
241.073	4.23
241.456	4.14
241.838	4.81
242.221	4.12
242.603	4.01
242.986	3.69
243.368	4.43
243.75	4.13
244.133	4.31
244.515	4.54
244.897	4.03
245.279	4.69
245.661	4.48
246.043	4.59
246.425	3.44
246.807	3.38
247.189	4.75
247.571	4.5
247.953	4.31
248.335	4.21
248.717	4.17
249.098	4.26
249.48	4.6
249.862	4.15
250.243	4.16
250.625	4.39
251.006	3.91
251.388	4.12
251.769	4.26
252.151	4.54
252.532	3.8
252.913	5.13
253.295	4.09
253.676	4.63
254.057	4.58
254.438	4.51
254.819	5.06
255.2	4.94
255.581	4
255.962	3.53
256.343	3.8
256.724	3.58
257.105	4.27
257.486	3.3
257.867	3.3
258.247	3.78
258.628	4.61
259.009	4.21
259.389	4.04
259.77	4.16
260.15	4.25
260.531	3.94
260.911	4.2
261.292	4.01
261.672	3.76
262.052	4.15
262.432	3.89
262.813	4.12
263.193	3.72
263.573	4.54
263.953	4.14
264.333	3.85
264.713	4.15
265.093	4.1
265.473	4.23
265.853	3.79
266.233	5.03
266.612	4.05
266.992	4.52
267.372	4.14
267.752	4.11
268.131	4.51
268.511	3.69
268.89	3.67
269.27	3.85
269.649	3.99
270.029	3.96
270.408	4.35
270.787	3.51
271.167	3.74
271.546	4.02
271.925	3.83
272.304	3.98
272.683	3.97
273.062	3.76
273.441	3.99
273.82	4.11
274.199	4.18
274.578	4.14
274.957	4.13
275.336	4.22
275.715	3.66
276.093	4.14
276.472	3.82
276.851	4.07
277.229	3.73
277.608	3.92
277.986	3.61
278.365	4.11
278.743	3.81
279.122	3.96
279.5	3.78
279.878	3.74
280.257	4.16
280.635	4.01
281.013	3.96
281.391	4.05
281.769	3.75
282.147	3.9
282.525	3.83
282.903	3.31
283.281	3.88
283.659	4.17
284.037	3.51
284.415	3.97
284.792	3.51
285.17	3.3
285.548	3.44
285.925	4.21
286.303	3.79
286.68	4.07
287.058	3.97
287.435	4.08
287.813	3.75
288.19	3.77
288.567	3.74
288.945	3.61
289.322	4.53
289.699	4.02
290.076	3.78
290.453	3.88
290.83	3.84
291.207	4.07
291.584	3.9
291.961	3.91
292.338	3.91
292.715	3.74
293.092	3.94
293.469	3.65
293.845	3.92
294.222	4.33
294.599	4.12
294.975	3.92
295.352	3.78
295.728	3.95
296.105	4.04
296.481	3.96
296.858	4.52
297.234	3.74
297.61	3.6
297.986	3.88
298.363	3.91
298.739	4.3
299.115	4.1
299.491	4.22
299.867	4.26
300.243	3.91
300.619	3.9
300.995	4.07
301.371	4.4
301.746	3.88
302.122	4.12
302.498	4.21
302.874	4.3
303.249	4.41
303.625	4.37
304	4.44
304.376	4.17
304.751	4.68
305.127	4.53
305.502	4.24
305.878	4.29
306.253	4.12
306.628	4.16
307.003	4.57
307.378	4.81
307.754	3.95
308.129	4.43
308.504	4.39
308.879	4.32
309.254	4.33
309.629	4.32
310.003	4.14
310.378	4.25
310.753	4.43
311.128	4.39
311.502	4.4
311.877	4.48
312.252	4.43
312.626	4.2
313.001	4.08
313.375	4.11
313.75	4.34
314.124	4.29
314.498	4.54
314.873	4.68
315.247	4.54
315.621	4.91
315.995	4.33
316.369	4.22
316.743	4.45
317.117	4.9
317.491	4.36
317.865	5.03
318.239	5.12
318.613	4.66
318.987	4.36
319.361	4.17
319.734	4.39
320.108	4.31
320.482	4.78
320.855	4.14
321.229	4.35
321.602	4.19
321.976	4.1
322.349	4.55
322.723	4.79
323.096	4.32
323.469	4.32
323.843	4.55
324.216	4.62
324.589	3.8
324.962	4.78
325.335	4.31
325.708	4.87
326.081	4.53
326.454	4.66
326.827	4.27
327.2	4.74
327.573	4.39
327.945	3.84
328.318	4.15
328.691	3.89
329.063	4.57
329.436	4.4
329.809	4.79
330.181	4.86
330.553	4.21
330.926	4.42
331.298	4.7
331.671	4.69
332.043	4.88
332.415	4.26
332.787	4.41
333.159	4.8
333.532	4.33
333.904	4.79
334.276	4.52
334.648	4.49
335.02	4.46
335.391	5.01
335.763	4.7
336.135	4.29
336.507	5.11
336.879	4.46
337.25	4.87
337.622	4.43
337.993	4.35
338.365	4.61
338.736	4.59
339.108	4.49
339.479	4.13
339.851	4.44
340.222	4.46
340.593	4.81
340.964	4.64
341.336	4.76
341.707	5.02
342.078	4.98
342.449	4.64
342.82	4.46
343.191	4.51
343.562	4.56
343.933	4.89
344.303	4.76
344.674	4.54
345.045	4.83
345.416	4.51
345.786	4.65
346.157	4.6
346.527	4.48
346.898	4.86
347.268	4.96
347.639	4.23
348.009	4.58
348.38	4.53
348.75	4.66
349.12	4.56
349.49	4.31
349.861	4.55
350.231	4.65
350.601	4.38
350.971	4.53
351.341	4.56
351.711	4.6
352.081	4.76
352.45	5.18
352.82	4.73
353.19	4.45
353.56	4.26
353.929	4.6
354.299	4.41
354.669	4.92
355.038	4.81
355.408	4.54
355.777	4.54
356.147	4.42
356.516	4.8
356.885	4.72
357.254	4.79
357.624	4.73
357.993	4.95
358.362	4.54
358.731	4.52
359.1	4.61
359.469	4.77
359.838	4.68
360.207	4.53
360.576	4.38
360.945	4.98
361.314	4.74
361.682	4.76
362.051	4.6
362.42	4.54
362.788	4.51
363.157	4.76
363.525	4.64
363.894	4.79
364.262	4.69
364.631	4.78
364.999	4.7
365.367	4.58
365.735	4.78
366.104	4.45
366.472	4.23
366.84	4.78
367.208	4.8
367.576	4.74
367.944	4.44
368.312	4.47
368.68	4.92
369.048	4.43
369.416	4.9
369.783	4.67
370.151	4.47
370.519	4.97
370.886	5.02
371.254	4.64
371.621	4.68
371.989	5.04
372.356	4.86
372.724	4.58
373.091	4.9
373.458	4.79
373.826	4.88
374.193	4.97
374.56	4.69
374.927	4.91
375.294	4.65
375.661	4.69
376.028	4.97
376.395	4.77
376.762	4.78
377.129	4.51
377.496	4.64
377.863	4.31
378.229	4.81
378.596	4.65
378.963	4.7
379.329	4.68
379.696	4.83
380.062	5.04
380.429	4.4
380.795	4.93
381.161	4.69
381.528	4.51
381.894	4.58
382.26	4.82
382.626	4.75
382.993	4.8
383.359	4.59
383.725	4.63
384.091	4.83
384.457	4.75
384.823	4.54
385.188	4.72
385.554	4.9
385.92	4.82
386.286	4.88
386.651	4.88
387.017	4.54
387.383	4.87
387.748	4.54
388.114	4.59
388.479	4.81
388.845	4.99
389.21	4.56
389.575	4.8
389.94	4.95
390.306	5.02
390.671	4.97
391.036	4.8
391.401	4.98
391.766	4.99
392.131	5.05
392.496	4.99
392.861	4.75
393.226	4.85
393.591	4.78
393.956	4.7
394.32	5.06
394.685	4.66
395.05	4.93
395.414	5.03
395.779	4.73
396.143	4.8
396.508	4.68
396.872	4.94
397.236	4.83
397.601	4.67
397.965	4.9
398.329	4.95
398.694	4.9
399.058	4.95
399.422	4.87
399.786	5.03
400.15	4.85
400.514	4.82
400.878	4.87
401.242	4.79
401.605	5.18
401.969	4.82
402.333	4.85
402.697	4.77
403.06	4.75
403.424	5.01
403.787	4.73
404.151	5.09
404.514	4.79
404.878	4.99
405.241	4.93
405.604	5.15
405.968	4.96
406.331	4.79
406.694	4.85
407.057	4.77
407.42	4.73
407.783	4.96
408.146	5.03
408.509	5.15
408.872	4.96
409.235	4.82
409.598	4.74
409.961	4.85
410.323	4.95
410.686	5.02
411.049	4.77
411.411	5.05
411.774	5.04
412.136	5.01
412.499	5.01
412.861	5.01
413.223	4.95
413.586	4.9
413.948	5.23
414.31	4.98
414.672	4.98
415.035	5.02
415.397	5.24
415.759	5.15
416.121	4.75
416.483	5.19
416.845	5.02
417.206	4.89
417.568	5.09
417.93	5.1
418.292	5.23
418.653	4.9
419.015	4.94
419.377	4.92
419.738	4.92
420.1	5.11
420.461	4.96
420.822	5
421.184	4.86
421.545	4.95
421.906	4.88
422.267	4.87
422.629	4.89
422.99	4.83
423.351	4.96
423.712	4.9
424.073	4.93
424.434	5
424.795	5.04
425.155	4.98
425.516	4.86
425.877	4.92
426.238	4.91
426.598	4.98
426.959	4.85
427.32	5.07
427.68	4.95
428.041	4.81
428.401	5.1
428.761	5.07
429.122	5.13
429.482	5
429.842	4.89
430.202	5.31
430.563	5.27
430.923	5.15
431.283	5.23
431.643	5.15
432.003	5.07
432.363	5.24
432.722	5.11
433.082	5.07
433.442	5.16
433.802	5.17
434.161	4.97
434.521	5.11
434.881	4.99
435.24	5.13
435.6	5.21
435.959	5.14
436.319	5.08
436.678	4.96
437.037	5.07
437.396	5.08
437.756	5.19
438.115	5.01
438.474	5.14
438.833	4.97
439.192	5.08
439.551	5.02
439.91	5.17
440.269	5.09
440.628	5.11
440.987	5.07
441.345	5.06
441.704	5.1
442.063	5.05
442.421	5.1
442.78	5.1
443.138	5.13
443.497	5.14
443.855	5.15
444.214	5.2
444.572	5.13
444.93	5.17
445.288	5.08
445.647	5.24
446.005	5.43
446.363	5.27
446.721	5.16
447.079	5.13
447.437	5.13
447.795	5.08
448.153	5.17
448.51	5.09
448.868	5.18
449.226	5.14
449.584	5.14
449.941	5.14
450.299	5.23
450.656	5.26
451.014	5.22
451.371	5.21
451.729	5.31
452.086	5.36
452.443	5.4
452.801	5.35
453.158	5.44
453.515	5.21
453.872	5.17
454.229	5.22
454.586	5.22
454.943	5.33
455.3	5.36
455.657	5.11
456.014	5.37
456.371	5.32
456.727	5.31
457.084	5.28
457.441	5.44
457.797	5.39
458.154	5.51
458.51	5.33
458.867	5.39
459.223	5.31
459.58	5.31
459.936	5.32
460.292	5.43
460.648	5.39
461.005	5.26
461.361	5.2
461.717	5.25
462.073	5.27
462.429	5.24
462.785	5.3
463.141	5.53
463.496	5.2
463.852	5.29
464.208	5.61
464.564	5.3
464.919	5.41
465.275	5.37
465.631	5.39
465.986	5.52
466.342	5.39
466.697	5.47
467.052	5.45
467.408	5.33
467.763	5.35
468.118	5.51
468.473	5.51
468.829	5.49
469.184	5.61
469.539	5.36
469.894	5.5
470.249	5.54
470.603	5.57
470.958	5.54
471.313	5.44
471.668	5.51
472.023	5.48
472.377	5.48
472.732	5.24
473.086	5.55
473.441	5.56
473.795	5.63
474.15	5.5
474.504	5.73
474.859	5.51
475.213	5.61
475.567	5.74
475.921	5.47
476.275	5.39
476.63	5.58
476.984	5.7
477.338	5.61
477.692	5.55
478.045	5.66
478.399	5.58
478.753	5.57
479.107	5.59
479.461	5.46
479.814	5.51
480.168	5.49
480.521	5.54
480.875	5.63
481.228	5.47
481.582	5.5
481.935	5.69
482.289	5.36
482.642	5.44
482.995	5.66
483.348	5.67
483.701	5.54
484.055	5.46
484.408	5.57
484.761	5.48
485.114	5.4
485.466	5.31
485.819	5.32
486.172	5.35
486.525	5.33
486.878	5.35
487.23	5.39
487.583	5.46
487.936	5.48
488.288	5.49
488.641	5.46
488.993	5.45
489.345	5.44
489.698	5.41
490.05	5.44
490.402	5.45
490.754	5.47
491.107	5.51
491.459	5.63
491.811	5.7
492.163	5.57
492.515	5.57
492.866	5.53
493.218	5.52
493.57	5.57
493.922	5.61
494.274	5.55
494.625	5.68
494.977	5.68
495.328	5.67
495.68	5.68
496.031	5.71
496.383	5.79
496.734	5.77
497.086	5.76
497.437	5.77
497.788	5.89
498.139	5.7
498.49	5.8
498.842	5.85
499.193	5.63
499.544	5.87
499.894	5.84
500.245	5.77
500.596	5.89
500.947	5.96
501.298	5.93
501.648	5.95
501.999	5.84
502.35	5.95
502.7	6.03
503.051	6.02
503.401	6.13
503.752	6.05
504.102	6
504.452	5.93
504.803	6
505.153	6
505.503	6.03
505.853	6.05
506.203	6
506.553	6.09
506.903	6
507.253	5.95
507.603	5.97
507.953	6.16
508.303	6.1
508.652	6.04
509.002	6.08
509.352	6.03
509.701	6.21
510.051	6.13
510.4	6
510.75	6.04
511.099	6.11
511.449	6.12
511.798	6.09
512.147	6.13
512.496	6.08
512.846	6.08
513.195	6.08
513.544	6.14
513.893	6.11
514.242	6.16
514.591	6.1
514.939	6.22
515.288	6.2
515.637	6.22
515.986	6.23
516.334	6.31
516.683	6.33
517.032	6.38
517.38	6.24
517.729	6.41
518.077	6.3
518.426	6.25
518.774	6.32
519.122	6.32
519.47	6.38
519.819	6.36
520.167	6.28
520.515	6.26
520.863	6.31
521.211	6.28
521.559	6.32
521.907	6.46
522.255	6.34
522.602	6.39
522.95	6.5
523.298	6.38
523.645	6.39
523.993	6.47
524.341	6.66
524.688	6.51
525.036	6.58
525.383	6.54
525.73	6.56
526.078	6.51
526.425	6.51
526.772	6.49
527.119	6.52
527.466	6.44
527.814	6.49
528.161	6.5
528.508	6.46
528.854	6.41
529.201	6.51
529.548	6.44
529.895	6.45
530.242	6.43
530.588	6.39
530.935	6.41
531.282	6.42
531.628	6.43
531.975	6.5
532.321	6.46
532.667	6.65
533.014	6.63
533.36	6.72
533.706	6.77
534.052	6.81
534.399	6.68
534.745	6.64
535.091	6.62
535.437	6.71
535.783	6.73
536.129	6.75
536.474	6.87
536.82	6.86
537.166	6.87
537.512	6.92
537.857	6.93
538.203	6.88
538.549	6.93
538.894	6.93
539.239	7
539.585	6.9
539.93	7.06
540.276	6.92
540.621	7.03
540.966	7.14
541.311	7.07
541.656	7.28
542.001	7.12
542.346	7.14
542.691	7.12
543.036	6.94
543.381	7
543.726	7.02
544.071	7.04
544.415	7.07
544.76	7.09
545.105	7.1
545.449	7.27
545.794	7.11
546.138	7.29
546.483	7.32
546.827	7.34
547.171	7.41
547.516	7.41
547.86	7.6
548.204	7.38
548.548	7.49
548.892	7.45
549.236	7.54
549.58	7.44
549.924	7.53
550.268	7.66
550.612	7.62
550.956	7.69
551.3	7.82
551.643	7.83
551.987	7.79
552.33	7.7
552.674	7.72
553.017	7.76
553.361	7.81
553.704	7.86
554.048	7.74
554.391	7.93
554.734	7.9
555.077	7.9
555.42	7.92
555.764	7.92
556.107	7.94
556.45	7.91
556.793	8.06
557.135	8.16
557.478	8.07
557.821	8.25
558.164	8.16
558.507	8.17
558.849	8.04
559.192	8.07
559.534	8.21
559.877	8.25
560.219	8.13
560.562	8
560.904	8.4
561.246	8.4
561.589	8.46
561.931	8.48
562.273	8.34
562.615	8.37
562.957	8.5
563.299	8.45
563.641	8.51
563.983	8.59
564.325	8.69
564.667	8.61
565.008	8.58
565.35	8.46
565.692	8.75
566.033	8.71
566.375	8.59
566.716	8.74
567.058	8.65
567.399	8.8
567.741	8.68
568.082	8.78
568.423	8.82
568.764	8.77
569.105	8.8
569.447	8.86
569.788	8.96
570.129	9.02
570.47	8.89
570.811	8.99
571.151	9.17
571.492	9.04
571.833	8.94
572.174	9.22
572.514	9.12
572.855	9.15
573.195	9.01
573.536	9.11
573.876	9.17
574.217	9.13
574.557	9.11
574.898	9.14
575.238	9.11
575.578	9.3
575.918	9.45
576.258	9.32
576.598	9.41
576.938	9.51
577.278	9.32
577.618	9.45
577.958	9.45
578.298	9.45
578.638	9.65
578.977	9.76
579.317	9.37
579.657	9.58
579.996	9.7
580.336	9.6
580.675	9.82
581.014	9.45
581.354	9.78
581.693	9.9
582.032	9.83
582.372	10.11
582.711	9.88
583.05	9.97
583.389	9.93
583.728	10.2
584.067	10
584.406	10.06
584.745	10.19
585.083	10.28
585.422	10.23
585.761	10.18
586.1	10.29
586.438	10.41
586.777	10.3
587.115	10.15
587.454	10.44
587.792	10.54
588.13	10.48
588.469	10.57
588.807	10.37
589.145	10.5
589.483	10.5
589.821	10.41
590.159	10.57
590.497	10.81
590.835	10.69
591.173	10.79
591.511	10.87
591.849	10.72
592.187	10.86
592.524	10.89
592.862	10.89
593.2	10.88
593.537	11.18
593.875	11.07
594.212	11.04
594.55	10.84
594.887	11.06
595.224	11.21
595.561	11.07
595.899	11.21
596.236	11.19
596.573	11.2
596.91	11.19
597.247	11.21
597.584	11.22
597.921	11.36
598.258	11.42
598.594	11.41
598.931	11.33
599.268	11.4
599.604	11.52
599.941	11.39
600.277	11.37
600.614	11.52
600.95	11.55
601.287	11.31
601.623	11.75
601.959	11.78
602.296	11.71
602.632	11.74
602.968	11.68
603.304	12.06
603.64	11.97
603.976	11.83
604.312	11.99
604.648	11.88
604.984	12.07
605.319	11.73
605.655	12.14
605.991	12.14
606.326	11.94
606.662	12.02
606.998	12.05
607.333	12.14
607.668	12.08
608.004	12.2
608.339	12.17
608.674	12.53
609.01	12.59
609.345	12.47
609.68	12.55
610.015	12.72
610.35	12.4
610.685	12.26
611.02	12.67
611.355	12.58
611.689	12.56
612.024	12.84
612.359	12.61
612.694	12.86
613.028	12.54
613.363	12.82
613.697	12.7
614.032	12.84
614.366	13.08
614.7	12.99
615.035	12.92
615.369	12.85
615.703	13.07
616.037	13.47
616.371	13.32
616.705	13.3
617.039	13.59
617.373	13.76
617.707	13.41
618.041	13.33
618.375	13.47
618.709	13.84
619.042	13.63
619.376	13.47
619.71	13.55
620.043	13.6
620.377	13.49
620.71	14.03
621.043	14.09
621.377	13.73
621.71	13.96
622.043	14.06
622.376	13.98
622.709	14.02
623.043	13.46
623.376	13.75
623.709	13.99
624.041	14.02
624.374	14.18
624.707	13.98
625.04	13.92
625.373	14.4
625.705	14.02
626.038	13.99
626.37	14.29
626.703	14.37
627.035	14.1
627.368	14.24
627.7	14.37
628.032	14.56
628.365	14.64
628.697	14.39
629.029	14.42
629.361	14.38
629.693	14.72
630.025	14.57
630.357	14.5
630.689	14.5
631.021	14.6
631.353	14.61
631.684	14.72
632.016	14.86
632.348	14.97
632.679	14.74
633.011	14.97
633.342	15.03
633.674	15.22
634.005	14.91
634.336	15.04
634.668	15.3
634.999	15.28
635.33	15.06
635.661	15.4
635.992	15.39
636.323	15.64
636.654	15.64
636.985	15.13
637.316	15.68
637.647	15.47
637.977	15.42
638.308	15.59
638.639	15.49
638.969	15.14
639.3	15.65
639.63	15.9
639.961	16.15
640.291	15.65
640.622	15.99
640.952	15.9
641.282	15.97
641.612	15.91
641.943	15.94
642.273	15.58
642.603	16.3
642.933	16.28
643.263	16.23
643.592	16.34
643.922	16.38
644.252	16.27
644.582	16.3
644.911	16.67
645.241	16.61
645.571	16.15
645.9	16.9
646.23	16.21
646.559	16.69
646.888	16.41
647.218	16.35
647.547	16.8
647.876	16.64
648.205	16.75
648.534	16.85
648.863	17.11
649.192	16.34
649.521	16.7
649.85	16.65
650.179	17.34
650.508	16.85
650.837	17.17
651.165	17.25
651.494	17.03
651.822	17.24
652.151	17.34
652.479	17.44
652.808	17.01
653.136	17.12
653.465	17.03
653.793	17.24
654.121	17.46
654.449	17.63
654.777	17.19
655.105	17.45
655.433	17.4
655.761	17.18
656.089	17.18
656.417	17.67
656.745	17.47
657.073	17.62
657.4	17.97
657.728	17.7
658.056	17.28
658.383	17.56
658.711	17.83
659.038	17.7
659.365	17.36
659.693	17.57
660.02	17.75
660.347	18.22
660.674	17.94
661.001	17.99
661.329	18.09
661.656	17.87
661.982	17.99
662.309	18.1
662.636	18.15
662.963	18.36
663.29	18.32
663.616	18.42
663.943	18.39
664.27	18.04
664.596	18.53
664.923	18.3
665.249	17.96
665.576	18.33
665.902	18.69
666.228	18.84
666.554	18.64
666.881	19.3
667.207	19.09
667.533	19.45
667.859	19.2
668.185	18.94
668.511	19.02
668.837	18.87
669.162	19.12
669.488	19.01
669.814	19.25
670.139	19.3
670.465	18.5
670.791	19.09
671.116	19.49
671.442	19.14
671.767	19.27
672.092	19
672.418	19.29
672.743	19.05
673.068	19.91
673.393	19.66
673.718	19.41
674.043	20.32
674.368	19.49
674.693	19.6
675.018	19.91
675.343	19.93
675.667	19.66
675.992	19.44
676.317	19.32
676.641	19.51
676.966	20.14
677.29	20.1
677.615	19.7
677.939	19.93
678.264	20.5
678.588	20.19
678.912	19.8
679.236	20.64
679.56	20.27
679.885	20.28
680.209	20.59
680.532	19.96
680.856	21.21
681.18	19.96
681.504	20.8
681.828	20.29
682.152	20.42
682.475	20.09
682.799	20.36
683.122	20.46
683.446	20.49
683.769	20.52
684.093	20.03
684.416	20.65
684.739	20.79
685.062	20.94
685.386	21.45
685.709	20.87
686.032	21.35
