Data from 0014_crown_Reflection__2__27.txt Node

Date: Mon Oct 17 14:37:53 CDT 2022
User: ToomeyLab
Spectrometer: FLMS14357
Trigger mode: 0
Integration Time (sec): 1.000000E-2
Scans to average: 100
Electric dark correction enabled: true
Nonlinearity correction enabled: false
Boxcar width: 0
XAxis mode: Wavelengths
Number of Pixels in Spectrum: 2048
>>>>>Begin Spectral Data<<<<<
189.047	19.6
189.435	19.6
189.823	19.6
190.211	-245.31
190.599	93.92
190.987	-717.06
191.375	98.34
191.763	-1747.77
192.151	-1078.91
192.538	-56.57
192.926	440.8
193.314	164.06
193.702	-61.53
194.089	-56.07
194.477	457.03
194.864	-118.75
195.252	13.44
195.639	39.47
196.027	134.83
196.414	61.13
196.801	-158.36
197.189	400.88
197.576	133.65
197.963	-53.16
198.351	-339.04
198.738	15.74
199.125	-68.58
199.512	-26.59
199.899	-34.19
200.286	-10.44
200.673	-28.18
201.06	-85.93
201.447	9.46
201.833	2.26
202.22	13.9
202.607	-20.3
202.994	13.13
203.38	-0.04
203.767	-26.2
204.154	22.77
204.54	-25.55
204.927	32.1
205.313	-32.61
205.699	30.54
206.086	-36.51
206.472	18.31
206.858	11.02
207.245	2.66
207.631	15.73
208.017	22.26
208.403	28.91
208.789	-0.67
209.175	-28.52
209.561	-17.64
209.947	-6.57
210.333	30.95
210.719	24.29
211.105	6.94
211.491	55.97
211.876	-13.75
212.262	26.37
212.648	-4.62
213.034	-21.33
213.419	11.37
213.805	-4.54
214.19	-3.52
214.576	8.79
214.961	-19.48
215.346	36.31
215.732	-9.6
216.117	2.55
216.502	8.3
216.888	2.98
217.273	6.38
217.658	10.21
218.043	-10.11
218.428	-15.2
218.813	20.78
219.198	-7.26
219.583	8.4
219.968	-1.02
220.353	8.86
220.738	-6.22
221.122	-5.1
221.507	-5.45
221.892	2.33
222.276	12.52
222.661	-4.02
223.046	1
223.43	6.79
223.815	-7.16
224.199	6.43
224.583	-3.96
224.968	-6.72
225.352	-14.84
225.736	4.23
226.121	-6.71
226.505	0.67
226.889	5.74
227.273	0.53
227.657	5.56
228.041	4.36
228.425	6.48
228.809	3.25
229.193	4.99
229.577	4.67
229.961	6.33
230.344	4.38
230.728	5
231.112	5.48
231.495	4.77
231.879	4.76
232.263	5.65
232.646	5.34
233.03	4.18
233.413	2.33
233.797	3.8
234.18	6.16
234.563	3.77
234.946	4.37
235.33	5.47
235.713	3.06
236.096	4.56
236.479	3.12
236.862	5.91
237.245	4.88
237.628	4.93
238.011	4.69
238.394	5.02
238.777	5.93
239.16	5.78
239.543	3.83
239.925	5.47
240.308	4.62
240.691	4.2
241.073	5.21
241.456	3.96
241.838	3.59
242.221	3.51
242.603	4.59
242.986	3.93
243.368	4.74
243.75	4.63
244.133	4.54
244.515	4.42
244.897	4.66
245.279	4.13
245.661	4.41
246.043	4.74
246.425	3.69
246.807	3.41
247.189	4.04
247.571	4.16
247.953	4.34
248.335	4.35
248.717	4.47
249.098	4.39
249.48	4.19
249.862	4.14
250.243	3.85
250.625	4.23
251.006	3.81
251.388	4.53
251.769	4.74
252.151	3.54
252.532	3.57
252.913	3.51
253.295	3.53
253.676	4.06
254.057	4.29
254.438	4.05
254.819	4.61
255.2	4.75
255.581	3.66
255.962	3.36
256.343	3.16
256.724	4.37
257.105	3.94
257.486	3.7
257.867	3.4
258.247	3.87
258.628	4.37
259.009	4.19
259.389	4.15
259.77	4.59
260.15	4.26
260.531	3.88
260.911	3.92
261.292	3.88
261.672	3.87
262.052	4.09
262.432	3.85
262.813	3.86
263.193	4.1
263.573	4.41
263.953	4.08
264.333	4.01
264.713	3.65
265.093	3.51
265.473	4.38
265.853	3.43
266.233	4.96
266.612	3.56
266.992	4.72
267.372	3.64
267.752	3.58
268.131	3.69
268.511	3.88
268.89	4
269.27	3.92
269.649	4.21
270.029	3.74
270.408	4.17
270.787	3.49
271.167	3.39
271.546	3.74
271.925	3.76
272.304	3.84
272.683	4.08
273.062	3.61
273.441	3.62
273.82	3.63
274.199	4.11
274.578	3.99
274.957	3.45
275.336	3.57
275.715	3.85
276.093	3.74
276.472	3.25
276.851	3.86
277.229	3.28
277.608	3.56
277.986	3.54
278.365	3.9
278.743	3.44
279.122	3.36
279.5	3.98
279.878	3.57
280.257	3.63
280.635	3.23
281.013	3.82
281.391	3.17
281.769	3.59
282.147	4.07
282.525	3.34
282.903	3.07
283.281	3.37
283.659	3.58
284.037	3.37
284.415	3.41
284.792	3.36
285.17	3.16
285.548	2.81
285.925	3.55
286.303	3.16
286.68	3.63
287.058	3.7
287.435	3.45
287.813	3.23
288.19	3.46
288.567	3.18
288.945	3.1
289.322	3.89
289.699	3.61
290.076	3.42
290.453	3.41
290.83	3.21
291.207	3.14
291.584	3.27
291.961	3.25
292.338	3.27
292.715	2.94
293.092	3.26
293.469	2.95
293.845	3.46
294.222	3.5
294.599	3.35
294.975	3.11
295.352	2.78
295.728	3.33
296.105	2.93
296.481	3.33
296.858	3.7
297.234	3.44
297.61	3.18
297.986	2.87
298.363	3.13
298.739	3.48
299.115	3.19
299.491	3.48
299.867	3.15
300.243	3.02
300.619	2.95
300.995	3.34
301.371	3.16
301.746	3.28
302.122	2.57
302.498	3.39
302.874	3.22
303.249	3.42
303.625	3.32
304	3.13
304.376	3.01
304.751	3.77
305.127	3.1
305.502	3.05
305.878	3.17
306.253	3.01
306.628	3.27
307.003	3.13
307.378	3.14
307.754	3.08
308.129	3.14
308.504	3.45
308.879	3.22
309.254	3.19
309.629	2.71
310.003	3.39
310.378	3.07
310.753	3.04
311.128	3.29
311.502	3.13
311.877	3.18
312.252	3.2
312.626	2.82
313.001	3.05
313.375	3.15
313.75	2.92
314.124	3.26
314.498	2.93
314.873	3.13
315.247	2.36
315.621	3.3
315.995	3.01
316.369	2.81
316.743	3.54
317.117	3.36
317.491	2.88
317.865	3.64
318.239	3.24
318.613	3.34
318.987	3.14
319.361	2.94
319.734	3.18
320.108	2.66
320.482	3.51
320.855	2.81
321.229	2.89
321.602	3.33
321.976	2.73
322.349	3.15
322.723	3.09
323.096	3.14
323.469	2.96
323.843	2.63
324.216	3.32
324.589	2.85
324.962	3.27
325.335	3.03
325.708	3.29
326.081	3.05
326.454	3.35
326.827	2.92
327.2	2.85
327.573	2.88
327.945	3.08
328.318	3.22
328.691	3.35
329.063	3.42
329.436	2.72
329.809	2.6
330.181	3.39
330.553	2.61
330.926	3.01
331.298	3.2
331.671	3.35
332.043	2.78
332.415	3.24
332.787	3.18
333.159	3.13
333.532	2.91
333.904	3.11
334.276	3.17
334.648	2.68
335.02	3.28
335.391	3.18
335.763	3.05
336.135	2.88
336.507	3
336.879	3.12
337.25	3.45
337.622	2.83
337.993	3.11
338.365	3.32
338.736	2.85
339.108	3.21
339.479	3.01
339.851	3.24
340.222	3.33
340.593	3.31
340.964	2.79
341.336	3.39
341.707	3.36
342.078	3.55
342.449	3.13
342.82	3.14
343.191	3.18
343.562	3.01
343.933	2.83
344.303	2.69
344.674	3.49
345.045	3.33
345.416	3.15
345.786	3.45
346.157	3.14
346.527	2.93
346.898	3.32
347.268	3.5
347.639	2.74
348.009	3.34
348.38	3.4
348.75	3.28
349.12	2.9
349.49	3.08
349.861	3.38
350.231	3.26
350.601	3.3
350.971	3.03
351.341	2.72
351.711	3.28
352.081	3.56
352.45	3.33
352.82	3.45
353.19	3.46
353.56	3.04
353.929	3.55
354.299	3.38
354.669	3.35
355.038	3.48
355.408	3.29
355.777	3.19
356.147	3.23
356.516	3.37
356.885	3.37
357.254	3.46
357.624	3.43
357.993	3.31
358.362	3.06
358.731	3.03
359.1	3.26
359.469	3.3
359.838	3.39
360.207	3.44
360.576	2.87
360.945	3.67
361.314	3.43
361.682	3.36
362.051	3.35
362.42	3.25
362.788	3.17
363.157	3.48
363.525	3.12
363.894	3.48
364.262	3.54
364.631	3.4
364.999	3.52
365.367	3.02
365.735	3.3
366.104	3.17
366.472	3.31
366.84	3.36
367.208	3.67
367.576	3.27
367.944	3.24
368.312	3.51
368.68	3.68
369.048	3.26
369.416	3.32
369.783	3.45
370.151	3.59
370.519	3.48
370.886	3.39
371.254	3.4
371.621	3.5
371.989	3.6
372.356	3.43
372.724	3.69
373.091	3.57
373.458	3.25
373.826	3.68
374.193	3.75
374.56	3.55
374.927	3.41
375.294	3.45
375.661	3.29
376.028	3.61
376.395	3.37
376.762	3.76
377.129	3.74
377.496	3.23
377.863	3.24
378.229	3.51
378.596	3.4
378.963	3.38
379.329	3.39
379.696	3.32
380.062	3.97
380.429	3.42
380.795	3.61
381.161	3.41
381.528	3.17
381.894	3.31
382.26	3.51
382.626	3.66
382.993	3.72
383.359	3.68
383.725	3.87
384.091	3.63
384.457	3.52
384.823	3.39
385.188	3.38
385.554	3.46
385.92	3.49
386.286	3.51
386.651	3.77
387.017	3.4
387.383	3.66
387.748	3.6
388.114	3.52
388.479	3.73
388.845	3.78
389.21	3.44
389.575	3.79
389.94	3.81
390.306	3.8
390.671	3.69
391.036	3.74
391.401	3.44
391.766	3.62
392.131	3.65
392.496	3.58
392.861	3.35
393.226	3.8
393.591	3.45
393.956	3.72
394.32	3.77
394.685	3.72
395.05	3.73
395.414	3.84
395.779	3.81
396.143	3.67
396.508	3.57
396.872	3.61
397.236	3.71
397.601	3.7
397.965	3.73
398.329	3.94
398.694	3.81
399.058	3.65
399.422	3.59
399.786	3.77
400.15	3.78
400.514	3.45
400.878	3.64
401.242	3.67
401.605	3.79
401.969	3.69
402.333	3.66
402.697	3.6
403.06	3.39
403.424	3.79
403.787	3.61
404.151	3.7
404.514	3.65
404.878	3.88
405.241	3.64
405.604	3.58
405.968	3.85
406.331	3.71
406.694	3.69
407.057	3.63
407.42	3.54
407.783	3.69
408.146	3.8
408.509	3.85
408.872	3.76
409.235	3.79
409.598	3.71
409.961	3.4
410.323	3.72
410.686	3.73
411.049	3.7
411.411	3.88
411.774	3.68
412.136	3.61
412.499	3.77
412.861	3.8
413.223	3.77
413.586	3.62
413.948	3.74
414.31	3.79
414.672	3.67
415.035	3.98
415.397	3.94
415.759	3.75
416.121	3.64
416.483	4.01
416.845	3.79
417.206	3.61
417.568	3.78
417.93	3.79
418.292	3.93
418.653	3.62
419.015	3.67
419.377	3.88
419.738	3.71
420.1	3.85
420.461	3.64
420.822	3.76
421.184	3.67
421.545	3.73
421.906	3.76
422.267	3.72
422.629	3.62
422.99	3.69
423.351	3.8
423.712	3.78
424.073	3.77
424.434	3.67
424.795	3.82
425.155	3.77
425.516	3.64
425.877	3.71
426.238	3.71
426.598	3.69
426.959	3.74
427.32	3.71
427.68	3.8
428.041	3.83
428.401	3.87
428.761	3.87
429.122	3.97
429.482	3.77
429.842	3.76
430.202	3.99
430.563	3.85
430.923	3.89
431.283	4.05
431.643	3.8
432.003	3.9
432.363	3.81
432.722	3.88
433.082	3.66
433.442	4.07
433.802	3.79
434.161	3.77
434.521	3.99
434.881	3.88
435.24	3.7
435.6	3.93
435.959	3.9
436.319	3.92
436.678	3.86
437.037	3.98
437.396	3.75
437.756	3.89
438.115	3.73
438.474	3.8
438.833	3.7
439.192	3.79
439.551	3.76
439.91	3.81
440.269	3.8
440.628	3.79
440.987	3.73
441.345	3.84
441.704	3.89
442.063	3.75
442.421	3.8
442.78	3.71
443.138	3.92
443.497	3.85
443.855	3.99
444.214	3.8
444.572	3.83
444.93	3.91
445.288	3.91
445.647	3.97
446.005	3.96
446.363	3.92
446.721	3.84
447.079	3.84
447.437	3.89
447.795	3.86
448.153	3.88
448.51	3.77
448.868	3.82
449.226	3.81
449.584	3.89
449.941	3.83
450.299	4.01
450.656	3.78
451.014	3.88
451.371	3.91
451.729	3.88
452.086	3.97
452.443	4.14
452.801	3.85
453.158	4
453.515	3.85
453.872	3.85
454.229	3.76
454.586	3.75
454.943	3.88
455.3	3.99
455.657	3.93
456.014	3.97
456.371	3.9
456.727	3.93
457.084	3.92
457.441	4.02
457.797	4.05
458.154	4
458.51	4.04
458.867	4.06
459.223	3.93
459.58	3.85
459.936	3.88
460.292	4.07
460.648	4
461.005	3.89
461.361	3.77
461.717	3.78
462.073	3.83
462.429	3.87
462.785	3.91
463.141	4.02
463.496	3.94
463.852	4.05
464.208	4.11
464.564	3.83
464.919	3.99
465.275	3.94
465.631	3.95
465.986	3.93
466.342	3.99
466.697	4.04
467.052	3.94
467.408	3.97
467.763	3.89
468.118	3.94
468.473	4.09
468.829	3.99
469.184	3.99
469.539	3.78
469.894	3.98
470.249	4.03
470.603	4.01
470.958	4.04
471.313	3.97
471.668	3.94
472.023	3.92
472.377	3.94
472.732	3.88
473.086	3.9
473.441	3.99
473.795	4.05
474.15	3.92
474.504	4.03
474.859	3.99
475.213	4.06
475.567	4.16
475.921	3.96
476.275	4
476.63	3.97
476.984	4.12
477.338	4.02
477.692	4.01
478.045	4.04
478.399	4.1
478.753	4.03
479.107	3.94
479.461	3.97
479.814	3.92
480.168	3.99
480.521	3.85
480.875	3.92
481.228	3.96
481.582	4.02
481.935	3.93
482.289	3.94
482.642	3.85
482.995	4
483.348	3.99
483.701	3.85
484.055	3.88
484.408	3.92
484.761	3.79
485.114	3.72
485.466	3.66
485.819	3.66
486.172	3.74
486.525	3.8
486.878	3.86
487.23	3.89
487.583	3.87
487.936	3.88
488.288	3.82
488.641	3.76
488.993	3.74
489.345	3.75
489.698	3.79
490.05	3.77
490.402	3.78
490.754	3.88
491.107	3.84
491.459	3.91
491.811	3.93
492.163	3.88
492.515	3.94
492.866	3.81
493.218	3.78
493.57	3.83
493.922	3.86
494.274	3.88
494.625	3.89
494.977	3.98
495.328	3.97
495.68	3.99
496.031	4.01
496.383	4.02
496.734	3.95
497.086	3.86
497.437	3.93
497.788	3.97
498.139	3.85
498.49	3.88
498.842	3.97
499.193	3.93
499.544	3.96
499.894	3.9
500.245	3.86
500.596	3.95
500.947	4.07
501.298	3.98
501.648	3.94
501.999	3.99
502.35	4.01
502.7	4.09
503.051	4.15
503.401	4.11
503.752	4.04
504.102	3.93
504.452	3.98
504.803	3.99
505.153	4.05
505.503	4.02
505.853	4.05
506.203	4.02
506.553	3.98
506.903	3.96
507.253	3.93
507.603	4
507.953	4.07
508.303	4.06
508.652	4.04
509.002	4.06
509.352	3.98
509.701	3.91
510.051	4
510.4	3.9
510.75	3.94
511.099	3.95
511.449	3.96
511.798	3.9
512.147	3.96
512.496	3.97
512.846	3.85
513.195	3.93
513.544	3.93
513.893	3.92
514.242	4.01
514.591	3.92
514.939	3.95
515.288	3.88
515.637	3.91
515.986	3.95
516.334	4.03
516.683	4.03
517.032	3.93
517.38	3.85
517.729	3.98
518.077	3.96
518.426	3.96
518.774	3.86
519.122	3.88
519.47	3.92
519.819	3.98
520.167	3.85
520.515	3.77
520.863	3.85
521.211	3.84
521.559	3.87
521.907	3.96
522.255	3.9
522.602	3.95
522.95	3.92
523.298	3.85
523.645	3.97
523.993	3.96
524.341	4.07
524.688	3.91
525.036	3.98
525.383	3.88
525.73	4.03
526.078	3.85
526.425	3.89
526.772	3.91
527.119	3.78
527.466	3.74
527.814	3.83
528.161	3.82
528.508	3.93
528.854	3.82
529.201	3.81
529.548	3.78
529.895	3.71
530.242	3.67
530.588	3.69
530.935	3.73
531.282	3.76
531.628	3.84
531.975	3.85
532.321	3.83
532.667	3.98
533.014	3.92
533.36	3.87
533.706	3.87
534.052	3.9
534.399	3.86
534.745	3.78
535.091	3.77
535.437	3.82
535.783	3.86
536.129	3.93
536.474	3.94
536.82	3.98
537.166	3.91
537.512	3.88
537.857	3.92
538.203	3.81
538.549	3.74
538.894	3.83
539.239	3.86
539.585	3.92
539.93	3.94
540.276	3.88
540.621	3.85
540.966	3.83
541.311	3.78
541.656	3.96
542.001	3.9
542.346	3.8
542.691	3.8
543.036	3.69
543.381	3.72
543.726	3.72
544.071	3.76
544.415	3.84
544.76	3.84
545.105	3.78
545.449	3.82
545.794	3.82
546.138	3.91
546.483	3.87
546.827	3.94
547.171	3.86
547.516	3.92
547.86	3.92
548.204	3.76
548.548	3.85
548.892	3.89
549.236	3.92
549.58	3.83
549.924	3.94
550.268	3.97
550.612	3.95
550.956	4.05
551.3	3.71
551.643	3.97
551.987	3.87
552.33	3.82
552.674	3.96
553.017	3.98
553.361	3.86
553.704	3.83
554.048	3.81
554.391	3.88
554.734	3.81
555.077	3.9
555.42	3.82
555.764	3.76
556.107	3.78
556.45	3.89
556.793	3.88
557.135	3.86
557.478	3.87
557.821	3.9
558.164	3.88
558.507	3.92
558.849	3.83
559.192	3.83
559.534	3.82
559.877	3.84
560.219	3.76
560.562	3.84
560.904	3.72
561.246	3.93
561.589	4.03
561.931	3.76
562.273	3.97
562.615	3.84
562.957	3.94
563.299	3.87
563.641	3.87
563.983	3.96
564.325	4.04
564.667	4
565.008	3.92
565.35	3.88
565.692	3.96
566.033	3.68
566.375	3.78
566.716	3.93
567.058	3.85
567.399	3.7
567.741	3.75
568.082	3.92
568.423	3.73
568.764	3.78
569.105	3.74
569.447	3.86
569.788	4.06
570.129	4.03
570.47	3.85
570.811	4
571.151	3.84
571.492	3.93
571.833	3.96
572.174	3.91
572.514	3.8
572.855	3.95
573.195	3.72
573.536	3.77
573.876	3.82
574.217	3.81
574.557	3.73
574.898	3.83
575.238	3.91
575.578	3.88
575.918	3.77
576.258	3.79
576.598	3.78
576.938	3.85
577.278	3.82
577.618	3.91
577.958	3.89
578.298	3.82
578.638	3.85
578.977	3.97
579.317	3.91
579.657	3.67
579.996	3.83
580.336	3.83
580.675	3.68
581.014	3.83
581.354	3.81
581.693	3.75
582.032	3.73
582.372	3.8
582.711	3.79
583.05	3.93
583.389	3.64
583.728	3.82
584.067	3.86
584.406	3.85
584.745	3.8
585.083	3.9
585.422	3.84
585.761	4.11
586.1	3.79
586.438	4.01
586.777	3.91
587.115	3.78
587.454	3.88
587.792	3.88
588.13	3.99
588.469	3.67
588.807	3.82
589.145	3.95
589.483	3.79
589.821	3.75
590.159	3.94
590.497	3.93
590.835	3.88
591.173	3.8
591.511	3.87
591.849	3.79
592.187	3.71
592.524	3.75
592.862	3.69
593.2	3.67
593.537	3.76
593.875	3.88
594.212	4.05
594.55	3.66
594.887	3.63
595.224	3.77
595.561	3.55
595.899	3.98
596.236	3.93
596.573	3.76
596.91	3.9
597.247	3.85
597.584	3.72
597.921	3.7
598.258	3.72
598.594	3.75
598.931	3.58
599.268	3.75
599.604	3.69
599.941	3.72
600.277	3.71
600.614	3.91
600.95	3.74
601.287	3.56
601.623	3.98
601.959	3.84
602.296	3.88
602.632	3.72
602.968	3.67
603.304	3.8
603.64	3.74
603.976	3.59
604.312	3.89
604.648	3.75
604.984	3.82
605.319	3.54
605.655	3.77
605.991	3.8
606.326	3.59
606.662	3.66
606.998	3.84
607.333	3.79
607.668	3.72
608.004	3.66
608.339	3.77
608.674	3.66
609.01	3.82
609.345	3.8
609.68	4
610.015	3.79
610.35	3.69
610.685	3.53
611.02	3.77
611.355	3.82
611.689	3.73
612.024	3.79
612.359	3.66
612.694	3.77
613.028	3.63
613.363	3.96
613.697	3.48
614.032	3.81
614.366	3.8
614.7	3.83
615.035	3.51
615.369	3.93
615.703	3.86
616.037	4.09
616.371	3.9
616.705	3.65
617.039	4.12
617.373	3.9
617.707	3.83
618.041	3.69
618.375	3.69
618.709	4.21
619.042	4.01
619.376	3.79
619.71	3.94
620.043	3.81
620.377	3.87
620.71	4.16
621.043	4.15
621.377	3.82
621.71	4.17
622.043	3.97
622.376	3.82
622.709	3.95
623.043	3.67
623.376	3.54
623.709	4.08
624.041	3.97
624.374	3.34
624.707	3.8
625.04	3.84
625.373	4.2
625.705	3.67
626.038	3.29
626.37	3.76
626.703	3.94
627.035	3.67
627.368	3.86
627.7	3.98
628.032	3.85
628.365	3.61
628.697	3.63
629.029	4.04
629.361	3.86
629.693	3.81
630.025	3.8
630.357	3.58
630.689	3.72
631.021	3.68
631.353	3.6
631.684	3.66
632.016	3.64
632.348	4.25
632.679	3.74
633.011	3.89
633.342	3.8
633.674	4.03
634.005	3.81
634.336	3.56
634.668	3.85
634.999	3.53
635.33	3.5
635.661	3.98
635.992	3.72
636.323	4.02
636.654	3.96
636.985	3.54
637.316	3.83
637.647	3.5
637.977	4.13
638.308	4.08
638.639	3.75
638.969	3.76
639.3	3.71
639.63	3.85
639.961	4.01
640.291	3.46
640.622	3.75
640.952	4.03
641.282	3.96
641.612	3.65
641.943	4.06
642.273	3.96
642.603	3.96
642.933	3.96
643.263	3.69
643.592	3.56
643.922	3.56
644.252	3.75
644.582	4.09
644.911	4.19
645.241	3.71
645.571	3.18
645.9	3.96
646.23	3.39
646.559	3.9
646.888	3.53
647.218	3.48
647.547	3.63
647.876	3.79
648.205	3.71
648.534	3.93
648.863	3.66
649.192	3.77
649.521	3.69
649.85	3.72
650.179	3.65
650.508	3.97
650.837	3.6
651.165	4.27
651.494	4
651.822	3.78
652.151	3.79
652.479	3.59
652.808	3.54
653.136	4.11
653.465	3.66
653.793	3.71
654.121	3.91
654.449	3.97
654.777	4.05
655.105	3.53
655.433	3.65
655.761	4.02
656.089	4
656.417	3.73
656.745	3.86
657.073	3.8
657.4	3.69
657.728	3.81
658.056	3.9
658.383	4.41
658.711	3.87
659.038	3.54
659.365	3.74
659.693	3.85
660.02	3.4
660.347	4.08
660.674	3.56
661.001	3.72
661.329	4
661.656	3.63
661.982	3.87
662.309	4.22
662.636	3.91
662.963	3.62
663.29	3.9
663.616	3.82
663.943	3.6
664.27	3.72
664.596	3.85
664.923	3.64
665.249	3.55
665.576	3.7
665.902	3.28
666.228	3.86
666.554	4.22
666.881	4.26
667.207	3.97
667.533	4.31
667.859	3.76
668.185	3.99
668.511	4.04
668.837	4.29
669.162	3.88
669.488	4.13
669.814	4.42
670.139	3.86
670.465	3.74
670.791	4.23
671.116	4.35
671.442	4.12
671.767	3.95
672.092	3.3
672.418	4.05
672.743	3.69
673.068	4.16
673.393	3.44
673.718	4.15
674.043	4.18
674.368	3.77
674.693	3.91
675.018	4.26
675.343	4.3
675.667	4.49
675.992	3.53
676.317	3.9
676.641	3.7
676.966	4.3
677.29	4.03
677.615	2.92
677.939	4.06
678.264	3.99
678.588	3.82
678.912	3.87
679.236	4.48
679.56	3.12
679.885	4.01
680.209	4.32
680.532	3.97
680.856	4.13
681.18	3.99
681.504	4.13
681.828	4.43
682.152	4.09
682.475	4.18
682.799	4.24
683.122	3.71
683.446	4.1
683.769	4.14
684.093	3.61
684.416	4.17
684.739	4.19
685.062	4.46
685.386	4.43
685.709	4.07
686.032	4.68
686.355	3.66
686.678	3.21
687.001	4.34
687.324	3.95
687.646	3.71
687.969	4.21
688.292	4.27
688.614	3.48
688.937	4.67
689.26	4.18
689.582	3.79
689.904	3.96
690.227	4.35
690.549	4.61
690.871	3.58
691.194	3.59
691.516	4.74
691.838	4.53
692.16	4.04
692.482	3.96
