Data from 0014_forehead_Reflection__3__33.txt Node

Date: Mon Oct 17 14:40:12 CDT 2022
User: ToomeyLab
Spectrometer: FLMS14357
Trigger mode: 0
Integration Time (sec): 1.000000E-2
Scans to average: 100
Electric dark correction enabled: true
Nonlinearity correction enabled: false
Boxcar width: 0
XAxis mode: Wavelengths
Number of Pixels in Spectrum: 2048
>>>>>Begin Spectral Data<<<<<
189.047	106.99
189.435	106.99
189.823	106.99
190.211	105.3
190.599	56.4
190.987	-13.18
191.375	66.06
191.763	141.96
192.151	2001.56
192.538	-105.45
192.926	786.46
193.314	120.94
193.702	184.41
194.089	45.95
194.477	925.52
194.864	292.63
195.252	61.62
195.639	56.85
196.027	41.49
196.414	-94.63
196.801	389.52
197.189	633.49
197.576	95.12
197.963	53.74
198.351	-311.36
198.738	9.27
199.125	-28.07
199.512	-7.99
199.899	24.04
200.286	20.69
200.673	66.12
201.06	31.05
201.447	20.03
201.833	22.85
202.22	32.42
202.607	-39.64
202.994	15.98
203.38	-3.16
203.767	-12.5
204.154	1.2
204.54	14.35
204.927	48.36
205.313	-23.44
205.699	5.39
206.086	-24.46
206.472	-10.15
206.858	7.54
207.245	27.21
207.631	14.33
208.017	33
208.403	55.61
208.789	32.74
209.175	-1.58
209.561	5.05
209.947	7.57
210.333	43.71
210.719	1.21
211.105	9.76
211.491	4.32
211.876	-6.03
212.262	33.27
212.648	-3.14
213.034	-4.82
213.419	9.69
213.805	-2.05
214.19	16.62
214.576	8.3
214.961	29.18
215.346	0.8
215.732	1.29
216.117	21.1
216.502	17.06
216.888	0.21
217.273	17.7
217.658	20.77
218.043	8.04
218.428	-5.36
218.813	13.88
219.198	4.31
219.583	-21.58
219.968	5.3
220.353	4.15
220.738	-2.26
221.122	8.29
221.507	14.2
221.892	19.97
222.276	3.98
222.661	5.28
223.046	12.85
223.43	3.84
223.815	-6.37
224.199	10.57
224.583	3.61
224.968	2.33
225.352	-14
225.736	4.67
226.121	-0.81
226.505	1.81
226.889	6.08
227.273	2.13
227.657	8.18
228.041	6.91
228.425	3.68
228.809	2.33
229.193	3.22
229.577	3.99
229.961	4.25
230.344	3.41
230.728	3.09
231.112	3.47
231.495	3.73
231.879	3.38
232.263	4.08
232.646	4.22
233.03	2.22
233.413	1.59
233.797	4.32
234.18	3.45
234.563	4.26
234.946	3.73
235.33	3.72
235.713	1.86
236.096	3.51
236.479	1.64
236.862	2.35
237.245	3.38
237.628	2.82
238.011	4.6
238.394	4.88
238.777	3.04
239.16	3.55
239.543	3.04
239.925	2.27
240.308	4.28
240.691	1.95
241.073	4.47
241.456	2.66
241.838	3.24
242.221	3.32
242.603	3.74
242.986	3.02
243.368	3.17
243.75	3.1
244.133	3.13
244.515	3.32
244.897	3.07
245.279	3.51
245.661	3.88
246.043	4.23
246.425	3.17
246.807	3.51
247.189	3.14
247.571	3.04
247.953	3.45
248.335	3.38
248.717	3.46
249.098	3.47
249.48	3.15
249.862	3.11
250.243	3.23
250.625	3.22
251.006	3.24
251.388	3.88
251.769	4.06
252.151	3.82
252.532	3.35
252.913	3.94
253.295	2.84
253.676	3.61
254.057	3.58
254.438	3.48
254.819	4.45
255.2	3.92
255.581	3.34
255.962	3.28
256.343	2.86
256.724	2.52
257.105	3.44
257.486	2.21
257.867	2.42
258.247	3.48
258.628	3.88
259.009	3.74
259.389	3.13
259.77	3.53
260.15	3.33
260.531	3.21
260.911	3.17
261.292	3.35
261.672	3.25
262.052	3.21
262.432	3.06
262.813	3.4
263.193	3.66
263.573	3.7
263.953	3.39
264.333	3.63
264.713	2.91
265.093	3.42
265.473	3.56
265.853	3.87
266.233	4.43
266.612	3.09
266.992	3.84
267.372	3.93
267.752	3.67
268.131	3.74
268.511	3.43
268.89	3.85
269.27	3.55
269.649	3.62
270.029	3.54
270.408	3.64
270.787	2.87
271.167	3.17
271.546	3.3
271.925	3.03
272.304	3.49
272.683	3.58
273.062	3.35
273.441	3.19
273.82	3.64
274.199	3.58
274.578	3.47
274.957	3.22
275.336	3.31
275.715	3.47
276.093	3.32
276.472	3.01
276.851	3.6
277.229	3.1
277.608	3.21
277.986	3.53
278.365	3.31
278.743	3.29
279.122	2.9
279.5	3.48
279.878	3.67
280.257	3.26
280.635	3
281.013	2.68
281.391	3.48
281.769	3.57
282.147	3.76
282.525	3.52
282.903	2.76
283.281	3.38
283.659	3.48
284.037	3.1
284.415	3.6
284.792	3.04
285.17	3.1
285.548	2.92
285.925	3.65
286.303	3.11
286.68	3.39
287.058	3.7
287.435	3.57
287.813	3.38
288.19	3.41
288.567	3.32
288.945	3.48
289.322	3.77
289.699	3.82
290.076	3.61
290.453	3.43
290.83	3.58
291.207	3.73
291.584	3.6
291.961	3.6
292.338	3.66
292.715	3.67
293.092	3.65
293.469	3.75
293.845	3.62
294.222	4.25
294.599	4.13
294.975	3.69
295.352	3.6
295.728	3.73
296.105	3.86
296.481	3.87
296.858	4.53
297.234	3.54
297.61	3.81
297.986	3.68
298.363	4.09
298.739	4.34
299.115	3.87
299.491	3.92
299.867	4.08
300.243	4.1
300.619	3.74
300.995	4.29
301.371	4.26
301.746	3.96
302.122	4.43
302.498	4.46
302.874	5.08
303.249	4.28
303.625	4.77
304	4.52
304.376	4.48
304.751	4.75
305.127	4.6
305.502	4.36
305.878	4.97
306.253	4.8
306.628	4.62
307.003	4.85
307.378	4.73
307.754	4.68
308.129	4.88
308.504	4.88
308.879	5.15
309.254	5.35
309.629	4.98
310.003	5.06
310.378	5.14
310.753	5.16
311.128	5.33
311.502	5.42
311.877	5.39
312.252	5.02
312.626	5.14
313.001	5.52
313.375	5.27
313.75	5.42
314.124	5.73
314.498	5.91
314.873	5.63
315.247	5.55
315.621	5.95
315.995	5.85
316.369	5.37
316.743	5.87
317.117	6
317.491	5.75
317.865	6.51
318.239	6.28
318.613	6.21
318.987	5.75
319.361	5.34
319.734	6.49
320.108	5.9
320.482	6.24
320.855	5.63
321.229	5.73
321.602	6.66
321.976	6.34
322.349	6.46
322.723	6.22
323.096	6.97
323.469	6.68
323.843	6.07
324.216	6.77
324.589	6.27
324.962	7.12
325.335	6.81
325.708	7.05
326.081	6.66
326.454	7.04
326.827	6.65
327.2	6.56
327.573	6.86
327.945	6.86
328.318	7.18
328.691	6.55
329.063	6.78
329.436	7.18
329.809	7.6
330.181	7.68
330.553	6.81
330.926	7.37
331.298	7.59
331.671	7.74
332.043	7.56
332.415	7.08
332.787	7.5
333.159	7.61
333.532	7.3
333.904	7.59
334.276	7.71
334.648	7.09
335.02	7.66
335.391	7.44
335.763	7.77
336.135	7.41
336.507	8.24
336.879	8.31
337.25	8.64
337.622	8.01
337.993	7.88
338.365	8.04
338.736	8.02
339.108	8.08
339.479	8.06
339.851	8.35
340.222	8.29
340.593	8.48
340.964	8.33
341.336	7.93
341.707	8.71
342.078	8.95
342.449	8.74
342.82	8.61
343.191	8.8
343.562	8.71
343.933	8.45
344.303	8.39
344.674	9.03
345.045	8.61
345.416	9.06
345.786	9.11
346.157	8.91
346.527	8.88
346.898	9.37
347.268	8.98
347.639	8.86
348.009	9
348.38	9.16
348.75	9.14
349.12	9.18
349.49	9.18
349.861	9.66
350.231	9.21
350.601	9.32
350.971	9.47
351.341	9.13
351.711	9.21
352.081	9.44
352.45	9.65
352.82	9.68
353.19	9.46
353.56	9.34
353.929	9.82
354.299	9.74
354.669	9.93
355.038	10.21
355.408	9.81
355.777	9.76
356.147	9.88
356.516	10.05
356.885	10.02
357.254	10.24
357.624	10.65
357.993	10.33
358.362	9.92
358.731	9.91
359.1	10.34
359.469	10.12
359.838	10.68
360.207	10.24
360.576	10.03
360.945	10.31
361.314	10.61
361.682	10.37
362.051	10.6
362.42	10.65
362.788	10.57
363.157	10.75
363.525	10.61
363.894	10.77
364.262	10.7
364.631	10.49
364.999	10.97
365.367	10.54
365.735	10.81
366.104	10.8
366.472	11
366.84	10.99
367.208	11.12
367.576	11.15
367.944	10.7
368.312	11.39
368.68	11.42
369.048	11.07
369.416	11.42
369.783	11.35
370.151	11.26
370.519	11.81
370.886	11.7
371.254	11.43
371.621	11.24
371.989	11.61
372.356	11.77
372.724	12.13
373.091	11.76
373.458	11.47
373.826	11.94
374.193	11.99
374.56	11.89
374.927	11.88
375.294	11.91
375.661	12.06
376.028	12.08
376.395	11.76
376.762	12.33
377.129	12.21
377.496	12.14
377.863	12.03
378.229	12.36
378.596	12.23
378.963	12.45
379.329	12.53
379.696	12.36
380.062	12.69
380.429	12.39
380.795	12.69
381.161	12.67
381.528	12.68
381.894	12.57
382.26	12.57
382.626	13.2
382.993	12.84
383.359	12.92
383.725	12.83
384.091	13.17
384.457	12.89
384.823	12.94
385.188	12.67
385.554	13.25
385.92	13.32
386.286	13.26
386.651	13.44
387.017	13.28
387.383	13.49
387.748	13.32
388.114	13.28
388.479	13.36
388.845	13.65
389.21	13.59
389.575	13.38
389.94	13.78
390.306	13.54
390.671	13.79
391.036	13.79
391.401	13.7
391.766	14.02
392.131	14
392.496	13.97
392.861	14.04
393.226	14.15
393.591	13.9
393.956	14.02
394.32	14.07
394.685	14.1
395.05	14.18
395.414	14.16
395.779	14.12
396.143	14.31
396.508	14.23
396.872	14.13
397.236	14.39
397.601	14.29
397.965	14.23
398.329	14.72
398.694	14.5
399.058	14.73
399.422	14.7
399.786	14.68
400.15	14.88
400.514	14.67
400.878	14.77
401.242	14.77
401.605	14.88
401.969	14.89
402.333	14.84
402.697	14.99
403.06	14.86
403.424	15.21
403.787	15
404.151	15.29
404.514	15.2
404.878	15.23
405.241	15.21
405.604	15.28
405.968	15.31
406.331	15.23
406.694	15.3
407.057	15.18
407.42	15.28
407.783	15.79
408.146	15.45
408.509	15.66
408.872	15.6
409.235	15.82
409.598	15.48
409.961	15.67
410.323	16.32
410.686	15.74
411.049	15.86
411.411	16
411.774	15.96
412.136	16.06
412.499	16.26
412.861	16.08
413.223	15.9
413.586	16.08
413.948	16.18
414.31	16.2
414.672	16.3
415.035	16.48
415.397	16.42
415.759	16.48
416.121	16.6
416.483	16.54
416.845	16.42
417.206	16.39
417.568	16.81
417.93	16.39
418.292	16.61
418.653	16.72
419.015	16.38
419.377	16.78
419.738	16.66
420.1	16.72
420.461	16.67
420.822	16.68
421.184	16.6
421.545	16.63
421.906	16.72
422.267	16.73
422.629	16.64
422.99	16.77
423.351	16.79
423.712	16.72
424.073	16.63
424.434	16.81
424.795	16.93
425.155	16.97
425.516	16.86
425.877	16.9
426.238	17.04
426.598	16.9
426.959	17.04
427.32	17.1
427.68	17.17
428.041	17.2
428.401	17.47
428.761	17.22
429.122	17.56
429.482	17.47
429.842	17.53
430.202	17.81
430.563	17.8
430.923	17.95
431.283	18.13
431.643	17.81
432.003	17.68
432.363	18.03
432.722	17.93
433.082	17.96
433.442	18.12
433.802	18.26
434.161	17.95
434.521	18.28
434.881	18.31
435.24	18.06
435.6	18.21
435.959	18.13
436.319	18.18
436.678	18.33
437.037	18.41
437.396	18.3
437.756	18.51
438.115	18.54
438.474	18.55
438.833	18.27
439.192	18.53
439.551	18.51
439.91	18.73
440.269	18.65
440.628	18.69
440.987	18.75
441.345	18.66
441.704	18.52
442.063	18.66
442.421	18.6
442.78	18.7
443.138	18.73
443.497	18.59
443.855	18.67
444.214	18.79
444.572	18.9
444.93	18.97
445.288	19.11
445.647	19.01
446.005	19.39
446.363	19.35
446.721	19.12
447.079	19.32
447.437	19.19
447.795	19.15
448.153	19.26
448.51	19.07
448.868	19.25
449.226	19.03
449.584	19.17
449.941	19.22
450.299	19.48
450.656	19.25
451.014	19.48
451.371	19.66
451.729	19.67
452.086	19.85
452.443	19.8
452.801	19.88
453.158	20.1
453.515	19.98
453.872	20.06
454.229	20.12
454.586	19.99
454.943	19.91
455.3	20.03
455.657	20.1
456.014	20.08
456.371	20.23
456.727	20.18
457.084	20.19
457.441	20.49
457.797	20.37
458.154	20.51
458.51	20.44
458.867	20.54
459.223	20.62
459.58	20.51
459.936	20.44
460.292	20.77
460.648	20.63
461.005	20.58
461.361	20.44
461.717	20.55
462.073	20.36
462.429	20.27
462.785	20.34
463.141	20.6
463.496	20.42
463.852	20.9
464.208	21
464.564	20.88
464.919	20.95
465.275	20.99
465.631	21.15
465.986	21.27
466.342	21.13
466.697	21.31
467.052	21.24
467.408	21.18
467.763	21.05
468.118	21.4
468.473	21.39
468.829	21.36
469.184	21.52
469.539	21.43
469.894	21.3
470.249	21.31
470.603	21.44
470.958	21.75
471.313	21.63
471.668	21.73
472.023	21.61
472.377	21.94
472.732	21.71
473.086	21.89
473.441	21.9
473.795	21.79
474.15	21.85
474.504	21.89
474.859	22.05
475.213	22.15
475.567	22.34
475.921	22.03
476.275	22.03
476.63	22.21
476.984	22.32
477.338	22.31
477.692	22.34
478.045	22.55
478.399	22.52
478.753	22.27
479.107	22.3
479.461	22.36
479.814	22.32
480.168	22.37
480.521	22.54
480.875	22.36
481.228	22.4
481.582	22.48
481.935	22.44
482.289	22.52
482.642	22.53
482.995	22.66
483.348	22.55
483.701	22.51
484.055	22.44
484.408	22.52
484.761	22.34
485.114	22.28
485.466	22.3
485.819	22.39
486.172	22.04
486.525	21.71
486.878	21.54
487.23	21.63
487.583	21.89
487.936	22.3
488.288	22.44
488.641	22.59
488.993	22.62
489.345	22.59
489.698	22.46
490.05	22.45
490.402	22.26
490.754	22.34
491.107	22.28
491.459	22.57
491.811	22.85
492.163	22.99
492.515	23.1
492.866	22.98
493.218	23.18
493.57	23.17
493.922	22.89
494.274	22.58
494.625	22.56
494.977	22.84
495.328	23
495.68	23.4
496.031	23.5
496.383	23.67
496.734	23.93
497.086	23.79
497.437	23.76
497.788	23.96
498.139	23.92
498.49	23.98
498.842	23.94
499.193	23.74
499.544	23.72
499.894	23.83
500.245	23.9
500.596	23.91
500.947	24.11
501.298	24.35
501.648	24.07
501.999	24.12
502.35	24.38
502.7	24.41
503.051	24.35
503.401	24.63
503.752	24.59
504.102	24.61
504.452	24.64
504.803	24.57
505.153	24.52
505.503	24.72
505.853	24.7
506.203	24.73
506.553	24.93
506.903	24.75
507.253	24.7
507.603	24.76
507.953	24.81
508.303	24.77
508.652	24.8
509.002	25.12
509.352	24.99
509.701	24.87
510.051	24.96
510.4	24.91
510.75	24.9
511.099	25.04
511.449	24.91
511.798	24.97
512.147	25.03
512.496	25.04
512.846	25.17
513.195	25.09
513.544	25.23
513.893	25.24
514.242	25.23
514.591	25.25
514.939	25.27
515.288	25.32
515.637	25.38
515.986	25.45
516.334	25.61
516.683	25.8
517.032	25.51
517.38	25.88
517.729	25.86
518.077	25.85
518.426	25.81
518.774	26
519.122	25.84
519.47	25.81
519.819	25.94
520.167	25.87
520.515	25.81
520.863	25.72
521.211	25.52
521.559	25.54
521.907	25.65
522.255	25.98
522.602	25.87
522.95	26.02
523.298	26.15
523.645	26.07
523.993	26.33
524.341	26.37
524.688	26.23
525.036	26.37
525.383	26.31
525.73	26.44
526.078	26.39
526.425	26.49
526.772	26.44
527.119	26.46
527.466	26.45
527.814	26.26
528.161	26.34
528.508	26.14
528.854	26.23
529.201	26.3
529.548	26.41
529.895	26.44
530.242	26.66
530.588	26.55
530.935	26.13
531.282	25.78
531.628	25.59
531.975	25.79
532.321	25.88
532.667	26.24
533.014	26.39
533.36	26.44
533.706	26.76
534.052	26.88
534.399	26.96
534.745	27.04
535.091	27.01
535.437	26.95
535.783	26.55
536.129	26.42
536.474	26.4
536.82	26.68
537.166	26.92
537.512	27.03
537.857	27.24
538.203	27.39
538.549	27.4
538.894	27.36
539.239	27.24
539.585	27.04
539.93	27.1
540.276	27.29
540.621	27.42
540.966	27.63
541.311	27.77
541.656	27.99
542.001	28.03
542.346	27.94
542.691	27.82
543.036	27.79
543.381	27.67
543.726	27.41
544.071	27.23
544.415	27.18
544.76	27.23
545.105	27.45
545.449	27.64
545.794	27.74
546.138	27.72
546.483	27.88
546.827	28.01
547.171	28.14
547.516	28.26
547.86	28.31
548.204	28.31
548.548	28.42
548.892	28.36
549.236	28.35
549.58	28.15
549.924	28.15
550.268	28.31
550.612	28.32
550.956	28.82
551.3	28.69
551.643	28.78
551.987	28.91
552.33	29.01
552.674	28.98
553.017	29.07
553.361	28.94
553.704	29.04
554.048	29.15
554.391	29.31
554.734	29.18
555.077	29.23
555.42	29.28
555.764	29.17
556.107	28.99
556.45	29.06
556.793	29.37
557.135	29.5
557.478	29.42
557.821	29.58
558.164	29.51
558.507	29.64
558.849	29.57
559.192	29.72
559.534	29.63
559.877	29.63
560.219	29.45
560.562	29.58
560.904	29.65
561.246	30.06
561.589	30.12
561.931	30.22
562.273	30.14
562.615	29.83
562.957	30.31
563.299	30.22
563.641	30.04
563.983	30.09
564.325	30.17
564.667	30.23
565.008	30.27
565.35	30.35
565.692	30.41
566.033	30.49
566.375	30.42
566.716	30.54
567.058	30.43
567.399	30.38
567.741	30.48
568.082	30.56
568.423	30.38
568.764	30.42
569.105	30.32
569.447	30.35
569.788	30.38
570.129	30.41
570.47	30.39
570.811	30.74
571.151	30.85
571.492	30.98
571.833	30.79
572.174	31.02
572.514	30.8
572.855	30.93
573.195	30.96
573.536	30.94
573.876	31.21
574.217	31.07
574.557	30.89
574.898	30.72
575.238	30.88
575.578	31.08
575.918	31.22
576.258	31.36
576.598	31.38
576.938	31.42
577.278	31.41
577.618	31.26
577.958	31.14
578.298	31.16
578.638	31.28
578.977	31.51
579.317	31.39
579.657	31.41
579.996	31.47
580.336	31.58
580.675	31.8
581.014	31.46
581.354	31.87
581.693	31.44
582.032	31.78
582.372	31.91
582.711	31.66
583.05	32.17
583.389	31.99
583.728	32.05
584.067	32.24
584.406	32.35
584.745	32.16
585.083	32.41
585.422	32.26
585.761	32.51
586.1	32.29
586.438	32.59
586.777	32.4
587.115	32.07
587.454	32.47
587.792	32.48
588.13	32.6
588.469	32.66
588.807	32.73
589.145	32.58
589.483	32.61
589.821	32.57
590.159	32.93
590.497	32.98
590.835	32.81
591.173	32.71
591.511	33
591.849	32.88
592.187	32.97
592.524	32.97
592.862	32.83
593.2	33.03
593.537	33.11
593.875	33.14
594.212	32.9
594.55	33.07
594.887	33.18
595.224	33.49
595.561	33.36
595.899	33.27
596.236	33.54
596.573	33.05
596.91	33.24
597.247	33.09
597.584	33.03
597.921	33.42
598.258	33.5
598.594	33.41
598.931	33.55
599.268	33.25
599.604	33.09
599.941	33.28
600.277	33.11
600.614	33.1
600.95	33.17
601.287	33.41
601.623	33.44
601.959	33.89
602.296	33.76
602.632	34.02
602.968	33.86
603.304	33.76
603.64	33.58
603.976	33.92
604.312	34.26
604.648	34.24
604.984	33.97
605.319	33.93
605.655	34.1
605.991	33.94
606.326	33.97
606.662	34.17
606.998	34.1
607.333	33.92
607.668	33.87
608.004	33.63
608.339	33.71
608.674	34.16
609.01	34.34
609.345	34.3
609.68	34.5
610.015	34.36
610.35	34.23
610.685	34.63
611.02	34.71
611.355	34.81
611.689	34.37
612.024	34.61
612.359	34.22
612.694	34.49
613.028	34.27
613.363	34.66
613.697	34.47
614.032	34.65
614.366	34.97
614.7	34.65
615.035	34.77
615.369	34.66
615.703	34.83
616.037	35.04
616.371	35.44
616.705	35.01
617.039	35.24
617.373	35.47
617.707	35.24
618.041	35.24
618.375	35.1
618.709	35.58
619.042	35.54
619.376	35.37
619.71	35.29
620.043	35.19
620.377	35.45
620.71	35.52
621.043	35.49
621.377	35.64
621.71	35.44
622.043	35.34
622.376	35.42
622.709	35.42
623.043	35.12
623.376	35.21
623.709	35.81
624.041	35.31
624.374	35.74
624.707	35.74
625.04	35.72
625.373	36.1
625.705	35.64
626.038	35.46
626.37	35.71
626.703	36.27
627.035	36.13
627.368	35.88
627.7	36.2
628.032	36.5
628.365	36.22
628.697	36.19
629.029	36.29
629.361	36.08
629.693	36.32
630.025	35.91
630.357	35.94
630.689	36.09
631.021	36.17
631.353	36.49
631.684	36.16
632.016	36.15
632.348	36.45
632.679	36.52
633.011	36.46
633.342	36.51
633.674	37
634.005	36.41
634.336	36.37
634.668	37.06
634.999	36.67
635.33	36.88
635.661	36.84
635.992	36.89
636.323	37.08
636.654	37.01
636.985	36.41
637.316	36.81
637.647	37.04
637.977	36.74
638.308	36.82
638.639	37.1
638.969	36.9
639.3	36.97
639.63	37.41
639.961	37.75
640.291	37.28
640.622	37.33
640.952	37.07
641.282	37.18
641.612	37.39
641.943	37.45
642.273	37.09
642.603	37.21
642.933	37.03
643.263	38.03
643.592	37.39
643.922	37.43
644.252	37.07
644.582	37.57
644.911	37.76
645.241	37.7
645.571	37.39
645.9	37.67
646.23	37.63
646.559	38.07
646.888	38.02
647.218	38.2
647.547	38.47
647.876	37.63
648.205	37.36
648.534	37.77
648.863	37.97
649.192	37.97
649.521	37.86
649.85	38.13
650.179	38.26
650.508	38
650.837	38
651.165	38.09
651.494	38.19
651.822	38.08
652.151	38.16
652.479	38.17
652.808	38.33
653.136	38.71
653.465	38.18
653.793	38.62
654.121	38.38
654.449	38.59
654.777	38.61
655.105	37.97
655.433	38.39
655.761	38.58
656.089	38.27
656.417	38.02
656.745	38.59
657.073	38.65
657.4	39.13
657.728	38.51
658.056	38.08
658.383	38.2
658.711	38.53
659.038	38.33
659.365	38.38
659.693	38.15
660.02	38.44
660.347	39.1
660.674	39.02
661.001	38.92
661.329	39.27
661.656	38.92
661.982	39
662.309	39.02
662.636	38.62
662.963	38.62
663.29	38.25
663.616	39.13
663.943	39.35
664.27	39.07
664.596	38.97
664.923	39.22
665.249	39.08
665.576	39.06
665.902	39.57
666.228	40.02
666.554	39.6
666.881	39.83
667.207	40.3
667.533	39.32
667.859	39.64
668.185	39.83
668.511	39.45
668.837	38.6
669.162	39.62
669.488	39.79
669.814	40.07
670.139	39.08
670.465	40.19
670.791	39.94
671.116	39.86
671.442	40.02
671.767	39.31
672.092	39.45
