Data from 0014_chest_Reflection__4__24.txt Node

Date: Mon Oct 17 14:36:27 CDT 2022
User: ToomeyLab
Spectrometer: FLMS14357
Trigger mode: 0
Integration Time (sec): 1.000000E-2
Scans to average: 100
Electric dark correction enabled: true
Nonlinearity correction enabled: false
Boxcar width: 0
XAxis mode: Wavelengths
Number of Pixels in Spectrum: 2048
>>>>>Begin Spectral Data<<<<<
189.047	-35.99
189.435	-35.99
189.823	-35.99
190.211	-326.29
190.599	-39.21
190.987	-723.82
191.375	31.59
191.763	-1237.05
192.151	-2085.16
192.538	-31.11
192.926	739.41
193.314	167.61
193.702	135.89
194.089	-32.65
194.477	1213.28
194.864	-189.26
195.252	6.94
195.639	49.37
196.027	81.3
196.414	44.02
196.801	-57.63
197.189	79.73
197.576	51.87
197.963	-55.57
198.351	-86.18
198.738	31.69
199.125	6.63
199.512	-17.71
199.899	-14.55
200.286	29.93
200.673	24.29
201.06	-94.49
201.447	5.28
201.833	15.24
202.22	3.18
202.607	-13.56
202.994	11.45
203.38	-2.02
203.767	23.12
204.154	26.67
204.54	-19.97
204.927	-10.73
205.313	-19.57
205.699	13.32
206.086	-14.05
206.472	-1.03
206.858	17.55
207.245	3.11
207.631	20.92
208.017	37.55
208.403	30.04
208.789	40.89
209.175	-5.79
209.561	-40.84
209.947	-11.46
210.333	46.55
210.719	18.49
211.105	7.3
211.491	31.12
211.876	-8.81
212.262	-0.09
212.648	3.17
213.034	-24.67
213.419	2.01
213.805	-24.02
214.19	14.67
214.576	8.63
214.961	-10.06
215.346	25.87
215.732	3.26
216.117	20.01
216.502	10.66
216.888	0.41
217.273	19.49
217.658	12.69
218.043	-26.03
218.428	3.79
218.813	0.38
219.198	2.65
219.583	-5.87
219.968	-5.81
220.353	-0.36
220.738	-20.91
221.122	5.9
221.507	0.01
221.892	3.5
222.276	-10.11
222.661	7.78
223.046	8
223.43	-3.32
223.815	-0.99
224.199	9.54
224.583	1.25
224.968	-0.7
225.352	-9.95
225.736	6.2
226.121	0.08
226.505	-0.08
226.889	4.33
227.273	3.56
227.657	5.15
228.041	3.13
228.425	2.12
228.809	2.88
229.193	4.3
229.577	3.6
229.961	4.86
230.344	3.34
230.728	4.06
231.112	3.43
231.495	4.13
231.879	3.59
232.263	5.44
232.646	5.2
233.03	2.96
233.413	2.01
233.797	2.74
234.18	4.31
234.563	1.38
234.946	3.87
235.33	3.49
235.713	4.32
236.096	4.87
236.479	2.75
236.862	3.76
237.245	2.92
237.628	3.56
238.011	4.13
238.394	3.85
238.777	3.84
239.16	3.97
239.543	4.2
239.925	4.5
240.308	4.15
240.691	3.67
241.073	2.88
241.456	2.94
241.838	3.6
242.221	3.37
242.603	4.19
242.986	3.62
243.368	4.23
243.75	3.63
244.133	3.66
244.515	4.23
244.897	4.1
245.279	4.24
245.661	4.42
246.043	3.84
246.425	3.48
246.807	3.44
247.189	3.94
247.571	4.04
247.953	3.78
248.335	3.9
248.717	3.89
249.098	4.11
249.48	4.07
249.862	3.7
250.243	3.92
250.625	4.26
251.006	3.92
251.388	3.54
251.769	3.82
252.151	3.82
252.532	3.44
252.913	4.09
253.295	3.08
253.676	4.02
254.057	4.22
254.438	4.16
254.819	4.14
255.2	5.18
255.581	4.41
255.962	3.34
256.343	3.45
256.724	3.75
257.105	3.89
257.486	3.7
257.867	3.48
258.247	2.71
258.628	4.45
259.009	4.44
259.389	3.49
259.77	4.13
260.15	3.62
260.531	3.23
260.911	3.96
261.292	3.85
261.672	3.77
262.052	3.64
262.432	3.56
262.813	3.5
263.193	3.63
263.573	3.94
263.953	3.29
264.333	3.6
264.713	3.74
265.093	3.53
265.473	3.47
265.853	3.72
266.233	5.03
266.612	3.75
266.992	4.51
267.372	4
267.752	3.69
268.131	3.9
268.511	3.89
268.89	3.57
269.27	3.48
269.649	4.19
270.029	3.93
270.408	3.61
270.787	3.46
271.167	3.5
271.546	3.67
271.925	3.83
272.304	3.61
272.683	3.79
273.062	3.81
273.441	3.6
273.82	3.55
274.199	3.63
274.578	3.77
274.957	3.52
275.336	3.96
275.715	3.72
276.093	2.93
276.472	3.6
276.851	3.44
277.229	3.68
277.608	3.31
277.986	3.34
278.365	3.55
278.743	3.76
279.122	3.43
279.5	4.16
279.878	3.65
280.257	3.69
280.635	3.91
281.013	3.75
281.391	3.67
281.769	3.92
282.147	4.28
282.525	3.41
282.903	3.1
283.281	3.63
283.659	3.47
284.037	3.66
284.415	3.49
284.792	3.37
285.17	3.36
285.548	3.38
285.925	3.57
286.303	3.65
286.68	4.05
287.058	3.72
287.435	3.69
287.813	3.76
288.19	3.6
288.567	3.44
288.945	3.44
289.322	4.06
289.699	3.61
290.076	4.01
290.453	3.37
290.83	3.39
291.207	3.59
291.584	3.7
291.961	3.7
292.338	3.75
292.715	3.8
293.092	3.5
293.469	3.38
293.845	3.8
294.222	3.8
294.599	4.2
294.975	3.43
295.352	3.52
295.728	3.21
296.105	3.62
296.481	3.81
296.858	4.1
297.234	3.76
297.61	3.56
297.986	3.64
298.363	3.73
298.739	4
299.115	3.7
299.491	3.52
299.867	3.79
300.243	4
300.619	3.33
300.995	3.27
301.371	3.83
301.746	3.94
302.122	3.49
302.498	3.34
302.874	3.69
303.249	3.74
303.625	4.1
304	3.57
304.376	3.89
304.751	3.79
305.127	3.83
305.502	3.86
305.878	3.99
306.253	3.57
306.628	3.66
307.003	3.76
307.378	3.45
307.754	3.83
308.129	3.58
308.504	4.08
308.879	3.76
309.254	3.92
309.629	3.57
310.003	3.77
310.378	3.61
310.753	3.56
311.128	3.57
311.502	3.69
311.877	3.62
312.252	3.8
312.626	3.82
313.001	3.59
313.375	3.44
313.75	3.71
314.124	3.95
314.498	3.84
314.873	3.73
315.247	3.83
315.621	4.16
315.995	3.67
316.369	3.58
316.743	3.61
317.117	3.73
317.491	3.89
317.865	4.1
318.239	3.85
318.613	3.89
318.987	3.76
319.361	3.63
319.734	4.17
320.108	3.53
320.482	3.8
320.855	3.56
321.229	4.15
321.602	3.99
321.976	3.17
322.349	3.71
322.723	3.3
323.096	3.88
323.469	4.09
323.843	3.84
324.216	3.86
324.589	3.42
324.962	3.95
325.335	3.45
325.708	4.11
326.081	3.42
326.454	4.07
326.827	3.68
327.2	3.39
327.573	3.74
327.945	3.46
328.318	3.98
328.691	3.56
329.063	3.84
329.436	3.08
329.809	3.73
330.181	4.05
330.553	2.98
330.926	3.72
331.298	4.09
331.671	4.39
332.043	3.72
332.415	3.87
332.787	3.87
333.159	4.13
333.532	3.72
333.904	3.44
334.276	3.6
334.648	3.78
335.02	3.59
335.391	3.75
335.763	4.29
336.135	3.63
336.507	4.17
336.879	3.89
337.25	4.44
337.622	3.65
337.993	3.44
338.365	3.72
338.736	3.54
339.108	4.32
339.479	3.79
339.851	4.11
340.222	3.63
340.593	3.86
340.964	3.59
341.336	3.79
341.707	3.98
342.078	4.21
342.449	3.78
342.82	3.76
343.191	3.64
343.562	3.77
343.933	3.73
344.303	3.5
344.674	3.88
345.045	3.97
345.416	3.96
345.786	3.9
346.157	3.75
346.527	3.74
346.898	3.71
347.268	3.99
347.639	3.5
348.009	3.56
348.38	3.97
348.75	3.53
349.12	3.78
349.49	3.55
349.861	4.12
350.231	3.89
350.601	4.01
350.971	3.88
351.341	3.55
351.711	3.37
352.081	3.78
352.45	3.91
352.82	4.02
353.19	3.81
353.56	3.6
353.929	3.92
354.299	3.8
354.669	3.97
355.038	4.25
355.408	4
355.777	3.56
356.147	4.01
356.516	3.9
356.885	4.19
357.254	4.06
357.624	4.15
357.993	3.9
358.362	3.63
358.731	3.68
359.1	3.68
359.469	3.75
359.838	3.74
360.207	3.93
360.576	3.75
360.945	3.8
361.314	3.94
361.682	4.11
362.051	3.76
362.42	3.73
362.788	3.97
363.157	3.85
363.525	3.83
363.894	4.01
364.262	4.01
364.631	3.97
364.999	4.08
365.367	3.59
365.735	3.87
366.104	3.69
366.472	3.71
366.84	3.76
367.208	4.24
367.576	3.86
367.944	3.8
368.312	3.77
368.68	4.05
369.048	3.94
369.416	3.88
369.783	4.14
370.151	3.87
370.519	4.08
370.886	3.78
371.254	3.59
371.621	3.69
371.989	4.25
372.356	3.93
372.724	4.05
373.091	4.3
373.458	3.89
373.826	4.13
374.193	4.06
374.56	4.31
374.927	4.01
375.294	3.91
375.661	3.97
376.028	4.06
376.395	3.87
376.762	3.86
377.129	4.05
377.496	4.03
377.863	3.54
378.229	4.19
378.596	3.78
378.963	4.06
379.329	4.02
379.696	3.96
380.062	4.25
380.429	3.64
380.795	4.09
381.161	4.18
381.528	4.02
381.894	3.82
382.26	4.04
382.626	4.04
382.993	4.14
383.359	4
383.725	3.98
384.091	3.9
384.457	3.82
384.823	3.83
385.188	3.81
385.554	3.94
385.92	4.09
386.286	3.85
386.651	3.99
387.017	3.75
387.383	3.78
387.748	4.03
388.114	3.99
388.479	4.07
388.845	4.16
389.21	4.08
389.575	4.12
389.94	4.27
390.306	4.09
390.671	4.18
391.036	4.04
391.401	3.91
391.766	3.83
392.131	3.87
392.496	4.09
392.861	3.95
393.226	4.18
393.591	3.89
393.956	4.02
394.32	4.04
394.685	3.99
395.05	4.08
395.414	4.32
395.779	4.01
396.143	4.21
396.508	4
396.872	4.05
397.236	4.16
397.601	4.06
397.965	3.94
398.329	4.07
398.694	4.12
399.058	4
399.422	4.18
399.786	4.33
400.15	4.22
400.514	3.99
400.878	4.13
401.242	3.92
401.605	4.24
401.969	4.15
402.333	4.07
402.697	4.07
403.06	4.01
403.424	3.89
403.787	4.12
404.151	4.22
404.514	4.1
404.878	4.22
405.241	4
405.604	4.13
405.968	4.02
406.331	3.93
406.694	4.18
407.057	4.01
407.42	4.03
407.783	4.44
408.146	4.38
408.509	4.52
408.872	4.19
409.235	4.25
409.598	4.01
409.961	3.86
410.323	4.07
410.686	4.12
411.049	3.99
411.411	4.36
411.774	4.11
412.136	4.05
412.499	4.06
412.861	4.24
413.223	4.01
413.586	4.15
413.948	4.23
414.31	4.27
414.672	4.28
415.035	4.07
415.397	4.33
415.759	4.18
416.121	4.11
416.483	4.23
416.845	4.21
417.206	4.11
417.568	4.34
417.93	4.03
418.292	4.19
418.653	4.11
419.015	4.35
419.377	4.23
419.738	4.08
420.1	4.15
420.461	4.09
420.822	4.29
421.184	4.12
421.545	4.16
421.906	4.12
422.267	4.16
422.629	4.01
422.99	4.07
423.351	4.13
423.712	4.21
424.073	4.1
424.434	4.11
424.795	4.24
425.155	4.23
425.516	4.11
425.877	4.11
426.238	4.1
426.598	4.1
426.959	4.11
427.32	4.17
427.68	4.08
428.041	4.01
428.401	4.24
428.761	4.16
429.122	4.22
429.482	4.15
429.842	4.18
430.202	4.35
430.563	4.25
430.923	4.24
431.283	4.31
431.643	4.34
432.003	4.18
432.363	4.37
432.722	4.33
433.082	4.03
433.442	4.48
433.802	4.22
434.161	4.2
434.521	4.42
434.881	4.34
435.24	4.19
435.6	4.26
435.959	4.15
436.319	4.32
436.678	4.3
437.037	4.34
437.396	4.21
437.756	4.36
438.115	4.26
438.474	4.27
438.833	4.13
439.192	4.16
439.551	4.11
439.91	4.23
440.269	4.34
440.628	4.23
440.987	4.31
441.345	4.24
441.704	4.2
442.063	4.15
442.421	4.24
442.78	4.23
443.138	4.25
443.497	4.3
443.855	4.34
444.214	4.3
444.572	4.25
444.93	4.32
445.288	4.29
445.647	4.34
446.005	4.55
446.363	4.29
446.721	4.2
447.079	4.28
447.437	4.34
447.795	4.32
448.153	4.28
448.51	4.13
448.868	4.27
449.226	4.26
449.584	4.3
449.941	4.38
450.299	4.44
450.656	4.21
451.014	4.41
451.371	4.45
451.729	4.43
452.086	4.41
452.443	4.53
452.801	4.53
453.158	4.62
453.515	4.34
453.872	4.33
454.229	4.32
454.586	4.36
454.943	4.44
455.3	4.47
455.657	4.44
456.014	4.33
456.371	4.5
456.727	4.31
457.084	4.42
457.441	4.5
457.797	4.46
458.154	4.43
458.51	4.39
458.867	4.32
459.223	4.52
459.58	4.39
459.936	4.37
460.292	4.57
460.648	4.36
461.005	4.53
461.361	4.41
461.717	4.39
462.073	4.31
462.429	4.38
462.785	4.46
463.141	4.6
463.496	4.37
463.852	4.43
464.208	4.35
464.564	4.5
464.919	4.5
465.275	4.4
465.631	4.6
465.986	4.45
466.342	4.5
466.697	4.63
467.052	4.49
467.408	4.48
467.763	4.34
468.118	4.51
468.473	4.66
468.829	4.47
469.184	4.58
469.539	4.39
469.894	4.46
470.249	4.52
470.603	4.53
470.958	4.73
471.313	4.58
471.668	4.62
472.023	4.34
472.377	4.6
472.732	4.51
473.086	4.54
473.441	4.68
473.795	4.55
474.15	4.57
474.504	4.62
474.859	4.43
475.213	4.54
475.567	4.73
475.921	4.59
476.275	4.43
476.63	4.74
476.984	4.74
477.338	4.68
477.692	4.74
478.045	4.76
478.399	4.68
478.753	4.63
479.107	4.67
479.461	4.65
479.814	4.63
480.168	4.62
480.521	4.54
480.875	4.65
481.228	4.57
481.582	4.65
481.935	4.7
482.289	4.54
482.642	4.71
482.995	4.64
483.348	4.68
483.701	4.55
484.055	4.54
484.408	4.71
484.761	4.51
485.114	4.42
485.466	4.4
485.819	4.4
486.172	4.4
486.525	4.41
486.878	4.43
487.23	4.46
487.583	4.51
487.936	4.57
488.288	4.51
488.641	4.49
488.993	4.47
489.345	4.49
489.698	4.51
490.05	4.5
490.402	4.52
490.754	4.52
491.107	4.57
491.459	4.55
491.811	4.67
492.163	4.66
492.515	4.61
492.866	4.59
493.218	4.61
493.57	4.54
493.922	4.59
494.274	4.56
494.625	4.61
494.977	4.71
495.328	4.73
495.68	4.71
496.031	4.79
496.383	4.75
496.734	4.74
497.086	4.67
497.437	4.78
497.788	4.83
498.139	4.7
498.49	4.7
498.842	4.82
499.193	4.75
499.544	4.72
499.894	4.78
500.245	4.77
500.596	4.76
500.947	4.9
501.298	4.96
501.648	4.83
501.999	4.86
502.35	4.93
502.7	4.89
503.051	4.93
503.401	5.06
503.752	4.96
504.102	4.94
504.452	4.91
504.803	4.85
505.153	4.94
505.503	4.96
505.853	4.94
506.203	4.97
506.553	4.95
506.903	4.99
507.253	4.92
507.603	4.96
507.953	4.93
508.303	4.97
508.652	5.03
509.002	5.11
509.352	5
509.701	4.93
510.051	4.95
510.4	4.89
510.75	4.99
511.099	4.98
511.449	4.91
511.798	4.96
512.147	5
512.496	5.04
512.846	5.07
513.195	5.05
513.544	4.99
513.893	5.05
514.242	5.1
514.591	5.07
514.939	4.97
515.288	4.96
515.637	5.16
515.986	5.17
516.334	5.09
516.683	5.1
517.032	5.02
517.38	5.14
517.729	5.19
518.077	5.29
518.426	5.16
518.774	5.09
519.122	5.13
519.47	5.22
519.819	5.2
520.167	5.14
520.515	5.11
520.863	5.18
521.211	5.09
521.559	5.14
521.907	5.21
522.255	5.18
522.602	5.21
522.95	5.2
523.298	5.23
523.645	5.3
523.993	5.24
524.341	5.3
524.688	5.27
525.036	5.33
525.383	5.31
525.73	5.34
526.078	5.23
526.425	5.29
526.772	5.28
527.119	5.25
527.466	5.22
527.814	5.25
528.161	5.29
528.508	5.28
528.854	5.19
529.201	5.24
529.548	5.29
529.895	5.16
530.242	5.16
530.588	5.14
530.935	5.16
531.282	5.17
531.628	5.21
531.975	5.2
532.321	5.21
532.667	5.35
533.014	5.4
533.36	5.41
533.706	5.48
534.052	5.38
534.399	5.38
534.745	5.38
535.091	5.37
535.437	5.37
535.783	5.39
536.129	5.37
536.474	5.44
536.82	5.53
537.166	5.5
537.512	5.58
537.857	5.54
538.203	5.59
538.549	5.52
538.894	5.59
539.239	5.67
539.585	5.62
539.93	5.56
540.276	5.61
540.621	5.64
540.966	5.67
541.311	5.7
541.656	5.76
542.001	5.79
542.346	5.67
542.691	5.73
543.036	5.55
543.381	5.59
543.726	5.57
544.071	5.61
544.415	5.63
544.76	5.71
545.105	5.62
545.449	5.77
545.794	5.77
546.138	5.76
546.483	5.76
546.827	5.89
547.171	5.81
547.516	5.96
547.86	5.97
548.204	5.92
548.548	6.02
548.892	5.96
549.236	6.01
549.58	5.84
549.924	5.99
550.268	6.01
550.612	6.09
550.956	6.08
551.3	6.11
551.643	6.18
551.987	6.19
552.33	6.03
552.674	6.13
553.017	6.21
553.361	6.19
553.704	5.96
554.048	6.08
554.391	6.28
554.734	6.17
555.077	6.33
555.42	6.36
555.764	6.26
556.107	6.24
556.45	6.37
556.793	6.34
557.135	6.54
557.478	6.46
557.821	6.53
558.164	6.45
558.507	6.6
558.849	6.46
559.192	6.56
559.534	6.43
559.877	6.37
560.219	6.45
560.562	6.34
560.904	6.51
561.246	6.64
561.589	6.68
561.931	6.73
562.273	6.7
562.615	6.54
562.957	6.58
563.299	6.62
563.641	6.67
563.983	6.75
564.325	6.8
564.667	6.69
565.008	6.78
565.35	6.79
565.692	6.89
566.033	6.63
566.375	6.85
566.716	6.74
567.058	6.82
567.399	6.85
567.741	6.84
568.082	6.89
568.423	7.01
568.764	6.94
569.105	6.75
569.447	6.9
569.788	7.06
570.129	7.09
570.47	7.13
570.811	7.08
571.151	7.17
571.492	7.34
571.833	7.05
572.174	7.22
572.514	7.25
572.855	7.09
573.195	7.15
573.536	7.08
573.876	7.24
574.217	7.21
574.557	6.99
574.898	7.26
575.238	7.29
575.578	7.49
575.918	7.33
576.258	7.47
576.598	7.21
576.938	7.36
577.278	7.52
577.618	7.61
577.958	7.43
578.298	7.52
578.638	7.51
578.977	7.55
579.317	7.58
579.657	7.52
579.996	7.59
580.336	7.63
580.675	7.58
581.014	7.58
581.354	7.79
581.693	7.76
582.032	7.74
582.372	7.85
582.711	7.74
583.05	7.9
583.389	7.67
583.728	8.01
584.067	7.76
584.406	7.63
584.745	8.04
585.083	8.06
585.422	8.03
585.761	8.22
586.1	8.14
586.438	8.18
586.777	8.19
587.115	7.96
587.454	8.2
587.792	8.41
588.13	8.32
588.469	8.4
588.807	8.34
589.145	8.49
589.483	8.15
589.821	8.33
590.159	8.11
590.497	8.34
590.835	8.28
591.173	8.53
591.511	8.49
591.849	8.52
592.187	8.53
592.524	8.43
592.862	8.57
593.2	8.61
593.537	8.7
593.875	8.84
594.212	8.57
594.55	8.54
594.887	8.71
595.224	8.81
595.561	8.67
595.899	8.92
596.236	8.77
596.573	8.8
596.91	8.79
597.247	8.92
597.584	8.63
597.921	9
598.258	8.86
598.594	8.94
598.931	8.81
599.268	8.82
599.604	8.9
599.941	9.02
600.277	9.06
600.614	8.89
600.95	8.85
601.287	9.04
601.623	9.08
601.959	8.73
602.296	9.32
602.632	9.2
602.968	9.15
603.304	9.45
603.64	9.24
603.976	9.23
604.312	9.34
604.648	9.19
604.984	9.41
605.319	9.13
605.655	9.37
605.991	9.45
606.326	9.43
606.662	9.44
606.998	9.27
607.333	9.54
607.668	9.35
608.004	9.59
608.339	9.65
608.674	9.66
609.01	9.77
609.345	9.79
609.68	9.64
610.015	9.62
610.35	9.72
610.685	9.7
611.02	9.95
611.355	9.78
611.689	9.58
612.024	10.03
612.359	9.81
612.694	9.89
613.028	9.73
613.363	10.07
613.697	9.92
614.032	10.23
614.366	10.04
614.7	10.24
615.035	9.94
615.369	10.18
615.703	10.31
616.037	10.41
616.371	10.15
616.705	10.32
617.039	10.51
617.373	10.65
617.707	10.68
618.041	10.57
618.375	10.49
618.709	10.76
619.042	10.72
619.376	10.47
619.71	10.67
620.043	10.5
620.377	10.58
620.71	10.79
621.043	11.15
621.377	10.9
621.71	10.86
622.043	10.85
622.376	10.68
622.709	10.77
623.043	10.51
623.376	10.57
623.709	10.9
624.041	11.21
624.374	10.87
624.707	11.08
625.04	11.21
625.373	11.27
625.705	10.72
626.038	10.49
626.37	11.13
626.703	11.06
627.035	11.17
627.368	11.1
627.7	11.2
628.032	11.29
628.365	11.17
628.697	11.31
629.029	11.5
629.361	11.38
629.693	11.37
630.025	11.45
630.357	11.36
630.689	11.1
631.021	11.54
631.353	11.6
631.684	11.32
632.016	11.59
632.348	11.94
632.679	11.7
633.011	11.54
633.342	11.63
633.674	11.9
634.005	11.82
634.336	11.65
634.668	12.12
634.999	11.58
635.33	11.83
635.661	11.95
635.992	11.96
636.323	12.17
636.654	12.01
636.985	11.9
637.316	12.28
637.647	11.92
637.977	11.98
638.308	12.09
638.639	12.04
638.969	11.96
639.3	12.44
639.63	12.4
639.961	12.14
640.291	12.11
640.622	12.36
640.952	12.49
641.282	12.68
641.612	12.27
641.943	12.29
642.273	12.29
642.603	12.79
642.933	12.59
643.263	12.74
643.592	12.61
643.922	12.83
644.252	12.45
644.582	12.76
644.911	12.82
645.241	12.92
645.571	12.54
645.9	13.37
646.23	12.81
646.559	12.67
646.888	12.97
647.218	13.02
647.547	13.21
647.876	13.12
648.205	12.92
648.534	13.28
648.863	12.97
649.192	12.95
649.521	13.29
649.85	13.29
650.179	13.33
650.508	12.88
650.837	13.07
651.165	13.24
651.494	13.43
651.822	13.49
652.151	13.41
652.479	13.26
652.808	12.88
653.136	13.3
653.465	13.33
653.793	13.22
654.121	13.69
654.449	13.93
654.777	13.64
655.105	13.14
655.433	14.04
655.761	13.62
656.089	13.41
656.417	13.76
656.745	13.33
657.073	14.1
657.4	14.15
657.728	14.25
658.056	13.51
658.383	13.86
658.711	14.03
659.038	14.1
659.365	13.85
659.693	13.49
660.02	14.04
660.347	14.2
660.674	14.02
661.001	14.23
661.329	14.15
661.656	14.04
661.982	14.28
662.309	14.4
662.636	14.51
662.963	14.2
663.29	14.54
663.616	14.27
663.943	14.46
664.27	14.42
664.596	14.33
664.923	14.36
665.249	14.86
665.576	14.48
665.902	14.48
666.228	14.75
666.554	14.83
666.881	14.65
667.207	14.88
667.533	15.31
667.859	15.22
668.185	15.13
668.511	15.17
668.837	14.9
669.162	14.89
669.488	15.08
669.814	15.21
670.139	14.85
670.465	15.2
670.791	15.06
671.116	15.43
671.442	14.77
671.767	14.82
672.092	14.96
672.418	15.47
672.743	15.1
673.068	15.45
673.393	15.71
673.718	15.14
674.043	14.98
674.368	15.11
674.693	14.7
675.018	15.77
675.343	16.18
675.667	15.54
675.992	15.09
676.317	15.27
676.641	15.72
676.966	15.49
677.29	15.88
677.615	15.32
677.939	16.14
678.264	15.65
678.588	16.1
678.912	15.56
679.236	16.19
679.56	15.66
679.885	16.13
680.209	16.09
680.532	15.76
680.856	15.53
681.18	16.25
681.504	16.4
681.828	16.6
682.152	16.5
682.475	16.57
682.799	16.51
683.122	16.27
683.446	15.95
683.769	16.26
684.093	16.31
684.416	16.54
684.739	16.27
685.062	16.43
685.386	16.31
685.709	16.47
686.032	17.13
686.355	16.12
686.678	16.15
687.001	16.7
687.324	16.92
