Data from 0223_chest_Reflection__4__51.txt Node

Date: Fri Oct 20 21:04:14 CDT 2023
User: ToomeyLab
Spectrometer: FLMS14357
Trigger mode: 0
Integration Time (sec): 1.000000E-2
Scans to average: 100
Electric dark correction enabled: true
Nonlinearity correction enabled: false
Boxcar width: 0
XAxis mode: Wavelengths
Number of Pixels in Spectrum: 2048
>>>>>Begin Spectral Data<<<<<
189.047	-438.33
189.435	-438.33
189.823	-438.33
190.211	97.33
190.599	-545.78
190.987	143.64
191.375	-501.58
191.763	-436.34
192.151	-784.21
192.538	122.65
192.926	125.61
193.314	99.84
193.702	109.63
194.089	130.52
194.477	-121.85
194.864	78.36
195.252	153
195.639	-91.88
196.027	-182.24
196.414	148.21
196.801	1160.05
197.189	57.17
197.576	-1717.37
197.963	1245.82
198.351	28.27
198.738	52.76
199.125	36.39
199.512	38.23
199.899	-6.43
200.286	-14.92
200.673	15.91
201.06	51.66
201.447	8.32
201.833	46.19
202.22	27.64
202.607	38.69
202.994	53.23
203.38	45.91
203.767	48.71
204.154	35.39
204.54	45.15
204.927	-0.9
205.313	32.41
205.699	50.23
206.086	15.33
206.472	36.01
206.858	12.43
207.245	26.06
207.631	60.87
208.017	57.56
208.403	9.81
208.789	48.37
209.175	36.82
209.561	4.42
209.947	25.3
210.333	2.85
210.719	28.97
211.105	3.73
211.491	35.38
211.876	20.32
212.262	31.82
212.648	19.26
213.034	22.28
213.419	1.73
213.805	0.84
214.19	-12.77
214.576	28.06
214.961	9.28
215.346	30.53
215.732	8.51
216.117	0.07
216.502	31.82
216.888	-9.83
217.273	26.98
217.658	10.11
218.043	6.65
218.428	15.51
218.813	30.29
219.198	20.29
219.583	-31.67
219.968	-2.49
220.353	27.66
220.738	13.98
221.122	3.7
221.507	7.35
221.892	20.33
222.276	26.8
222.661	25.14
223.046	14.05
223.43	17.19
223.815	18.53
224.199	16.85
224.583	3.46
224.968	5.43
225.352	-2.4
225.736	9.26
226.121	13.62
226.505	6.7
226.889	17.5
227.273	8.23
227.657	13.03
228.041	14.45
228.425	6.48
228.809	7.59
229.193	5.89
229.577	9.07
229.961	5.59
230.344	4.23
230.728	4.31
231.112	5.33
231.495	4.19
231.879	4.99
232.263	5
232.646	4.44
233.03	3.91
233.413	3.66
233.797	5.28
234.18	5.51
234.563	5.24
234.946	6.42
235.33	4.18
235.713	4.74
236.096	5.84
236.479	5.81
236.862	5.53
237.245	4.25
237.628	5.05
238.011	4.33
238.394	6.04
238.777	6.27
239.16	5.51
239.543	5.85
239.925	7.27
240.308	5.09
240.691	5.2
241.073	4.96
241.456	5.44
241.838	4.36
242.221	4.98
242.603	4.68
242.986	4.72
243.368	4.73
243.75	4.79
244.133	4.03
244.515	4.27
244.897	4.32
245.279	4.26
245.661	4.5
246.043	4.05
246.425	4.55
246.807	4.3
247.189	3.82
247.571	4.48
247.953	4.77
248.335	4.49
248.717	4.14
249.098	4.21
249.48	3.91
249.862	4.55
250.243	4.58
250.625	4.71
251.006	4.58
251.388	4.02
251.769	4.75
252.151	3.75
252.532	4.82
252.913	4.93
253.295	3.36
253.676	4.02
254.057	4.07
254.438	4.47
254.819	4.75
255.2	4.65
255.581	3.67
255.962	5.17
256.343	4.81
256.724	3.3
257.105	4.08
257.486	4.89
257.867	4.62
258.247	4.85
258.628	4.18
259.009	4.01
259.389	4.56
259.77	4.3
260.15	4.58
260.531	4.59
260.911	4.49
261.292	3.89
261.672	4.24
262.052	4.31
262.432	4.14
262.813	3.98
263.193	4.16
263.573	4.58
263.953	3.9
264.333	4.15
264.713	4.95
265.093	4.64
265.473	4.86
265.853	3.94
266.233	4.65
266.612	4.25
266.992	4.36
267.372	3.66
267.752	3.89
268.131	4.66
268.511	4.23
268.89	4.49
269.27	4.04
269.649	3.39
270.029	3.75
270.408	4.11
270.787	4.21
271.167	4
271.546	4.25
271.925	5.26
272.304	4.26
272.683	4.09
273.062	4.1
273.441	4.19
273.82	3.98
274.199	3.88
274.578	4.45
274.957	4.38
275.336	4.14
275.715	4.42
276.093	4.24
276.472	3.89
276.851	4.5
277.229	4.18
277.608	3.36
277.986	4.11
278.365	4.74
278.743	3.58
279.122	3.88
279.5	3.69
279.878	3.83
280.257	3.82
280.635	4.41
281.013	3.81
281.391	4.79
281.769	4.17
282.147	4.12
282.525	4.01
282.903	4.1
283.281	3.95
283.659	3.94
284.037	4.09
284.415	3.1
284.792	3.73
285.17	3.73
285.548	4.1
285.925	3.56
286.303	3.58
286.68	3.9
287.058	4.32
287.435	4.24
287.813	3.49
288.19	3.91
288.567	4.01
288.945	4.18
289.322	4.61
289.699	3.95
290.076	4.22
290.453	4.02
290.83	4.03
291.207	4.33
291.584	3.88
291.961	3.88
292.338	4.03
292.715	4.16
293.092	3.82
293.469	4.26
293.845	3.88
294.222	3.93
294.599	3.98
294.975	4.73
295.352	4.21
295.728	4.63
296.105	3.79
296.481	4.54
296.858	4.48
297.234	4.8
297.61	3.99
297.986	4.22
298.363	4.5
298.739	4.6
299.115	4.33
299.491	4.52
299.867	4.46
300.243	4.66
300.619	4.66
300.995	4.29
301.371	4.43
301.746	4.27
302.122	4.52
302.498	4.28
302.874	4.33
303.249	4.25
303.625	4.67
304	5.29
304.376	4.18
304.751	4.33
305.127	4.34
305.502	4.73
305.878	4.48
306.253	4.86
306.628	4.71
307.003	4.82
307.378	4.35
307.754	4.44
308.129	4.69
308.504	5.01
308.879	4.29
309.254	4.92
309.629	4.31
310.003	4.08
310.378	4.94
310.753	5.17
311.128	4.85
311.502	4.69
311.877	4.7
312.252	4.41
312.626	5.14
313.001	4.81
313.375	4.59
313.75	4.72
314.124	4.57
314.498	4.83
314.873	4.59
315.247	4.91
315.621	4.59
315.995	4.82
316.369	5.03
316.743	4.82
317.117	4.98
317.491	4.42
317.865	4.59
318.239	5.37
318.613	4.36
318.987	4.18
319.361	4.11
319.734	4.28
320.108	4.39
320.482	4.97
320.855	4.86
321.229	4.96
321.602	5.05
321.976	4.89
322.349	5.72
322.723	4.21
323.096	4.59
323.469	5.03
323.843	4.96
324.216	5.24
324.589	5.24
324.962	5.29
325.335	5.49
325.708	4.83
326.081	4.81
326.454	5.14
326.827	5.11
327.2	5.44
327.573	4.87
327.945	5.31
328.318	4.69
328.691	5.08
329.063	5.39
329.436	4.44
329.809	5.65
330.181	5.3
330.553	4.84
330.926	5.14
331.298	5.02
331.671	5.17
332.043	4.64
332.415	4.7
332.787	4.92
333.159	4.74
333.532	5.16
333.904	5.11
334.276	4.83
334.648	4.68
335.02	5.34
335.391	5.13
335.763	5.44
336.135	4.64
336.507	5.39
336.879	4.8
337.25	5.08
337.622	4.89
337.993	5.36
338.365	5
338.736	5.27
339.108	5.12
339.479	4.98
339.851	5.31
340.222	4.88
340.593	4.35
340.964	5.49
341.336	5.61
341.707	5.08
342.078	4.78
342.449	4.77
342.82	4.99
343.191	4.97
343.562	5.02
343.933	5.15
344.303	4.97
344.674	5.1
345.045	5.11
345.416	5.58
345.786	4.78
346.157	5.17
346.527	5.1
346.898	4.97
347.268	5.16
347.639	5.49
348.009	5.15
348.38	5.25
348.75	5.09
349.12	5.1
349.49	5.08
349.861	5.42
350.231	4.87
350.601	4.99
350.971	5.07
351.341	5.55
351.711	5.59
352.081	4.99
352.45	4.91
352.82	5.26
353.19	5.51
353.56	5.19
353.929	5.08
354.299	5.1
354.669	4.83
355.038	5.16
355.408	5.47
355.777	5.02
356.147	5.13
356.516	5.17
356.885	5.2
357.254	5
357.624	5.06
357.993	5.05
358.362	5.17
358.731	4.73
359.1	4.66
359.469	4.98
359.838	5.12
360.207	5.27
360.576	5.11
360.945	5.05
361.314	5.24
361.682	5.09
362.051	4.71
362.42	4.93
362.788	5.09
363.157	4.99
363.525	5.18
363.894	5.04
364.262	5.11
364.631	5.12
364.999	5.2
365.367	5.13
365.735	4.9
366.104	4.94
366.472	5.12
366.84	5.26
367.208	5.17
367.576	4.92
367.944	5.36
368.312	5.11
368.68	5
369.048	5.18
369.416	5.54
369.783	5.26
370.151	5.37
370.519	5.29
370.886	5.54
371.254	5.56
371.621	5.32
371.989	4.95
372.356	5.39
372.724	5.4
373.091	5.05
373.458	4.89
373.826	4.86
374.193	5.15
374.56	5.1
374.927	5.3
375.294	5.29
375.661	5.35
376.028	5.62
376.395	5.45
376.762	5.12
377.129	5.45
377.496	5.05
377.863	5.49
378.229	5.41
378.596	5.56
378.963	5.16
379.329	5.48
379.696	5.37
380.062	5.29
380.429	4.92
380.795	5.13
381.161	5.49
381.528	5.45
381.894	5.17
382.26	5.58
382.626	5.32
382.993	5.45
383.359	5.26
383.725	5.46
384.091	5.27
384.457	5.66
384.823	5.5
385.188	5.57
385.554	5.09
385.92	5.31
386.286	5.45
386.651	5.46
387.017	5.5
387.383	5.5
387.748	5.1
388.114	5.27
388.479	5.58
388.845	5.59
389.21	5.34
389.575	5
389.94	5.3
390.306	5.52
390.671	5.53
391.036	5.49
391.401	5.58
391.766	5.38
392.131	5.11
392.496	5.57
392.861	5.43
393.226	5.5
393.591	5.65
393.956	5.41
394.32	5.62
394.685	5.37
395.05	5.57
395.414	5.64
395.779	5.18
396.143	5.16
396.508	5.41
396.872	5.43
397.236	5.41
397.601	5.49
397.965	5.12
398.329	5.15
398.694	5.51
399.058	5.35
399.422	5.25
399.786	5.34
400.15	5.4
400.514	5.22
400.878	5.58
401.242	5.6
401.605	5.54
401.969	5.31
402.333	5.39
402.697	5.56
403.06	5.68
403.424	5.56
403.787	5.47
404.151	5.53
404.514	5.45
404.878	5.61
405.241	5.46
405.604	5.57
405.968	5.55
406.331	5.41
406.694	5.38
407.057	5.44
407.42	5.82
407.783	5.67
408.146	5.51
408.509	5.43
408.872	5.69
409.235	5.53
409.598	5.65
409.961	5.59
410.323	5.48
410.686	5.48
411.049	5.5
411.411	5.69
411.774	5.7
412.136	5.49
412.499	5.67
412.861	5.61
413.223	5.71
413.586	5.54
413.948	5.67
414.31	5.62
414.672	5.52
415.035	5.34
415.397	5.45
415.759	5.74
416.121	5.55
416.483	5.81
416.845	5.72
417.206	5.59
417.568	5.78
417.93	5.64
418.292	5.56
418.653	5.65
419.015	5.59
419.377	5.44
419.738	5.53
420.1	5.56
420.461	5.49
420.822	5.48
421.184	5.54
421.545	5.58
421.906	5.44
422.267	5.51
422.629	5.52
422.99	5.32
423.351	5.46
423.712	5.48
424.073	5.5
424.434	5.45
424.795	5.53
425.155	5.54
425.516	5.55
425.877	5.58
426.238	5.45
426.598	5.5
426.959	5.49
427.32	5.6
427.68	5.65
428.041	5.59
428.401	5.72
428.761	5.65
429.122	5.55
429.482	5.69
429.842	5.7
430.202	5.71
430.563	5.74
430.923	5.67
431.283	5.72
431.643	5.82
432.003	5.87
432.363	5.62
432.722	5.83
433.082	5.79
433.442	5.74
433.802	5.89
434.161	5.61
434.521	5.74
434.881	5.72
435.24	5.68
435.6	5.72
435.959	5.65
436.319	5.74
436.678	5.84
437.037	5.82
437.396	5.87
437.756	5.87
438.115	5.67
438.474	5.75
438.833	5.87
439.192	5.61
439.551	5.64
439.91	5.78
440.269	5.82
440.628	5.8
440.987	5.66
441.345	5.68
441.704	5.78
442.063	5.8
442.421	5.76
442.78	5.76
443.138	5.85
443.497	5.84
443.855	5.87
444.214	5.84
444.572	5.83
444.93	6
445.288	6.01
445.647	6.03
446.005	5.66
446.363	5.79
446.721	5.81
447.079	5.99
447.437	5.77
447.795	5.68
448.153	5.7
448.51	5.84
448.868	5.68
449.226	5.76
449.584	5.8
449.941	5.83
450.299	5.87
450.656	5.74
451.014	6.05
451.371	5.88
451.729	5.89
452.086	5.86
452.443	6
452.801	5.91
453.158	6.13
453.515	5.91
453.872	5.99
454.229	6.14
454.586	6.03
454.943	5.88
455.3	5.91
455.657	6
456.014	5.94
456.371	6.06
456.727	5.95
457.084	6.07
457.441	6.09
457.797	6.07
458.154	5.98
458.51	6.07
458.867	6.11
459.223	6.05
459.58	6.02
459.936	6.14
460.292	6.06
460.648	5.78
461.005	5.87
461.361	6.03
461.717	5.75
462.073	5.88
462.429	5.95
462.785	5.97
463.141	6.12
463.496	6.06
463.852	6.1
464.208	6.16
464.564	6.23
464.919	6.16
465.275	6.22
465.631	6.17
465.986	6.35
466.342	6.27
466.697	6.05
467.052	6.15
467.408	6.17
467.763	6.14
468.118	6.39
468.473	6.01
468.829	6.24
469.184	6.26
469.539	6.19
469.894	6.3
470.249	6.28
470.603	6.17
470.958	6.23
471.313	6.37
471.668	6.25
472.023	6.19
472.377	6.36
472.732	6.18
473.086	6.39
473.441	6.39
473.795	6.32
474.15	6.11
474.504	6.23
474.859	6.21
475.213	6.34
475.567	6.23
475.921	6.37
476.275	6.31
476.63	6.54
476.984	6.58
477.338	6.32
477.692	6.38
478.045	6.41
478.399	6.18
478.753	6.24
479.107	6.42
479.461	6.44
479.814	6.38
480.168	6.4
480.521	6.47
480.875	6.32
481.228	6.35
481.582	6.37
481.935	6.36
482.289	6.44
482.642	6.35
482.995	6.22
483.348	6.24
483.701	6.36
484.055	6.36
484.408	6.23
484.761	6.18
485.114	6.16
485.466	6.05
485.819	6.01
486.172	5.92
486.525	5.95
486.878	6.04
487.23	6.1
487.583	6.12
487.936	6.2
488.288	6.19
488.641	6.27
488.993	6.17
489.345	6.19
489.698	6.14
490.05	6.12
490.402	6.12
490.754	6.14
491.107	6.25
491.459	6.36
491.811	6.34
492.163	6.39
492.515	6.35
492.866	6.49
493.218	6.31
493.57	6.28
493.922	6.22
494.274	6.25
494.625	6.3
494.977	6.34
495.328	6.42
495.68	6.49
496.031	6.44
496.383	6.63
496.734	6.68
497.086	6.58
497.437	6.63
497.788	6.52
498.139	6.61
498.49	6.67
498.842	6.52
499.193	6.66
499.544	6.63
499.894	6.64
500.245	6.55
500.596	6.66
500.947	6.6
501.298	6.75
501.648	6.58
501.999	6.65
502.35	6.77
502.7	6.87
503.051	6.77
503.401	6.82
503.752	6.86
504.102	6.96
504.452	6.78
504.803	6.61
505.153	6.92
505.503	6.69
505.853	6.84
506.203	6.77
506.553	6.79
506.903	6.82
507.253	6.9
507.603	6.89
507.953	6.88
508.303	6.83
508.652	6.92
509.002	6.81
509.352	7
509.701	7.02
510.051	6.85
510.4	6.97
510.75	6.96
511.099	6.93
511.449	6.88
511.798	6.97
512.147	6.94
512.496	7.02
512.846	6.85
513.195	7.01
513.544	6.99
513.893	6.85
514.242	7.01
514.591	7.03
514.939	6.92
515.288	7.02
515.637	7
515.986	7.13
516.334	7.05
516.683	6.96
517.032	7
517.38	6.97
517.729	7.13
518.077	7.17
518.426	7.16
518.774	6.97
519.122	7.26
519.47	7.2
519.819	6.99
520.167	7.05
520.515	7.06
520.863	7.09
521.211	7.08
521.559	7.1
521.907	7.14
522.255	7.17
522.602	7.28
522.95	7.3
523.298	7.25
523.645	7.4
523.993	7.3
524.341	7.24
524.688	7.37
525.036	7.47
525.383	7.3
525.73	7.56
526.078	7.4
526.425	7.33
526.772	7.39
527.119	7.39
527.466	7.34
527.814	7.33
528.161	7.26
528.508	7.35
528.854	7.31
529.201	7.36
529.548	7.4
529.895	7.32
530.242	7.22
530.588	7.1
530.935	7.16
531.282	7.17
531.628	7.26
531.975	7.23
532.321	7.33
532.667	7.4
533.014	7.5
533.36	7.54
533.706	7.55
534.052	7.58
534.399	7.49
534.745	7.39
535.091	7.46
535.437	7.5
535.783	7.51
536.129	7.45
536.474	7.55
536.82	7.67
537.166	7.62
537.512	7.81
537.857	7.8
538.203	7.73
538.549	7.75
538.894	7.76
539.239	7.72
539.585	7.66
539.93	7.88
540.276	7.93
540.621	7.92
540.966	8.01
541.311	8
541.656	7.96
542.001	8.07
542.346	8.04
542.691	7.82
543.036	7.89
543.381	7.76
543.726	7.73
544.071	7.76
544.415	7.83
544.76	7.91
545.105	7.91
545.449	7.91
545.794	8.02
546.138	8
546.483	8
546.827	8.18
547.171	8.18
547.516	8.1
547.86	8.23
548.204	8.09
548.548	8.27
548.892	8.16
549.236	8.18
549.58	8.24
549.924	8.32
550.268	8.35
550.612	8.45
550.956	8.65
551.3	8.41
551.643	8.5
551.987	8.67
552.33	8.42
552.674	8.65
553.017	8.65
553.361	8.59
553.704	8.84
554.048	8.76
554.391	8.83
554.734	8.62
555.077	8.76
555.42	8.51
555.764	8.62
556.107	8.89
556.45	8.74
556.793	8.9
557.135	8.7
557.478	8.73
557.821	8.88
558.164	9.18
558.507	9.02
558.849	8.96
559.192	8.94
559.534	9.17
559.877	8.89
560.219	9.19
560.562	9.14
560.904	8.99
561.246	9.15
561.589	9.13
561.931	9.23
562.273	9.35
562.615	9.27
562.957	9.32
563.299	9.32
563.641	9.34
563.983	9.07
564.325	9.15
564.667	9.22
565.008	9.28
565.35	9.29
565.692	9.4
566.033	9.55
566.375	9.48
566.716	9.51
567.058	9.51
567.399	9.61
567.741	9.48
568.082	9.54
568.423	9.62
568.764	9.48
569.105	9.53
569.447	9.56
569.788	9.68
570.129	9.69
570.47	9.71
570.811	9.89
571.151	9.83
571.492	9.88
571.833	9.86
572.174	10.03
572.514	10.11
572.855	9.95
573.195	10.08
573.536	9.78
573.876	10.05
574.217	9.88
574.557	9.96
574.898	9.85
575.238	9.83
575.578	10.02
575.918	9.83
576.258	10.04
576.598	10.14
576.938	10.13
577.278	10.18
577.618	9.99
577.958	10.13
578.298	10.19
578.638	10.32
578.977	10.37
579.317	10.29
579.657	10.47
579.996	10.53
580.336	10.43
580.675	10.68
581.014	10.66
581.354	10.48
581.693	10.84
582.032	10.77
582.372	10.7
582.711	10.91
583.05	10.83
583.389	10.86
583.728	10.68
584.067	10.92
584.406	11.01
584.745	10.99
585.083	10.86
585.422	10.84
585.761	10.69
586.1	10.96
586.438	11.1
586.777	11.06
587.115	11.27
587.454	11.18
587.792	11.36
588.13	11.14
588.469	11.36
588.807	10.89
589.145	11.2
589.483	11.23
589.821	11.32
590.159	11.41
590.497	11.22
590.835	11.43
591.173	11.45
591.511	11.71
591.849	11.44
592.187	11.47
592.524	11.38
592.862	11.3
593.2	11.57
593.537	11.65
593.875	11.53
594.212	11.77
594.55	11.54
594.887	11.74
595.224	11.66
595.561	11.72
595.899	11.75
596.236	11.94
596.573	11.73
596.91	11.99
597.247	11.73
597.584	11.78
597.921	11.91
598.258	11.88
598.594	12.24
598.931	11.86
599.268	11.78
599.604	11.99
599.941	12.05
600.277	11.9
600.614	12.09
600.95	11.92
601.287	12.18
601.623	12.39
601.959	12.21
602.296	12.15
602.632	12.4
602.968	12.13
603.304	12.61
603.64	12.25
603.976	12.44
604.312	12.72
604.648	12.49
604.984	12.7
605.319	12.61
605.655	12.5
605.991	12.54
606.326	12.48
606.662	12.52
606.998	12.51
607.333	12.37
607.668	12.41
608.004	12.52
608.339	12.6
608.674	12.78
609.01	13
609.345	12.92
609.68	12.95
610.015	12.9
610.35	12.92
610.685	13.19
611.02	12.9
611.355	12.95
611.689	12.95
612.024	13.09
612.359	13.21
612.694	13
613.028	13.35
613.363	13.4
613.697	13.43
614.032	13.32
614.366	13.32
614.7	13.43
615.035	13.74
615.369	13.71
615.703	13.5
616.037	13.89
616.371	13.62
616.705	13.47
617.039	13.47
617.373	13.8
617.707	14.08
618.041	13.98
618.375	13.65
618.709	13.65
619.042	13.98
619.376	14.03
619.71	14.03
620.043	14.06
620.377	13.63
620.71	14.01
621.043	14.1
621.377	14.06
621.71	14.28
622.043	14.1
622.376	14.24
622.709	14.33
623.043	14.27
623.376	13.98
623.709	14.04
624.041	14.39
624.374	14.45
624.707	14.02
625.04	14.72
625.373	14.66
625.705	14.42
626.038	14.48
626.37	13.91
626.703	14.7
627.035	14.18
627.368	14.75
627.7	14.67
628.032	14.61
628.365	14.97
628.697	14.93
629.029	14.62
629.361	14.57
629.693	14.85
630.025	14.9
630.357	14.82
630.689	14.91
631.021	15.04
631.353	15.11
631.684	14.99
632.016	15.23
632.348	15.26
632.679	14.93
633.011	15.08
633.342	14.92
633.674	15.01
634.005	15.31
634.336	15.45
634.668	15.41
634.999	14.99
635.33	15.18
635.661	15.54
635.992	15.49
636.323	15.61
636.654	15.38
636.985	15.47
637.316	15.65
637.647	15.44
637.977	15.31
638.308	15.64
638.639	15.68
638.969	15.66
639.3	15.1
639.63	16.12
639.961	15.73
640.291	15.41
640.622	15.81
640.952	15.82
641.282	15.92
641.612	15.92
641.943	16.27
642.273	15.93
642.603	16.11
642.933	16.03
643.263	16.68
643.592	16.46
643.922	16.76
644.252	15.88
644.582	15.91
644.911	16.13
645.241	16.38
645.571	16.54
645.9	16.22
646.23	16.55
646.559	16.73
646.888	16.93
647.218	16.19
647.547	16.26
647.876	17.07
648.205	16.96
648.534	16.38
648.863	16.81
649.192	16.24
649.521	16.51
649.85	16.59
650.179	16.56
650.508	16.44
650.837	16.97
651.165	17.18
651.494	16.35
651.822	17
652.151	17.11
652.479	16.93
652.808	17.69
653.136	16.51
653.465	17.05
653.793	17.23
654.121	17.16
654.449	17.11
654.777	17.47
655.105	17.21
655.433	17.64
655.761	17.6
656.089	17.27
656.417	17.6
656.745	17.46
657.073	17.3
657.4	18.17
657.728	18.01
658.056	17.36
658.383	17.83
658.711	17.05
659.038	17.74
659.365	18.19
659.693	17.71
660.02	17.21
660.347	17.6
660.674	17.42
661.001	17.61
661.329	17.82
661.656	17.9
661.982	17.73
662.309	17.96
662.636	17.96
662.963	17.64
663.29	17.93
663.616	18.17
663.943	17.85
664.27	18.33
664.596	18.02
664.923	18.41
665.249	18.3
665.576	17.89
665.902	18.04
666.228	18.55
666.554	18.51
666.881	18.27
667.207	18.17
667.533	18.37
667.859	18.95
668.185	18.58
668.511	18.55
668.837	18.89
669.162	19.11
669.488	18.55
669.814	18.24
670.139	18.36
670.465	18.63
670.791	19.24
671.116	19.02
671.442	19.02
671.767	18.83
672.092	18.43
672.418	18.78
672.743	18.68
673.068	18.93
673.393	19.38
673.718	18.9
674.043	19.1
674.368	19.1
674.693	19.76
675.018	19.59
675.343	19.38
675.667	19.31
675.992	19.93
676.317	19.95
676.641	19.14
676.966	19.66
677.29	19.23
677.615	19.16
677.939	18.94
678.264	19.46
678.588	19.71
678.912	19.9
679.236	19.57
679.56	20.02
679.885	19.51
680.209	19.67
680.532	19.39
680.856	19.64
681.18	19.42
681.504	19.75
681.828	20.11
682.152	19.35
682.475	19.23
682.799	19.82
683.122	20.24
683.446	19.75
683.769	20.08
684.093	20.09
684.416	20.19
684.739	19.67
685.062	19.77
