Data from 0223_crown_Reflection__2__54.txt Node

Date: Fri Oct 20 21:06:45 CDT 2023
User: ToomeyLab
Spectrometer: FLMS14357
Trigger mode: 0
Integration Time (sec): 1.000000E-2
Scans to average: 100
Electric dark correction enabled: true
Nonlinearity correction enabled: false
Boxcar width: 0
XAxis mode: Wavelengths
Number of Pixels in Spectrum: 2048
>>>>>Begin Spectral Data<<<<<
189.047	112.44
189.435	112.44
189.823	112.44
190.211	-42.93
190.599	-417.14
190.987	18.91
191.375	-1151.45
191.763	-1079.01
192.151	-212.87
192.538	-16.83
192.926	19.84
193.314	-13.21
193.702	143.71
194.089	118.46
194.477	-928.85
194.864	126.43
195.252	126.76
195.639	234.1
196.027	1013.14
196.414	117.37
196.801	-27.99
197.189	156.59
197.576	451.54
197.963	-257.06
198.351	50.08
198.738	45.64
199.125	40.44
199.512	32.1
199.899	7.88
200.286	10.92
200.673	12.19
201.06	3.7
201.447	39.31
201.833	21.96
202.22	41.29
202.607	29.84
202.994	35.98
203.38	-0.03
203.767	42.96
204.154	39.7
204.54	68.91
204.927	17.6
205.313	14.24
205.699	54.44
206.086	46.81
206.472	23.93
206.858	36.77
207.245	12.45
207.631	41.06
208.017	15.91
208.403	3.92
208.789	49.46
209.175	22.51
209.561	21.72
209.947	9.82
210.333	18.61
210.719	25.69
211.105	64.63
211.491	15.2
211.876	-7.59
212.262	24.18
212.648	34.8
213.034	24.41
213.419	12.56
213.805	45.69
214.19	-2.17
214.576	11.05
214.961	38.57
215.346	19.17
215.732	59.2
216.117	11.28
216.502	9.19
216.888	26.54
217.273	-17.84
217.658	-6.61
218.043	-4.16
218.428	7.13
218.813	26.61
219.198	20.62
219.583	-8.72
219.968	9.55
220.353	35.66
220.738	28.91
221.122	41.46
221.507	24.29
221.892	20.53
222.276	11.52
222.661	25.48
223.046	12.63
223.43	12.47
223.815	15.9
224.199	18.66
224.583	4.45
224.968	0.77
225.352	6.41
225.736	16.04
226.121	13.78
226.505	13.87
226.889	13.38
227.273	14.3
227.657	13.12
228.041	12.08
228.425	10.95
228.809	13.17
229.193	5.82
229.577	11.44
229.961	7.89
230.344	8.61
230.728	7.89
231.112	8.45
231.495	7.51
231.879	8.34
232.263	8.91
232.646	6.67
233.03	6.59
233.413	7.98
233.797	7.5
234.18	10.18
234.563	11.78
234.946	10.87
235.33	7.35
235.713	8.94
236.096	10
236.479	8.97
236.862	8.28
237.245	8.23
237.628	7.4
238.011	7.55
238.394	6.54
238.777	10.65
239.16	7.49
239.543	9.72
239.925	10.46
240.308	9.4
240.691	8.26
241.073	9.95
241.456	8.07
241.838	8.25
242.221	9.81
242.603	9
242.986	7.82
243.368	7.69
243.75	7.92
244.133	7.16
244.515	7.48
244.897	7.45
245.279	7.36
245.661	8.13
246.043	7.16
246.425	7.41
246.807	7.3
247.189	7.54
247.571	7.06
247.953	7.54
248.335	7.75
248.717	7.03
249.098	6.97
249.48	7.25
249.862	7.42
250.243	7.52
250.625	7.41
251.006	7.05
251.388	7.36
251.769	7.26
252.151	7.21
252.532	6.85
252.913	7.25
253.295	6.61
253.676	7.51
254.057	6.66
254.438	7.26
254.819	7.41
255.2	7.11
255.581	6.56
255.962	7.37
256.343	7.25
256.724	5.87
257.105	7.21
257.486	7.14
257.867	7.59
258.247	7.18
258.628	6.44
259.009	6.74
259.389	6.06
259.77	6.59
260.15	6.94
260.531	7.22
260.911	7.33
261.292	6.55
261.672	6.79
262.052	6.71
262.432	6.63
262.813	6.43
263.193	6.75
263.573	6.79
263.953	6.54
264.333	6.77
264.713	7.48
265.093	6.6
265.473	6.51
265.853	6.83
266.233	7.03
266.612	6.46
266.992	5.96
267.372	6.7
267.752	6.16
268.131	6.59
268.511	6.46
268.89	6.84
269.27	6.26
269.649	5.97
270.029	6.49
270.408	6.39
270.787	6.6
271.167	6.48
271.546	6.44
271.925	6.87
272.304	6.71
272.683	6.6
273.062	6.42
273.441	6.45
273.82	6.13
274.199	6.79
274.578	6.56
274.957	6.3
275.336	6.18
275.715	6.45
276.093	6.52
276.472	6.32
276.851	6.05
277.229	6.49
277.608	5.64
277.986	6.02
278.365	6.72
278.743	5.54
279.122	6.24
279.5	6.29
279.878	5.81
280.257	5.95
280.635	6.01
281.013	6.2
281.391	6.62
281.769	6.07
282.147	5.8
282.525	6.15
282.903	6
283.281	5.87
283.659	6.09
284.037	6.24
284.415	5.46
284.792	5.73
285.17	5.63
285.548	6
285.925	5.73
286.303	5.97
286.68	5.88
287.058	6.07
287.435	5.86
287.813	5.52
288.19	5.92
288.567	5.98
288.945	6.05
289.322	6.1
289.699	5.17
290.076	5.86
290.453	5.92
290.83	5.52
291.207	6.06
291.584	5.57
291.961	5.25
292.338	5.5
292.715	5.84
293.092	5.29
293.469	5.58
293.845	5.53
294.222	5.36
294.599	5.61
294.975	6.38
295.352	5.48
295.728	5.8
296.105	5.61
296.481	5.71
296.858	5.65
297.234	5.81
297.61	5.07
297.986	5.28
298.363	5.63
298.739	5.68
299.115	5.2
299.491	5.25
299.867	5.45
300.243	5.4
300.619	5.38
300.995	5.17
301.371	5.47
301.746	5.53
302.122	5.51
302.498	5.15
302.874	4.98
303.249	5.4
303.625	5.53
304	5.9
304.376	5.16
304.751	4.87
305.127	4.97
305.502	5.55
305.878	5.17
306.253	5.43
306.628	5.3
307.003	5.38
307.378	5.19
307.754	5.34
308.129	5.92
308.504	5.71
308.879	4.98
309.254	5.82
309.629	4.87
310.003	4.9
310.378	5.63
310.753	4.93
311.128	5.41
311.502	5.53
311.877	5.46
312.252	5.27
312.626	5.16
313.001	5.2
313.375	5.2
313.75	5.03
314.124	4.92
314.498	5.46
314.873	4.8
315.247	4.98
315.621	4.88
315.995	5.75
316.369	4.5
316.743	5.13
317.117	5.49
317.491	4.9
317.865	5.22
318.239	5.47
318.613	5.37
318.987	4.48
319.361	4.47
319.734	4.83
320.108	4.64
320.482	5.18
320.855	5.24
321.229	5.09
321.602	4.98
321.976	4.65
322.349	5.35
322.723	4.73
323.096	4.83
323.469	4.86
323.843	5.4
324.216	5.33
324.589	5.22
324.962	5.55
325.335	5.36
325.708	5.17
326.081	5.53
326.454	5.13
326.827	5.52
327.2	5.32
327.573	5.07
327.945	4.9
328.318	4.19
328.691	4.85
329.063	5.66
329.436	4.54
329.809	4.71
330.181	5.51
330.553	5.79
330.926	5.01
331.298	4.58
331.671	4.87
332.043	4.99
332.415	5.12
332.787	5.15
333.159	4.45
333.532	5.33
333.904	5.01
334.276	4.5
334.648	5.48
335.02	5.39
335.391	4.77
335.763	4.96
336.135	5.19
336.507	4.86
336.879	4.73
337.25	5.21
337.622	5.25
337.993	5.61
338.365	4.69
338.736	4.88
339.108	5.39
339.479	4.55
339.851	5.04
340.222	4.56
340.593	4.66
340.964	4.71
341.336	4.78
341.707	4.78
342.078	5.2
342.449	4.85
342.82	4.63
343.191	5.06
343.562	5.03
343.933	4.97
344.303	4.69
344.674	5.31
345.045	5.13
345.416	5.53
345.786	4.8
346.157	5.02
346.527	5.23
346.898	4.95
347.268	5.23
347.639	5.26
348.009	5
348.38	5.56
348.75	5.44
349.12	4.76
349.49	5.01
349.861	5.07
350.231	5.16
350.601	4.61
350.971	5.34
351.341	5
351.711	5.56
352.081	4.96
352.45	5.06
352.82	5.05
353.19	5.03
353.56	4.9
353.929	5.07
354.299	4.93
354.669	4.88
355.038	5.03
355.408	5.2
355.777	4.93
356.147	4.79
356.516	4.69
356.885	4.76
357.254	4.82
357.624	4.85
357.993	4.85
358.362	4.84
358.731	4.46
359.1	4.56
359.469	4.77
359.838	5
360.207	5.13
360.576	5.04
360.945	4.7
361.314	5.18
361.682	4.8
362.051	4.88
362.42	4.81
362.788	5.13
363.157	5.14
363.525	4.98
363.894	4.77
364.262	4.77
364.631	5.18
364.999	5.29
365.367	5.1
365.735	4.92
366.104	4.97
366.472	5.37
366.84	5.47
367.208	5.05
367.576	4.93
367.944	5.28
368.312	5.38
368.68	5.22
369.048	5.09
369.416	5.37
369.783	5.32
370.151	5.04
370.519	5.02
370.886	5.34
371.254	5.39
371.621	5.36
371.989	4.86
372.356	5.01
372.724	5.36
373.091	5.01
373.458	5.1
373.826	5.21
374.193	5
374.56	5.26
374.927	5.24
375.294	5.5
375.661	5.24
376.028	5.41
376.395	5.51
376.762	5.36
377.129	5.21
377.496	5.4
377.863	5.41
378.229	5.23
378.596	5.42
378.963	5.41
379.329	5.22
379.696	5.43
380.062	5.2
380.429	5.15
380.795	5.1
381.161	5.24
381.528	5.51
381.894	5.13
382.26	5.26
382.626	5.43
382.993	5.01
383.359	5.15
383.725	5.28
384.091	5.19
384.457	5.28
384.823	5.31
385.188	5.35
385.554	5.42
385.92	5.24
386.286	5.41
386.651	5.2
387.017	5.28
387.383	5.5
387.748	5.22
388.114	5.09
388.479	5.5
388.845	5.5
389.21	5.28
389.575	5.03
389.94	5.28
390.306	5.3
390.671	5.51
391.036	5.54
391.401	5.49
391.766	5.63
392.131	5.47
392.496	5.48
392.861	5.43
393.226	5.31
393.591	5.2
393.956	5.49
394.32	5.5
394.685	5.31
395.05	5.6
395.414	5.58
395.779	5.3
396.143	5.32
396.508	5.34
396.872	5.41
397.236	5.62
397.601	5.37
397.965	5.4
398.329	5.43
398.694	5.77
399.058	5.12
399.422	5.72
399.786	5.51
400.15	5.44
400.514	5.5
400.878	5.6
401.242	5.56
401.605	5.63
401.969	5.62
402.333	5.6
402.697	5.44
403.06	5.34
403.424	5.68
403.787	5.55
404.151	5.54
404.514	5.53
404.878	5.6
405.241	5.63
405.604	5.56
405.968	5.59
406.331	5.43
406.694	5.43
407.057	5.43
407.42	5.82
407.783	5.34
408.146	5.52
408.509	5.49
408.872	5.8
409.235	5.68
409.598	5.79
409.961	5.51
410.323	5.57
410.686	5.41
411.049	5.49
411.411	5.43
411.774	5.84
412.136	5.75
412.499	5.68
412.861	5.72
413.223	5.6
413.586	5.57
413.948	5.67
414.31	5.69
414.672	5.57
415.035	5.65
415.397	5.77
415.759	5.68
416.121	5.75
416.483	5.82
416.845	5.7
417.206	5.82
417.568	5.82
417.93	5.62
418.292	5.59
418.653	5.67
419.015	5.73
419.377	5.58
419.738	5.51
420.1	5.35
420.461	5.48
420.822	5.6
421.184	5.54
421.545	5.63
421.906	5.61
422.267	5.51
422.629	5.65
422.99	5.59
423.351	5.58
423.712	5.5
424.073	5.49
424.434	5.51
424.795	5.5
425.155	5.54
425.516	5.5
425.877	5.65
426.238	5.52
426.598	5.59
426.959	5.5
427.32	5.56
427.68	5.52
428.041	5.52
428.401	5.68
428.761	5.54
429.122	5.61
429.482	5.73
429.842	5.69
430.202	5.69
430.563	5.62
430.923	5.86
431.283	5.84
431.643	5.76
432.003	5.9
432.363	5.48
432.722	5.84
433.082	5.79
433.442	5.74
433.802	5.64
434.161	5.6
434.521	5.84
434.881	5.81
435.24	5.7
435.6	5.64
435.959	5.65
436.319	5.77
436.678	5.93
437.037	5.76
437.396	5.91
437.756	5.8
438.115	5.64
438.474	5.8
438.833	5.83
439.192	5.61
439.551	5.65
439.91	5.74
440.269	5.88
440.628	5.71
440.987	5.67
441.345	5.69
441.704	5.77
442.063	5.77
442.421	5.67
442.78	5.7
443.138	5.76
443.497	5.74
443.855	5.7
444.214	5.72
444.572	5.77
444.93	5.9
445.288	5.79
445.647	5.99
446.005	5.7
446.363	5.9
446.721	5.68
447.079	5.91
447.437	5.84
447.795	5.77
448.153	5.71
448.51	5.74
448.868	5.8
449.226	5.7
449.584	5.73
449.941	5.79
450.299	5.83
450.656	5.77
451.014	5.93
451.371	5.88
451.729	5.64
452.086	5.81
452.443	5.82
452.801	5.84
453.158	5.89
453.515	5.71
453.872	5.92
454.229	6.03
454.586	5.92
454.943	5.76
455.3	5.82
455.657	6
456.014	5.77
456.371	5.84
456.727	5.81
457.084	5.92
457.441	5.9
457.797	6.04
458.154	5.96
458.51	5.9
458.867	5.81
459.223	5.96
459.58	6.07
459.936	6.05
460.292	5.87
460.648	5.73
461.005	5.77
461.361	5.82
461.717	5.7
462.073	5.82
462.429	5.8
462.785	5.75
463.141	5.93
463.496	5.87
463.852	5.99
464.208	6.1
464.564	6.05
464.919	5.88
465.275	6.01
465.631	5.92
465.986	5.96
466.342	6.02
466.697	5.93
467.052	5.89
467.408	5.95
467.763	6.02
468.118	6.25
468.473	5.94
468.829	5.87
469.184	5.8
469.539	5.95
469.894	5.96
470.249	5.93
470.603	5.95
470.958	5.92
471.313	6.03
471.668	6.01
472.023	6.01
472.377	6.14
472.732	5.92
473.086	6.08
473.441	5.97
473.795	6.07
474.15	5.86
474.504	5.86
474.859	5.94
475.213	5.89
475.567	5.91
475.921	6.04
476.275	5.96
476.63	6.36
476.984	6.03
477.338	5.92
477.692	5.99
478.045	6.08
478.399	6.02
478.753	5.99
479.107	6.01
479.461	5.92
479.814	6.04
480.168	6
480.521	5.96
480.875	6.06
481.228	6.05
481.582	6
481.935	6.04
482.289	5.85
482.642	5.84
482.995	5.76
483.348	6.03
483.701	5.98
484.055	5.93
484.408	5.86
484.761	5.86
485.114	5.75
485.466	5.77
485.819	5.61
486.172	5.61
486.525	5.61
486.878	5.59
487.23	5.7
487.583	5.7
487.936	5.76
488.288	5.82
488.641	5.89
488.993	5.73
489.345	5.71
489.698	5.73
490.05	5.71
490.402	5.72
490.754	5.71
491.107	5.75
491.459	5.88
491.811	5.88
492.163	5.92
492.515	5.92
492.866	5.93
493.218	5.82
493.57	5.79
493.922	5.72
494.274	5.74
494.625	5.81
494.977	5.8
495.328	5.99
495.68	6.01
496.031	5.99
496.383	6.07
496.734	6.07
497.086	6.08
497.437	6
497.788	5.98
498.139	5.99
498.49	5.96
498.842	5.94
499.193	6.03
499.544	6.12
499.894	5.98
500.245	5.99
500.596	6.14
500.947	6.05
501.298	5.99
501.648	6.04
501.999	6.1
502.35	5.97
502.7	6.03
503.051	6.03
503.401	6.1
503.752	6.07
504.102	6.05
504.452	5.98
504.803	6.04
505.153	6.1
505.503	5.94
505.853	6.11
506.203	6.06
506.553	6.02
506.903	6.09
507.253	6.13
507.603	5.96
507.953	6.06
508.303	6.05
508.652	6.13
509.002	6.15
509.352	6.2
509.701	6.03
510.051	5.97
510.4	6.07
510.75	6.04
511.099	6.08
511.449	6.01
511.798	6.09
512.147	5.97
512.496	6.07
512.846	6
513.195	5.98
513.544	6.04
513.893	5.96
514.242	6
514.591	5.98
514.939	6.06
515.288	6.14
515.637	6.11
515.986	6.12
516.334	6.08
516.683	6.01
517.032	5.95
517.38	6
517.729	6.11
518.077	6
518.426	6.06
518.774	6.1
519.122	6.06
519.47	6.1
519.819	5.97
520.167	6.02
520.515	5.97
520.863	6.01
521.211	5.94
521.559	5.92
521.907	5.98
522.255	5.98
522.602	6.13
522.95	5.95
523.298	6.07
523.645	6.18
523.993	6.06
524.341	6.09
524.688	6.12
525.036	6.11
525.383	6.01
525.73	6.21
526.078	6.17
526.425	6.19
526.772	6.01
527.119	6.12
527.466	5.97
527.814	5.99
528.161	5.94
528.508	5.97
528.854	6.02
529.201	5.99
529.548	5.94
529.895	5.91
530.242	5.87
530.588	5.79
530.935	5.79
531.282	5.82
531.628	5.82
531.975	5.81
532.321	5.87
532.667	5.84
533.014	6.03
533.36	5.95
533.706	6.01
534.052	5.92
534.399	5.94
534.745	5.91
535.091	5.91
535.437	5.93
535.783	5.92
536.129	5.94
536.474	5.94
536.82	5.98
537.166	5.99
537.512	6.07
537.857	6.08
538.203	6.03
538.549	6.18
538.894	6
539.239	5.96
539.585	6
539.93	6.06
540.276	6.15
540.621	6.1
540.966	6.05
541.311	6.17
541.656	6.17
542.001	6.19
542.346	6.18
542.691	6.05
543.036	5.99
543.381	5.89
543.726	5.9
544.071	5.89
544.415	5.91
544.76	5.98
545.105	5.97
545.449	6.02
545.794	6.08
546.138	6.04
546.483	6.05
546.827	6.13
547.171	6.1
547.516	6.03
547.86	6.14
548.204	5.94
548.548	6.16
548.892	6.14
549.236	6.1
549.58	6.03
549.924	6.04
550.268	6.16
550.612	6.25
550.956	6.16
551.3	6.09
551.643	6.05
551.987	6.18
552.33	6.3
552.674	6.18
553.017	6.11
553.361	6.3
553.704	6.36
554.048	6.26
554.391	6.32
554.734	6.2
555.077	6.08
555.42	6.06
555.764	6.1
556.107	6.35
556.45	6.17
556.793	5.97
557.135	6.32
557.478	6.14
557.821	6.22
558.164	6.23
558.507	6.35
558.849	6.3
559.192	6.18
559.534	6.4
559.877	6.03
560.219	6.26
560.562	6.27
560.904	6.06
561.246	6.28
561.589	6.16
561.931	6.28
562.273	6.46
562.615	6.41
562.957	6.33
563.299	6.3
563.641	6.25
563.983	5.98
564.325	6.17
564.667	6.27
565.008	6.21
565.35	6.05
565.692	6.12
566.033	6.31
566.375	6.09
566.716	6.23
567.058	6.19
567.399	6.35
567.741	6.14
568.082	6.07
568.423	6.29
568.764	6.13
569.105	6.21
569.447	6.2
569.788	6.18
570.129	6.18
570.47	6.27
570.811	6.31
571.151	6.11
571.492	6.25
571.833	6.22
572.174	6.31
572.514	6.36
572.855	6.16
573.195	6.31
573.536	6.1
573.876	6.44
574.217	6.2
574.557	6.04
574.898	6.09
575.238	6.08
575.578	6.14
575.918	6.04
576.258	6.15
576.598	6.35
576.938	6.22
577.278	6.25
577.618	6.02
577.958	6.05
578.298	6.21
578.638	6.1
578.977	6.24
579.317	6.16
579.657	6.22
579.996	6.34
580.336	6.34
580.675	6.22
581.014	6.34
581.354	6.18
581.693	6.16
582.032	6.31
582.372	6.35
582.711	6.24
583.05	6.38
583.389	6.2
583.728	6.33
584.067	6.33
584.406	6.3
584.745	6.18
585.083	6.26
585.422	6.07
585.761	6.28
586.1	6.39
586.438	6.17
586.777	6.24
587.115	6.55
587.454	6.26
587.792	6.34
588.13	6.26
588.469	6.33
588.807	5.87
589.145	6.42
589.483	6.14
589.821	6.33
590.159	6.36
590.497	6.28
590.835	6.2
591.173	6.27
591.511	6.3
591.849	6
592.187	6.1
592.524	6.26
592.862	6.14
593.2	6.28
593.537	6.16
593.875	6.23
594.212	6.53
594.55	6.23
594.887	6.46
595.224	6.06
595.561	6.2
595.899	6.1
596.236	6.45
596.573	6.35
596.91	6.29
597.247	6.22
597.584	6.04
597.921	6.2
598.258	6.2
598.594	6.26
598.931	6.18
599.268	6.17
599.604	6.32
599.941	6.07
600.277	6.1
600.614	6.15
600.95	6.35
601.287	6.28
601.623	6.24
601.959	6.27
602.296	6.23
602.632	6.34
602.968	5.98
603.304	6.6
603.64	6.25
603.976	6.16
604.312	6.46
604.648	6.31
604.984	6.36
605.319	6.15
605.655	6.22
605.991	6.34
606.326	5.92
606.662	5.98
606.998	6.1
607.333	6.06
607.668	6.13
608.004	6.23
608.339	6.14
608.674	6.29
609.01	6.15
609.345	6.51
609.68	6.42
610.015	6.12
610.35	6.07
610.685	6.15
611.02	6.17
611.355	6.16
611.689	6.23
612.024	6.35
612.359	6.24
612.694	6.16
613.028	6.32
613.363	6.18
613.697	6.19
614.032	6.21
614.366	6.24
614.7	6.53
615.035	6.21
615.369	6.42
615.703	6.03
616.037	6.35
616.371	6.23
616.705	6.38
617.039	6.4
617.373	6.14
617.707	6.48
618.041	6.36
618.375	6.31
618.709	6.3
619.042	6.21
619.376	6.75
619.71	6.58
620.043	6.33
620.377	6.02
620.71	6.27
621.043	6.5
621.377	6.56
621.71	6.52
622.043	6.28
622.376	6.13
622.709	6.19
623.043	6.29
623.376	5.92
623.709	5.81
624.041	6.11
624.374	6.27
624.707	6.32
625.04	6.41
625.373	6.48
625.705	5.85
626.038	6.39
626.37	6.1
626.703	6.01
627.035	6
627.368	6.27
627.7	6.46
628.032	6.09
628.365	6.4
628.697	6.32
629.029	6.23
629.361	6.5
629.693	6.05
630.025	6.12
630.357	6.12
630.689	6.08
631.021	6.52
631.353	6.27
631.684	5.98
632.016	6.6
632.348	6.12
632.679	6.13
633.011	6.18
633.342	5.79
633.674	6.22
634.005	6.27
634.336	6.4
634.668	5.97
634.999	6.18
635.33	6.3
635.661	6.44
635.992	6.37
636.323	6.54
636.654	6.11
636.985	6.4
637.316	6.38
637.647	6.38
637.977	6.06
638.308	5.95
638.639	6.41
638.969	6.35
639.3	6.02
639.63	6.22
639.961	6.38
640.291	6.46
640.622	6.09
640.952	6.31
641.282	6.13
641.612	6.67
641.943	6.5
642.273	5.71
642.603	6.4
642.933	6.56
643.263	6.54
643.592	6.15
643.922	6.7
644.252	6.42
644.582	6.03
644.911	6.34
645.241	6.87
645.571	6.47
645.9	5.97
646.23	6.41
646.559	6.06
646.888	6.58
647.218	6.44
647.547	6.51
647.876	6.53
648.205	6.57
648.534	6.49
648.863	6.78
649.192	6.27
649.521	6.2
649.85	6.37
650.179	6.34
650.508	6.31
650.837	6.33
651.165	6.27
651.494	6.12
651.822	6.39
652.151	6.71
652.479	6.37
652.808	6.84
653.136	6.22
653.465	6.43
653.793	6.55
654.121	6.84
654.449	6.57
654.777	6.33
655.105	6.51
655.433	6.92
655.761	6.36
656.089	6.37
656.417	6.63
656.745	6.54
657.073	6.49
657.4	6.81
657.728	6.39
658.056	6.34
658.383	6.61
658.711	6.39
659.038	6.48
659.365	6.59
659.693	6.3
660.02	6.35
660.347	6.36
660.674	6.17
661.001	6.18
661.329	6.61
661.656	6.67
661.982	6.16
662.309	6.48
662.636	6.31
662.963	6.32
663.29	6.23
663.616	6.39
663.943	6.21
664.27	6.41
664.596	6.61
664.923	5.96
665.249	6.29
665.576	6.17
665.902	6.46
666.228	6.21
666.554	6.88
666.881	6.06
667.207	6.56
667.533	6.35
667.859	6.54
668.185	7.25
668.511	6.64
668.837	6.73
669.162	6.58
669.488	6.31
669.814	6.56
670.139	6.9
670.465	6.1
670.791	6.82
671.116	6.95
671.442	6.67
671.767	6.66
672.092	6.43
672.418	6.35
672.743	5.93
673.068	6.88
673.393	6.75
673.718	6.73
674.043	6.85
674.368	6.66
674.693	7
675.018	7.12
675.343	5.74
675.667	6.58
675.992	6.69
676.317	6.71
676.641	6.86
676.966	6.72
677.29	6.43
677.615	6.51
677.939	6.57
678.264	7.05
678.588	5.99
678.912	6.79
679.236	7.03
679.56	6.16
679.885	7.14
680.209	6.67
680.532	6.1
680.856	6.62
681.18	6.5
681.504	6.47
681.828	6.66
682.152	6.59
682.475	6.32
682.799	6.82
683.122	6.36
683.446	6.69
683.769	6.88
684.093	6.57
684.416	6.62
684.739	6.31
685.062	6.07
685.386	5.8
685.709	6.95
686.032	6.15
686.355	7.08
686.678	6.72
687.001	6.55
687.324	5.99
687.646	6.69
687.969	7.1
688.292	7.19
688.614	6.58
688.937	6.45
689.26	6.34
689.582	6.56
689.904	6.11
690.227	6.66
690.549	6.4
690.871	6.23
691.194	6.29
691.516	6.51
691.838	7.67
692.16	7.01
692.482	6.33
692.804	7.28
693.126	6.24
693.448	7.48
