Data from 0223_crown_Reflection__1__53.txt Node

Date: Fri Oct 20 21:06:36 CDT 2023
User: ToomeyLab
Spectrometer: FLMS14357
Trigger mode: 0
Integration Time (sec): 1.000000E-2
Scans to average: 100
Electric dark correction enabled: true
Nonlinearity correction enabled: false
Boxcar width: 0
XAxis mode: Wavelengths
Number of Pixels in Spectrum: 2048
>>>>>Begin Spectral Data<<<<<
189.047	-154.51
189.435	-154.51
189.823	-154.51
190.211	147.16
190.599	-286.35
190.987	194.23
191.375	-32.45
191.763	394.81
192.151	-1157.31
192.538	40.78
192.926	-6.01
193.314	16.87
193.702	80.54
194.089	95.86
194.477	854.62
194.864	66.1
195.252	264.05
195.639	-108.27
196.027	1044.53
196.414	32.34
196.801	246.73
197.189	7.81
197.576	-722.97
197.963	582.42
198.351	36.28
198.738	32.64
199.125	18.4
199.512	-1.92
199.899	14.06
200.286	-3.49
200.673	26.75
201.06	7.27
201.447	25.63
201.833	53.4
202.22	34.51
202.607	32.58
202.994	26.69
203.38	6.89
203.767	15.67
204.154	31.3
204.54	48.44
204.927	9.89
205.313	-16.96
205.699	53.22
206.086	28.18
206.472	36.87
206.858	36.3
207.245	9.1
207.631	35.33
208.017	41.49
208.403	4.53
208.789	49
209.175	51.36
209.561	58.6
209.947	28.01
210.333	16.92
210.719	26.34
211.105	27.1
211.491	44.03
211.876	14.2
212.262	52.35
212.648	32.92
213.034	10.83
213.419	2.31
213.805	33.45
214.19	8.58
214.576	-6.22
214.961	-7.51
215.346	13.55
215.732	44.36
216.117	4.48
216.502	26.28
216.888	25.09
217.273	4.74
217.658	13.7
218.043	16.17
218.428	15.25
218.813	39.48
219.198	8.86
219.583	-12.22
219.968	13.49
220.353	27.26
220.738	14.97
221.122	33.21
221.507	32.94
221.892	20.21
222.276	19.44
222.661	26.96
223.046	20.05
223.43	6.82
223.815	17.93
224.199	18.89
224.583	3.04
224.968	11.83
225.352	8.48
225.736	12.66
226.121	10.94
226.505	13.74
226.889	16.3
227.273	15.62
227.657	14.32
228.041	14.43
228.425	9.91
228.809	8.93
229.193	8.62
229.577	13.24
229.961	10.38
230.344	9.93
230.728	9.91
231.112	10.28
231.495	10.33
231.879	10.87
232.263	11.51
232.646	9.13
233.03	9
233.413	9.56
233.797	11.4
234.18	10.03
234.563	11.53
234.946	12.25
235.33	12.33
235.713	11.18
236.096	11.48
236.479	10.5
236.862	10.24
237.245	10.03
237.628	9.75
238.011	11.22
238.394	10.43
238.777	10.91
239.16	9.16
239.543	11.42
239.925	11.68
240.308	9.98
240.691	8.74
241.073	11.29
241.456	9.55
241.838	9.4
242.221	10.74
242.603	9.5
242.986	10.15
243.368	9.63
243.75	9.1
244.133	8.96
244.515	9.25
244.897	8.94
245.279	9.25
245.661	9.34
246.043	9.08
246.425	8.96
246.807	9.78
247.189	8.7
247.571	8.41
247.953	9.49
248.335	9.32
248.717	8.82
249.098	8.61
249.48	8.88
249.862	8.97
250.243	8.98
250.625	9.05
251.006	8.98
251.388	8.6
251.769	9.31
252.151	8.82
252.532	8.81
252.913	8.4
253.295	8.04
253.676	7.91
254.057	8.65
254.438	8.27
254.819	8.85
255.2	9.09
255.581	8.67
255.962	8.36
256.343	8.2
256.724	7.35
257.105	9.19
257.486	8.42
257.867	8.08
258.247	8.92
258.628	7.59
259.009	9.06
259.389	8.22
259.77	7.88
260.15	8.34
260.531	8.46
260.911	8.68
261.292	7.83
261.672	8.11
262.052	8.13
262.432	8.03
262.813	7.91
263.193	8.04
263.573	7.74
263.953	7.4
264.333	8.65
264.713	9.16
265.093	8.59
265.473	8.44
265.853	7.72
266.233	8.84
266.612	7.81
266.992	8.22
267.372	7.77
267.752	7.58
268.131	8.36
268.511	8
268.89	7.94
269.27	7.37
269.649	7.28
270.029	7.99
270.408	8.06
270.787	8.21
271.167	7.57
271.546	7.81
271.925	8.28
272.304	7.94
272.683	7.4
273.062	7.67
273.441	7.59
273.82	7.7
274.199	7.74
274.578	7.3
274.957	7.76
275.336	7.56
275.715	7.36
276.093	7
276.472	7.66
276.851	7.66
277.229	8.33
277.608	6.88
277.986	7.24
278.365	7.44
278.743	7.14
279.122	7.34
279.5	6.82
279.878	7.09
280.257	7.64
280.635	7.1
281.013	6.56
281.391	7.7
281.769	7.51
282.147	7
282.525	7.25
282.903	7.19
283.281	6.97
283.659	6.69
284.037	7.62
284.415	6.61
284.792	7.02
285.17	6.96
285.548	7.03
285.925	6.45
286.303	6.67
286.68	6.93
287.058	7.15
287.435	7.07
287.813	6.29
288.19	6.75
288.567	6.68
288.945	6.72
289.322	6.87
289.699	6.63
290.076	7.18
290.453	6.54
290.83	6.39
291.207	6.72
291.584	6.23
291.961	6.72
292.338	6.6
292.715	6.51
293.092	6.51
293.469	6.82
293.845	6.56
294.222	6.31
294.599	6.39
294.975	7.08
295.352	6.84
295.728	6.56
296.105	6.21
296.481	6.53
296.858	6.64
297.234	6.54
297.61	6.04
297.986	6.32
298.363	6.08
298.739	6.04
299.115	6.03
299.491	6.17
299.867	6.04
300.243	6.06
300.619	6.02
300.995	5.99
301.371	6.37
301.746	6.61
302.122	6.31
302.498	6.08
302.874	6.5
303.249	6.4
303.625	6.22
304	6.42
304.376	6.1
304.751	5.96
305.127	5.21
305.502	7.01
305.878	6.2
306.253	6.08
306.628	6.04
307.003	6.47
307.378	5.89
307.754	5.85
308.129	6.43
308.504	6.69
308.879	5.67
309.254	6.52
309.629	5.6
310.003	5.17
310.378	5.98
310.753	5.86
311.128	6.29
311.502	5.75
311.877	6.44
312.252	5.75
312.626	5.75
313.001	5.9
313.375	6.08
313.75	5.98
314.124	5.9
314.498	5.99
314.873	5.65
315.247	6.08
315.621	5.96
315.995	5.92
316.369	5.6
316.743	5.8
317.117	6.18
317.491	5.21
317.865	5.86
318.239	6.35
318.613	5.63
318.987	6.15
319.361	5.2
319.734	5.65
320.108	5.06
320.482	6.13
320.855	6.06
321.229	6.37
321.602	6
321.976	5.19
322.349	6.03
322.723	5.49
323.096	5.9
323.469	6.12
323.843	5.48
324.216	5.58
324.589	6.03
324.962	6.5
325.335	6.22
325.708	5.87
326.081	5.82
326.454	6.31
326.827	6.13
327.2	6.23
327.573	5.73
327.945	5.71
328.318	5.71
328.691	5.69
329.063	5.93
329.436	5.45
329.809	6.01
330.181	5.96
330.553	6.03
330.926	5.7
331.298	5.59
331.671	5.86
332.043	5.9
332.415	5.91
332.787	6.05
333.159	5.52
333.532	5.65
333.904	6.26
334.276	5.52
334.648	6.06
335.02	6.4
335.391	5.71
335.763	6.38
336.135	5.74
336.507	5.65
336.879	5.52
337.25	5.76
337.622	5.94
337.993	6.12
338.365	5.97
338.736	6.25
339.108	6.09
339.479	5.81
339.851	5.68
340.222	5.67
340.593	5.46
340.964	5.55
341.336	6.18
341.707	5.91
342.078	5.86
342.449	5.48
342.82	6
343.191	5.59
343.562	5.74
343.933	5.78
344.303	5.81
344.674	5.61
345.045	5.91
345.416	5.95
345.786	6.07
346.157	6.14
346.527	6.18
346.898	6.03
347.268	6.27
347.639	6.07
348.009	5.9
348.38	5.98
348.75	5.96
349.12	5.96
349.49	6.22
349.861	6.48
350.231	5.73
350.601	5.48
350.971	6.41
351.341	6.02
351.711	6.33
352.081	6.08
352.45	5.94
352.82	6.14
353.19	6.24
353.56	6.37
353.929	5.69
354.299	6.02
354.669	5.95
355.038	6.12
355.408	6.2
355.777	5.97
356.147	5.86
356.516	6.13
356.885	6.07
357.254	6.05
357.624	6.11
357.993	6
358.362	6.21
358.731	5.83
359.1	5.73
359.469	6.33
359.838	6.31
360.207	6.15
360.576	6.57
360.945	6.13
361.314	5.89
361.682	6.28
362.051	6.09
362.42	6.18
362.788	6.41
363.157	6.17
363.525	5.8
363.894	6.24
364.262	6.31
364.631	6.23
364.999	6.28
365.367	6.27
365.735	5.94
366.104	6.04
366.472	6.2
366.84	6.52
367.208	6.06
367.576	6.42
367.944	6.39
368.312	6.24
368.68	6.35
369.048	6.11
369.416	6.46
369.783	6.54
370.151	6.55
370.519	6.33
370.886	6.48
371.254	6.64
371.621	6.63
371.989	6.1
372.356	6.5
372.724	6.65
373.091	6.62
373.458	5.94
373.826	6.51
374.193	6.22
374.56	6.26
374.927	6.4
375.294	6.86
375.661	6.59
376.028	6.87
376.395	6.54
376.762	6.45
377.129	6.39
377.496	6.67
377.863	6.99
378.229	6.62
378.596	6.55
378.963	6.6
379.329	6.46
379.696	6.59
380.062	6.65
380.429	6.48
380.795	6.37
381.161	6.49
381.528	6.95
381.894	6.67
382.26	6.87
382.626	6.77
382.993	6.77
383.359	6.59
383.725	6.87
384.091	6.39
384.457	7.01
384.823	6.8
385.188	6.66
385.554	6.85
385.92	6.59
386.286	6.77
386.651	6.59
387.017	6.86
387.383	6.56
387.748	6.63
388.114	6.41
388.479	6.84
388.845	6.8
389.21	6.6
389.575	6.55
389.94	6.49
390.306	6.75
390.671	6.74
391.036	6.77
391.401	6.87
391.766	6.76
392.131	6.85
392.496	6.92
392.861	6.73
393.226	6.68
393.591	6.97
393.956	7.03
394.32	6.99
394.685	6.73
395.05	7.12
395.414	7.06
395.779	6.74
396.143	6.69
396.508	6.86
396.872	7.03
397.236	6.97
397.601	6.82
397.965	6.75
398.329	6.67
398.694	6.88
399.058	6.91
399.422	6.99
399.786	6.91
400.15	6.96
400.514	6.99
400.878	7.24
401.242	7.05
401.605	7.18
401.969	6.96
402.333	6.79
402.697	7.12
403.06	6.72
403.424	7.13
403.787	6.88
404.151	6.98
404.514	7.18
404.878	7.17
405.241	6.91
405.604	7.02
405.968	7.07
406.331	7.04
406.694	7.17
407.057	6.92
407.42	7.26
407.783	7.2
408.146	6.97
408.509	6.95
408.872	7.35
409.235	6.97
409.598	7.24
409.961	7.14
410.323	7.27
410.686	7.07
411.049	7.11
411.411	7.02
411.774	7.07
412.136	7.1
412.499	7.12
412.861	7.33
413.223	7.1
413.586	7.09
413.948	7.33
414.31	7.41
414.672	7.2
415.035	7.1
415.397	7.12
415.759	7.25
416.121	7.34
416.483	7.41
416.845	7.13
417.206	7.23
417.568	7.36
417.93	7.37
418.292	7.05
418.653	7.13
419.015	7.15
419.377	6.98
419.738	7.2
420.1	6.99
420.461	6.95
420.822	7.05
421.184	7.08
421.545	7.17
421.906	7.14
422.267	7.04
422.629	7.17
422.99	6.95
423.351	7.09
423.712	7.02
424.073	7.1
424.434	7
424.795	7.04
425.155	7.11
425.516	7.08
425.877	7.1
426.238	6.98
426.598	7.11
426.959	6.93
427.32	7.13
427.68	7.21
428.041	7.06
428.401	7.25
428.761	7.32
429.122	7.11
429.482	7.18
429.842	7.3
430.202	7.34
430.563	7.38
430.923	7.45
431.283	7.31
431.643	7.54
432.003	7.49
432.363	7.28
432.722	7.43
433.082	7.49
433.442	7.44
433.802	7.46
434.161	7.19
434.521	7.4
434.881	7.37
435.24	7.28
435.6	7.27
435.959	7.28
436.319	7.22
436.678	7.43
437.037	7.26
437.396	7.47
437.756	7.41
438.115	7.26
438.474	7.42
438.833	7.35
439.192	7.22
439.551	7.3
439.91	7.34
440.269	7.41
440.628	7.41
440.987	7.2
441.345	7.14
441.704	7.33
442.063	7.25
442.421	7.16
442.78	7.23
443.138	7.39
443.497	7.34
443.855	7.21
444.214	7.33
444.572	7.3
444.93	7.53
445.288	7.53
445.647	7.52
446.005	7.35
446.363	7.45
446.721	7.35
447.079	7.49
447.437	7.31
447.795	7.29
448.153	7.18
448.51	7.2
448.868	7.28
449.226	7.29
449.584	7.27
449.941	7.31
450.299	7.3
450.656	7.15
451.014	7.4
451.371	7.37
451.729	7.4
452.086	7.25
452.443	7.39
452.801	7.4
453.158	7.62
453.515	7.28
453.872	7.48
454.229	7.51
454.586	7.47
454.943	7.47
455.3	7.37
455.657	7.55
456.014	7.36
456.371	7.4
456.727	7.38
457.084	7.53
457.441	7.49
457.797	7.46
458.154	7.44
458.51	7.61
458.867	7.37
459.223	7.57
459.58	7.26
459.936	7.56
460.292	7.51
460.648	7.25
461.005	7.32
461.361	7.34
461.717	7.16
462.073	7.3
462.429	7.38
462.785	7.28
463.141	7.49
463.496	7.4
463.852	7.45
464.208	7.64
464.564	7.63
464.919	7.56
465.275	7.84
465.631	7.61
465.986	7.53
466.342	7.68
466.697	7.58
467.052	7.53
467.408	7.61
467.763	7.66
468.118	7.74
468.473	7.58
468.829	7.4
469.184	7.47
469.539	7.58
469.894	7.56
470.249	7.47
470.603	7.51
470.958	7.51
471.313	7.7
471.668	7.65
472.023	7.62
472.377	7.54
472.732	7.35
473.086	7.72
473.441	7.67
473.795	7.84
474.15	7.65
474.504	7.48
474.859	7.57
475.213	7.66
475.567	7.66
475.921	7.56
476.275	7.44
476.63	7.66
476.984	7.66
477.338	7.45
477.692	7.54
478.045	7.62
478.399	7.44
478.753	7.53
479.107	7.58
479.461	7.56
479.814	7.62
480.168	7.57
480.521	7.48
480.875	7.56
481.228	7.64
481.582	7.65
481.935	7.49
482.289	7.53
482.642	7.47
482.995	7.4
483.348	7.57
483.701	7.46
484.055	7.43
484.408	7.37
484.761	7.22
485.114	7.28
485.466	7.11
485.819	7.04
486.172	6.99
486.525	7
486.878	7.07
487.23	7.11
487.583	7.17
487.936	7.22
488.288	7.28
488.641	7.34
488.993	7.16
489.345	7.14
489.698	7.09
490.05	7.13
490.402	7.15
490.754	7.16
491.107	7.23
491.459	7.26
491.811	7.45
492.163	7.3
492.515	7.45
492.866	7.4
493.218	7.24
493.57	7.18
493.922	7.11
494.274	7.2
494.625	7.18
494.977	7.19
495.328	7.39
495.68	7.36
496.031	7.34
496.383	7.54
496.734	7.51
497.086	7.55
497.437	7.51
497.788	7.4
498.139	7.73
498.49	7.45
498.842	7.42
499.193	7.48
499.544	7.45
499.894	7.44
500.245	7.47
500.596	7.53
500.947	7.47
501.298	7.36
501.648	7.34
501.999	7.51
502.35	7.42
502.7	7.62
503.051	7.45
503.401	7.56
503.752	7.68
504.102	7.55
504.452	7.49
504.803	7.49
505.153	7.49
505.503	7.52
505.853	7.6
506.203	7.41
506.553	7.49
506.903	7.43
507.253	7.53
507.603	7.36
507.953	7.61
508.303	7.41
508.652	7.53
509.002	7.58
509.352	7.6
509.701	7.46
510.051	7.4
510.4	7.49
510.75	7.57
511.099	7.44
511.449	7.49
511.798	7.38
512.147	7.39
512.496	7.49
512.846	7.32
513.195	7.42
513.544	7.48
513.893	7.36
514.242	7.41
514.591	7.39
514.939	7.34
515.288	7.3
515.637	7.54
515.986	7.48
516.334	7.45
516.683	7.46
517.032	7.21
517.38	7.43
517.729	7.47
518.077	7.5
518.426	7.4
518.774	7.33
519.122	7.37
519.47	7.33
519.819	7.3
520.167	7.29
520.515	7.22
520.863	7.36
521.211	7.27
521.559	7.25
521.907	7.34
522.255	7.29
522.602	7.46
522.95	7.4
523.298	7.46
523.645	7.39
523.993	7.54
524.341	7.38
524.688	7.43
525.036	7.46
525.383	7.26
525.73	7.49
526.078	7.46
526.425	7.42
526.772	7.31
527.119	7.31
527.466	7.31
527.814	7.34
528.161	7.21
528.508	7.2
528.854	7.21
529.201	7.18
529.548	7.19
529.895	7.28
530.242	7.09
530.588	6.95
530.935	6.96
531.282	7.04
531.628	7.01
531.975	7.02
532.321	7.06
532.667	7.15
533.014	7.3
533.36	7.26
533.706	7.33
534.052	7.12
534.399	7.15
534.745	7.11
535.091	7.08
535.437	7.09
535.783	7.06
536.129	7.11
536.474	7.11
536.82	7.16
537.166	7.18
537.512	7.28
537.857	7.28
538.203	7.27
538.549	7.33
538.894	7.14
539.239	7.15
539.585	7.14
539.93	7.18
540.276	7.29
540.621	7.35
540.966	7.32
541.311	7.35
541.656	7.33
542.001	7.32
542.346	7.32
542.691	7.02
543.036	7.03
543.381	7.03
543.726	6.99
544.071	6.99
544.415	6.99
544.76	6.98
545.105	7.13
545.449	7.07
545.794	7.17
546.138	7.15
546.483	7.1
546.827	7.26
547.171	7.2
547.516	7.11
547.86	7.12
548.204	7.03
548.548	7.18
548.892	7.11
549.236	7.12
549.58	7.07
549.924	7.12
550.268	7.08
550.612	7.24
550.956	7.34
551.3	7.28
551.643	7.18
551.987	7.37
552.33	7.05
552.674	7.25
553.017	7.13
553.361	7.26
553.704	7.42
554.048	7.28
554.391	7.21
554.734	7.3
555.077	7.3
555.42	7.13
555.764	6.92
556.107	7.34
556.45	7.11
556.793	7.19
557.135	7.12
557.478	7.14
557.821	7.12
558.164	7.27
558.507	7.25
558.849	7.36
559.192	7.31
559.534	7.2
559.877	7.06
560.219	7.32
560.562	7.2
560.904	7.03
561.246	7.36
561.589	7.27
561.931	7.25
562.273	7.27
562.615	7.39
562.957	7.24
563.299	7.18
563.641	7.22
563.983	7.07
564.325	7.11
564.667	7.31
565.008	7.15
565.35	7.18
565.692	7.3
566.033	7.3
566.375	7.27
566.716	7.29
567.058	7.06
567.399	7.19
567.741	7.1
568.082	7.1
568.423	7.08
568.764	6.86
569.105	7.06
569.447	7.08
569.788	7.11
570.129	7.2
570.47	7.07
570.811	7.14
571.151	7.11
571.492	7.16
571.833	7.29
572.174	7.05
572.514	7.19
572.855	6.99
573.195	6.97
573.536	6.92
573.876	7.18
574.217	6.93
574.557	6.91
574.898	6.93
575.238	7.04
575.578	6.97
575.918	6.88
576.258	7.1
576.598	7.13
576.938	7.02
577.278	6.93
577.618	6.8
577.958	6.89
578.298	6.99
578.638	6.95
578.977	7.16
579.317	6.99
579.657	6.98
579.996	7.05
580.336	7.12
580.675	7.05
581.014	7.21
581.354	6.85
581.693	6.97
582.032	7.22
582.372	7.09
582.711	7.05
583.05	7.11
583.389	6.97
583.728	7.2
584.067	6.94
584.406	7.03
584.745	7.05
585.083	6.92
585.422	7.07
585.761	7.01
586.1	7
586.438	6.73
586.777	6.94
587.115	7.16
587.454	7.01
587.792	7.05
588.13	7.14
588.469	7.17
588.807	6.73
589.145	6.87
589.483	6.66
589.821	6.94
590.159	6.89
590.497	7.07
590.835	6.89
591.173	6.83
591.511	6.97
591.849	6.87
592.187	6.92
592.524	6.59
592.862	6.73
593.2	6.98
593.537	6.84
593.875	6.64
594.212	6.89
594.55	6.75
594.887	6.77
595.224	6.95
595.561	6.51
595.899	6.78
596.236	6.89
596.573	7.02
596.91	6.87
597.247	6.69
597.584	6.65
597.921	6.68
598.258	7
598.594	7.05
598.931	6.68
599.268	6.65
599.604	6.72
599.941	6.57
600.277	6.66
600.614	6.69
600.95	6.61
601.287	6.6
601.623	6.85
601.959	6.81
602.296	6.61
602.632	6.57
602.968	6.5
603.304	6.89
603.64	6.73
603.976	6.92
604.312	6.81
604.648	6.63
604.984	6.81
605.319	6.76
605.655	6.53
605.991	6.79
606.326	6.57
606.662	6.44
606.998	6.51
607.333	6.51
607.668	6.45
608.004	6.65
608.339	6.51
608.674	6.53
609.01	6.6
609.345	6.58
609.68	6.97
610.015	6.53
610.35	6.69
610.685	6.71
611.02	6.61
611.355	6.38
611.689	6.38
612.024	6.65
612.359	6.74
612.694	6.49
613.028	6.66
613.363	6.55
613.697	6.59
614.032	6.57
614.366	6.6
614.7	6.48
615.035	6.64
615.369	6.72
615.703	6.44
616.037	6.73
616.371	6.52
616.705	6.46
617.039	6.51
617.373	6.65
617.707	6.81
618.041	6.61
618.375	6.48
618.709	6.48
619.042	6.39
619.376	6.69
619.71	6.95
620.043	6.54
620.377	6.48
620.71	6.48
621.043	6.62
621.377	6.6
621.71	6.68
622.043	6.52
622.376	6.84
622.709	6.69
623.043	6.58
623.376	6.51
623.709	6.49
624.041	6.4
624.374	6.51
624.707	6.08
625.04	6.7
625.373	6.42
625.705	6.64
626.038	6.66
626.37	6.04
626.703	6.38
627.035	6.39
627.368	6.47
627.7	6.81
628.032	6.36
628.365	6.45
628.697	6.56
629.029	6.55
629.361	6.49
629.693	6.3
630.025	6.39
630.357	6.36
630.689	6.17
631.021	6.73
631.353	6.4
631.684	6.17
632.016	6.69
632.348	6.16
632.679	6.2
633.011	6.72
633.342	6.26
633.674	6.47
634.005	6.46
634.336	7
634.668	6.39
634.999	6.27
635.33	6.38
635.661	6.44
635.992	6.38
636.323	6.6
636.654	6.48
636.985	6.45
637.316	6.33
637.647	6.33
637.977	6.14
638.308	6.39
638.639	6.17
638.969	6.77
639.3	6.35
639.63	6.47
639.961	6.38
640.291	6.16
640.622	6.38
640.952	6.43
641.282	6.5
641.612	6.63
641.943	6.71
642.273	6.34
642.603	6.56
642.933	6.7
643.263	6.69
643.592	6.35
643.922	6.65
644.252	6.26
644.582	6.4
644.911	6.44
645.241	6.76
645.571	6.79
645.9	6.16
646.23	6.36
646.559	6.38
646.888	6.75
647.218	6.44
647.547	5.96
647.876	6.18
648.205	6.2
648.534	6.09
648.863	6.6
649.192	6.49
649.521	6.43
649.85	6.57
650.179	6.43
650.508	6.16
650.837	6.51
651.165	6.47
651.494	6.15
651.822	6.34
652.151	6.07
652.479	6.41
652.808	6.11
653.136	5.81
653.465	6.59
653.793	6.53
654.121	6.84
654.449	6.63
654.777	6.22
655.105	6.85
655.433	6.71
655.761	6.34
656.089	6.7
656.417	6.41
656.745	6.26
657.073	6.43
657.4	7
657.728	6.86
658.056	5.9
658.383	6.25
658.711	6.47
659.038	6.19
659.365	6.51
659.693	6.56
660.02	6.64
660.347	6.23
660.674	6.48
661.001	5.76
661.329	6.28
661.656	6.65
661.982	6.23
662.309	6.26
662.636	6.28
662.963	6.32
663.29	6.53
663.616	6.43
663.943	6.04
664.27	6.17
664.596	6.47
664.923	5.88
665.249	6.04
665.576	6.14
665.902	6.76
666.228	6.43
666.554	6.51
666.881	6.19
667.207	6.39
667.533	6.22
667.859	6.94
668.185	6.66
668.511	6.65
668.837	7.14
669.162	6.74
669.488	6.82
669.814	6.26
670.139	6.48
670.465	6.56
670.791	7.02
671.116	5.75
671.442	6.54
671.767	6.54
672.092	6.13
672.418	6.23
672.743	6.38
673.068	6.71
673.393	6.54
673.718	6.51
674.043	6.45
674.368	6.38
674.693	7
675.018	6.79
675.343	5.88
675.667	6.27
675.992	6.76
676.317	6.15
676.641	6.62
676.966	6.41
677.29	6.6
677.615	6.88
677.939	6.57
678.264	6.68
678.588	5.69
678.912	6.34
679.236	6.62
679.56	6.58
679.885	6.75
680.209	6.61
680.532	5.78
680.856	6.21
681.18	6.29
681.504	5.93
681.828	6.51
682.152	6.3
682.475	5.96
682.799	6.13
683.122	6.05
683.446	6.51
683.769	6.42
684.093	6.75
684.416	5.85
684.739	5.97
685.062	5.89
685.386	5.91
685.709	6.63
686.032	6.03
686.355	6.71
686.678	6.3
687.001	6.58
687.324	5.99
687.646	6.15
687.969	6.93
688.292	6.2
688.614	6.31
688.937	6.24
689.26	5.64
689.582	6.21
689.904	5.84
690.227	6.51
690.549	6.64
690.871	6.59
691.194	6.87
691.516	6.49
691.838	7.49
692.16	6.18
692.482	6.6
