Data from 0223_forehead_Reflection__3__60.txt Node

Date: Fri Oct 20 21:08:16 CDT 2023
User: ToomeyLab
Spectrometer: FLMS14357
Trigger mode: 0
Integration Time (sec): 1.000000E-2
Scans to average: 100
Electric dark correction enabled: true
Nonlinearity correction enabled: false
Boxcar width: 0
XAxis mode: Wavelengths
Number of Pixels in Spectrum: 2048
>>>>>Begin Spectral Data<<<<<
189.047	199.49
189.435	199.49
189.823	199.49
190.211	31.97
190.599	124.63
190.987	-25.09
191.375	-797.1
191.763	-887.81
192.151	-222.81
192.538	303.83
192.926	72.7
193.314	95.36
193.702	67.54
194.089	85.59
194.477	-36.69
194.864	-6.36
195.252	106.16
195.639	192.69
196.027	-544.28
196.414	82.67
196.801	-31.83
197.189	63.02
197.576	-1394.68
197.963	789.34
198.351	27.27
198.738	-7.68
199.125	33.4
199.512	37.87
199.899	-1.73
200.286	-28.66
200.673	47.12
201.06	-20.27
201.447	28.11
201.833	16.45
202.22	46
202.607	57.65
202.994	13.55
203.38	57.07
203.767	45.49
204.154	21.92
204.54	46
204.927	17.25
205.313	24.79
205.699	54.87
206.086	22.25
206.472	52.15
206.858	47.91
207.245	7.33
207.631	30.43
208.017	52.86
208.403	24.59
208.789	61.17
209.175	31.79
209.561	41.08
209.947	22.12
210.333	20.47
210.719	27.66
211.105	36.26
211.491	28.75
211.876	39.57
212.262	48.62
212.648	17.23
213.034	20.64
213.419	22.15
213.805	13.07
214.19	5.44
214.576	27.16
214.961	37.5
215.346	31.36
215.732	15.43
216.117	-21.3
216.502	19.19
216.888	25.87
217.273	15.37
217.658	17.93
218.043	40.06
218.428	19.96
218.813	34.93
219.198	8.94
219.583	12.64
219.968	19.85
220.353	28.49
220.738	16.46
221.122	-0.01
221.507	35.05
221.892	16.41
222.276	18.36
222.661	20.54
223.046	13.08
223.43	7.29
223.815	15.93
224.199	22.16
224.583	11.41
224.968	3.82
225.352	20.99
225.736	9.61
226.121	14.67
226.505	8.86
226.889	18.8
227.273	10.96
227.657	12.74
228.041	10.31
228.425	9.18
228.809	11.11
229.193	4.47
229.577	7.73
229.961	5.58
230.344	5.7
230.728	5.53
231.112	5.82
231.495	5.2
231.879	5.44
232.263	6.04
232.646	4.01
233.03	3.88
233.413	4.39
233.797	7.16
234.18	6.34
234.563	5.56
234.946	7.15
235.33	6.01
235.713	5.55
236.096	6.08
236.479	6.76
236.862	5.09
237.245	5.82
237.628	6.52
238.011	6.96
238.394	4.32
238.777	7.77
239.16	5.98
239.543	6.45
239.925	7.04
240.308	6.09
240.691	5.96
241.073	6.41
241.456	5.63
241.838	5.62
242.221	6.76
242.603	5.41
242.986	6.35
243.368	5.7
243.75	5.26
244.133	4.96
244.515	4.84
244.897	4.97
245.279	5.81
245.661	5.23
246.043	5.06
246.425	5.33
246.807	6.55
247.189	5.16
247.571	4.6
247.953	4.41
248.335	5.01
248.717	4.9
249.098	4.7
249.48	4.75
249.862	5.02
250.243	4.96
250.625	5.04
251.006	5.25
251.388	5.54
251.769	4.87
252.151	4.73
252.532	4.77
252.913	5.19
253.295	4.67
253.676	5.47
254.057	4.75
254.438	4.96
254.819	5.25
255.2	4.93
255.581	4.47
255.962	4.76
256.343	5.08
256.724	4.57
257.105	5.84
257.486	5.85
257.867	6.07
258.247	5.72
258.628	5.47
259.009	3.91
259.389	4.96
259.77	3.97
260.15	5.18
260.531	5.24
260.911	5.07
261.292	4.73
261.672	4.83
262.052	5.01
262.432	4.67
262.813	4.72
263.193	5.36
263.573	4.8
263.953	5.05
264.333	5.05
264.713	5.27
265.093	5.59
265.473	5.08
265.853	4.33
266.233	4.58
266.612	4.71
266.992	4.76
267.372	4.47
267.752	4.69
268.131	5.09
268.511	4.51
268.89	4.47
269.27	4.64
269.649	4.19
270.029	4.54
270.408	4.89
270.787	5.15
271.167	4.72
271.546	4.82
271.925	5.26
272.304	5.17
272.683	4.85
273.062	4.84
273.441	4.76
273.82	4.57
274.199	4.85
274.578	4.87
274.957	4.65
275.336	4.47
275.715	5.05
276.093	4.87
276.472	4.77
276.851	4.68
277.229	4.33
277.608	4.13
277.986	4.08
278.365	4.99
278.743	4.48
279.122	4.38
279.5	4.27
279.878	3.81
280.257	4.38
280.635	5.32
281.013	5.51
281.391	4.64
281.769	4.76
282.147	4.65
282.525	4.71
282.903	4.75
283.281	4.93
283.659	4.68
284.037	4.89
284.415	3.97
284.792	4.59
285.17	4.81
285.548	4.59
285.925	4.7
286.303	3.95
286.68	4.55
287.058	4.79
287.435	4.56
287.813	4.16
288.19	4.16
288.567	4.69
288.945	4.95
289.322	4.98
289.699	4.34
290.076	5.13
290.453	4.71
290.83	4.47
291.207	4.92
291.584	4.27
291.961	4.54
292.338	4.45
292.715	4.49
293.092	4.83
293.469	5.13
293.845	4.56
294.222	4.73
294.599	4.81
294.975	5.07
295.352	4.74
295.728	5.22
296.105	4.91
296.481	4.57
296.858	4.97
297.234	5.14
297.61	4.65
297.986	5.07
298.363	5.09
298.739	4.81
299.115	4.71
299.491	4.78
299.867	5.11
300.243	4.86
300.619	5.02
300.995	4.74
301.371	5.13
301.746	4.86
302.122	5.39
302.498	4.8
302.874	5.04
303.249	5.07
303.625	5.24
304	5.49
304.376	5.07
304.751	4.71
305.127	5.34
305.502	5.4
305.878	5.56
306.253	5.4
306.628	5.82
307.003	5.08
307.378	5.06
307.754	4.99
308.129	5.56
308.504	5.89
308.879	5.43
309.254	5.88
309.629	5.2
310.003	5.52
310.378	6.19
310.753	5.59
311.128	5.74
311.502	5.75
311.877	5.68
312.252	5.58
312.626	6.28
313.001	5.59
313.375	6.11
313.75	5.7
314.124	5.83
314.498	6.15
314.873	5.44
315.247	6.16
315.621	6.22
315.995	6
316.369	5.72
316.743	5.88
317.117	6.11
317.491	5.64
317.865	6.15
318.239	6.51
318.613	6.27
318.987	6.01
319.361	5.69
319.734	5.85
320.108	5.81
320.482	6.09
320.855	6.49
321.229	7.29
321.602	6.28
321.976	6.26
322.349	6.93
322.723	5.9
323.096	7.06
323.469	6.53
323.843	6.63
324.216	6.67
324.589	6.46
324.962	7.01
325.335	6.55
325.708	7.05
326.081	6.74
326.454	6.92
326.827	6.85
327.2	7.14
327.573	7.29
327.945	6.94
328.318	6.79
328.691	7.2
329.063	7.39
329.436	6.87
329.809	7.1
330.181	7.26
330.553	6.89
330.926	7.29
331.298	7.1
331.671	6.53
332.043	6.9
332.415	6.78
332.787	7.65
333.159	7.28
333.532	7.6
333.904	6.99
334.276	6.81
334.648	7.14
335.02	7.79
335.391	7.45
335.763	7.84
336.135	7.65
336.507	7.55
336.879	7.19
337.25	7.49
337.622	7.83
337.993	7.85
338.365	7.65
338.736	8.05
339.108	8.11
339.479	7.56
339.851	8.05
340.222	7.27
340.593	7.46
340.964	7.42
341.336	8.04
341.707	7.72
342.078	7.41
342.449	7.75
342.82	7.62
343.191	7.77
343.562	7.84
343.933	7.67
344.303	8.17
344.674	7.96
345.045	8.23
345.416	7.89
345.786	8.27
346.157	8.14
346.527	8.13
346.898	8.31
347.268	7.89
347.639	8.33
348.009	8.05
348.38	8.45
348.75	8.28
349.12	8.56
349.49	8.18
349.861	8.39
350.231	8.05
350.601	8.24
350.971	8.67
351.341	8.65
351.711	9.16
352.081	8.37
352.45	8.33
352.82	8.64
353.19	8.66
353.56	8.91
353.929	8.44
354.299	8.32
354.669	8.46
355.038	8.74
355.408	9.06
355.777	8.58
356.147	8.42
356.516	8.39
356.885	8.47
357.254	8.79
357.624	8.8
357.993	8.68
358.362	9.01
358.731	8.33
359.1	8.69
359.469	8.58
359.838	8.67
360.207	8.69
360.576	9.42
360.945	8.76
361.314	8.75
361.682	8.82
362.051	9.07
362.42	8.9
362.788	8.97
363.157	8.96
363.525	8.76
363.894	8.91
364.262	8.88
364.631	9.12
364.999	9.08
365.367	9.22
365.735	9.03
366.104	8.89
366.472	9.45
366.84	9.52
367.208	9.3
367.576	9.45
367.944	9.07
368.312	9.04
368.68	9.34
369.048	9.29
369.416	9.6
369.783	9.52
370.151	9.45
370.519	9.14
370.886	9.92
371.254	9.66
371.621	9.53
371.989	9.37
372.356	9.76
372.724	9.82
373.091	9.47
373.458	9.33
373.826	9.42
374.193	9.52
374.56	9.82
374.927	9.69
375.294	9.76
375.661	9.75
376.028	9.63
376.395	10.01
376.762	9.73
377.129	9.76
377.496	10.02
377.863	10.1
378.229	10
378.596	10.02
378.963	9.78
379.329	9.75
379.696	9.94
380.062	9.87
380.429	9.78
380.795	9.89
381.161	9.94
381.528	10.38
381.894	10.17
382.26	10.47
382.626	10.54
382.993	10.1
383.359	10.02
383.725	10.16
384.091	10.04
384.457	10.29
384.823	10.51
385.188	10.61
385.554	10.25
385.92	10.52
386.286	10.6
386.651	10.39
387.017	10.44
387.383	10.46
387.748	10.27
388.114	10.32
388.479	10.44
388.845	10.69
389.21	10.47
389.575	10.34
389.94	10.19
390.306	10.83
390.671	10.8
391.036	10.75
391.401	10.77
391.766	10.76
392.131	10.73
392.496	10.6
392.861	10.49
393.226	10.86
393.591	10.91
393.956	10.81
394.32	11.06
394.685	10.69
395.05	11.07
395.414	11.17
395.779	10.8
396.143	10.96
396.508	10.96
396.872	10.97
397.236	11.28
397.601	11.08
397.965	10.76
398.329	11.02
398.694	11.1
399.058	11.13
399.422	11.02
399.786	11.07
400.15	11.07
400.514	11.01
400.878	11.28
401.242	11.43
401.605	11.36
401.969	11.27
402.333	11.08
402.697	11.34
403.06	11.4
403.424	11.22
403.787	11.53
404.151	11.38
404.514	11.63
404.878	11.6
405.241	11.64
405.604	11.23
405.968	11.67
406.331	11.59
406.694	11.59
407.057	11.36
407.42	11.67
407.783	11.58
408.146	11.81
408.509	11.6
408.872	11.81
409.235	11.56
409.598	11.79
409.961	11.8
410.323	11.81
410.686	11.54
411.049	11.89
411.411	11.81
411.774	11.82
412.136	11.95
412.499	11.75
412.861	12.08
413.223	12.03
413.586	11.89
413.948	12.15
414.31	12.35
414.672	11.89
415.035	12.08
415.397	12.21
415.759	12.14
416.121	12.27
416.483	12.41
416.845	12.27
417.206	12.3
417.568	12.63
417.93	12.25
418.292	12.2
418.653	12.52
419.015	12.13
419.377	12.21
419.738	12.19
420.1	12.18
420.461	12.2
420.822	12.31
421.184	12.34
421.545	12.33
421.906	12.35
422.267	12.33
422.629	12.42
422.99	12.27
423.351	12.39
423.712	12.35
424.073	12.46
424.434	12.45
424.795	12.52
425.155	12.69
425.516	12.68
425.877	12.69
426.238	12.66
426.598	12.71
426.959	12.72
427.32	12.76
427.68	12.91
428.041	12.82
428.401	13.03
428.761	13.08
429.122	12.96
429.482	13.15
429.842	13.34
430.202	13.27
430.563	13.24
430.923	13.57
431.283	13.37
431.643	13.57
432.003	13.7
432.363	13.49
432.722	13.65
433.082	13.71
433.442	13.65
433.802	13.72
434.161	13.63
434.521	13.78
434.881	13.76
435.24	13.75
435.6	13.8
435.959	13.77
436.319	13.8
436.678	13.92
437.037	13.87
437.396	14.2
437.756	14.07
438.115	13.97
438.474	14.09
438.833	14.13
439.192	14.01
439.551	14.08
439.91	14.26
440.269	14.28
440.628	14.29
440.987	14.39
441.345	14.17
441.704	14.24
442.063	14.28
442.421	14.31
442.78	14.19
443.138	14.41
443.497	14.39
443.855	14.42
444.214	14.55
444.572	14.53
444.93	14.81
445.288	14.85
445.647	14.85
446.005	14.7
446.363	14.96
446.721	14.81
447.079	14.89
447.437	14.77
447.795	14.78
448.153	14.67
448.51	14.8
448.868	14.78
449.226	14.84
449.584	14.91
449.941	14.84
450.299	15
450.656	14.98
451.014	15.36
451.371	15.34
451.729	15.22
452.086	15.38
452.443	15.45
452.801	15.38
453.158	15.65
453.515	15.58
453.872	15.66
454.229	15.75
454.586	15.57
454.943	15.69
455.3	15.71
455.657	15.62
456.014	15.59
456.371	15.7
456.727	16.03
457.084	15.94
457.441	15.95
457.797	16.1
458.154	15.98
458.51	16
458.867	16.11
459.223	16.04
459.58	16.2
459.936	16.17
460.292	16.18
460.648	16
461.005	16.14
461.361	15.97
461.717	15.95
462.073	15.97
462.429	16.04
462.785	16.07
463.141	16.4
463.496	16.28
463.852	16.52
464.208	16.71
464.564	16.79
464.919	16.68
465.275	16.74
465.631	16.91
465.986	16.94
466.342	16.91
466.697	16.89
467.052	16.89
467.408	16.98
467.763	17.05
468.118	17.16
468.473	17.14
468.829	17.13
469.184	17.03
469.539	16.89
469.894	17.27
470.249	17.23
470.603	17.38
470.958	17.37
471.313	17.41
471.668	17.46
472.023	17.53
472.377	17.39
472.732	17.56
473.086	17.59
473.441	17.72
473.795	17.69
474.15	17.68
474.504	17.56
474.859	17.7
475.213	17.91
475.567	17.76
475.921	17.75
476.275	17.87
476.63	18.05
476.984	17.88
477.338	17.88
477.692	18.04
478.045	18.08
478.399	17.93
478.753	18.02
479.107	18.05
479.461	18.03
479.814	18.02
480.168	18.17
480.521	18.26
480.875	18.23
481.228	18.35
481.582	18.33
481.935	18.23
482.289	18.34
482.642	18.5
482.995	18.24
483.348	18.37
483.701	18.38
484.055	18.27
484.408	18.21
484.761	18.17
485.114	17.94
485.466	17.85
485.819	17.63
486.172	17.7
486.525	17.78
486.878	17.9
487.23	18.05
487.583	18.2
487.936	18.4
488.288	18.43
488.641	18.39
488.993	18.31
489.345	18.3
489.698	18.19
490.05	18.32
490.402	18.23
490.754	18.4
491.107	18.5
491.459	18.72
491.811	18.84
492.163	19.1
492.515	19.07
492.866	19
493.218	18.76
493.57	18.63
493.922	18.68
494.274	18.76
494.625	18.97
494.977	19.04
495.328	19.19
495.68	19.33
496.031	19.48
496.383	19.66
496.734	19.75
497.086	19.83
497.437	19.96
497.788	19.88
498.139	20.01
498.49	19.92
498.842	19.81
499.193	19.75
499.544	19.87
499.894	19.93
500.245	19.93
500.596	20.18
500.947	20.23
501.298	20.21
501.648	20.23
501.999	20.33
502.35	20.43
502.7	20.69
503.051	20.45
503.401	20.47
503.752	20.66
504.102	20.72
504.452	20.66
504.803	20.72
505.153	20.9
505.503	20.7
505.853	20.99
506.203	20.89
506.553	20.76
506.903	20.77
507.253	21.01
507.603	20.99
507.953	21.06
508.303	21.13
508.652	21.26
509.002	21.19
509.352	21.22
509.701	21.24
510.051	21.02
510.4	21.08
510.75	21.14
511.099	21.14
511.449	21.04
511.798	21.36
512.147	21.13
512.496	21.31
512.846	21.45
513.195	21.5
513.544	21.53
513.893	21.57
514.242	21.54
514.591	21.62
514.939	21.57
515.288	21.61
515.637	21.69
515.986	21.86
516.334	21.86
516.683	21.86
517.032	22
517.38	21.89
517.729	22.05
518.077	22.04
518.426	21.98
518.774	22.06
519.122	22.13
519.47	22.13
519.819	21.94
520.167	22.02
520.515	21.9
520.863	22.03
521.211	22.06
521.559	22.19
521.907	22.29
522.255	22.31
522.602	22.62
522.95	22.48
523.298	22.55
523.645	22.75
523.993	22.9
524.341	22.89
524.688	22.93
525.036	22.94
525.383	22.88
525.73	23.05
526.078	23.03
526.425	22.95
526.772	22.9
527.119	22.84
527.466	22.7
527.814	22.79
528.161	22.72
528.508	22.77
528.854	22.8
529.201	22.96
529.548	22.9
529.895	22.69
530.242	22.49
530.588	22.37
530.935	22.5
531.282	22.64
531.628	22.73
531.975	22.73
532.321	22.93
532.667	23.07
533.014	23.26
533.36	23.35
533.706	23.46
534.052	23.58
534.399	23.43
534.745	23.44
535.091	23.31
535.437	23.25
535.783	23.32
536.129	23.45
536.474	23.59
536.82	23.76
537.166	23.8
537.512	23.96
537.857	24.14
538.203	24.16
538.549	23.98
538.894	23.94
539.239	24.01
539.585	24.01
539.93	24.17
540.276	24.48
540.621	24.56
540.966	24.48
541.311	24.84
541.656	24.72
542.001	24.67
542.346	24.6
542.691	24.37
543.036	24.26
543.381	24.08
543.726	24.13
544.071	24.22
544.415	24.38
544.76	24.47
545.105	24.57
545.449	24.56
545.794	24.76
546.138	24.91
546.483	24.96
546.827	25.21
547.171	25.23
547.516	25.11
547.86	25.37
548.204	25.26
548.548	25.34
548.892	25.41
549.236	25.36
549.58	25.34
549.924	25.56
550.268	25.6
550.612	25.99
550.956	26.13
551.3	25.94
551.643	26.06
551.987	26.27
552.33	26.15
552.674	26.29
553.017	26.24
553.361	26.43
553.704	26.59
554.048	26.52
554.391	26.58
554.734	26.47
555.077	26.49
555.42	26.44
555.764	26.63
556.107	26.59
556.45	26.61
556.793	26.61
557.135	26.65
557.478	26.99
557.821	27.12
558.164	27.05
558.507	26.93
558.849	27.07
559.192	27.29
559.534	27.36
559.877	27.09
560.219	27.39
560.562	27.41
560.904	27.31
561.246	27.42
561.589	27.68
561.931	27.65
562.273	27.67
562.615	27.75
562.957	27.65
563.299	27.53
563.641	27.58
563.983	27.7
564.325	27.55
564.667	27.99
565.008	27.87
565.35	28.04
565.692	27.79
566.033	27.99
566.375	27.91
566.716	28.41
567.058	28.28
567.399	27.99
567.741	28.02
568.082	28.03
568.423	28.17
568.764	28.09
569.105	28.21
569.447	28.23
569.788	28.27
570.129	28.25
570.47	28.48
570.811	28.46
571.151	28.76
571.492	28.68
571.833	28.77
572.174	28.79
572.514	29.08
572.855	28.66
573.195	28.82
573.536	28.72
573.876	28.97
574.217	28.71
574.557	28.67
574.898	28.84
575.238	28.89
575.578	28.81
575.918	29.14
576.258	29.05
576.598	29.07
576.938	29.1
577.278	29.2
577.618	29.36
577.958	29.11
578.298	29.41
578.638	29.55
578.977	29.63
579.317	29.62
579.657	29.57
579.996	30.05
580.336	29.84
580.675	29.99
581.014	30.04
581.354	30.21
581.693	30.2
582.032	30.14
582.372	30.16
582.711	30.32
583.05	30.63
583.389	30.45
583.728	30.39
584.067	30.32
584.406	30.65
584.745	30.8
585.083	30.74
585.422	30.46
585.761	30.79
586.1	30.72
586.438	30.47
586.777	31.1
587.115	30.81
587.454	30.92
587.792	30.92
588.13	31.11
588.469	30.85
588.807	30.67
589.145	31.18
589.483	31.31
589.821	31.18
590.159	31.41
590.497	31.1
590.835	31.37
591.173	31.28
591.511	31.16
591.849	31.04
592.187	31.3
592.524	31.14
592.862	31.24
593.2	31.67
593.537	31.44
593.875	31.51
594.212	31.95
594.55	31.74
594.887	31.79
595.224	31.84
595.561	31.6
595.899	32.1
596.236	31.88
596.573	31.93
596.91	32.05
597.247	31.72
597.584	31.93
597.921	32.11
598.258	32.26
598.594	32.12
598.931	31.93
599.268	31.95
599.604	32.1
599.941	32.01
600.277	31.93
600.614	32.44
600.95	32.19
601.287	32.62
601.623	32.5
601.959	32.53
602.296	32.67
602.632	32.62
602.968	32.42
603.304	32.99
603.64	32.57
603.976	32.9
604.312	32.95
604.648	33.12
604.984	32.92
605.319	32.8
605.655	32.95
605.991	32.75
606.326	32.75
606.662	32.71
606.998	32.68
607.333	32.98
607.668	32.8
608.004	32.99
608.339	33.11
608.674	33.23
609.01	33.46
609.345	33.59
609.68	33.69
610.015	33.29
610.35	33.5
610.685	33.61
611.02	33.63
611.355	33.55
611.689	33.51
612.024	33.57
612.359	33.61
612.694	33.62
613.028	33.94
613.363	33.93
613.697	33.87
614.032	33.89
614.366	34.31
614.7	34.49
615.035	34.23
615.369	34.41
615.703	34.2
616.037	34.36
616.371	34.23
616.705	34.86
617.039	34.57
617.373	34.95
617.707	34.94
618.041	35.05
618.375	34.87
618.709	34.54
619.042	35.35
619.376	35.18
619.71	35.25
620.043	35.01
620.377	35.28
620.71	34.88
621.043	34.88
621.377	34.79
621.71	35.2
622.043	35.18
622.376	35.59
622.709	35.55
623.043	35.53
623.376	35.22
623.709	34.86
624.041	35.27
624.374	35.59
624.707	35.21
625.04	35.11
625.373	35.62
625.705	35.73
626.038	35.85
626.37	35.55
626.703	35.7
627.035	36.1
627.368	35.63
627.7	35.51
628.032	36.09
628.365	35.84
628.697	36.3
629.029	35.6
629.361	35.65
629.693	35.86
630.025	35.98
630.357	35.67
630.689	36.05
631.021	36.65
631.353	36.18
631.684	36.22
632.016	36.81
632.348	36.29
632.679	36.5
633.011	36.16
633.342	36.34
633.674	36.31
634.005	36.54
634.336	36.53
634.668	36.64
634.999	36.51
635.33	36.8
635.661	36.89
635.992	36.71
636.323	36.92
636.654	36.83
636.985	36.83
637.316	36.97
637.647	36.77
637.977	36.44
638.308	36.84
638.639	37.09
638.969	36.82
639.3	36.94
639.63	37.59
639.961	37.45
640.291	36.81
640.622	37.69
640.952	37.43
641.282	37.47
641.612	37.26
641.943	37.27
642.273	37.03
642.603	38
642.933	37.53
643.263	36.94
643.592	37.55
643.922	37.9
644.252	37.43
644.582	37.63
644.911	37.95
645.241	37.96
645.571	38.28
645.9	37.25
646.23	38.08
646.559	38.24
646.888	38.2
647.218	37.93
647.547	37.95
647.876	38.18
648.205	38.36
648.534	38.69
648.863	38.55
649.192	38.39
649.521	38.34
649.85	38.59
650.179	38.59
650.508	38.88
650.837	38.33
651.165	38.4
651.494	38.72
651.822	38.84
652.151	38.59
652.479	38.83
652.808	38.54
653.136	39.07
653.465	39.01
653.793	39.54
654.121	38.83
654.449	39.04
654.777	38.8
655.105	38.96
655.433	39.2
655.761	39.18
656.089	39.26
656.417	39.31
656.745	39.71
657.073	39.44
657.4	39.58
657.728	39.98
658.056	39.66
658.383	39.37
658.711	39.52
659.038	39.55
659.365	40.33
659.693	39.76
660.02	39.44
660.347	39.91
660.674	39.75
661.001	39.72
661.329	39.51
661.656	40.01
661.982	39.53
662.309	40.05
662.636	40.05
662.963	39.81
663.29	39.63
663.616	40.35
663.943	39.57
664.27	40.31
664.596	40.12
664.923	40.42
665.249	40.51
665.576	39.81
665.902	40.5
666.228	40.94
666.554	40.96
666.881	40.65
667.207	40.32
667.533	40.65
667.859	40.85
668.185	40.44
668.511	40.9
668.837	41.19
669.162	41.12
669.488	40.7
669.814	41.09
670.139	41.78
670.465	41.69
670.791	41.56
671.116	41.23
671.442	40.84
671.767	41.05
672.092	41.22
672.418	41.44
