Data from 0223_chest_Reflection__0__47.txt Node

Date: Fri Oct 20 21:03:28 CDT 2023
User: ToomeyLab
Spectrometer: FLMS14357
Trigger mode: 0
Integration Time (sec): 1.000000E-2
Scans to average: 100
Electric dark correction enabled: true
Nonlinearity correction enabled: false
Boxcar width: 0
XAxis mode: Wavelengths
Number of Pixels in Spectrum: 2048
>>>>>Begin Spectral Data<<<<<
189.047	455.54
189.435	455.54
189.823	455.54
190.211	90.83
190.599	-366
190.987	17.35
191.375	-138.79
191.763	-1642.89
192.151	-139.18
192.538	197.25
192.926	117.69
193.314	133.16
193.702	3.82
194.089	94.56
194.477	214.57
194.864	-41.48
195.252	212.12
195.639	-140.37
196.027	-552.31
196.414	89.56
196.801	264.11
197.189	93.97
197.576	-914.85
197.963	627.67
198.351	29.28
198.738	37.04
199.125	37.81
199.512	38.32
199.899	21.24
200.286	-10.33
200.673	37.17
201.06	30.03
201.447	55.65
201.833	56.72
202.22	21.91
202.607	18.1
202.994	28.86
203.38	-1.66
203.767	34.01
204.154	5.47
204.54	28.32
204.927	1.49
205.313	16.2
205.699	50.73
206.086	24.38
206.472	35.15
206.858	62.27
207.245	10.02
207.631	33.8
208.017	56.61
208.403	15.08
208.789	41.06
209.175	32.96
209.561	49.74
209.947	47.45
210.333	23.42
210.719	7.56
211.105	24.72
211.491	32.03
211.876	-8.77
212.262	39.95
212.648	30.41
213.034	18.02
213.419	32.31
213.805	30.91
214.19	12.13
214.576	8.1
214.961	33.96
215.346	32.56
215.732	16.5
216.117	6.08
216.502	57.87
216.888	8.11
217.273	1.07
217.658	20.69
218.043	26.73
218.428	6.76
218.813	27.03
219.198	13.55
219.583	3.11
219.968	-8.64
220.353	8.32
220.738	21.37
221.122	7.34
221.507	9.28
221.892	12.33
222.276	20.64
222.661	19.86
223.046	9.9
223.43	6.49
223.815	16.52
224.199	19.7
224.583	7.95
224.968	5.34
225.352	5.47
225.736	17.04
226.121	16.96
226.505	9.18
226.889	10.21
227.273	10.79
227.657	14.84
228.041	14.35
228.425	6.98
228.809	9.31
229.193	6.8
229.577	5.01
229.961	7.06
230.344	4.02
230.728	4.31
231.112	5.32
231.495	4.45
231.879	6.07
232.263	6.28
232.646	4.21
233.03	4.56
233.413	5.88
233.797	5.02
234.18	5.3
234.563	7.08
234.946	7.31
235.33	5.92
235.713	5.54
236.096	6.92
236.479	6.09
236.862	5.57
237.245	6.22
237.628	6.79
238.011	7.52
238.394	5.65
238.777	6.11
239.16	4.27
239.543	6.17
239.925	6.68
240.308	5.88
240.691	6.2
241.073	7.16
241.456	5.32
241.838	5.7
242.221	6.6
242.603	6.44
242.986	6.14
243.368	5.43
243.75	5.29
244.133	4.95
244.515	4.68
244.897	5.54
245.279	5.36
245.661	4.81
246.043	4.84
246.425	5.39
246.807	5.4
247.189	5.93
247.571	5.16
247.953	5.59
248.335	5.44
248.717	5.25
249.098	5
249.48	5.02
249.862	5.62
250.243	5.77
250.625	5.68
251.006	5.91
251.388	5.75
251.769	5.9
252.151	4.82
252.532	5.73
252.913	5.37
253.295	4.96
253.676	5.71
254.057	6.21
254.438	5.61
254.819	5.76
255.2	4.99
255.581	5.36
255.962	6.25
256.343	5.53
256.724	5.13
257.105	6.27
257.486	5.9
257.867	5.92
258.247	5.94
258.628	5.44
259.009	5.18
259.389	5.03
259.77	5.15
260.15	5.51
260.531	6.09
260.911	5.6
261.292	4.84
261.672	5.4
262.052	5.13
262.432	5.2
262.813	5.19
263.193	5.31
263.573	5.34
263.953	5.82
264.333	5.59
264.713	6.22
265.093	5.55
265.473	5.43
265.853	4.93
266.233	5.11
266.612	5.12
266.992	5.04
267.372	5.24
267.752	4.63
268.131	5.51
268.511	5.66
268.89	5.15
269.27	5.03
269.649	4.42
270.029	4.88
270.408	5.52
270.787	4.38
271.167	4.93
271.546	5.57
271.925	5.9
272.304	5.35
272.683	5.22
273.062	5.25
273.441	5.04
273.82	5.18
274.199	5.27
274.578	4.91
274.957	4.96
275.336	4.85
275.715	5.08
276.093	4.65
276.472	5.26
276.851	5
277.229	5.08
277.608	4.72
277.986	4.81
278.365	5.51
278.743	4.47
279.122	5.1
279.5	4.86
279.878	4.15
280.257	4.69
280.635	4.9
281.013	5.05
281.391	5.07
281.769	5.05
282.147	4.59
282.525	5.02
282.903	5.03
283.281	5.44
283.659	5.01
284.037	4.74
284.415	4.95
284.792	5.02
285.17	5.14
285.548	4.89
285.925	4.61
286.303	4.26
286.68	4.58
287.058	5.3
287.435	5.09
287.813	4.6
288.19	4.94
288.567	4.69
288.945	5.12
289.322	5.43
289.699	4.7
290.076	5.43
290.453	5.42
290.83	4.91
291.207	5.37
291.584	4.83
291.961	4.83
292.338	5.28
292.715	5.12
293.092	5.15
293.469	5.67
293.845	5.56
294.222	5.6
294.599	5.34
294.975	5.88
295.352	5.32
295.728	5.73
296.105	5.65
296.481	5.33
296.858	6.03
297.234	5.98
297.61	5.36
297.986	5.66
298.363	6.05
298.739	6.01
299.115	5.32
299.491	5.73
299.867	5.81
300.243	5.8
300.619	6.09
300.995	5.88
301.371	5.83
301.746	6.44
302.122	6.38
302.498	5.49
302.874	6.19
303.249	6.23
303.625	6.2
304	6.58
304.376	6.32
304.751	5.65
305.127	5.68
305.502	6.38
305.878	6.49
306.253	6.75
306.628	6.57
307.003	6.67
307.378	6.28
307.754	6.4
308.129	6.83
308.504	6.83
308.879	6.54
309.254	6.81
309.629	6.32
310.003	5.65
310.378	7.07
310.753	6.55
311.128	7.07
311.502	6.48
311.877	6.49
312.252	6.25
312.626	6.75
313.001	6.88
313.375	6.62
313.75	6.85
314.124	6.49
314.498	6.83
314.873	6.23
315.247	6.73
315.621	6.98
315.995	7.24
316.369	6.6
316.743	7.33
317.117	7.35
317.491	6.43
317.865	7.3
318.239	8.24
318.613	7.08
318.987	6.94
319.361	7.08
319.734	6.56
320.108	6.49
320.482	7.24
320.855	7.02
321.229	7.67
321.602	7.12
321.976	7.31
322.349	7.93
322.723	7.29
323.096	7.6
323.469	7.1
323.843	7.63
324.216	6.93
324.589	7.13
324.962	7.91
325.335	7.52
325.708	7.55
326.081	7.6
326.454	7.37
326.827	7.82
327.2	7.31
327.573	7.42
327.945	7.68
328.318	7.15
328.691	7.55
329.063	7.49
329.436	6.89
329.809	7.14
330.181	7.37
330.553	7.75
330.926	7.03
331.298	7.04
331.671	7.3
332.043	7.61
332.415	7.17
332.787	7.58
333.159	7.38
333.532	7.45
333.904	7.45
334.276	7.37
334.648	7.62
335.02	7.85
335.391	7.47
335.763	7.93
336.135	7.3
336.507	7.49
336.879	7.32
337.25	7.82
337.622	7.67
337.993	7.92
338.365	7.32
338.736	7.55
339.108	7.65
339.479	7.41
339.851	7.81
340.222	7.62
340.593	7.15
340.964	7.42
341.336	8.32
341.707	7.9
342.078	7.67
342.449	8.03
342.82	7.31
343.191	7.59
343.562	7.66
343.933	7.58
344.303	7.84
344.674	7.75
345.045	8.02
345.416	7.74
345.786	7.48
346.157	7.79
346.527	7.65
346.898	7.39
347.268	7.65
347.639	7.62
348.009	7.57
348.38	8.11
348.75	7.6
349.12	8
349.49	7.69
349.861	7.63
350.231	7.4
350.601	7.85
350.971	8.16
351.341	7.62
351.711	8.37
352.081	8.06
352.45	7.9
352.82	8.1
353.19	8.31
353.56	8.16
353.929	8.08
354.299	7.9
354.669	7.74
355.038	8.21
355.408	7.86
355.777	8.12
356.147	7.83
356.516	7.62
356.885	8
357.254	8.15
357.624	8.1
357.993	7.62
358.362	7.9
358.731	7.62
359.1	7.5
359.469	7.83
359.838	7.79
360.207	8.04
360.576	8.08
360.945	7.7
361.314	7.83
361.682	7.89
362.051	7.75
362.42	7.67
362.788	8.13
363.157	8.03
363.525	7.79
363.894	7.87
364.262	7.96
364.631	8.02
364.999	8.08
365.367	7.78
365.735	7.72
366.104	8.1
366.472	7.98
366.84	8.03
367.208	7.89
367.576	8.17
367.944	7.77
368.312	8
368.68	8.12
369.048	8.41
369.416	8.2
369.783	8.17
370.151	7.94
370.519	7.9
370.886	8.42
371.254	7.96
371.621	8.33
371.989	7.91
372.356	8.32
372.724	8.24
373.091	8.11
373.458	7.98
373.826	8.2
374.193	8.2
374.56	8.19
374.927	7.98
375.294	8.25
375.661	8.11
376.028	8.51
376.395	8.45
376.762	8.26
377.129	8.33
377.496	8.43
377.863	8.64
378.229	8.18
378.596	8.17
378.963	8.04
379.329	8.37
379.696	8.09
380.062	8.39
380.429	8.06
380.795	8.33
381.161	8.25
381.528	8.26
381.894	8.35
382.26	8.19
382.626	8.3
382.993	8.26
383.359	8.2
383.725	8.33
384.091	8.39
384.457	8.58
384.823	8.16
385.188	8.44
385.554	8.4
385.92	8.43
386.286	8.47
386.651	8.29
387.017	8.58
387.383	8.34
387.748	8.2
388.114	8.27
388.479	8.48
388.845	8.57
389.21	8.05
389.575	8.04
389.94	8.44
390.306	8.25
390.671	8.38
391.036	8.42
391.401	8.52
391.766	8.68
392.131	8.39
392.496	8.49
392.861	8.45
393.226	8.56
393.591	8.36
393.956	8.44
394.32	8.56
394.685	8.54
395.05	8.96
395.414	8.43
395.779	8.45
396.143	8.32
396.508	8.49
396.872	8.62
397.236	8.44
397.601	8.4
397.965	8.19
398.329	8.42
398.694	8.63
399.058	8.48
399.422	8.54
399.786	8.49
400.15	8.29
400.514	8.37
400.878	8.76
401.242	8.7
401.605	8.61
401.969	8.48
402.333	8.46
402.697	8.78
403.06	8.54
403.424	8.7
403.787	8.69
404.151	8.42
404.514	8.55
404.878	8.77
405.241	8.78
405.604	8.61
405.968	8.57
406.331	8.51
406.694	8.77
407.057	8.65
407.42	8.76
407.783	8.54
408.146	8.61
408.509	8.73
408.872	8.77
409.235	8.76
409.598	8.9
409.961	8.6
410.323	8.71
410.686	8.41
411.049	8.69
411.411	8.57
411.774	8.77
412.136	8.63
412.499	8.85
412.861	8.76
413.223	8.94
413.586	8.68
413.948	8.79
414.31	9.04
414.672	8.6
415.035	8.66
415.397	9.02
415.759	8.79
416.121	8.71
416.483	8.71
416.845	8.9
417.206	8.91
417.568	8.95
417.93	8.98
418.292	8.64
418.653	9.01
419.015	8.76
419.377	8.71
419.738	8.78
420.1	8.49
420.461	8.68
420.822	8.75
421.184	8.73
421.545	8.84
421.906	8.75
422.267	8.66
422.629	8.77
422.99	8.55
423.351	8.72
423.712	8.66
424.073	8.78
424.434	8.72
424.795	8.74
425.155	8.74
425.516	8.75
425.877	8.76
426.238	8.7
426.598	8.75
426.959	8.75
427.32	8.81
427.68	8.85
428.041	8.85
428.401	8.9
428.761	9.04
429.122	9.02
429.482	8.8
429.842	9.07
430.202	9.16
430.563	9.06
430.923	9.25
431.283	9.26
431.643	9.21
432.003	9.3
432.363	9
432.722	9.23
433.082	9.08
433.442	9.01
433.802	9.3
434.161	8.96
434.521	9.11
434.881	9.12
435.24	9.17
435.6	9.09
435.959	9.16
436.319	9.25
436.678	9.27
437.037	9.33
437.396	9.13
437.756	9.38
438.115	9.23
438.474	9.39
438.833	9.3
439.192	9.03
439.551	9.28
439.91	9.31
440.269	9.27
440.628	9.28
440.987	9.33
441.345	9.2
441.704	9.2
442.063	9.27
442.421	9.22
442.78	9.21
443.138	9.33
443.497	9.35
443.855	9.27
444.214	9.35
444.572	9.2
444.93	9.4
445.288	9.45
445.647	9.46
446.005	9.19
446.363	9.54
446.721	9.38
447.079	9.48
447.437	9.4
447.795	9.24
448.153	9.18
448.51	9.33
448.868	9.19
449.226	9.27
449.584	9.3
449.941	9.23
450.299	9.39
450.656	9.3
451.014	9.32
451.371	9.36
451.729	9.34
452.086	9.43
452.443	9.62
452.801	9.46
453.158	9.75
453.515	9.56
453.872	9.77
454.229	9.77
454.586	9.67
454.943	9.59
455.3	9.43
455.657	9.56
456.014	9.6
456.371	9.57
456.727	9.7
457.084	9.74
457.441	9.65
457.797	9.82
458.154	9.64
458.51	9.6
458.867	9.57
459.223	9.76
459.58	9.7
459.936	9.82
460.292	9.61
460.648	9.58
461.005	9.64
461.361	9.69
461.717	9.53
462.073	9.55
462.429	9.63
462.785	9.64
463.141	9.76
463.496	9.7
463.852	9.83
464.208	9.97
464.564	9.85
464.919	9.89
465.275	10.02
465.631	10.03
465.986	9.89
466.342	10.05
466.697	10.06
467.052	10.02
467.408	10.06
467.763	10.1
468.118	10.33
468.473	10.16
468.829	10.02
469.184	9.84
469.539	9.89
469.894	10.16
470.249	10
470.603	9.98
470.958	10.1
471.313	10.02
471.668	10.02
472.023	10.09
472.377	10.15
472.732	9.97
473.086	10.25
473.441	10.25
473.795	10.36
474.15	10.35
474.504	10.14
474.859	10.04
475.213	10.42
475.567	10.06
475.921	10.21
476.275	10.29
476.63	10.29
476.984	10.44
477.338	10.34
477.692	10.25
478.045	10.3
478.399	10.08
478.753	10.37
479.107	10.3
479.461	10.32
479.814	10.38
480.168	10.39
480.521	10.33
480.875	10.23
481.228	10.21
481.582	10.45
481.935	10.37
482.289	10.44
482.642	10.28
482.995	10.09
483.348	10.26
483.701	10.33
484.055	10.29
484.408	10.13
484.761	10.13
485.114	10.15
485.466	9.96
485.819	9.9
486.172	9.79
486.525	9.81
486.878	9.85
487.23	9.99
487.583	10.08
487.936	10.13
488.288	10.21
488.641	10.29
488.993	10.05
489.345	10.11
489.698	10.04
490.05	10.15
490.402	10.09
490.754	10.12
491.107	10.19
491.459	10.25
491.811	10.3
492.163	10.49
492.515	10.48
492.866	10.48
493.218	10.35
493.57	10.22
493.922	10.29
494.274	10.35
494.625	10.37
494.977	10.34
495.328	10.56
495.68	10.7
496.031	10.68
496.383	10.86
496.734	10.87
497.086	10.76
497.437	10.95
497.788	10.76
498.139	10.92
498.49	10.88
498.842	10.74
499.193	10.81
499.544	10.73
499.894	10.86
500.245	10.75
500.596	10.88
500.947	10.87
501.298	10.89
501.648	10.87
501.999	10.93
502.35	10.98
502.7	11.12
503.051	11.11
503.401	11.09
503.752	11.12
504.102	11.1
504.452	11.07
504.803	11.19
505.153	11.23
505.503	11.26
505.853	11.33
506.203	11.15
506.553	11.01
506.903	11.29
507.253	11.17
507.603	11.17
507.953	11.35
508.303	11.29
508.652	11.36
509.002	11.4
509.352	11.37
509.701	11.4
510.051	11.22
510.4	11.36
510.75	11.48
511.099	11.21
511.449	11.38
511.798	11.41
512.147	11.33
512.496	11.4
512.846	11.39
513.195	11.49
513.544	11.49
513.893	11.41
514.242	11.33
514.591	11.48
514.939	11.49
515.288	11.46
515.637	11.59
515.986	11.49
516.334	11.6
516.683	11.68
517.032	11.6
517.38	11.61
517.729	11.71
518.077	11.69
518.426	11.66
518.774	11.66
519.122	11.69
519.47	11.74
519.819	11.54
520.167	11.6
520.515	11.57
520.863	11.69
521.211	11.54
521.559	11.68
521.907	11.69
522.255	11.66
522.602	11.95
522.95	11.82
523.298	11.92
523.645	11.88
523.993	11.98
524.341	12.05
524.688	12
525.036	12.04
525.383	11.96
525.73	12.21
526.078	12.12
526.425	12.09
526.772	12.02
527.119	11.94
527.466	11.97
527.814	12.04
528.161	12.02
528.508	11.93
528.854	12
529.201	11.97
529.548	12
529.895	11.9
530.242	11.8
530.588	11.69
530.935	11.7
531.282	11.77
531.628	11.78
531.975	11.72
532.321	11.88
532.667	11.93
533.014	12.12
533.36	12.2
533.706	12.29
534.052	12.41
534.399	12.29
534.745	12.13
535.091	12.19
535.437	12.22
535.783	12.17
536.129	12.22
536.474	12.33
536.82	12.42
537.166	12.36
537.512	12.58
537.857	12.66
538.203	12.65
538.549	12.69
538.894	12.52
539.239	12.65
539.585	12.6
539.93	12.55
540.276	12.83
540.621	12.88
540.966	12.93
541.311	12.99
541.656	13.01
542.001	13
542.346	12.96
542.691	12.83
543.036	12.74
543.381	12.66
543.726	12.59
544.071	12.67
544.415	12.62
544.76	12.74
545.105	12.82
545.449	12.84
545.794	13.03
546.138	12.92
546.483	13.01
546.827	13.15
547.171	13.32
547.516	13.13
547.86	13.36
548.204	13.26
548.548	13.25
548.892	13.25
549.236	13.36
549.58	13.28
549.924	13.46
550.268	13.38
550.612	13.49
550.956	13.62
551.3	13.69
551.643	13.75
551.987	13.89
552.33	13.77
552.674	13.8
553.017	13.74
553.361	13.95
553.704	13.98
554.048	13.96
554.391	14.06
554.734	14.01
555.077	13.83
555.42	13.81
555.764	13.97
556.107	14.28
556.45	14.02
556.793	14.12
557.135	14.01
557.478	14.26
557.821	14.39
558.164	14.29
558.507	14.36
558.849	14.24
559.192	14.46
559.534	14.6
559.877	14.28
560.219	14.61
560.562	14.49
560.904	14.26
561.246	14.67
561.589	14.37
561.931	14.67
562.273	14.71
562.615	14.75
562.957	14.55
563.299	14.57
563.641	14.97
563.983	14.6
564.325	14.51
564.667	14.91
565.008	14.78
565.35	14.9
565.692	14.98
566.033	15.03
566.375	15.04
566.716	14.99
567.058	15
567.399	14.99
567.741	14.96
568.082	14.99
568.423	15.15
568.764	15.06
569.105	15.1
569.447	14.95
569.788	15.21
570.129	15.12
570.47	15.33
570.811	15.28
571.151	15.38
571.492	15.39
571.833	15.47
572.174	15.41
572.514	15.41
572.855	15.46
573.195	15.6
573.536	15.39
573.876	15.6
574.217	15.59
574.557	15.59
574.898	15.65
575.238	15.62
575.578	15.74
575.918	15.45
576.258	15.78
576.598	15.88
576.938	15.86
577.278	15.86
577.618	15.85
577.958	15.89
578.298	15.85
578.638	15.94
578.977	16.07
579.317	16.02
579.657	16.02
579.996	16.37
580.336	16.11
580.675	16.33
581.014	16.04
581.354	16.2
581.693	16.31
582.032	16.5
582.372	16.58
582.711	16.78
583.05	16.76
583.389	16.3
583.728	16.48
584.067	16.6
584.406	16.88
584.745	16.89
585.083	16.67
585.422	16.69
585.761	16.77
586.1	16.63
586.438	16.57
586.777	16.88
587.115	17.07
587.454	16.96
587.792	16.92
588.13	17.13
588.469	17.13
588.807	16.7
589.145	17.04
589.483	16.93
589.821	17.17
590.159	17.36
590.497	17.15
590.835	17.36
591.173	17.26
591.511	17.07
591.849	17.11
592.187	17.05
592.524	17.16
592.862	17.44
593.2	17.39
593.537	17.25
593.875	17.48
594.212	17.68
594.55	17.61
594.887	17.67
595.224	17.76
595.561	17.59
595.899	17.68
596.236	17.83
596.573	17.79
596.91	17.77
597.247	17.7
597.584	17.84
597.921	17.84
598.258	17.97
598.594	18.03
598.931	17.73
599.268	17.82
599.604	18.02
599.941	17.93
600.277	17.83
600.614	18.05
600.95	17.86
601.287	17.84
601.623	18.1
601.959	18.34
602.296	18.41
602.632	18.14
602.968	18.12
603.304	18.7
603.64	18.1
603.976	18.5
604.312	18.78
604.648	18.47
604.984	18.65
605.319	18.45
605.655	18.48
605.991	18.49
606.326	18.45
606.662	18.49
606.998	18.53
607.333	18.57
607.668	18.56
608.004	18.54
608.339	18.94
608.674	18.7
609.01	18.88
609.345	18.91
609.68	19.04
610.015	18.94
610.35	19.07
610.685	19.18
611.02	18.94
611.355	18.89
611.689	19.14
612.024	19.07
612.359	19.38
612.694	19.05
613.028	19.43
613.363	19.12
613.697	19.44
614.032	19.52
614.366	19.45
614.7	19.5
615.035	19.64
615.369	19.82
615.703	19.61
616.037	19.93
616.371	19.75
616.705	20
617.039	19.69
617.373	20.08
617.707	20.14
618.041	19.85
618.375	19.8
618.709	20.06
619.042	20.33
619.376	20.31
619.71	20.16
620.043	20.35
620.377	19.87
620.71	20.21
621.043	20.01
621.377	19.89
621.71	20.07
622.043	20.16
622.376	20.57
622.709	20.58
623.043	20.19
623.376	20.66
623.709	20.04
624.041	20.6
624.374	20.57
624.707	20.65
625.04	21.02
625.373	20.69
625.705	20.47
626.038	20.88
626.37	20.53
626.703	20.52
627.035	20.6
627.368	20.7
627.7	21.05
628.032	20.45
628.365	21.05
628.697	21.28
629.029	20.95
629.361	21.01
629.693	21
630.025	21.18
630.357	21.13
630.689	21.21
631.021	21.45
631.353	21.15
631.684	21.28
632.016	21.64
632.348	21.14
632.679	21.42
633.011	21.43
633.342	21.25
633.674	21.63
634.005	21.52
634.336	21.57
634.668	21.41
634.999	21.47
635.33	21.48
635.661	21.81
635.992	21.7
636.323	21.78
636.654	21.7
636.985	21.54
637.316	21.49
637.647	21.94
637.977	21.45
638.308	21.84
638.639	21.8
638.969	21.85
639.3	21.78
639.63	22.25
639.961	22.2
640.291	21.57
640.622	22.28
640.952	22.85
641.282	22.14
641.612	22.38
641.943	22.12
642.273	22.12
642.603	22.56
642.933	22.44
643.263	22.53
643.592	22.11
643.922	22.64
644.252	22.4
644.582	22.45
644.911	22.48
645.241	22.6
645.571	22.91
645.9	22.33
646.23	22.58
646.559	22.53
646.888	22.77
647.218	22.28
647.547	22.64
647.876	22.6
648.205	23.47
648.534	23.14
648.863	23.19
649.192	23.19
649.521	22.92
649.85	23.27
650.179	22.79
650.508	23.36
650.837	23.04
651.165	23.16
651.494	22.2
651.822	23.33
652.151	23.41
652.479	23.07
652.808	23.5
653.136	23.02
653.465	23.72
653.793	23.62
654.121	23.42
654.449	23.41
654.777	23.33
655.105	23.53
655.433	23.47
655.761	23.8
656.089	23.3
656.417	23.61
656.745	24.18
657.073	23.53
657.4	24.45
657.728	23.77
658.056	23.52
658.383	23.89
658.711	23.73
659.038	24.52
659.365	24.36
659.693	24.01
660.02	23.81
660.347	24.26
660.674	23.89
661.001	23.49
661.329	24.04
661.656	24.22
661.982	23.72
662.309	24.29
662.636	24.18
662.963	24.25
663.29	24.37
663.616	24.66
663.943	24.13
664.27	24.68
664.596	24.42
664.923	24.14
665.249	24.7
665.576	24.22
665.902	24.68
666.228	25.04
666.554	25.15
666.881	24.54
667.207	24.93
667.533	24.84
667.859	24.6
668.185	24.66
668.511	24.99
668.837	25.51
669.162	25.16
669.488	25.01
669.814	24.35
670.139	24.98
670.465	24.96
670.791	25.15
671.116	24.76
671.442	24.56
671.767	24.88
672.092	25.26
672.418	25.36
672.743	25.21
673.068	25.8
673.393	25.58
673.718	24.87
674.043	24.76
674.368	25.64
674.693	25.69
675.018	25.57
675.343	25.85
675.667	25.16
675.992	26.04
676.317	25.75
676.641	26.56
676.966	26.36
677.29	25.19
677.615	25.67
677.939	25.29
678.264	25.83
678.588	25.99
678.912	25.9
