Data from 0223_forehead_Reflection__2__59.txt Node

Date: Fri Oct 20 21:08:05 CDT 2023
User: ToomeyLab
Spectrometer: FLMS14357
Trigger mode: 0
Integration Time (sec): 1.000000E-2
Scans to average: 100
Electric dark correction enabled: true
Nonlinearity correction enabled: false
Boxcar width: 0
XAxis mode: Wavelengths
Number of Pixels in Spectrum: 2048
>>>>>Begin Spectral Data<<<<<
189.047	-389.78
189.435	-389.78
189.823	-389.78
190.211	-11.29
190.599	-726.1
190.987	-23.27
191.375	-308.18
191.763	-920.99
192.151	3069.01
192.538	-284.01
192.926	110.87
193.314	68.52
193.702	63.44
194.089	57.95
194.477	-224.09
194.864	95.08
195.252	175.86
195.639	138.15
196.027	856.45
196.414	4.41
196.801	-372.01
197.189	65.19
197.576	-954.62
197.963	-493.37
198.351	27.44
198.738	60.71
199.125	49.19
199.512	41.21
199.899	61.95
200.286	26.17
200.673	56.09
201.06	55.27
201.447	94.23
201.833	36.97
202.22	51.88
202.607	32.95
202.994	54.27
203.38	-18.21
203.767	16.01
204.154	39.47
204.54	70.29
204.927	30.2
205.313	24.4
205.699	61.89
206.086	78.42
206.472	57.58
206.858	48.08
207.245	22.18
207.631	51.53
208.017	41.53
208.403	32.61
208.789	36.95
209.175	45.08
209.561	57.72
209.947	44.59
210.333	29
210.719	19.73
211.105	51.38
211.491	43.11
211.876	33.29
212.262	20.62
212.648	40.92
213.034	2.52
213.419	22.99
213.805	35.76
214.19	15.45
214.576	23.32
214.961	31.3
215.346	41.71
215.732	31.7
216.117	-6.45
216.502	55.07
216.888	37.13
217.273	17.37
217.658	15.03
218.043	29.44
218.428	-5.02
218.813	10.35
219.198	22.84
219.583	-14.93
219.968	12.84
220.353	24.59
220.738	26.06
221.122	18.33
221.507	19.11
221.892	32.46
222.276	38.82
222.661	18.17
223.046	6.5
223.43	21.95
223.815	29.22
224.199	24.18
224.583	20.12
224.968	16.6
225.352	13.24
225.736	9.26
226.121	15.06
226.505	5.81
226.889	14.98
227.273	8.28
227.657	12.36
228.041	13.34
228.425	7.63
228.809	9.28
229.193	6.76
229.577	10.14
229.961	5.53
230.344	5.25
230.728	4.49
231.112	4.76
231.495	4.58
231.879	4.95
232.263	5.11
232.646	3.71
233.03	4.15
233.413	5.02
233.797	4.4
234.18	4.9
234.563	7.79
234.946	7.09
235.33	5.32
235.713	6.22
236.096	6.86
236.479	5.96
236.862	5.2
237.245	4.11
237.628	4.98
238.011	5.52
238.394	4.9
238.777	5.23
239.16	4.55
239.543	7.99
239.925	8.83
240.308	6.94
240.691	5.96
241.073	7.43
241.456	5.39
241.838	6.34
242.221	6.14
242.603	5.19
242.986	5.24
243.368	5
243.75	4.25
244.133	4.2
244.515	4.15
244.897	3.74
245.279	4.95
245.661	4.33
246.043	4.26
246.425	4.82
246.807	6.24
247.189	4.86
247.571	3.85
247.953	4.43
248.335	4.36
248.717	4.19
249.098	3.84
249.48	4.03
249.862	4.29
250.243	4.61
250.625	4.28
251.006	4.9
251.388	4.51
251.769	4.41
252.151	5.29
252.532	4.35
252.913	4.34
253.295	3.19
253.676	4.89
254.057	4.05
254.438	4.29
254.819	5.05
255.2	4.55
255.581	4.59
255.962	4.4
256.343	5.23
256.724	4.04
257.105	5.79
257.486	5.11
257.867	4.37
258.247	4.43
258.628	4.33
259.009	4.88
259.389	4.5
259.77	3.92
260.15	5.05
260.531	4.4
260.911	4.57
261.292	4.08
261.672	4.16
262.052	4.13
262.432	4.11
262.813	3.96
263.193	3.87
263.573	4.42
263.953	4.63
264.333	4.43
264.713	4.38
265.093	5.08
265.473	4.91
265.853	4.18
266.233	5.02
266.612	4.78
266.992	4.38
267.372	4.49
267.752	4.35
268.131	4.47
268.511	4.62
268.89	4.04
269.27	3.79
269.649	3.67
270.029	4.29
270.408	4.12
270.787	4.27
271.167	3.96
271.546	4.23
271.925	4.82
272.304	4.77
272.683	4.1
273.062	4.5
273.441	4.37
273.82	3.67
274.199	4.32
274.578	4.43
274.957	4.32
275.336	4.13
275.715	4.08
276.093	3.77
276.472	4.65
276.851	4.48
277.229	4.33
277.608	3.88
277.986	3.44
278.365	4.44
278.743	4.35
279.122	3.77
279.5	3.87
279.878	3.85
280.257	4.31
280.635	4.68
281.013	4.42
281.391	4.66
281.769	4.61
282.147	3.93
282.525	3.71
282.903	4.55
283.281	4.33
283.659	4.34
284.037	3.86
284.415	3.46
284.792	3.82
285.17	3.68
285.548	4.05
285.925	3.62
286.303	3.85
286.68	3.77
287.058	4.23
287.435	4.32
287.813	3.58
288.19	3.79
288.567	3.92
288.945	3.9
289.322	4.23
289.699	3.48
290.076	4.54
290.453	4.42
290.83	4.25
291.207	4.31
291.584	4.09
291.961	4.11
292.338	4.18
292.715	3.99
293.092	4.14
293.469	4.58
293.845	3.77
294.222	4.72
294.599	4.11
294.975	4.86
295.352	4.51
295.728	4.08
296.105	4.2
296.481	4.56
296.858	3.96
297.234	4.87
297.61	3.97
297.986	4.37
298.363	4.54
298.739	4.14
299.115	4.15
299.491	4.29
299.867	4.34
300.243	4.43
300.619	4.45
300.995	4.59
301.371	4.46
301.746	4.58
302.122	5.02
302.498	4.25
302.874	4.44
303.249	4.46
303.625	4.61
304	4.9
304.376	4.28
304.751	4.1
305.127	4.42
305.502	4.89
305.878	4.93
306.253	4.42
306.628	4.87
307.003	5.36
307.378	4.97
307.754	4.81
308.129	5.33
308.504	5.61
308.879	5.28
309.254	5.62
309.629	4.94
310.003	4.39
310.378	5.25
310.753	5.32
311.128	5.3
311.502	5.22
311.877	5.14
312.252	4.94
312.626	5.19
313.001	5.23
313.375	4.82
313.75	5.43
314.124	5.13
314.498	5.15
314.873	4.98
315.247	5.34
315.621	5.36
315.995	5.51
316.369	5.15
316.743	5.55
317.117	5.42
317.491	4.84
317.865	5.86
318.239	6.32
318.613	5.96
318.987	5.65
319.361	4.88
319.734	5.13
320.108	5.34
320.482	5.73
320.855	5.7
321.229	5.97
321.602	5.6
321.976	5.71
322.349	6.03
322.723	5.45
323.096	5.85
323.469	5.82
323.843	5.77
324.216	6.14
324.589	5.99
324.962	5.9
325.335	6.22
325.708	6.24
326.081	6.17
326.454	6.07
326.827	6.33
327.2	6.47
327.573	6.52
327.945	6.31
328.318	5.5
328.691	5.86
329.063	6.71
329.436	5.9
329.809	6.51
330.181	6.46
330.553	6.36
330.926	6.53
331.298	6.06
331.671	6.45
332.043	6
332.415	6.72
332.787	6.83
333.159	6.2
333.532	6.71
333.904	6.64
334.276	6.13
334.648	6.91
335.02	6.77
335.391	6.11
335.763	7.08
336.135	6.76
336.507	6.72
336.879	6.54
337.25	6.66
337.622	7.04
337.993	6.94
338.365	6.7
338.736	7.01
339.108	6.9
339.479	6.54
339.851	7.05
340.222	6.36
340.593	6.17
340.964	6.56
341.336	7.06
341.707	6.74
342.078	7.13
342.449	6.64
342.82	6.96
343.191	6.83
343.562	6.98
343.933	6.88
344.303	6.51
344.674	7.07
345.045	7.27
345.416	7.32
345.786	7.27
346.157	7.77
346.527	7.01
346.898	6.97
347.268	7.13
347.639	7.51
348.009	6.93
348.38	7.52
348.75	7.49
349.12	7.7
349.49	7.41
349.861	7.61
350.231	6.58
350.601	7.46
350.971	8
351.341	7.82
351.711	7.92
352.081	7.39
352.45	7.53
352.82	7.93
353.19	7.79
353.56	7.75
353.929	7.7
354.299	7.32
354.669	7.49
355.038	8.14
355.408	7.47
355.777	7.78
356.147	7.42
356.516	7.59
356.885	7.61
357.254	7.59
357.624	7.87
357.993	7.6
358.362	7.72
358.731	7.4
359.1	7.22
359.469	7.49
359.838	7.92
360.207	7.9
360.576	8.28
360.945	7.56
361.314	7.93
361.682	7.76
362.051	7.5
362.42	7.73
362.788	8.07
363.157	8.17
363.525	7.81
363.894	7.91
364.262	8.02
364.631	7.79
364.999	7.98
365.367	8.26
365.735	8.15
366.104	8.22
366.472	8.03
366.84	8.29
367.208	8.2
367.576	7.98
367.944	8.4
368.312	8.14
368.68	8.3
369.048	8.25
369.416	8.47
369.783	8.36
370.151	8.84
370.519	8.55
370.886	8.48
371.254	8.58
371.621	8.75
371.989	8.4
372.356	8.83
372.724	8.77
373.091	8.61
373.458	8.42
373.826	8.59
374.193	8.54
374.56	8.35
374.927	8.81
375.294	8.84
375.661	8.52
376.028	8.98
376.395	9.03
376.762	9.06
377.129	8.87
377.496	8.98
377.863	9.09
378.229	9.27
378.596	8.98
378.963	8.94
379.329	9.38
379.696	8.98
380.062	9.29
380.429	8.8
380.795	9.06
381.161	9.15
381.528	9.31
381.894	9.26
382.26	9.17
382.626	9.6
382.993	9.4
383.359	9.21
383.725	9.54
384.091	9.44
384.457	9.65
384.823	9.28
385.188	9.51
385.554	9.31
385.92	9.5
386.286	9.79
386.651	9.27
387.017	9.74
387.383	9.53
387.748	9.34
388.114	9.22
388.479	9.61
388.845	9.94
389.21	9.64
389.575	9.6
389.94	9.45
390.306	9.62
390.671	9.64
391.036	9.69
391.401	10.01
391.766	10.14
392.131	9.92
392.496	10.01
392.861	9.84
393.226	10.07
393.591	9.89
393.956	10.01
394.32	10.19
394.685	9.85
395.05	10.19
395.414	9.96
395.779	10.03
396.143	10.3
396.508	10.1
396.872	10.05
397.236	10.28
397.601	10.22
397.965	10.04
398.329	10.08
398.694	10.24
399.058	10.23
399.422	10.25
399.786	10.44
400.15	10.26
400.514	10.5
400.878	10.26
401.242	10.49
401.605	10.8
401.969	10.58
402.333	10.57
402.697	10.47
403.06	10.55
403.424	10.71
403.787	10.77
404.151	10.69
404.514	10.72
404.878	10.95
405.241	10.63
405.604	10.62
405.968	11.05
406.331	10.82
406.694	10.67
407.057	10.92
407.42	11.02
407.783	10.92
408.146	10.78
408.509	10.99
408.872	11.16
409.235	10.98
409.598	11.19
409.961	11.26
410.323	11.08
410.686	11
411.049	11.29
411.411	11.32
411.774	11.36
412.136	11.33
412.499	11.16
412.861	11.13
413.223	11.55
413.586	11.19
413.948	11.45
414.31	11.59
414.672	11.46
415.035	11.41
415.397	11.66
415.759	11.68
416.121	11.46
416.483	11.78
416.845	11.53
417.206	11.62
417.568	11.62
417.93	11.75
418.292	11.4
418.653	11.73
419.015	11.56
419.377	11.6
419.738	11.63
420.1	11.56
420.461	11.54
420.822	11.52
421.184	11.53
421.545	11.74
421.906	11.63
422.267	11.54
422.629	11.76
422.99	11.57
423.351	11.75
423.712	11.66
424.073	11.88
424.434	11.76
424.795	11.94
425.155	11.93
425.516	11.88
425.877	11.96
426.238	11.87
426.598	11.99
426.959	11.99
427.32	12.07
427.68	12.13
428.041	12.27
428.401	12.22
428.761	12.38
429.122	12.27
429.482	12.45
429.842	12.45
430.202	12.6
430.563	12.67
430.923	12.67
431.283	12.85
431.643	12.89
432.003	13.01
432.363	12.76
432.722	13.08
433.082	12.9
433.442	12.89
433.802	13.11
434.161	12.92
434.521	12.92
434.881	13.04
435.24	12.94
435.6	12.88
435.959	13.07
436.319	13.03
436.678	13.25
437.037	13.12
437.396	13.28
437.756	13.38
438.115	13.11
438.474	13.38
438.833	13.35
439.192	13.33
439.551	13.42
439.91	13.49
440.269	13.54
440.628	13.43
440.987	13.48
441.345	13.49
441.704	13.54
442.063	13.58
442.421	13.6
442.78	13.53
443.138	13.74
443.497	13.77
443.855	13.68
444.214	13.66
444.572	13.99
444.93	14.08
445.288	13.95
445.647	14.18
446.005	13.93
446.363	14.12
446.721	14.04
447.079	14.1
447.437	14.01
447.795	13.99
448.153	13.82
448.51	13.99
448.868	13.88
449.226	14.09
449.584	14.04
449.941	14.23
450.299	14.26
450.656	14.31
451.014	14.52
451.371	14.54
451.729	14.47
452.086	14.56
452.443	14.66
452.801	14.62
453.158	14.72
453.515	14.85
453.872	14.84
454.229	15.08
454.586	14.87
454.943	14.94
455.3	14.75
455.657	15.06
456.014	15
456.371	14.96
456.727	15.2
457.084	15.31
457.441	15.22
457.797	15.35
458.154	15.24
458.51	15.23
458.867	15.45
459.223	15.33
459.58	15.33
459.936	15.38
460.292	15.6
460.648	15.37
461.005	15.31
461.361	15.35
461.717	15.15
462.073	15.19
462.429	15.36
462.785	15.45
463.141	15.63
463.496	15.58
463.852	15.81
464.208	15.96
464.564	16.02
464.919	15.77
465.275	15.99
465.631	16.17
465.986	16.07
466.342	16.22
466.697	16.06
467.052	16.1
467.408	16.13
467.763	16.43
468.118	16.37
468.473	16.49
468.829	16.34
469.184	16.38
469.539	16.3
469.894	16.45
470.249	16.31
470.603	16.58
470.958	16.66
471.313	16.63
471.668	16.73
472.023	16.92
472.377	16.85
472.732	16.75
473.086	16.96
473.441	17.03
473.795	16.95
474.15	16.76
474.504	16.86
474.859	17
475.213	17.05
475.567	16.99
475.921	17.3
476.275	17.1
476.63	17.41
476.984	17.55
477.338	17.35
477.692	17.35
478.045	17.33
478.399	17.33
478.753	17.46
479.107	17.36
479.461	17.46
479.814	17.41
480.168	17.61
480.521	17.45
480.875	17.58
481.228	17.58
481.582	17.66
481.935	17.54
482.289	17.75
482.642	17.69
482.995	17.62
483.348	17.57
483.701	17.56
484.055	17.59
484.408	17.5
484.761	17.4
485.114	17.23
485.466	17.13
485.819	16.91
486.172	16.9
486.525	17.08
486.878	17.14
487.23	17.31
487.583	17.34
487.936	17.52
488.288	17.69
488.641	17.72
488.993	17.51
489.345	17.5
489.698	17.44
490.05	17.48
490.402	17.52
490.754	17.56
491.107	17.81
491.459	18.04
491.811	18.15
492.163	18.42
492.515	18.38
492.866	18.28
493.218	18.15
493.57	17.97
493.922	17.88
494.274	18.07
494.625	18.24
494.977	18.36
495.328	18.66
495.68	18.79
496.031	18.89
496.383	19.15
496.734	19.11
497.086	19.26
497.437	19.36
497.788	19.4
498.139	19.26
498.49	19.13
498.842	19.12
499.193	19.15
499.544	19.22
499.894	19.35
500.245	19.48
500.596	19.57
500.947	19.39
501.298	19.59
501.648	19.56
501.999	19.63
502.35	19.66
502.7	20.03
503.051	19.78
503.401	19.91
503.752	20.07
504.102	20.11
504.452	20.01
504.803	20.07
505.153	20.36
505.503	20.19
505.853	20.19
506.203	20.26
506.553	20.06
506.903	20.31
507.253	20.28
507.603	20.37
507.953	20.41
508.303	20.4
508.652	20.53
509.002	20.5
509.352	20.66
509.701	20.65
510.051	20.65
510.4	20.66
510.75	20.5
511.099	20.68
511.449	20.6
511.798	20.65
512.147	20.64
512.496	20.75
512.846	20.78
513.195	21.02
513.544	21.01
513.893	20.87
514.242	20.82
514.591	21.03
514.939	20.92
515.288	20.94
515.637	21.11
515.986	21.08
516.334	21.18
516.683	21.34
517.032	21.38
517.38	21.41
517.729	21.68
518.077	21.4
518.426	21.4
518.774	21.58
519.122	21.51
519.47	21.36
519.819	21.34
520.167	21.4
520.515	21.3
520.863	21.29
521.211	21.34
521.559	21.38
521.907	21.64
522.255	21.64
522.602	21.79
522.95	21.84
523.298	22.01
523.645	22.18
523.993	22.22
524.341	22.27
524.688	22.27
525.036	22.44
525.383	22.18
525.73	22.44
526.078	22.37
526.425	22.42
526.772	22.27
527.119	22.22
527.466	22.1
527.814	22.08
528.161	21.98
528.508	22.06
528.854	22.19
529.201	22.2
529.548	22.14
529.895	22.14
530.242	21.87
530.588	21.6
530.935	21.79
531.282	21.92
531.628	22.07
531.975	22.11
532.321	22.3
532.667	22.43
533.014	22.55
533.36	22.8
533.706	22.81
534.052	22.91
534.399	22.95
534.745	22.61
535.091	22.63
535.437	22.56
535.783	22.66
536.129	22.8
536.474	22.89
536.82	23.11
537.166	23.16
537.512	23.33
537.857	23.44
538.203	23.48
538.549	23.38
538.894	23.28
539.239	23.45
539.585	23.45
539.93	23.64
540.276	23.77
540.621	23.95
540.966	23.99
541.311	24.17
541.656	24.06
542.001	24.22
542.346	24.02
542.691	23.71
543.036	23.56
543.381	23.35
543.726	23.44
544.071	23.47
544.415	23.67
544.76	23.77
545.105	23.95
545.449	24.07
545.794	24.16
546.138	24.31
546.483	24.32
546.827	24.67
547.171	24.68
547.516	24.61
547.86	24.68
548.204	24.67
548.548	24.64
548.892	24.66
549.236	24.71
549.58	24.82
549.924	24.95
550.268	24.93
550.612	25.34
550.956	25.55
551.3	25.44
551.643	25.37
551.987	25.62
552.33	25.68
552.674	25.61
553.017	25.58
553.361	25.71
553.704	25.82
554.048	25.78
554.391	25.87
554.734	25.71
555.077	25.76
555.42	25.66
555.764	25.93
556.107	26.1
556.45	25.98
556.793	26.18
557.135	26.24
557.478	26.25
557.821	26.47
558.164	26.42
558.507	26.26
558.849	26.61
559.192	26.39
559.534	26.75
559.877	26.65
560.219	26.78
560.562	26.76
560.904	26.58
561.246	26.9
561.589	26.88
561.931	27.26
562.273	27
562.615	26.9
562.957	26.9
563.299	27.09
563.641	26.94
563.983	26.91
564.325	27.02
564.667	27.16
565.008	27.32
565.35	27.21
565.692	27.31
566.033	27.31
566.375	27.39
566.716	27.47
567.058	27.53
567.399	27.53
567.741	27.24
568.082	27.42
568.423	27.19
568.764	27.48
569.105	27.58
569.447	27.4
569.788	27.73
570.129	27.47
570.47	27.86
570.811	28.15
571.151	27.7
571.492	28.03
571.833	28.01
572.174	28.25
572.514	27.95
572.855	28.12
573.195	28.08
573.536	28.02
573.876	28.08
574.217	27.94
574.557	28.06
574.898	28.18
575.238	28.05
575.578	28.39
575.918	28.16
576.258	28.58
576.598	28.29
576.938	28.54
577.278	28.48
577.618	28.39
577.958	28.36
578.298	28.72
578.638	28.84
578.977	28.86
579.317	29.01
579.657	28.87
579.996	28.85
580.336	28.9
580.675	29.23
581.014	29.27
581.354	29.39
581.693	29.43
582.032	29.69
582.372	29.31
582.711	29.43
583.05	29.57
583.389	29.56
583.728	29.79
584.067	29.74
584.406	29.94
584.745	29.94
585.083	29.94
585.422	29.85
585.761	30.1
586.1	30.06
586.438	29.87
586.777	30.22
587.115	30.23
587.454	30.27
587.792	30.24
588.13	30.08
588.469	30.23
588.807	30.14
589.145	30.25
589.483	30.22
589.821	30.61
590.159	30.78
590.497	30.5
590.835	30.56
591.173	30.74
591.511	30.65
591.849	30.38
592.187	30.74
592.524	30.33
592.862	30.8
593.2	30.75
593.537	30.75
593.875	30.72
594.212	31.23
594.55	31.07
594.887	31.01
595.224	31.06
595.561	30.98
595.899	31.18
596.236	31.17
596.573	31.26
596.91	31.37
597.247	31.09
597.584	31.04
597.921	31.17
598.258	31.1
598.594	31.28
598.931	31.02
599.268	30.93
599.604	31.24
599.941	31.13
600.277	31.53
600.614	31.46
600.95	31.49
601.287	31.65
601.623	32.15
601.959	31.68
602.296	31.86
602.632	31.92
602.968	31.58
603.304	32.04
603.64	32.08
603.976	32.1
604.312	32.23
604.648	32.11
604.984	32
605.319	31.84
605.655	32.03
605.991	31.87
606.326	31.79
606.662	31.95
606.998	31.9
607.333	32.23
607.668	32.19
608.004	32.46
608.339	32.31
608.674	32.69
609.01	32.59
609.345	32.83
609.68	32.79
610.015	32.62
610.35	32.86
610.685	33
611.02	32.9
611.355	32.68
611.689	32.61
612.024	32.86
612.359	32.72
612.694	32.82
613.028	33.08
613.363	33.08
613.697	33.29
614.032	33.43
614.366	33.56
614.7	33.28
615.035	33.48
615.369	33.79
615.703	33.28
616.037	33.72
616.371	33.76
616.705	33.74
617.039	33.61
617.373	33.75
617.707	34.01
618.041	34.3
618.375	34.07
618.709	33.85
619.042	33.95
619.376	34.23
619.71	34.15
620.043	34.1
620.377	34.07
620.71	34.41
621.043	34.41
621.377	34.21
621.71	34.24
622.043	34.52
622.376	35
622.709	34.75
623.043	34.48
623.376	34.04
623.709	34.08
624.041	34.58
624.374	34.96
624.707	34.58
625.04	34.77
625.373	34.95
625.705	34.68
626.038	35.02
626.37	34.85
626.703	34.66
627.035	34.65
627.368	34.55
627.7	34.75
628.032	35.08
628.365	35.21
628.697	35.09
629.029	34.66
629.361	35.21
629.693	35.14
630.025	35.18
630.357	35.33
630.689	35.3
631.021	35.39
631.353	35.54
631.684	35.17
632.016	35.51
632.348	35.6
632.679	35.23
633.011	35.6
633.342	35.44
633.674	35.39
634.005	35.66
634.336	35.67
634.668	35.66
634.999	35.39
635.33	35.89
635.661	35.77
635.992	36.08
636.323	36.25
636.654	35.76
636.985	35.72
637.316	35.97
637.647	36.25
637.977	35.83
638.308	36.14
638.639	35.92
638.969	36.11
639.3	36.08
639.63	37.09
639.961	36.24
640.291	35.99
640.622	36.5
640.952	36.78
641.282	36.79
641.612	36.39
641.943	36.41
642.273	36.25
642.603	36.54
642.933	37
643.263	36.65
643.592	36.64
643.922	37.44
644.252	36.4
644.582	36.53
644.911	37.02
645.241	37.05
645.571	37.33
645.9	36.48
646.23	37.62
646.559	37.07
646.888	37.25
647.218	37.04
647.547	36.9
647.876	37.26
648.205	37.52
648.534	37.48
648.863	37.59
649.192	37.49
649.521	37.3
649.85	37.58
650.179	38.03
650.508	38.27
650.837	37.94
651.165	37.88
651.494	37.66
651.822	37.93
652.151	37.65
652.479	37.65
652.808	37.79
653.136	37.72
653.465	37.88
653.793	38.29
654.121	38.31
654.449	38.27
654.777	38.2
655.105	38.22
655.433	38.47
655.761	38.2
656.089	38.57
656.417	38.58
656.745	37.82
657.073	38.55
657.4	38.65
657.728	38.96
658.056	38.29
658.383	38.8
658.711	38.62
659.038	38.66
659.365	39.13
659.693	38.75
660.02	38.7
660.347	38.82
660.674	38.46
661.001	38.66
661.329	38.57
661.656	38.76
661.982	38.5
662.309	39.1
662.636	38.96
662.963	39.41
663.29	38.87
663.616	39.6
663.943	38.8
664.27	39.14
664.596	39.19
664.923	39.02
665.249	39.33
665.576	39.15
665.902	39.68
666.228	39.98
666.554	39.64
666.881	39.45
667.207	39.93
667.533	39.61
667.859	40.06
668.185	40.38
668.511	39.97
668.837	39.98
669.162	40.46
669.488	40.38
669.814	39.93
670.139	39.32
670.465	39.91
670.791	40.61
671.116	40.45
671.442	39.97
671.767	40.07
672.092	40.1
672.418	40.42
672.743	40.56
673.068	41.1
