Data from 0223_crown_Reflection__3__55.txt Node

Date: Fri Oct 20 21:06:54 CDT 2023
User: ToomeyLab
Spectrometer: FLMS14357
Trigger mode: 0
Integration Time (sec): 1.000000E-2
Scans to average: 100
Electric dark correction enabled: true
Nonlinearity correction enabled: false
Boxcar width: 0
XAxis mode: Wavelengths
Number of Pixels in Spectrum: 2048
>>>>>Begin Spectral Data<<<<<
189.047	-294.55
189.435	-294.55
189.823	-294.55
190.211	-131.86
190.599	-486.35
190.987	120.57
191.375	-397.1
191.763	-1574.94
192.151	-468.42
192.538	75.82
192.926	6.16
193.314	127.14
193.702	60.5
194.089	109.06
194.477	-757.14
194.864	-47.33
195.252	99.38
195.639	133.36
196.027	77.62
196.414	98.27
196.801	704.06
197.189	58.53
197.576	-1510.08
197.963	608.36
198.351	62.6
198.738	40.76
199.125	32.62
199.512	24.57
199.899	9.19
200.286	-29.6
200.673	9.87
201.06	19.31
201.447	51.2
201.833	50.89
202.22	2.76
202.607	30.98
202.994	39.79
203.38	0.95
203.767	24.27
204.154	47.04
204.54	27.75
204.927	23.83
205.313	27.46
205.699	37.45
206.086	-1.33
206.472	32.49
206.858	34.04
207.245	-18.16
207.631	31.09
208.017	41.18
208.403	5.48
208.789	29.55
209.175	-5.66
209.561	29.15
209.947	3.95
210.333	7.76
210.719	-9.16
211.105	0.97
211.491	35.61
211.876	-6.93
212.262	17.83
212.648	24.9
213.034	18.04
213.419	27.66
213.805	1.71
214.19	8.77
214.576	27.83
214.961	20.67
215.346	15.42
215.732	10.48
216.117	-5.38
216.502	26.58
216.888	-0.42
217.273	-3.14
217.658	22.47
218.043	-7.42
218.428	4.96
218.813	22.62
219.198	5.48
219.583	-6.61
219.968	2.08
220.353	27.03
220.738	19.06
221.122	5.29
221.507	13.09
221.892	2.55
222.276	8.83
222.661	22.47
223.046	13.26
223.43	12.53
223.815	19.36
224.199	9.77
224.583	-1.78
224.968	7.8
225.352	2.98
225.736	3.99
226.121	23.88
226.505	4.36
226.889	12.76
227.273	9.69
227.657	14.24
228.041	13.76
228.425	5.55
228.809	8.71
229.193	7.59
229.577	9.31
229.961	8.71
230.344	7.05
230.728	7.23
231.112	7.65
231.495	7.69
231.879	7.42
232.263	7.62
232.646	6.98
233.03	5.52
233.413	7.54
233.797	7.63
234.18	6.87
234.563	8.45
234.946	8.12
235.33	6.29
235.713	5.81
236.096	7.83
236.479	7.52
236.862	7.58
237.245	5.94
237.628	8.82
238.011	8.17
238.394	6.55
238.777	8.51
239.16	5.49
239.543	7.03
239.925	8.65
240.308	7.36
240.691	6.22
241.073	8.28
241.456	8.08
241.838	6.12
242.221	7.3
242.603	6.16
242.986	8.32
243.368	7.07
243.75	6.98
244.133	6.68
244.515	6.25
244.897	6.51
245.279	6.79
245.661	6.47
246.043	5.71
246.425	6.39
246.807	6.21
247.189	6.15
247.571	6.45
247.953	6.58
248.335	7.14
248.717	6.13
249.098	6.2
249.48	6.25
249.862	6.56
250.243	6.54
250.625	6.32
251.006	6.68
251.388	7.09
251.769	6.06
252.151	5.54
252.532	6.29
252.913	7.63
253.295	5.75
253.676	6.08
254.057	6.03
254.438	6.58
254.819	6.15
255.2	6.1
255.581	5.95
255.962	5.03
256.343	6.18
256.724	5.12
257.105	6.52
257.486	5.43
257.867	6.2
258.247	7.19
258.628	6.84
259.009	6.06
259.389	5.96
259.77	5.91
260.15	6.23
260.531	6.02
260.911	5.95
261.292	5.85
261.672	6.15
262.052	6
262.432	5.74
262.813	6.03
263.193	6.01
263.573	5.74
263.953	6.09
264.333	6.3
264.713	6.25
265.093	6.15
265.473	6.18
265.853	6.07
266.233	5.9
266.612	6.14
266.992	5.75
267.372	5.72
267.752	5.73
268.131	5.85
268.511	5.71
268.89	6.03
269.27	5.95
269.649	5.36
270.029	5.77
270.408	6.15
270.787	5.75
271.167	5.92
271.546	6.45
271.925	6.28
272.304	6.05
272.683	6.1
273.062	5.77
273.441	5.87
273.82	5.86
274.199	5.62
274.578	6.03
274.957	5.7
275.336	5.9
275.715	5.69
276.093	5.45
276.472	5.4
276.851	5.6
277.229	5.71
277.608	5.03
277.986	5.5
278.365	6.03
278.743	5.37
279.122	4.95
279.5	5.49
279.878	4.72
280.257	5.55
280.635	5.79
281.013	5.84
281.391	5.59
281.769	4.82
282.147	5.49
282.525	5.98
282.903	5.19
283.281	5.7
283.659	5.68
284.037	5.8
284.415	5.24
284.792	5.28
285.17	5.39
285.548	5.48
285.925	5
286.303	5.63
286.68	5.31
287.058	5.4
287.435	5.41
287.813	4.64
288.19	5.18
288.567	5.57
288.945	5.42
289.322	5.8
289.699	5.15
290.076	5.59
290.453	4.94
290.83	4.65
291.207	6.02
291.584	5.09
291.961	5.21
292.338	5.17
292.715	5.06
293.092	5.14
293.469	5.22
293.845	4.69
294.222	5.41
294.599	4.58
294.975	5.38
295.352	5.24
295.728	5.08
296.105	5.25
296.481	5.22
296.858	5.1
297.234	5.11
297.61	4.92
297.986	4.7
298.363	5.5
298.739	5.11
299.115	4.71
299.491	5.06
299.867	5.07
300.243	5.23
300.619	4.72
300.995	5.07
301.371	5.22
301.746	4.85
302.122	5.18
302.498	4.74
302.874	4.9
303.249	4.75
303.625	5.03
304	4.9
304.376	4.51
304.751	4.35
305.127	4.73
305.502	5.19
305.878	4.95
306.253	4.87
306.628	4.8
307.003	4.66
307.378	4.47
307.754	4.92
308.129	5.3
308.504	5.36
308.879	4.97
309.254	5.31
309.629	4.21
310.003	4.6
310.378	4.98
310.753	5.05
311.128	4.63
311.502	4.81
311.877	4.88
312.252	4.14
312.626	5.45
313.001	4.82
313.375	4.84
313.75	4.76
314.124	4.74
314.498	4.84
314.873	4.65
315.247	4.76
315.621	4.32
315.995	5.01
316.369	4.69
316.743	4.72
317.117	4.72
317.491	3.99
317.865	5.1
318.239	4.5
318.613	4.77
318.987	5.02
319.361	4.4
319.734	4.51
320.108	4.81
320.482	5.43
320.855	5.28
321.229	5.52
321.602	4.82
321.976	4.83
322.349	5.37
322.723	4.41
323.096	4.72
323.469	4.95
323.843	4.9
324.216	4.71
324.589	4.42
324.962	4.72
325.335	4.46
325.708	4.44
326.081	5
326.454	4.87
326.827	4.69
327.2	4.91
327.573	4.65
327.945	5.05
328.318	4.38
328.691	4.38
329.063	5
329.436	4.48
329.809	4.72
330.181	5.05
330.553	4.76
330.926	5.12
331.298	4.4
331.671	4.43
332.043	4.25
332.415	4.83
332.787	4.71
333.159	4.51
333.532	4.93
333.904	4.97
334.276	4.6
334.648	4.67
335.02	4.6
335.391	4.72
335.763	5.1
336.135	4.88
336.507	4.92
336.879	4.26
337.25	4.59
337.622	4.94
337.993	4.87
338.365	5.05
338.736	4.85
339.108	5.05
339.479	5.18
339.851	4.31
340.222	4.27
340.593	4.41
340.964	4.06
341.336	4.98
341.707	4.46
342.078	4.9
342.449	4.41
342.82	4.32
343.191	4.68
343.562	4.73
343.933	4.65
344.303	4.62
344.674	4.99
345.045	4.92
345.416	4.89
345.786	5.08
346.157	4.55
346.527	4.95
346.898	4.52
347.268	4.64
347.639	4.66
348.009	4.49
348.38	4.7
348.75	4.69
349.12	4.59
349.49	4.41
349.861	5.01
350.231	4.68
350.601	4.59
350.971	4.8
351.341	4.94
351.711	4.89
352.081	5
352.45	5.03
352.82	4.59
353.19	4.73
353.56	4.87
353.929	4.75
354.299	4.64
354.669	4.53
355.038	4.99
355.408	4.86
355.777	5.07
356.147	4.46
356.516	4.76
356.885	4.77
357.254	5.04
357.624	4.6
357.993	4.63
358.362	4.75
358.731	4.33
359.1	4.35
359.469	4.76
359.838	4.74
360.207	4.82
360.576	4.76
360.945	4.7
361.314	4.77
361.682	4.5
362.051	4.31
362.42	4.7
362.788	4.86
363.157	4.83
363.525	4.59
363.894	4.91
364.262	4.64
364.631	4.74
364.999	4.75
365.367	4.95
365.735	4.78
366.104	4.73
366.472	4.89
366.84	5.07
367.208	4.91
367.576	4.93
367.944	5.06
368.312	4.81
368.68	5.04
369.048	4.61
369.416	4.81
369.783	5.11
370.151	4.95
370.519	4.63
370.886	5.22
371.254	5.39
371.621	5.17
371.989	4.6
372.356	4.95
372.724	5.18
373.091	4.98
373.458	4.75
373.826	4.67
374.193	4.8
374.56	4.94
374.927	4.88
375.294	4.98
375.661	5.07
376.028	5.15
376.395	5.11
376.762	4.67
377.129	5.03
377.496	5.25
377.863	5.41
378.229	5.2
378.596	5.13
378.963	4.87
379.329	5.24
379.696	5.07
380.062	5.01
380.429	4.81
380.795	5.04
381.161	5.14
381.528	5.49
381.894	5.13
382.26	4.86
382.626	5.49
382.993	5.2
383.359	4.89
383.725	4.96
384.091	5.12
384.457	4.84
384.823	5.03
385.188	5.62
385.554	5.07
385.92	4.98
386.286	5.19
386.651	4.95
387.017	5.2
387.383	5.09
387.748	4.95
388.114	5.06
388.479	5.03
388.845	5.49
389.21	5.09
389.575	5
389.94	5.16
390.306	5.13
390.671	5.05
391.036	4.98
391.401	5.44
391.766	5.33
392.131	4.99
392.496	5.17
392.861	5.34
393.226	5.34
393.591	5.06
393.956	5.38
394.32	5.39
394.685	5.22
395.05	5.27
395.414	5.5
395.779	5.19
396.143	5.33
396.508	5.11
396.872	5.41
397.236	5.15
397.601	5.04
397.965	5.23
398.329	5.24
398.694	5.25
399.058	5.01
399.422	5.41
399.786	5.03
400.15	5.3
400.514	5.21
400.878	5.35
401.242	5.23
401.605	5.28
401.969	5.23
402.333	5.24
402.697	5.55
403.06	5.17
403.424	5.13
403.787	5.23
404.151	5.42
404.514	5.27
404.878	5.4
405.241	5.29
405.604	5.24
405.968	5.44
406.331	5.19
406.694	5.28
407.057	5.29
407.42	5.49
407.783	5.55
408.146	5.32
408.509	5.3
408.872	5.22
409.235	5.34
409.598	5.46
409.961	5.41
410.323	5.46
410.686	5.46
411.049	5.41
411.411	5.22
411.774	5.32
412.136	5.54
412.499	5.26
412.861	5.56
413.223	5.45
413.586	5.23
413.948	5.58
414.31	5.7
414.672	5.29
415.035	5.42
415.397	5.56
415.759	5.58
416.121	5.49
416.483	5.57
416.845	5.26
417.206	5.23
417.568	5.42
417.93	5.47
418.292	5.15
418.653	5.39
419.015	5.36
419.377	5.37
419.738	5.2
420.1	5.25
420.461	5.29
420.822	5.35
421.184	5.27
421.545	5.42
421.906	5.29
422.267	5.36
422.629	5.38
422.99	5.25
423.351	5.27
423.712	5.31
424.073	5.31
424.434	5.3
424.795	5.2
425.155	5.35
425.516	5.33
425.877	5.28
426.238	5.2
426.598	5.37
426.959	5.37
427.32	5.32
427.68	5.4
428.041	5.33
428.401	5.43
428.761	5.56
429.122	5.36
429.482	5.63
429.842	5.45
430.202	5.53
430.563	5.47
430.923	5.5
431.283	5.35
431.643	5.54
432.003	5.66
432.363	5.45
432.722	5.64
433.082	5.48
433.442	5.42
433.802	5.57
434.161	5.5
434.521	5.58
434.881	5.45
435.24	5.37
435.6	5.42
435.959	5.47
436.319	5.53
436.678	5.56
437.037	5.55
437.396	5.63
437.756	5.66
438.115	5.42
438.474	5.52
438.833	5.59
439.192	5.4
439.551	5.49
439.91	5.42
440.269	5.63
440.628	5.67
440.987	5.52
441.345	5.39
441.704	5.53
442.063	5.48
442.421	5.48
442.78	5.46
443.138	5.61
443.497	5.54
443.855	5.45
444.214	5.47
444.572	5.52
444.93	5.63
445.288	5.65
445.647	5.65
446.005	5.31
446.363	5.46
446.721	5.49
447.079	5.65
447.437	5.55
447.795	5.5
448.153	5.53
448.51	5.45
448.868	5.49
449.226	5.47
449.584	5.53
449.941	5.48
450.299	5.54
450.656	5.44
451.014	5.58
451.371	5.62
451.729	5.67
452.086	5.61
452.443	5.57
452.801	5.52
453.158	5.56
453.515	5.57
453.872	5.75
454.229	5.68
454.586	5.61
454.943	5.42
455.3	5.48
455.657	5.66
456.014	5.5
456.371	5.48
456.727	5.62
457.084	5.66
457.441	5.61
457.797	5.61
458.154	5.59
458.51	5.49
458.867	5.7
459.223	5.54
459.58	5.6
459.936	5.77
460.292	5.52
460.648	5.49
461.005	5.49
461.361	5.53
461.717	5.47
462.073	5.54
462.429	5.59
462.785	5.52
463.141	5.69
463.496	5.58
463.852	5.66
464.208	5.76
464.564	5.83
464.919	5.65
465.275	5.75
465.631	5.81
465.986	5.69
466.342	5.72
466.697	5.74
467.052	5.7
467.408	5.69
467.763	5.69
468.118	5.82
468.473	5.82
468.829	5.69
469.184	5.72
469.539	5.83
469.894	5.74
470.249	5.76
470.603	5.72
470.958	5.8
471.313	5.88
471.668	5.78
472.023	5.75
472.377	5.84
472.732	5.65
473.086	5.81
473.441	5.83
473.795	5.66
474.15	5.7
474.504	5.6
474.859	5.81
475.213	6.01
475.567	5.71
475.921	5.83
476.275	5.71
476.63	5.85
476.984	5.81
477.338	5.72
477.692	5.66
478.045	5.74
478.399	5.6
478.753	5.79
479.107	5.78
479.461	5.77
479.814	5.86
480.168	5.87
480.521	5.82
480.875	5.7
481.228	5.81
481.582	5.74
481.935	5.79
482.289	5.7
482.642	5.7
482.995	5.67
483.348	5.82
483.701	5.69
484.055	5.68
484.408	5.55
484.761	5.55
485.114	5.49
485.466	5.41
485.819	5.32
486.172	5.27
486.525	5.31
486.878	5.4
487.23	5.47
487.583	5.46
487.936	5.61
488.288	5.59
488.641	5.59
488.993	5.47
489.345	5.48
489.698	5.42
490.05	5.4
490.402	5.46
490.754	5.5
491.107	5.52
491.459	5.6
491.811	5.61
492.163	5.65
492.515	5.67
492.866	5.69
493.218	5.52
493.57	5.45
493.922	5.46
494.274	5.49
494.625	5.56
494.977	5.56
495.328	5.71
495.68	5.84
496.031	5.65
496.383	5.78
496.734	5.75
497.086	5.82
497.437	5.81
497.788	5.67
498.139	5.94
498.49	5.7
498.842	5.62
499.193	5.64
499.544	5.79
499.894	5.76
500.245	5.72
500.596	5.75
500.947	5.77
501.298	5.82
501.648	5.73
501.999	5.81
502.35	5.87
502.7	5.97
503.051	5.94
503.401	5.85
503.752	5.85
504.102	5.83
504.452	5.79
504.803	5.77
505.153	5.82
505.503	5.78
505.853	5.87
506.203	5.79
506.553	5.57
506.903	5.8
507.253	5.8
507.603	5.8
507.953	5.81
508.303	5.71
508.652	5.9
509.002	5.82
509.352	5.86
509.701	5.82
510.051	5.79
510.4	5.74
510.75	5.76
511.099	5.72
511.449	5.75
511.798	5.84
512.147	5.7
512.496	5.85
512.846	5.69
513.195	5.83
513.544	5.85
513.893	5.73
514.242	5.75
514.591	5.81
514.939	5.73
515.288	5.7
515.637	5.83
515.986	5.84
516.334	5.8
516.683	5.79
517.032	5.73
517.38	5.7
517.729	5.78
518.077	5.79
518.426	5.82
518.774	5.63
519.122	5.76
519.47	5.79
519.819	5.63
520.167	5.68
520.515	5.66
520.863	5.72
521.211	5.67
521.559	5.72
521.907	5.67
522.255	5.76
522.602	5.84
522.95	5.69
523.298	5.76
523.645	5.76
523.993	5.77
524.341	5.75
524.688	5.78
525.036	5.95
525.383	5.74
525.73	5.88
526.078	5.76
526.425	5.84
526.772	5.75
527.119	5.6
527.466	5.63
527.814	5.76
528.161	5.7
528.508	5.64
528.854	5.7
529.201	5.7
529.548	5.68
529.895	5.58
530.242	5.54
530.588	5.44
530.935	5.42
531.282	5.53
531.628	5.58
531.975	5.58
532.321	5.65
532.667	5.63
533.014	5.71
533.36	5.7
533.706	5.78
534.052	5.7
534.399	5.55
534.745	5.69
535.091	5.58
535.437	5.58
535.783	5.6
536.129	5.63
536.474	5.7
536.82	5.73
537.166	5.79
537.512	5.78
537.857	5.75
538.203	5.79
538.549	5.84
538.894	5.6
539.239	5.71
539.585	5.67
539.93	5.73
540.276	5.84
540.621	5.77
540.966	5.86
541.311	5.86
541.656	5.8
542.001	5.85
542.346	5.81
542.691	5.68
543.036	5.56
543.381	5.49
543.726	5.46
544.071	5.59
544.415	5.58
544.76	5.63
545.105	5.71
545.449	5.64
545.794	5.73
546.138	5.61
546.483	5.7
546.827	5.75
547.171	5.73
547.516	5.79
547.86	5.84
548.204	5.64
548.548	5.81
548.892	5.71
549.236	5.77
549.58	5.62
549.924	5.72
550.268	5.78
550.612	5.81
550.956	5.94
551.3	5.78
551.643	5.78
551.987	5.9
552.33	5.88
552.674	5.91
553.017	5.86
553.361	5.85
553.704	6.01
554.048	5.83
554.391	5.91
554.734	5.85
555.077	5.84
555.42	5.68
555.764	5.78
556.107	6.03
556.45	5.85
556.793	5.86
557.135	5.76
557.478	5.79
557.821	6.02
558.164	5.98
558.507	5.97
558.849	5.91
559.192	5.88
559.534	6.07
559.877	5.84
560.219	5.88
560.562	5.85
560.904	5.65
561.246	5.98
561.589	5.74
561.931	5.94
562.273	5.9
562.615	6.06
562.957	5.89
563.299	5.87
563.641	5.96
563.983	5.85
564.325	5.84
564.667	6.03
565.008	5.89
565.35	5.91
565.692	5.99
566.033	5.96
566.375	5.82
566.716	6.02
567.058	5.81
567.399	5.91
567.741	5.83
568.082	5.96
568.423	5.84
568.764	5.79
569.105	5.8
569.447	5.83
569.788	5.82
570.129	5.78
570.47	5.82
570.811	5.96
571.151	5.89
571.492	5.87
571.833	5.81
572.174	5.84
572.514	5.98
572.855	5.95
573.195	5.9
573.536	5.79
573.876	5.92
574.217	5.71
574.557	5.79
574.898	5.84
575.238	5.71
575.578	5.83
575.918	5.69
576.258	5.83
576.598	6.04
576.938	5.78
577.278	6.02
577.618	5.6
577.958	5.72
578.298	5.75
578.638	5.76
578.977	5.86
579.317	5.9
579.657	5.77
579.996	5.95
580.336	5.86
580.675	5.77
581.014	5.91
581.354	5.99
581.693	5.95
582.032	6.08
582.372	5.82
582.711	5.91
583.05	5.93
583.389	5.77
583.728	5.81
584.067	6.13
584.406	5.92
584.745	5.91
585.083	5.71
585.422	5.78
585.761	6.04
586.1	5.8
586.438	5.83
586.777	5.9
587.115	5.98
587.454	6.04
587.792	5.78
588.13	5.97
588.469	6.04
588.807	5.53
589.145	5.67
589.483	5.81
589.821	5.73
590.159	5.98
590.497	5.99
590.835	5.87
591.173	5.81
591.511	6.05
591.849	5.78
592.187	5.83
592.524	5.75
592.862	5.79
593.2	5.95
593.537	5.64
593.875	5.64
594.212	6
594.55	5.86
594.887	5.78
595.224	5.93
595.561	5.65
595.899	6.02
596.236	5.89
596.573	5.71
596.91	5.74
597.247	5.91
597.584	5.75
597.921	5.98
598.258	5.84
598.594	5.78
598.931	5.67
599.268	5.65
599.604	5.92
599.941	5.89
600.277	5.72
600.614	5.9
600.95	5.72
601.287	5.74
601.623	5.8
601.959	5.7
602.296	5.92
602.632	6.04
602.968	5.62
603.304	5.85
603.64	5.6
603.976	5.66
604.312	5.9
604.648	5.8
604.984	5.93
605.319	5.82
605.655	5.72
605.991	5.91
606.326	5.59
606.662	5.7
606.998	5.56
607.333	5.58
607.668	5.57
608.004	5.72
608.339	5.7
608.674	5.85
609.01	5.85
609.345	5.87
609.68	6.07
610.015	5.68
610.35	5.76
610.685	5.73
611.02	5.71
611.355	5.63
611.689	5.6
612.024	5.92
612.359	5.82
612.694	5.7
613.028	5.96
613.363	5.96
613.697	5.82
614.032	5.81
614.366	5.85
614.7	5.8
615.035	5.92
615.369	5.95
615.703	5.68
616.037	5.98
616.371	5.82
616.705	5.73
617.039	5.72
617.373	5.8
617.707	6.07
618.041	5.89
618.375	5.75
618.709	5.6
619.042	5.84
619.376	5.84
619.71	5.85
620.043	6.01
620.377	5.62
620.71	6.26
621.043	5.97
621.377	5.56
621.71	5.73
622.043	5.78
622.376	6.11
622.709	6.34
623.043	6.05
623.376	5.87
623.709	5.31
624.041	5.99
624.374	6.01
624.707	5.54
625.04	5.83
625.373	5.86
625.705	5.6
626.038	5.81
626.37	5.15
626.703	5.6
627.035	5.86
627.368	5.59
627.7	5.69
628.032	5.54
628.365	5.79
628.697	5.65
629.029	5.75
629.361	5.93
629.693	5.51
630.025	5.73
630.357	5.69
630.689	5.73
631.021	5.74
631.353	5.9
631.684	5.66
632.016	6.13
632.348	5.75
632.679	5.53
633.011	5.75
633.342	5.5
633.674	5.92
634.005	6.05
634.336	6.19
634.668	5.94
634.999	5.92
635.33	5.28
635.661	6.16
635.992	5.88
636.323	6.05
636.654	6.05
636.985	5.65
637.316	5.45
637.647	5.6
637.977	5.48
638.308	5.92
638.639	5.94
638.969	5.92
639.3	5.6
639.63	6.05
639.961	5.77
640.291	5.79
640.622	6
640.952	5.71
641.282	5.97
641.612	6.08
641.943	5.92
642.273	5.57
642.603	6.05
642.933	5.63
643.263	6.18
643.592	5.39
643.922	6.25
644.252	5.5
644.582	5.52
644.911	5.98
645.241	6.13
645.571	5.92
645.9	5.61
646.23	5.75
646.559	5.6
646.888	5.52
647.218	5.61
647.547	5.36
647.876	5.5
648.205	5.95
648.534	5.62
648.863	5.86
649.192	5.81
649.521	5.91
649.85	5.77
650.179	5.77
650.508	5.37
650.837	5.91
651.165	5.92
651.494	5.31
651.822	5.82
652.151	5.69
652.479	5.77
652.808	5.73
653.136	5.91
653.465	6.2
653.793	5.91
654.121	6.02
654.449	5.7
654.777	5.55
655.105	5.88
655.433	6.28
655.761	5.99
656.089	5.99
656.417	5.66
656.745	6.05
657.073	5.82
657.4	6.36
657.728	6.28
658.056	5.65
658.383	6.13
658.711	5.98
659.038	6.04
659.365	6.21
659.693	5.87
660.02	5.95
660.347	5.49
660.674	5.84
661.001	5.45
661.329	5.58
661.656	5.73
661.982	5.8
662.309	5.89
662.636	5.93
662.963	6.21
663.29	5.56
663.616	6.24
663.943	5.6
664.27	5.92
664.596	5.88
664.923	5.8
665.249	5.58
665.576	5.47
665.902	5.97
666.228	6.13
666.554	5.98
666.881	5.37
667.207	6.18
667.533	6.03
667.859	5.69
668.185	5.75
668.511	5.66
668.837	6.08
669.162	6.34
669.488	6.26
669.814	5.51
670.139	6.08
670.465	5.88
670.791	6.21
671.116	5.73
671.442	5.96
671.767	5.55
672.092	5.95
672.418	6.35
672.743	5.93
673.068	6.28
673.393	6.08
673.718	5.8
674.043	6.02
674.368	6.07
674.693	5.75
675.018	6.26
675.343	5.66
675.667	5.69
675.992	6.39
676.317	6.03
676.641	5.84
676.966	5.6
677.29	6.32
677.615	6.04
677.939	6.06
678.264	6.46
678.588	5.77
678.912	6.21
679.236	6.6
679.56	6.09
679.885	6.38
680.209	6.12
680.532	5.72
680.856	5.87
681.18	5.84
681.504	6.5
681.828	6.68
682.152	5.72
682.475	5.66
682.799	6.16
683.122	5.93
683.446	6.24
683.769	5.2
684.093	6.35
684.416	5.52
684.739	6.12
685.062	5.33
685.386	6
685.709	6.31
686.032	5.63
686.355	6
686.678	5.94
687.001	6.33
687.324	5.29
687.646	6.58
687.969	6.21
688.292	6.3
688.614	6.07
688.937	6.04
689.26	6.62
689.582	5.46
689.904	5.11
690.227	5.96
690.549	6.08
690.871	6.3
691.194	5.91
691.516	5.8
691.838	6.52
692.16	6.65
692.482	5.98
692.804	5.96
693.126	5.6
