Data from 0223_chest_Reflection__2__49.txt Node

Date: Fri Oct 20 21:03:54 CDT 2023
User: ToomeyLab
Spectrometer: FLMS14357
Trigger mode: 0
Integration Time (sec): 1.000000E-2
Scans to average: 100
Electric dark correction enabled: true
Nonlinearity correction enabled: false
Boxcar width: 0
XAxis mode: Wavelengths
Number of Pixels in Spectrum: 2048
>>>>>Begin Spectral Data<<<<<
189.047	-393.36
189.435	-393.36
189.823	-393.36
190.211	31.67
190.599	-506.16
190.987	170.65
191.375	142.22
191.763	-586.23
192.151	1756.14
192.538	-24.87
192.926	15.02
193.314	103.84
193.702	105.34
194.089	56.61
194.477	-926.33
194.864	9.36
195.252	37.54
195.639	212.18
196.027	715.09
196.414	-26.66
196.801	320.32
197.189	60.72
197.576	364.43
197.963	-1.44
198.351	41.8
198.738	35.46
199.125	58.65
199.512	15.6
199.899	34.74
200.286	-50.66
200.673	25.81
201.06	52.05
201.447	-25.43
201.833	28.29
202.22	47.67
202.607	44.48
202.994	19.31
203.38	14.37
203.767	27.11
204.154	40.83
204.54	52.21
204.927	8.17
205.313	23.2
205.699	38.26
206.086	56.89
206.472	55.08
206.858	54.74
207.245	9.84
207.631	43.93
208.017	58.11
208.403	33.25
208.789	78.23
209.175	15.24
209.561	32.03
209.947	35.08
210.333	42.93
210.719	22.38
211.105	18.6
211.491	11.89
211.876	0.85
212.262	27.49
212.648	50.46
213.034	14.67
213.419	12.11
213.805	15.96
214.19	13.7
214.576	6.35
214.961	32.39
215.346	25.12
215.732	51.08
216.117	-8.45
216.502	42.82
216.888	18.3
217.273	17.48
217.658	21.72
218.043	20.19
218.428	-5.26
218.813	16.71
219.198	4.7
219.583	18.36
219.968	-1.05
220.353	36.66
220.738	27.34
221.122	6.68
221.507	3.52
221.892	17.17
222.276	9.32
222.661	36.48
223.046	15.75
223.43	14.87
223.815	11.35
224.199	19.59
224.583	-1.02
224.968	5.29
225.352	4.76
225.736	12.1
226.121	7.43
226.505	-2.66
226.889	9.02
227.273	8.03
227.657	6.54
228.041	9.15
228.425	5.69
228.809	4.37
229.193	3.52
229.577	6.89
229.961	1.59
230.344	3.44
230.728	1.86
231.112	3.19
231.495	2.42
231.879	2.59
232.263	3.98
232.646	1.23
233.03	2.86
233.413	0.89
233.797	2.92
234.18	3.73
234.563	6.32
234.946	6.02
235.33	3.35
235.713	3.21
236.096	3.7
236.479	3.49
236.862	2.52
237.245	3.04
237.628	2.99
238.011	4.43
238.394	3.47
238.777	4.57
239.16	3.88
239.543	5.97
239.925	4.91
240.308	3.82
240.691	1.2
241.073	3.75
241.456	3.26
241.838	1.91
242.221	3.61
242.603	2.87
242.986	2.71
243.368	3.98
243.75	2.53
244.133	2.08
244.515	2.12
244.897	2.27
245.279	2.76
245.661	1.92
246.043	2.42
246.425	2.38
246.807	1.42
247.189	2.18
247.571	2.23
247.953	2.93
248.335	2.84
248.717	2.07
249.098	2.03
249.48	2.01
249.862	2.33
250.243	2.37
250.625	2.39
251.006	2.6
251.388	2.61
251.769	2.77
252.151	2.92
252.532	3.06
252.913	3.27
253.295	1.63
253.676	2.21
254.057	2.89
254.438	2.51
254.819	2.42
255.2	2.58
255.581	2.32
255.962	2.25
256.343	3.3
256.724	2.2
257.105	2.57
257.486	2.93
257.867	2.85
258.247	3.55
258.628	2.66
259.009	1.97
259.389	2.81
259.77	1.93
260.15	2.71
260.531	2.47
260.911	2.67
261.292	2.13
261.672	2.42
262.052	2.4
262.432	2.23
262.813	2.2
263.193	2.38
263.573	2.95
263.953	2.63
264.333	2.52
264.713	3.1
265.093	2.71
265.473	2.65
265.853	2.07
266.233	2.53
266.612	2.49
266.992	3.17
267.372	2.76
267.752	1.93
268.131	2.58
268.511	2.24
268.89	2.55
269.27	1.83
269.649	1.35
270.029	2.52
270.408	2.33
270.787	2.78
271.167	1.98
271.546	2.54
271.925	3.34
272.304	2.41
272.683	2.54
273.062	2.16
273.441	2.65
273.82	2.33
274.199	2.47
274.578	2.38
274.957	2.69
275.336	2.47
275.715	2.4
276.093	2.25
276.472	2.64
276.851	2.62
277.229	2.28
277.608	1.71
277.986	2.51
278.365	2.99
278.743	2.36
279.122	2.41
279.5	2.51
279.878	1.52
280.257	2.42
280.635	2.49
281.013	3.03
281.391	2.96
281.769	2.2
282.147	1.76
282.525	1.99
282.903	2.5
283.281	3.03
283.659	2.33
284.037	2.59
284.415	1.46
284.792	2.28
285.17	2.2
285.548	2.05
285.925	2.08
286.303	1.88
286.68	1.58
287.058	2.85
287.435	2.74
287.813	1.81
288.19	2.5
288.567	2.04
288.945	2.12
289.322	2.43
289.699	1.71
290.076	2.68
290.453	2.19
290.83	1.93
291.207	2.52
291.584	2.15
291.961	2.44
292.338	1.96
292.715	2.22
293.092	2.08
293.469	2.66
293.845	2.44
294.222	2.4
294.599	1.82
294.975	3.22
295.352	2.54
295.728	2.09
296.105	1.9
296.481	2.22
296.858	2.45
297.234	2.37
297.61	2.06
297.986	1.92
298.363	2.22
298.739	2.33
299.115	2.06
299.491	2.1
299.867	2.2
300.243	2.31
300.619	2.4
300.995	2.11
301.371	2.87
301.746	2.36
302.122	2.42
302.498	2.26
302.874	2.16
303.249	1.95
303.625	2.61
304	2.91
304.376	2.09
304.751	2.13
305.127	2.09
305.502	3.16
305.878	2.6
306.253	2.6
306.628	2.72
307.003	2.68
307.378	2.57
307.754	2.25
308.129	3.32
308.504	2.92
308.879	2.59
309.254	2.71
309.629	2.36
310.003	2.47
310.378	2.66
310.753	2.63
311.128	3.11
311.502	2.38
311.877	2.66
312.252	2.29
312.626	3
313.001	2.56
313.375	2.41
313.75	2.69
314.124	2.53
314.498	2.6
314.873	2.33
315.247	2.44
315.621	2.33
315.995	2.63
316.369	2.25
316.743	2.67
317.117	2.46
317.491	1.88
317.865	2.69
318.239	3.22
318.613	2.93
318.987	2.38
319.361	2.15
319.734	2.46
320.108	2.11
320.482	3.16
320.855	2.55
321.229	2.97
321.602	2.52
321.976	2.62
322.349	2.91
322.723	2.36
323.096	2.66
323.469	2.56
323.843	2.65
324.216	2.39
324.589	2.46
324.962	2.61
325.335	2.71
325.708	2.33
326.081	2.73
326.454	2.5
326.827	2.39
327.2	2.78
327.573	2.65
327.945	2.5
328.318	2.5
328.691	2.33
329.063	2.97
329.436	2.52
329.809	3
330.181	2.58
330.553	2.49
330.926	2.74
331.298	2.3
331.671	2.49
332.043	2.71
332.415	2.72
332.787	2.88
333.159	2.27
333.532	2.66
333.904	2.73
334.276	2.65
334.648	2.66
335.02	2.94
335.391	2.33
335.763	2.94
336.135	2.72
336.507	2.76
336.879	2.07
337.25	2.23
337.622	2.86
337.993	2.65
338.365	2.52
338.736	2.86
339.108	2.99
339.479	2.21
339.851	2.84
340.222	2.63
340.593	2.58
340.964	2.61
341.336	2.66
341.707	2.57
342.078	2.58
342.449	2.02
342.82	2.91
343.191	2.64
343.562	2.69
343.933	2.3
344.303	3
344.674	3.36
345.045	2.99
345.416	2.97
345.786	2.64
346.157	2.7
346.527	2.62
346.898	2.61
347.268	2.69
347.639	2.85
348.009	2.34
348.38	2.93
348.75	2.76
349.12	2.62
349.49	2.74
349.861	2.9
350.231	2.39
350.601	2.65
350.971	3.14
351.341	2.92
351.711	3.41
352.081	2.76
352.45	2.47
352.82	2.65
353.19	2.78
353.56	3.09
353.929	3.04
354.299	2.57
354.669	2.68
355.038	2.72
355.408	2.91
355.777	3.09
356.147	2.6
356.516	2.6
356.885	2.87
357.254	2.92
357.624	2.44
357.993	2.49
358.362	2.85
358.731	2.35
359.1	2.39
359.469	2.36
359.838	2.52
360.207	2.93
360.576	2.84
360.945	2.63
361.314	2.48
361.682	2.79
362.051	2.38
362.42	2.46
362.788	2.73
363.157	2.88
363.525	2.24
363.894	2.54
364.262	2.64
364.631	2.59
364.999	2.67
365.367	2.71
365.735	2.47
366.104	2.69
366.472	2.7
366.84	2.81
367.208	2.41
367.576	2.68
367.944	2.69
368.312	2.9
368.68	2.8
369.048	2.62
369.416	2.92
369.783	2.75
370.151	2.41
370.519	2.5
370.886	2.64
371.254	3.05
371.621	3.07
371.989	2.56
372.356	3.1
372.724	2.48
373.091	2.79
373.458	2.4
373.826	2.76
374.193	2.59
374.56	2.72
374.927	2.73
375.294	2.97
375.661	2.87
376.028	3.21
376.395	2.86
376.762	2.49
377.129	2.55
377.496	2.76
377.863	3.2
378.229	3.07
378.596	2.97
378.963	2.76
379.329	3.14
379.696	2.98
380.062	2.95
380.429	2.5
380.795	2.73
381.161	2.58
381.528	3
381.894	2.87
382.26	2.73
382.626	2.99
382.993	2.99
383.359	2.76
383.725	3
384.091	2.76
384.457	2.92
384.823	3.12
385.188	3.11
385.554	2.55
385.92	2.76
386.286	2.94
386.651	2.54
387.017	2.83
387.383	2.67
387.748	2.49
388.114	2.59
388.479	2.71
388.845	3.07
389.21	2.57
389.575	2.37
389.94	2.85
390.306	2.98
390.671	2.45
391.036	2.75
391.401	3.04
391.766	2.75
392.131	2.95
392.496	2.7
392.861	2.83
393.226	3.1
393.591	2.77
393.956	2.96
394.32	3.05
394.685	2.78
395.05	2.88
395.414	2.94
395.779	2.6
396.143	2.53
396.508	2.78
396.872	3.11
397.236	2.67
397.601	2.57
397.965	2.83
398.329	2.67
398.694	3.05
399.058	2.62
399.422	2.79
399.786	2.94
400.15	2.75
400.514	2.78
400.878	3.08
401.242	3.11
401.605	2.85
401.969	2.72
402.333	2.74
402.697	2.92
403.06	2.78
403.424	2.97
403.787	2.88
404.151	2.98
404.514	2.98
404.878	2.74
405.241	2.82
405.604	2.66
405.968	2.83
406.331	2.79
406.694	2.73
407.057	2.77
407.42	3.11
407.783	2.94
408.146	2.89
408.509	2.87
408.872	3
409.235	2.88
409.598	3.06
409.961	2.86
410.323	2.94
410.686	2.7
411.049	3.05
411.411	2.74
411.774	3.1
412.136	2.91
412.499	2.85
412.861	3.07
413.223	2.92
413.586	2.87
413.948	2.97
414.31	2.88
414.672	2.92
415.035	2.87
415.397	3.11
415.759	3.29
416.121	2.89
416.483	3.36
416.845	2.91
417.206	3.02
417.568	2.98
417.93	3.04
418.292	2.71
418.653	3.07
419.015	2.89
419.377	2.85
419.738	2.8
420.1	2.76
420.461	2.75
420.822	2.84
421.184	2.74
421.545	2.86
421.906	2.77
422.267	2.74
422.629	2.87
422.99	2.78
423.351	2.84
423.712	2.84
424.073	2.82
424.434	2.75
424.795	2.81
425.155	2.81
425.516	2.92
425.877	2.91
426.238	2.74
426.598	2.79
426.959	2.84
427.32	2.89
427.68	2.98
428.041	2.82
428.401	2.86
428.761	2.88
429.122	2.84
429.482	2.85
429.842	2.92
430.202	3.1
430.563	2.91
430.923	2.89
431.283	2.9
431.643	2.98
432.003	3.25
432.363	2.86
432.722	3.08
433.082	3.05
433.442	2.95
433.802	3.22
434.161	2.91
434.521	3.02
434.881	3
435.24	3.01
435.6	2.85
435.959	2.96
436.319	2.88
436.678	3.06
437.037	2.98
437.396	3.07
437.756	3.06
438.115	2.95
438.474	3.07
438.833	3.2
439.192	2.96
439.551	2.91
439.91	2.96
440.269	3.03
440.628	3.17
440.987	2.98
441.345	3.01
441.704	2.9
442.063	2.93
442.421	2.97
442.78	2.86
443.138	3.06
443.497	2.98
443.855	3
444.214	3.05
444.572	2.99
444.93	3.07
445.288	3.15
445.647	3.28
446.005	2.87
446.363	3.01
446.721	2.96
447.079	3.04
447.437	3
447.795	2.95
448.153	2.87
448.51	2.96
448.868	2.97
449.226	2.95
449.584	2.96
449.941	2.9
450.299	3.03
450.656	3.02
451.014	3.19
451.371	3.07
451.729	3.04
452.086	3.14
452.443	3.13
452.801	2.98
453.158	3.18
453.515	3.04
453.872	3.07
454.229	3.28
454.586	3.15
454.943	3.17
455.3	2.94
455.657	3.17
456.014	3
456.371	3.15
456.727	3.12
457.084	3.11
457.441	3.1
457.797	3.15
458.154	3.06
458.51	3.21
458.867	3.08
459.223	3.15
459.58	3.15
459.936	3.14
460.292	3.06
460.648	2.99
461.005	3.07
461.361	3.11
461.717	2.9
462.073	3.1
462.429	3.07
462.785	3.08
463.141	3.23
463.496	3.15
463.852	3.16
464.208	3.36
464.564	3.18
464.919	3.18
465.275	3.31
465.631	3.28
465.986	3.23
466.342	3.41
466.697	3.25
467.052	3.23
467.408	3.36
467.763	3.23
468.118	3.47
468.473	3.37
468.829	3.23
469.184	3.28
469.539	3.32
469.894	3.22
470.249	3.27
470.603	3.22
470.958	3.33
471.313	3.28
471.668	3.2
472.023	3.33
472.377	3.3
472.732	3.23
473.086	3.35
473.441	3.34
473.795	3.42
474.15	3.22
474.504	3.3
474.859	3.33
475.213	3.37
475.567	3.33
475.921	3.34
476.275	3.17
476.63	3.5
476.984	3.49
477.338	3.42
477.692	3.3
478.045	3.33
478.399	3.25
478.753	3.28
479.107	3.25
479.461	3.34
479.814	3.5
480.168	3.44
480.521	3.31
480.875	3.47
481.228	3.26
481.582	3.44
481.935	3.41
482.289	3.35
482.642	3.33
482.995	3.26
483.348	3.38
483.701	3.24
484.055	3.33
484.408	3.21
484.761	3.23
485.114	3.11
485.466	3.14
485.819	3.1
486.172	3.03
486.525	3.08
486.878	3.09
487.23	3.14
487.583	3.18
487.936	3.2
488.288	3.21
488.641	3.27
488.993	3.22
489.345	3.2
489.698	3.16
490.05	3.15
490.402	3.13
490.754	3.2
491.107	3.22
491.459	3.26
491.811	3.28
492.163	3.28
492.515	3.36
492.866	3.34
493.218	3.29
493.57	3.22
493.922	3.16
494.274	3.24
494.625	3.22
494.977	3.3
495.328	3.37
495.68	3.49
496.031	3.4
496.383	3.53
496.734	3.49
497.086	3.56
497.437	3.49
497.788	3.43
498.139	3.61
498.49	3.49
498.842	3.32
499.193	3.4
499.544	3.44
499.894	3.55
500.245	3.43
500.596	3.57
500.947	3.56
501.298	3.45
501.648	3.53
501.999	3.49
502.35	3.48
502.7	3.61
503.051	3.43
503.401	3.58
503.752	3.65
504.102	3.54
504.452	3.55
504.803	3.39
505.153	3.7
505.503	3.5
505.853	3.64
506.203	3.57
506.553	3.56
506.903	3.43
507.253	3.65
507.603	3.66
507.953	3.64
508.303	3.5
508.652	3.64
509.002	3.67
509.352	3.72
509.701	3.75
510.051	3.5
510.4	3.55
510.75	3.58
511.099	3.53
511.449	3.62
511.798	3.75
512.147	3.62
512.496	3.63
512.846	3.66
513.195	3.71
513.544	3.75
513.893	3.62
514.242	3.53
514.591	3.69
514.939	3.58
515.288	3.67
515.637	3.63
515.986	3.67
516.334	3.68
516.683	3.65
517.032	3.68
517.38	3.65
517.729	3.82
518.077	3.7
518.426	3.7
518.774	3.68
519.122	3.74
519.47	3.79
519.819	3.69
520.167	3.63
520.515	3.6
520.863	3.69
521.211	3.71
521.559	3.79
521.907	3.72
522.255	3.74
522.602	3.92
522.95	3.86
523.298	3.75
523.645	3.81
523.993	3.78
524.341	3.86
524.688	3.91
525.036	3.83
525.383	3.74
525.73	3.98
526.078	3.89
526.425	3.9
526.772	3.84
527.119	3.89
527.466	3.86
527.814	3.89
528.161	3.87
528.508	3.78
528.854	3.74
529.201	3.81
529.548	3.82
529.895	3.87
530.242	3.76
530.588	3.7
530.935	3.71
531.282	3.79
531.628	3.8
531.975	3.73
532.321	3.84
532.667	3.82
533.014	3.95
533.36	3.96
533.706	3.89
534.052	3.98
534.399	3.9
534.745	3.89
535.091	3.81
535.437	3.94
535.783	3.94
536.129	3.97
536.474	3.96
536.82	4.01
537.166	3.97
537.512	4.11
537.857	4.08
538.203	4.11
538.549	4.18
538.894	4.04
539.239	4.08
539.585	4.01
539.93	4.14
540.276	4.22
540.621	4.19
540.966	4.24
541.311	4.21
541.656	4.27
542.001	4.33
542.346	4.34
542.691	4.17
543.036	4.13
543.381	4.07
543.726	4.07
544.071	4.09
544.415	4.11
544.76	4.1
545.105	4.19
545.449	4.28
545.794	4.3
546.138	4.2
546.483	4.29
546.827	4.26
547.171	4.31
547.516	4.34
547.86	4.44
548.204	4.34
548.548	4.37
548.892	4.47
549.236	4.4
549.58	4.35
549.924	4.34
550.268	4.46
550.612	4.53
550.956	4.57
551.3	4.57
551.643	4.67
551.987	4.63
552.33	4.58
552.674	4.58
553.017	4.51
553.361	4.58
553.704	4.79
554.048	4.56
554.391	4.7
554.734	4.66
555.077	4.59
555.42	4.56
555.764	4.57
556.107	4.82
556.45	4.66
556.793	4.73
557.135	4.58
557.478	4.81
557.821	4.83
558.164	4.74
558.507	4.88
558.849	5.1
559.192	4.97
559.534	5.04
559.877	4.76
560.219	5.02
560.562	5.02
560.904	4.84
561.246	4.9
561.589	4.83
561.931	5.08
562.273	5.05
562.615	5.27
562.957	5.05
563.299	5.05
563.641	5.04
563.983	4.97
564.325	4.98
564.667	4.96
565.008	4.98
565.35	4.96
565.692	5.08
566.033	5.17
566.375	5.19
566.716	5.19
567.058	5.22
567.399	5.26
567.741	5.13
568.082	5.2
568.423	5.04
568.764	5.01
569.105	5.28
569.447	5.02
569.788	5.19
570.129	5.11
570.47	5.37
570.811	5.36
571.151	5.38
571.492	5.41
571.833	5.4
572.174	5.43
572.514	5.4
572.855	5.34
573.195	5.48
573.536	5.38
573.876	5.5
574.217	5.54
574.557	5.32
574.898	5.23
575.238	5.31
575.578	5.59
575.918	5.39
576.258	5.55
576.598	5.51
576.938	5.62
577.278	5.58
577.618	5.44
577.958	5.47
578.298	5.55
578.638	5.74
578.977	5.71
579.317	5.67
579.657	5.61
579.996	5.8
580.336	5.89
580.675	5.7
581.014	5.74
581.354	5.5
581.693	5.9
582.032	6.05
582.372	5.96
582.711	5.9
583.05	6.14
583.389	6.06
583.728	5.83
584.067	5.73
584.406	5.75
584.745	6.15
585.083	5.9
585.422	5.75
585.761	6.08
586.1	6.11
586.438	5.73
586.777	6.14
587.115	6.31
587.454	6.1
587.792	6.09
588.13	6.26
588.469	6.14
588.807	5.77
589.145	6.28
589.483	6.23
589.821	6.27
590.159	6.27
590.497	6.36
590.835	6.36
591.173	6.29
591.511	6.4
591.849	6.03
592.187	6.28
592.524	6.13
592.862	6.5
593.2	6.46
593.537	6.11
593.875	6.31
594.212	6.49
594.55	6.62
594.887	6.26
595.224	6.3
595.561	6.19
595.899	6.38
596.236	6.49
596.573	6.6
596.91	6.67
597.247	6.6
597.584	6.4
597.921	6.56
598.258	6.93
598.594	6.76
598.931	6.6
599.268	6.53
599.604	6.7
599.941	6.64
600.277	6.77
600.614	6.72
600.95	6.84
601.287	6.72
601.623	6.75
601.959	6.9
602.296	7.07
602.632	6.83
602.968	6.73
603.304	7.37
603.64	6.81
603.976	7.01
604.312	6.99
604.648	7.12
604.984	7.35
605.319	7.01
605.655	6.99
605.991	7.07
606.326	7.01
606.662	6.87
606.998	6.98
607.333	6.93
607.668	7.06
608.004	6.99
608.339	6.92
608.674	7.07
609.01	7.38
609.345	7.22
609.68	7.35
610.015	7.3
610.35	7.29
610.685	7.65
611.02	7.33
611.355	7.27
611.689	7.18
612.024	7.54
612.359	7.35
612.694	7.25
613.028	7.67
613.363	7.55
613.697	7.62
614.032	7.59
614.366	7.68
614.7	7.73
615.035	7.41
615.369	7.82
615.703	7.25
616.037	7.72
616.371	7.91
616.705	7.77
617.039	7.82
617.373	7.87
617.707	8.01
618.041	7.85
618.375	7.82
618.709	8.1
619.042	7.86
619.376	8.29
619.71	8.14
620.043	8.3
620.377	7.63
620.71	8.25
621.043	8.5
621.377	8.13
621.71	8.11
622.043	8.46
622.376	8.38
622.709	8.22
623.043	7.8
623.376	8.23
623.709	8.12
624.041	8.35
624.374	8.78
624.707	8.29
625.04	8.66
625.373	8.54
625.705	8.5
626.038	8.69
626.37	8.02
626.703	8.43
627.035	8.19
627.368	8.54
627.7	8.68
628.032	8.28
628.365	8.79
628.697	8.56
629.029	8.68
629.361	8.63
629.693	8.34
630.025	8.5
630.357	8.6
630.689	8.62
631.021	9.01
631.353	8.72
631.684	8.6
632.016	9.21
632.348	8.74
632.679	8.68
633.011	8.89
633.342	8.6
633.674	8.99
634.005	8.95
634.336	9.07
634.668	8.83
634.999	8.84
635.33	8.71
635.661	9.17
635.992	9.2
636.323	9.41
636.654	9.23
636.985	9.21
637.316	9.21
637.647	9.1
637.977	8.93
638.308	9.44
638.639	9.56
638.969	9.28
639.3	9.44
639.63	9.53
639.961	9.44
640.291	9.05
640.622	9.45
640.952	9.59
641.282	9.22
641.612	9.55
641.943	9.77
642.273	9.55
642.603	9.75
642.933	9.55
643.263	9.74
643.592	9.32
643.922	9.94
644.252	9.72
644.582	9.8
644.911	9.31
645.241	10.19
645.571	10.03
645.9	9.63
646.23	9.91
646.559	9.81
646.888	10.4
647.218	10.49
647.547	9.78
647.876	9.94
648.205	9.78
648.534	10.01
648.863	10.15
649.192	10.23
649.521	10.19
649.85	10.37
650.179	9.9
650.508	10.24
650.837	10.72
651.165	10.52
651.494	10.18
651.822	10.62
652.151	10.57
652.479	10.14
652.808	10.37
653.136	10.41
653.465	10.97
653.793	10.79
654.121	10.37
654.449	10.75
654.777	10.74
655.105	10.37
655.433	10.6
655.761	10.7
656.089	11.11
656.417	10.65
656.745	11.07
657.073	10.43
657.4	11.28
657.728	11.08
658.056	10.98
658.383	10.79
658.711	10.39
659.038	11.22
659.365	10.84
659.693	11.03
660.02	10.82
660.347	11.31
660.674	10.63
661.001	10.76
661.329	10.99
661.656	11.41
661.982	11.17
662.309	11.03
662.636	11.16
662.963	10.9
663.29	11.25
663.616	11.02
663.943	10.9
664.27	11.21
664.596	11.34
664.923	11.44
665.249	11.23
665.576	10.98
665.902	11.09
666.228	11.78
666.554	11.46
666.881	11.12
667.207	11.42
667.533	11.04
667.859	11.97
668.185	12.22
668.511	11.71
668.837	12.26
669.162	11.81
669.488	11.79
669.814	11.62
670.139	11.74
670.465	11.96
670.791	11.81
671.116	12.17
671.442	11.95
671.767	12.42
672.092	12.35
672.418	11.81
672.743	12.03
673.068	12.13
673.393	11.89
673.718	11.71
674.043	12.2
674.368	12.41
674.693	12.15
675.018	12.7
675.343	12.23
675.667	12.03
675.992	12.46
676.317	12.67
676.641	12.64
676.966	12.69
677.29	12.28
677.615	12.46
677.939	12.17
678.264	13.05
678.588	11.72
678.912	12.29
679.236	12.22
679.56	12.56
679.885	12.66
680.209	12.13
680.532	12.58
680.856	12.65
681.18	12.41
681.504	13.03
681.828	12.88
682.152	13.13
682.475	12.51
682.799	13.12
683.122	13.17
683.446	13.42
683.769	12.64
684.093	13.15
684.416	13.36
684.739	12.39
685.062	12.54
685.386	12.75
685.709	13.31
686.032	13.17
686.355	13.52
686.678	12.73
687.001	13.07
687.324	12.84
687.646	13.8
687.969	13.4
688.292	13.42
688.614	13.26
688.937	13.44
689.26	13.04
689.582	13.48
689.904	13.14
