Data from 0223_chest_Reflection__3__50.txt Node

Date: Fri Oct 20 21:04:04 CDT 2023
User: ToomeyLab
Spectrometer: FLMS14357
Trigger mode: 0
Integration Time (sec): 1.000000E-2
Scans to average: 100
Electric dark correction enabled: true
Nonlinearity correction enabled: false
Boxcar width: 0
XAxis mode: Wavelengths
Number of Pixels in Spectrum: 2048
>>>>>Begin Spectral Data<<<<<
189.047	-480.07
189.435	-480.07
189.823	-480.07
190.211	51.17
190.599	-225.17
190.987	133.92
191.375	-612.66
191.763	-903.39
192.151	2721.64
192.538	138.18
192.926	-115.44
193.314	134.52
193.702	-15.38
194.089	116.17
194.477	-824.09
194.864	8.55
195.252	97.69
195.639	459.19
196.027	-1067.15
196.414	-68.77
196.801	237.92
197.189	25.12
197.576	991.04
197.963	502.02
198.351	47.88
198.738	38.99
199.125	37.13
199.512	27.1
199.899	44.44
200.286	35.03
200.673	25.98
201.06	18.86
201.447	3.29
201.833	30.82
202.22	25.95
202.607	32.88
202.994	41.53
203.38	5.89
203.767	30.52
204.154	67.49
204.54	69.37
204.927	34.1
205.313	19.43
205.699	32.1
206.086	20.32
206.472	34.73
206.858	56.79
207.245	30.88
207.631	15.19
208.017	43.84
208.403	20.27
208.789	49.77
209.175	4.01
209.561	42.6
209.947	25.65
210.333	11.64
210.719	51.26
211.105	8.86
211.491	32.19
211.876	1.56
212.262	21.1
212.648	32.71
213.034	17.76
213.419	28.92
213.805	12.06
214.19	13.53
214.576	23.07
214.961	35.12
215.346	35.27
215.732	35.61
216.117	-6.35
216.502	29.83
216.888	26.57
217.273	-8.63
217.658	31.52
218.043	12.41
218.428	-7.59
218.813	27.93
219.198	10.49
219.583	-10.76
219.968	-2.87
220.353	20.76
220.738	20.94
221.122	6.67
221.507	30.92
221.892	19.44
222.276	3.04
222.661	23.66
223.046	21.53
223.43	16.18
223.815	12.97
224.199	17.03
224.583	-5.21
224.968	1.34
225.352	13.83
225.736	10.33
226.121	5.79
226.505	5.49
226.889	9.3
227.273	6.42
227.657	8.61
228.041	6.5
228.425	6.52
228.809	2.92
229.193	5.46
229.577	6.18
229.961	3.62
230.344	3.73
230.728	2.74
231.112	4.15
231.495	3.07
231.879	4.3
232.263	4.91
232.646	4.05
233.03	4.24
233.413	3.77
233.797	3.44
234.18	3.5
234.563	4.4
234.946	5.09
235.33	5.42
235.713	3.29
236.096	4.05
236.479	3.65
236.862	5.36
237.245	4.23
237.628	4.4
238.011	5.04
238.394	4.47
238.777	5.83
239.16	3.61
239.543	8.22
239.925	5.92
240.308	4.9
240.691	4.52
241.073	6.35
241.456	5.3
241.838	4.29
242.221	5.04
242.603	4.6
242.986	4.32
243.368	4.11
243.75	3.74
244.133	3.91
244.515	3.78
244.897	3.36
245.279	3.36
245.661	3.81
246.043	3.52
246.425	3.38
246.807	4.22
247.189	3.64
247.571	3.62
247.953	4.49
248.335	4.43
248.717	3.55
249.098	3.4
249.48	3.5
249.862	3.71
250.243	3.81
250.625	3.78
251.006	3.77
251.388	4.34
251.769	4.21
252.151	2.94
252.532	3.45
252.913	4.58
253.295	2.73
253.676	3.43
254.057	3.4
254.438	3.64
254.819	3.43
255.2	3.11
255.581	4.3
255.962	3.09
256.343	4.01
256.724	2.27
257.105	4.26
257.486	4.19
257.867	4.16
258.247	3.78
258.628	4.01
259.009	3.62
259.389	3.36
259.77	2.94
260.15	3.91
260.531	3.86
260.911	3.91
261.292	3.08
261.672	3.35
262.052	3.73
262.432	3.55
262.813	3.45
263.193	3.57
263.573	3.26
263.953	3.24
264.333	3.87
264.713	4.09
265.093	4.08
265.473	4.17
265.853	4.06
266.233	3.9
266.612	3.62
266.992	4.33
267.372	3.68
267.752	3.8
268.131	3.65
268.511	3.6
268.89	3.28
269.27	3.46
269.649	2.94
270.029	3.37
270.408	3.42
270.787	3.76
271.167	3.68
271.546	3.83
271.925	3.72
272.304	3.51
272.683	4.14
273.062	3.71
273.441	3.72
273.82	3.52
274.199	4.21
274.578	3.38
274.957	3.71
275.336	3.65
275.715	3.73
276.093	3.36
276.472	3.24
276.851	3.66
277.229	3.69
277.608	3.09
277.986	2.77
278.365	4.23
278.743	3.41
279.122	3.39
279.5	3.26
279.878	3.07
280.257	3.49
280.635	3.84
281.013	3.51
281.391	3.6
281.769	3.73
282.147	3.51
282.525	3.42
282.903	3.59
283.281	3.82
283.659	3.92
284.037	3.46
284.415	3.22
284.792	3.36
285.17	3.5
285.548	3.42
285.925	2.88
286.303	3.45
286.68	3.43
287.058	4.08
287.435	3.47
287.813	3.19
288.19	3.23
288.567	3.4
288.945	3.82
289.322	3.73
289.699	3.02
290.076	4.12
290.453	3.26
290.83	3.25
291.207	4.02
291.584	3.54
291.961	3.48
292.338	3.28
292.715	3.37
293.092	3.37
293.469	3.71
293.845	3.56
294.222	3.87
294.599	3.62
294.975	4.08
295.352	3.5
295.728	3.49
296.105	3.73
296.481	3.56
296.858	3.79
297.234	3.72
297.61	3.21
297.986	3.34
298.363	3.36
298.739	3.55
299.115	3.45
299.491	3.37
299.867	3.7
300.243	3.6
300.619	3.86
300.995	3.43
301.371	4.14
301.746	3.68
302.122	4.18
302.498	3.08
302.874	3.3
303.249	3.57
303.625	4.2
304	4.38
304.376	3.67
304.751	3.62
305.127	3.41
305.502	4.2
305.878	3.98
306.253	3.86
306.628	3.79
307.003	3.91
307.378	3.89
307.754	3.53
308.129	4.83
308.504	4.3
308.879	3.89
309.254	4.54
309.629	3.46
310.003	3.17
310.378	4.36
310.753	4.09
311.128	4.22
311.502	3.93
311.877	4.09
312.252	3.88
312.626	4.37
313.001	3.68
313.375	3.99
313.75	4.11
314.124	3.91
314.498	4.07
314.873	3.84
315.247	4.06
315.621	4.05
315.995	4.5
316.369	3.61
316.743	4.01
317.117	4.28
317.491	3.63
317.865	4.69
318.239	4.22
318.613	4.54
318.987	4.2
319.361	3.15
319.734	3.61
320.108	3.85
320.482	4.45
320.855	4.27
321.229	4.96
321.602	4.08
321.976	4.64
322.349	4.16
322.723	4.26
323.096	4.01
323.469	4.26
323.843	4.49
324.216	4.37
324.589	4.56
324.962	4.95
325.335	4.74
325.708	4.63
326.081	4.56
326.454	4.71
326.827	4.5
327.2	4.65
327.573	4.67
327.945	4.3
328.318	3.8
328.691	4.06
329.063	4.48
329.436	4.09
329.809	4.47
330.181	4.93
330.553	4.5
330.926	4.23
331.298	4.54
331.671	3.85
332.043	3.95
332.415	4.45
332.787	5.16
333.159	4.05
333.532	4.71
333.904	4.58
334.276	4.05
334.648	4.62
335.02	4.68
335.391	4.21
335.763	4.77
336.135	3.93
336.507	4.74
336.879	4.44
337.25	4.61
337.622	4.39
337.993	4.65
338.365	4.72
338.736	4.63
339.108	4.91
339.479	4.06
339.851	4.17
340.222	3.86
340.593	3.75
340.964	4.36
341.336	4.76
341.707	4.5
342.078	4.53
342.449	3.98
342.82	4.2
343.191	4.46
343.562	4.69
343.933	4.32
344.303	4.71
344.674	4.43
345.045	4.91
345.416	4.82
345.786	4.31
346.157	4.39
346.527	4.59
346.898	4.6
347.268	4.52
347.639	4.97
348.009	4.33
348.38	4.64
348.75	4.55
349.12	4.22
349.49	4.21
349.861	4.94
350.231	4.21
350.601	4.57
350.971	5.02
351.341	4.93
351.711	4.94
352.081	4.83
352.45	4.38
352.82	4.71
353.19	4.72
353.56	4.7
353.929	4.56
354.299	4.38
354.669	4.53
355.038	4.62
355.408	5.22
355.777	4.94
356.147	4.39
356.516	4.33
356.885	4.52
357.254	4.48
357.624	4.71
357.993	3.98
358.362	4.71
358.731	4.35
359.1	4.36
359.469	4.22
359.838	4.89
360.207	4.57
360.576	5.05
360.945	4.48
361.314	4.44
361.682	4.49
362.051	4.64
362.42	4.66
362.788	4.61
363.157	4.36
363.525	4.34
363.894	4.62
364.262	4.49
364.631	4.67
364.999	4.82
365.367	4.88
365.735	4.47
366.104	4.16
366.472	4.41
366.84	4.63
367.208	4.47
367.576	4.57
367.944	4.79
368.312	4.56
368.68	4.78
369.048	4.81
369.416	4.78
369.783	4.81
370.151	4.47
370.519	4.45
370.886	4.9
371.254	4.93
371.621	4.82
371.989	4.58
372.356	4.66
372.724	4.78
373.091	4.59
373.458	4.42
373.826	4.6
374.193	4.25
374.56	4.63
374.927	4.63
375.294	4.9
375.661	5.22
376.028	5.02
376.395	4.85
376.762	4.89
377.129	4.71
377.496	4.7
377.863	4.75
378.229	4.89
378.596	4.8
378.963	4.95
379.329	4.92
379.696	4.92
380.062	4.52
380.429	4.58
380.795	4.74
381.161	4.53
381.528	4.93
381.894	4.75
382.26	4.97
382.626	5.07
382.993	4.95
383.359	5
383.725	4.68
384.091	4.79
384.457	4.73
384.823	4.85
385.188	5.48
385.554	4.96
385.92	4.74
386.286	5.01
386.651	4.74
387.017	5.03
387.383	4.84
387.748	4.56
388.114	4.65
388.479	4.91
388.845	5.05
389.21	4.53
389.575	4.51
389.94	4.88
390.306	4.83
390.671	5.01
391.036	4.88
391.401	5.15
391.766	4.73
392.131	4.84
392.496	4.99
392.861	4.97
393.226	4.78
393.591	4.84
393.956	5.1
394.32	5.17
394.685	4.79
395.05	5.18
395.414	5.17
395.779	4.81
396.143	4.9
396.508	4.93
396.872	4.82
397.236	4.92
397.601	4.84
397.965	5.08
398.329	5.03
398.694	5.11
399.058	4.78
399.422	4.7
399.786	4.92
400.15	4.85
400.514	4.93
400.878	5.06
401.242	4.92
401.605	4.95
401.969	4.9
402.333	5.08
402.697	4.97
403.06	5.22
403.424	5.01
403.787	5.35
404.151	5.06
404.514	4.95
404.878	5.04
405.241	5.24
405.604	4.64
405.968	5.14
406.331	4.87
406.694	4.99
407.057	4.86
407.42	4.98
407.783	5.11
408.146	4.77
408.509	4.94
408.872	5.22
409.235	5.02
409.598	5.23
409.961	5.13
410.323	4.84
410.686	4.75
411.049	5.01
411.411	5.11
411.774	5.11
412.136	4.92
412.499	5.23
412.861	5.13
413.223	5.05
413.586	5.23
413.948	5.41
414.31	5.47
414.672	5.03
415.035	4.94
415.397	5.35
415.759	5.33
416.121	5.09
416.483	5.27
416.845	5.04
417.206	5.23
417.568	5.22
417.93	5.22
418.292	5.04
418.653	5.19
419.015	4.97
419.377	5
419.738	4.83
420.1	4.81
420.461	5.03
420.822	5.01
421.184	4.91
421.545	5.03
421.906	4.95
422.267	4.92
422.629	5.03
422.99	4.89
423.351	4.93
423.712	4.99
424.073	5.03
424.434	4.89
424.795	4.94
425.155	4.92
425.516	4.9
425.877	4.99
426.238	4.88
426.598	4.99
426.959	4.9
427.32	5.05
427.68	5.13
428.041	5.07
428.401	5.14
428.761	5.17
429.122	5.16
429.482	5.14
429.842	5.14
430.202	5.2
430.563	5.09
430.923	5.3
431.283	5.21
431.643	5.32
432.003	5.31
432.363	5.22
432.722	5.19
433.082	5.25
433.442	5.29
433.802	5.29
434.161	5.2
434.521	5.29
434.881	5.23
435.24	5.32
435.6	5.18
435.959	5.02
436.319	5.23
436.678	5.27
437.037	5.15
437.396	5.3
437.756	5.36
438.115	5.24
438.474	5.38
438.833	5.41
439.192	5.08
439.551	5.29
439.91	5.43
440.269	5.34
440.628	5.27
440.987	5.23
441.345	5.19
441.704	5.2
442.063	5.29
442.421	5.17
442.78	5.06
443.138	5.24
443.497	5.32
443.855	5.28
444.214	5.17
444.572	5.26
444.93	5.43
445.288	5.59
445.647	5.54
446.005	5.23
446.363	5.42
446.721	5.35
447.079	5.49
447.437	5.25
447.795	5.16
448.153	5.29
448.51	5.22
448.868	5.22
449.226	5.32
449.584	5.31
449.941	5.27
450.299	5.37
450.656	5.33
451.014	5.45
451.371	5.45
451.729	5.42
452.086	5.53
452.443	5.54
452.801	5.37
453.158	5.59
453.515	5.43
453.872	5.41
454.229	5.56
454.586	5.45
454.943	5.61
455.3	5.43
455.657	5.46
456.014	5.4
456.371	5.29
456.727	5.51
457.084	5.68
457.441	5.62
457.797	5.63
458.154	5.46
458.51	5.58
458.867	5.42
459.223	5.57
459.58	5.6
459.936	5.49
460.292	5.56
460.648	5.45
461.005	5.43
461.361	5.44
461.717	5.3
462.073	5.44
462.429	5.43
462.785	5.44
463.141	5.66
463.496	5.49
463.852	5.61
464.208	5.66
464.564	5.71
464.919	5.58
465.275	5.67
465.631	5.7
465.986	5.78
466.342	5.87
466.697	5.68
467.052	5.79
467.408	5.7
467.763	5.89
468.118	5.88
468.473	5.82
468.829	5.72
469.184	5.6
469.539	5.85
469.894	5.87
470.249	5.73
470.603	5.74
470.958	5.67
471.313	5.85
471.668	5.86
472.023	5.76
472.377	5.84
472.732	5.75
473.086	6.01
473.441	5.86
473.795	6.09
474.15	5.82
474.504	5.82
474.859	5.97
475.213	5.89
475.567	5.95
475.921	5.98
476.275	5.99
476.63	6.02
476.984	5.85
477.338	5.86
477.692	5.9
478.045	5.94
478.399	5.95
478.753	6.01
479.107	5.85
479.461	5.88
479.814	5.93
480.168	6.01
480.521	5.95
480.875	5.81
481.228	5.88
481.582	5.89
481.935	5.85
482.289	6
482.642	5.89
482.995	5.86
483.348	5.86
483.701	5.79
484.055	5.79
484.408	5.75
484.761	5.74
485.114	5.67
485.466	5.57
485.819	5.49
486.172	5.45
486.525	5.51
486.878	5.61
487.23	5.72
487.583	5.73
487.936	5.78
488.288	5.79
488.641	5.89
488.993	5.75
489.345	5.64
489.698	5.66
490.05	5.64
490.402	5.68
490.754	5.75
491.107	5.77
491.459	5.92
491.811	5.89
492.163	5.98
492.515	5.98
492.866	6.01
493.218	5.82
493.57	5.73
493.922	5.72
494.274	5.8
494.625	5.91
494.977	5.93
495.328	6
495.68	6.14
496.031	6.06
496.383	6.18
496.734	6.18
497.086	6.23
497.437	6.28
497.788	6.08
498.139	6.26
498.49	6.08
498.842	5.98
499.193	6.14
499.544	6.21
499.894	6.2
500.245	6.09
500.596	6.14
500.947	6.25
501.298	6.25
501.648	6.3
501.999	6.29
502.35	6.29
502.7	6.43
503.051	6.32
503.401	6.34
503.752	6.35
504.102	6.42
504.452	6.28
504.803	6.35
505.153	6.43
505.503	6.4
505.853	6.44
506.203	6.37
506.553	6.31
506.903	6.41
507.253	6.38
507.603	6.52
507.953	6.44
508.303	6.36
508.652	6.47
509.002	6.42
509.352	6.46
509.701	6.49
510.051	6.32
510.4	6.36
510.75	6.46
511.099	6.43
511.449	6.53
511.798	6.41
512.147	6.37
512.496	6.54
512.846	6.52
513.195	6.67
513.544	6.58
513.893	6.54
514.242	6.5
514.591	6.62
514.939	6.46
515.288	6.51
515.637	6.62
515.986	6.74
516.334	6.56
516.683	6.74
517.032	6.62
517.38	6.64
517.729	6.69
518.077	6.6
518.426	6.64
518.774	6.59
519.122	6.58
519.47	6.61
519.819	6.6
520.167	6.57
520.515	6.54
520.863	6.57
521.211	6.57
521.559	6.68
521.907	6.76
522.255	6.66
522.602	6.88
522.95	6.76
523.298	6.82
523.645	6.87
523.993	6.99
524.341	6.92
524.688	6.84
525.036	7.02
525.383	6.9
525.73	7.13
526.078	6.89
526.425	6.99
526.772	6.87
527.119	6.83
527.466	6.8
527.814	6.77
528.161	6.78
528.508	6.74
528.854	6.88
529.201	6.81
529.548	6.8
529.895	6.73
530.242	6.68
530.588	6.57
530.935	6.48
531.282	6.64
531.628	6.79
531.975	6.77
532.321	6.84
532.667	6.86
533.014	6.95
533.36	7.08
533.706	7.1
534.052	7.03
534.399	7.01
534.745	6.92
535.091	6.9
535.437	6.94
535.783	6.91
536.129	7.02
536.474	7.1
536.82	7.16
537.166	7.19
537.512	7.29
537.857	7.26
538.203	7.18
538.549	7.3
538.894	7.07
539.239	7.17
539.585	7.25
539.93	7.3
540.276	7.55
540.621	7.38
540.966	7.43
541.311	7.53
541.656	7.41
542.001	7.58
542.346	7.46
542.691	7.41
543.036	7.31
543.381	7.14
543.726	7.13
544.071	7.25
544.415	7.34
544.76	7.4
545.105	7.44
545.449	7.4
545.794	7.48
546.138	7.38
546.483	7.6
546.827	7.66
547.171	7.65
547.516	7.68
547.86	7.81
548.204	7.57
548.548	7.61
548.892	7.68
549.236	7.7
549.58	7.77
549.924	7.76
550.268	7.79
550.612	7.94
550.956	8.01
551.3	7.87
551.643	7.98
551.987	8.13
552.33	8.08
552.674	8.06
553.017	8.08
553.361	8.13
553.704	8.13
554.048	8.18
554.391	8.08
554.734	8.16
555.077	8.09
555.42	7.92
555.764	8.16
556.107	8.26
556.45	8.27
556.793	8.23
557.135	8.18
557.478	8.22
557.821	8.37
558.164	8.39
558.507	8.34
558.849	8.58
559.192	8.63
559.534	8.55
559.877	8.28
560.219	8.63
560.562	8.36
560.904	8.39
561.246	8.54
561.589	8.43
561.931	8.65
562.273	8.71
562.615	8.67
562.957	8.74
563.299	8.7
563.641	8.74
563.983	8.52
564.325	8.48
564.667	8.87
565.008	8.65
565.35	8.78
565.692	8.85
566.033	8.82
566.375	8.94
566.716	8.97
567.058	8.77
567.399	8.95
567.741	8.93
568.082	8.86
568.423	9.02
568.764	8.87
569.105	9.09
569.447	8.93
569.788	8.93
570.129	9.03
570.47	9.25
570.811	9.33
571.151	9.12
571.492	9.23
571.833	9.14
572.174	9.4
572.514	9.26
572.855	9.24
573.195	9.12
573.536	9.15
573.876	9.25
574.217	9.19
574.557	9.19
574.898	9.26
575.238	9.22
575.578	9.24
575.918	9.27
576.258	9.5
576.598	9.42
576.938	9.42
577.278	9.6
577.618	9.33
577.958	9.5
578.298	9.55
578.638	9.62
578.977	9.51
579.317	9.66
579.657	9.62
579.996	9.66
580.336	10.04
580.675	9.93
581.014	9.89
581.354	9.76
581.693	10.09
582.032	10.07
582.372	9.97
582.711	10.2
583.05	10.14
583.389	9.92
583.728	10.17
584.067	10.14
584.406	10.02
584.745	10.15
585.083	9.95
585.422	10.09
585.761	10.24
586.1	10.29
586.438	9.91
586.777	10.3
587.115	10.38
587.454	10.29
587.792	10.13
588.13	10.43
588.469	10.55
588.807	10.26
589.145	10.4
589.483	10.62
589.821	10.63
590.159	10.58
590.497	10.56
590.835	10.69
591.173	10.42
591.511	10.53
591.849	10.64
592.187	10.44
592.524	10.29
592.862	10.76
593.2	10.69
593.537	10.71
593.875	10.92
594.212	10.75
594.55	10.81
594.887	10.89
595.224	10.86
595.561	10.73
595.899	10.94
596.236	10.77
596.573	10.74
596.91	11.15
597.247	11.06
597.584	10.82
597.921	11.14
598.258	11.17
598.594	11.41
598.931	10.81
599.268	10.98
599.604	11.02
599.941	11.04
600.277	10.99
600.614	11.4
600.95	11.23
601.287	11.36
601.623	11.45
601.959	11.42
602.296	11.55
602.632	11.4
602.968	11.32
603.304	11.67
603.64	11.39
603.976	11.49
604.312	11.67
604.648	11.59
604.984	11.69
605.319	11.53
605.655	11.41
605.991	11.42
606.326	11.49
606.662	11.33
606.998	11.46
607.333	11.51
607.668	11.54
608.004	11.77
608.339	11.89
608.674	12.02
609.01	11.86
609.345	12.13
609.68	12.13
610.015	11.92
610.35	12.13
610.685	12.07
611.02	12.03
611.355	11.78
611.689	11.78
612.024	12.21
612.359	11.91
612.694	12.23
613.028	12.38
613.363	12.41
613.697	12.45
614.032	12.6
614.366	12.58
614.7	12.31
615.035	12.56
615.369	12.63
615.703	12.22
616.037	12.66
616.371	12.48
616.705	12.63
617.039	12.49
617.373	12.68
617.707	12.91
618.041	13
618.375	12.7
618.709	12.79
619.042	13.04
619.376	13.02
619.71	13.21
620.043	13.18
620.377	13.11
620.71	13.27
621.043	13.28
621.377	12.73
621.71	13.16
622.043	12.97
622.376	13.22
622.709	13.3
623.043	13.44
623.376	13.22
623.709	13.1
624.041	13.2
624.374	13.5
624.707	13.24
625.04	13.69
625.373	13.7
625.705	13.3
626.038	13.86
626.37	13.46
626.703	13.46
627.035	13.37
627.368	13.32
627.7	13.68
628.032	13.53
628.365	13.65
628.697	13.59
629.029	13.58
629.361	13.89
629.693	13.54
630.025	13.79
630.357	13.65
630.689	13.48
631.021	14.08
631.353	13.89
631.684	13.91
632.016	14.1
632.348	13.87
632.679	13.83
633.011	13.95
633.342	13.87
633.674	13.96
634.005	14.05
634.336	14.35
634.668	14.27
634.999	14.31
635.33	13.8
635.661	13.99
635.992	14.69
636.323	14.38
636.654	14.52
636.985	14.44
637.316	14.25
637.647	14.25
637.977	13.96
638.308	14.5
638.639	14.61
638.969	14.65
639.3	14.26
639.63	14.75
639.961	14.82
640.291	14.8
640.622	14.84
640.952	14.71
641.282	14.86
641.612	14.82
641.943	14.99
642.273	14.62
642.603	15.16
642.933	14.5
643.263	15.55
643.592	14.64
643.922	15.37
644.252	14.9
644.582	15.45
644.911	15.13
645.241	15.52
645.571	15.56
645.9	14.88
646.23	15.31
646.559	15.38
646.888	15.32
647.218	15.39
647.547	15.18
647.876	15.34
648.205	15.57
648.534	14.79
648.863	15.77
649.192	15.19
649.521	15.58
649.85	15.58
650.179	15.76
650.508	15.65
650.837	15.89
651.165	16.11
651.494	15.43
651.822	15.92
652.151	15.76
652.479	15.94
652.808	15.78
653.136	15.76
653.465	16.26
653.793	15.73
654.121	15.9
654.449	15.77
654.777	15.92
655.105	16.03
655.433	16.25
655.761	16.16
656.089	16.3
656.417	16.24
656.745	16.29
657.073	16.46
657.4	16.91
657.728	16.63
658.056	15.91
658.383	16.3
658.711	15.68
659.038	16.6
659.365	16.78
659.693	16.91
660.02	16.37
660.347	16.52
660.674	16.4
661.001	16.21
661.329	16.45
661.656	16.71
661.982	16.64
662.309	16.52
662.636	16.89
662.963	16.67
663.29	16.5
663.616	16.75
663.943	16.87
664.27	17.03
664.596	17.44
664.923	16.81
665.249	17.09
665.576	16.95
665.902	16.94
666.228	17.15
666.554	17.43
666.881	16.61
667.207	17.37
667.533	17.48
667.859	18.16
668.185	17.86
668.511	17.54
668.837	17.5
669.162	17.98
669.488	17.39
669.814	17.71
670.139	17.52
670.465	17.51
670.791	17.81
671.116	17.79
671.442	17.78
671.767	17.46
672.092	17.45
672.418	17.66
672.743	17.72
673.068	18.38
673.393	17.88
673.718	17.84
674.043	18.04
674.368	18.67
674.693	18.37
675.018	18.45
675.343	17.98
675.667	18.51
675.992	18.33
676.317	18.32
676.641	18.46
676.966	18.76
677.29	17.38
677.615	18.41
677.939	17.93
678.264	18.21
678.588	17.92
678.912	19.04
679.236	18.08
679.56	18.47
679.885	18.37
680.209	18.73
680.532	18.27
680.856	18.35
681.18	18.71
681.504	18.41
681.828	19.04
682.152	18.93
682.475	18.39
682.799	18.65
683.122	19.01
683.446	18.65
683.769	19.02
684.093	19.04
684.416	19.19
684.739	18.88
