Data from 15NW-1_chest_Reflection__2__02.txt Node

Date: Fri Nov 11 14:21:39 CST 2022
User: ToomeyLab
Spectrometer: FLMS14357
Trigger mode: 0
Integration Time (sec): 1.000000E-2
Scans to average: 100
Electric dark correction enabled: true
Nonlinearity correction enabled: false
Boxcar width: 0
XAxis mode: Wavelengths
Number of Pixels in Spectrum: 2048
>>>>>Begin Spectral Data<<<<<
189.047	97.34
189.435	97.34
189.823	97.34
190.211	241.19
190.599	245.87
190.987	77.43
191.375	194.5
191.763	-21.61
192.151	184.55
192.538	-50.28
192.926	93.68
193.314	-511.98
193.702	-139.77
194.089	18.91
194.477	-308.84
194.864	62.8
195.252	159.05
195.639	535.33
196.027	-34.13
196.414	125.05
196.801	-263.3
197.189	-643.45
197.576	10.2
197.963	7.07
198.351	22.22
198.738	-39.08
199.125	19.38
199.512	13.21
199.899	11.61
200.286	35.05
200.673	51.77
201.06	0.71
201.447	-0.5
201.833	29.33
202.22	3.86
202.607	47.69
202.994	38.52
203.38	38.91
203.767	-2.76
204.154	-9.79
204.54	16.41
204.927	-14.66
205.313	54.02
205.699	31.92
206.086	24.74
206.472	39.23
206.858	-6.85
207.245	13.4
207.631	49.38
208.017	14.32
208.403	25.95
208.789	-37.43
209.175	27.64
209.561	33.58
209.947	30.54
210.333	28.73
210.719	26.05
211.105	13.84
211.491	-49.18
211.876	21.65
212.262	1.07
212.648	18.01
213.034	36.61
213.419	8.57
213.805	23.74
214.19	-38.65
214.576	36.82
214.961	11.71
215.346	6.07
215.732	-17.07
216.117	25.32
216.502	28.72
216.888	21.52
217.273	30.22
217.658	10.01
218.043	-20.69
218.428	15.26
218.813	40.99
219.198	-21.58
219.583	-0.96
219.968	25.01
220.353	-11.7
220.738	-6.08
221.122	-1.06
221.507	24.34
221.892	3.89
222.276	21.28
222.661	14.03
223.046	13.66
223.43	3.44
223.815	2.25
224.199	12.85
224.583	8.47
224.968	15.49
225.352	7.27
225.736	3.3
226.121	7.17
226.505	10.29
226.889	6.69
227.273	4.68
227.657	6.44
228.041	4.05
228.425	5.57
228.809	5.71
229.193	5.94
229.577	4.27
229.961	3.9
230.344	4
230.728	4.1
231.112	4.07
231.495	4.24
231.879	4.09
232.263	2.49
232.646	4.3
233.03	3.58
233.413	2.75
233.797	2.58
234.18	3.28
234.563	4.84
234.946	3.25
235.33	3.55
235.713	4.33
236.096	2.4
236.479	4.24
236.862	5.58
237.245	4.64
237.628	5.1
238.011	4.36
238.394	3.37
238.777	3.66
239.16	5.17
239.543	3.95
239.925	4.93
240.308	2.9
240.691	4.39
241.073	3.77
241.456	2.29
241.838	4.3
242.221	4.38
242.603	3.94
242.986	3.61
243.368	3.11
243.75	3.52
244.133	3.44
244.515	3.64
244.897	3.61
245.279	3.58
245.661	3.93
246.043	3.64
246.425	5.04
246.807	3.4
247.189	3.49
247.571	2.88
247.953	3.36
248.335	3.76
248.717	3.64
249.098	3.53
249.48	3.59
249.862	3.52
250.243	3.65
250.625	3.41
251.006	4.1
251.388	3.53
251.769	4.85
252.151	3.54
252.532	3.08
252.913	2.86
253.295	2.92
253.676	3.65
254.057	3.49
254.438	3.61
254.819	3.67
255.2	3.72
255.581	3.27
255.962	3.69
256.343	4.38
256.724	3.78
257.105	3.92
257.486	4.38
257.867	2.67
258.247	4.11
258.628	3.5
259.009	3.15
259.389	3.57
259.77	4.4
260.15	4.03
260.531	2.98
260.911	3.33
261.292	3.48
261.672	3.24
262.052	3.3
262.432	3.73
262.813	3.67
263.193	3.48
263.573	3.58
263.953	3.47
264.333	3.72
264.713	3.67
265.093	3.53
265.473	3.71
265.853	2.41
266.233	3.37
266.612	3.1
266.992	3.76
267.372	2.89
267.752	3.67
268.131	3.4
268.511	3.42
268.89	3.64
269.27	3.11
269.649	3.29
270.029	3.12
270.408	3.25
270.787	3.58
271.167	2.8
271.546	3.65
271.925	3.43
272.304	3.47
272.683	3.21
273.062	3.35
273.441	3.13
273.82	2.91
274.199	3.22
274.578	3.31
274.957	2.92
275.336	3.48
275.715	3.16
276.093	4.25
276.472	3.4
276.851	3.46
277.229	3.54
277.608	3.72
277.986	3.34
278.365	3.96
278.743	3.42
279.122	2.58
279.5	3.31
279.878	3.11
280.257	3.32
280.635	3.36
281.013	3.45
281.391	3.37
281.769	3.56
282.147	3.53
282.525	3.21
282.903	3.43
283.281	3.15
283.659	3.17
284.037	3.2
284.415	2.97
284.792	3.74
285.17	3.21
285.548	3.31
285.925	3.42
286.303	3.25
286.68	2.9
287.058	3.32
287.435	3.31
287.813	3.44
288.19	3.42
288.567	3.47
288.945	2.87
289.322	3.37
289.699	3.82
290.076	2.82
290.453	3.18
290.83	3.27
291.207	3.22
291.584	3.41
291.961	3.15
292.338	3.61
292.715	2.98
293.092	2.94
293.469	3.64
293.845	3.52
294.222	3.89
294.599	3.22
294.975	3.49
295.352	3.25
295.728	3.44
296.105	3.73
296.481	3.2
296.858	3.22
297.234	3.02
297.61	3.52
297.986	2.9
298.363	3.21
298.739	3.61
299.115	3.08
299.491	3.15
299.867	3.11
300.243	3.51
300.619	3.7
300.995	3.37
301.371	3.29
301.746	3.03
302.122	3.27
302.498	3.42
302.874	3.76
303.249	3.41
303.625	3.63
304	3.56
304.376	3.62
304.751	3.88
305.127	3.96
305.502	3.68
305.878	3.91
306.253	3.5
306.628	3.73
307.003	3.5
307.378	4.03
307.754	3.73
308.129	3.77
308.504	3.75
308.879	3.86
309.254	3.22
309.629	3.59
310.003	3.43
310.378	3.3
310.753	3.74
311.128	3.83
311.502	3.39
311.877	3.71
312.252	3.6
312.626	3.45
313.001	3.63
313.375	3.74
313.75	3.85
314.124	3.85
314.498	3.99
314.873	3.42
315.247	4.03
315.621	3.77
315.995	3.62
316.369	3.74
316.743	3.56
317.117	3.5
317.491	3.76
317.865	3.59
318.239	3.86
318.613	3.44
318.987	3.72
319.361	3.89
319.734	3.74
320.108	3.9
320.482	3.63
320.855	3.57
321.229	3.97
321.602	4.11
321.976	3.73
322.349	3.72
322.723	3.74
323.096	4.12
323.469	4.34
323.843	4.1
324.216	3.56
324.589	3.37
324.962	3.44
325.335	4.25
325.708	4.12
326.081	3.85
326.454	3.39
326.827	3.45
327.2	3.68
327.573	3.96
327.945	3.68
328.318	3.84
328.691	4.12
329.063	4.02
329.436	4.24
329.809	3.76
330.181	4.04
330.553	4.3
330.926	3.35
331.298	3.96
331.671	3.76
332.043	4.55
332.415	3.79
332.787	4.06
333.159	3.82
333.532	3.13
333.904	3.64
334.276	3.76
334.648	3.58
335.02	4.06
335.391	3.49
335.763	4.15
336.135	3.93
336.507	4.22
336.879	3.86
337.25	3.75
337.622	4.23
337.993	3.82
338.365	4.08
338.736	4.12
339.108	3.54
339.479	3.94
339.851	3.55
340.222	3.57
340.593	3.4
340.964	4.05
341.336	3.9
341.707	3.85
342.078	3.66
342.449	4.26
342.82	3.71
343.191	4.07
343.562	4.07
343.933	3.36
344.303	4.19
344.674	4.12
345.045	3.8
345.416	3.86
345.786	3.97
346.157	3.91
346.527	3.8
346.898	3.83
347.268	4.01
347.639	4.3
348.009	4.01
348.38	4.08
348.75	4.17
349.12	4.06
349.49	3.77
349.861	3.98
350.231	3.54
350.601	4.47
350.971	4.23
351.341	3.94
351.711	3.54
352.081	3.32
352.45	4.04
352.82	3.73
353.19	3.86
353.56	4.07
353.929	4.24
354.299	3.7
354.669	3.77
355.038	3.91
355.408	3.74
355.777	3.72
356.147	3.87
356.516	3.96
356.885	3.74
357.254	4.03
357.624	3.5
357.993	4.28
358.362	3.55
358.731	3.69
359.1	3.78
359.469	3.86
359.838	3.76
360.207	4.02
360.576	3.93
360.945	4.17
361.314	3.78
361.682	3.92
362.051	3.63
362.42	3.52
362.788	3.88
363.157	3.95
363.525	3.99
363.894	3.71
364.262	3.6
364.631	3.88
364.999	3.88
365.367	3.92
365.735	3.99
366.104	3.91
366.472	4
366.84	3.94
367.208	3.64
367.576	3.99
367.944	4.23
368.312	3.97
368.68	3.83
369.048	3.66
369.416	3.81
369.783	3.75
370.151	3.83
370.519	4.08
370.886	4.21
371.254	3.83
371.621	3.96
371.989	3.66
372.356	3.84
372.724	3.86
373.091	3.83
373.458	3.86
373.826	4
374.193	4.06
374.56	3.84
374.927	3.77
375.294	3.96
375.661	4.37
376.028	4.1
376.395	4.16
376.762	3.85
377.129	4
377.496	3.83
377.863	3.75
378.229	3.92
378.596	3.9
378.963	3.83
379.329	4.05
379.696	3.85
380.062	3.85
380.429	3.64
380.795	4
381.161	4.44
381.528	4.22
381.894	4.03
382.26	3.79
382.626	3.82
382.993	4.05
383.359	3.95
383.725	4.03
384.091	3.82
384.457	4.04
384.823	3.89
385.188	3.83
385.554	3.87
385.92	3.92
386.286	3.78
386.651	4.13
387.017	3.95
387.383	3.78
387.748	3.86
388.114	4.11
388.479	3.85
388.845	4.06
389.21	3.94
389.575	3.81
389.94	4.11
390.306	3.96
390.671	3.98
391.036	4.07
391.401	3.96
391.766	3.94
392.131	3.68
392.496	3.92
392.861	3.86
393.226	3.86
393.591	3.86
393.956	4.18
394.32	4.16
394.685	4.02
395.05	4.05
395.414	4.18
395.779	3.95
396.143	3.92
396.508	3.79
396.872	4.05
397.236	3.85
397.601	3.88
397.965	4.15
398.329	3.76
398.694	3.7
399.058	3.79
399.422	4
399.786	4.12
400.15	3.84
400.514	3.82
400.878	4.07
401.242	4.05
401.605	3.8
401.969	4.17
402.333	3.97
402.697	3.86
403.06	3.85
403.424	3.92
403.787	4.02
404.151	3.85
404.514	3.98
404.878	3.97
405.241	3.9
405.604	3.88
405.968	4.16
406.331	3.85
406.694	4.01
407.057	4
407.42	4.05
407.783	3.74
408.146	4.05
408.509	4.03
408.872	4.13
409.235	3.97
409.598	3.89
409.961	4.05
410.323	3.95
410.686	4.01
411.049	4.03
411.411	3.85
411.774	3.79
412.136	3.99
412.499	4
412.861	3.8
413.223	3.82
413.586	3.84
413.948	3.92
414.31	3.87
414.672	3.98
415.035	3.9
415.397	4.03
415.759	4
416.121	4.11
416.483	4.1
416.845	3.95
417.206	4.03
417.568	4.02
417.93	3.91
418.292	3.93
418.653	4.06
419.015	3.79
419.377	4.04
419.738	4.12
420.1	3.81
420.461	3.88
420.822	3.72
421.184	3.74
421.545	3.83
421.906	3.87
422.267	3.95
422.629	3.86
422.99	3.81
423.351	3.8
423.712	3.9
424.073	3.87
424.434	3.98
424.795	4.04
425.155	3.99
425.516	3.9
425.877	3.94
426.238	3.9
426.598	3.92
426.959	3.87
427.32	3.88
427.68	3.95
428.041	4.09
428.401	3.85
428.761	3.99
429.122	4.15
429.482	4.22
429.842	4.22
430.202	3.99
430.563	4.04
430.923	4.12
431.283	4.09
431.643	4.16
432.003	4.26
432.363	4.06
432.722	4.18
433.082	4.13
433.442	4.2
433.802	4.36
434.161	4.13
434.521	4.13
434.881	3.98
435.24	4.17
435.6	4.04
435.959	3.97
436.319	4.1
436.678	3.96
437.037	4.06
437.396	3.97
437.756	4.15
438.115	4.02
438.474	4.04
438.833	4.13
439.192	4.19
439.551	4.06
439.91	4.08
440.269	4.13
440.628	4.07
440.987	4.27
441.345	4.14
441.704	4.08
442.063	4.16
442.421	4.04
442.78	4.03
443.138	3.96
443.497	4.16
443.855	4.09
444.214	4.1
444.572	4.27
444.93	4.21
445.288	4.31
445.647	4.13
446.005	4.16
446.363	4.09
446.721	4.11
447.079	4.06
447.437	4.11
447.795	4.05
448.153	4.05
448.51	4.13
448.868	4.11
449.226	4.16
449.584	4.19
449.941	4.16
450.299	4.19
450.656	4.3
451.014	4.26
451.371	4.22
451.729	4.21
452.086	4.22
452.443	4.46
452.801	4.16
453.158	4.19
453.515	4.15
453.872	4.17
454.229	4.26
454.586	4.11
454.943	4.18
455.3	4.17
455.657	4.23
456.014	4.17
456.371	4.27
456.727	4.36
457.084	4.21
457.441	4.36
457.797	4.31
458.154	4.25
458.51	4.25
458.867	4.39
459.223	4.24
459.58	4.2
459.936	4.38
460.292	4.37
460.648	4.31
461.005	4.33
461.361	4.16
461.717	4.24
462.073	4.29
462.429	4.26
462.785	4.22
463.141	4.15
463.496	4.43
463.852	4.33
464.208	4.46
464.564	4.35
464.919	4.27
465.275	4.37
465.631	4.42
465.986	4.35
466.342	4.5
466.697	4.5
467.052	4.32
467.408	4.38
467.763	4.61
468.118	4.23
468.473	4.33
468.829	4.51
469.184	4.45
469.539	4.45
469.894	4.23
470.249	4.42
470.603	4.32
470.958	4.56
471.313	4.46
471.668	4.38
472.023	4.55
472.377	4.53
472.732	4.61
473.086	4.48
473.441	4.34
473.795	4.54
474.15	4.45
474.504	4.6
474.859	4.52
475.213	4.43
475.567	4.59
475.921	4.47
476.275	4.41
476.63	4.42
476.984	4.48
477.338	4.56
477.692	4.33
478.045	4.46
478.399	4.51
478.753	4.52
479.107	4.38
479.461	4.56
479.814	4.53
480.168	4.56
480.521	4.38
480.875	4.58
481.228	4.53
481.582	4.46
481.935	4.55
482.289	4.52
482.642	4.44
482.995	4.45
483.348	4.33
483.701	4.5
484.055	4.41
484.408	4.46
484.761	4.26
485.114	4.27
485.466	4.17
485.819	4.12
486.172	4.18
486.525	4.22
486.878	4.34
487.23	4.35
487.583	4.37
487.936	4.49
488.288	4.35
488.641	4.4
488.993	4.31
489.345	4.26
489.698	4.3
490.05	4.3
490.402	4.35
490.754	4.43
491.107	4.4
491.459	4.53
491.811	4.53
492.163	4.5
492.515	4.49
492.866	4.37
493.218	4.31
493.57	4.3
493.922	4.32
494.274	4.42
494.625	4.46
494.977	4.52
495.328	4.58
495.68	4.59
496.031	4.71
496.383	4.67
496.734	4.77
497.086	4.78
497.437	4.65
497.788	4.7
498.139	4.53
498.49	4.61
498.842	4.72
499.193	4.67
499.544	4.65
499.894	4.72
500.245	4.66
500.596	4.66
500.947	4.64
501.298	4.75
501.648	4.75
501.999	4.71
502.35	4.67
502.7	4.77
503.051	4.73
503.401	4.87
503.752	4.75
504.102	4.72
504.452	4.82
504.803	4.73
505.153	4.83
505.503	4.71
505.853	4.75
506.203	4.85
506.553	4.86
506.903	4.8
507.253	4.87
507.603	4.85
507.953	4.83
508.303	4.86
508.652	4.68
509.002	4.76
509.352	4.94
509.701	4.86
510.051	4.76
510.4	4.77
510.75	4.79
511.099	4.88
511.449	4.86
511.798	4.68
512.147	4.86
512.496	4.89
512.846	4.87
513.195	4.85
513.544	4.85
513.893	4.91
514.242	4.89
514.591	4.89
514.939	4.97
515.288	4.86
515.637	4.95
515.986	4.95
516.334	5.02
516.683	5
517.032	4.88
517.38	5.02
517.729	4.99
518.077	4.96
518.426	4.98
518.774	4.98
519.122	4.96
519.47	4.85
519.819	4.97
520.167	4.9
520.515	4.94
520.863	4.86
521.211	4.92
521.559	4.96
521.907	4.97
522.255	5.09
522.602	5.08
522.95	4.98
523.298	5.02
523.645	5.17
523.993	5.17
524.341	5.28
524.688	5.08
525.036	5.12
525.383	5.06
525.73	5.13
526.078	5.14
526.425	5.05
526.772	5.12
527.119	5.04
527.466	5.01
527.814	4.95
528.161	5.04
528.508	5.09
528.854	5.11
529.201	5.17
529.548	5.12
529.895	5
530.242	4.9
530.588	4.82
530.935	4.91
531.282	5.06
531.628	5
531.975	5.06
532.321	5.09
532.667	5.22
533.014	5.22
533.36	5.06
533.706	5.23
534.052	5.17
534.399	5.15
534.745	5.13
535.091	5.06
535.437	5.1
535.783	5.13
536.129	5.21
536.474	5.32
536.82	5.26
537.166	5.32
537.512	5.38
537.857	5.43
538.203	5.3
538.549	5.21
538.894	5.27
539.239	5.38
539.585	5.4
539.93	5.39
540.276	5.47
540.621	5.47
540.966	5.56
541.311	5.5
541.656	5.43
542.001	5.5
542.346	5.42
542.691	5.38
543.036	5.24
543.381	5.24
543.726	5.38
544.071	5.37
544.415	5.47
544.76	5.53
545.105	5.5
545.449	5.52
545.794	5.57
546.138	5.67
546.483	5.64
546.827	5.65
547.171	5.53
547.516	5.5
547.86	5.64
548.204	5.65
548.548	5.64
548.892	5.7
549.236	5.7
549.58	5.76
549.924	5.84
550.268	5.87
550.612	5.9
550.956	5.96
551.3	5.99
551.643	5.92
551.987	5.82
552.33	5.88
552.674	5.8
553.017	5.94
553.361	5.96
553.704	6.17
554.048	5.98
554.391	6.07
554.734	5.88
555.077	5.96
555.42	6.02
555.764	5.98
556.107	6.06
556.45	6.03
556.793	6.19
557.135	6.1
557.478	6.07
557.821	6.25
558.164	6.23
558.507	6.24
558.849	6.37
559.192	6.41
559.534	6.36
559.877	6.29
560.219	6.44
560.562	6.35
560.904	6.28
561.246	6.36
561.589	6.4
561.931	6.48
562.273	6.4
562.615	6.35
562.957	6.41
563.299	6.39
563.641	6.34
563.983	6.39
564.325	6.61
564.667	6.45
565.008	6.44
565.35	6.59
565.692	6.54
566.033	6.55
566.375	6.65
566.716	6.65
567.058	6.43
567.399	6.53
567.741	6.61
568.082	6.59
568.423	6.57
568.764	6.59
569.105	6.68
569.447	6.59
569.788	6.71
570.129	6.69
570.47	6.59
570.811	6.84
571.151	6.8
571.492	6.69
571.833	6.87
572.174	6.82
572.514	6.8
572.855	6.83
573.195	6.94
573.536	6.82
573.876	6.88
574.217	6.84
574.557	6.74
574.898	7.02
575.238	7.08
575.578	6.96
575.918	7.07
576.258	7.27
576.598	7.11
576.938	6.95
577.278	7.26
577.618	7.13
577.958	7.28
578.298	7.13
578.638	7.26
578.977	7.23
579.317	7.28
579.657	7.42
579.996	7.4
580.336	7.36
580.675	7.19
581.014	7.37
581.354	7.49
581.693	7.16
582.032	7.41
582.372	7.41
582.711	7.47
583.05	7.38
583.389	7.54
583.728	7.33
584.067	7.64
584.406	7.43
584.745	7.6
585.083	7.57
585.422	7.84
585.761	7.78
586.1	7.55
586.438	7.66
586.777	7.68
587.115	7.69
587.454	7.86
587.792	7.81
588.13	7.76
588.469	7.73
588.807	7.89
589.145	7.92
589.483	7.9
589.821	7.78
590.159	7.79
590.497	8.02
590.835	7.77
591.173	7.96
591.511	8.12
591.849	7.94
592.187	8.05
592.524	8.13
592.862	8.11
593.2	8.39
593.537	8.01
593.875	7.92
594.212	8.25
594.55	8.36
594.887	8.47
595.224	8.14
595.561	8.35
595.899	8.43
596.236	8.39
596.573	8.08
596.91	8.35
597.247	8.29
597.584	8.36
597.921	8.39
598.258	8.38
598.594	8.44
598.931	8.56
599.268	8.37
599.604	8.58
599.941	8.38
600.277	8.29
600.614	8.76
600.95	8.67
601.287	8.77
601.623	8.73
601.959	8.65
602.296	8.82
602.632	8.74
602.968	8.72
603.304	8.92
603.64	9.01
603.976	9
604.312	9.1
604.648	8.7
604.984	8.95
605.319	9.06
605.655	9.06
605.991	8.84
606.326	8.91
606.662	8.85
606.998	8.88
607.333	8.98
607.668	9.13
608.004	9.27
608.339	9.5
608.674	9.34
609.01	8.94
609.345	9.24
609.68	9.61
610.015	9.48
610.35	9.56
610.685	9.32
611.02	9.44
611.355	9.29
611.689	9.48
612.024	9.44
612.359	9.4
612.694	9.41
613.028	9.4
613.363	9.67
613.697	9.63
614.032	9.89
614.366	9.32
614.7	9.85
615.035	9.7
615.369	9.73
615.703	10.01
616.037	10.09
616.371	9.75
616.705	10.06
617.039	9.78
617.373	10.06
617.707	10.11
618.041	10.14
618.375	10.3
618.709	10.04
619.042	10.05
619.376	10.32
619.71	10.27
620.043	9.88
620.377	10.04
620.71	10.16
621.043	10.27
621.377	10.03
621.71	10.21
622.043	10.14
622.376	10.13
622.709	10.67
623.043	10.13
623.376	10.17
623.709	10
624.041	10.69
624.374	10.7
624.707	10.52
625.04	10.63
625.373	10.49
625.705	10.37
626.038	10.7
626.37	10.72
626.703	10.63
627.035	10.35
627.368	10.62
627.7	10.69
628.032	10.73
628.365	11.24
628.697	10.81
629.029	10.62
629.361	10.79
629.693	10.88
630.025	10.6
630.357	10.76
630.689	10.88
631.021	11.18
631.353	11.02
631.684	11.23
632.016	11.16
632.348	11.29
632.679	11.12
633.011	11.04
633.342	11.1
633.674	11.33
634.005	11.32
634.336	10.79
634.668	11.16
634.999	11.41
635.33	11.47
635.661	11.16
635.992	11.51
636.323	11.6
636.654	11.57
636.985	11.61
637.316	11.56
637.647	11.8
637.977	11.38
638.308	11.15
638.639	11.57
638.969	11.75
639.3	11.62
639.63	11.74
639.961	11.92
640.291	11.77
640.622	11.57
640.952	11.85
641.282	11.61
641.612	12.21
641.943	11.96
642.273	12.34
642.603	12.02
642.933	11.81
643.263	11.48
643.592	12.07
643.922	12.16
644.252	12.56
644.582	11.78
644.911	12.42
645.241	12.51
645.571	12.46
645.9	12.19
646.23	12.5
646.559	12.21
646.888	12.6
647.218	12.24
647.547	12.6
647.876	12.41
648.205	12.48
648.534	12.29
648.863	12.76
649.192	12.72
649.521	12.28
649.85	12.65
650.179	12.31
650.508	13.01
650.837	12.88
651.165	13.1
651.494	13.13
651.822	12.78
652.151	12.67
652.479	13.29
652.808	12.73
653.136	13.08
653.465	13.16
653.793	13.08
654.121	13.18
654.449	12.98
654.777	13.38
655.105	13.14
655.433	13.01
655.761	13.12
656.089	13.4
656.417	13.56
656.745	12.82
657.073	13.33
657.4	13.59
657.728	13.88
658.056	13.21
658.383	13.48
658.711	14.23
659.038	13.49
659.365	13.54
659.693	13.54
660.02	13.67
660.347	13.86
660.674	12.94
661.001	13.44
661.329	13.33
661.656	13.86
661.982	13.86
662.309	13.83
662.636	13.67
662.963	13.81
663.29	14.02
663.616	14.08
663.943	14.07
664.27	13.94
664.596	14.08
664.923	14.22
665.249	13.82
665.576	13.94
665.902	14.12
666.228	14.24
666.554	14.46
666.881	13.82
667.207	14.43
667.533	14.33
667.859	13.58
668.185	14.81
668.511	14.36
668.837	14.55
669.162	14.6
669.488	14.16
669.814	14.53
670.139	14.82
670.465	14.71
670.791	14.1
671.116	14.12
671.442	14.38
671.767	14.65
672.092	14.35
672.418	14.89
672.743	14.44
673.068	14.48
673.393	14.45
673.718	15.16
674.043	15.65
674.368	14.96
674.693	14.74
675.018	14.97
675.343	14.9
675.667	15.28
675.992	14.66
676.317	14.66
676.641	15.14
676.966	14.62
677.29	14.67
677.615	15.8
677.939	15.73
678.264	15.26
678.588	16.12
678.912	16.21
679.236	15.58
679.56	15.58
679.885	15.98
680.209	15.51
680.532	15.22
680.856	15.61
681.18	15.72
681.504	15.79
681.828	15.24
682.152	15.68
682.475	15.55
682.799	15.56
683.122	15.86
683.446	15.74
683.769	15.83
684.093	15.72
684.416	15.84
684.739	15.51
685.062	15.51
685.386	15.86
685.709	16.01
686.032	16.54
686.355	15.69
686.678	16.23
687.001	16.66
687.324	16.1
687.646	16.31
