Data from 15NW-1_chest_Reflection__3__03.txt Node

Date: Fri Nov 11 14:21:55 CST 2022
User: ToomeyLab
Spectrometer: FLMS14357
Trigger mode: 0
Integration Time (sec): 1.000000E-2
Scans to average: 100
Electric dark correction enabled: true
Nonlinearity correction enabled: false
Boxcar width: 0
XAxis mode: Wavelengths
Number of Pixels in Spectrum: 2048
>>>>>Begin Spectral Data<<<<<
189.047	77.53
189.435	77.53
189.823	77.53
190.211	250.1
190.599	101.61
190.987	133.96
191.375	22.73
191.763	-585.32
192.151	91.75
192.538	7.68
192.926	36.64
193.314	-1385.09
193.702	-210.17
194.089	100.84
194.477	-200.11
194.864	62.29
195.252	111.78
195.639	-3295.21
196.027	112.53
196.414	130.5
196.801	-1093.94
197.189	-787.54
197.576	19.67
197.963	27.19
198.351	-11.87
198.738	-53.74
199.125	1.74
199.512	57.59
199.899	10.51
200.286	13.72
200.673	17.14
201.06	-23.81
201.447	38.11
201.833	5.85
202.22	52.15
202.607	50.51
202.994	22.8
203.38	20.63
203.767	3.65
204.154	1
204.54	10.02
204.927	36.51
205.313	12.65
205.699	16.18
206.086	19.64
206.472	7.37
206.858	16.33
207.245	8.84
207.631	29.16
208.017	13.82
208.403	32.94
208.789	-48.26
209.175	6.06
209.561	34.3
209.947	7.65
210.333	25.56
210.719	38.27
211.105	31.41
211.491	-6.19
211.876	41.03
212.262	-42.43
212.648	28.88
213.034	-0.43
213.419	9.22
213.805	22.67
214.19	-55.8
214.576	5.94
214.961	-4.47
215.346	-0.86
215.732	-13.45
216.117	24.37
216.502	10.92
216.888	11.48
217.273	9.96
217.658	2.18
218.043	1.74
218.428	2.9
218.813	30.64
219.198	-6.76
219.583	26.51
219.968	11.25
220.353	13.24
220.738	-5.06
221.122	-6.55
221.507	11.88
221.892	4.52
222.276	9.52
222.661	19.99
223.046	11.55
223.43	9.83
223.815	7.89
224.199	9.79
224.583	3.33
224.968	15.29
225.352	2.72
225.736	8.47
226.121	12.09
226.505	4.82
226.889	5.37
227.273	2.86
227.657	1.08
228.041	4.23
228.425	7.52
228.809	8.48
229.193	3.17
229.577	6.81
229.961	3.47
230.344	4.91
230.728	4.47
231.112	4.47
231.495	5
231.879	4.05
232.263	2.59
232.646	3.6
233.03	4.09
233.413	4.52
233.797	3.46
234.18	3.76
234.563	5
234.946	2.88
235.33	3.92
235.713	4.01
236.096	3.92
236.479	5.15
236.862	6.59
237.245	5.6
237.628	4.65
238.011	5
238.394	5.17
238.777	3.36
239.16	5.66
239.543	6.14
239.925	6.1
240.308	3.29
240.691	4.18
241.073	4.24
241.456	4.21
241.838	5.65
242.221	5.03
242.603	3.27
242.986	4.83
243.368	5
243.75	4.79
244.133	4.74
244.515	4.4
244.897	4.59
245.279	4.6
245.661	4.14
246.043	4.8
246.425	5.05
246.807	4.76
247.189	4.53
247.571	3.77
247.953	4.93
248.335	4.83
248.717	4.5
249.098	4.49
249.48	4.63
249.862	4.55
250.243	4.47
250.625	4.42
251.006	5.34
251.388	4.32
251.769	4.57
252.151	4.99
252.532	4.73
252.913	4.58
253.295	4.43
253.676	5.26
254.057	4.52
254.438	4.87
254.819	5.24
255.2	5.07
255.581	5.18
255.962	4.22
256.343	4.67
256.724	4.99
257.105	5.62
257.486	5.34
257.867	4.25
258.247	5.01
258.628	4.71
259.009	4.92
259.389	4.98
259.77	5.22
260.15	4.94
260.531	4.31
260.911	4.34
261.292	4.43
261.672	4.21
262.052	4.33
262.432	4.81
262.813	4.24
263.193	4.64
263.573	4.82
263.953	4.36
264.333	5.14
264.713	4.2
265.093	4.99
265.473	5.48
265.853	4.02
266.233	4.36
266.612	3.95
266.992	4.96
267.372	4.44
267.752	4.27
268.131	4.56
268.511	4.53
268.89	4.18
269.27	4.26
269.649	3.98
270.029	4.14
270.408	4.06
270.787	4.94
271.167	4.25
271.546	5.32
271.925	4.47
272.304	4.26
272.683	4.36
273.062	4.51
273.441	3.89
273.82	3.76
274.199	4.1
274.578	4.66
274.957	3.78
275.336	4.25
275.715	3.7
276.093	4.76
276.472	4.27
276.851	4.4
277.229	4.33
277.608	4.07
277.986	4.39
278.365	4.74
278.743	4.34
279.122	3.9
279.5	4.24
279.878	3.91
280.257	4.42
280.635	3.84
281.013	4.01
281.391	4.45
281.769	4.38
282.147	4.29
282.525	4.2
282.903	4.8
283.281	4.1
283.659	4.31
284.037	4.1
284.415	4.41
284.792	4.34
285.17	3.88
285.548	4.15
285.925	3.99
286.303	3.96
286.68	4.06
287.058	4.22
287.435	4.42
287.813	4.28
288.19	4.33
288.567	4.18
288.945	3.99
289.322	4.14
289.699	4.39
290.076	4.33
290.453	4.43
290.83	4.48
291.207	4.35
291.584	4.02
291.961	4.31
292.338	4.38
292.715	4.14
293.092	4.35
293.469	4.42
293.845	4.81
294.222	4.91
294.599	4.44
294.975	3.85
295.352	4.04
295.728	4.26
296.105	4.16
296.481	4.29
296.858	4.29
297.234	4.34
297.61	4.35
297.986	3.95
298.363	4.22
298.739	4.42
299.115	4.32
299.491	4.14
299.867	4.34
300.243	4.66
300.619	4.67
300.995	4.35
301.371	4.29
301.746	4.74
302.122	4.11
302.498	4.57
302.874	4.72
303.249	4.63
303.625	4.38
304	4.46
304.376	4.89
304.751	4.84
305.127	4.68
305.502	4.98
305.878	4.75
306.253	4.47
306.628	4.72
307.003	4.52
307.378	5.14
307.754	4.97
308.129	5.13
308.504	4.69
308.879	4.93
309.254	4.34
309.629	5.03
310.003	4.66
310.378	4.1
310.753	4.63
311.128	4.51
311.502	4.17
311.877	4.79
312.252	4.66
312.626	4.34
313.001	4.84
313.375	4.88
313.75	4.63
314.124	4.78
314.498	5.27
314.873	4.86
315.247	5.02
315.621	4.28
315.995	4.85
316.369	5.11
316.743	5.28
317.117	4.5
317.491	4.95
317.865	4.9
318.239	4.63
318.613	4.94
318.987	5.22
319.361	4.79
319.734	4.7
320.108	5.3
320.482	4.08
320.855	5.11
321.229	5.02
321.602	5.09
321.976	4.53
322.349	4.91
322.723	5.2
323.096	5.08
323.469	4.75
323.843	5.29
324.216	4.33
324.589	4.66
324.962	4.75
325.335	5.29
325.708	5.3
326.081	4.81
326.454	4.81
326.827	4.86
327.2	4.75
327.573	5.23
327.945	4.87
328.318	5.28
328.691	5.17
329.063	5.41
329.436	4.93
329.809	5.4
330.181	5.32
330.553	5.94
330.926	4.99
331.298	4.99
331.671	5.25
332.043	5.36
332.415	4.94
332.787	5.26
333.159	4.86
333.532	5.04
333.904	5.14
334.276	5.01
334.648	4.93
335.02	5.12
335.391	5.03
335.763	5.21
336.135	4.96
336.507	5.04
336.879	5.12
337.25	4.69
337.622	5.27
337.993	5.26
338.365	5.21
338.736	5.18
339.108	5.23
339.479	4.88
339.851	4.73
340.222	4.96
340.593	5.25
340.964	4.94
341.336	5.33
341.707	4.64
342.078	4.87
342.449	5.26
342.82	4.9
343.191	5.42
343.562	5.21
343.933	4.59
344.303	5.67
344.674	5.37
345.045	4.67
345.416	5.38
345.786	5.07
346.157	4.99
346.527	5.04
346.898	5.01
347.268	5
347.639	5.34
348.009	4.99
348.38	5.03
348.75	5.37
349.12	4.98
349.49	5.21
349.861	4.63
350.231	4.81
350.601	5.52
350.971	5.33
351.341	5.18
351.711	4.81
352.081	4.65
352.45	5.29
352.82	5.05
353.19	4.83
353.56	5.17
353.929	5.65
354.299	4.93
354.669	5.39
355.038	5.32
355.408	4.79
355.777	5.07
356.147	5.2
356.516	5.15
356.885	4.96
357.254	4.93
357.624	5.17
357.993	5.44
358.362	4.89
358.731	5.04
359.1	4.81
359.469	4.99
359.838	5.57
360.207	5.44
360.576	4.96
360.945	5.24
361.314	5.29
361.682	5.27
362.051	5.23
362.42	5.11
362.788	4.72
363.157	5.08
363.525	5.39
363.894	4.97
364.262	5.04
364.631	5.08
364.999	5.17
365.367	5.3
365.735	5.41
366.104	4.93
366.472	5.25
366.84	5.16
367.208	4.95
367.576	5.37
367.944	5.48
368.312	5.14
368.68	5.21
369.048	5.21
369.416	5.18
369.783	5.08
370.151	5.32
370.519	5.24
370.886	5.19
371.254	5.19
371.621	5.38
371.989	5.11
372.356	4.95
372.724	5.41
373.091	4.98
373.458	5
373.826	5.36
374.193	5.45
374.56	4.98
374.927	5.36
375.294	5.45
375.661	5.63
376.028	5.38
376.395	5.24
376.762	5.01
377.129	5.34
377.496	5.24
377.863	5.33
378.229	5.42
378.596	5.23
378.963	5.23
379.329	5.18
379.696	5.45
380.062	5.22
380.429	5.35
380.795	5.32
381.161	5.38
381.528	5.61
381.894	5.2
382.26	5.44
382.626	5.27
382.993	5.46
383.359	5.34
383.725	5.31
384.091	5.02
384.457	5.41
384.823	5.33
385.188	5.12
385.554	5.26
385.92	5.21
386.286	5.27
386.651	5.34
387.017	5.22
387.383	5.15
387.748	5.25
388.114	5.25
388.479	5.34
388.845	5.22
389.21	5.39
389.575	5.24
389.94	5.24
390.306	5.25
390.671	5.21
391.036	5.32
391.401	5.28
391.766	5.41
392.131	5.05
392.496	5.44
392.861	5.29
393.226	5.38
393.591	5.25
393.956	5.42
394.32	5.31
394.685	5.38
395.05	5.36
395.414	5.35
395.779	5.3
396.143	5.35
396.508	5.27
396.872	5.28
397.236	5.17
397.601	5.16
397.965	5.33
398.329	5.34
398.694	5.13
399.058	5.27
399.422	5.24
399.786	5.58
400.15	5.11
400.514	5.44
400.878	5.52
401.242	5.23
401.605	5.11
401.969	5.38
402.333	5.24
402.697	5.27
403.06	5.36
403.424	5.23
403.787	5.36
404.151	5.31
404.514	5.22
404.878	5.35
405.241	5.16
405.604	5.2
405.968	5.36
406.331	5.09
406.694	5.27
407.057	5.35
407.42	5.31
407.783	5.27
408.146	5.35
408.509	5.34
408.872	5.37
409.235	5.36
409.598	5.17
409.961	5.23
410.323	5.23
410.686	5.37
411.049	5.42
411.411	5.1
411.774	5.3
412.136	5.24
412.499	5.33
412.861	5.23
413.223	5.32
413.586	5.14
413.948	5.11
414.31	5.48
414.672	5.41
415.035	5.53
415.397	5.35
415.759	5.6
416.121	5.49
416.483	5.49
416.845	5.43
417.206	5.54
417.568	5.45
417.93	5.18
418.292	5.11
418.653	5.44
419.015	5.12
419.377	5.24
419.738	5.28
420.1	5.2
420.461	5.24
420.822	5.17
421.184	5.2
421.545	5.21
421.906	5.34
422.267	5.32
422.629	5.22
422.99	5.19
423.351	5.26
423.712	5.23
424.073	5.32
424.434	5.19
424.795	5.43
425.155	5.33
425.516	5.26
425.877	5.3
426.238	5.16
426.598	5.14
426.959	5.14
427.32	5.37
427.68	5.42
428.041	5.37
428.401	5.31
428.761	5.38
429.122	5.66
429.482	5.57
429.842	5.34
430.202	5.41
430.563	5.35
430.923	5.53
431.283	5.49
431.643	5.58
432.003	5.6
432.363	5.63
432.722	5.63
433.082	5.44
433.442	5.59
433.802	5.65
434.161	5.59
434.521	5.61
434.881	5.33
435.24	5.57
435.6	5.52
435.959	5.48
436.319	5.5
436.678	5.45
437.037	5.5
437.396	5.4
437.756	5.32
438.115	5.39
438.474	5.63
438.833	5.55
439.192	5.61
439.551	5.45
439.91	5.6
440.269	5.57
440.628	5.43
440.987	5.69
441.345	5.37
441.704	5.39
442.063	5.61
442.421	5.45
442.78	5.44
443.138	5.42
443.497	5.53
443.855	5.58
444.214	5.55
444.572	5.66
444.93	5.55
445.288	5.64
445.647	5.61
446.005	5.69
446.363	5.47
446.721	5.53
447.079	5.55
447.437	5.43
447.795	5.43
448.153	5.42
448.51	5.46
448.868	5.49
449.226	5.46
449.584	5.58
449.941	5.63
450.299	5.53
450.656	5.73
451.014	5.7
451.371	5.57
451.729	5.63
452.086	5.72
452.443	5.92
452.801	5.66
453.158	5.79
453.515	5.63
453.872	5.8
454.229	5.71
454.586	5.74
454.943	5.67
455.3	5.65
455.657	5.73
456.014	5.61
456.371	5.61
456.727	5.81
457.084	5.58
457.441	5.67
457.797	5.73
458.154	5.67
458.51	5.61
458.867	5.77
459.223	5.8
459.58	5.87
459.936	5.79
460.292	5.57
460.648	5.73
461.005	5.67
461.361	5.68
461.717	5.58
462.073	5.69
462.429	5.7
462.785	5.76
463.141	5.65
463.496	5.65
463.852	5.81
464.208	5.87
464.564	5.8
464.919	5.6
465.275	5.86
465.631	5.88
465.986	5.79
466.342	5.99
466.697	5.9
467.052	5.96
467.408	5.88
467.763	5.84
468.118	5.88
468.473	5.72
468.829	5.72
469.184	5.92
469.539	5.83
469.894	5.74
470.249	5.75
470.603	5.71
470.958	5.9
471.313	5.97
471.668	5.9
472.023	5.93
472.377	5.96
472.732	5.88
473.086	5.84
473.441	6.03
473.795	6
474.15	5.92
474.504	5.9
474.859	5.97
475.213	5.85
475.567	6.01
475.921	5.99
476.275	5.94
476.63	6.07
476.984	5.97
477.338	5.98
477.692	5.92
478.045	5.99
478.399	5.74
478.753	5.86
479.107	5.92
479.461	5.95
479.814	5.96
480.168	5.97
480.521	5.93
480.875	5.92
481.228	5.87
481.582	5.92
481.935	5.97
482.289	6.04
482.642	6.03
482.995	5.9
483.348	5.8
483.701	5.96
484.055	5.98
484.408	5.9
484.761	5.78
485.114	5.69
485.466	5.54
485.819	5.49
486.172	5.53
486.525	5.6
486.878	5.72
487.23	5.82
487.583	5.83
487.936	5.88
488.288	5.81
488.641	5.83
488.993	5.79
489.345	5.7
489.698	5.72
490.05	5.69
490.402	5.79
490.754	5.86
491.107	5.88
491.459	5.98
491.811	6.04
492.163	6
492.515	5.95
492.866	5.87
493.218	5.75
493.57	5.7
493.922	5.82
494.274	5.86
494.625	5.96
494.977	6
495.328	6.07
495.68	6.09
496.031	6.21
496.383	6.24
496.734	6.2
497.086	6.17
497.437	6.17
497.788	6.24
498.139	6.11
498.49	6.01
498.842	6.16
499.193	6.1
499.544	6.12
499.894	6.16
500.245	6.23
500.596	6.29
500.947	6.14
501.298	6.17
501.648	6.27
501.999	6.22
502.35	6.28
502.7	6.29
503.051	6.25
503.401	6.21
503.752	6.22
504.102	6.31
504.452	6.31
504.803	6.27
505.153	6.27
505.503	6.23
505.853	6.34
506.203	6.35
506.553	6.35
506.903	6.27
507.253	6.39
507.603	6.42
507.953	6.3
508.303	6.4
508.652	6.25
509.002	6.19
509.352	6.37
509.701	6.3
510.051	6.27
510.4	6.16
510.75	6.2
511.099	6.3
511.449	6.18
511.798	6.24
512.147	6.32
512.496	6.41
512.846	6.33
513.195	6.36
513.544	6.42
513.893	6.41
514.242	6.32
514.591	6.44
514.939	6.37
515.288	6.38
515.637	6.47
515.986	6.48
516.334	6.5
516.683	6.51
517.032	6.4
517.38	6.45
517.729	6.5
518.077	6.47
518.426	6.52
518.774	6.39
519.122	6.45
519.47	6.34
519.819	6.35
520.167	6.26
520.515	6.39
520.863	6.46
521.211	6.42
521.559	6.45
521.907	6.41
522.255	6.55
522.602	6.59
522.95	6.62
523.298	6.57
523.645	6.49
523.993	6.64
524.341	6.62
524.688	6.49
525.036	6.68
525.383	6.62
525.73	6.64
526.078	6.63
526.425	6.58
526.772	6.57
527.119	6.54
527.466	6.45
527.814	6.44
528.161	6.56
528.508	6.57
528.854	6.59
529.201	6.63
529.548	6.66
529.895	6.38
530.242	6.32
530.588	6.25
530.935	6.3
531.282	6.45
531.628	6.47
531.975	6.45
532.321	6.54
532.667	6.6
533.014	6.66
533.36	6.66
533.706	6.72
534.052	6.69
534.399	6.64
534.745	6.52
535.091	6.52
535.437	6.51
535.783	6.61
536.129	6.67
536.474	6.71
536.82	6.81
537.166	6.75
537.512	6.9
537.857	6.95
538.203	6.66
538.549	6.79
538.894	6.71
539.239	6.81
539.585	6.83
539.93	6.97
540.276	6.91
540.621	6.88
540.966	6.94
541.311	7.05
541.656	6.87
542.001	7.08
542.346	6.9
542.691	6.81
543.036	6.69
543.381	6.63
543.726	6.72
544.071	6.76
544.415	6.85
544.76	6.92
545.105	6.98
545.449	6.93
545.794	7.05
546.138	7.01
546.483	7.08
546.827	7.17
547.171	7.08
547.516	6.9
547.86	7.09
548.204	7.02
548.548	7.06
548.892	7.06
549.236	7.19
549.58	7.25
549.924	7.17
550.268	7.41
550.612	7.42
550.956	7.28
551.3	7.5
551.643	7.5
551.987	7.25
552.33	7.32
552.674	7.43
553.017	7.35
553.361	7.52
553.704	7.42
554.048	7.46
554.391	7.4
554.734	7.35
555.077	7.48
555.42	7.48
555.764	7.38
556.107	7.45
556.45	7.45
556.793	7.52
557.135	7.53
557.478	7.7
557.821	7.77
558.164	7.6
558.507	7.61
558.849	7.6
559.192	7.89
559.534	7.66
559.877	7.7
560.219	7.78
560.562	7.69
560.904	7.6
561.246	7.84
561.589	7.77
561.931	7.69
562.273	7.77
562.615	7.73
562.957	7.75
563.299	7.95
563.641	7.8
563.983	7.81
564.325	7.81
564.667	7.83
565.008	7.82
565.35	8.02
565.692	7.81
566.033	7.84
566.375	7.84
566.716	8.09
567.058	7.88
567.399	7.94
567.741	7.89
568.082	7.85
568.423	8.06
568.764	8.01
569.105	8.07
569.447	7.95
569.788	8.15
570.129	8.08
570.47	8.04
570.811	8.29
571.151	8.25
571.492	8.33
571.833	8.23
572.174	8.39
572.514	8.32
572.855	8.25
573.195	8.36
573.536	8.27
573.876	8.14
574.217	8.07
574.557	8.14
574.898	8.17
575.238	8.25
575.578	8.46
575.918	8.37
576.258	8.42
576.598	8.33
576.938	8.32
577.278	8.44
577.618	8.46
577.958	8.53
578.298	8.53
578.638	8.57
578.977	8.55
579.317	8.52
579.657	8.76
579.996	8.48
580.336	8.78
580.675	8.7
581.014	8.62
581.354	8.73
581.693	8.79
582.032	8.88
582.372	8.67
582.711	8.81
583.05	8.83
583.389	8.93
583.728	8.88
584.067	8.74
584.406	8.92
584.745	9.04
585.083	9.03
585.422	9.03
585.761	9.16
586.1	9.04
586.438	9.16
586.777	9.09
587.115	9.01
587.454	9.23
587.792	9.1
588.13	9.18
588.469	9.21
588.807	9.17
589.145	9.13
589.483	9.04
589.821	8.97
590.159	9.18
590.497	9.39
590.835	9.09
591.173	9.23
591.511	9.44
591.849	9.2
592.187	9.41
592.524	9.39
592.862	9.49
593.2	9.51
593.537	9.5
593.875	9.46
594.212	9.71
594.55	9.66
594.887	9.47
595.224	9.53
595.561	9.64
595.899	9.55
596.236	9.77
596.573	9.58
596.91	9.66
597.247	9.6
597.584	9.58
597.921	9.61
598.258	9.5
598.594	9.57
598.931	9.5
599.268	9.67
599.604	9.72
599.941	9.88
600.277	9.59
600.614	9.94
600.95	9.77
601.287	10.06
601.623	9.99
601.959	9.82
602.296	9.87
602.632	10.06
602.968	10.04
603.304	10.12
603.64	10.01
603.976	10.11
604.312	10.26
604.648	9.84
604.984	9.98
605.319	10.14
605.655	10.14
605.991	9.96
606.326	10.1
606.662	10.19
606.998	9.91
607.333	10.13
607.668	10.29
608.004	10.37
608.339	10.31
608.674	10.45
609.01	10.14
609.345	10.35
609.68	10.54
610.015	10.87
610.35	10.72
610.685	10.46
611.02	10.47
611.355	10.49
611.689	10.57
612.024	10.39
612.359	10.39
612.694	10.59
613.028	10.81
613.363	10.63
613.697	10.97
614.032	10.82
614.366	10.72
614.7	10.84
615.035	11.18
615.369	10.94
615.703	10.91
616.037	11.21
616.371	10.89
616.705	10.96
617.039	11.28
617.373	11.23
617.707	11.14
618.041	10.95
618.375	11.24
618.709	11.21
619.042	11.14
619.376	11.2
619.71	11.22
620.043	11.36
620.377	11.14
620.71	11.02
621.043	11.46
621.377	11.34
621.71	11.66
622.043	10.98
622.376	11.48
622.709	11.72
623.043	11.22
623.376	11.53
623.709	11.34
624.041	11.59
624.374	11.65
624.707	11.51
625.04	11.54
625.373	11.71
625.705	11.73
626.038	11.6
626.37	11.82
626.703	11.63
627.035	11.7
627.368	11.82
627.7	11.91
628.032	11.65
628.365	12.04
628.697	12
629.029	11.95
629.361	12.04
629.693	11.88
630.025	11.77
630.357	11.68
630.689	12.09
631.021	11.84
631.353	12.02
631.684	12.21
632.016	12.12
632.348	12.28
632.679	12.25
633.011	12.3
633.342	12.14
633.674	12.28
634.005	11.95
634.336	11.82
634.668	12.47
634.999	11.89
635.33	12.45
635.661	12.75
635.992	12.67
636.323	12.17
636.654	12.66
636.985	12.58
637.316	12.53
637.647	12.52
637.977	12.65
638.308	12.47
638.639	12.75
638.969	12.8
639.3	12.61
639.63	12.76
639.961	12.42
640.291	13.02
640.622	12.6
640.952	12.98
641.282	12.88
641.612	13.45
641.943	13.13
642.273	12.86
642.603	13.02
642.933	13.06
643.263	12.63
643.592	13.25
643.922	12.95
644.252	13.07
644.582	12.78
644.911	13.06
645.241	13.48
645.571	13.54
645.9	13.15
646.23	13.56
646.559	13.25
646.888	13.33
647.218	12.76
647.547	13.44
647.876	13.3
648.205	13.31
648.534	13.54
648.863	13.5
649.192	13.99
649.521	13.75
649.85	13.7
650.179	13.2
650.508	13.69
650.837	13.85
651.165	14.06
651.494	14.01
651.822	13.74
652.151	13.65
652.479	13.75
652.808	13.73
653.136	13.48
653.465	14.03
653.793	14.6
654.121	14.01
654.449	14.03
654.777	14.15
655.105	13.83
655.433	13.95
655.761	13.98
656.089	14.13
656.417	14.42
656.745	14.46
657.073	13.95
657.4	14.35
657.728	14.63
658.056	14.19
658.383	14.34
658.711	14.85
659.038	14.15
659.365	14.4
659.693	14.1
660.02	14.94
660.347	14.71
660.674	13.96
661.001	14.39
661.329	14.24
661.656	14.64
661.982	14.72
662.309	14.6
662.636	14.88
662.963	14.6
663.29	14.83
663.616	14.68
663.943	15.14
664.27	14.9
664.596	15.06
664.923	14.87
665.249	14.93
665.576	15.12
665.902	15.14
666.228	15.43
666.554	15.02
666.881	14.97
667.207	14.7
667.533	15.03
667.859	14.74
668.185	15.36
668.511	15.23
668.837	15.27
669.162	15.26
669.488	15.59
669.814	15.49
670.139	15.46
670.465	14.96
670.791	14.82
671.116	15.22
671.442	15.12
671.767	15.46
672.092	15.18
672.418	15.45
672.743	15.53
673.068	15.4
673.393	15.14
673.718	15.86
674.043	15.91
674.368	15.02
674.693	15.42
675.018	15.6
675.343	15.59
675.667	15.83
675.992	15.96
676.317	15.4
676.641	16.02
676.966	16.26
677.29	15.73
677.615	16.47
677.939	16.45
678.264	15.88
678.588	16.57
678.912	16.53
679.236	16.12
679.56	16.39
679.885	16.63
680.209	16.39
680.532	16.26
680.856	16.91
681.18	16.15
681.504	16.4
681.828	15.94
682.152	16.57
682.475	16.09
682.799	16.15
683.122	16.59
683.446	16.48
683.769	16.87
684.093	16.17
684.416	16.68
684.739	16.6
685.062	16.52
685.386	16.9
685.709	16.9
686.032	16.63
686.355	16.61
686.678	16.88
