Data from 15NW-1_chest_Reflection__0__00.txt Node

Date: Fri Nov 11 14:21:11 CST 2022
User: ToomeyLab
Spectrometer: FLMS14357
Trigger mode: 0
Integration Time (sec): 1.000000E-2
Scans to average: 100
Electric dark correction enabled: true
Nonlinearity correction enabled: false
Boxcar width: 0
XAxis mode: Wavelengths
Number of Pixels in Spectrum: 2048
>>>>>Begin Spectral Data<<<<<
189.047	0.28
189.435	0.28
189.823	0.28
190.211	-208.12
190.599	90.93
190.987	4.37
191.375	253.5
191.763	14.68
192.151	85.37
192.538	-60.75
192.926	-27.47
193.314	-851.59
193.702	-252.64
194.089	35.43
194.477	19.63
194.864	62.68
195.252	31.43
195.639	-1631.74
196.027	-30.25
196.414	150.25
196.801	-973.4
197.189	-2523.64
197.576	55.38
197.963	4.42
198.351	56.31
198.738	-68.92
199.125	-3.45
199.512	10.53
199.899	7.62
200.286	4.01
200.673	33.46
201.06	-38.37
201.447	33.39
201.833	36.39
202.22	-31.8
202.607	62.14
202.994	13.07
203.38	-10.09
203.767	-1.35
204.154	27.44
204.54	5.05
204.927	-9.6
205.313	15.39
205.699	1.09
206.086	5.54
206.472	6.79
206.858	2.88
207.245	33.58
207.631	28.73
208.017	2.54
208.403	19.96
208.789	-115.47
209.175	-2.52
209.561	19.81
209.947	-15.2
210.333	27.45
210.719	29.68
211.105	-9.73
211.491	-29.19
211.876	10.56
212.262	-8.62
212.648	-7.82
213.034	13.78
213.419	1.79
213.805	7.36
214.19	-29.47
214.576	12.07
214.961	1.85
215.346	-45.44
215.732	-9.03
216.117	27.03
216.502	29.29
216.888	16.46
217.273	-4.76
217.658	10.53
218.043	-17.34
218.428	-17.63
218.813	30.49
219.198	-11.05
219.583	11.32
219.968	-1.47
220.353	-0.56
220.738	12.14
221.122	-3.13
221.507	12.6
221.892	0.89
222.276	2.57
222.661	4.52
223.046	7.02
223.43	13.86
223.815	5.57
224.199	10.87
224.583	5.25
224.968	10.94
225.352	3.72
225.736	1.63
226.121	2.09
226.505	1.76
226.889	3.14
227.273	5.29
227.657	-1.73
228.041	3.08
228.425	2.21
228.809	6.57
229.193	-2.06
229.577	2.35
229.961	0.97
230.344	2.39
230.728	2.4
231.112	2.11
231.495	2.43
231.879	1.5
232.263	0.99
232.646	1.17
233.03	1.42
233.413	0.44
233.797	1.89
234.18	0.83
234.563	3.25
234.946	1.21
235.33	3.1
235.713	2.3
236.096	-0.01
236.479	1.6
236.862	3.61
237.245	2.72
237.628	1.26
238.011	2.12
238.394	2.65
238.777	2.67
239.16	2.66
239.543	1.29
239.925	3.28
240.308	2.03
240.691	2.57
241.073	1.5
241.456	1.6
241.838	2.35
242.221	2.24
242.603	1.34
242.986	2.04
243.368	1.74
243.75	2.25
244.133	1.81
244.515	2.4
244.897	2.14
245.279	2.08
245.661	2.34
246.043	2.13
246.425	2.48
246.807	1.98
247.189	1.8
247.571	1.61
247.953	2.48
248.335	2.15
248.717	2.27
249.098	2.26
249.48	2.2
249.862	1.99
250.243	1.94
250.625	1.99
251.006	2.63
251.388	2.46
251.769	2.58
252.151	2.26
252.532	2.4
252.913	2.09
253.295	2.47
253.676	2.34
254.057	1.84
254.438	2.01
254.819	1.98
255.2	1.93
255.581	2.69
255.962	2.51
256.343	2.61
256.724	2.39
257.105	2.75
257.486	3.22
257.867	1.6
258.247	1.24
258.628	1.12
259.009	2.61
259.389	2.31
259.77	2.82
260.15	2.47
260.531	1.94
260.911	2.2
261.292	2.2
261.672	2.02
262.052	2.05
262.432	2.6
262.813	2.15
263.193	1.91
263.573	2.2
263.953	2.28
264.333	2.2
264.713	1.35
265.093	1.97
265.473	3.03
265.853	2.05
266.233	1.54
266.612	1.21
266.992	1.63
267.372	2.38
267.752	2.08
268.131	2.45
268.511	2.17
268.89	2.31
269.27	2.2
269.649	1.9
270.029	1.76
270.408	2.23
270.787	2.98
271.167	1.71
271.546	2.53
271.925	2.79
272.304	2.46
272.683	2.3
273.062	2.13
273.441	2
273.82	1.83
274.199	2.23
274.578	2.31
274.957	1.67
275.336	2.23
275.715	2.4
276.093	2.74
276.472	2.21
276.851	2.39
277.229	1.87
277.608	2.11
277.986	2.36
278.365	2.18
278.743	2.47
279.122	1.76
279.5	1.96
279.878	1.98
280.257	2.23
280.635	1.78
281.013	2.3
281.391	1.98
281.769	2.65
282.147	1.77
282.525	1.85
282.903	2.35
283.281	1.94
283.659	2
284.037	1.96
284.415	2.02
284.792	2.25
285.17	2.04
285.548	2.05
285.925	2.09
286.303	2.18
286.68	1.99
287.058	2.49
287.435	2.33
287.813	2.25
288.19	2.06
288.567	1.97
288.945	1.56
289.322	2.37
289.699	2.11
290.076	2.2
290.453	1.58
290.83	2.51
291.207	2.4
291.584	2.27
291.961	1.96
292.338	2.04
292.715	2.35
293.092	1.6
293.469	2.34
293.845	2.57
294.222	2.53
294.599	2.81
294.975	2.04
295.352	2.34
295.728	2.23
296.105	2.24
296.481	2.02
296.858	2.82
297.234	2.68
297.61	2.26
297.986	2.08
298.363	2.24
298.739	2.42
299.115	2.26
299.491	2.64
299.867	2.33
300.243	2.26
300.619	2.41
300.995	2.29
301.371	2.42
301.746	2.4
302.122	2.47
302.498	2.26
302.874	2.24
303.249	2.49
303.625	2.1
304	2.37
304.376	2.51
304.751	2.87
305.127	2.91
305.502	2.2
305.878	2.85
306.253	2.88
306.628	2.78
307.003	2.64
307.378	3.08
307.754	2.72
308.129	2.86
308.504	2.63
308.879	2.51
309.254	1.81
309.629	2.58
310.003	2.57
310.378	2.22
310.753	2.49
311.128	3
311.502	2.24
311.877	2.72
312.252	2.29
312.626	2.52
313.001	2.94
313.375	2.87
313.75	2.72
314.124	2.79
314.498	3.04
314.873	3.22
315.247	2.67
315.621	2.56
315.995	2.51
316.369	3.2
316.743	2.98
317.117	3.05
317.491	3.01
317.865	2.41
318.239	2.73
318.613	2.62
318.987	3.03
319.361	2.92
319.734	3.13
320.108	3.14
320.482	2.47
320.855	2.96
321.229	2.71
321.602	3
321.976	2.54
322.349	3.46
322.723	3.06
323.096	3.33
323.469	2.96
323.843	3.38
324.216	2.84
324.589	3.22
324.962	2.91
325.335	3.21
325.708	3
326.081	2.6
326.454	3.24
326.827	3.11
327.2	2.38
327.573	3.39
327.945	2.83
328.318	3.17
328.691	3.18
329.063	3.2
329.436	2.56
329.809	2.94
330.181	3.17
330.553	2.75
330.926	2.64
331.298	2.98
331.671	3.02
332.043	3.44
332.415	3.05
332.787	3.41
333.159	3.18
333.532	2.81
333.904	2.83
334.276	3.15
334.648	2.69
335.02	3.38
335.391	3.54
335.763	2.93
336.135	2.84
336.507	3.16
336.879	3.15
337.25	2.82
337.622	3.41
337.993	2.98
338.365	3.04
338.736	3.08
339.108	3.15
339.479	3.38
339.851	3.06
340.222	2.79
340.593	3.36
340.964	2.91
341.336	2.87
341.707	2.8
342.078	2.54
342.449	3.27
342.82	3.31
343.191	3.24
343.562	3.16
343.933	2.72
344.303	3.67
344.674	3.04
345.045	3.3
345.416	2.97
345.786	3.02
346.157	2.89
346.527	3.05
346.898	2.95
347.268	3.28
347.639	3.43
348.009	3.04
348.38	3.04
348.75	3.71
349.12	3
349.49	3.31
349.861	3.09
350.231	2.98
350.601	3.82
350.971	3.3
351.341	3.3
351.711	3.38
352.081	3
352.45	3.44
352.82	3.26
353.19	3.05
353.56	3.42
353.929	3.49
354.299	3.16
354.669	3.24
355.038	2.99
355.408	3.04
355.777	3.26
356.147	3.16
356.516	3.17
356.885	3.07
357.254	3.21
357.624	3.2
357.993	3.48
358.362	3.32
358.731	3.28
359.1	3.14
359.469	3.28
359.838	3.47
360.207	3.25
360.576	3.38
360.945	3.27
361.314	3.34
361.682	3.3
362.051	3.06
362.42	3.14
362.788	3.14
363.157	3.17
363.525	3.44
363.894	3.33
364.262	3.24
364.631	3.01
364.999	3.22
365.367	3.37
365.735	3.65
366.104	3.18
366.472	3.3
366.84	3.23
367.208	3.34
367.576	3.31
367.944	3.6
368.312	3.4
368.68	3.52
369.048	3.35
369.416	3.09
369.783	3.25
370.151	3.3
370.519	3.76
370.886	3.16
371.254	3.37
371.621	3.3
371.989	3.17
372.356	2.99
372.724	3.64
373.091	3.55
373.458	3.21
373.826	3.24
374.193	3.45
374.56	3.28
374.927	3.29
375.294	3.63
375.661	3.68
376.028	3.38
376.395	3.51
376.762	3.31
377.129	3.61
377.496	3.35
377.863	3.47
378.229	3.46
378.596	3.42
378.963	3.16
379.329	3.27
379.696	3.33
380.062	3.45
380.429	3.21
380.795	3.4
381.161	3.63
381.528	3.32
381.894	3.35
382.26	3.46
382.626	3.62
382.993	3.43
383.359	3.49
383.725	3.55
384.091	3.45
384.457	3.35
384.823	3.41
385.188	3.26
385.554	3.35
385.92	3.4
386.286	3.35
386.651	3.28
387.017	3.41
387.383	3.41
387.748	3.42
388.114	3.51
388.479	3.45
388.845	3.4
389.21	3.4
389.575	3.51
389.94	3.46
390.306	3.48
390.671	3.19
391.036	3.52
391.401	3.21
391.766	3.61
392.131	3.16
392.496	3.35
392.861	3.53
393.226	3.31
393.591	3.32
393.956	3.64
394.32	3.72
394.685	3.69
395.05	3.69
395.414	3.66
395.779	3.34
396.143	3.51
396.508	3.51
396.872	3.51
397.236	3.27
397.601	3.54
397.965	3.74
398.329	3.52
398.694	3.26
399.058	3.48
399.422	3.49
399.786	3.4
400.15	3.34
400.514	3.54
400.878	3.8
401.242	3.63
401.605	3.57
401.969	3.7
402.333	3.39
402.697	3.29
403.06	3.58
403.424	3.28
403.787	3.55
404.151	3.48
404.514	3.49
404.878	3.59
405.241	3.49
405.604	3.44
405.968	3.76
406.331	3.41
406.694	3.37
407.057	3.59
407.42	3.55
407.783	3.47
408.146	3.58
408.509	3.53
408.872	3.64
409.235	3.45
409.598	3.51
409.961	3.71
410.323	3.48
410.686	3.62
411.049	3.73
411.411	3.41
411.774	3.45
412.136	3.65
412.499	3.68
412.861	3.48
413.223	3.56
413.586	3.44
413.948	3.46
414.31	3.48
414.672	3.6
415.035	3.57
415.397	3.72
415.759	3.67
416.121	3.46
416.483	3.56
416.845	3.63
417.206	3.68
417.568	3.55
417.93	3.53
418.292	3.53
418.653	3.57
419.015	3.42
419.377	3.64
419.738	3.64
420.1	3.55
420.461	3.48
420.822	3.54
421.184	3.5
421.545	3.44
421.906	3.5
422.267	3.61
422.629	3.56
422.99	3.41
423.351	3.46
423.712	3.55
424.073	3.56
424.434	3.49
424.795	3.62
425.155	3.6
425.516	3.58
425.877	3.59
426.238	3.5
426.598	3.55
426.959	3.67
427.32	3.64
427.68	3.59
428.041	3.79
428.401	3.66
428.761	3.7
429.122	3.8
429.482	3.89
429.842	3.64
430.202	3.8
430.563	3.74
430.923	3.71
431.283	3.85
431.643	3.83
432.003	3.94
432.363	3.92
432.722	3.91
433.082	3.84
433.442	3.94
433.802	3.87
434.161	3.8
434.521	3.91
434.881	3.75
435.24	3.87
435.6	3.7
435.959	3.78
436.319	3.73
436.678	3.7
437.037	3.76
437.396	3.76
437.756	3.89
438.115	3.64
438.474	3.89
438.833	3.9
439.192	3.97
439.551	3.74
439.91	3.72
440.269	3.9
440.628	3.83
440.987	3.95
441.345	3.92
441.704	3.87
442.063	3.87
442.421	3.72
442.78	3.79
443.138	3.75
443.497	3.76
443.855	3.85
444.214	3.82
444.572	4.04
444.93	3.84
445.288	4.08
445.647	3.83
446.005	4.03
446.363	3.98
446.721	3.82
447.079	3.81
447.437	3.74
447.795	3.81
448.153	3.87
448.51	3.84
448.868	3.89
449.226	3.82
449.584	3.93
449.941	3.89
450.299	3.94
450.656	4.01
451.014	4.08
451.371	3.96
451.729	3.93
452.086	3.83
452.443	4.15
452.801	3.98
453.158	3.99
453.515	4
453.872	4.03
454.229	4.04
454.586	4.06
454.943	4.03
455.3	3.89
455.657	4.01
456.014	3.99
456.371	4.01
456.727	4.14
457.084	4.03
457.441	4.08
457.797	4
458.154	3.99
458.51	4.01
458.867	4.19
459.223	4.02
459.58	4.19
459.936	4.01
460.292	4.11
460.648	4.16
461.005	4.21
461.361	4.14
461.717	4
462.073	4.13
462.429	4.19
462.785	3.97
463.141	4.12
463.496	4.22
463.852	4.12
464.208	4.14
464.564	4.22
464.919	4.1
465.275	4.15
465.631	4.24
465.986	4.1
466.342	4.22
466.697	4.28
467.052	4.15
467.408	4.22
467.763	4.24
468.118	4.13
468.473	4.28
468.829	4.22
469.184	4.32
469.539	4.41
469.894	4.23
470.249	4.22
470.603	4.22
470.958	4.24
471.313	4.22
471.668	4.47
472.023	4.3
472.377	4.32
472.732	4.35
473.086	4.25
473.441	4.18
473.795	4.32
474.15	4.34
474.504	4.4
474.859	4.37
475.213	4.33
475.567	4.38
475.921	4.42
476.275	4.24
476.63	4.34
476.984	4.35
477.338	4.34
477.692	4.53
478.045	4.2
478.399	4.31
478.753	4.42
479.107	4.33
479.461	4.35
479.814	4.35
480.168	4.43
480.521	4.42
480.875	4.41
481.228	4.48
481.582	4.39
481.935	4.41
482.289	4.47
482.642	4.45
482.995	4.44
483.348	4.33
483.701	4.42
484.055	4.41
484.408	4.35
484.761	4.29
485.114	4.25
485.466	4.17
485.819	4.14
486.172	4.15
486.525	4.17
486.878	4.26
487.23	4.28
487.583	4.39
487.936	4.37
488.288	4.38
488.641	4.37
488.993	4.3
489.345	4.25
489.698	4.28
490.05	4.32
490.402	4.26
490.754	4.44
491.107	4.42
491.459	4.44
491.811	4.56
492.163	4.52
492.515	4.52
492.866	4.45
493.218	4.34
493.57	4.31
493.922	4.38
494.274	4.41
494.625	4.39
494.977	4.41
495.328	4.51
495.68	4.54
496.031	4.62
496.383	4.73
496.734	4.81
497.086	4.73
497.437	4.63
497.788	4.68
498.139	4.62
498.49	4.66
498.842	4.58
499.193	4.65
499.544	4.71
499.894	4.78
500.245	4.68
500.596	4.77
500.947	4.7
501.298	4.71
501.648	4.82
501.999	4.75
502.35	4.78
502.7	4.89
503.051	4.76
503.401	4.77
503.752	4.72
504.102	4.72
504.452	4.86
504.803	4.85
505.153	4.79
505.503	4.77
505.853	4.9
506.203	4.88
506.553	4.91
506.903	4.83
507.253	4.84
507.603	4.93
507.953	4.88
508.303	4.85
508.652	4.83
509.002	4.85
509.352	4.91
509.701	4.84
510.051	4.9
510.4	4.89
510.75	4.92
511.099	4.87
511.449	4.88
511.798	4.89
512.147	4.91
512.496	4.98
512.846	4.99
513.195	4.83
513.544	5.01
513.893	4.95
514.242	4.99
514.591	4.99
514.939	4.96
515.288	5.12
515.637	4.91
515.986	5.08
516.334	4.96
516.683	5.15
517.032	5.11
517.38	5.06
517.729	5.23
518.077	4.99
518.426	5.15
518.774	4.97
519.122	5.12
519.47	5.03
519.819	5.07
520.167	4.99
520.515	5.07
520.863	5.06
521.211	5.07
521.559	5.07
521.907	5.12
522.255	5.18
522.602	5.22
522.95	5.23
523.298	5.14
523.645	5.24
523.993	5.33
524.341	5.35
524.688	5.34
525.036	5.39
525.383	5.23
525.73	5.26
526.078	5.27
526.425	5.36
526.772	5.28
527.119	5.22
527.466	5.23
527.814	5.15
528.161	5.19
528.508	5.21
528.854	5.22
529.201	5.34
529.548	5.29
529.895	5.15
530.242	5.12
530.588	5.11
530.935	5.07
531.282	5.17
531.628	5.1
531.975	5.18
532.321	5.23
532.667	5.27
533.014	5.38
533.36	5.36
533.706	5.43
534.052	5.4
534.399	5.35
534.745	5.35
535.091	5.32
535.437	5.33
535.783	5.29
536.129	5.39
536.474	5.43
536.82	5.44
537.166	5.46
537.512	5.57
537.857	5.66
538.203	5.59
538.549	5.49
538.894	5.53
539.239	5.55
539.585	5.48
539.93	5.64
540.276	5.61
540.621	5.75
540.966	5.81
541.311	5.73
541.656	5.65
542.001	5.7
542.346	5.81
542.691	5.57
543.036	5.58
543.381	5.53
543.726	5.54
544.071	5.57
544.415	5.58
544.76	5.68
545.105	5.74
545.449	5.81
545.794	5.76
546.138	5.82
546.483	5.84
546.827	5.81
547.171	5.76
547.516	5.74
547.86	5.8
548.204	5.88
548.548	5.87
548.892	5.94
549.236	6.01
549.58	6
549.924	5.97
550.268	6.13
550.612	6.01
550.956	6.15
551.3	6.13
551.643	6.28
551.987	6
552.33	6.05
552.674	6.21
553.017	6.19
553.361	6.28
553.704	6.32
554.048	6.19
554.391	6.25
554.734	6.08
555.077	6.2
555.42	6.24
555.764	6.26
556.107	6.29
556.45	6.32
556.793	6.33
557.135	6.32
557.478	6.33
557.821	6.37
558.164	6.66
558.507	6.4
558.849	6.39
559.192	6.5
559.534	6.48
559.877	6.66
560.219	6.54
560.562	6.5
560.904	6.5
561.246	6.67
561.589	6.66
561.931	6.62
562.273	6.59
562.615	6.55
562.957	6.63
563.299	6.81
563.641	6.6
563.983	6.66
564.325	6.59
564.667	6.69
565.008	6.69
565.35	6.71
565.692	6.71
566.033	6.77
566.375	6.75
566.716	6.66
567.058	6.73
567.399	6.81
567.741	6.82
568.082	6.78
568.423	6.8
568.764	6.83
569.105	6.81
569.447	6.69
569.788	6.88
570.129	6.81
570.47	6.76
570.811	6.9
571.151	7.11
571.492	6.97
571.833	7.02
572.174	7.14
572.514	7.17
572.855	7.03
573.195	7.1
573.536	7.15
573.876	7.05
574.217	6.91
574.557	6.96
574.898	7.15
575.238	7.13
575.578	7.2
575.918	7.24
576.258	7.32
576.598	7.29
576.938	7.11
577.278	7.34
577.618	7.31
577.958	7.27
578.298	7.49
578.638	7.43
578.977	7.31
579.317	7.24
579.657	7.48
579.996	7.44
580.336	7.51
580.675	7.51
581.014	7.68
581.354	7.49
581.693	7.44
582.032	7.67
582.372	7.68
582.711	7.58
583.05	7.61
583.389	7.65
583.728	7.63
584.067	7.62
584.406	7.71
584.745	7.87
585.083	7.78
585.422	7.81
585.761	7.95
586.1	7.67
586.438	7.7
586.777	7.75
587.115	7.98
587.454	8.03
587.792	7.88
588.13	8.06
588.469	8
588.807	8.09
589.145	7.96
589.483	8.09
589.821	7.92
590.159	8
590.497	8.15
590.835	8.06
591.173	8.13
591.511	8.19
591.849	8.03
592.187	8.13
592.524	8.26
592.862	8.28
593.2	8.41
593.537	8.04
593.875	8.39
594.212	8.08
594.55	8.4
594.887	8.4
595.224	8.32
595.561	8.43
595.899	8.37
596.236	8.29
596.573	8.2
596.91	8.34
597.247	8.27
597.584	8.36
597.921	8.47
598.258	8.49
598.594	8.53
598.931	8.42
599.268	8.49
599.604	8.76
599.941	8.54
600.277	8.29
600.614	8.64
600.95	8.66
601.287	8.72
601.623	8.51
601.959	8.45
602.296	8.61
602.632	8.8
602.968	8.89
603.304	8.76
603.64	8.78
603.976	9.07
604.312	9.02
604.648	8.75
604.984	8.94
605.319	8.79
605.655	8.97
605.991	8.88
606.326	8.82
606.662	8.86
606.998	9
607.333	8.93
607.668	8.96
608.004	9.17
608.339	9.2
608.674	9.16
609.01	9.15
609.345	9.23
609.68	9.42
610.015	9.32
610.35	9.11
610.685	9.44
611.02	9.35
611.355	9.02
611.689	9.3
612.024	9.16
612.359	9.14
612.694	9.26
613.028	9.37
613.363	9.56
613.697	9.49
614.032	9.66
614.366	9.37
614.7	9.58
615.035	9.77
615.369	9.73
615.703	9.74
616.037	9.66
616.371	9.42
616.705	9.72
617.039	9.73
617.373	9.92
617.707	10.07
618.041	9.5
618.375	9.82
618.709	9.66
619.042	9.86
619.376	9.79
619.71	9.7
620.043	9.98
620.377	9.82
620.71	9.66
621.043	10.11
621.377	9.73
621.71	10.11
622.043	9.96
622.376	9.88
622.709	10.3
623.043	9.69
623.376	10.23
623.709	9.96
624.041	10.14
624.374	10.38
624.707	10.63
625.04	10.19
625.373	10.29
625.705	10.08
626.038	10.28
626.37	10.43
626.703	10.74
627.035	10.26
627.368	10.65
627.7	10.28
628.032	10.33
628.365	10.89
628.697	10.68
629.029	10.32
629.361	10.37
629.693	10.54
630.025	10.34
630.357	10.27
630.689	10.79
631.021	10.27
631.353	10.71
631.684	10.82
632.016	10.8
632.348	10.81
632.679	10.83
633.011	10.69
633.342	10.65
633.674	11.08
634.005	10.79
634.336	10.75
634.668	10.59
634.999	10.75
635.33	10.97
635.661	10.97
635.992	11.22
636.323	10.96
636.654	11.26
636.985	11.49
637.316	11.27
637.647	11.06
637.977	11.11
638.308	11.02
638.639	11.39
638.969	11.4
639.3	11.08
639.63	11.8
639.961	11.3
640.291	11.36
640.622	11.48
640.952	11.36
641.282	11.46
641.612	11.96
641.943	11.58
642.273	11.83
642.603	11.87
642.933	11.55
643.263	11.3
643.592	12
643.922	11.75
644.252	11.53
644.582	11.87
644.911	11.78
645.241	12.04
645.571	11.83
645.9	11.64
646.23	12.22
646.559	11.95
646.888	11.93
647.218	11.53
647.547	12.11
647.876	12.04
648.205	12.18
648.534	11.72
648.863	12.06
649.192	12.07
649.521	11.91
649.85	11.81
650.179	11.96
650.508	12.38
650.837	12.07
651.165	12.49
651.494	12.74
651.822	12.16
652.151	12.05
652.479	12.51
652.808	12.38
653.136	12.39
653.465	12.42
653.793	12.93
654.121	12.87
654.449	12.32
654.777	12.66
655.105	12.6
655.433	12.04
655.761	12
656.089	12.79
656.417	12.78
656.745	12.68
657.073	12.3
657.4	12.74
657.728	13.23
658.056	12.49
658.383	13.02
658.711	12.81
659.038	12.93
659.365	12.7
659.693	12.57
660.02	13.32
660.347	12.81
660.674	12.52
661.001	13.29
661.329	12.7
661.656	12.94
661.982	12.97
662.309	13
662.636	12.81
662.963	13.23
663.29	13.22
663.616	12.99
663.943	13.15
664.27	13.11
664.596	13.57
664.923	13.46
665.249	13.18
665.576	13.26
665.902	13.11
666.228	13.42
666.554	13.38
666.881	13.52
667.207	13.14
667.533	13.32
667.859	13.25
668.185	13.18
668.511	13.24
668.837	13.18
669.162	13.25
669.488	13.57
669.814	13.35
670.139	13.61
670.465	13.82
670.791	13.02
671.116	13.35
671.442	13.64
671.767	13.61
672.092	13.3
672.418	13.4
672.743	13.5
673.068	13.19
673.393	13.59
673.718	13.76
674.043	14.25
674.368	14.3
674.693	14.29
675.018	14.26
675.343	14.81
675.667	14.19
675.992	14.3
676.317	13.96
676.641	13.74
676.966	14.02
677.29	14.1
677.615	14.49
677.939	14.43
678.264	14.56
678.588	14.67
678.912	14.65
679.236	14.31
679.56	14.69
679.885	14.53
680.209	14.04
680.532	14.14
680.856	14.97
681.18	14.73
681.504	14.34
681.828	14.78
682.152	15.19
682.475	14.6
682.799	14.57
683.122	14.94
683.446	14.74
683.769	15.19
684.093	14.89
684.416	14.86
684.739	14.68
685.062	14.47
685.386	14.9
685.709	15.18
686.032	15.18
686.355	14.83
686.678	15.47
687.001	15.23
687.324	15.03
687.646	14.76
687.969	14.83
688.292	15.57
