Data from 2017-1_crown_Reflection__4__09.txt Node

Date: Fri Oct 07 15:03:41 CDT 2022
User: ToomeyLab
Spectrometer: FLMS14357
Trigger mode: 0
Integration Time (sec): 1.000000E-2
Scans to average: 100
Electric dark correction enabled: true
Nonlinearity correction enabled: false
Boxcar width: 0
XAxis mode: Wavelengths
Number of Pixels in Spectrum: 2048
>>>>>Begin Spectral Data<<<<<
189.047	51.54
189.435	51.54
189.823	51.54
190.211	-166.81
190.599	-736.28
190.987	97.61
191.375	-121.85
191.763	371.97
192.151	-176.13
192.538	300.4
192.926	270.68
193.314	-172.52
193.702	213.2
194.089	-378.46
194.477	666.07
194.864	31.29
195.252	15.95
195.639	164.55
196.027	59.52
196.414	151.52
196.801	-26.3
197.189	77.04
197.576	-3.12
197.963	350.23
198.351	32.61
198.738	-18.1
199.125	29.31
199.512	6.64
199.899	-38.86
200.286	19.75
200.673	-26.79
201.06	11.65
201.447	34.3
201.833	39.53
202.22	0.96
202.607	13.93
202.994	21.85
203.38	2.52
203.767	20.79
204.154	-13.87
204.54	47.59
204.927	50.09
205.313	-66.37
205.699	32.04
206.086	-32.64
206.472	28.1
206.858	32.23
207.245	-18.69
207.631	-25.98
208.017	-30.3
208.403	31.91
208.789	-4.06
209.175	-20.12
209.561	24.98
209.947	7.77
210.333	38.3
210.719	23.66
211.105	15.05
211.491	43.78
211.876	12.31
212.262	7.2
212.648	26.76
213.034	-18.41
213.419	23.2
213.805	19.42
214.19	1.64
214.576	12.95
214.961	17.02
215.346	5.35
215.732	-8.59
216.117	18.51
216.502	32.39
216.888	8.72
217.273	4.84
217.658	12.91
218.043	3.28
218.428	18.56
218.813	18.37
219.198	12.79
219.583	31.31
219.968	21.86
220.353	-0.51
220.738	16.22
221.122	-5.17
221.507	-5.57
221.892	-14.45
222.276	2.31
222.661	22.02
223.046	7.34
223.43	12.47
223.815	9.16
224.199	15.2
224.583	12.01
224.968	6.59
225.352	0.52
225.736	3.2
226.121	11.6
226.505	11.16
226.889	1.86
227.273	8.65
227.657	1.81
228.041	6.19
228.425	6.41
228.809	0.42
229.193	4.57
229.577	3.47
229.961	4.9
230.344	4.28
230.728	5.07
231.112	4.75
231.495	5.13
231.879	3.8
232.263	4.74
232.646	4.57
233.03	4.64
233.413	4.82
233.797	6.35
234.18	3.23
234.563	5.76
234.946	6.05
235.33	3.77
235.713	4.01
236.096	5.04
236.479	4.69
236.862	4.42
237.245	5.2
237.628	4.12
238.011	6.42
238.394	5.01
238.777	4.35
239.16	5.87
239.543	2.53
239.925	4.58
240.308	5.57
240.691	5.1
241.073	4.3
241.456	5.67
241.838	4
242.221	5.55
242.603	4.75
242.986	4.76
243.368	3.99
243.75	4.51
244.133	4.42
244.515	4.57
244.897	4.64
245.279	4.42
245.661	4.94
246.043	3.95
246.425	5.35
246.807	3.47
247.189	4.71
247.571	4.58
247.953	4.03
248.335	4.49
248.717	4.17
249.098	4.1
249.48	4.29
249.862	4.54
250.243	4.59
250.625	4.59
251.006	4.14
251.388	4.71
251.769	5.17
252.151	4.79
252.532	5.08
252.913	3.08
253.295	4.6
253.676	4.31
254.057	4.32
254.438	3.99
254.819	3.98
255.2	4.64
255.581	3.79
255.962	4.15
256.343	4.17
256.724	4.79
257.105	4.04
257.486	4.73
257.867	3.85
258.247	4.26
258.628	3.95
259.009	4.84
259.389	4.72
259.77	4.19
260.15	3.55
260.531	4.19
260.911	4.02
261.292	4.13
261.672	4.23
262.052	4.18
262.432	3.98
262.813	4.24
263.193	4.32
263.573	4.39
263.953	4.11
264.333	3.66
264.713	3.95
265.093	4.09
265.473	4.59
265.853	3.81
266.233	4.51
266.612	4.83
266.992	4.22
267.372	3.97
267.752	4.03
268.131	3.91
268.511	3.74
268.89	3.91
269.27	3.83
269.649	4.01
270.029	4.31
270.408	3.74
270.787	4.54
271.167	4.77
271.546	4.2
271.925	3.86
272.304	4.02
272.683	3.85
273.062	4.17
273.441	4.01
273.82	3.95
274.199	3.81
274.578	3.81
274.957	4.11
275.336	3.92
275.715	3.85
276.093	4.24
276.472	3.81
276.851	3.58
277.229	3.6
277.608	4.22
277.986	4.25
278.365	4.39
278.743	4.16
279.122	4.12
279.5	3.7
279.878	3.88
280.257	4.33
280.635	4.55
281.013	3.94
281.391	3.94
281.769	4.25
282.147	4.03
282.525	3.53
282.903	3.9
283.281	3.34
283.659	3.87
284.037	3.98
284.415	4.56
284.792	4
285.17	3.82
285.548	3.01
285.925	4.08
286.303	3.54
286.68	3.32
287.058	3.5
287.435	3.96
287.813	4.15
288.19	4.12
288.567	3.93
288.945	3.84
289.322	3.7
289.699	4.24
290.076	4.14
290.453	4.33
290.83	3.89
291.207	3.82
291.584	3.75
291.961	3.56
292.338	3.64
292.715	4.16
293.092	4.1
293.469	4.33
293.845	4.62
294.222	3.76
294.599	3.9
294.975	2.94
295.352	3.82
295.728	4.1
296.105	4.01
296.481	3.35
296.858	3.98
297.234	3.59
297.61	3.71
297.986	3.44
298.363	3.74
298.739	3.71
299.115	3.46
299.491	3.6
299.867	3.39
300.243	3.69
300.619	3.95
300.995	3.44
301.371	3.41
301.746	3.97
302.122	3.71
302.498	3.72
302.874	3.59
303.249	3.71
303.625	3.42
304	3.85
304.376	3.61
304.751	3.9
305.127	3.51
305.502	3.57
305.878	3.4
306.253	4.14
306.628	4.05
307.003	3.84
307.378	4.31
307.754	3.15
308.129	3.79
308.504	3
308.879	3.57
309.254	3.36
309.629	3.71
310.003	3.18
310.378	3.68
310.753	3.37
311.128	3.73
311.502	3.76
311.877	3.67
312.252	3.55
312.626	3.55
313.001	3.31
313.375	3.6
313.75	3.74
314.124	3.57
314.498	3.58
314.873	3.43
315.247	3.4
315.621	3.83
315.995	3.52
316.369	3.29
316.743	3.18
317.117	3.7
317.491	3.8
317.865	3.64
318.239	3.7
318.613	3.69
318.987	3.99
319.361	3.4
319.734	2.94
320.108	3.05
320.482	3.82
320.855	3.91
321.229	3.28
321.602	3.78
321.976	3.15
322.349	3.95
322.723	3.28
323.096	3.36
323.469	4.06
323.843	3.83
324.216	3.5
324.589	4.1
324.962	4.12
325.335	3.61
325.708	3.31
326.081	3.44
326.454	3.74
326.827	3.38
327.2	3.53
327.573	4.19
327.945	3.63
328.318	3.48
328.691	3.67
329.063	3.72
329.436	4.13
329.809	3.72
330.181	4.04
330.553	4.01
330.926	3.34
331.298	3.41
331.671	2.86
332.043	3.62
332.415	3.23
332.787	3.74
333.159	3.87
333.532	3.45
333.904	3.92
334.276	3
334.648	3.39
335.02	3.28
335.391	3.54
335.763	4.34
336.135	4.06
336.507	4.1
336.879	3.66
337.25	3.64
337.622	3.5
337.993	3.73
338.365	3.72
338.736	3.3
339.108	3.61
339.479	3.38
339.851	3.28
340.222	3.84
340.593	2.85
340.964	4.08
341.336	3.39
341.707	3.64
342.078	4.04
342.449	3.73
342.82	3.44
343.191	3.46
343.562	3.58
343.933	3.91
344.303	3.7
344.674	3.73
345.045	3.6
345.416	3.97
345.786	3.79
346.157	3.92
346.527	3.68
346.898	3.77
347.268	3.38
347.639	3.18
348.009	3.84
348.38	3.52
348.75	4.08
349.12	3.9
349.49	2.97
349.861	3.43
350.231	3.67
350.601	3.57
350.971	3.52
351.341	3.24
351.711	3.54
352.081	3.31
352.45	3.41
352.82	3.9
353.19	3.89
353.56	3.31
353.929	3.26
354.299	3.92
354.669	3.65
355.038	3.61
355.408	3.52
355.777	3.66
356.147	3.7
356.516	3.89
356.885	3.86
357.254	3.63
357.624	3.63
357.993	3.4
358.362	3.57
358.731	3.64
359.1	3.73
359.469	3.98
359.838	3.47
360.207	3.64
360.576	3.31
360.945	3.87
361.314	3.38
361.682	3.52
362.051	3.82
362.42	3.61
362.788	3.39
363.157	3.41
363.525	3.4
363.894	3.69
364.262	3.46
364.631	3.52
364.999	3.51
365.367	3.57
365.735	3.82
366.104	3.43
366.472	3.6
366.84	3.41
367.208	3.35
367.576	3.26
367.944	3.52
368.312	3.42
368.68	3.69
369.048	3.61
369.416	3.76
369.783	3.67
370.151	3.8
370.519	3.79
370.886	3.5
371.254	3.6
371.621	3.49
371.989	3.5
372.356	3.59
372.724	3.52
373.091	3.71
373.458	3.66
373.826	3.29
374.193	3.77
374.56	3.92
374.927	3.74
375.294	3.49
375.661	3.47
376.028	3.58
376.395	3.79
376.762	3.73
377.129	3.63
377.496	3.48
377.863	4.21
378.229	3.83
378.596	3.62
378.963	3.56
379.329	3.47
379.696	3.43
380.062	3.82
380.429	3.68
380.795	3.68
381.161	3.61
381.528	3.65
381.894	4.06
382.26	3.51
382.626	3.62
382.993	3.9
383.359	3.61
383.725	3.65
384.091	3.8
384.457	3.65
384.823	3.66
385.188	3.75
385.554	3.62
385.92	3.94
386.286	3.76
386.651	3.55
387.017	3.62
387.383	3.68
387.748	3.64
388.114	3.7
388.479	3.8
388.845	3.69
389.21	3.85
389.575	3.71
389.94	3.75
390.306	3.65
390.671	4.03
391.036	3.78
391.401	3.88
391.766	3.62
392.131	3.6
392.496	3.49
392.861	3.55
393.226	3.89
393.591	3.57
393.956	3.74
394.32	3.66
394.685	3.72
395.05	3.3
395.414	3.5
395.779	3.53
396.143	3.77
396.508	3.57
396.872	3.56
397.236	3.78
397.601	3.62
397.965	3.66
398.329	3.6
398.694	3.91
399.058	3.55
399.422	4.03
399.786	3.82
400.15	3.81
400.514	3.82
400.878	3.6
401.242	3.6
401.605	3.62
401.969	3.65
402.333	3.76
402.697	3.77
403.06	4.03
403.424	3.8
403.787	4.1
404.151	3.87
404.514	3.63
404.878	3.65
405.241	3.53
405.604	3.83
405.968	3.76
406.331	3.58
406.694	3.64
407.057	3.76
407.42	3.64
407.783	3.68
408.146	3.86
408.509	3.67
408.872	3.79
409.235	3.8
409.598	3.93
409.961	3.82
410.323	3.87
410.686	3.75
411.049	3.79
411.411	3.99
411.774	3.86
412.136	3.71
412.499	3.96
412.861	3.81
413.223	3.86
413.586	3.76
413.948	3.75
414.31	3.76
414.672	3.91
415.035	3.78
415.397	4.01
415.759	3.63
416.121	3.76
416.483	3.96
416.845	3.68
417.206	3.82
417.568	3.87
417.93	3.54
418.292	3.82
418.653	3.8
419.015	3.86
419.377	3.76
419.738	3.73
420.1	3.77
420.461	3.92
420.822	3.76
421.184	3.68
421.545	3.76
421.906	3.74
422.267	3.63
422.629	3.65
422.99	3.68
423.351	3.71
423.712	3.78
424.073	3.87
424.434	3.7
424.795	3.6
425.155	3.74
425.516	3.77
425.877	3.75
426.238	3.74
426.598	3.79
426.959	3.7
427.32	3.82
427.68	3.75
428.041	3.81
428.401	3.84
428.761	3.92
429.122	3.88
429.482	3.85
429.842	3.77
430.202	3.79
430.563	3.84
430.923	3.95
431.283	3.64
431.643	4.06
432.003	3.84
432.363	4.09
432.722	3.97
433.082	3.63
433.442	3.89
433.802	4.11
434.161	3.97
434.521	3.99
434.881	3.81
435.24	3.85
435.6	3.77
435.959	3.76
436.319	3.79
436.678	3.82
437.037	3.93
437.396	3.94
437.756	3.83
438.115	3.98
438.474	3.98
438.833	4
439.192	3.85
439.551	3.79
439.91	3.82
440.269	3.84
440.628	3.78
440.987	3.91
441.345	3.91
441.704	3.83
442.063	3.87
442.421	3.81
442.78	3.78
443.138	3.89
443.497	3.97
443.855	3.88
444.214	4.09
444.572	3.91
444.93	3.96
445.288	3.8
445.647	4
446.005	3.97
446.363	3.93
446.721	3.8
447.079	3.94
447.437	3.99
447.795	3.89
448.153	3.81
448.51	3.91
448.868	3.82
449.226	4
449.584	3.84
449.941	3.97
450.299	3.88
450.656	3.96
451.014	3.94
451.371	3.86
451.729	3.9
452.086	3.96
452.443	4.13
452.801	4.04
453.158	4.01
453.515	3.9
453.872	3.92
454.229	3.92
454.586	3.85
454.943	4.01
455.3	3.97
455.657	4.15
456.014	4.1
456.371	4
456.727	4.09
457.084	4.02
457.441	4.2
457.797	4.13
458.154	3.97
458.51	4.23
458.867	3.98
459.223	4.02
459.58	4.11
459.936	4.07
460.292	3.98
460.648	3.92
461.005	3.97
461.361	3.8
461.717	3.92
462.073	3.95
462.429	3.91
462.785	4.06
463.141	4.04
463.496	4.1
463.852	4.18
464.208	4.03
464.564	4.18
464.919	3.99
465.275	4.13
465.631	4.22
465.986	4.21
466.342	4.24
466.697	4.22
467.052	4.04
467.408	3.95
467.763	4.05
468.118	3.94
468.473	4.12
468.829	4.14
469.184	4.15
469.539	4.21
469.894	4.07
470.249	4.12
470.603	4.11
470.958	4.06
471.313	4.02
471.668	4.12
472.023	4.1
472.377	4.18
472.732	4.21
473.086	4.16
473.441	4.09
473.795	4.15
474.15	3.96
474.504	4.31
474.859	4.08
475.213	4.14
475.567	4.14
475.921	4.14
476.275	4.27
476.63	4.18
476.984	4.21
477.338	4.18
477.692	4.29
478.045	4.19
478.399	4.21
478.753	4.02
479.107	4.21
479.461	4.25
479.814	4.07
480.168	4.01
480.521	4.06
480.875	4.06
481.228	4.08
481.582	4.2
481.935	4.21
482.289	4.15
482.642	4.22
482.995	4.15
483.348	4.12
483.701	4.07
484.055	4.07
484.408	4.06
484.761	3.94
485.114	3.79
485.466	3.8
485.819	3.78
486.172	3.87
486.525	4
486.878	4.11
487.23	4.12
487.583	4.05
487.936	4.03
488.288	4
488.641	3.99
488.993	3.92
489.345	3.94
489.698	3.92
490.05	3.99
490.402	3.97
490.754	4.03
491.107	4.13
491.459	4.15
491.811	4.19
492.163	4.16
492.515	4.15
492.866	4.02
493.218	3.98
493.57	3.94
493.922	4
494.274	4.14
494.625	4.22
494.977	4.16
495.328	4.18
495.68	4.22
496.031	4.26
496.383	4.22
496.734	4.11
497.086	4.23
497.437	4.2
497.788	4.15
498.139	4.14
498.49	4.13
498.842	4.24
499.193	4.17
499.544	4.29
499.894	4.19
500.245	4.21
500.596	4.15
500.947	4.18
501.298	4.13
501.648	4.18
501.999	4.3
502.35	4.29
502.7	4.32
503.051	4.28
503.401	4.29
503.752	4.2
504.102	4.28
504.452	4.25
504.803	4.2
505.153	4.32
505.503	4.21
505.853	4.35
506.203	4.23
506.553	4.43
506.903	4.15
507.253	4.31
507.603	4.4
507.953	4.19
508.303	4.38
508.652	4.33
509.002	4.25
509.352	4.28
509.701	4.37
510.051	4.25
510.4	4.27
510.75	4.3
511.099	4.15
511.449	4.31
511.798	4.25
512.147	4.28
512.496	4.22
512.846	4.34
513.195	4.34
513.544	4.31
513.893	4.28
514.242	4.34
514.591	4.24
514.939	4.42
515.288	4.34
515.637	4.39
515.986	4.3
516.334	4.37
516.683	4.4
517.032	4.29
517.38	4.28
517.729	4.34
518.077	4.36
518.426	4.21
518.774	4.3
519.122	4.33
519.47	4.33
519.819	4.23
520.167	4.19
520.515	4.19
520.863	4.21
521.211	4.31
521.559	4.29
521.907	4.38
522.255	4.27
522.602	4.38
522.95	4.34
523.298	4.31
523.645	4.37
523.993	4.3
524.341	4.24
524.688	4.37
525.036	4.34
525.383	4.28
525.73	4.28
526.078	4.34
526.425	4.29
526.772	4.34
527.119	4.23
527.466	4.21
527.814	4.23
528.161	4.28
528.508	4.19
528.854	4.29
529.201	4.24
529.548	4.22
529.895	4.13
530.242	4.04
530.588	4.07
530.935	4.17
531.282	4.22
531.628	4.24
531.975	4.28
532.321	4.33
532.667	4.33
533.014	4.29
533.36	4.38
533.706	4.28
534.052	4.28
534.399	4.29
534.745	4.12
535.091	4.16
535.437	4.17
535.783	4.24
536.129	4.36
536.474	4.31
536.82	4.35
537.166	4.44
537.512	4.34
537.857	4.24
538.203	4.23
538.549	4.23
538.894	4.31
539.239	4.32
539.585	4.35
539.93	4.37
540.276	4.47
540.621	4.42
540.966	4.33
541.311	4.39
541.656	4.41
542.001	4.31
542.346	4.26
542.691	4.2
543.036	4.17
543.381	4.13
543.726	4.25
544.071	4.24
544.415	4.31
544.76	4.31
545.105	4.3
545.449	4.33
545.794	4.38
546.138	4.42
546.483	4.46
546.827	4.4
547.171	4.43
547.516	4.23
547.86	4.38
548.204	4.34
548.548	4.36
548.892	4.35
549.236	4.48
549.58	4.46
549.924	4.43
550.268	4.5
550.612	4.42
550.956	4.44
551.3	4.52
551.643	4.62
551.987	4.47
552.33	4.5
552.674	4.48
553.017	4.55
553.361	4.52
553.704	4.49
554.048	4.49
554.391	4.39
554.734	4.52
555.077	4.5
555.42	4.42
555.764	4.53
556.107	4.45
556.45	4.43
556.793	4.65
557.135	4.55
557.478	4.56
557.821	4.47
558.164	4.56
558.507	4.42
558.849	4.44
559.192	4.59
559.534	4.49
559.877	4.63
560.219	4.67
560.562	4.36
560.904	4.63
561.246	4.63
561.589	4.41
561.931	4.39
562.273	4.68
562.615	4.53
562.957	4.47
563.299	4.56
563.641	4.42
563.983	4.42
564.325	4.48
564.667	4.68
565.008	4.44
565.35	4.49
565.692	4.5
566.033	4.47
566.375	4.62
566.716	4.59
567.058	4.53
567.399	4.49
567.741	4.45
568.082	4.56
568.423	4.52
568.764	4.55
569.105	4.43
569.447	4.65
569.788	4.37
570.129	4.38
570.47	4.71
570.811	4.62
571.151	4.58
571.492	4.47
571.833	4.56
572.174	4.64
572.514	4.62
572.855	4.5
573.195	4.58
573.536	4.41
573.876	4.63
574.217	4.56
574.557	4.48
574.898	4.52
575.238	4.62
575.578	4.62
575.918	4.45
576.258	4.56
576.598	4.53
576.938	4.45
577.278	4.6
577.618	4.47
577.958	4.71
578.298	4.74
578.638	4.59
578.977	4.55
579.317	4.56
579.657	4.68
579.996	4.67
580.336	4.51
580.675	4.73
581.014	4.78
581.354	4.5
581.693	4.58
582.032	4.63
582.372	4.45
582.711	4.73
583.05	4.42
583.389	4.6
583.728	4.65
584.067	4.68
584.406	4.74
584.745	4.72
585.083	4.71
585.422	4.53
585.761	4.42
586.1	4.7
586.438	4.83
586.777	4.64
587.115	4.81
587.454	4.68
587.792	4.64
588.13	4.75
588.469	4.7
588.807	4.49
589.145	4.67
589.483	4.7
589.821	4.68
590.159	4.61
590.497	4.7
590.835	4.65
591.173	4.45
591.511	4.73
591.849	4.68
592.187	4.65
592.524	4.77
592.862	4.81
593.2	4.43
593.537	4.48
593.875	4.89
594.212	4.47
594.55	4.67
594.887	4.61
595.224	4.7
595.561	4.81
595.899	4.55
596.236	4.99
596.573	4.69
596.91	4.7
597.247	4.71
597.584	4.56
597.921	4.82
598.258	4.71
598.594	4.58
598.931	4.6
599.268	4.55
599.604	4.76
599.941	4.46
600.277	4.39
600.614	4.46
600.95	4.62
601.287	4.63
601.623	4.74
601.959	4.38
602.296	4.58
602.632	4.58
602.968	4.33
603.304	4.54
603.64	4.64
603.976	4.58
604.312	4.93
604.648	4.68
604.984	4.47
605.319	4.59
605.655	4.54
605.991	4.28
606.326	4.76
606.662	4.62
606.998	4.62
607.333	4.64
607.668	4.72
608.004	4.78
608.339	4.86
608.674	4.46
609.01	4.52
609.345	4.69
609.68	4.59
610.015	4.58
610.35	4.73
610.685	4.7
611.02	4.6
611.355	4.62
611.689	4.73
612.024	4.57
612.359	4.54
612.694	4.63
613.028	4.52
613.363	4.58
613.697	4.54
614.032	4.79
614.366	4.56
614.7	4.64
615.035	4.74
615.369	4.53
615.703	4.95
616.037	4.63
616.371	4.53
616.705	4.41
617.039	4.68
617.373	4.71
617.707	4.8
618.041	5.09
618.375	4.97
618.709	4.81
619.042	4.77
619.376	4.65
619.71	4.7
620.043	4.67
620.377	4.72
620.71	4.68
621.043	4.62
621.377	4.84
621.71	4.91
622.043	4.8
622.376	4.41
622.709	4.74
623.043	4.49
623.376	4.81
623.709	4.87
624.041	4.88
624.374	4.62
624.707	4.76
625.04	5.04
625.373	4.47
625.705	4.4
626.038	5.02
626.37	5.02
626.703	5.02
627.035	4.92
627.368	4.78
627.7	4.65
628.032	4.62
628.365	4.71
628.697	4.83
629.029	4.89
629.361	4.54
629.693	4.39
630.025	4.52
630.357	4.54
630.689	4.94
631.021	4.68
631.353	4.54
631.684	4.57
632.016	4.64
632.348	4.81
632.679	4.75
633.011	4.67
633.342	4.7
633.674	4.86
634.005	4.72
634.336	4.77
634.668	4.71
634.999	4.53
635.33	4.72
635.661	4.5
635.992	4.46
636.323	4.86
636.654	4.58
636.985	4.92
637.316	4.77
637.647	4.49
637.977	4.69
638.308	5.12
638.639	4.79
638.969	4.71
639.3	4.64
639.63	4.85
639.961	4.84
640.291	5.14
640.622	4.88
640.952	4.76
641.282	4.26
641.612	4.79
641.943	4.46
642.273	4.89
642.603	5.01
642.933	4.75
643.263	5.03
643.592	4.75
643.922	5.16
644.252	5.24
644.582	5.24
644.911	4.95
645.241	4.81
645.571	4.47
645.9	5.05
646.23	4.88
646.559	4.81
646.888	4.79
647.218	4.62
647.547	4.9
647.876	4.94
648.205	4.76
648.534	5.1
648.863	4.38
649.192	4.86
649.521	4.7
649.85	4.71
650.179	4.7
650.508	5.14
650.837	5.36
651.165	4.91
651.494	4.82
651.822	4.71
652.151	4.73
652.479	4.93
652.808	5.07
653.136	4.87
653.465	5
653.793	4.8
654.121	5.38
654.449	4.85
654.777	4.72
655.105	5.28
655.433	4.94
655.761	4.68
656.089	5.14
656.417	4.64
656.745	4.54
657.073	4.63
657.4	4.74
657.728	5.12
658.056	4.77
658.383	4.78
658.711	5.01
659.038	5.4
659.365	4.85
659.693	4.25
660.02	5.06
660.347	5
660.674	4.64
661.001	4.75
661.329	4.9
661.656	4.68
661.982	4.67
662.309	4.63
662.636	4.68
662.963	4.89
663.29	4.56
663.616	4.64
663.943	4.85
664.27	4.67
664.596	4.82
664.923	4.73
665.249	5.06
665.576	4.94
665.902	4.64
666.228	4.58
666.554	4.78
666.881	5.33
667.207	4.71
667.533	4.79
667.859	4.65
668.185	4.93
668.511	5.16
668.837	5.08
669.162	5.43
669.488	4.53
669.814	5.02
670.139	5.07
670.465	5.18
670.791	4.78
671.116	5.14
671.442	4.88
671.767	4.76
672.092	4.77
672.418	5.32
672.743	5.29
673.068	5.37
673.393	4.95
673.718	5.4
674.043	4.62
674.368	4.3
674.693	5.44
675.018	4.78
675.343	4.49
675.667	5.3
675.992	5.15
676.317	4.83
676.641	5.28
676.966	4.96
677.29	5.2
677.615	4.64
677.939	4.88
678.264	5.25
678.588	5.21
678.912	4.99
679.236	5.45
679.56	4.93
679.885	5.04
680.209	4.5
680.532	4.17
680.856	5.06
681.18	4.67
681.504	5.2
681.828	4.68
682.152	4.89
682.475	5.14
682.799	4.6
683.122	5.21
683.446	4.74
683.769	5.4
684.093	5.03
684.416	5.16
684.739	4.51
685.062	5
685.386	4.59
685.709	4.84
686.032	4.98
686.355	5.46
686.678	4.77
687.001	5.52
687.324	5.49
687.646	4.84
687.969	4.92
688.292	5.17
688.614	5.19
688.937	4.9
689.26	5.61
689.582	4.28
689.904	4.42
690.227	4.75
690.549	5.27
690.871	4.68
691.194	4.99
691.516	5.73
691.838	5.15
692.16	4.77
692.482	4.92
692.804	4.86
693.126	4.94
