Data from 2017-1_chest_Reflection__2__02.txt Node

Date: Fri Oct 07 15:00:48 CDT 2022
User: ToomeyLab
Spectrometer: FLMS14357
Trigger mode: 0
Integration Time (sec): 1.000000E-2
Scans to average: 100
Electric dark correction enabled: true
Nonlinearity correction enabled: false
Boxcar width: 0
XAxis mode: Wavelengths
Number of Pixels in Spectrum: 2048
>>>>>Begin Spectral Data<<<<<
189.047	202.46
189.435	202.46
189.823	202.46
190.211	72.32
190.599	461.2
190.987	50.73
191.375	28.89
191.763	96.99
192.151	334.61
192.538	263.81
192.926	-306.53
193.314	-2740.46
193.702	46.39
194.089	792.82
194.477	195.39
194.864	56.15
195.252	49.68
195.639	65.74
196.027	631.05
196.414	181.91
196.801	-86.71
197.189	-90.7
197.576	-30.84
197.963	328.09
198.351	15.84
198.738	-0.77
199.125	31.76
199.512	31.04
199.899	2.71
200.286	21.75
200.673	-39.87
201.06	26.78
201.447	-24.75
201.833	28.86
202.22	1.1
202.607	-10.14
202.994	16.78
203.38	7.32
203.767	13.62
204.154	-26.78
204.54	35.85
204.927	26
205.313	-15.51
205.699	-11.22
206.086	-23.27
206.472	24.99
206.858	-38.4
207.245	12.73
207.631	29.9
208.017	34.78
208.403	42.76
208.789	-14.27
209.175	-22.38
209.561	30.99
209.947	2.09
210.333	14.7
210.719	15.47
211.105	9.7
211.491	4.13
211.876	19.52
212.262	7.61
212.648	9.83
213.034	6.45
213.419	-3.41
213.805	-6.28
214.19	11.28
214.576	-11.91
214.961	1.58
215.346	6.86
215.732	-2.32
216.117	10.65
216.502	-6.52
216.888	-20.93
217.273	-18.47
217.658	2.2
218.043	-0.38
218.428	26.03
218.813	7.42
219.198	5
219.583	10.4
219.968	1.14
220.353	-26.96
220.738	8.64
221.122	11.75
221.507	-24.63
221.892	-12.33
222.276	15.92
222.661	18.48
223.046	-1.86
223.43	2.36
223.815	7.79
224.199	-4.18
224.583	15.39
224.968	-5.38
225.352	0.91
225.736	-1.28
226.121	13.8
226.505	3.51
226.889	3.04
227.273	3.47
227.657	-1.21
228.041	4.4
228.425	3.84
228.809	1.62
229.193	4.28
229.577	1.15
229.961	0.33
230.344	1.63
230.728	2.02
231.112	1.82
231.495	1.75
231.879	1.74
232.263	0.95
232.646	1.49
233.03	1.04
233.413	2.51
233.797	2.55
234.18	1.19
234.563	-0.49
234.946	1.31
235.33	0.99
235.713	0.75
236.096	1.95
236.479	1.68
236.862	2.26
237.245	2.92
237.628	1.51
238.011	1.51
238.394	0.38
238.777	1.68
239.16	4.17
239.543	-0.38
239.925	3.95
240.308	0.98
240.691	1.67
241.073	1.36
241.456	2.82
241.838	2.19
242.221	2.93
242.603	2.86
242.986	1.76
243.368	1.36
243.75	1.86
244.133	1.71
244.515	1.71
244.897	1.61
245.279	2.25
245.661	1.96
246.043	1.33
246.425	3.07
246.807	1.84
247.189	2.72
247.571	2.37
247.953	2.18
248.335	2.06
248.717	1.69
249.098	1.62
249.48	1.74
249.862	1.61
250.243	2.11
250.625	1.77
251.006	1.6
251.388	1.96
251.769	1.85
252.151	1.83
252.532	2.15
252.913	1.34
253.295	2.7
253.676	1.55
254.057	2.24
254.438	1.67
254.819	1.78
255.2	2.09
255.581	1.93
255.962	1.33
256.343	1.41
256.724	1.96
257.105	2.98
257.486	2.22
257.867	1.43
258.247	2.74
258.628	1.06
259.009	1.86
259.389	2.1
259.77	1.58
260.15	1.39
260.531	1.72
260.911	1.7
261.292	1.87
261.672	1.76
262.052	1.83
262.432	1.4
262.813	1.93
263.193	1.5
263.573	2.31
263.953	2.18
264.333	2.24
264.713	1.42
265.093	1.64
265.473	2.46
265.853	1.49
266.233	1.4
266.612	1.89
266.992	1.75
267.372	1.99
267.752	1.25
268.131	1.76
268.511	1.6
268.89	1.51
269.27	1.41
269.649	1.8
270.029	1.84
270.408	1.08
270.787	2.13
271.167	1.72
271.546	1.97
271.925	0.94
272.304	2.11
272.683	1.36
273.062	1.71
273.441	1.49
273.82	1.95
274.199	1.64
274.578	1.4
274.957	1.84
275.336	1.84
275.715	1.6
276.093	2
276.472	1.75
276.851	1.27
277.229	1.69
277.608	2.02
277.986	1.59
278.365	1.93
278.743	1.54
279.122	1.76
279.5	1.48
279.878	1.83
280.257	1.76
280.635	1.73
281.013	1.57
281.391	1.67
281.769	1.73
282.147	1.5
282.525	1.41
282.903	1.64
283.281	1.53
283.659	1.9
284.037	2
284.415	1.9
284.792	1.75
285.17	1.22
285.548	1.41
285.925	1.77
286.303	1.49
286.68	1.55
287.058	1.62
287.435	1.81
287.813	1.77
288.19	1.78
288.567	1.79
288.945	1.68
289.322	1.99
289.699	1.43
290.076	1.83
290.453	2.11
290.83	1.98
291.207	1.72
291.584	1.9
291.961	1.87
292.338	1.75
292.715	1.92
293.092	1.81
293.469	1.94
293.845	1.93
294.222	1.81
294.599	1.86
294.975	1.71
295.352	2.04
295.728	1.83
296.105	2.08
296.481	1.37
296.858	1.57
297.234	1.25
297.61	2.1
297.986	1.67
298.363	1.8
298.739	1.91
299.115	1.76
299.491	1.77
299.867	1.43
300.243	1.92
300.619	1.95
300.995	1.82
301.371	1.72
301.746	1.61
302.122	1.78
302.498	1.72
302.874	2
303.249	1.68
303.625	1.51
304	1.52
304.376	1.67
304.751	1.82
305.127	1.58
305.502	1.53
305.878	1.55
306.253	1.94
306.628	1.64
307.003	1.8
307.378	1.97
307.754	1.13
308.129	1.13
308.504	1.13
308.879	1.12
309.254	1.92
309.629	1.58
310.003	1.66
310.378	1.27
310.753	1.8
311.128	1.58
311.502	1.71
311.877	1.68
312.252	1.7
312.626	1.69
313.001	1.87
313.375	1.34
313.75	1.76
314.124	1.56
314.498	1.99
314.873	1.57
315.247	1.49
315.621	1.2
315.995	1.24
316.369	1.72
316.743	0.94
317.117	1.23
317.491	2.35
317.865	1.31
318.239	1.8
318.613	1.93
318.987	2.04
319.361	1.12
319.734	1.27
320.108	1.34
320.482	2.43
320.855	1.62
321.229	1.92
321.602	1.61
321.976	1.48
322.349	2.19
322.723	1.39
323.096	1.58
323.469	1.79
323.843	2.2
324.216	1.98
324.589	2.54
324.962	1.43
325.335	1.68
325.708	1.51
326.081	1.41
326.454	1.77
326.827	1.22
327.2	1.79
327.573	1.94
327.945	1.82
328.318	1.29
328.691	1.62
329.063	1.91
329.436	1.93
329.809	1.8
330.181	2.21
330.553	1.47
330.926	1.57
331.298	1.5
331.671	1.19
332.043	1.98
332.415	2.13
332.787	1.47
333.159	1.64
333.532	1.7
333.904	1.68
334.276	1.41
334.648	2.05
335.02	1.48
335.391	2.06
335.763	2
336.135	1.8
336.507	1.82
336.879	1.82
337.25	1.92
337.622	1.39
337.993	1.6
338.365	2.1
338.736	1.48
339.108	1.7
339.479	1.44
339.851	1.42
340.222	1.85
340.593	1.84
340.964	1.68
341.336	1.63
341.707	1.89
342.078	2.12
342.449	1.95
342.82	1.82
343.191	1.47
343.562	1.34
343.933	1.71
344.303	1.52
344.674	2.15
345.045	1.85
345.416	1.61
345.786	1.88
346.157	2.24
346.527	1.17
346.898	1.67
347.268	1.57
347.639	1.61
348.009	2.07
348.38	1.45
348.75	1.9
349.12	2.03
349.49	1.39
349.861	1.12
350.231	1.63
350.601	1.46
350.971	2.05
351.341	1.55
351.711	1.76
352.081	1.76
352.45	2.02
352.82	1.72
353.19	2.25
353.56	1.45
353.929	1.33
354.299	2.08
354.669	1.33
355.038	1.6
355.408	1.95
355.777	1.97
356.147	1.66
356.516	1.63
356.885	1.89
357.254	1.54
357.624	1.57
357.993	1.59
358.362	1.75
358.731	1.84
359.1	1.93
359.469	1.96
359.838	1.57
360.207	1.68
360.576	1.8
360.945	2.05
361.314	1.85
361.682	1.79
362.051	1.5
362.42	1.93
362.788	1.49
363.157	1.67
363.525	1.69
363.894	1.76
364.262	1.54
364.631	1.7
364.999	1.71
365.367	1.6
365.735	1.79
366.104	1.57
366.472	1.89
366.84	1.11
367.208	1.68
367.576	1.8
367.944	1.67
368.312	1.69
368.68	1.74
369.048	2.07
369.416	1.67
369.783	1.44
370.151	2.05
370.519	1.65
370.886	1.68
371.254	1.8
371.621	1.8
371.989	2.01
372.356	2.09
372.724	1.75
373.091	1.76
373.458	1.74
373.826	1.63
374.193	1.94
374.56	1.68
374.927	1.9
375.294	1.85
375.661	1.62
376.028	1.86
376.395	1.88
376.762	2.2
377.129	1.94
377.496	1.66
377.863	1.95
378.229	1.76
378.596	1.53
378.963	1.93
379.329	1.63
379.696	1.62
380.062	1.84
380.429	1.79
380.795	1.79
381.161	1.75
381.528	1.94
381.894	2.18
382.26	1.6
382.626	1.77
382.993	1.95
383.359	1.69
383.725	1.99
384.091	1.92
384.457	1.89
384.823	1.62
385.188	1.63
385.554	1.65
385.92	2.05
386.286	1.7
386.651	1.45
387.017	1.7
387.383	1.55
387.748	1.58
388.114	1.8
388.479	1.92
388.845	1.67
389.21	1.78
389.575	1.98
389.94	1.71
390.306	1.83
390.671	2.06
391.036	1.84
391.401	1.6
391.766	1.97
392.131	1.94
392.496	1.47
392.861	1.43
393.226	2.01
393.591	1.84
393.956	2.04
394.32	1.77
394.685	1.79
395.05	1.59
395.414	1.68
395.779	1.59
396.143	1.78
396.508	1.66
396.872	1.8
397.236	1.67
397.601	1.73
397.965	1.81
398.329	1.79
398.694	1.64
399.058	1.72
399.422	1.91
399.786	1.86
400.15	1.82
400.514	1.69
400.878	1.92
401.242	1.6
401.605	1.85
401.969	1.72
402.333	1.71
402.697	1.69
403.06	2.16
403.424	1.75
403.787	2.07
404.151	1.7
404.514	1.82
404.878	1.87
405.241	1.76
405.604	1.96
405.968	1.74
406.331	1.78
406.694	1.82
407.057	1.91
407.42	1.9
407.783	1.79
408.146	1.94
408.509	2
408.872	1.82
409.235	1.88
409.598	1.81
409.961	1.98
410.323	1.85
410.686	1.74
411.049	1.79
411.411	1.78
411.774	1.93
412.136	1.72
412.499	1.96
412.861	1.84
413.223	1.78
413.586	1.78
413.948	1.78
414.31	1.88
414.672	1.88
415.035	1.98
415.397	2.04
415.759	1.75
416.121	1.81
416.483	1.85
416.845	1.71
417.206	1.78
417.568	1.95
417.93	1.64
418.292	1.81
418.653	2.01
419.015	1.67
419.377	1.79
419.738	1.81
420.1	1.92
420.461	1.93
420.822	1.86
421.184	1.8
421.545	1.88
421.906	1.8
422.267	1.73
422.629	1.83
422.99	1.74
423.351	1.8
423.712	1.81
424.073	1.8
424.434	1.84
424.795	1.64
425.155	1.75
425.516	1.81
425.877	1.85
426.238	1.78
426.598	1.79
426.959	1.79
427.32	1.87
427.68	1.68
428.041	1.84
428.401	1.85
428.761	1.9
429.122	1.87
429.482	1.91
429.842	1.85
430.202	2
430.563	1.87
430.923	1.86
431.283	1.7
431.643	2
432.003	1.77
432.363	2.16
432.722	1.86
433.082	1.66
433.442	1.91
433.802	2.04
434.161	1.93
434.521	1.85
434.881	1.84
435.24	1.91
435.6	1.82
435.959	1.85
436.319	1.91
436.678	1.82
437.037	1.75
437.396	1.89
437.756	1.87
438.115	1.89
438.474	1.95
438.833	1.94
439.192	1.9
439.551	2
439.91	1.87
440.269	1.85
440.628	1.88
440.987	1.92
441.345	1.91
441.704	1.97
442.063	1.89
442.421	1.92
442.78	1.89
443.138	1.89
443.497	1.91
443.855	1.78
444.214	1.93
444.572	1.93
444.93	1.93
445.288	1.74
445.647	2.12
446.005	1.95
446.363	1.9
446.721	1.92
447.079	1.82
447.437	1.89
447.795	1.93
448.153	1.78
448.51	1.96
448.868	1.85
449.226	1.88
449.584	1.95
449.941	2
450.299	1.9
450.656	1.86
451.014	2
451.371	1.83
451.729	1.9
452.086	1.87
452.443	2.09
452.801	1.94
453.158	1.98
453.515	1.92
453.872	1.93
454.229	1.97
454.586	1.9
454.943	1.96
455.3	1.87
455.657	2.06
456.014	2
456.371	1.99
456.727	2
457.084	1.95
457.441	2.02
457.797	2.08
458.154	1.87
458.51	2.01
458.867	1.91
459.223	1.89
459.58	2.14
459.936	2.01
460.292	1.89
460.648	1.93
461.005	1.92
461.361	1.86
461.717	1.92
462.073	1.9
462.429	1.93
462.785	2.14
463.141	1.96
463.496	1.95
463.852	2.05
464.208	1.96
464.564	1.95
464.919	1.93
465.275	1.88
465.631	1.99
465.986	2
466.342	2.15
466.697	2.07
467.052	2.06
467.408	2.03
467.763	2.05
468.118	1.92
468.473	2.07
468.829	1.92
469.184	2
469.539	1.96
469.894	1.99
470.249	2.05
470.603	2
470.958	2.03
471.313	2.03
471.668	2.07
472.023	2.1
472.377	2.25
472.732	2.05
473.086	2.07
473.441	2.17
473.795	2.01
474.15	1.99
474.504	1.96
474.859	1.98
475.213	2.02
475.567	1.96
475.921	1.99
476.275	2.25
476.63	2.07
476.984	1.91
477.338	1.87
477.692	2.07
478.045	2.03
478.399	1.96
478.753	1.84
479.107	2.09
479.461	2.09
479.814	2.06
480.168	1.97
480.521	2.03
480.875	2.02
481.228	1.9
481.582	2.07
481.935	2.05
482.289	2.1
482.642	2.17
482.995	2.12
483.348	2.11
483.701	2.04
484.055	1.99
484.408	2.08
484.761	1.92
485.114	1.96
485.466	1.9
485.819	1.87
486.172	1.9
486.525	1.92
486.878	2.01
487.23	2.03
487.583	2
487.936	2
488.288	1.99
488.641	2
488.993	1.94
489.345	1.97
489.698	1.96
490.05	1.99
490.402	1.98
490.754	2.05
491.107	2.04
491.459	2.06
491.811	2.04
492.163	2.15
492.515	2.15
492.866	2.05
493.218	2.02
493.57	1.99
493.922	2
494.274	2.07
494.625	2.08
494.977	2.05
495.328	2.11
495.68	2.13
496.031	2.03
496.383	2.17
496.734	1.98
497.086	2.11
497.437	2.12
497.788	2.1
498.139	2.19
498.49	2.17
498.842	2.13
499.193	2.09
499.544	2.13
499.894	2.22
500.245	2.18
500.596	2.2
500.947	2.11
501.298	2.13
501.648	2
501.999	2.2
502.35	2.15
502.7	2.16
503.051	2.19
503.401	2.16
503.752	2.11
504.102	2.27
504.452	2.17
504.803	2.23
505.153	2.16
505.503	2.04
505.853	2.23
506.203	2.22
506.553	2.34
506.903	2.22
507.253	2.23
507.603	2.21
507.953	2.15
508.303	2.23
508.652	2.16
509.002	2.2
509.352	2.15
509.701	2.36
510.051	2.24
510.4	2.28
510.75	2.19
511.099	2.09
511.449	2.22
511.798	2.28
512.147	2.18
512.496	2.16
512.846	2.18
513.195	2.24
513.544	2.22
513.893	2.32
514.242	2.22
514.591	2.19
514.939	2.29
515.288	2.23
515.637	2.25
515.986	2.37
516.334	2.29
516.683	2.17
517.032	2.3
517.38	2.23
517.729	2.28
518.077	2.17
518.426	2.21
518.774	2.29
519.122	2.23
519.47	2.34
519.819	2.29
520.167	2.22
520.515	2.21
520.863	2.23
521.211	2.31
521.559	2.28
521.907	2.33
522.255	2.23
522.602	2.29
522.95	2.29
523.298	2.39
523.645	2.28
523.993	2.22
524.341	2.25
524.688	2.29
525.036	2.3
525.383	2.26
525.73	2.27
526.078	2.35
526.425	2.29
526.772	2.28
527.119	2.33
527.466	2.31
527.814	2.28
528.161	2.34
528.508	2.29
528.854	2.4
529.201	2.35
529.548	2.28
529.895	2.23
530.242	2.25
530.588	2.22
530.935	2.28
531.282	2.29
531.628	2.33
531.975	2.33
532.321	2.39
532.667	2.36
533.014	2.38
533.36	2.36
533.706	2.39
534.052	2.34
534.399	2.37
534.745	2.37
535.091	2.37
535.437	2.32
535.783	2.39
536.129	2.45
536.474	2.41
536.82	2.34
537.166	2.36
537.512	2.39
537.857	2.43
538.203	2.42
538.549	2.35
538.894	2.35
539.239	2.35
539.585	2.5
539.93	2.48
540.276	2.56
540.621	2.45
540.966	2.47
541.311	2.57
541.656	2.61
542.001	2.59
542.346	2.57
542.691	2.46
543.036	2.44
543.381	2.41
543.726	2.44
544.071	2.55
544.415	2.45
544.76	2.52
545.105	2.54
545.449	2.59
545.794	2.53
546.138	2.59
546.483	2.48
546.827	2.51
547.171	2.57
547.516	2.53
547.86	2.58
548.204	2.59
548.548	2.56
548.892	2.56
549.236	2.69
549.58	2.69
549.924	2.65
550.268	2.63
550.612	2.57
550.956	2.6
551.3	2.8
551.643	2.58
551.987	2.77
552.33	2.63
552.674	2.68
553.017	2.95
553.361	2.61
553.704	2.72
554.048	2.69
554.391	2.66
554.734	2.84
555.077	2.82
555.42	2.8
555.764	2.81
556.107	2.74
556.45	2.8
556.793	2.98
557.135	2.79
557.478	2.81
557.821	2.71
558.164	2.75
558.507	2.92
558.849	3
559.192	2.88
559.534	2.81
559.877	2.86
560.219	3
560.562	2.68
560.904	2.96
561.246	2.86
561.589	2.88
561.931	2.76
562.273	2.91
562.615	2.96
562.957	2.98
563.299	3.02
563.641	2.97
563.983	2.73
564.325	2.96
564.667	2.92
565.008	3.05
565.35	2.78
565.692	2.9
566.033	2.82
566.375	3.01
566.716	3.01
567.058	3.05
567.399	2.98
567.741	3.07
568.082	2.94
568.423	3.01
568.764	3.05
569.105	3.13
569.447	3.12
569.788	3.12
570.129	2.98
570.47	3.36
570.811	3.08
571.151	3.03
571.492	3.3
571.833	3.21
572.174	3.14
572.514	3.33
572.855	2.94
573.195	3.25
573.536	3.09
573.876	3.09
574.217	3.18
574.557	3.11
574.898	3.14
575.238	3.15
575.578	3.26
575.918	3.4
576.258	3.27
576.598	3.23
576.938	3.13
577.278	3.26
577.618	3.06
577.958	3.43
578.298	3.35
578.638	3.41
578.977	3.26
579.317	3.33
579.657	3.4
579.996	3.5
580.336	3.42
580.675	3.32
581.014	3.41
581.354	3.49
581.693	3.5
582.032	3.61
582.372	3.46
582.711	3.57
583.05	3.38
583.389	3.49
583.728	3.5
584.067	3.52
584.406	3.66
584.745	3.39
585.083	3.55
585.422	3.39
585.761	3.56
586.1	3.76
586.438	3.66
586.777	3.58
587.115	3.49
587.454	3.69
587.792	3.38
588.13	3.69
588.469	3.51
588.807	3.59
589.145	3.66
589.483	3.77
589.821	3.71
590.159	3.59
590.497	3.65
590.835	3.67
591.173	3.34
591.511	3.53
591.849	3.74
592.187	3.68
592.524	3.85
592.862	3.92
593.2	3.72
593.537	3.61
593.875	3.85
594.212	3.66
594.55	3.69
594.887	3.46
595.224	3.81
595.561	4
595.899	3.92
596.236	4.05
596.573	3.9
596.91	3.85
597.247	4.03
597.584	3.83
597.921	3.91
598.258	4.11
598.594	3.96
598.931	4.02
599.268	3.85
599.604	4.15
599.941	4.03
600.277	3.92
600.614	3.81
600.95	4.08
601.287	4.09
601.623	4.2
601.959	3.85
602.296	4.41
602.632	4.03
602.968	4.03
603.304	3.9
603.64	4.07
603.976	3.97
604.312	4.27
604.648	4.02
604.984	4.01
605.319	4.22
605.655	4.36
605.991	4.2
606.326	4.26
606.662	4.09
606.998	4.23
607.333	4.27
607.668	4.31
608.004	4.4
608.339	4.5
608.674	4.42
609.01	4.46
609.345	4.33
609.68	4.34
610.015	4.23
610.35	4.44
610.685	4.52
611.02	4.5
611.355	4.69
611.689	4.49
612.024	4.47
612.359	4.43
612.694	4.42
613.028	4.35
613.363	4.62
613.697	4.72
614.032	4.43
614.366	4.35
614.7	4.56
615.035	4.68
615.369	4.38
615.703	4.57
616.037	4.36
616.371	4.29
616.705	4.27
617.039	4.62
617.373	4.8
617.707	4.7
618.041	5.07
618.375	4.81
618.709	4.77
619.042	4.69
619.376	4.94
619.71	4.7
620.043	4.75
620.377	5.07
620.71	4.85
621.043	4.93
621.377	4.87
621.71	4.94
622.043	4.73
622.376	4.87
622.709	4.69
623.043	4.48
623.376	4.92
623.709	4.92
624.041	5.14
624.374	5.05
624.707	4.9
625.04	5.08
625.373	5.02
625.705	5.27
626.038	5.16
626.37	4.95
626.703	4.98
627.035	5.44
627.368	4.64
627.7	5.18
628.032	4.95
628.365	4.9
628.697	5.1
629.029	5.23
629.361	4.98
629.693	4.86
630.025	5.3
630.357	4.97
630.689	5.39
631.021	5.43
631.353	5.16
631.684	4.78
632.016	5.61
632.348	5.76
632.679	5.03
633.011	5.33
633.342	5.03
633.674	5.29
634.005	5.3
634.336	5.16
634.668	5.24
634.999	5.06
635.33	5.33
635.661	5.16
635.992	5.11
636.323	5.52
636.654	5.49
636.985	5.51
637.316	5.31
637.647	5.33
637.977	5.6
638.308	5.79
638.639	5.4
638.969	5.08
639.3	5.62
639.63	5.34
639.961	5.48
640.291	5.71
640.622	6.06
640.952	5.45
641.282	5.43
641.612	5.84
641.943	5.92
642.273	5.94
642.603	5.96
642.933	5.73
643.263	5.78
643.592	5.66
643.922	5.91
644.252	5.79
644.582	6.35
644.911	6.26
645.241	5.69
645.571	5.63
645.9	6.09
646.23	5.92
646.559	5.97
646.888	6.38
647.218	6.25
647.547	6.23
647.876	6.01
648.205	6.01
648.534	6.14
648.863	5.77
649.192	6.01
649.521	6.26
649.85	5.8
650.179	6.2
650.508	6.51
650.837	6.44
651.165	6.21
651.494	6.33
651.822	5.74
652.151	6.14
652.479	6.01
652.808	6.24
653.136	6.05
653.465	6.44
653.793	6.27
654.121	6.94
654.449	6.4
654.777	6.16
655.105	6.74
655.433	6.11
655.761	6.2
656.089	6.76
656.417	6.34
656.745	6.09
657.073	6.15
657.4	6.49
657.728	6.73
658.056	7.09
658.383	6.18
658.711	6.84
659.038	6.88
659.365	6.47
659.693	6.43
660.02	7.06
660.347	6.22
660.674	6.33
661.001	6.48
661.329	6.56
661.656	6.33
661.982	6.51
662.309	6.76
662.636	6.81
662.963	6.93
663.29	6.83
663.616	6.52
663.943	6.43
664.27	6.54
664.596	6.96
664.923	6.58
665.249	6.57
665.576	6.95
665.902	6.98
666.228	6.97
666.554	6.87
666.881	6.96
667.207	7.28
667.533	7.29
667.859	7.41
668.185	7.12
668.511	6.93
668.837	7.35
669.162	7.46
669.488	6.58
669.814	7.61
670.139	7.66
670.465	6.94
670.791	6.99
671.116	6.8
671.442	7.27
671.767	7.21
672.092	7
672.418	7.81
672.743	8.14
673.068	7.38
673.393	6.77
673.718	7.65
674.043	6.81
674.368	7.71
674.693	8.24
675.018	6.97
675.343	7.17
675.667	7.17
675.992	7.63
676.317	7.36
676.641	7.99
676.966	6.99
677.29	7.5
677.615	7.11
677.939	7.84
678.264	7.72
678.588	8.26
678.912	7.43
679.236	7.77
679.56	7.64
679.885	7.06
680.209	7.59
680.532	7.21
680.856	7.9
681.18	7.76
681.504	7.15
681.828	7.24
682.152	7.72
682.475	8.12
682.799	7.7
683.122	7.53
683.446	7.98
683.769	7.88
684.093	7.81
684.416	7.63
684.739	7.54
685.062	7.74
685.386	7.74
685.709	9.14
686.032	8.15
686.355	8.31
686.678	7.86
687.001	8.09
687.324	8.3
687.646	7.67
687.969	8.04
688.292	7.65
688.614	8.27
688.937	7.69
689.26	8.84
689.582	8.18
689.904	7.67
690.227	7.74
690.549	8.26
690.871	8.22
691.194	7.79
691.516	7.94
691.838	8.44
692.16	8.24
692.482	7.58
692.804	7.52
693.126	8.23
693.448	9.06
