Data from 2017-1_forehead_Reflection__1__11.txt Node

Date: Fri Oct 07 15:05:17 CDT 2022
User: ToomeyLab
Spectrometer: FLMS14357
Trigger mode: 0
Integration Time (sec): 1.000000E-2
Scans to average: 100
Electric dark correction enabled: true
Nonlinearity correction enabled: false
Boxcar width: 0
XAxis mode: Wavelengths
Number of Pixels in Spectrum: 2048
>>>>>Begin Spectral Data<<<<<
189.047	35.88
189.435	35.88
189.823	35.88
190.211	-195.28
190.599	-108.52
190.987	105.6
191.375	93.71
191.763	-53.41
192.151	192.84
192.538	232.55
192.926	148.53
193.314	2021.37
193.702	190.75
194.089	-118.97
194.477	330.86
194.864	59.3
195.252	50.36
195.639	24.35
196.027	31.05
196.414	-86.37
196.801	134.78
197.189	182.67
197.576	-6.35
197.963	104.71
198.351	64.36
198.738	11.39
199.125	65.61
199.512	44.3
199.899	58.42
200.286	46.19
200.673	19.18
201.06	64.5
201.447	57.27
201.833	47.31
202.22	59.9
202.607	66.07
202.994	34.28
203.38	31.18
203.767	45.99
204.154	7.26
204.54	-37.55
204.927	74.13
205.313	-5.05
205.699	68.37
206.086	43.98
206.472	69.82
206.858	35.53
207.245	61.15
207.631	56.71
208.017	21.86
208.403	43.98
208.789	14.16
209.175	14.01
209.561	42.02
209.947	35.59
210.333	20.78
210.719	33.9
211.105	30.74
211.491	37.96
211.876	24
212.262	60.56
212.648	53.64
213.034	16.69
213.419	8.52
213.805	41.55
214.19	11.68
214.576	43.27
214.961	19
215.346	19.6
215.732	20.72
216.117	20.17
216.502	35.54
216.888	1.82
217.273	28.63
217.658	40.99
218.043	16.25
218.428	32.97
218.813	44.84
219.198	45.97
219.583	39.36
219.968	24.31
220.353	17.59
220.738	16.02
221.122	28.79
221.507	0.1
221.892	22.07
222.276	20.29
222.661	28.49
223.046	19.65
223.43	24.31
223.815	19.17
224.199	10.52
224.583	19.13
224.968	16.37
225.352	15.13
225.736	13.94
226.121	22.01
226.505	6.99
226.889	8.38
227.273	16.84
227.657	9.1
228.041	7.93
228.425	6.51
228.809	8.43
229.193	6.19
229.577	7.03
229.961	6.21
230.344	4.98
230.728	5.44
231.112	6.1
231.495	6.78
231.879	6.3
232.263	6.74
232.646	6.49
233.03	6.94
233.413	6.98
233.797	8.12
234.18	6.08
234.563	5.98
234.946	7.06
235.33	6.59
235.713	5.6
236.096	5.4
236.479	6.4
236.862	5.35
237.245	6.18
237.628	6.71
238.011	6.28
238.394	8.21
238.777	5.8
239.16	7.76
239.543	4.42
239.925	6.88
240.308	5.4
240.691	6.17
241.073	6.51
241.456	6.2
241.838	6.26
242.221	5.87
242.603	5.62
242.986	5.78
243.368	5.54
243.75	5.66
244.133	5.16
244.515	5.17
244.897	5.52
245.279	6.2
245.661	5.86
246.043	6.04
246.425	7.6
246.807	6.09
247.189	6.59
247.571	6.42
247.953	5.67
248.335	5.62
248.717	4.96
249.098	4.93
249.48	5.1
249.862	5.17
250.243	5.43
250.625	5.4
251.006	5.53
251.388	4.97
251.769	6.26
252.151	5.17
252.532	6.62
252.913	5.32
253.295	6.38
253.676	5.88
254.057	5.28
254.438	5.55
254.819	5.52
255.2	6.46
255.581	6.87
255.962	5.52
256.343	5.95
256.724	6.23
257.105	6.08
257.486	6.31
257.867	5.64
258.247	5.86
258.628	6.01
259.009	5.61
259.389	5.96
259.77	6.02
260.15	4.92
260.531	5.3
260.911	5.32
261.292	5.09
261.672	4.92
262.052	5.02
262.432	5.04
262.813	5.77
263.193	5.01
263.573	5.73
263.953	5.69
264.333	5.12
264.713	5.59
265.093	5.9
265.473	5.9
265.853	5.29
266.233	5.82
266.612	6.08
266.992	5.46
267.372	5.36
267.752	4.93
268.131	5.25
268.511	4.92
268.89	4.94
269.27	4.97
269.649	5.12
270.029	5.33
270.408	4.38
270.787	5.01
271.167	5.24
271.546	4.92
271.925	5.05
272.304	4.9
272.683	4.48
273.062	5.23
273.441	5.19
273.82	5
274.199	4.65
274.578	4.78
274.957	5.22
275.336	5.23
275.715	5.41
276.093	5.9
276.472	5.03
276.851	5.06
277.229	5.01
277.608	5.36
277.986	5.11
278.365	5.59
278.743	5.52
279.122	5.2
279.5	5.52
279.878	5.43
280.257	5.21
280.635	5.3
281.013	4.65
281.391	4.63
281.769	5.74
282.147	4.84
282.525	4.9
282.903	4.77
283.281	4.84
283.659	5.68
284.037	5.63
284.415	5.65
284.792	5.14
285.17	5.04
285.548	4.9
285.925	4.62
286.303	4.7
286.68	5.02
287.058	5.01
287.435	5.12
287.813	5.15
288.19	5.15
288.567	5.22
288.945	5.14
289.322	4.69
289.699	4.55
290.076	5.21
290.453	5.85
290.83	5.18
291.207	5.3
291.584	5.54
291.961	4.93
292.338	4.92
292.715	5.51
293.092	5.35
293.469	5.44
293.845	5.94
294.222	5.67
294.599	5.63
294.975	4.86
295.352	6.05
295.728	5.83
296.105	6.18
296.481	5.43
296.858	5.46
297.234	5.99
297.61	5.71
297.986	5.53
298.363	5.75
298.739	5.43
299.115	5.26
299.491	5.52
299.867	5.49
300.243	5.88
300.619	6.02
300.995	6.03
301.371	6.05
301.746	5.89
302.122	5.93
302.498	5.96
302.874	5.49
303.249	5.74
303.625	5.91
304	6.73
304.376	5.8
304.751	6.11
305.127	6.26
305.502	6.21
305.878	6.19
306.253	6.64
306.628	6.76
307.003	6.84
307.378	7.2
307.754	6.43
308.129	6.74
308.504	6.37
308.879	5.65
309.254	7.02
309.629	6.91
310.003	6.9
310.378	6.62
310.753	7.13
311.128	6.78
311.502	7.22
311.877	6.96
312.252	6.97
312.626	7.25
313.001	6.94
313.375	7.02
313.75	7.18
314.124	6.77
314.498	7.3
314.873	6.94
315.247	7.15
315.621	7.42
315.995	7.07
316.369	7.78
316.743	7.51
317.117	7.64
317.491	8.24
317.865	8.5
318.239	7.96
318.613	8.31
318.987	8.59
319.361	8.17
319.734	8.27
320.108	8.12
320.482	8.71
320.855	8.72
321.229	9.04
321.602	9.06
321.976	8.48
322.349	8.77
322.723	9.1
323.096	8.58
323.469	9.51
323.843	9.6
324.216	8.9
324.589	9.51
324.962	9.08
325.335	8.64
325.708	8.54
326.081	9.38
326.454	9.87
326.827	8.97
327.2	9.52
327.573	9.84
327.945	9.57
328.318	9.83
328.691	9.68
329.063	9.95
329.436	9.99
329.809	10.25
330.181	9.77
330.553	9.52
330.926	10.04
331.298	10.07
331.671	9.99
332.043	9.82
332.415	10.51
332.787	9.85
333.159	9.84
333.532	10.06
333.904	10.47
334.276	9.97
334.648	10.55
335.02	10.49
335.391	11.03
335.763	10.77
336.135	10.91
336.507	11.58
336.879	10.97
337.25	11.17
337.622	11.27
337.993	11.08
338.365	11.06
338.736	11.08
339.108	11.26
339.479	11.08
339.851	10.65
340.222	11.12
340.593	11.06
340.964	11.36
341.336	11.33
341.707	11.4
342.078	11.88
342.449	11.73
342.82	12.14
343.191	11.71
343.562	11.46
343.933	12.09
344.303	11.97
344.674	12.04
345.045	12.53
345.416	12.43
345.786	12.28
346.157	12.36
346.527	11.96
346.898	12.59
347.268	12.16
347.639	11.9
348.009	12.88
348.38	12.43
348.75	13.15
349.12	13.48
349.49	12.72
349.861	12.68
350.231	13.18
350.601	12.84
350.971	13.37
351.341	12.93
351.711	13.26
352.081	13.33
352.45	13.47
352.82	13.4
353.19	13.95
353.56	13.12
353.929	13.4
354.299	13.76
354.669	13.67
355.038	13.78
355.408	13.62
355.777	13.51
356.147	14.01
356.516	14.34
356.885	14.35
357.254	14.27
357.624	14.26
357.993	14.1
358.362	14.38
358.731	14.63
359.1	14.51
359.469	14.22
359.838	14.33
360.207	14.82
360.576	14.65
360.945	14.99
361.314	14.98
361.682	14.9
362.051	14.95
362.42	15.05
362.788	15.01
363.157	14.82
363.525	15
363.894	15.12
364.262	15.18
364.631	15.06
364.999	15.26
365.367	15.49
365.735	15.41
366.104	15.55
366.472	15.94
366.84	15.58
367.208	15.7
367.576	15.66
367.944	15.73
368.312	16.13
368.68	16
369.048	16.26
369.416	16.45
369.783	16.12
370.151	16.44
370.519	16.4
370.886	16.31
371.254	16.29
371.621	16.79
371.989	16.45
372.356	17.03
372.724	16.93
373.091	17.03
373.458	17
373.826	16.91
374.193	17.17
374.56	17.37
374.927	17
375.294	17.33
375.661	17.26
376.028	17.76
376.395	17.32
376.762	17.45
377.129	17.99
377.496	17.83
377.863	17.9
378.229	17.7
378.596	17.91
378.963	18.05
379.329	18.22
379.696	18.01
380.062	18.46
380.429	18.23
380.795	18.53
381.161	18.52
381.528	18.53
381.894	18.88
382.26	18.87
382.626	18.57
382.993	18.85
383.359	18.82
383.725	19.08
384.091	19.15
384.457	19.17
384.823	19.01
385.188	19.4
385.554	19.5
385.92	19.7
386.286	19.33
386.651	19.36
387.017	19.47
387.383	19.83
387.748	19.51
388.114	19.79
388.479	19.59
388.845	19.86
389.21	19.94
389.575	19.74
389.94	19.96
390.306	20.16
390.671	20.63
391.036	20.23
391.401	20.5
391.766	20.77
392.131	20.32
392.496	20.64
392.861	20.7
393.226	20.71
393.591	20.75
393.956	20.97
394.32	20.75
394.685	20.72
395.05	20.74
395.414	21.15
395.779	21.17
396.143	21.16
396.508	21.22
396.872	21.34
397.236	21.55
397.601	21.58
397.965	21.8
398.329	21.59
398.694	21.75
399.058	21.8
399.422	21.93
399.786	22.23
400.15	22.09
400.514	21.99
400.878	22.23
401.242	21.92
401.605	22.47
401.969	22.09
402.333	22.39
402.697	22.61
403.06	22.62
403.424	22.55
403.787	23.14
404.151	22.65
404.514	22.97
404.878	22.78
405.241	22.82
405.604	22.91
405.968	22.9
406.331	22.8
406.694	22.73
407.057	23.08
407.42	23.04
407.783	23.42
408.146	23.44
408.509	23.24
408.872	23.6
409.235	23.84
409.598	23.77
409.961	23.71
410.323	24.17
410.686	23.74
411.049	23.92
411.411	24
411.774	23.82
412.136	23.94
412.499	24.15
412.861	24.14
413.223	24.2
413.586	24.14
413.948	24.37
414.31	24.3
414.672	24.61
415.035	24.5
415.397	24.81
415.759	24.83
416.121	24.66
416.483	24.98
416.845	24.72
417.206	24.82
417.568	24.86
417.93	24.65
418.292	24.9
418.653	25.09
419.015	24.88
419.377	24.96
419.738	24.89
420.1	25.09
420.461	25
420.822	25.07
421.184	25.03
421.545	25.01
421.906	25.2
422.267	25.12
422.629	24.98
422.99	25.26
423.351	25.31
423.712	25.41
424.073	25.44
424.434	25.83
424.795	25.59
425.155	25.7
425.516	25.64
425.877	25.67
426.238	25.76
426.598	25.7
426.959	25.85
427.32	26.09
427.68	26.19
428.041	26.48
428.401	26.64
428.761	26.6
429.122	26.81
429.482	26.9
429.842	26.97
430.202	27.02
430.563	27.29
430.923	26.99
431.283	27.05
431.643	27.22
432.003	27.39
432.363	27.45
432.722	27.39
433.082	27.32
433.442	27.65
433.802	27.63
434.161	27.54
434.521	27.7
434.881	27.48
435.24	27.73
435.6	27.72
435.959	27.93
436.319	28.02
436.678	28.23
437.037	28.19
437.396	28.22
437.756	28.26
438.115	28.44
438.474	28.58
438.833	28.64
439.192	28.61
439.551	28.56
439.91	28.6
440.269	28.6
440.628	28.53
440.987	28.76
441.345	28.73
441.704	28.55
442.063	28.68
442.421	28.88
442.78	28.7
443.138	28.79
443.497	28.91
443.855	29.25
444.214	29.3
444.572	29.34
444.93	29.29
445.288	29.35
445.647	29.5
446.005	29.44
446.363	29.51
446.721	29.27
447.079	29.64
447.437	29.37
447.795	29.37
448.153	29.22
448.51	29.43
448.868	29.45
449.226	29.47
449.584	29.76
449.941	30.03
450.299	30.13
450.656	30.33
451.014	30.16
451.371	30.31
451.729	30.65
452.086	30.52
452.443	30.83
452.801	30.87
453.158	30.95
453.515	30.96
453.872	30.81
454.229	30.91
454.586	30.77
454.943	31.06
455.3	31.17
455.657	31.27
456.014	31.4
456.371	31.12
456.727	31.38
457.084	31.61
457.441	31.47
457.797	31.56
458.154	31.51
458.51	31.75
458.867	31.61
459.223	31.68
459.58	31.59
459.936	31.86
460.292	31.73
460.648	31.73
461.005	31.51
461.361	31.3
461.717	31.22
462.073	31.44
462.429	31.59
462.785	31.96
463.141	32.07
463.496	32.14
463.852	32.31
464.208	32.31
464.564	32.64
464.919	32.72
465.275	32.78
465.631	32.71
465.986	32.87
466.342	32.92
466.697	32.99
467.052	32.82
467.408	33.18
467.763	33.06
468.118	32.86
468.473	32.97
468.829	33.09
469.184	33.35
469.539	33.32
469.894	33.36
470.249	33.57
470.603	33.29
470.958	33.35
471.313	33.59
471.668	33.61
472.023	33.81
472.377	33.79
472.732	33.76
473.086	33.76
473.441	34
473.795	34.25
474.15	33.95
474.504	33.98
474.859	33.92
475.213	34.38
475.567	34.2
475.921	34.36
476.275	34.31
476.63	34.41
476.984	34.35
477.338	34.58
477.692	34.52
478.045	34.39
478.399	34.47
478.753	34.53
479.107	34.56
479.461	34.52
479.814	34.54
480.168	34.62
480.521	34.68
480.875	34.6
481.228	34.72
481.582	34.86
481.935	34.88
482.289	34.99
482.642	34.91
482.995	34.73
483.348	34.66
483.701	34.52
484.055	34.59
484.408	34.36
484.761	34.07
485.114	33.75
485.466	33.71
485.819	33.86
486.172	33.98
486.525	34.14
486.878	34.27
487.23	34.4
487.583	34.61
487.936	34.69
488.288	34.62
488.641	34.5
488.993	34.41
489.345	34.39
489.698	34.39
490.05	34.6
490.402	34.68
490.754	35.01
491.107	35.16
491.459	35.4
491.811	35.46
492.163	35.61
492.515	35.56
492.866	35.22
493.218	35.01
493.57	34.94
493.922	35.14
494.274	35.48
494.625	35.76
494.977	36.05
495.328	36.12
495.68	36.36
496.031	36.67
496.383	36.67
496.734	36.63
497.086	36.8
497.437	36.97
497.788	36.94
498.139	36.56
498.49	36.58
498.842	36.46
499.193	36.56
499.544	36.71
499.894	36.86
500.245	36.91
500.596	36.96
500.947	37.08
501.298	37.16
501.648	37.38
501.999	37.49
502.35	37.57
502.7	37.43
503.051	37.54
503.401	37.81
503.752	37.73
504.102	37.86
504.452	37.76
504.803	37.76
505.153	37.88
505.503	37.78
505.853	38.03
506.203	37.87
506.553	38.07
506.903	38
507.253	38.08
507.603	38.13
507.953	38.14
508.303	38.29
508.652	38.38
509.002	38.13
509.352	38.03
509.701	38.17
510.051	38.2
510.4	37.95
510.75	37.98
511.099	38.12
511.449	38.11
511.798	38.12
512.147	38.16
512.496	38.49
512.846	38.49
513.195	38.36
513.544	38.43
513.893	38.65
514.242	38.52
514.591	38.48
514.939	38.6
515.288	38.89
515.637	39.06
515.986	39.02
516.334	39.15
516.683	39.2
517.032	39.08
517.38	39.24
517.729	39.14
518.077	39.31
518.426	39.22
518.774	39.06
519.122	39.02
519.47	38.87
519.819	38.71
520.167	38.8
520.515	38.69
520.863	38.92
521.211	38.88
521.559	39.05
521.907	39.11
522.255	39.19
522.602	39.27
522.95	39.52
523.298	39.65
523.645	39.89
523.993	39.76
524.341	39.84
524.688	40.02
525.036	39.83
525.383	39.94
525.73	39.94
526.078	39.82
526.425	39.96
526.772	39.44
527.119	39.3
527.466	39.43
527.814	39.41
528.161	39.64
528.508	39.54
528.854	39.61
529.201	39.48
529.548	39.25
529.895	38.69
530.242	38.66
530.588	39.09
530.935	39.21
531.282	39.29
531.628	39.43
531.975	39.59
532.321	39.77
532.667	40.01
533.014	40.05
533.36	40.22
533.706	40.32
534.052	40.18
534.399	39.93
534.745	39.58
535.091	39.57
535.437	39.82
535.783	39.81
536.129	40.23
536.474	40.43
536.82	40.59
537.166	40.73
537.512	40.7
537.857	40.57
538.203	40.3
538.549	40.37
538.894	40.57
539.239	40.68
539.585	40.83
539.93	41.16
540.276	41.2
540.621	41.41
540.966	41.27
541.311	41.39
541.656	41.31
542.001	41.02
542.346	40.64
542.691	40.35
543.036	39.97
543.381	40.19
543.726	40.56
544.071	40.84
544.415	40.9
544.76	40.83
545.105	41.22
545.449	41.29
545.794	41.59
546.138	41.38
546.483	41.57
546.827	41.66
547.171	41.79
547.516	41.71
547.86	41.75
548.204	41.65
548.548	41.67
548.892	41.52
549.236	41.77
549.58	42.06
549.924	42.28
550.268	42.28
550.612	42.58
550.956	42.53
551.3	42.83
551.643	42.94
551.987	43.01
552.33	42.68
552.674	42.55
553.017	43.12
553.361	43.1
553.704	42.94
554.048	42.83
554.391	42.78
554.734	42.83
555.077	42.89
555.42	42.86
555.764	42.98
556.107	43.36
556.45	43.36
556.793	43.14
557.135	43.37
557.478	43.62
557.821	43.63
558.164	43.44
558.507	43.59
558.849	43.51
559.192	43.76
559.534	43.49
559.877	43.58
560.219	43.73
560.562	43.66
560.904	43.78
561.246	43.91
561.589	43.87
561.931	43.6
562.273	43.84
562.615	43.9
562.957	43.82
563.299	43.84
563.641	43.96
563.983	43.78
564.325	43.91
564.667	43.98
565.008	44.27
565.35	43.94
565.692	44.08
566.033	43.98
566.375	44.27
566.716	44.08
567.058	43.98
567.399	44.29
567.741	43.9
568.082	43.63
568.423	44.14
568.764	44.2
569.105	44.39
569.447	44.48
569.788	44.42
570.129	44.33
570.47	44.48
570.811	44.53
571.151	44.59
571.492	44.67
571.833	44.51
572.174	44.6
572.514	44.55
572.855	44.44
573.195	44.53
573.536	44.28
573.876	44.48
574.217	44.36
574.557	44.61
574.898	44.68
575.238	44.72
575.578	44.66
575.918	44.71
576.258	44.87
576.598	44.84
576.938	44.76
577.278	44.8
577.618	44.9
577.958	45.02
578.298	45.05
578.638	45.32
578.977	45.06
579.317	45.07
579.657	45.33
579.996	45.34
580.336	45.65
580.675	45.54
581.014	45.46
581.354	45.53
581.693	45.49
582.032	45.95
582.372	45.77
582.711	45.81
583.05	45.74
583.389	45.92
583.728	45.63
584.067	45.86
584.406	45.9
584.745	46.19
585.083	45.87
585.422	46.11
585.761	45.75
586.1	46.34
586.438	46.2
586.777	46.07
587.115	46.38
587.454	46.44
587.792	46.6
588.13	46.4
588.469	46.31
588.807	46.29
589.145	46.18
589.483	46.49
589.821	46.03
590.159	46.35
590.497	46.29
590.835	46.34
591.173	46.2
591.511	46.22
591.849	46.31
592.187	46.41
592.524	46.39
592.862	46.44
593.2	46.52
593.537	46.73
593.875	46.73
594.212	46.95
594.55	46.78
594.887	46.8
595.224	46.87
595.561	46.69
595.899	46.67
596.236	46.75
596.573	46.99
596.91	46.89
597.247	46.64
597.584	46.69
597.921	46.68
598.258	46.63
598.594	46.26
598.931	46.33
599.268	46.33
599.604	46.97
599.941	47
600.277	46.6
600.614	46.9
600.95	47.17
601.287	47.25
601.623	47.34
601.959	47.28
602.296	47.28
602.632	47.23
602.968	47.1
603.304	47.29
603.64	47.56
603.976	47.56
604.312	47.51
604.648	46.93
604.984	46.71
605.319	47.13
605.655	46.98
605.991	46.7
606.326	46.5
606.662	47.13
606.998	47.11
607.333	47.34
607.668	47.31
608.004	47.88
608.339	47.36
608.674	47.93
609.01	48.21
609.345	47.73
609.68	47.82
610.015	47.63
610.35	47.64
610.685	47.32
611.02	47.04
611.355	47.41
611.689	47.42
612.024	47.54
612.359	47.28
612.694	47.82
613.028	47.8
613.363	48.11
613.697	47.94
614.032	48.13
614.366	48.45
614.7	48.19
615.035	48.36
615.369	48.58
615.703	48.42
616.037	48.33
616.371	48.33
616.705	48.51
617.039	48.43
617.373	48.34
617.707	48.49
618.041	48.59
618.375	48.68
618.709	48.54
619.042	48.71
619.376	48.48
619.71	48.54
620.043	48.25
620.377	48.55
620.71	48.57
621.043	48.92
621.377	49.15
621.71	48.84
622.043	48.73
622.376	48.87
622.709	48.86
623.043	48.94
623.376	49.2
623.709	48.35
624.041	49.05
624.374	48.7
624.707	49.05
625.04	48.86
625.373	48.87
625.705	49.15
626.038	49.02
626.37	48.93
626.703	49.26
627.035	49.25
627.368	48.81
627.7	48.82
628.032	48.59
628.365	48.59
628.697	48.7
629.029	49.12
629.361	48.61
629.693	48.95
630.025	49.2
630.357	49.33
630.689	49.16
631.021	49.31
631.353	49.4
631.684	49.15
632.016	49.43
632.348	49.53
632.679	49.27
633.011	49.31
633.342	49.36
633.674	49.53
634.005	49.65
634.336	49.56
634.668	49.77
634.999	49.22
635.33	49.58
635.661	49.26
635.992	49.15
636.323	49.52
636.654	49.84
636.985	49.27
637.316	49.7
637.647	49.1
637.977	50.17
638.308	50.24
638.639	49.83
638.969	50.14
639.3	49.71
639.63	50.51
639.961	50.3
640.291	50.23
640.622	50.05
640.952	49.86
641.282	50.1
641.612	50.21
641.943	50.15
642.273	49.76
642.603	50.53
642.933	50
643.263	50.05
643.592	50.28
643.922	50.52
644.252	50.64
644.582	50.35
644.911	50.71
645.241	50.45
645.571	50.76
645.9	50.44
646.23	50.36
646.559	50.83
646.888	50.52
647.218	50.43
647.547	50.82
647.876	50.94
648.205	50.53
648.534	50.74
648.863	50.61
649.192	51.11
649.521	50.62
649.85	50.21
650.179	50.33
650.508	51.08
650.837	51.06
651.165	50.47
651.494	50.81
651.822	50.65
652.151	51.03
652.479	50.99
652.808	50.3
653.136	50.43
653.465	51.17
653.793	51.37
654.121	51.05
654.449	51.17
654.777	50.19
655.105	51.39
655.433	50.69
655.761	51.45
656.089	51.27
656.417	50.9
656.745	51.36
657.073	51.25
657.4	51.73
657.728	51.06
658.056	51.16
658.383	51.68
658.711	51.18
659.038	51.16
659.365	50.99
659.693	51.36
660.02	51.14
660.347	51.23
660.674	50.74
661.001	50.56
661.329	50.32
661.656	50.98
661.982	51.49
662.309	51.46
662.636	51.03
662.963	51.96
663.29	51.47
663.616	51.96
663.943	51.37
664.27	51.96
664.596	51.25
664.923	51.46
665.249	51.6
665.576	51.8
665.902	51.43
666.228	51.48
666.554	51.3
666.881	52.09
667.207	51.34
667.533	52.35
667.859	51.99
668.185	52.22
668.511	51.84
668.837	52.1
669.162	51.62
669.488	52.46
669.814	52.18
670.139	52.08
