Data from 2017-1_chest_Reflection__1__01.txt Node

Date: Fri Oct 07 15:00:35 CDT 2022
User: ToomeyLab
Spectrometer: FLMS14357
Trigger mode: 0
Integration Time (sec): 1.000000E-2
Scans to average: 100
Electric dark correction enabled: true
Nonlinearity correction enabled: false
Boxcar width: 0
XAxis mode: Wavelengths
Number of Pixels in Spectrum: 2048
>>>>>Begin Spectral Data<<<<<
189.047	115.83
189.435	115.83
189.823	115.83
190.211	74.56
190.599	-438.8
190.987	15.08
191.375	124.04
191.763	-143.29
192.151	-450.84
192.538	353.6
192.926	-749.68
193.314	951.91
193.702	43.97
194.089	-2035.38
194.477	393.47
194.864	81.68
195.252	153.87
195.639	87.51
196.027	224.95
196.414	121.53
196.801	-17.89
197.189	-195.26
197.576	70.53
197.963	169.74
198.351	-8.23
198.738	8.19
199.125	30.25
199.512	13.1
199.899	5.3
200.286	-10.97
200.673	-88.23
201.06	-15.21
201.447	-7.64
201.833	0.01
202.22	-23.89
202.607	18.12
202.994	22.95
203.38	27.31
203.767	13.57
204.154	32.47
204.54	-18.96
204.927	34.49
205.313	20.55
205.699	18.7
206.086	-29.9
206.472	8.49
206.858	-28.96
207.245	0.48
207.631	-3.18
208.017	-27.15
208.403	15.26
208.789	4.17
209.175	-36.58
209.561	17.25
209.947	3.68
210.333	8.5
210.719	-6.67
211.105	33.47
211.491	5.09
211.876	-0.32
212.262	24.17
212.648	12.01
213.034	16.45
213.419	-38.03
213.805	25.25
214.19	-9.69
214.576	0.24
214.961	6.43
215.346	-14.61
215.732	4.3
216.117	2.32
216.502	3.44
216.888	0.8
217.273	-18.5
217.658	5.26
218.043	-5.72
218.428	5.35
218.813	13.71
219.198	17.77
219.583	23.69
219.968	-6.58
220.353	-16.2
220.738	-5.4
221.122	0.38
221.507	-16.8
221.892	-1.72
222.276	14.99
222.661	6.7
223.046	5.97
223.43	6.47
223.815	2.61
224.199	1.6
224.583	2.04
224.968	-3.63
225.352	-0.71
225.736	9.1
226.121	6
226.505	5.93
226.889	1.71
227.273	4.35
227.657	2.53
228.041	1.46
228.425	5.58
228.809	0.86
229.193	0.13
229.577	0.86
229.961	0.92
230.344	0.69
230.728	1.35
231.112	1.46
231.495	1.93
231.879	1.83
232.263	0.47
232.646	0.58
233.03	1.29
233.413	1.62
233.797	2.08
234.18	-2.28
234.563	0.51
234.946	1.02
235.33	-0.25
235.713	0.54
236.096	0.58
236.479	2.62
236.862	0.48
237.245	0.56
237.628	1.35
238.011	2.3
238.394	0.74
238.777	0.11
239.16	2.48
239.543	-1.42
239.925	2.13
240.308	0.01
240.691	-0.06
241.073	-1.21
241.456	2.24
241.838	1.26
242.221	2.32
242.603	1.05
242.986	1.65
243.368	0.94
243.75	1.33
244.133	0.99
244.515	1.24
244.897	0.96
245.279	1.47
245.661	1.33
246.043	1.46
246.425	2.78
246.807	0.99
247.189	1.73
247.571	1.41
247.953	1.08
248.335	1.36
248.717	1.26
249.098	0.91
249.48	1.08
249.862	1.01
250.243	1.1
250.625	1.41
251.006	0.87
251.388	1.1
251.769	1.55
252.151	1.28
252.532	1.96
252.913	0.19
253.295	1.67
253.676	1.45
254.057	1.52
254.438	1.31
254.819	0.82
255.2	0.62
255.581	0.95
255.962	2.04
256.343	1.02
256.724	1.69
257.105	1.58
257.486	1.73
257.867	1.16
258.247	1.35
258.628	1.35
259.009	1.46
259.389	1.61
259.77	1.07
260.15	0.77
260.531	1.6
260.911	1.04
261.292	1.17
261.672	1.2
262.052	1.03
262.432	0.96
262.813	1.28
263.193	0.84
263.573	1.28
263.953	0.94
264.333	1.36
264.713	0.79
265.093	1.34
265.473	1.68
265.853	0.42
266.233	1.86
266.612	1.58
266.992	2.54
267.372	1.01
267.752	0.99
268.131	1.15
268.511	1.27
268.89	0.83
269.27	0.96
269.649	1.49
270.029	1.22
270.408	0.78
270.787	1.35
271.167	1.44
271.546	1.34
271.925	0.77
272.304	0.98
272.683	0.73
273.062	0.83
273.441	1.36
273.82	1.29
274.199	1.26
274.578	0.92
274.957	1.41
275.336	1.08
275.715	0.92
276.093	1.37
276.472	1.05
276.851	0.69
277.229	0.51
277.608	1.46
277.986	1.19
278.365	1.31
278.743	1.26
279.122	1.4
279.5	1.21
279.878	1.29
280.257	1.15
280.635	1.28
281.013	1.22
281.391	0.93
281.769	1.39
282.147	0.78
282.525	0.97
282.903	1.24
283.281	0.66
283.659	1.54
284.037	0.97
284.415	1.4
284.792	1.29
285.17	0.59
285.548	0.79
285.925	1.09
286.303	0.87
286.68	0.7
287.058	0.99
287.435	1.01
287.813	1.18
288.19	1.06
288.567	1.04
288.945	0.97
289.322	0.99
289.699	1.02
290.076	1.18
290.453	1.16
290.83	1.25
291.207	0.87
291.584	1.15
291.961	0.99
292.338	0.78
292.715	1.29
293.092	1.03
293.469	1.36
293.845	1.3
294.222	1.07
294.599	0.99
294.975	0.84
295.352	1.3
295.728	1.2
296.105	1.8
296.481	0.85
296.858	1.29
297.234	0.94
297.61	1.62
297.986	1.27
298.363	1.23
298.739	1.29
299.115	1.09
299.491	1.07
299.867	1.16
300.243	1.68
300.619	1.24
300.995	1.08
301.371	1.14
301.746	1.76
302.122	1.13
302.498	1.21
302.874	0.97
303.249	1.31
303.625	1.42
304	0.82
304.376	1.36
304.751	0.68
305.127	0.84
305.502	1.37
305.878	1
306.253	1.55
306.628	1.73
307.003	1.7
307.378	1.24
307.754	1.1
308.129	1.25
308.504	0.64
308.879	1.38
309.254	1.09
309.629	0.82
310.003	1.07
310.378	0.84
310.753	1.05
311.128	1.23
311.502	1.08
311.877	1.43
312.252	1.2
312.626	1.52
313.001	1.35
313.375	1.18
313.75	1.55
314.124	1.3
314.498	1.27
314.873	1.49
315.247	0.91
315.621	1.28
315.995	0.89
316.369	1.11
316.743	0.87
317.117	1.21
317.491	1.79
317.865	0.81
318.239	1.36
318.613	1.45
318.987	1.57
319.361	0.89
319.734	1.33
320.108	0.91
320.482	1.6
320.855	1.47
321.229	1.87
321.602	1.34
321.976	1.72
322.349	1.59
322.723	0.86
323.096	0.68
323.469	1.51
323.843	1.46
324.216	1.33
324.589	1.6
324.962	2
325.335	0.99
325.708	1.34
326.081	1.1
326.454	1.32
326.827	1.39
327.2	1.27
327.573	1.54
327.945	1.76
328.318	1.36
328.691	1.54
329.063	1.17
329.436	1.33
329.809	1.32
330.181	1.85
330.553	1.29
330.926	1.21
331.298	1.44
331.671	1.23
332.043	0.89
332.415	1.21
332.787	0.91
333.159	1.45
333.532	1.36
333.904	1.72
334.276	1.2
334.648	1.39
335.02	1.63
335.391	1.86
335.763	1.39
336.135	1.4
336.507	1.38
336.879	1.65
337.25	1.53
337.622	1.63
337.993	1.82
338.365	1.75
338.736	1.53
339.108	1.73
339.479	1.66
339.851	1.49
340.222	1.47
340.593	1.3
340.964	1.7
341.336	1.48
341.707	1.43
342.078	1.57
342.449	1.49
342.82	1.46
343.191	1.43
343.562	1.4
343.933	1.71
344.303	1.55
344.674	1.6
345.045	1.54
345.416	1.33
345.786	1.79
346.157	1.66
346.527	1.23
346.898	1.61
347.268	1.24
347.639	0.88
348.009	1.69
348.38	1.57
348.75	1.46
349.12	2.08
349.49	1.35
349.861	1.32
350.231	1.69
350.601	1.52
350.971	1.56
351.341	1.46
351.711	1.68
352.081	1.5
352.45	1.53
352.82	1.4
353.19	1.77
353.56	1.25
353.929	1.3
354.299	1.73
354.669	1.37
355.038	1.16
355.408	1.49
355.777	1.41
356.147	1.39
356.516	1.33
356.885	1.68
357.254	1.1
357.624	1.42
357.993	1.22
358.362	1.31
358.731	1.69
359.1	1.54
359.469	1.82
359.838	1.18
360.207	1.46
360.576	1.49
360.945	1.47
361.314	1.89
361.682	1.74
362.051	1.37
362.42	1.71
362.788	1.45
363.157	1.41
363.525	1.65
363.894	1.46
364.262	1.45
364.631	1.41
364.999	1.47
365.367	1.38
365.735	1.73
366.104	1.29
366.472	1.55
366.84	1.29
367.208	1.41
367.576	1.37
367.944	1.53
368.312	1.45
368.68	1.29
369.048	1.75
369.416	1.57
369.783	1.48
370.151	1.63
370.519	1.62
370.886	1.21
371.254	1.79
371.621	1.53
371.989	1.78
372.356	1.59
372.724	2.07
373.091	1.82
373.458	1.57
373.826	1.23
374.193	1.72
374.56	1.69
374.927	1.7
375.294	1.34
375.661	1.38
376.028	1.39
376.395	1.46
376.762	1.33
377.129	1.81
377.496	1.55
377.863	1.6
378.229	1.62
378.596	1.56
378.963	1.79
379.329	1.2
379.696	1.4
380.062	1.59
380.429	1.62
380.795	1.73
381.161	1.49
381.528	2.11
381.894	1.93
382.26	1.57
382.626	1.61
382.993	1.57
383.359	1.34
383.725	1.56
384.091	1.78
384.457	1.83
384.823	1.47
385.188	1.46
385.554	1.71
385.92	1.85
386.286	1.61
386.651	1.39
387.017	1.66
387.383	1.44
387.748	1.56
388.114	1.67
388.479	1.59
388.845	1.61
389.21	1.93
389.575	1.51
389.94	1.68
390.306	1.57
390.671	2.14
391.036	1.5
391.401	1.58
391.766	1.61
392.131	1.65
392.496	1.61
392.861	1.7
393.226	1.93
393.591	1.64
393.956	1.61
394.32	1.69
394.685	1.44
395.05	1.38
395.414	1.82
395.779	1.62
396.143	1.75
396.508	1.52
396.872	1.65
397.236	1.52
397.601	1.67
397.965	1.59
398.329	1.54
398.694	1.79
399.058	1.68
399.422	1.77
399.786	1.59
400.15	1.76
400.514	1.45
400.878	1.53
401.242	1.24
401.605	1.61
401.969	1.6
402.333	1.57
402.697	1.61
403.06	1.83
403.424	1.68
403.787	1.76
404.151	1.72
404.514	1.56
404.878	1.41
405.241	1.46
405.604	1.76
405.968	1.72
406.331	1.55
406.694	1.55
407.057	1.66
407.42	1.61
407.783	1.48
408.146	1.78
408.509	1.51
408.872	1.61
409.235	1.54
409.598	1.75
409.961	1.69
410.323	1.56
410.686	1.63
411.049	1.59
411.411	1.92
411.774	1.59
412.136	1.71
412.499	1.59
412.861	1.55
413.223	1.54
413.586	1.56
413.948	1.55
414.31	1.5
414.672	1.79
415.035	1.55
415.397	1.99
415.759	1.49
416.121	1.65
416.483	1.75
416.845	1.6
417.206	1.65
417.568	1.77
417.93	1.54
418.292	1.65
418.653	1.68
419.015	1.74
419.377	1.61
419.738	1.73
420.1	1.73
420.461	1.7
420.822	1.65
421.184	1.52
421.545	1.66
421.906	1.61
422.267	1.55
422.629	1.69
422.99	1.59
423.351	1.68
423.712	1.57
424.073	1.73
424.434	1.62
424.795	1.47
425.155	1.66
425.516	1.63
425.877	1.68
426.238	1.69
426.598	1.7
426.959	1.64
427.32	1.79
427.68	1.54
428.041	1.61
428.401	1.69
428.761	1.81
429.122	1.67
429.482	1.63
429.842	1.63
430.202	1.74
430.563	1.76
430.923	1.65
431.283	1.7
431.643	1.73
432.003	1.8
432.363	1.93
432.722	1.73
433.082	1.68
433.442	1.61
433.802	1.93
434.161	1.91
434.521	1.8
434.881	1.68
435.24	1.77
435.6	1.76
435.959	1.69
436.319	1.77
436.678	1.76
437.037	1.78
437.396	1.81
437.756	1.74
438.115	1.75
438.474	1.83
438.833	1.84
439.192	1.74
439.551	1.79
439.91	1.73
440.269	1.62
440.628	1.74
440.987	1.83
441.345	1.76
441.704	1.69
442.063	1.74
442.421	1.79
442.78	1.73
443.138	1.74
443.497	1.75
443.855	1.7
444.214	1.71
444.572	1.75
444.93	1.65
445.288	1.66
445.647	1.94
446.005	1.68
446.363	1.81
446.721	1.78
447.079	1.76
447.437	1.83
447.795	1.78
448.153	1.7
448.51	1.74
448.868	1.72
449.226	1.8
449.584	1.76
449.941	1.79
450.299	1.72
450.656	1.72
451.014	1.79
451.371	1.62
451.729	1.63
452.086	1.74
452.443	1.84
452.801	1.77
453.158	1.9
453.515	1.81
453.872	1.81
454.229	1.77
454.586	1.68
454.943	1.77
455.3	1.69
455.657	1.96
456.014	1.81
456.371	1.8
456.727	1.9
457.084	1.9
457.441	1.97
457.797	1.95
458.154	1.77
458.51	1.9
458.867	1.83
459.223	1.92
459.58	1.92
459.936	1.75
460.292	1.93
460.648	1.86
461.005	1.84
461.361	1.73
461.717	1.75
462.073	1.77
462.429	1.82
462.785	1.85
463.141	1.72
463.496	1.97
463.852	2
464.208	1.88
464.564	1.83
464.919	1.79
465.275	1.87
465.631	1.89
465.986	1.89
466.342	1.92
466.697	1.94
467.052	1.81
467.408	1.78
467.763	1.78
468.118	1.59
468.473	1.84
468.829	1.84
469.184	1.94
469.539	1.92
469.894	1.78
470.249	1.85
470.603	1.95
470.958	1.94
471.313	1.79
471.668	1.85
472.023	1.74
472.377	2.13
472.732	1.98
473.086	2.11
473.441	2.01
473.795	1.79
474.15	1.8
474.504	1.94
474.859	1.87
475.213	1.84
475.567	1.91
475.921	1.84
476.275	2.02
476.63	1.98
476.984	1.73
477.338	1.74
477.692	1.92
478.045	1.85
478.399	2.06
478.753	1.86
479.107	2.03
479.461	1.86
479.814	1.86
480.168	1.8
480.521	1.88
480.875	1.84
481.228	1.71
481.582	1.87
481.935	1.8
482.289	1.93
482.642	1.93
482.995	1.86
483.348	1.92
483.701	1.81
484.055	1.78
484.408	1.91
484.761	1.79
485.114	1.78
485.466	1.79
485.819	1.76
486.172	1.75
486.525	1.78
486.878	1.84
487.23	1.9
487.583	1.82
487.936	1.87
488.288	1.89
488.641	1.82
488.993	1.76
489.345	1.86
489.698	1.81
490.05	1.83
490.402	1.8
490.754	1.86
491.107	1.9
491.459	1.92
491.811	1.97
492.163	1.97
492.515	1.97
492.866	1.84
493.218	1.9
493.57	1.84
493.922	1.86
494.274	1.86
494.625	1.92
494.977	1.93
495.328	1.95
495.68	1.92
496.031	1.87
496.383	1.97
496.734	1.9
497.086	1.89
497.437	1.99
497.788	1.97
498.139	2.02
498.49	2.1
498.842	2
499.193	1.86
499.544	1.95
499.894	2.08
500.245	1.99
500.596	1.93
500.947	1.88
501.298	1.89
501.648	1.99
501.999	2.13
502.35	2.03
502.7	2.12
503.051	2.01
503.401	2.08
503.752	1.97
504.102	2.03
504.452	2.03
504.803	2.07
505.153	2.1
505.503	1.97
505.853	2.11
506.203	1.95
506.553	2.17
506.903	2.09
507.253	2.15
507.603	2.12
507.953	2.03
508.303	2.1
508.652	2.01
509.002	2.07
509.352	2.05
509.701	2.09
510.051	2
510.4	2.06
510.75	2.06
511.099	1.93
511.449	2.02
511.798	2.13
512.147	2.03
512.496	2.03
512.846	2.15
513.195	2.11
513.544	2.02
513.893	2.14
514.242	1.96
514.591	2.06
514.939	2.1
515.288	2.1
515.637	2.15
515.986	2.13
516.334	2.12
516.683	2.05
517.032	2.02
517.38	2.1
517.729	1.99
518.077	2.1
518.426	2.12
518.774	2.04
519.122	2.11
519.47	2.14
519.819	2.04
520.167	2.01
520.515	2.01
520.863	1.99
521.211	2.05
521.559	2.08
521.907	2.07
522.255	2.02
522.602	2.06
522.95	2.05
523.298	2.17
523.645	2.11
523.993	1.95
524.341	2.1
524.688	2.12
525.036	2.16
525.383	2.05
525.73	2.17
526.078	2.14
526.425	2.14
526.772	2.13
527.119	2.08
527.466	2.13
527.814	2.05
528.161	2.13
528.508	2.04
528.854	2.08
529.201	2.12
529.548	2.07
529.895	2.01
530.242	2.04
530.588	1.99
530.935	2
531.282	2.03
531.628	2.04
531.975	2.14
532.321	2.15
532.667	2.15
533.014	2.09
533.36	2.1
533.706	2.18
534.052	2.12
534.399	2.14
534.745	2.13
535.091	2.09
535.437	2
535.783	2.16
536.129	2.21
536.474	2.13
536.82	2.15
537.166	2.2
537.512	2.19
537.857	2.15
538.203	2.08
538.549	2.11
538.894	2.12
539.239	2.16
539.585	2.25
539.93	2.32
540.276	2.28
540.621	2.3
540.966	2.18
541.311	2.31
541.656	2.31
542.001	2.15
542.346	2.19
542.691	2.19
543.036	2.18
543.381	2.12
543.726	2.14
544.071	2.23
544.415	2.22
544.76	2.23
545.105	2.21
545.449	2.21
545.794	2.24
546.138	2.29
546.483	2.25
546.827	2.27
547.171	2.34
547.516	2.25
547.86	2.22
548.204	2.37
548.548	2.32
548.892	2.27
549.236	2.36
549.58	2.3
549.924	2.34
550.268	2.3
550.612	2.32
550.956	2.27
551.3	2.39
551.643	2.25
551.987	2.48
552.33	2.37
552.674	2.42
553.017	2.55
553.361	2.4
553.704	2.42
554.048	2.32
554.391	2.26
554.734	2.47
555.077	2.39
555.42	2.39
555.764	2.46
556.107	2.38
556.45	2.44
556.793	2.53
557.135	2.41
557.478	2.46
557.821	2.43
558.164	2.3
558.507	2.51
558.849	2.42
559.192	2.4
559.534	2.28
559.877	2.46
560.219	2.54
560.562	2.35
560.904	2.51
561.246	2.6
561.589	2.49
561.931	2.5
562.273	2.65
562.615	2.7
562.957	2.63
563.299	2.63
563.641	2.41
563.983	2.5
564.325	2.59
564.667	2.63
565.008	2.6
565.35	2.33
565.692	2.4
566.033	2.53
566.375	2.72
566.716	2.55
567.058	2.48
567.399	2.52
567.741	2.55
568.082	2.6
568.423	2.57
568.764	2.51
569.105	2.53
569.447	2.69
569.788	2.56
570.129	2.76
570.47	2.89
570.811	2.63
571.151	2.55
571.492	2.74
571.833	2.64
572.174	2.66
572.514	2.62
572.855	2.71
573.195	2.64
573.536	2.72
573.876	2.72
574.217	2.74
574.557	2.74
574.898	2.64
575.238	2.86
575.578	2.82
575.918	2.68
576.258	2.89
576.598	2.71
576.938	2.77
577.278	2.88
577.618	2.65
577.958	2.97
578.298	2.89
578.638	2.8
578.977	2.75
579.317	2.74
579.657	2.88
579.996	2.86
580.336	2.93
580.675	2.86
581.014	2.9
581.354	2.93
581.693	2.94
582.032	3.05
582.372	2.85
582.711	2.84
583.05	2.81
583.389	2.9
583.728	2.88
584.067	2.86
584.406	3.17
584.745	2.94
585.083	3.09
585.422	2.94
585.761	2.95
586.1	3.2
586.438	3.12
586.777	3.06
587.115	3.18
587.454	2.93
587.792	3.1
588.13	3.02
588.469	2.97
588.807	2.92
589.145	3.08
589.483	3.11
589.821	2.9
590.159	3.05
590.497	2.94
590.835	3.17
591.173	3
591.511	3.35
591.849	3.25
592.187	3.22
592.524	3.2
592.862	3.22
593.2	3.1
593.537	2.99
593.875	3.37
594.212	3.2
594.55	3.12
594.887	3.14
595.224	3.42
595.561	3.21
595.899	3.18
596.236	3.56
596.573	3.12
596.91	3.39
597.247	3.39
597.584	3.25
597.921	3.37
598.258	3.36
598.594	3.19
598.931	3.24
599.268	3.07
599.604	3.54
599.941	3.34
600.277	3.25
600.614	3.13
600.95	3.33
601.287	3.43
601.623	3.69
601.959	3.1
602.296	3.67
602.632	3.14
602.968	3.21
603.304	3.13
603.64	3.34
603.976	3.37
604.312	3.7
604.648	3.42
604.984	3.38
605.319	3.56
605.655	3.45
605.991	3.38
606.326	3.58
606.662	3.6
606.998	3.58
607.333	3.36
607.668	3.57
608.004	3.42
608.339	3.69
608.674	3.52
609.01	3.64
609.345	3.45
609.68	3.49
610.015	3.5
610.35	3.67
610.685	3.77
611.02	3.78
611.355	3.78
611.689	3.73
612.024	3.74
612.359	3.74
612.694	3.66
613.028	3.71
613.363	3.54
613.697	3.64
614.032	3.38
614.366	3.79
614.7	3.7
615.035	3.75
615.369	3.62
615.703	3.77
616.037	3.5
616.371	3.55
616.705	3.88
617.039	4.05
617.373	4.15
617.707	3.74
618.041	4.24
618.375	4.17
618.709	4.03
619.042	3.78
619.376	4.02
619.71	3.89
620.043	3.57
620.377	3.86
620.71	3.67
621.043	4.24
621.377	4.18
621.71	4.01
622.043	3.84
622.376	3.72
622.709	3.99
623.043	4
623.376	4.26
623.709	3.81
624.041	4.16
624.374	3.95
624.707	4.24
625.04	4.23
625.373	4.13
625.705	4.04
626.038	4.33
626.37	4.28
626.703	4.32
627.035	4.28
627.368	4.16
627.7	4.01
628.032	4.26
628.365	4.21
628.697	4.18
629.029	4.3
629.361	4.15
629.693	4.04
630.025	4.24
630.357	4.27
630.689	4.35
631.021	4.21
631.353	4.37
631.684	4.31
632.016	4.46
632.348	4.54
632.679	4.29
633.011	4.55
633.342	4.56
633.674	4.71
634.005	4.37
634.336	4.29
634.668	4.28
634.999	4.29
635.33	4.36
635.661	4.46
635.992	3.98
636.323	4.4
636.654	4.42
636.985	4.37
637.316	4.66
637.647	4.17
637.977	4.59
638.308	4.63
638.639	4.29
638.969	4.27
639.3	4.42
639.63	4.37
639.961	4.61
640.291	4.44
640.622	4.86
640.952	4.48
641.282	4.4
641.612	4.7
641.943	4.95
642.273	4.63
642.603	4.83
642.933	4.88
643.263	4.97
643.592	4.58
643.922	4.67
644.252	4.97
644.582	5.32
644.911	5.17
645.241	4.81
645.571	4.58
645.9	5.18
646.23	4.87
646.559	5.01
646.888	5.03
647.218	4.85
647.547	4.72
647.876	4.84
648.205	5.18
648.534	5.42
648.863	5.11
649.192	4.97
649.521	5.18
649.85	4.59
650.179	5.67
650.508	5.48
650.837	5.24
651.165	5.01
651.494	5.17
651.822	5.03
652.151	5.41
652.479	5.19
652.808	4.97
653.136	4.51
653.465	5.1
653.793	5.42
654.121	5.64
654.449	5.31
654.777	4.82
655.105	5.46
655.433	5.65
655.761	5.1
656.089	5.34
656.417	5.19
656.745	5.07
657.073	5.04
657.4	4.91
657.728	5.35
658.056	5.48
658.383	5.13
658.711	5.49
659.038	5.91
659.365	5.3
659.693	5.2
660.02	5.41
660.347	5.44
660.674	5.28
661.001	5.44
661.329	5.57
661.656	5.36
661.982	5.17
662.309	5.41
662.636	5.44
662.963	5.27
663.29	5.13
663.616	5.68
663.943	5.57
664.27	5.51
664.596	5.62
664.923	5.42
665.249	5.76
665.576	5.62
665.902	5.57
666.228	5.68
666.554	5.66
666.881	5.71
667.207	6.18
667.533	6.24
667.859	5.45
668.185	6.09
668.511	6.08
668.837	6.36
669.162	6.29
669.488	4.87
669.814	5.95
670.139	5.99
670.465	6
670.791	5.46
671.116	5.68
671.442	5.96
671.767	6.26
672.092	6.05
672.418	6.1
672.743	6.29
673.068	6.34
673.393	6.04
673.718	6.34
674.043	6.44
674.368	5.67
674.693	6.68
675.018	5.9
675.343	5.68
675.667	6.57
675.992	6.7
676.317	6.04
676.641	6.32
676.966	6.49
677.29	6.18
677.615	5.23
677.939	5.93
678.264	6.38
678.588	6.57
678.912	6.42
679.236	6.16
679.56	6.27
679.885	6.21
680.209	6.83
680.532	5.88
680.856	6.02
681.18	6.26
681.504	6.08
681.828	6.25
682.152	6.3
682.475	6.52
682.799	6.48
683.122	6.25
683.446	6.22
683.769	6.53
684.093	6.47
684.416	6.4
684.739	6.46
685.062	6.48
685.386	6.27
685.709	7.27
686.032	6.46
686.355	6.18
686.678	6.15
687.001	6.66
687.324	6.87
687.646	6.43
687.969	6.53
688.292	6.59
688.614	6.24
688.937	6.43
689.26	7.03
689.582	6.58
689.904	6.61
690.227	6.95
690.549	6.18
690.871	6.94
691.194	6.94
691.516	7.07
691.838	6.65
692.16	7.16
692.482	6.78
