Data from 2017-1_forehead_Reflection__3__13.txt Node

Date: Fri Oct 07 15:05:43 CDT 2022
User: ToomeyLab
Spectrometer: FLMS14357
Trigger mode: 0
Integration Time (sec): 1.000000E-2
Scans to average: 100
Electric dark correction enabled: true
Nonlinearity correction enabled: false
Boxcar width: 0
XAxis mode: Wavelengths
Number of Pixels in Spectrum: 2048
>>>>>Begin Spectral Data<<<<<
189.047	192.44
189.435	192.44
189.823	192.44
190.211	138.82
190.599	3.79
190.987	73.55
191.375	77.78
191.763	185.77
192.151	283.53
192.538	-109.8
192.926	351.86
193.314	2189.31
193.702	95.37
194.089	-1286.15
194.477	327.27
194.864	74
195.252	167.72
195.639	22.35
196.027	-21.44
196.414	246.69
196.801	98.92
197.189	-152.06
197.576	-20.49
197.963	260.53
198.351	34.13
198.738	25.79
199.125	42.45
199.512	40.88
199.899	34.87
200.286	41.29
200.673	21.93
201.06	43.72
201.447	22.68
201.833	42.88
202.22	36.87
202.607	23.6
202.994	29.12
203.38	24.41
203.767	49.7
204.154	8.39
204.54	59.61
204.927	16.54
205.313	-15.09
205.699	27.19
206.086	54.58
206.472	21.23
206.858	53.1
207.245	36.64
207.631	52.77
208.017	56.28
208.403	27.54
208.789	35.59
209.175	-31.09
209.561	36.72
209.947	47.73
210.333	39.67
210.719	32.29
211.105	30.3
211.491	54.13
211.876	58.53
212.262	26.54
212.648	42.4
213.034	18.26
213.419	-10.53
213.805	28.57
214.19	26.13
214.576	31.73
214.961	24.64
215.346	-13.69
215.732	16.85
216.117	41.42
216.502	12.62
216.888	-2.69
217.273	8.15
217.658	23.76
218.043	26.42
218.428	16.95
218.813	54.36
219.198	28.81
219.583	20.85
219.968	8.37
220.353	4.76
220.738	0.32
221.122	14.4
221.507	2.53
221.892	-2.5
222.276	14.4
222.661	30.38
223.046	8.12
223.43	17.63
223.815	7.86
224.199	14.72
224.583	16.5
224.968	6.21
225.352	12.33
225.736	13.68
226.121	19.1
226.505	11.32
226.889	8.95
227.273	14.9
227.657	9.43
228.041	8.23
228.425	6.75
228.809	4.94
229.193	5.75
229.577	5.54
229.961	5.37
230.344	5.27
230.728	5.16
231.112	5.74
231.495	6.29
231.879	5.05
232.263	4.31
232.646	6.2
233.03	5.62
233.413	4.92
233.797	8
234.18	6.23
234.563	4.84
234.946	5.15
235.33	4.98
235.713	5.42
236.096	5.07
236.479	5.1
236.862	6.11
237.245	5.21
237.628	5.12
238.011	7.1
238.394	4.55
238.777	5.72
239.16	7.77
239.543	5.03
239.925	6.68
240.308	5.1
240.691	6.03
241.073	5.45
241.456	5.25
241.838	5.9
242.221	5.53
242.603	6.27
242.986	5.86
243.368	5.43
243.75	5.54
244.133	4.89
244.515	5.4
244.897	5.48
245.279	5.79
245.661	5.74
246.043	5.53
246.425	6.48
246.807	5.36
247.189	6.41
247.571	5.41
247.953	5.11
248.335	5.31
248.717	5.21
249.098	5.07
249.48	5.15
249.862	5.26
250.243	5.41
250.625	5.47
251.006	5.69
251.388	5.84
251.769	5.63
252.151	5.8
252.532	6.56
252.913	5.42
253.295	6.63
253.676	5.52
254.057	5.79
254.438	5.63
254.819	5.36
255.2	5.12
255.581	5.73
255.962	5.76
256.343	5.77
256.724	5.64
257.105	7.12
257.486	6.57
257.867	5.17
258.247	6.54
258.628	5.75
259.009	5.99
259.389	5.66
259.77	6.32
260.15	5.03
260.531	5.44
260.911	5.26
261.292	5.03
261.672	5.01
262.052	5.12
262.432	5.12
262.813	5.28
263.193	5.46
263.573	5.73
263.953	5.79
264.333	5.64
264.713	4.97
265.093	5.15
265.473	6.19
265.853	5.43
266.233	5.8
266.612	5.75
266.992	6.05
267.372	5.42
267.752	5.17
268.131	5.25
268.511	5.58
268.89	4.84
269.27	4.89
269.649	5.41
270.029	5.53
270.408	4.66
270.787	5.65
271.167	6.02
271.546	5.19
271.925	4.97
272.304	5.54
272.683	5.04
273.062	4.97
273.441	5.11
273.82	4.99
274.199	5.49
274.578	5.15
274.957	5.18
275.336	5.36
275.715	5.35
276.093	5.23
276.472	4.88
276.851	5.33
277.229	5.09
277.608	5.37
277.986	5.1
278.365	5.44
278.743	5.44
279.122	5.49
279.5	5.15
279.878	5.6
280.257	5.4
280.635	5.53
281.013	5.05
281.391	4.86
281.769	5.4
282.147	5.1
282.525	5.03
282.903	5.5
283.281	5.03
283.659	5.3
284.037	5.35
284.415	5.64
284.792	5.22
285.17	5.05
285.548	5.26
285.925	5.33
286.303	5.28
286.68	4.75
287.058	4.99
287.435	5.13
287.813	5.03
288.19	5.42
288.567	5.51
288.945	5.18
289.322	5.25
289.699	4.96
290.076	5.56
290.453	5.41
290.83	5.51
291.207	5.69
291.584	5.79
291.961	5.18
292.338	5.44
292.715	5.53
293.092	5.78
293.469	6.2
293.845	5.92
294.222	5.77
294.599	5.25
294.975	5.13
295.352	6.2
295.728	5.85
296.105	6.3
296.481	5.56
296.858	6.2
297.234	5.94
297.61	6.04
297.986	5.99
298.363	6.05
298.739	5.64
299.115	5.99
299.491	6.12
299.867	5.72
300.243	6.18
300.619	6.28
300.995	6.3
301.371	5.94
301.746	6.33
302.122	6.59
302.498	6.89
302.874	6.29
303.249	6.32
303.625	6.48
304	6.55
304.376	6.79
304.751	6.68
305.127	6.6
305.502	6.83
305.878	6.44
306.253	7.1
306.628	7.55
307.003	7.28
307.378	7.43
307.754	7
308.129	7.12
308.504	6.96
308.879	7.22
309.254	7.26
309.629	7.45
310.003	7.49
310.378	7.53
310.753	7.2
311.128	7.18
311.502	8.03
311.877	8.14
312.252	7.68
312.626	7.87
313.001	8.02
313.375	7.66
313.75	8.04
314.124	7.99
314.498	8.12
314.873	8.4
315.247	8.25
315.621	7.86
315.995	8.47
316.369	8.17
316.743	7.96
317.117	8.3
317.491	9.24
317.865	8.92
318.239	9.42
318.613	9.32
318.987	9.33
319.361	9.76
319.734	8.77
320.108	8.85
320.482	10.03
320.855	9.21
321.229	9.94
321.602	9.15
321.976	9.19
322.349	9.83
322.723	9.62
323.096	9.29
323.469	10.4
323.843	9.65
324.216	10.2
324.589	10.57
324.962	10.1
325.335	9.61
325.708	9.65
326.081	10.07
326.454	10.36
326.827	10.1
327.2	10.55
327.573	10.84
327.945	10.5
328.318	10.39
328.691	10.68
329.063	10.81
329.436	10.74
329.809	11.15
330.181	10.87
330.553	11.07
330.926	11.36
331.298	10.63
331.671	10.88
332.043	11.62
332.415	11.3
332.787	11.18
333.159	11.08
333.532	11.62
333.904	11.71
334.276	11.54
334.648	11.41
335.02	11.59
335.391	12.27
335.763	11.98
336.135	11.89
336.507	12.38
336.879	12.18
337.25	12.49
337.622	11.81
337.993	12.49
338.365	12.5
338.736	12.09
339.108	12.69
339.479	12.25
339.851	12.14
340.222	12.14
340.593	12.4
340.964	12.49
341.336	12.39
341.707	12.48
342.078	12.67
342.449	12.92
342.82	12.62
343.191	12.67
343.562	12.85
343.933	13.35
344.303	13.02
344.674	13.38
345.045	13.37
345.416	13.32
345.786	13.85
346.157	13.12
346.527	12.96
346.898	13.73
347.268	13.28
347.639	13.27
348.009	13.87
348.38	13.44
348.75	14.13
349.12	14.15
349.49	13.62
349.861	13.81
350.231	14.66
350.601	14.33
350.971	14.25
351.341	13.9
351.711	14.45
352.081	14.4
352.45	14.51
352.82	14.4
353.19	14.82
353.56	14.49
353.929	14.46
354.299	14.71
354.669	14.82
355.038	15
355.408	14.97
355.777	14.96
356.147	14.83
356.516	15.05
356.885	15.29
357.254	15.3
357.624	15.19
357.993	14.81
358.362	15.2
358.731	15.42
359.1	15.56
359.469	15.93
359.838	15.25
360.207	15.76
360.576	15.79
360.945	15.94
361.314	15.8
361.682	16.05
362.051	15.89
362.42	16.19
362.788	15.99
363.157	15.81
363.525	16.12
363.894	16.37
364.262	16.42
364.631	16.18
364.999	16.5
365.367	16.35
365.735	17.01
366.104	16.64
366.472	16.75
366.84	16.67
367.208	16.79
367.576	16.77
367.944	16.94
368.312	16.76
368.68	17.06
369.048	17.34
369.416	17.14
369.783	17.11
370.151	17.61
370.519	17.49
370.886	17.42
371.254	17.42
371.621	17.45
371.989	17.58
372.356	17.91
372.724	18.03
373.091	17.79
373.458	17.96
373.826	17.93
374.193	18.08
374.56	18.19
374.927	18.25
375.294	18.65
375.661	18.15
376.028	18.61
376.395	18.67
376.762	18.35
377.129	18.52
377.496	18.74
377.863	19.08
378.229	18.93
378.596	18.87
378.963	18.89
379.329	18.88
379.696	18.77
380.062	19.12
380.429	19.48
380.795	19.27
381.161	19.22
381.528	19.36
381.894	19.66
382.26	19.49
382.626	19.31
382.993	19.81
383.359	19.4
383.725	19.71
384.091	19.96
384.457	19.98
384.823	19.83
385.188	19.88
385.554	20.13
385.92	20.35
386.286	20.45
386.651	20.46
387.017	20.63
387.383	20.59
387.748	20.48
388.114	20.47
388.479	20.85
388.845	20.59
389.21	20.76
389.575	20.75
389.94	21
390.306	20.8
390.671	21.36
391.036	20.97
391.401	21.31
391.766	21.49
392.131	21.25
392.496	20.92
392.861	21.16
393.226	21.36
393.591	21.45
393.956	21.62
394.32	21.43
394.685	21.71
395.05	21.69
395.414	21.82
395.779	21.9
396.143	21.8
396.508	21.85
396.872	22.07
397.236	22.08
397.601	22.09
397.965	22.63
398.329	22.34
398.694	22.24
399.058	22.34
399.422	22.61
399.786	22.5
400.15	22.84
400.514	22.71
400.878	22.8
401.242	22.74
401.605	22.92
401.969	23.03
402.333	23.21
402.697	23.26
403.06	23.18
403.424	23.32
403.787	23.84
404.151	23.35
404.514	23.44
404.878	23.3
405.241	23.18
405.604	23.34
405.968	23.27
406.331	23.49
406.694	23.45
407.057	23.68
407.42	23.59
407.783	24
408.146	23.99
408.509	23.99
408.872	23.86
409.235	24.22
409.598	24.41
409.961	24.34
410.323	24.47
410.686	24.62
411.049	24.55
411.411	24.45
411.774	24.5
412.136	24.54
412.499	24.63
412.861	24.85
413.223	24.87
413.586	25.09
413.948	24.96
414.31	24.97
414.672	25.14
415.035	25.31
415.397	25.34
415.759	25.27
416.121	25.36
416.483	25.59
416.845	25.17
417.206	25.33
417.568	25.53
417.93	25.44
418.292	25.48
418.653	25.52
419.015	25.56
419.377	25.38
419.738	25.38
420.1	25.64
420.461	25.59
420.822	25.63
421.184	25.56
421.545	25.72
421.906	25.65
422.267	25.65
422.629	25.56
422.99	25.7
423.351	25.79
423.712	25.97
424.073	26.06
424.434	26.25
424.795	26.17
425.155	26.31
425.516	26.13
425.877	26.18
426.238	26.39
426.598	26.42
426.959	26.61
427.32	26.79
427.68	26.7
428.041	27.07
428.401	27.22
428.761	27.43
429.122	27.51
429.482	27.51
429.842	27.71
430.202	27.86
430.563	28.08
430.923	27.68
431.283	27.72
431.643	27.82
432.003	27.87
432.363	28.21
432.722	28.23
433.082	27.92
433.442	28.26
433.802	28.36
434.161	28.15
434.521	28.37
434.881	28.43
435.24	28.4
435.6	28.35
435.959	28.61
436.319	28.7
436.678	28.77
437.037	28.75
437.396	28.79
437.756	28.96
438.115	29.16
438.474	29.06
438.833	29.18
439.192	29.25
439.551	29.19
439.91	29.26
440.269	29.27
440.628	29.3
440.987	29.26
441.345	29.33
441.704	29.28
442.063	29.35
442.421	29.33
442.78	29.42
443.138	29.66
443.497	29.75
443.855	30.05
444.214	29.95
444.572	30.2
444.93	30.12
445.288	30.08
445.647	30.43
446.005	30.27
446.363	30.24
446.721	30.18
447.079	30.23
447.437	30.07
447.795	30.12
448.153	30.04
448.51	30.08
448.868	30.24
449.226	30.37
449.584	30.6
449.941	30.83
450.299	30.97
450.656	30.97
451.014	31.19
451.371	31.29
451.729	31.41
452.086	31.45
452.443	31.67
452.801	31.48
453.158	31.7
453.515	31.72
453.872	31.67
454.229	31.91
454.586	31.51
454.943	31.78
455.3	32.02
455.657	32.21
456.014	31.98
456.371	32.2
456.727	32.47
457.084	32.26
457.441	32.34
457.797	32.51
458.154	32.46
458.51	32.65
458.867	32.58
459.223	32.8
459.58	32.62
459.936	32.64
460.292	32.59
460.648	32.82
461.005	32.44
461.361	32.13
461.717	32.21
462.073	32.4
462.429	32.72
462.785	32.97
463.141	33.22
463.496	33.44
463.852	33.47
464.208	33.43
464.564	33.75
464.919	33.81
465.275	33.79
465.631	34.12
465.986	33.99
466.342	34.04
466.697	33.92
467.052	33.9
467.408	34.05
467.763	34.17
468.118	34.08
468.473	34.33
468.829	34.37
469.184	34.31
469.539	34.58
469.894	34.54
470.249	34.5
470.603	34.72
470.958	34.74
471.313	34.78
471.668	34.82
472.023	34.68
472.377	35.25
472.732	34.94
473.086	34.95
473.441	35
473.795	35.18
474.15	34.86
474.504	35.31
474.859	35.31
475.213	35.32
475.567	35.28
475.921	35.63
476.275	35.49
476.63	35.51
476.984	35.81
477.338	35.7
477.692	35.86
478.045	35.86
478.399	35.8
478.753	35.72
479.107	35.89
479.461	35.86
479.814	35.84
480.168	36.03
480.521	36.07
480.875	35.97
481.228	36.14
481.582	36.44
481.935	36.25
482.289	36.39
482.642	36.28
482.995	36.23
483.348	36.25
483.701	36
484.055	35.94
484.408	35.73
484.761	35.52
485.114	35.11
485.466	35.08
485.819	35.35
486.172	35.59
486.525	35.94
486.878	36.05
487.23	36.13
487.583	36.33
487.936	36.37
488.288	36.22
488.641	36.07
488.993	35.9
489.345	35.91
489.698	36.15
490.05	36.26
490.402	36.36
490.754	36.72
491.107	37
491.459	37.27
491.811	37.21
492.163	37.3
492.515	37.4
492.866	36.86
493.218	36.6
493.57	36.78
493.922	36.95
494.274	37.39
494.625	37.45
494.977	37.9
495.328	37.96
495.68	38.31
496.031	38.45
496.383	38.56
496.734	38.47
497.086	38.53
497.437	38.6
497.788	38.61
498.139	38.61
498.49	38.35
498.842	38.62
499.193	38.55
499.544	38.64
499.894	38.77
500.245	38.76
500.596	38.88
500.947	38.99
501.298	39.23
501.648	39.17
501.999	39.34
502.35	39.52
502.7	39.46
503.051	39.78
503.401	39.71
503.752	39.65
504.102	39.89
504.452	39.66
504.803	39.67
505.153	40.02
505.503	39.75
505.853	39.94
506.203	39.8
506.553	40.28
506.903	40.06
507.253	40.18
507.603	40.34
507.953	40.28
508.303	40.57
508.652	40.53
509.002	40.38
509.352	40.47
509.701	40.52
510.051	40.41
510.4	40.3
510.75	40.45
511.099	40.32
511.449	40.37
511.798	40.47
512.147	40.55
512.496	40.73
512.846	40.84
513.195	40.74
513.544	40.78
513.893	40.97
514.242	40.97
514.591	40.97
514.939	41.07
515.288	41.18
515.637	41.61
515.986	41.33
516.334	41.51
516.683	41.59
517.032	41.75
517.38	42
517.729	41.56
518.077	41.86
518.426	41.77
518.774	41.64
519.122	41.71
519.47	41.5
519.819	41.32
520.167	41.37
520.515	41.44
520.863	41.65
521.211	41.67
521.559	41.89
521.907	41.93
522.255	41.89
522.602	42.13
522.95	42.43
523.298	42.57
523.645	42.65
523.993	42.81
524.341	42.64
524.688	42.77
525.036	42.57
525.383	42.69
525.73	42.64
526.078	42.79
526.425	42.96
526.772	42.44
527.119	42.23
527.466	42.34
527.814	42.47
528.161	42.66
528.508	42.43
528.854	42.73
529.201	42.54
529.548	42.2
529.895	41.78
530.242	41.95
530.588	42.14
530.935	42.37
531.282	42.49
531.628	42.5
531.975	42.63
532.321	43.06
532.667	43.27
533.014	43.28
533.36	43.21
533.706	43.52
534.052	43.35
534.399	43.08
534.745	42.68
535.091	42.65
535.437	42.96
535.783	43.15
536.129	43.4
536.474	43.81
536.82	43.86
537.166	44.04
537.512	43.99
537.857	43.83
538.203	43.69
538.549	43.86
538.894	44.14
539.239	44.13
539.585	44.21
539.93	44.6
540.276	44.88
540.621	44.91
540.966	44.72
541.311	44.91
541.656	44.93
542.001	44.51
542.346	44.19
542.691	44.04
543.036	43.63
543.381	43.94
543.726	44.26
544.071	44.45
544.415	44.47
544.76	44.62
545.105	44.71
545.449	44.91
545.794	45.27
546.138	45.27
546.483	45.26
546.827	45.34
547.171	45.41
547.516	45.3
547.86	45.56
548.204	45.41
548.548	45.58
548.892	45.62
549.236	45.8
549.58	46
549.924	46.29
550.268	46.12
550.612	46.33
550.956	46.51
551.3	46.7
551.643	46.63
551.987	46.73
552.33	46.6
552.674	46.68
553.017	47.14
553.361	46.97
553.704	47.08
554.048	46.91
554.391	46.82
554.734	46.85
555.077	46.84
555.42	47.06
555.764	47.15
556.107	47.45
556.45	47.33
556.793	47.46
557.135	47.55
557.478	47.52
557.821	47.77
558.164	47.85
558.507	47.79
558.849	47.69
559.192	47.77
559.534	47.61
559.877	48
560.219	48.11
560.562	48.11
560.904	48.19
561.246	48.22
561.589	48.08
561.931	48.14
562.273	48.09
562.615	47.98
562.957	48.22
563.299	48.42
563.641	48.45
563.983	48.43
564.325	48.49
564.667	48.27
565.008	48.66
565.35	48.75
565.692	48.73
566.033	48.66
566.375	48.74
566.716	49
567.058	48.53
567.399	48.64
567.741	48.96
568.082	48.45
568.423	48.73
568.764	48.85
569.105	48.64
569.447	49.34
569.788	49.03
570.129	49.35
570.47	49.47
570.811	49.4
571.151	49.33
571.492	49.25
571.833	49.39
572.174	49.57
572.514	49.39
572.855	49.32
573.195	49.4
573.536	49.34
573.876	49.44
574.217	49.42
574.557	49.67
574.898	49.69
575.238	49.78
575.578	50.11
575.918	49.86
576.258	50
576.598	49.84
576.938	50.08
577.278	50.01
577.618	49.91
577.958	50.41
578.298	50.28
578.638	50.22
578.977	50.32
579.317	50.39
579.657	50.45
579.996	50.5
580.336	50.76
580.675	50.73
581.014	50.99
581.354	51.09
581.693	50.71
582.032	51.4
582.372	50.89
582.711	50.76
583.05	51.1
583.389	51.18
583.728	51.1
584.067	51.37
584.406	51.59
584.745	51.62
585.083	51.52
585.422	51.44
585.761	51.48
586.1	51.68
586.438	51.86
586.777	51.85
587.115	51.68
587.454	51.74
587.792	52.12
588.13	52.13
588.469	51.6
588.807	51.78
589.145	51.87
589.483	52.29
589.821	51.81
590.159	51.97
590.497	51.79
590.835	52.13
591.173	51.91
591.511	52.02
591.849	51.87
592.187	52.26
592.524	51.96
592.862	52.28
593.2	52.26
593.537	52.34
593.875	52.8
594.212	52.78
594.55	52.77
594.887	52.75
595.224	52.41
595.561	52.55
595.899	52.48
596.236	52.81
596.573	52.66
596.91	52.41
597.247	52.99
597.584	52.75
597.921	53.15
598.258	52.67
598.594	52.56
598.931	52.51
599.268	52.65
599.604	53
599.941	53.01
600.277	52.9
600.614	53.04
600.95	52.93
601.287	53.52
601.623	53.45
601.959	53.12
602.296	53.8
602.632	53.24
602.968	53.53
603.304	53.52
603.64	53.69
603.976	53.65
604.312	53.6
604.648	53.47
604.984	53.56
605.319	53.51
605.655	53.45
605.991	53.32
606.326	53.34
606.662	53.49
606.998	53.3
607.333	53.5
607.668	53.78
608.004	53.67
608.339	53.89
608.674	54.42
609.01	54.32
609.345	54.14
609.68	54.07
610.015	54.48
610.35	54.1
610.685	54.15
611.02	54.01
611.355	53.81
611.689	54.22
612.024	54.11
612.359	54.02
612.694	54.23
613.028	54.71
613.363	54.81
613.697	54.57
614.032	54.47
614.366	54.79
614.7	54.73
615.035	54.87
615.369	54.89
615.703	55.1
616.037	55.07
616.371	55.16
616.705	55.44
617.039	55.47
617.373	55.47
617.707	55.8
618.041	55.7
618.375	55.23
618.709	55.69
619.042	55.58
619.376	55.65
619.71	55.34
620.043	55.26
620.377	55.82
620.71	55.8
621.043	55.65
621.377	55.91
621.71	55.67
622.043	55.54
622.376	55.53
622.709	55.78
623.043	55.64
623.376	56.12
623.709	56.48
624.041	55.92
624.374	55.95
624.707	55.67
625.04	56.25
625.373	56.2
625.705	56.71
626.038	56.11
626.37	56.29
626.703	56.1
627.035	56.57
627.368	56.37
627.7	56.29
628.032	56.1
628.365	56.6
628.697	56.6
629.029	56.2
629.361	56.15
629.693	56.3
630.025	56.32
630.357	56.62
630.689	56.74
631.021	56.35
631.353	57.07
631.684	56.77
632.016	56.83
632.348	57.22
632.679	57.73
633.011	57.26
633.342	56.88
633.674	56.83
634.005	57.29
634.336	56.92
634.668	57.45
634.999	56.93
635.33	57.05
635.661	57.23
635.992	57.14
636.323	57.38
636.654	57.37
636.985	57.2
637.316	57.13
637.647	57.38
637.977	57.36
638.308	57.76
638.639	57.43
638.969	57.79
639.3	57.34
639.63	57.99
639.961	57.89
640.291	57.84
640.622	58.34
640.952	57.76
641.282	57.65
641.612	58.06
641.943	58.2
642.273	57.84
642.603	58.22
642.933	58.56
643.263	58.03
643.592	58.16
643.922	58.29
644.252	58.39
644.582	58.78
644.911	58.27
645.241	57.87
645.571	58.32
645.9	59
646.23	58.79
646.559	58.79
646.888	58.39
647.218	58.41
647.547	58.86
647.876	58.81
648.205	58.74
648.534	58.5
648.863	58.56
649.192	59.31
649.521	59.23
649.85	58.04
650.179	58.9
650.508	58.61
650.837	59.05
651.165	59.07
651.494	58.65
651.822	58.79
652.151	58.92
652.479	59.37
652.808	59.35
653.136	59.02
653.465	59.25
653.793	59.34
654.121	59.36
654.449	59.09
654.777	58.96
655.105	59.64
655.433	60
655.761	59.77
656.089	59.2
656.417	59.37
656.745	59.84
657.073	59.31
657.4	58.88
657.728	59.41
658.056	59.83
658.383	60.15
658.711	59.76
659.038	59.72
659.365	59.56
659.693	59.47
660.02	59.54
660.347	60.05
660.674	59.67
661.001	59.47
661.329	59.51
661.656	59.7
661.982	60.02
662.309	60.37
662.636	59.89
662.963	60.13
663.29	59.69
663.616	60.16
663.943	60.67
664.27	60.43
664.596	60.31
664.923	60.33
665.249	60.46
665.576	60.2
665.902	59.77
666.228	60.47
666.554	60.71
666.881	60.78
667.207	60.33
667.533	61.51
667.859	60.85
668.185	60.6
668.511	61.03
668.837	61.2
669.162	60.61
669.488	60.41
669.814	60.45
670.139	61.12
