Data from 2017-1_forehead_Reflection__0__10.txt Node

Date: Fri Oct 07 15:04:58 CDT 2022
User: ToomeyLab
Spectrometer: FLMS14357
Trigger mode: 0
Integration Time (sec): 1.000000E-2
Scans to average: 100
Electric dark correction enabled: true
Nonlinearity correction enabled: false
Boxcar width: 0
XAxis mode: Wavelengths
Number of Pixels in Spectrum: 2048
>>>>>Begin Spectral Data<<<<<
189.047	186.02
189.435	186.02
189.823	186.02
190.211	-17.87
190.599	1188.33
190.987	117.2
191.375	35.28
191.763	153.26
192.151	97.61
192.538	83.64
192.926	80.79
193.314	1948.85
193.702	173.18
194.089	-290.77
194.477	123.82
194.864	101.1
195.252	-24.15
195.639	72.49
196.027	-4.62
196.414	82.47
196.801	-4.15
197.189	20.68
197.576	11.2
197.963	54.99
198.351	35.21
198.738	25.52
199.125	59.49
199.512	37.22
199.899	67.09
200.286	28.79
200.673	-0.15
201.06	48.38
201.447	73.1
201.833	44.02
202.22	42.02
202.607	24.79
202.994	43.99
203.38	48.1
203.767	2.6
204.154	2.1
204.54	59.41
204.927	42.82
205.313	-12.32
205.699	31.64
206.086	32.85
206.472	23.76
206.858	6.68
207.245	5.4
207.631	51.93
208.017	38.99
208.403	34.01
208.789	37.93
209.175	-20.51
209.561	44.72
209.947	36.67
210.333	6.86
210.719	30.19
211.105	12.7
211.491	10.11
211.876	23.01
212.262	34.37
212.648	16.58
213.034	41.67
213.419	13.63
213.805	42.31
214.19	27.04
214.576	29.54
214.961	41.46
215.346	8.44
215.732	40.67
216.117	27.27
216.502	29.37
216.888	-1.74
217.273	8.7
217.658	29.21
218.043	11.27
218.428	20.1
218.813	40.76
219.198	21.1
219.583	28.87
219.968	19.8
220.353	1.97
220.738	22.1
221.122	13.44
221.507	3.75
221.892	27.23
222.276	14.91
222.661	25.71
223.046	14.76
223.43	13.53
223.815	15.45
224.199	13.11
224.583	15.87
224.968	-1.59
225.352	9.23
225.736	10.61
226.121	15.44
226.505	12.77
226.889	10.78
227.273	13.46
227.657	9.36
228.041	5.75
228.425	8.64
228.809	8.48
229.193	8.31
229.577	5.19
229.961	5.43
230.344	4.65
230.728	5.04
231.112	5.28
231.495	5.79
231.879	5.19
232.263	5.01
232.646	6.39
233.03	6.27
233.413	5.89
233.797	6.8
234.18	4.28
234.563	3.43
234.946	3.68
235.33	4.3
235.713	6.05
236.096	4.63
236.479	5.84
236.862	6.7
237.245	5.14
237.628	5.33
238.011	5.74
238.394	5.85
238.777	5.02
239.16	6.19
239.543	5.94
239.925	7.32
240.308	6.57
240.691	5.29
241.073	5.35
241.456	6.28
241.838	6.39
242.221	6.32
242.603	5.38
242.986	5.43
243.368	4.76
243.75	5.16
244.133	4.79
244.515	5.06
244.897	4.78
245.279	5.22
245.661	5.62
246.043	5.11
246.425	6.12
246.807	5.73
247.189	5.53
247.571	4.66
247.953	5.05
248.335	4.81
248.717	4.71
249.098	4.72
249.48	4.45
249.862	4.78
250.243	5.32
250.625	5.34
251.006	4.95
251.388	5.4
251.769	5.74
252.151	5.11
252.532	5.91
252.913	4.7
253.295	5.54
253.676	4.79
254.057	4.64
254.438	5.13
254.819	5.47
255.2	4.92
255.581	4.96
255.962	4.98
256.343	5.16
256.724	5.55
257.105	5.74
257.486	4.55
257.867	5.13
258.247	6.92
258.628	4.88
259.009	4.91
259.389	4.85
259.77	5.04
260.15	4.68
260.531	4.95
260.911	4.86
261.292	4.64
261.672	4.63
262.052	4.72
262.432	4.43
262.813	5.12
263.193	4.57
263.573	5.23
263.953	5.56
264.333	4.77
264.713	4.97
265.093	5.5
265.473	5.18
265.853	5.32
266.233	5.12
266.612	5.19
266.992	5.42
267.372	5.53
267.752	4.95
268.131	4.97
268.511	4.51
268.89	4.32
269.27	4.86
269.649	4.75
270.029	4.67
270.408	4.17
270.787	4.39
271.167	5.34
271.546	4.81
271.925	4.49
272.304	4.8
272.683	4.04
273.062	4.58
273.441	4.74
273.82	4.59
274.199	4.85
274.578	4.44
274.957	4.49
275.336	4.72
275.715	4.58
276.093	5.06
276.472	4.78
276.851	4.59
277.229	4.35
277.608	4.76
277.986	4.89
278.365	4.28
278.743	4.62
279.122	4.54
279.5	4.61
279.878	4.81
280.257	4.93
280.635	5
281.013	4.7
281.391	4.72
281.769	4.32
282.147	4.85
282.525	4.36
282.903	4.88
283.281	4.43
283.659	5.02
284.037	4.87
284.415	5.11
284.792	5.29
285.17	4.31
285.548	4.19
285.925	5.06
286.303	4.61
286.68	4.07
287.058	4.35
287.435	4.64
287.813	4.55
288.19	5
288.567	4.67
288.945	4.75
289.322	4.55
289.699	4.53
290.076	5
290.453	4.96
290.83	5.19
291.207	4.89
291.584	4.81
291.961	4.8
292.338	4.44
292.715	5.27
293.092	4.82
293.469	5.29
293.845	5.65
294.222	5.12
294.599	5
294.975	4.82
295.352	5.36
295.728	5.04
296.105	5.84
296.481	4.85
296.858	5.48
297.234	5.22
297.61	5.55
297.986	5.09
298.363	5.36
298.739	5.39
299.115	5.11
299.491	5.05
299.867	4.79
300.243	5.51
300.619	5.8
300.995	5.37
301.371	5.57
301.746	5.61
302.122	5.78
302.498	5.77
302.874	5.35
303.249	5.66
303.625	5.36
304	5.84
304.376	5.87
304.751	5.82
305.127	5.93
305.502	6.1
305.878	6.14
306.253	6
306.628	6.14
307.003	6
307.378	6.74
307.754	5.79
308.129	6.25
308.504	5.97
308.879	6.34
309.254	6.14
309.629	6.62
310.003	6.14
310.378	6.63
310.753	6.12
311.128	6.7
311.502	6.63
311.877	6.61
312.252	6.88
312.626	6.67
313.001	6.78
313.375	6.42
313.75	6.56
314.124	6.69
314.498	7.1
314.873	7.05
315.247	6.92
315.621	7.25
315.995	6.89
316.369	7.31
316.743	7.13
317.117	7.36
317.491	7.86
317.865	7.59
318.239	7.25
318.613	7.59
318.987	7.65
319.361	7.93
319.734	7.55
320.108	7.17
320.482	8.51
320.855	8.17
321.229	8.34
321.602	8.46
321.976	8.18
322.349	8.47
322.723	8.55
323.096	8.16
323.469	8.47
323.843	8.98
324.216	8.36
324.589	8.89
324.962	8.84
325.335	8.48
325.708	8.22
326.081	8.55
326.454	8.93
326.827	8.75
327.2	8.76
327.573	9.03
327.945	8.66
328.318	8.64
328.691	9.2
329.063	9.21
329.436	8.83
329.809	9.33
330.181	9.31
330.553	9.37
330.926	9.61
331.298	9.23
331.671	8.9
332.043	9.82
332.415	9.22
332.787	9.47
333.159	9.68
333.532	9.36
333.904	9.95
334.276	9.24
334.648	9.79
335.02	9.55
335.391	9.99
335.763	10.7
336.135	9.98
336.507	10.54
336.879	10
337.25	10.46
337.622	9.9
337.993	9.86
338.365	10.24
338.736	10.01
339.108	10.56
339.479	10.71
339.851	10.58
340.222	10.73
340.593	10.52
340.964	10.26
341.336	10.34
341.707	10.59
342.078	11.07
342.449	10.67
342.82	10.91
343.191	10.86
343.562	11.04
343.933	11.46
344.303	11.12
344.674	10.75
345.045	11.38
345.416	11.23
345.786	11.84
346.157	11.08
346.527	11.03
346.898	11.54
347.268	11.25
347.639	11.24
348.009	11.72
348.38	11.46
348.75	11.91
349.12	12.13
349.49	11.27
349.861	11.57
350.231	11.86
350.601	11.63
350.971	12.38
351.341	11.39
351.711	11.76
352.081	11.99
352.45	11.99
352.82	12.15
353.19	12.74
353.56	12.25
353.929	11.97
354.299	12.62
354.669	12.63
355.038	12.38
355.408	12.43
355.777	12.5
356.147	12.26
356.516	12.87
356.885	12.83
357.254	12.7
357.624	12.73
357.993	12.25
358.362	12.92
358.731	13.1
359.1	13.21
359.469	13.19
359.838	12.66
360.207	13.17
360.576	13.23
360.945	13.53
361.314	13.2
361.682	13.32
362.051	13.49
362.42	13.57
362.788	13.49
363.157	13.3
363.525	13.5
363.894	13.77
364.262	13.54
364.631	13.84
364.999	13.69
365.367	14.1
365.735	13.86
366.104	13.98
366.472	14.21
366.84	13.85
367.208	13.97
367.576	14.1
367.944	14.31
368.312	14.21
368.68	14.51
369.048	14.72
369.416	14.78
369.783	14.51
370.151	14.67
370.519	14.77
370.886	14.95
371.254	14.89
371.621	14.74
371.989	15.13
372.356	15.29
372.724	15.48
373.091	15.29
373.458	15.12
373.826	14.99
374.193	15.2
374.56	15.48
374.927	15.59
375.294	15.69
375.661	15.29
376.028	15.41
376.395	15.59
376.762	15.65
377.129	16.06
377.496	15.87
377.863	16.37
378.229	16.04
378.596	16.11
378.963	16.12
379.329	15.93
379.696	16.13
380.062	16.49
380.429	16.73
380.795	16.18
381.161	16.44
381.528	16.54
381.894	16.68
382.26	16.71
382.626	16.79
382.993	16.65
383.359	16.71
383.725	17.12
384.091	16.76
384.457	17.01
384.823	16.73
385.188	17.47
385.554	17.09
385.92	17.4
386.286	17.24
386.651	17.35
387.017	17.36
387.383	17.46
387.748	17.72
388.114	17.63
388.479	17.4
388.845	17.87
389.21	17.86
389.575	17.64
389.94	17.96
390.306	17.73
390.671	18.35
391.036	17.94
391.401	18.17
391.766	18.23
392.131	18.28
392.496	18.15
392.861	18.11
393.226	18.29
393.591	18.14
393.956	18.57
394.32	18.42
394.685	18.58
395.05	18.45
395.414	18.46
395.779	18.46
396.143	18.95
396.508	18.5
396.872	18.9
397.236	18.93
397.601	19.1
397.965	19.07
398.329	18.95
398.694	19.39
399.058	19.27
399.422	19.59
399.786	19.42
400.15	19.14
400.514	19.27
400.878	19.28
401.242	19.52
401.605	19.57
401.969	19.65
402.333	19.71
402.697	19.45
403.06	19.81
403.424	19.97
403.787	20.1
404.151	19.99
404.514	20.07
404.878	20.15
405.241	19.86
405.604	20.23
405.968	20.02
406.331	20.18
406.694	20.41
407.057	20.65
407.42	20.29
407.783	20.44
408.146	20.89
408.509	20.67
408.872	20.65
409.235	20.84
409.598	20.89
409.961	20.98
410.323	21.02
410.686	20.89
411.049	20.97
411.411	21.22
411.774	21.03
412.136	20.98
412.499	21.28
412.861	21.11
413.223	21.56
413.586	21.5
413.948	21.6
414.31	21.49
414.672	21.56
415.035	21.66
415.397	21.79
415.759	21.71
416.121	21.65
416.483	21.85
416.845	21.79
417.206	21.71
417.568	21.88
417.93	21.91
418.292	22
418.653	22.13
419.015	22
419.377	22.09
419.738	22.01
420.1	22.2
420.461	22.16
420.822	22.27
421.184	22.03
421.545	22.11
421.906	22.3
422.267	22.08
422.629	22.08
422.99	22.13
423.351	22.28
423.712	22.49
424.073	22.48
424.434	22.65
424.795	22.5
425.155	22.64
425.516	22.48
425.877	22.56
426.238	22.73
426.598	22.79
426.959	22.92
427.32	23.14
427.68	23.14
428.041	23.24
428.401	23.54
428.761	23.69
429.122	23.62
429.482	23.7
429.842	23.91
430.202	23.98
430.563	24.16
430.923	24.07
431.283	23.96
431.643	24.21
432.003	24.14
432.363	24.57
432.722	24.45
433.082	24.33
433.442	24.34
433.802	24.44
434.161	24.46
434.521	24.66
434.881	24.49
435.24	24.57
435.6	24.71
435.959	24.84
436.319	24.7
436.678	24.89
437.037	24.75
437.396	25.11
437.756	25.01
438.115	25.05
438.474	25.11
438.833	25.32
439.192	25.26
439.551	25.22
439.91	25.23
440.269	25.25
440.628	25.42
440.987	25.39
441.345	25.31
441.704	25.34
442.063	25.52
442.421	25.45
442.78	25.47
443.138	25.55
443.497	25.59
443.855	25.78
444.214	26.01
444.572	26.01
444.93	25.92
445.288	25.94
445.647	26.12
446.005	26.14
446.363	26.24
446.721	26.14
447.079	26.18
447.437	26.11
447.795	26.1
448.153	25.98
448.51	26.19
448.868	26.22
449.226	26.3
449.584	26.54
449.941	26.66
450.299	26.63
450.656	26.85
451.014	26.84
451.371	26.85
451.729	26.94
452.086	27.08
452.443	27.27
452.801	27.48
453.158	27.43
453.515	27.4
453.872	27.51
454.229	27.34
454.586	27.48
454.943	27.44
455.3	27.66
455.657	27.66
456.014	27.82
456.371	27.89
456.727	28.05
457.084	27.76
457.441	28.24
457.797	28.27
458.154	28.09
458.51	28.5
458.867	28.37
459.223	28.11
459.58	28.23
459.936	28.32
460.292	28.25
460.648	28.33
461.005	28
461.361	27.89
461.717	28.09
462.073	28.16
462.429	28.41
462.785	28.46
463.141	28.55
463.496	28.91
463.852	29.01
464.208	29.19
464.564	29.07
464.919	29.17
465.275	29.19
465.631	29.42
465.986	29.37
466.342	29.53
466.697	29.44
467.052	29.56
467.408	29.36
467.763	29.59
468.118	29.46
468.473	29.46
468.829	29.65
469.184	29.65
469.539	29.85
469.894	29.97
470.249	29.91
470.603	29.91
470.958	30.15
471.313	30.19
471.668	30.14
472.023	30.16
472.377	30.4
472.732	30.5
473.086	30.43
473.441	30.48
473.795	30.47
474.15	30.6
474.504	30.77
474.859	30.65
475.213	30.78
475.567	30.77
475.921	30.87
476.275	30.9
476.63	30.96
476.984	31.17
477.338	31.14
477.692	30.91
478.045	30.87
478.399	30.95
478.753	31.14
479.107	31.03
479.461	30.97
479.814	31.2
480.168	31.15
480.521	31.13
480.875	31.32
481.228	31.48
481.582	31.49
481.935	31.53
482.289	31.48
482.642	31.39
482.995	31.54
483.348	31.31
483.701	31.13
484.055	31.09
484.408	31.07
484.761	30.68
485.114	30.31
485.466	30.33
485.819	30.66
486.172	30.76
486.525	30.92
486.878	31.02
487.23	31.32
487.583	31.42
487.936	31.4
488.288	31.46
488.641	31.2
488.993	31.06
489.345	31.09
489.698	31.21
490.05	31.38
490.402	31.57
490.754	31.81
491.107	32
491.459	32.21
491.811	32.26
492.163	32.28
492.515	32.26
492.866	32.01
493.218	31.77
493.57	31.78
493.922	32.07
494.274	32.29
494.625	32.55
494.977	32.89
495.328	32.86
495.68	33.15
496.031	33.3
496.383	33.44
496.734	33.6
497.086	33.49
497.437	33.5
497.788	33.36
498.139	33.56
498.49	33.51
498.842	33.47
499.193	33.55
499.544	33.45
499.894	33.6
500.245	33.73
500.596	33.81
500.947	33.98
501.298	33.96
501.648	33.99
501.999	34.24
502.35	34.56
502.7	34.34
503.051	34.38
503.401	34.57
503.752	34.65
504.102	34.83
504.452	34.73
504.803	34.48
505.153	34.58
505.503	34.73
505.853	34.84
506.203	34.86
506.553	35.03
506.903	34.8
507.253	34.89
507.603	35
507.953	34.98
508.303	35.06
508.652	35.11
509.002	35.03
509.352	35.11
509.701	35.26
510.051	35.09
510.4	35
510.75	35.08
511.099	35.09
511.449	35.16
511.798	35.13
512.147	35.5
512.496	35.45
512.846	35.36
513.195	35.45
513.544	35.4
513.893	35.5
514.242	35.57
514.591	35.48
514.939	35.76
515.288	35.99
515.637	35.98
515.986	36.05
516.334	36.21
516.683	36.01
517.032	36.11
517.38	36.41
517.729	36.01
518.077	36.26
518.426	36.37
518.774	36.19
519.122	36.04
519.47	36.02
519.819	35.93
520.167	35.92
520.515	35.99
520.863	36.06
521.211	36.07
521.559	36.28
521.907	36.3
522.255	36.43
522.602	36.63
522.95	36.95
523.298	36.89
523.645	36.91
523.993	36.99
524.341	37.02
524.688	37.21
525.036	37.08
525.383	37.22
525.73	37.21
526.078	37.26
526.425	37.08
526.772	36.95
527.119	36.65
527.466	36.84
527.814	36.85
528.161	37.02
528.508	36.77
528.854	37.08
529.201	36.94
529.548	36.72
529.895	36.18
530.242	36.3
530.588	36.68
530.935	36.78
531.282	36.77
531.628	36.89
531.975	37.05
532.321	37.25
532.667	37.52
533.014	37.56
533.36	37.72
533.706	37.78
534.052	37.72
534.399	37.59
534.745	37.05
535.091	37.26
535.437	37.43
535.783	37.48
536.129	37.85
536.474	37.93
536.82	38.06
537.166	38.27
537.512	38.2
537.857	38.14
538.203	38.01
538.549	38.18
538.894	38.35
539.239	38.45
539.585	38.53
539.93	38.69
540.276	38.66
540.621	39.07
540.966	38.89
541.311	39.04
541.656	39
542.001	38.81
542.346	38.4
542.691	38.23
543.036	38.03
543.381	38.25
543.726	38.47
544.071	38.6
544.415	38.65
544.76	38.66
545.105	38.85
545.449	39.17
545.794	39.39
546.138	39.26
546.483	39.35
546.827	39.43
547.171	39.59
547.516	39.67
547.86	39.7
548.204	39.64
548.548	39.55
548.892	39.65
549.236	39.64
549.58	39.97
549.924	40.09
550.268	40.04
550.612	40.26
550.956	40.57
551.3	40.92
551.643	40.67
551.987	40.56
552.33	40.67
552.674	40.79
553.017	40.94
553.361	40.75
553.704	41.16
554.048	40.82
554.391	40.63
554.734	41.07
555.077	40.75
555.42	40.97
555.764	41.11
556.107	41.33
556.45	41.26
556.793	41.5
557.135	41.36
557.478	41.69
557.821	41.45
558.164	41.52
558.507	41.6
558.849	41.74
559.192	41.74
559.534	41.49
559.877	41.79
560.219	41.8
560.562	41.86
560.904	41.97
561.246	42.04
561.589	41.97
561.931	42.01
562.273	42.03
562.615	42.03
562.957	42.03
563.299	42.09
563.641	42.23
563.983	42.29
564.325	42.35
564.667	42.51
565.008	42.55
565.35	42.22
565.692	42.5
566.033	42.42
566.375	42.61
566.716	42.65
567.058	42.48
567.399	42.63
567.741	42.57
568.082	42.25
568.423	42.47
568.764	42.78
569.105	42.6
569.447	42.87
569.788	42.82
570.129	42.86
570.47	43.1
570.811	43.06
571.151	42.91
571.492	43.05
571.833	43.31
572.174	43.39
572.514	43.3
572.855	43.19
573.195	43.3
573.536	43.14
573.876	43.11
574.217	42.99
574.557	43.24
574.898	43.31
575.238	43.4
575.578	43.3
575.918	43.58
576.258	43.52
576.598	43.08
576.938	43.53
577.278	43.53
577.618	43.73
577.958	43.71
578.298	43.97
578.638	44.09
578.977	44.2
579.317	44.02
579.657	44.09
579.996	44.13
580.336	44.29
580.675	44.08
581.014	44.41
581.354	44.52
581.693	44.45
582.032	44.62
582.372	44.66
582.711	44.79
583.05	44.36
583.389	44.92
583.728	44.82
584.067	44.69
584.406	44.93
584.745	45.07
585.083	44.81
585.422	45.15
585.761	45.02
586.1	45.4
586.438	45.65
586.777	45.48
587.115	45.43
587.454	45.42
587.792	45.43
588.13	45.12
588.469	45.24
588.807	45.29
589.145	45.59
589.483	45.68
589.821	45.37
590.159	45.46
590.497	45.31
590.835	45.24
591.173	45.34
591.511	45.66
591.849	45.77
592.187	45.7
592.524	45.58
592.862	45.77
593.2	45.95
593.537	46.03
593.875	45.95
594.212	46.23
594.55	46.2
594.887	46.28
595.224	46.13
595.561	46.03
595.899	45.78
596.236	46.09
596.573	46.24
596.91	46.14
597.247	46.04
597.584	45.73
597.921	46.24
598.258	46.19
598.594	45.72
598.931	45.95
599.268	46.21
599.604	46.27
599.941	46.21
600.277	46.35
600.614	45.96
600.95	46.57
601.287	47.03
601.623	46.68
601.959	46.46
602.296	46.83
602.632	46.65
602.968	46.86
603.304	46.5
603.64	47.05
603.976	46.86
604.312	47.05
604.648	46.79
604.984	46.86
605.319	47.06
605.655	46.78
605.991	46.73
606.326	46.9
606.662	46.72
606.998	46.69
607.333	47.18
607.668	47.07
608.004	47.18
608.339	47.04
608.674	47.32
609.01	47.47
609.345	47.54
609.68	47.48
610.015	47.42
610.35	47.41
610.685	47.46
611.02	47.16
611.355	47.6
611.689	47.43
612.024	47.7
612.359	47.42
612.694	47.5
613.028	47.87
613.363	48.19
613.697	48.27
614.032	47.99
614.366	48.14
614.7	48.19
615.035	48.43
615.369	48.3
615.703	48.16
616.037	48.27
616.371	48.4
616.705	48.47
617.039	48.08
617.373	48.64
617.707	48.98
618.041	48.69
618.375	48.42
618.709	48.34
619.042	48.49
619.376	48.4
619.71	48.96
620.043	48.02
620.377	48.42
620.71	49.15
621.043	48.58
621.377	49.23
621.71	48.99
622.043	49.05
622.376	48.38
622.709	49.06
623.043	49.1
623.376	49.3
623.709	49.12
624.041	49.62
624.374	49.24
624.707	49.24
625.04	49.4
625.373	49.42
625.705	49.51
626.038	49.55
626.37	49.73
626.703	49.2
627.035	49.74
627.368	49
627.7	49.56
628.032	49.32
628.365	49.36
628.697	49.37
629.029	49.32
629.361	49.53
629.693	49.66
630.025	49.6
630.357	49.49
630.689	49.6
631.021	49.58
631.353	49.59
631.684	49.7
632.016	49.94
632.348	50.05
632.679	50.58
633.011	50.02
633.342	50
633.674	50.3
634.005	49.75
634.336	49.97
634.668	50.32
634.999	50.2
635.33	50.29
635.661	49.95
635.992	50.21
636.323	50.25
636.654	50.56
636.985	50.52
637.316	50.36
637.647	50.09
637.977	50.43
638.308	50.47
638.639	50.56
638.969	50.87
639.3	50.42
639.63	50.85
639.961	50.81
640.291	50.79
640.622	51.23
640.952	50.78
641.282	50.78
641.612	50.94
641.943	51.58
642.273	50.8
642.603	51.16
642.933	50.98
643.263	50.94
643.592	50.97
643.922	51.36
644.252	51.57
644.582	51.83
644.911	51.55
645.241	51.2
645.571	51.35
645.9	51.43
646.23	51.15
646.559	51.67
646.888	51.46
647.218	51.15
647.547	51.64
647.876	51.79
648.205	51.45
648.534	51.65
648.863	51.95
649.192	51.99
649.521	51.61
649.85	51.13
650.179	51.99
650.508	51.5
650.837	52.31
651.165	51.99
651.494	51.85
651.822	52.22
652.151	52.19
652.479	52.48
652.808	51.7
653.136	51.83
653.465	52.05
653.793	52.94
654.121	52.57
654.449	52.14
654.777	51.73
655.105	52.59
655.433	52.37
655.761	52.29
656.089	52.46
656.417	52.53
656.745	52.05
657.073	52.25
657.4	52.55
657.728	52.76
658.056	52.68
658.383	52.5
658.711	52.56
659.038	52.32
659.365	52.97
659.693	52.53
660.02	52.6
660.347	52.75
660.674	52.61
661.001	52.05
661.329	52.4
661.656	52.87
661.982	52.59
662.309	52.72
662.636	52.77
662.963	52.9
663.29	52.24
663.616	52.51
663.943	53.78
664.27	52.83
664.596	53.32
664.923	53.19
665.249	52.96
665.576	53.29
665.902	53.26
666.228	53.05
666.554	53.27
666.881	53.14
667.207	53.58
667.533	53.59
667.859	53.31
668.185	54.05
668.511	53.17
668.837	54.04
669.162	53.61
669.488	53.56
669.814	53.44
670.139	53.66
670.465	53.36
670.791	53.8
