Data from 2017-1_crown_Reflection__1__06.txt Node

Date: Fri Oct 07 15:03:07 CDT 2022
User: ToomeyLab
Spectrometer: FLMS14357
Trigger mode: 0
Integration Time (sec): 1.000000E-2
Scans to average: 100
Electric dark correction enabled: true
Nonlinearity correction enabled: false
Boxcar width: 0
XAxis mode: Wavelengths
Number of Pixels in Spectrum: 2048
>>>>>Begin Spectral Data<<<<<
189.047	182.23
189.435	182.23
189.823	182.23
190.211	76.08
190.599	441.64
190.987	103.13
191.375	24.32
191.763	316.36
192.151	-173.75
192.538	217
192.926	228.43
193.314	665.65
193.702	100.68
194.089	2153.85
194.477	240.72
194.864	87.83
195.252	56.47
195.639	-27.44
196.027	226.25
196.414	185.3
196.801	-19.25
197.189	-22.77
197.576	104.96
197.963	117.12
198.351	5.4
198.738	13.5
199.125	53.8
199.512	-23.99
199.899	-38.6
200.286	-8.57
200.673	-78.99
201.06	6.54
201.447	4.86
201.833	26.01
202.22	20.78
202.607	3.13
202.994	30.86
203.38	14.01
203.767	9.96
204.154	-21.77
204.54	23.63
204.927	29.54
205.313	17.26
205.699	-3.01
206.086	-27.92
206.472	10.26
206.858	-5.91
207.245	-7.29
207.631	20.23
208.017	-13.81
208.403	10.53
208.789	10.75
209.175	-23.04
209.561	21.63
209.947	-24.02
210.333	-9.2
210.719	6.27
211.105	21.38
211.491	18.73
211.876	9.85
212.262	-4.55
212.648	5.74
213.034	16.55
213.419	-11.59
213.805	-3.78
214.19	1.82
214.576	14.45
214.961	1.18
215.346	-1.14
215.732	2.56
216.117	11.95
216.502	14.24
216.888	-37.97
217.273	15.71
217.658	-6
218.043	-8.82
218.428	7.76
218.813	9.47
219.198	10.32
219.583	15.62
219.968	-4.33
220.353	-12.62
220.738	-4.2
221.122	1.9
221.507	-8.85
221.892	-7.74
222.276	13.23
222.661	17.67
223.046	12.28
223.43	5.69
223.815	10.94
224.199	2.33
224.583	11.57
224.968	-6.33
225.352	7.76
225.736	7.31
226.121	11.1
226.505	8.91
226.889	6.5
227.273	8.62
227.657	6.95
228.041	6.67
228.425	5.07
228.809	6.85
229.193	4.75
229.577	4.5
229.961	4.78
230.344	4.3
230.728	5.62
231.112	5.32
231.495	5.74
231.879	5.48
232.263	4.75
232.646	4.89
233.03	4.75
233.413	4.16
233.797	6.37
234.18	4.6
234.563	3.3
234.946	2.88
235.33	5.58
235.713	4.05
236.096	4.61
236.479	4.64
236.862	5.1
237.245	4.18
237.628	6.52
238.011	6.49
238.394	4.78
238.777	4.42
239.16	6.38
239.543	4.85
239.925	4.52
240.308	4.69
240.691	5.58
241.073	4.97
241.456	5.92
241.838	4.84
242.221	4.62
242.603	5.41
242.986	5.62
243.368	4.69
243.75	5.24
244.133	5.03
244.515	5.03
244.897	5.63
245.279	5.45
245.661	4.8
246.043	4.42
246.425	6.19
246.807	5.12
247.189	5.27
247.571	5.34
247.953	4.99
248.335	4.82
248.717	4.85
249.098	4.65
249.48	4.82
249.862	4.55
250.243	4.9
250.625	5.06
251.006	5.2
251.388	4.82
251.769	5.46
252.151	5.21
252.532	5.36
252.913	4.09
253.295	5.77
253.676	4.67
254.057	4.73
254.438	5.35
254.819	4.46
255.2	5.24
255.581	3.97
255.962	4.48
256.343	5.57
256.724	4.35
257.105	5.42
257.486	4.8
257.867	4
258.247	4.79
258.628	4.34
259.009	4.66
259.389	5.21
259.77	4.65
260.15	3.85
260.531	5
260.911	4.75
261.292	4.79
261.672	4.49
262.052	4.58
262.432	4.47
262.813	4.77
263.193	4.62
263.573	4.93
263.953	4.86
264.333	4.33
264.713	4.29
265.093	4.37
265.473	4.86
265.853	3.11
266.233	4.88
266.612	5.2
266.992	4.8
267.372	4.27
267.752	4.75
268.131	4.68
268.511	4.3
268.89	4.52
269.27	3.8
269.649	4.29
270.029	4.51
270.408	4.02
270.787	3.82
271.167	4.73
271.546	4.51
271.925	4.11
272.304	3.88
272.683	4.06
273.062	4.53
273.441	4.38
273.82	4.2
274.199	4.24
274.578	4.26
274.957	4.55
275.336	4.75
275.715	4.56
276.093	5.18
276.472	4.33
276.851	4.18
277.229	3.76
277.608	5.11
277.986	4.35
278.365	4.01
278.743	4.28
279.122	4.79
279.5	4.13
279.878	4.02
280.257	4.43
280.635	5.1
281.013	3.63
281.391	4.13
281.769	4.61
282.147	4.08
282.525	3.91
282.903	4.23
283.281	4.04
283.659	4.57
284.037	4.57
284.415	4.48
284.792	4.31
285.17	3.95
285.548	3.85
285.925	4.09
286.303	3.73
286.68	3.97
287.058	4.1
287.435	4.11
287.813	4.38
288.19	4.52
288.567	4.22
288.945	3.95
289.322	4.09
289.699	4.03
290.076	4.48
290.453	4.28
290.83	4.29
291.207	4.31
291.584	4.57
291.961	3.92
292.338	4.16
292.715	4.16
293.092	4.36
293.469	4.39
293.845	4.34
294.222	4.13
294.599	4.05
294.975	3.41
295.352	4.09
295.728	4.14
296.105	4.45
296.481	3.88
296.858	4.38
297.234	3.8
297.61	4.09
297.986	3.94
298.363	3.94
298.739	4.02
299.115	3.88
299.491	4.21
299.867	3.96
300.243	3.97
300.619	4.17
300.995	3.81
301.371	4.22
301.746	3.59
302.122	4.51
302.498	4.19
302.874	4.1
303.249	3.62
303.625	3.84
304	4.17
304.376	4.14
304.751	3.72
305.127	3.56
305.502	3.59
305.878	3.4
306.253	3.98
306.628	4.15
307.003	3.88
307.378	4.15
307.754	3.9
308.129	4.12
308.504	3.74
308.879	3.4
309.254	3.42
309.629	4.02
310.003	3.7
310.378	3.63
310.753	3.96
311.128	3.86
311.502	3.99
311.877	4.06
312.252	3.63
312.626	3.82
313.001	3.78
313.375	3.67
313.75	3.82
314.124	3.81
314.498	3.75
314.873	3.8
315.247	3.83
315.621	3.88
315.995	3.95
316.369	3.65
316.743	3.29
317.117	3.64
317.491	4.19
317.865	3.58
318.239	3.92
318.613	3.76
318.987	3.89
319.361	3.67
319.734	3.43
320.108	3.3
320.482	4.25
320.855	4.05
321.229	3.91
321.602	3.77
321.976	3.95
322.349	4.37
322.723	3.53
323.096	3.87
323.469	3.87
323.843	3.86
324.216	3.75
324.589	4.24
324.962	3.9
325.335	3.45
325.708	3.24
326.081	3.19
326.454	4.1
326.827	3.65
327.2	4.09
327.573	4.15
327.945	3.75
328.318	3.88
328.691	3.81
329.063	3.66
329.436	3.6
329.809	4.33
330.181	4.01
330.553	3.76
330.926	3.63
331.298	3.36
331.671	3.2
332.043	3.57
332.415	3.97
332.787	3.88
333.159	3.57
333.532	3.49
333.904	3.68
334.276	3.41
334.648	3.94
335.02	3.59
335.391	3.8
335.763	3.73
336.135	4.35
336.507	4.3
336.879	3.82
337.25	3.56
337.622	3.87
337.993	3.73
338.365	3.98
338.736	3.23
339.108	3.91
339.479	3.64
339.851	3.38
340.222	3.8
340.593	3.69
340.964	3.97
341.336	3.61
341.707	3.88
342.078	3.82
342.449	3.92
342.82	3.68
343.191	3.33
343.562	3.69
343.933	3.94
344.303	3.65
344.674	3.92
345.045	4.34
345.416	3.79
345.786	4.15
346.157	3.86
346.527	3.48
346.898	3.67
347.268	3.52
347.639	3.43
348.009	4.2
348.38	3.78
348.75	3.98
349.12	4.26
349.49	3.43
349.861	3.56
350.231	3.89
350.601	3.57
350.971	3.87
351.341	3.74
351.711	3.57
352.081	3.74
352.45	3.72
352.82	3.93
353.19	4.1
353.56	3.66
353.929	3.18
354.299	3.98
354.669	3.65
355.038	3.48
355.408	3.59
355.777	3.76
356.147	3.86
356.516	3.98
356.885	3.95
357.254	4.01
357.624	3.85
357.993	3.65
358.362	3.74
358.731	3.75
359.1	3.72
359.469	4.12
359.838	3.72
360.207	3.58
360.576	3.6
360.945	3.77
361.314	3.45
361.682	3.8
362.051	3.69
362.42	3.94
362.788	3.74
363.157	3.6
363.525	3.65
363.894	3.83
364.262	3.88
364.631	3.74
364.999	3.99
365.367	3.68
365.735	3.74
366.104	3.77
366.472	3.62
366.84	3.44
367.208	3.85
367.576	4.02
367.944	3.69
368.312	3.64
368.68	3.69
369.048	3.67
369.416	4.2
369.783	3.89
370.151	4.04
370.519	3.61
370.886	3.42
371.254	3.79
371.621	3.63
371.989	3.83
372.356	3.81
372.724	4.01
373.091	3.82
373.458	4.01
373.826	3.75
374.193	4.09
374.56	3.99
374.927	3.69
375.294	3.53
375.661	4.05
376.028	3.75
376.395	3.85
376.762	3.69
377.129	3.84
377.496	3.89
377.863	4.19
378.229	3.63
378.596	4.13
378.963	3.94
379.329	3.91
379.696	3.73
380.062	4.12
380.429	3.98
380.795	4.04
381.161	3.91
381.528	4.16
381.894	4.28
382.26	3.83
382.626	3.83
382.993	4.06
383.359	3.84
383.725	4.01
384.091	3.86
384.457	3.94
384.823	3.87
385.188	3.79
385.554	3.95
385.92	4.26
386.286	3.97
386.651	3.85
387.017	4.02
387.383	3.96
387.748	3.93
388.114	3.69
388.479	4.18
388.845	3.83
389.21	3.98
389.575	4.01
389.94	4.23
390.306	3.86
390.671	4.42
391.036	4.06
391.401	3.89
391.766	3.95
392.131	4.06
392.496	3.97
392.861	3.76
393.226	4.09
393.591	3.97
393.956	4.2
394.32	3.98
394.685	4.06
395.05	3.7
395.414	4.22
395.779	3.99
396.143	3.93
396.508	3.85
396.872	4.09
397.236	4.03
397.601	3.94
397.965	4.38
398.329	3.85
398.694	3.79
399.058	4.21
399.422	4.26
399.786	4.27
400.15	3.86
400.514	3.74
400.878	3.98
401.242	3.92
401.605	4.03
401.969	3.93
402.333	4.1
402.697	4.22
403.06	4.27
403.424	3.97
403.787	4.33
404.151	4.26
404.514	4.07
404.878	4.14
405.241	3.93
405.604	4.1
405.968	4.09
406.331	4.06
406.694	4.11
407.057	4.19
407.42	4.05
407.783	4.01
408.146	3.91
408.509	4.34
408.872	4.02
409.235	4.18
409.598	4.17
409.961	4.33
410.323	4.15
410.686	4.15
411.049	4.17
411.411	4.16
411.774	4.12
412.136	4
412.499	4.07
412.861	4.11
413.223	4.07
413.586	4.22
413.948	3.98
414.31	3.93
414.672	4.27
415.035	4.09
415.397	4.28
415.759	4.09
416.121	3.98
416.483	4.33
416.845	4.09
417.206	4.11
417.568	4.06
417.93	4.01
418.292	4.2
418.653	4.11
419.015	4.08
419.377	4.03
419.738	4.06
420.1	4.12
420.461	4.08
420.822	3.97
421.184	4.03
421.545	4.07
421.906	4.15
422.267	3.92
422.629	4.01
422.99	4.09
423.351	4.15
423.712	4.15
424.073	4.14
424.434	4.13
424.795	3.89
425.155	4.04
425.516	4.07
425.877	4.06
426.238	4.04
426.598	4.1
426.959	4.1
427.32	4.17
427.68	4.16
428.041	4.17
428.401	4.26
428.761	4.31
429.122	4.22
429.482	4.16
429.842	4.22
430.202	4.36
430.563	4.34
430.923	4.2
431.283	4.17
431.643	4.29
432.003	4.15
432.363	4.43
432.722	4.41
433.082	4.18
433.442	4.1
433.802	4.39
434.161	4.31
434.521	4.23
434.881	4.08
435.24	4.23
435.6	4.06
435.959	4.19
436.319	4.2
436.678	4.23
437.037	4.21
437.396	4.2
437.756	4.31
438.115	4.22
438.474	4.29
438.833	4.21
439.192	4.08
439.551	4.14
439.91	4.25
440.269	4.1
440.628	4.14
440.987	4.22
441.345	4.17
441.704	4.23
442.063	4.25
442.421	4.22
442.78	4.15
443.138	4.2
443.497	4.29
443.855	4.3
444.214	4.32
444.572	4.23
444.93	4.17
445.288	3.92
445.647	4.37
446.005	4.26
446.363	4.3
446.721	4.12
447.079	4.17
447.437	4.17
447.795	4.24
448.153	4.12
448.51	4.17
448.868	4.18
449.226	4.17
449.584	4.21
449.941	4.35
450.299	4.23
450.656	4.34
451.014	4.27
451.371	4.35
451.729	4.18
452.086	4.29
452.443	4.39
452.801	4.31
453.158	4.35
453.515	4.26
453.872	4.33
454.229	4.16
454.586	4.34
454.943	4.29
455.3	4.18
455.657	4.52
456.014	4.53
456.371	4.21
456.727	4.4
457.084	4.31
457.441	4.51
457.797	4.5
458.154	4.39
458.51	4.38
458.867	4.36
459.223	4.32
459.58	4.49
459.936	4.37
460.292	4.18
460.648	4.41
461.005	4.29
461.361	4.18
461.717	4.26
462.073	4.23
462.429	4.29
462.785	4.41
463.141	4.37
463.496	4.48
463.852	4.47
464.208	4.34
464.564	4.44
464.919	4.43
465.275	4.5
465.631	4.42
465.986	4.36
466.342	4.52
466.697	4.54
467.052	4.37
467.408	4.28
467.763	4.52
468.118	4.22
468.473	4.31
468.829	4.33
469.184	4.56
469.539	4.55
469.894	4.3
470.249	4.51
470.603	4.55
470.958	4.39
471.313	4.47
471.668	4.5
472.023	4.5
472.377	4.58
472.732	4.46
473.086	4.48
473.441	4.39
473.795	4.33
474.15	4.34
474.504	4.46
474.859	4.33
475.213	4.48
475.567	4.46
475.921	4.44
476.275	4.49
476.63	4.43
476.984	4.42
477.338	4.49
477.692	4.45
478.045	4.37
478.399	4.52
478.753	4.43
479.107	4.55
479.461	4.44
479.814	4.41
480.168	4.4
480.521	4.41
480.875	4.36
481.228	4.25
481.582	4.53
481.935	4.55
482.289	4.47
482.642	4.45
482.995	4.34
483.348	4.44
483.701	4.37
484.055	4.29
484.408	4.41
484.761	4.27
485.114	4.07
485.466	4
485.819	4.04
486.172	4.15
486.525	4.27
486.878	4.35
487.23	4.4
487.583	4.42
487.936	4.36
488.288	4.34
488.641	4.21
488.993	4.15
489.345	4.22
489.698	4.19
490.05	4.27
490.402	4.3
490.754	4.35
491.107	4.5
491.459	4.49
491.811	4.49
492.163	4.46
492.515	4.45
492.866	4.23
493.218	4.19
493.57	4.21
493.922	4.31
494.274	4.42
494.625	4.47
494.977	4.53
495.328	4.52
495.68	4.45
496.031	4.57
496.383	4.54
496.734	4.36
497.086	4.63
497.437	4.49
497.788	4.53
498.139	4.51
498.49	4.46
498.842	4.45
499.193	4.47
499.544	4.5
499.894	4.56
500.245	4.47
500.596	4.49
500.947	4.45
501.298	4.5
501.648	4.52
501.999	4.61
502.35	4.58
502.7	4.64
503.051	4.6
503.401	4.51
503.752	4.53
504.102	4.55
504.452	4.55
504.803	4.64
505.153	4.62
505.503	4.46
505.853	4.62
506.203	4.55
506.553	4.67
506.903	4.44
507.253	4.58
507.603	4.6
507.953	4.54
508.303	4.48
508.652	4.49
509.002	4.53
509.352	4.53
509.701	4.53
510.051	4.49
510.4	4.44
510.75	4.44
511.099	4.4
511.449	4.61
511.798	4.52
512.147	4.53
512.496	4.5
512.846	4.7
513.195	4.55
513.544	4.54
513.893	4.51
514.242	4.49
514.591	4.52
514.939	4.62
515.288	4.56
515.637	4.57
515.986	4.54
516.334	4.62
516.683	4.59
517.032	4.48
517.38	4.47
517.729	4.45
518.077	4.53
518.426	4.41
518.774	4.45
519.122	4.5
519.47	4.51
519.819	4.39
520.167	4.42
520.515	4.34
520.863	4.49
521.211	4.54
521.559	4.47
521.907	4.63
522.255	4.41
522.602	4.55
522.95	4.61
523.298	4.52
523.645	4.57
523.993	4.49
524.341	4.58
524.688	4.61
525.036	4.64
525.383	4.5
525.73	4.6
526.078	4.58
526.425	4.58
526.772	4.44
527.119	4.43
527.466	4.43
527.814	4.41
528.161	4.47
528.508	4.4
528.854	4.57
529.201	4.5
529.548	4.39
529.895	4.25
530.242	4.21
530.588	4.18
530.935	4.27
531.282	4.38
531.628	4.48
531.975	4.42
532.321	4.5
532.667	4.57
533.014	4.51
533.36	4.5
533.706	4.57
534.052	4.49
534.399	4.41
534.745	4.29
535.091	4.21
535.437	4.3
535.783	4.43
536.129	4.51
536.474	4.48
536.82	4.56
537.166	4.55
537.512	4.52
537.857	4.49
538.203	4.32
538.549	4.39
538.894	4.49
539.239	4.52
539.585	4.48
539.93	4.58
540.276	4.6
540.621	4.64
540.966	4.44
541.311	4.57
541.656	4.54
542.001	4.47
542.346	4.43
542.691	4.26
543.036	4.25
543.381	4.21
543.726	4.32
544.071	4.47
544.415	4.46
544.76	4.47
545.105	4.38
545.449	4.5
545.794	4.58
546.138	4.53
546.483	4.57
546.827	4.59
547.171	4.65
547.516	4.39
547.86	4.44
548.204	4.41
548.548	4.56
548.892	4.37
549.236	4.57
549.58	4.53
549.924	4.63
550.268	4.62
550.612	4.47
550.956	4.64
551.3	4.53
551.643	4.58
551.987	4.62
552.33	4.5
552.674	4.6
553.017	4.62
553.361	4.51
553.704	4.66
554.048	4.32
554.391	4.38
554.734	4.53
555.077	4.53
555.42	4.66
555.764	4.56
556.107	4.53
556.45	4.75
556.793	4.63
557.135	4.59
557.478	4.47
557.821	4.48
558.164	4.61
558.507	4.66
558.849	4.66
559.192	4.44
559.534	4.59
559.877	4.68
560.219	4.7
560.562	4.41
560.904	4.65
561.246	4.58
561.589	4.6
561.931	4.58
562.273	4.62
562.615	4.56
562.957	4.42
563.299	4.66
563.641	4.51
563.983	4.34
564.325	4.49
564.667	4.69
565.008	4.48
565.35	4.45
565.692	4.6
566.033	4.4
566.375	4.49
566.716	4.55
567.058	4.55
567.399	4.47
567.741	4.56
568.082	4.56
568.423	4.5
568.764	4.59
569.105	4.45
569.447	4.66
569.788	4.46
570.129	4.53
570.47	4.79
570.811	4.58
571.151	4.54
571.492	4.67
571.833	4.6
572.174	4.6
572.514	4.59
572.855	4.47
573.195	4.48
573.536	4.6
573.876	4.62
574.217	4.54
574.557	4.49
574.898	4.54
575.238	4.71
575.578	4.56
575.918	4.55
576.258	4.57
576.598	4.49
576.938	4.47
577.278	4.58
577.618	4.38
577.958	4.56
578.298	4.65
578.638	4.53
578.977	4.39
579.317	4.62
579.657	4.52
579.996	4.69
580.336	4.56
580.675	4.59
581.014	4.82
581.354	4.52
581.693	4.48
582.032	4.67
582.372	4.5
582.711	4.59
583.05	4.33
583.389	4.65
583.728	4.64
584.067	4.41
584.406	4.68
584.745	4.49
585.083	4.62
585.422	4.52
585.761	4.59
586.1	4.47
586.438	4.69
586.777	4.5
587.115	4.71
587.454	4.56
587.792	4.6
588.13	4.65
588.469	4.53
588.807	4.6
589.145	4.49
589.483	4.8
589.821	4.56
590.159	4.63
590.497	4.49
590.835	4.63
591.173	4.28
591.511	4.6
591.849	4.52
592.187	4.56
592.524	4.64
592.862	4.65
593.2	4.78
593.537	4.49
593.875	4.68
594.212	4.55
594.55	4.39
594.887	4.33
595.224	4.64
595.561	4.6
595.899	4.38
596.236	4.74
596.573	4.37
596.91	4.53
597.247	4.47
597.584	4.34
597.921	4.71
598.258	4.69
598.594	4.4
598.931	4.48
599.268	4.37
599.604	4.57
599.941	4.57
600.277	4.48
600.614	4.34
600.95	4.57
601.287	4.61
601.623	4.94
601.959	4.18
602.296	4.59
602.632	4.26
602.968	4.45
603.304	4.29
603.64	4.33
603.976	4.3
604.312	4.74
604.648	4.54
604.984	4.35
605.319	4.6
605.655	4.44
605.991	4.39
606.326	4.52
606.662	4.33
606.998	4.6
607.333	4.43
607.668	4.58
608.004	4.47
608.339	4.68
608.674	4.48
609.01	4.59
609.345	4.54
609.68	4.47
610.015	4.46
610.35	4.69
610.685	4.6
611.02	4.47
611.355	4.58
611.689	4.46
612.024	4.55
612.359	4.38
612.694	4.6
613.028	4.47
613.363	4.79
613.697	4.48
614.032	4.45
614.366	4.51
614.7	4.46
615.035	4.48
615.369	4.45
615.703	4.61
616.037	4.37
616.371	4.35
616.705	4.45
617.039	4.52
617.373	4.5
617.707	4.61
618.041	4.68
618.375	4.61
618.709	4.46
619.042	4.48
619.376	4.44
619.71	4.53
620.043	4.59
620.377	4.36
620.71	4.77
621.043	4.64
621.377	4.68
621.71	4.7
622.043	4.53
622.376	4.45
622.709	4.45
623.043	4.25
623.376	4.69
623.709	4.63
624.041	4.53
624.374	4.37
624.707	4.4
625.04	4.66
625.373	4.68
625.705	4.54
626.038	4.57
626.37	4.52
626.703	4.58
627.035	4.52
627.368	4.57
627.7	4.47
628.032	4.17
628.365	4.27
628.697	4.68
629.029	4.58
629.361	4.58
629.693	4.4
630.025	4.42
630.357	4.38
630.689	4.47
631.021	4.84
631.353	4.53
631.684	4.49
632.016	4.49
632.348	4.52
632.679	4.72
633.011	4.67
633.342	4.39
633.674	4.42
634.005	4.68
634.336	4.33
634.668	4.69
634.999	4.58
635.33	4.81
635.661	4.37
635.992	4.13
636.323	4.58
636.654	4.25
636.985	4.72
637.316	4.47
637.647	4.21
637.977	4.7
638.308	4.83
638.639	4.26
638.969	4.64
639.3	4.56
639.63	4.4
639.961	4.33
640.291	4.33
640.622	4.63
640.952	4.33
641.282	4.25
641.612	4.6
641.943	4.85
642.273	4.78
642.603	4.75
642.933	4.35
643.263	4.31
643.592	4.06
643.922	4.62
644.252	4.64
644.582	4.86
644.911	4.96
645.241	4.35
645.571	4.52
645.9	4.64
646.23	4.39
646.559	4.86
646.888	4.57
647.218	4.41
647.547	4.45
647.876	4.61
648.205	4.26
648.534	4.7
648.863	4.03
649.192	4.3
649.521	4.25
649.85	4.42
650.179	4.48
650.508	4.72
650.837	4.52
651.165	4.03
651.494	4.63
651.822	4.47
652.151	4.3
652.479	4.63
652.808	4.52
653.136	4.61
653.465	4.42
653.793	4.46
654.121	4.75
654.449	4.68
654.777	4.21
655.105	5.07
655.433	4.82
655.761	4.21
656.089	4.82
656.417	4.38
656.745	4.48
657.073	4.13
657.4	4.03
657.728	4.4
658.056	4.14
658.383	4.76
658.711	4.75
659.038	4.85
659.365	4.28
659.693	4.51
660.02	4.56
660.347	4.65
660.674	4.38
661.001	4.59
661.329	4.13
661.656	4.38
661.982	4.29
662.309	4.57
662.636	4.52
662.963	4.5
663.29	4.31
663.616	4.05
663.943	4.34
664.27	4.1
664.596	3.83
664.923	4.65
665.249	4.68
665.576	4.28
665.902	4.83
666.228	4.53
666.554	4.51
666.881	4.57
667.207	4.42
667.533	5.12
667.859	3.99
668.185	4.37
668.511	4.82
668.837	4.7
669.162	4.66
669.488	4.04
669.814	4.63
670.139	4.75
670.465	4.83
670.791	4.38
671.116	4.25
671.442	4.35
671.767	4.69
672.092	4.64
672.418	4.77
672.743	4.78
673.068	5.09
673.393	4.49
673.718	4.52
674.043	4.68
674.368	4.4
674.693	5.08
675.018	4.2
675.343	4.15
675.667	4.72
675.992	4.87
676.317	4.36
676.641	5.39
676.966	4.28
677.29	4.32
677.615	4.21
677.939	5.05
678.264	4.46
678.588	5.6
678.912	4.27
679.236	4.7
679.56	4.43
679.885	4.74
680.209	4.64
680.532	4.52
680.856	4.75
681.18	4.61
681.504	4.77
681.828	3.79
682.152	4.65
682.475	4.95
682.799	4.85
683.122	4.53
683.446	5
683.769	4.54
684.093	4.39
684.416	4.02
684.739	4.77
685.062	4.74
685.386	4.56
685.709	4.67
686.032	5.1
686.355	4.56
686.678	4.05
687.001	4.34
687.324	4.28
687.646	4.16
687.969	4.18
688.292	3.94
688.614	4.65
688.937	4.46
689.26	5.08
689.582	4.41
689.904	4.63
690.227	4.49
690.549	4.2
690.871	4.4
691.194	4.95
691.516	4.61
691.838	4.55
692.16	4.51
692.482	4.58
