Data from 2017-1_chest_Reflection__3__03.txt Node

Date: Fri Oct 07 15:01:05 CDT 2022
User: ToomeyLab
Spectrometer: FLMS14357
Trigger mode: 0
Integration Time (sec): 1.000000E-2
Scans to average: 100
Electric dark correction enabled: true
Nonlinearity correction enabled: false
Boxcar width: 0
XAxis mode: Wavelengths
Number of Pixels in Spectrum: 2048
>>>>>Begin Spectral Data<<<<<
189.047	228.99
189.435	228.99
189.823	228.99
190.211	328.71
190.599	1089.27
190.987	81.47
191.375	65.31
191.763	115.26
192.151	-339.14
192.538	188.1
192.926	128.68
193.314	-144.27
193.702	164.7
194.089	2282.56
194.477	286.43
194.864	105.08
195.252	-1.34
195.639	65.47
196.027	64.51
196.414	-1.38
196.801	41.4
197.189	-3.23
197.576	-141.91
197.963	116.55
198.351	20.67
198.738	-15.45
199.125	40.77
199.512	-3.19
199.899	27.33
200.286	-0.15
200.673	-27.41
201.06	-4.16
201.447	20.51
201.833	30.92
202.22	14.36
202.607	35.66
202.994	9.14
203.38	-1.33
203.767	41.65
204.154	-10.17
204.54	9.91
204.927	9.48
205.313	-18.98
205.699	0.42
206.086	-6.06
206.472	21.08
206.858	-15.87
207.245	3.84
207.631	19.21
208.017	1.14
208.403	26.33
208.789	10.12
209.175	-1.43
209.561	17.15
209.947	24.2
210.333	6.24
210.719	8.83
211.105	25.39
211.491	0.86
211.876	22.18
212.262	42.18
212.648	9.14
213.034	-5.31
213.419	-11.04
213.805	6.39
214.19	8.37
214.576	-6.72
214.961	-9.94
215.346	-26.33
215.732	-3.91
216.117	8.55
216.502	11.61
216.888	-15.65
217.273	-6.77
217.658	10.02
218.043	3.8
218.428	19
218.813	19.75
219.198	25.02
219.583	32.61
219.968	14.27
220.353	-12.09
220.738	-12.17
221.122	13.84
221.507	-24.26
221.892	5.66
222.276	5.13
222.661	14.45
223.046	14.09
223.43	20.52
223.815	5.32
224.199	0.3
224.583	1.72
224.968	-7.8
225.352	3.41
225.736	10.95
226.121	14.45
226.505	5.35
226.889	7.46
227.273	4.09
227.657	-0.92
228.041	0.95
228.425	1.67
228.809	1.05
229.193	3.6
229.577	3.08
229.961	3.3
230.344	2.41
230.728	3.18
231.112	3.03
231.495	3.66
231.879	3
232.263	2.73
232.646	2.12
233.03	2.31
233.413	3.02
233.797	3.51
234.18	2.17
234.563	1.7
234.946	3.45
235.33	2.15
235.713	2.39
236.096	1.6
236.479	3.16
236.862	3.03
237.245	1.84
237.628	2.8
238.011	4.19
238.394	3.73
238.777	2.32
239.16	4.07
239.543	3.15
239.925	4.41
240.308	2.45
240.691	2.65
241.073	1.34
241.456	4.01
241.838	3.45
242.221	3.88
242.603	2.31
242.986	3.16
243.368	2.28
243.75	2.36
244.133	2.41
244.515	2.64
244.897	2.46
245.279	2.86
245.661	2.72
246.043	2.46
246.425	3.47
246.807	2.16
247.189	2.98
247.571	2.72
247.953	2.81
248.335	2.62
248.717	2.53
249.098	2.12
249.48	2.42
249.862	2.42
250.243	2.57
250.625	2.62
251.006	2.48
251.388	2.84
251.769	2.8
252.151	2.79
252.532	3.36
252.913	2.34
253.295	3.68
253.676	2.41
254.057	2.95
254.438	3
254.819	2.48
255.2	3.57
255.581	1.69
255.962	2.5
256.343	3.04
256.724	2.63
257.105	3.36
257.486	2.82
257.867	1.93
258.247	2.28
258.628	2.14
259.009	3.29
259.389	2.86
259.77	2.44
260.15	2.04
260.531	2.75
260.911	2.37
261.292	2.51
261.672	2.28
262.052	2.46
262.432	2.31
262.813	2.6
263.193	2.22
263.573	2.5
263.953	2.74
264.333	2.18
264.713	1.91
265.093	2.17
265.473	3.11
265.853	1.94
266.233	2.5
266.612	3.07
266.992	2.96
267.372	2.08
267.752	2.53
268.131	2.29
268.511	2.04
268.89	1.96
269.27	2.27
269.649	2.25
270.029	2.18
270.408	1.48
270.787	2.82
271.167	2.49
271.546	2.39
271.925	1.82
272.304	2.58
272.683	1.55
273.062	1.84
273.441	2.64
273.82	2.36
274.199	2.32
274.578	2.01
274.957	2.21
275.336	2.57
275.715	2.41
276.093	2.09
276.472	2.04
276.851	1.76
277.229	1.52
277.608	2.94
277.986	2.31
278.365	2.84
278.743	2.56
279.122	2.49
279.5	2.41
279.878	2.55
280.257	2.38
280.635	2.54
281.013	1.83
281.391	2.25
281.769	2.49
282.147	2.06
282.525	2.33
282.903	2.22
283.281	2.16
283.659	2.56
284.037	2.97
284.415	2.56
284.792	2.14
285.17	2.66
285.548	1.86
285.925	2.32
286.303	2.17
286.68	1.95
287.058	1.73
287.435	2.06
287.813	2.24
288.19	2.43
288.567	2.37
288.945	1.95
289.322	2.28
289.699	2.26
290.076	2.5
290.453	2.54
290.83	2.04
291.207	2.51
291.584	2.72
291.961	2.14
292.338	2.11
292.715	2.64
293.092	2.7
293.469	2.75
293.845	2.62
294.222	2.45
294.599	2.09
294.975	2.41
295.352	2.51
295.728	2.61
296.105	2.6
296.481	2.43
296.858	2.54
297.234	2.32
297.61	2.8
297.986	2.59
298.363	2.58
298.739	2.5
299.115	2.45
299.491	2.51
299.867	2.06
300.243	2.41
300.619	2.11
300.995	2.16
301.371	2.27
301.746	2.52
302.122	3.05
302.498	2.47
302.874	2.71
303.249	2.82
303.625	2.35
304	2.75
304.376	2.46
304.751	2.22
305.127	2.52
305.502	2.25
305.878	2.31
306.253	2.81
306.628	2.6
307.003	2.8
307.378	2.97
307.754	2.34
308.129	2.64
308.504	2.6
308.879	2.51
309.254	2.2
309.629	2.79
310.003	2.72
310.378	2.56
310.753	2.91
311.128	2.12
311.502	2.9
311.877	2.46
312.252	2.83
312.626	2.89
313.001	2.38
313.375	2.26
313.75	2.8
314.124	2.57
314.498	2.82
314.873	2.63
315.247	2.46
315.621	2.55
315.995	2.45
316.369	2.6
316.743	2.28
317.117	2.8
317.491	3.15
317.865	2.43
318.239	2.81
318.613	2.78
318.987	2.83
319.361	2.56
319.734	2.5
320.108	2.05
320.482	3.44
320.855	3.17
321.229	2.93
321.602	2.86
321.976	2.76
322.349	3.51
322.723	3.03
323.096	2.33
323.469	2.86
323.843	3.22
324.216	2.51
324.589	3.04
324.962	3.15
325.335	2.9
325.708	2.34
326.081	2.82
326.454	2.78
326.827	3.02
327.2	2.75
327.573	3.23
327.945	2.91
328.318	2.36
328.691	2.88
329.063	2.79
329.436	2.92
329.809	3.4
330.181	3.36
330.553	2.69
330.926	2.46
331.298	2.67
331.671	2.56
332.043	2.51
332.415	3.25
332.787	2.62
333.159	2.78
333.532	2.67
333.904	2.87
334.276	2.88
334.648	2.74
335.02	2.53
335.391	3.16
335.763	3.45
336.135	2.87
336.507	3.01
336.879	2.89
337.25	2.74
337.622	3.06
337.993	3.38
338.365	3.45
338.736	2.81
339.108	3.3
339.479	3.07
339.851	2.88
340.222	3.31
340.593	2.98
340.964	2.85
341.336	2.78
341.707	2.9
342.078	3.17
342.449	3.06
342.82	2.8
343.191	2.52
343.562	2.87
343.933	3.38
344.303	2.84
344.674	2.94
345.045	3.44
345.416	3.07
345.786	3.6
346.157	2.95
346.527	2.72
346.898	2.92
347.268	2.9
347.639	2.51
348.009	3.19
348.38	2.94
348.75	3.08
349.12	3.4
349.49	2.8
349.861	2.64
350.231	3.07
350.601	2.71
350.971	3.42
351.341	3.04
351.711	3
352.081	3.51
352.45	3.12
352.82	3.39
353.19	3.25
353.56	2.62
353.929	3.16
354.299	3.3
354.669	3.04
355.038	3.12
355.408	3.16
355.777	2.75
356.147	3.03
356.516	3.02
356.885	3.38
357.254	2.68
357.624	3.04
357.993	2.97
358.362	2.98
358.731	3.15
359.1	3.09
359.469	3.2
359.838	3.06
360.207	3.28
360.576	2.87
360.945	3.25
361.314	2.98
361.682	3.33
362.051	3.17
362.42	3.26
362.788	2.97
363.157	3.21
363.525	3.03
363.894	3.23
364.262	3.2
364.631	2.98
364.999	3.02
365.367	3.01
365.735	3.22
366.104	3.23
366.472	3.3
366.84	2.52
367.208	3.19
367.576	3.38
367.944	3.2
368.312	3.23
368.68	3.14
369.048	3.35
369.416	3.37
369.783	3.07
370.151	3.48
370.519	3.26
370.886	3.19
371.254	3.17
371.621	3.04
371.989	3.16
372.356	3.42
372.724	3.42
373.091	2.94
373.458	3.41
373.826	3.03
374.193	3.4
374.56	3.55
374.927	3.32
375.294	2.9
375.661	3.08
376.028	3.52
376.395	3.42
376.762	3.17
377.129	3.08
377.496	3.25
377.863	3.46
378.229	3.27
378.596	3.33
378.963	3.24
379.329	3.14
379.696	3.2
380.062	3.33
380.429	3.28
380.795	3.54
381.161	3.26
381.528	3.33
381.894	3.51
382.26	3.31
382.626	3.12
382.993	3.17
383.359	3.17
383.725	3.35
384.091	3.38
384.457	3.41
384.823	3.22
385.188	3.32
385.554	3.36
385.92	3.63
386.286	3.23
386.651	3.22
387.017	3.27
387.383	3.41
387.748	3.33
388.114	3.35
388.479	3.38
388.845	3.28
389.21	3.36
389.575	3.3
389.94	3.27
390.306	3.3
390.671	3.83
391.036	3.29
391.401	3.14
391.766	3.64
392.131	3.36
392.496	3.32
392.861	3.22
393.226	3.49
393.591	3.24
393.956	3.33
394.32	3.28
394.685	3.47
395.05	3.25
395.414	3.32
395.779	3.52
396.143	3.25
396.508	3.14
396.872	3.39
397.236	3.37
397.601	3.29
397.965	3.57
398.329	3.41
398.694	3.43
399.058	3.28
399.422	3.51
399.786	3.43
400.15	3.42
400.514	3.13
400.878	3.45
401.242	3.37
401.605	3.67
401.969	3.41
402.333	3.45
402.697	3.48
403.06	3.55
403.424	3.34
403.787	3.57
404.151	3.4
404.514	3.57
404.878	3.57
405.241	3.26
405.604	3.54
405.968	3.42
406.331	3.39
406.694	3.57
407.057	3.52
407.42	3.45
407.783	3.52
408.146	3.54
408.509	3.53
408.872	3.32
409.235	3.5
409.598	3.76
409.961	3.64
410.323	3.6
410.686	3.29
411.049	3.57
411.411	3.63
411.774	3.52
412.136	3.35
412.499	3.55
412.861	3.38
413.223	3.33
413.586	3.73
413.948	3.47
414.31	3.53
414.672	3.58
415.035	3.57
415.397	3.71
415.759	3.44
416.121	3.37
416.483	3.5
416.845	3.53
417.206	3.46
417.568	3.56
417.93	3.32
418.292	3.52
418.653	3.5
419.015	3.43
419.377	3.44
419.738	3.39
420.1	3.52
420.461	3.46
420.822	3.42
421.184	3.41
421.545	3.53
421.906	3.38
422.267	3.35
422.629	3.51
422.99	3.39
423.351	3.46
423.712	3.45
424.073	3.57
424.434	3.58
424.795	3.44
425.155	3.42
425.516	3.39
425.877	3.56
426.238	3.46
426.598	3.48
426.959	3.34
427.32	3.57
427.68	3.53
428.041	3.63
428.401	3.74
428.761	3.64
429.122	3.51
429.482	3.69
429.842	3.67
430.202	3.77
430.563	3.69
430.923	3.6
431.283	3.45
431.643	3.74
432.003	3.63
432.363	3.79
432.722	3.71
433.082	3.53
433.442	3.57
433.802	3.73
434.161	3.69
434.521	3.55
434.881	3.63
435.24	3.66
435.6	3.61
435.959	3.64
436.319	3.64
436.678	3.79
437.037	3.55
437.396	3.57
437.756	3.79
438.115	3.68
438.474	3.69
438.833	3.84
439.192	3.68
439.551	3.55
439.91	3.7
440.269	3.78
440.628	3.81
440.987	3.72
441.345	3.76
441.704	3.61
442.063	3.75
442.421	3.58
442.78	3.61
443.138	3.64
443.497	3.71
443.855	3.67
444.214	3.77
444.572	3.79
444.93	3.75
445.288	3.56
445.647	3.91
446.005	3.75
446.363	3.83
446.721	3.64
447.079	3.71
447.437	3.72
447.795	3.78
448.153	3.61
448.51	3.7
448.868	3.64
449.226	3.65
449.584	3.7
449.941	3.75
450.299	3.75
450.656	3.62
451.014	3.73
451.371	3.84
451.729	3.8
452.086	3.75
452.443	3.81
452.801	3.9
453.158	3.93
453.515	3.81
453.872	3.76
454.229	3.79
454.586	3.85
454.943	3.92
455.3	3.8
455.657	3.92
456.014	3.83
456.371	3.82
456.727	3.94
457.084	3.88
457.441	3.93
457.797	3.86
458.154	3.78
458.51	4.01
458.867	3.94
459.223	3.83
459.58	4.02
459.936	3.87
460.292	3.82
460.648	3.87
461.005	3.92
461.361	3.8
461.717	3.75
462.073	3.8
462.429	3.82
462.785	3.92
463.141	3.84
463.496	4.04
463.852	3.9
464.208	3.9
464.564	4.06
464.919	3.87
465.275	4.04
465.631	4.19
465.986	3.93
466.342	4.19
466.697	4.1
467.052	3.95
467.408	3.88
467.763	3.91
468.118	3.82
468.473	3.86
468.829	4.01
469.184	4.07
469.539	4.02
469.894	3.77
470.249	4.05
470.603	4.08
470.958	4
471.313	3.88
471.668	4.07
472.023	4.13
472.377	4.1
472.732	3.91
473.086	4.03
473.441	4.06
473.795	4.02
474.15	4.01
474.504	4.18
474.859	4.03
475.213	4.12
475.567	4.21
475.921	3.96
476.275	4.13
476.63	4
476.984	3.99
477.338	4.15
477.692	4.17
478.045	4.11
478.399	4.07
478.753	4.06
479.107	4.23
479.461	4.14
479.814	4.09
480.168	4.06
480.521	4.11
480.875	3.98
481.228	4.1
481.582	4.06
481.935	4.11
482.289	4.23
482.642	4.18
482.995	4
483.348	4.04
483.701	3.96
484.055	4.03
484.408	4.1
484.761	3.97
485.114	3.86
485.466	3.82
485.819	3.76
486.172	3.8
486.525	3.86
486.878	3.9
487.23	3.98
487.583	4.02
487.936	4.01
488.288	4.07
488.641	3.99
488.993	3.93
489.345	3.91
489.698	3.91
490.05	3.96
490.402	3.95
490.754	3.99
491.107	4.04
491.459	4.21
491.811	4.09
492.163	4.09
492.515	4.12
492.866	4.04
493.218	3.97
493.57	3.98
493.922	3.94
494.274	4.09
494.625	4.06
494.977	4.13
495.328	4.17
495.68	4.13
496.031	4.11
496.383	4.27
496.734	4.17
497.086	4.31
497.437	4.28
497.788	4.13
498.139	4.24
498.49	4.25
498.842	4.16
499.193	4.21
499.544	4.22
499.894	4.3
500.245	4.25
500.596	4.27
500.947	4.24
501.298	4.27
501.648	4.16
501.999	4.35
502.35	4.15
502.7	4.27
503.051	4.23
503.401	4.24
503.752	4.39
504.102	4.45
504.452	4.49
504.803	4.41
505.153	4.36
505.503	4.27
505.853	4.48
506.203	4.42
506.553	4.51
506.903	4.28
507.253	4.39
507.603	4.47
507.953	4.47
508.303	4.4
508.652	4.29
509.002	4.34
509.352	4.41
509.701	4.5
510.051	4.39
510.4	4.49
510.75	4.39
511.099	4.29
511.449	4.5
511.798	4.35
512.147	4.39
512.496	4.38
512.846	4.49
513.195	4.38
513.544	4.39
513.893	4.47
514.242	4.44
514.591	4.46
514.939	4.53
515.288	4.55
515.637	4.52
515.986	4.62
516.334	4.63
516.683	4.56
517.032	4.46
517.38	4.49
517.729	4.54
518.077	4.56
518.426	4.43
518.774	4.46
519.122	4.43
519.47	4.54
519.819	4.47
520.167	4.4
520.515	4.44
520.863	4.42
521.211	4.55
521.559	4.46
521.907	4.59
522.255	4.51
522.602	4.49
522.95	4.65
523.298	4.58
523.645	4.61
523.993	4.49
524.341	4.61
524.688	4.7
525.036	4.66
525.383	4.62
525.73	4.65
526.078	4.73
526.425	4.62
526.772	4.55
527.119	4.56
527.466	4.64
527.814	4.58
528.161	4.63
528.508	4.51
528.854	4.59
529.201	4.64
529.548	4.63
529.895	4.48
530.242	4.46
530.588	4.44
530.935	4.48
531.282	4.49
531.628	4.59
531.975	4.63
532.321	4.62
532.667	4.69
533.014	4.71
533.36	4.76
533.706	4.76
534.052	4.76
534.399	4.81
534.745	4.64
535.091	4.68
535.437	4.6
535.783	4.67
536.129	4.78
536.474	4.75
536.82	4.81
537.166	4.87
537.512	4.89
537.857	4.93
538.203	4.84
538.549	4.78
538.894	4.8
539.239	4.83
539.585	4.87
539.93	4.94
540.276	5.05
540.621	5.05
540.966	4.95
541.311	5.03
541.656	4.95
542.001	4.97
542.346	4.99
542.691	4.86
543.036	4.77
543.381	4.73
543.726	4.82
544.071	4.88
544.415	4.94
544.76	5.02
545.105	5.01
545.449	5.03
545.794	5.07
546.138	5.14
546.483	5.02
546.827	5.23
547.171	5.25
547.516	5.13
547.86	5.12
548.204	5.18
548.548	5.18
548.892	5.13
549.236	5.21
549.58	5.25
549.924	5.25
550.268	5.25
550.612	5.14
550.956	5.33
551.3	5.44
551.643	5.32
551.987	5.36
552.33	5.25
552.674	5.48
553.017	5.55
553.361	5.4
553.704	5.42
554.048	5.51
554.391	5.36
554.734	5.57
555.077	5.48
555.42	5.33
555.764	5.47
556.107	5.46
556.45	5.48
556.793	5.46
557.135	5.56
557.478	5.58
557.821	5.58
558.164	5.55
558.507	5.5
558.849	5.68
559.192	5.7
559.534	5.49
559.877	5.79
560.219	5.75
560.562	5.54
560.904	5.8
561.246	5.78
561.589	5.74
561.931	5.65
562.273	5.7
562.615	5.9
562.957	5.79
563.299	5.75
563.641	5.8
563.983	5.76
564.325	5.84
564.667	6.03
565.008	5.71
565.35	5.81
565.692	5.7
566.033	5.78
566.375	6.03
566.716	6.02
567.058	5.88
567.399	5.72
567.741	6.04
568.082	5.87
568.423	5.91
568.764	5.94
569.105	5.87
569.447	5.97
569.788	5.98
570.129	5.91
570.47	6.1
570.811	6.15
571.151	6.14
571.492	6.04
571.833	5.92
572.174	5.97
572.514	6.3
572.855	5.97
573.195	6.24
573.536	6.23
573.876	6.22
574.217	6.24
574.557	6.33
574.898	6.28
575.238	6.24
575.578	6.32
575.918	6.27
576.258	6.46
576.598	6.27
576.938	6.32
577.278	6.42
577.618	6.27
577.958	6.48
578.298	6.43
578.638	6.41
578.977	6.37
579.317	6.46
579.657	6.61
579.996	6.48
580.336	6.46
580.675	6.49
581.014	6.57
581.354	6.55
581.693	6.7
582.032	6.6
582.372	6.71
582.711	6.68
583.05	6.52
583.389	6.8
583.728	6.85
584.067	6.81
584.406	6.75
584.745	6.68
585.083	6.84
585.422	6.7
585.761	6.76
586.1	6.96
586.438	6.94
586.777	6.86
587.115	6.98
587.454	6.87
587.792	7.04
588.13	6.97
588.469	6.96
588.807	6.74
589.145	7.01
589.483	7.18
589.821	7
590.159	7.07
590.497	7
590.835	7
591.173	6.99
591.511	7.05
591.849	7.14
592.187	7.15
592.524	7.28
592.862	7.17
593.2	7.22
593.537	7.25
593.875	7.27
594.212	7.04
594.55	7.21
594.887	7.12
595.224	7.35
595.561	7.47
595.899	7.5
596.236	7.53
596.573	7.42
596.91	7.51
597.247	7.63
597.584	7.44
597.921	7.55
598.258	7.6
598.594	7.42
598.931	7.39
599.268	7.27
599.604	7.63
599.941	7.53
600.277	7.58
600.614	7.49
600.95	7.75
601.287	7.62
601.623	7.82
601.959	7.2
602.296	7.88
602.632	7.77
602.968	7.8
603.304	7.76
603.64	7.76
603.976	7.68
604.312	7.94
604.648	7.75
604.984	7.73
605.319	7.87
605.655	7.99
605.991	7.81
606.326	7.93
606.662	7.78
606.998	8.1
607.333	8.09
607.668	7.96
608.004	8.07
608.339	8.22
608.674	8.13
609.01	8.27
609.345	8.16
609.68	8.41
610.015	8.34
610.35	8.22
610.685	8.23
611.02	8.1
611.355	8.28
611.689	8.37
612.024	8.44
612.359	8.37
612.694	8.32
613.028	8.31
613.363	8.28
613.697	8.24
614.032	8.45
614.366	8.33
614.7	8.4
615.035	8.48
615.369	8.46
615.703	8.77
616.037	8.19
616.371	8.16
616.705	8.51
617.039	8.72
617.373	8.86
617.707	8.89
618.041	9.08
618.375	8.82
618.709	8.65
619.042	8.85
619.376	8.7
619.71	8.92
620.043	9.18
620.377	8.8
620.71	8.97
621.043	9.05
621.377	9.16
621.71	9.14
622.043	8.89
622.376	8.87
622.709	9.07
623.043	9
623.376	9.46
623.709	8.93
624.041	9.33
624.374	8.95
624.707	9.13
625.04	9.31
625.373	9.37
625.705	9.36
626.038	9.43
626.37	9.4
626.703	9.03
627.035	9.58
627.368	9.44
627.7	9.29
628.032	9.36
628.365	9.15
628.697	9.37
629.029	9.37
629.361	9.52
629.693	9.37
630.025	9.58
630.357	9.32
630.689	9.81
631.021	9.7
631.353	9.52
631.684	9.55
632.016	9.81
632.348	9.9
632.679	9.87
633.011	9.93
633.342	9.52
633.674	9.9
634.005	9.78
634.336	9.5
634.668	9.87
634.999	9.78
635.33	9.98
635.661	9.7
635.992	9.88
636.323	9.94
636.654	10.14
636.985	10.26
637.316	9.91
637.647	9.78
637.977	10.36
638.308	10.42
638.639	10.06
638.969	9.89
639.3	10.22
639.63	10.25
639.961	10.55
640.291	10.23
640.622	10.45
640.952	10.05
641.282	10.17
641.612	10.69
641.943	10.33
642.273	10.33
642.603	10.49
642.933	10.49
643.263	10.46
643.592	10.31
643.922	10.61
644.252	11.18
644.582	11.12
644.911	10.9
645.241	10.54
645.571	10.53
645.9	11.02
646.23	11.1
646.559	11.01
646.888	11.06
647.218	11.02
647.547	10.97
647.876	11.2
648.205	10.87
648.534	10.65
648.863	10.8
649.192	10.98
649.521	11.2
649.85	10.77
650.179	11.11
650.508	11.08
650.837	11.11
651.165	10.99
651.494	11.09
651.822	11.02
652.151	11.32
652.479	11.44
652.808	11.26
653.136	11.05
653.465	11.34
653.793	11.35
654.121	11.71
654.449	11.35
654.777	11.57
655.105	11.53
655.433	11.81
655.761	11.43
656.089	11.8
656.417	11.59
656.745	11.7
657.073	11.44
657.4	11.73
657.728	11.48
658.056	11.54
658.383	11.43
658.711	12.05
659.038	12.06
659.365	11.59
659.693	11.78
660.02	12.28
660.347	11.88
660.674	11.41
661.001	11.97
661.329	12
661.656	11.97
661.982	11.76
662.309	11.86
662.636	12.37
662.963	11.9
663.29	12.08
663.616	12.22
663.943	12.29
664.27	11.8
664.596	11.99
664.923	12.12
665.249	11.78
665.576	12.5
665.902	12.48
666.228	11.75
666.554	11.9
666.881	12.96
667.207	12.04
667.533	12.87
667.859	12.21
668.185	12.77
668.511	12.28
668.837	12.57
669.162	12.67
669.488	12.18
669.814	12.84
670.139	13.17
670.465	12.71
670.791	12.57
671.116	12.04
671.442	12.81
671.767	13.02
672.092	12.8
672.418	13.2
672.743	13.03
673.068	13.12
673.393	12.89
673.718	12.68
674.043	12.47
674.368	12.34
674.693	13.05
675.018	12.72
675.343	12.68
675.667	13.56
675.992	13.1
676.317	12.97
676.641	13.2
676.966	13.14
677.29	13.22
677.615	12.56
677.939	13.85
678.264	13.79
678.588	13.68
678.912	13.84
679.236	13.41
679.56	13.58
679.885	13.54
680.209	13.26
680.532	13.29
680.856	13.8
681.18	13.28
681.504	13.64
681.828	13.15
682.152	13.86
682.475	14.41
682.799	13.83
683.122	13.66
683.446	13.86
683.769	13.45
684.093	13.7
684.416	13.79
684.739	13.78
685.062	13.88
685.386	13.87
685.709	14.17
686.032	13.49
686.355	13.99
686.678	14.23
687.001	13.87
687.324	13.94
687.646	13.75
687.969	14.72
688.292	13.99
688.614	14.09
688.937	13.8
689.26	14.54
