Data from 2017-1_chest_Reflection__4__04.txt Node

Date: Fri Oct 07 15:01:32 CDT 2022
User: ToomeyLab
Spectrometer: FLMS14357
Trigger mode: 0
Integration Time (sec): 1.000000E-2
Scans to average: 100
Electric dark correction enabled: true
Nonlinearity correction enabled: false
Boxcar width: 0
XAxis mode: Wavelengths
Number of Pixels in Spectrum: 2048
>>>>>Begin Spectral Data<<<<<
189.047	-19.26
189.435	-19.26
189.823	-19.26
190.211	-35.92
190.599	479.81
190.987	122.29
191.375	68.23
191.763	190.1
192.151	167.78
192.538	-327.85
192.926	381.18
193.314	145.8
193.702	126.79
194.089	2928.72
194.477	-24.46
194.864	39.28
195.252	-18.28
195.639	153.49
196.027	609.43
196.414	92.99
196.801	-77.61
197.189	-291.4
197.576	-29.39
197.963	228.5
198.351	31.16
198.738	-19.51
199.125	24.25
199.512	-3.9
199.899	28.51
200.286	0.25
200.673	-112.1
201.06	14.22
201.447	-15.83
201.833	42.07
202.22	20.2
202.607	19.43
202.994	-0.83
203.38	-22.29
203.767	-9.03
204.154	-22.77
204.54	-29.05
204.927	28.03
205.313	-36.28
205.699	24.38
206.086	-22.08
206.472	17.97
206.858	-5.84
207.245	-13.06
207.631	2.53
208.017	5.49
208.403	41.35
208.789	-7.29
209.175	10.44
209.561	29.62
209.947	-8.16
210.333	22.61
210.719	10.21
211.105	34.7
211.491	20.45
211.876	41.26
212.262	-3.16
212.648	17.06
213.034	11.86
213.419	17.04
213.805	5.36
214.19	-3.41
214.576	5.55
214.961	18.23
215.346	-12.64
215.732	14.69
216.117	11.65
216.502	0.08
216.888	-6.48
217.273	4.09
217.658	18.17
218.043	-2.11
218.428	12.94
218.813	9.44
219.198	23.79
219.583	4.14
219.968	1.67
220.353	-7.55
220.738	4.28
221.122	-4.61
221.507	-10.88
221.892	6.06
222.276	14.08
222.661	12.95
223.046	-2.37
223.43	16.16
223.815	1.62
224.199	5.92
224.583	13.06
224.968	-5.26
225.352	4.83
225.736	-3.17
226.121	7.64
226.505	2.38
226.889	-1.26
227.273	3.74
227.657	0.08
228.041	6.09
228.425	1.61
228.809	3.93
229.193	1.52
229.577	1.95
229.961	1.28
230.344	1.8
230.728	2.22
231.112	2.56
231.495	3.18
231.879	3.42
232.263	1.48
232.646	3.51
233.03	2.97
233.413	2.36
233.797	3.9
234.18	1.49
234.563	-0.43
234.946	1.15
235.33	1.99
235.713	1.4
236.096	3.36
236.479	0.93
236.862	2.1
237.245	2.22
237.628	1.22
238.011	3.7
238.394	2.54
238.777	2.52
239.16	4.07
239.543	2.37
239.925	2.15
240.308	2.35
240.691	1.44
241.073	1.93
241.456	2.3
241.838	2.49
242.221	1.99
242.603	1.83
242.986	2.53
243.368	2.1
243.75	2.39
244.133	2.03
244.515	2.25
244.897	2.23
245.279	2.48
245.661	2.04
246.043	2.16
246.425	2.56
246.807	2.79
247.189	2.7
247.571	2.09
247.953	1.99
248.335	2.16
248.717	2.09
249.098	1.92
249.48	2.06
249.862	1.95
250.243	2.14
250.625	1.79
251.006	1.84
251.388	2.26
251.769	2.42
252.151	2.45
252.532	2.97
252.913	0.61
253.295	3.56
253.676	2.13
254.057	2.22
254.438	2.01
254.819	2.53
255.2	2.8
255.581	2.7
255.962	3.17
256.343	1.98
256.724	2.14
257.105	2.11
257.486	1.39
257.867	1.8
258.247	3.13
258.628	1.9
259.009	2.04
259.389	2.56
259.77	1.88
260.15	2.22
260.531	2.02
260.911	1.95
261.292	1.99
261.672	2.1
262.052	2.17
262.432	1.97
262.813	2.27
263.193	2.08
263.573	2.35
263.953	2.68
264.333	2.06
264.713	1.57
265.093	1.66
265.473	2.73
265.853	2.13
266.233	2.2
266.612	2.51
266.992	2.45
267.372	2.18
267.752	1.85
268.131	2.22
268.511	2.21
268.89	1.76
269.27	1.64
269.649	1.56
270.029	1.7
270.408	1.11
270.787	2.43
271.167	2.41
271.546	2.43
271.925	1.48
272.304	2.07
272.683	1.71
273.062	1.9
273.441	1.75
273.82	1.8
274.199	1.88
274.578	1.96
274.957	2.06
275.336	2.2
275.715	2.07
276.093	2.02
276.472	1.82
276.851	1.8
277.229	1.13
277.608	2.55
277.986	2.18
278.365	2.3
278.743	2.38
279.122	2.15
279.5	1.72
279.878	2.34
280.257	1.51
280.635	1.83
281.013	1.78
281.391	2.23
281.769	1.63
282.147	1.91
282.525	1.71
282.903	2.27
283.281	1.77
283.659	2.44
284.037	2.03
284.415	2.17
284.792	2.03
285.17	1.89
285.548	1.8
285.925	2.21
286.303	1.69
286.68	1.55
287.058	1.75
287.435	1.92
287.813	1.81
288.19	2.11
288.567	1.9
288.945	1.85
289.322	1.77
289.699	2.22
290.076	2.32
290.453	2.27
290.83	2.16
291.207	1.98
291.584	2.16
291.961	1.9
292.338	1.88
292.715	2.15
293.092	2.23
293.469	2.08
293.845	2.26
294.222	2.19
294.599	2.02
294.975	1.43
295.352	2.11
295.728	2.12
296.105	2.1
296.481	1.78
296.858	2.3
297.234	1.63
297.61	2.06
297.986	1.92
298.363	1.89
298.739	1.97
299.115	1.76
299.491	2.26
299.867	2.08
300.243	2.15
300.619	2.11
300.995	2.49
301.371	2.13
301.746	2.19
302.122	2.08
302.498	2.33
302.874	2.38
303.249	2.13
303.625	2.28
304	2.17
304.376	2.28
304.751	1.8
305.127	1.65
305.502	2.42
305.878	2.3
306.253	2.02
306.628	2.7
307.003	2.46
307.378	2.72
307.754	1.81
308.129	2.38
308.504	2.11
308.879	1.59
309.254	2.47
309.629	2.01
310.003	2.19
310.378	1.96
310.753	2.13
311.128	2.01
311.502	2
311.877	2.15
312.252	1.96
312.626	2.13
313.001	1.82
313.375	2.15
313.75	2.34
314.124	2.01
314.498	2.17
314.873	2.02
315.247	2.17
315.621	1.99
315.995	2.07
316.369	2.02
316.743	1.73
317.117	1.88
317.491	2.74
317.865	1.84
318.239	2.41
318.613	2.2
318.987	2.39
319.361	2.58
319.734	2.11
320.108	1.62
320.482	2.62
320.855	2.5
321.229	2.55
321.602	2.18
321.976	1.96
322.349	2.2
322.723	1.8
323.096	2.28
323.469	2.79
323.843	2.38
324.216	2.38
324.589	2.63
324.962	2.93
325.335	2.35
325.708	1.74
326.081	2.26
326.454	2.61
326.827	2.22
327.2	2.15
327.573	2.96
327.945	2.36
328.318	1.66
328.691	2.55
329.063	2.28
329.436	2.8
329.809	2.97
330.181	2.51
330.553	2.17
330.926	2.91
331.298	2.08
331.671	1.84
332.043	2.05
332.415	2.72
332.787	2.43
333.159	2.48
333.532	1.86
333.904	2.2
334.276	2.03
334.648	2.03
335.02	2.08
335.391	2.55
335.763	2.63
336.135	2.1
336.507	2.7
336.879	2.17
337.25	2.36
337.622	2.49
337.993	2.18
338.365	2.4
338.736	2.34
339.108	2.5
339.479	2.18
339.851	2.24
340.222	2.36
340.593	2.37
340.964	2.43
341.336	2.13
341.707	2.1
342.078	2.19
342.449	2.42
342.82	2.11
343.191	2.29
343.562	2.16
343.933	2.53
344.303	2.59
344.674	1.99
345.045	2.03
345.416	2.73
345.786	2.67
346.157	2.59
346.527	1.96
346.898	2.59
347.268	2.29
347.639	2.31
348.009	2.66
348.38	2.37
348.75	2.68
349.12	2.73
349.49	2.16
349.861	2.1
350.231	2.57
350.601	2.14
350.971	2.35
351.341	2.29
351.711	2.56
352.081	2.49
352.45	2.12
352.82	2.62
353.19	2.9
353.56	2.27
353.929	2.33
354.299	2.53
354.669	2.23
355.038	2.57
355.408	2.6
355.777	2.25
356.147	2.38
356.516	2.32
356.885	2.85
357.254	2.48
357.624	2.24
357.993	2.3
358.362	2.33
358.731	2.29
359.1	2.41
359.469	2.41
359.838	2.13
360.207	2.41
360.576	2.32
360.945	2.53
361.314	2.35
361.682	2.36
362.051	2.45
362.42	2.57
362.788	2.11
363.157	2.2
363.525	2.29
363.894	2.36
364.262	2.26
364.631	2.08
364.999	2.5
365.367	2.36
365.735	2.58
366.104	2.19
366.472	2.53
366.84	1.97
367.208	2.41
367.576	2.22
367.944	2.24
368.312	2.42
368.68	2.34
369.048	2.39
369.416	2.46
369.783	2.41
370.151	2.59
370.519	2.27
370.886	2.4
371.254	2.36
371.621	2.57
371.989	2.3
372.356	2.36
372.724	2.51
373.091	2.42
373.458	2.34
373.826	2.04
374.193	2.21
374.56	2.16
374.927	2.39
375.294	2.31
375.661	2.36
376.028	2.73
376.395	2.51
376.762	2.63
377.129	2.64
377.496	2.47
377.863	2.58
378.229	2.46
378.596	2.47
378.963	2.3
379.329	2.5
379.696	2.29
380.062	2.78
380.429	2.57
380.795	2.74
381.161	2.51
381.528	2.58
381.894	2.77
382.26	2.57
382.626	2.5
382.993	2.46
383.359	2.41
383.725	2.63
384.091	2.49
384.457	2.45
384.823	2.29
385.188	2.53
385.554	2.58
385.92	2.65
386.286	2.52
386.651	2.22
387.017	2.44
387.383	2.26
387.748	2.37
388.114	2.54
388.479	2.5
388.845	2.74
389.21	2.57
389.575	2.44
389.94	2.63
390.306	2.39
390.671	2.68
391.036	2.62
391.401	2.31
391.766	2.66
392.131	2.36
392.496	2.31
392.861	2.35
393.226	2.71
393.591	2.39
393.956	2.47
394.32	2.34
394.685	2.44
395.05	2.08
395.414	2.61
395.779	2.52
396.143	2.51
396.508	2.38
396.872	2.5
397.236	2.41
397.601	2.44
397.965	2.58
398.329	2.34
398.694	2.57
399.058	2.37
399.422	2.61
399.786	2.52
400.15	2.56
400.514	2.45
400.878	2.61
401.242	2.48
401.605	2.63
401.969	2.3
402.333	2.45
402.697	2.7
403.06	2.75
403.424	2.46
403.787	2.56
404.151	2.61
404.514	2.57
404.878	2.57
405.241	2.3
405.604	2.69
405.968	2.5
406.331	2.41
406.694	2.32
407.057	2.58
407.42	2.54
407.783	2.42
408.146	2.66
408.509	2.66
408.872	2.39
409.235	2.49
409.598	2.58
409.961	2.72
410.323	2.55
410.686	2.59
411.049	2.38
411.411	2.47
411.774	2.72
412.136	2.33
412.499	2.58
412.861	2.35
413.223	2.52
413.586	2.66
413.948	2.47
414.31	2.38
414.672	2.4
415.035	2.49
415.397	2.97
415.759	2.53
416.121	2.51
416.483	2.53
416.845	2.42
417.206	2.52
417.568	2.58
417.93	2.33
418.292	2.55
418.653	2.58
419.015	2.36
419.377	2.4
419.738	2.47
420.1	2.51
420.461	2.56
420.822	2.47
421.184	2.45
421.545	2.48
421.906	2.49
422.267	2.41
422.629	2.34
422.99	2.42
423.351	2.44
423.712	2.57
424.073	2.46
424.434	2.56
424.795	2.36
425.155	2.47
425.516	2.45
425.877	2.49
426.238	2.4
426.598	2.43
426.959	2.42
427.32	2.57
427.68	2.46
428.041	2.54
428.401	2.7
428.761	2.67
429.122	2.51
429.482	2.55
429.842	2.56
430.202	2.65
430.563	2.72
430.923	2.52
431.283	2.59
431.643	2.76
432.003	2.47
432.363	2.85
432.722	2.66
433.082	2.52
433.442	2.59
433.802	2.71
434.161	2.62
434.521	2.66
434.881	2.45
435.24	2.61
435.6	2.54
435.959	2.54
436.319	2.54
436.678	2.72
437.037	2.63
437.396	2.62
437.756	2.64
438.115	2.76
438.474	2.58
438.833	2.77
439.192	2.69
439.551	2.65
439.91	2.66
440.269	2.64
440.628	2.58
440.987	2.52
441.345	2.56
441.704	2.58
442.063	2.64
442.421	2.64
442.78	2.58
443.138	2.65
443.497	2.7
443.855	2.69
444.214	2.73
444.572	2.67
444.93	2.6
445.288	2.34
445.647	2.71
446.005	2.76
446.363	2.57
446.721	2.64
447.079	2.72
447.437	2.51
447.795	2.67
448.153	2.53
448.51	2.62
448.868	2.58
449.226	2.63
449.584	2.62
449.941	2.81
450.299	2.67
450.656	2.56
451.014	2.72
451.371	2.62
451.729	2.67
452.086	2.72
452.443	2.82
452.801	2.75
453.158	2.83
453.515	2.73
453.872	2.67
454.229	2.75
454.586	2.75
454.943	2.76
455.3	2.6
455.657	2.85
456.014	2.87
456.371	2.85
456.727	2.88
457.084	2.78
457.441	2.84
457.797	2.85
458.154	2.69
458.51	2.75
458.867	2.81
459.223	2.77
459.58	2.82
459.936	2.7
460.292	2.56
460.648	2.75
461.005	2.68
461.361	2.62
461.717	2.56
462.073	2.64
462.429	2.73
462.785	2.86
463.141	2.76
463.496	2.94
463.852	2.89
464.208	2.79
464.564	2.79
464.919	2.71
465.275	2.81
465.631	2.86
465.986	2.7
466.342	2.89
466.697	2.97
467.052	2.83
467.408	2.66
467.763	2.73
468.118	2.61
468.473	2.81
468.829	2.77
469.184	2.82
469.539	2.84
469.894	2.73
470.249	2.82
470.603	2.87
470.958	2.72
471.313	2.78
471.668	2.97
472.023	2.9
472.377	3.03
472.732	2.83
473.086	2.93
473.441	2.87
473.795	2.91
474.15	2.72
474.504	2.95
474.859	2.8
475.213	2.83
475.567	2.85
475.921	2.91
476.275	2.9
476.63	2.65
476.984	2.77
477.338	2.82
477.692	3.06
478.045	2.76
478.399	2.89
478.753	2.78
479.107	2.82
479.461	2.81
479.814	2.85
480.168	2.8
480.521	2.92
480.875	2.95
481.228	2.7
481.582	2.85
481.935	2.91
482.289	2.86
482.642	2.89
482.995	2.85
483.348	2.88
483.701	2.75
484.055	2.64
484.408	2.76
484.761	2.67
485.114	2.64
485.466	2.53
485.819	2.55
486.172	2.65
486.525	2.72
486.878	2.8
487.23	2.87
487.583	2.86
487.936	2.74
488.288	2.77
488.641	2.67
488.993	2.67
489.345	2.7
489.698	2.67
490.05	2.73
490.402	2.77
490.754	2.84
491.107	2.87
491.459	2.9
491.811	2.95
492.163	2.93
492.515	2.86
492.866	2.75
493.218	2.71
493.57	2.71
493.922	2.72
494.274	2.83
494.625	2.89
494.977	2.93
495.328	2.93
495.68	2.97
496.031	2.89
496.383	2.94
496.734	2.8
497.086	2.87
497.437	2.88
497.788	2.84
498.139	2.91
498.49	2.91
498.842	2.93
499.193	2.87
499.544	2.94
499.894	3.03
500.245	2.99
500.596	2.88
500.947	2.83
501.298	2.93
501.648	2.91
501.999	2.95
502.35	2.94
502.7	3
503.051	2.99
503.401	2.92
503.752	2.97
504.102	3.01
504.452	3
504.803	3.16
505.153	3.01
505.503	2.87
505.853	3.1
506.203	2.92
506.553	3.12
506.903	3
507.253	3.1
507.603	2.98
507.953	3.04
508.303	3.09
508.652	3.09
509.002	3.02
509.352	3.02
509.701	3.1
510.051	3.03
510.4	2.93
510.75	2.96
511.099	2.97
511.449	3.09
511.798	3.09
512.147	3.01
512.496	2.99
512.846	2.99
513.195	3.12
513.544	3.07
513.893	3.12
514.242	3.03
514.591	3.06
514.939	3.1
515.288	3.1
515.637	3.1
515.986	3.26
516.334	3.16
516.683	2.97
517.032	3.05
517.38	3.11
517.729	2.99
518.077	3.05
518.426	3.1
518.774	3.03
519.122	3.04
519.47	3.06
519.819	2.98
520.167	2.91
520.515	2.89
520.863	3.04
521.211	3.11
521.559	3.1
521.907	3.09
522.255	2.97
522.602	3.04
522.95	3.18
523.298	3.1
523.645	3.06
523.993	3.05
524.341	3.09
524.688	3.15
525.036	3.13
525.383	3.21
525.73	3.16
526.078	3.26
526.425	3.15
526.772	2.93
527.119	3.03
527.466	3.01
527.814	3.05
528.161	3.08
528.508	3.01
528.854	3.09
529.201	3.12
529.548	3.12
529.895	2.93
530.242	2.88
530.588	2.89
530.935	2.96
531.282	3.05
531.628	3.12
531.975	3.17
532.321	3.22
532.667	3.17
533.014	3.24
533.36	3.17
533.706	3.16
534.052	3.09
534.399	3.19
534.745	3.02
535.091	3.04
535.437	3.05
535.783	3.11
536.129	3.16
536.474	3.17
536.82	3.19
537.166	3.35
537.512	3.27
537.857	3.21
538.203	3.15
538.549	3.16
538.894	3.21
539.239	3.36
539.585	3.22
539.93	3.33
540.276	3.34
540.621	3.28
540.966	3.21
541.311	3.32
541.656	3.33
542.001	3.21
542.346	3.15
542.691	3.2
543.036	3.09
543.381	3.08
543.726	3.19
544.071	3.31
544.415	3.27
544.76	3.31
545.105	3.24
545.449	3.34
545.794	3.41
546.138	3.41
546.483	3.41
546.827	3.52
547.171	3.42
547.516	3.35
547.86	3.38
548.204	3.29
548.548	3.4
548.892	3.39
549.236	3.36
549.58	3.48
549.924	3.44
550.268	3.52
550.612	3.41
550.956	3.34
551.3	3.56
551.643	3.51
551.987	3.53
552.33	3.45
552.674	3.61
553.017	3.47
553.361	3.44
553.704	3.52
554.048	3.49
554.391	3.48
554.734	3.52
555.077	3.42
555.42	3.5
555.764	3.58
556.107	3.53
556.45	3.56
556.793	3.66
557.135	3.68
557.478	3.56
557.821	3.47
558.164	3.68
558.507	3.58
558.849	3.63
559.192	3.78
559.534	3.56
559.877	3.68
560.219	3.81
560.562	3.45
560.904	3.69
561.246	3.58
561.589	3.81
561.931	3.58
562.273	3.7
562.615	3.68
562.957	3.78
563.299	3.83
563.641	3.62
563.983	3.84
564.325	3.88
564.667	3.76
565.008	3.84
565.35	3.6
565.692	3.74
566.033	3.73
566.375	3.89
566.716	3.83
567.058	3.77
567.399	3.72
567.741	3.65
568.082	3.65
568.423	3.73
568.764	3.74
569.105	3.86
569.447	3.92
569.788	3.79
570.129	3.84
570.47	3.98
570.811	3.94
571.151	3.87
571.492	3.87
571.833	3.86
572.174	3.82
572.514	3.97
572.855	3.78
573.195	4.04
573.536	3.92
573.876	3.91
574.217	3.98
574.557	4.03
574.898	3.84
575.238	3.95
575.578	4.07
575.918	3.95
576.258	4.11
576.598	3.87
576.938	4.11
577.278	4.19
577.618	3.97
577.958	4.22
578.298	4.11
578.638	4.13
578.977	4.08
579.317	4.19
579.657	4.25
579.996	4.14
580.336	4.15
580.675	4.17
581.014	4.16
581.354	4.16
581.693	4.32
582.032	4
582.372	4.04
582.711	4.37
583.05	4.05
583.389	4.25
583.728	4.15
584.067	4.27
584.406	4.17
584.745	4.31
585.083	4.23
585.422	4.1
585.761	4.35
586.1	4.41
586.438	4.27
586.777	4.27
587.115	4.19
587.454	4.45
587.792	4.39
588.13	4.3
588.469	4.34
588.807	4.19
589.145	4.34
589.483	4.57
589.821	4.37
590.159	4.16
590.497	4.37
590.835	4.34
591.173	4.27
591.511	4.39
591.849	4.32
592.187	4.33
592.524	4.41
592.862	4.41
593.2	4.7
593.537	4.21
593.875	4.59
594.212	4.49
594.55	4.4
594.887	4.6
595.224	4.35
595.561	4.67
595.899	4.57
596.236	4.74
596.573	4.52
596.91	4.65
597.247	4.69
597.584	4.5
597.921	4.57
598.258	4.64
598.594	4.51
598.931	4.63
599.268	4.58
599.604	4.84
599.941	4.73
600.277	4.45
600.614	4.58
600.95	4.6
601.287	4.97
601.623	4.88
601.959	4.48
602.296	4.63
602.632	4.58
602.968	4.67
603.304	4.9
603.64	4.76
603.976	4.72
604.312	5.01
604.648	4.75
604.984	4.63
605.319	4.76
605.655	4.86
605.991	4.7
606.326	4.85
606.662	4.81
606.998	4.86
607.333	5.04
607.668	4.97
608.004	5
608.339	4.93
608.674	4.98
609.01	5.05
609.345	5.09
609.68	5.08
610.015	5.19
610.35	5.08
610.685	4.97
611.02	4.88
611.355	5.04
611.689	5.07
612.024	4.91
612.359	5.08
612.694	5.11
613.028	5.07
613.363	5.2
613.697	5.07
614.032	4.95
614.366	5.07
614.7	5.32
615.035	5.31
615.369	5.17
615.703	5.12
616.037	4.76
616.371	4.98
616.705	5.05
617.039	5.22
617.373	5.28
617.707	5.09
618.041	5.51
618.375	5.49
618.709	5.27
619.042	5.28
619.376	5.59
619.71	5.42
620.043	5.12
620.377	5.3
620.71	5.4
621.043	5.31
621.377	5.41
621.71	5.34
622.043	5.61
622.376	5.29
622.709	5.49
623.043	5.21
623.376	5.6
623.709	5.6
624.041	5.47
624.374	5.47
624.707	5.46
625.04	5.88
625.373	5.17
625.705	5.53
626.038	5.43
626.37	5.46
626.703	5.56
627.035	5.68
627.368	5.92
627.7	5.7
628.032	5.37
628.365	5.71
628.697	5.62
629.029	5.69
629.361	5.56
629.693	5.62
630.025	5.73
630.357	5.66
630.689	5.73
631.021	5.89
631.353	5.86
631.684	5.55
632.016	5.68
632.348	5.82
632.679	5.98
633.011	5.94
633.342	5.43
633.674	6.03
634.005	5.8
634.336	5.87
634.668	5.69
634.999	5.75
635.33	6.03
635.661	5.86
635.992	5.73
636.323	5.66
636.654	5.95
636.985	5.92
637.316	5.94
637.647	5.77
637.977	5.81
638.308	6.33
638.639	6.07
638.969	5.96
639.3	6.05
639.63	6
639.961	6.21
640.291	6.32
640.622	6.29
640.952	5.92
641.282	6.03
641.612	6.07
641.943	5.98
642.273	6.04
642.603	6.12
642.933	6.24
643.263	6.25
643.592	6.36
643.922	6.52
644.252	6.25
644.582	6.31
644.911	6.43
645.241	6.28
645.571	6.13
645.9	6.55
646.23	6.59
646.559	6.84
646.888	6.55
647.218	6.46
647.547	6.72
647.876	6.27
648.205	6.38
648.534	6.35
648.863	5.88
649.192	6.38
649.521	6.44
649.85	6.04
650.179	6.47
650.508	6.81
650.837	6.38
651.165	6.48
651.494	6.25
651.822	6.36
652.151	6.43
652.479	6.84
652.808	6.77
653.136	6.7
653.465	7.2
653.793	6.9
654.121	6.94
654.449	7.21
654.777	6.27
655.105	7.18
655.433	6.95
655.761	6.54
656.089	6.5
656.417	6.79
656.745	6.77
657.073	6.88
657.4	6.9
657.728	6.83
658.056	6.66
658.383	7.02
658.711	6.72
659.038	6.62
659.365	6.65
659.693	7.04
660.02	7.22
660.347	6.93
660.674	6.7
661.001	6.68
661.329	6.94
661.656	6.72
661.982	6.9
662.309	6.81
662.636	7.22
662.963	7.3
663.29	6.85
663.616	6.86
663.943	7.11
664.27	6.63
664.596	6.97
664.923	7.31
665.249	7.23
665.576	7.26
665.902	7.57
666.228	7.28
666.554	7.12
666.881	7.04
667.207	6.83
667.533	7.35
667.859	7.42
668.185	7.36
668.511	6.89
668.837	7.5
669.162	6.95
669.488	6.8
669.814	7.15
670.139	7.67
670.465	7.57
670.791	7.17
671.116	6.92
671.442	7.39
671.767	7.66
672.092	7.57
672.418	7.85
672.743	7.94
673.068	7.52
673.393	7.32
673.718	7.62
674.043	7.61
674.368	7.23
674.693	8.39
675.018	7.52
675.343	7.09
675.667	7.42
675.992	7.15
676.317	7.94
676.641	8.3
676.966	7.28
677.29	7.89
677.615	7.48
677.939	7.7
678.264	7.9
678.588	8.25
678.912	7.74
679.236	7.81
679.56	7.78
679.885	7.78
680.209	7.69
680.532	7.19
680.856	7.68
681.18	7.58
681.504	7.62
681.828	7.6
682.152	7.66
682.475	7.77
682.799	7.77
683.122	7.92
683.446	7.89
683.769	8.04
684.093	7.91
684.416	7.95
684.739	8.03
685.062	8
685.386	8.26
685.709	8.57
686.032	8.26
686.355	7.58
686.678	8.64
687.001	8.27
687.324	7.46
687.646	7.59
687.969	7.41
688.292	8.25
688.614	7.74
688.937	8.36
689.26	8.61
689.582	7.57
689.904	7.91
690.227	8.23
690.549	8.25
690.871	8.35
691.194	8.05
691.516	8.54
691.838	8.32
692.16	8.8
692.482	8.61
