Data from 2017-1_forehead_Reflection__2__12.txt Node

Date: Fri Oct 07 15:05:32 CDT 2022
User: ToomeyLab
Spectrometer: FLMS14357
Trigger mode: 0
Integration Time (sec): 1.000000E-2
Scans to average: 100
Electric dark correction enabled: true
Nonlinearity correction enabled: false
Boxcar width: 0
XAxis mode: Wavelengths
Number of Pixels in Spectrum: 2048
>>>>>Begin Spectral Data<<<<<
189.047	117.94
189.435	117.94
189.823	117.94
190.211	-38.34
190.599	391.48
190.987	94.5
191.375	-4.36
191.763	214.16
192.151	475.18
192.538	-105.67
192.926	-138.16
193.314	1373.28
193.702	179.84
194.089	3113.33
194.477	273.62
194.864	57.75
195.252	173.1
195.639	-87.9
196.027	483.73
196.414	-7.17
196.801	164.88
197.189	139.22
197.576	-43.63
197.963	199.12
198.351	39.56
198.738	42.36
199.125	55.6
199.512	13.92
199.899	60.32
200.286	40.65
200.673	-43.3
201.06	42.69
201.447	54.66
201.833	42.33
202.22	20.99
202.607	25.92
202.994	39
203.38	37.02
203.767	19.01
204.154	78.43
204.54	53.16
204.927	66.1
205.313	3.11
205.699	21.16
206.086	42.89
206.472	45.11
206.858	-5.77
207.245	28.63
207.631	-3.91
208.017	11.02
208.403	21.02
208.789	32.54
209.175	30.47
209.561	37.15
209.947	49.34
210.333	38.53
210.719	14.67
211.105	32.28
211.491	21.39
211.876	40
212.262	38.03
212.648	48.7
213.034	11.05
213.419	5.84
213.805	49.2
214.19	26.19
214.576	30.63
214.961	20.63
215.346	-10.09
215.732	-2.31
216.117	12.72
216.502	38.58
216.888	2.8
217.273	9.55
217.658	28.79
218.043	8.21
218.428	14.96
218.813	16.1
219.198	18.45
219.583	40.39
219.968	13.91
220.353	27.41
220.738	5.49
221.122	20.87
221.507	8.72
221.892	7.55
222.276	13.24
222.661	16.2
223.046	9.33
223.43	7.32
223.815	8.55
224.199	15.52
224.583	12.99
224.968	5.68
225.352	7.85
225.736	9.27
226.121	16.77
226.505	8.6
226.889	10.57
227.273	17.22
227.657	5.45
228.041	8.97
228.425	6.17
228.809	5.05
229.193	5
229.577	4.49
229.961	4.07
230.344	3.67
230.728	4.1
231.112	5.14
231.495	5.18
231.879	4.75
232.263	5.01
232.646	4.37
233.03	5.46
233.413	5.26
233.797	6.73
234.18	5.06
234.563	4.55
234.946	6.03
235.33	4.39
235.713	3.45
236.096	4.07
236.479	4.9
236.862	4.31
237.245	4.88
237.628	5.12
238.011	5.3
238.394	4.6
238.777	2.03
239.16	5.13
239.543	3.27
239.925	5
240.308	4.35
240.691	3.67
241.073	4.93
241.456	5.29
241.838	4.37
242.221	4.68
242.603	5.36
242.986	4.22
243.368	3.83
243.75	3.94
244.133	3.59
244.515	3.93
244.897	4.09
245.279	3.88
245.661	4.92
246.043	4.3
246.425	4.7
246.807	4.75
247.189	4.58
247.571	4.43
247.953	4.26
248.335	3.9
248.717	3.39
249.098	3.57
249.48	3.43
249.862	3.8
250.243	4.45
250.625	3.85
251.006	4.31
251.388	4.79
251.769	4.62
252.151	4.05
252.532	5.79
252.913	3.65
253.295	5.41
253.676	3.95
254.057	4.25
254.438	4.22
254.819	4.19
255.2	3.59
255.581	4.19
255.962	3.84
256.343	5.16
256.724	4.71
257.105	5.53
257.486	4.26
257.867	3.94
258.247	4.8
258.628	4.56
259.009	4.19
259.389	4.12
259.77	4.28
260.15	3.71
260.531	3.77
260.911	3.75
261.292	3.6
261.672	3.68
262.052	3.7
262.432	3.62
262.813	4.16
263.193	3.58
263.573	4.1
263.953	4.16
264.333	3.89
264.713	3.76
265.093	3.96
265.473	4.59
265.853	3.43
266.233	4.76
266.612	4.81
266.992	4.44
267.372	3.91
267.752	3.7
268.131	4.04
268.511	3.28
268.89	3.29
269.27	3.39
269.649	3.69
270.029	3.59
270.408	3.51
270.787	4.06
271.167	4.31
271.546	3.86
271.925	3.24
272.304	4.27
272.683	3.41
273.062	4.03
273.441	4
273.82	3.38
274.199	3.73
274.578	3.82
274.957	3.96
275.336	3.91
275.715	3.72
276.093	3.88
276.472	3.68
276.851	4.02
277.229	3.6
277.608	3.93
277.986	3.59
278.365	4.04
278.743	3.69
279.122	4.35
279.5	3.68
279.878	3.96
280.257	4.31
280.635	3.89
281.013	3.26
281.391	3.91
281.769	3.69
282.147	3.66
282.525	3.72
282.903	3.76
283.281	3.34
283.659	4.18
284.037	4.02
284.415	4.37
284.792	4.14
285.17	3.74
285.548	3.51
285.925	3.81
286.303	3.37
286.68	3.57
287.058	3.53
287.435	3.86
287.813	3.79
288.19	3.89
288.567	3.59
288.945	3.56
289.322	3.84
289.699	3.87
290.076	3.96
290.453	4.37
290.83	3.9
291.207	3.64
291.584	4.27
291.961	3.67
292.338	3.91
292.715	4.26
293.092	4.09
293.469	4.5
293.845	4.66
294.222	4.73
294.599	4.39
294.975	3.93
295.352	4.54
295.728	4.14
296.105	4.67
296.481	4.04
296.858	4.54
297.234	4.39
297.61	4.27
297.986	4.29
298.363	4.24
298.739	4.18
299.115	4.13
299.491	4.48
299.867	4.02
300.243	4.61
300.619	4.44
300.995	4.47
301.371	4.53
301.746	4.72
302.122	4.6
302.498	5.19
302.874	4.9
303.249	4.93
303.625	4.23
304	5.22
304.376	4.63
304.751	5.05
305.127	4.78
305.502	5.01
305.878	4.91
306.253	5.3
306.628	5.53
307.003	5.31
307.378	5.82
307.754	5.22
308.129	5.37
308.504	5.41
308.879	5.05
309.254	5.36
309.629	5.16
310.003	5.43
310.378	5.39
310.753	5.39
311.128	5.43
311.502	5.78
311.877	5.87
312.252	5.43
312.626	5.68
313.001	5.74
313.375	5.72
313.75	6.05
314.124	5.79
314.498	5.77
314.873	6.16
315.247	6.09
315.621	5.99
315.995	6.19
316.369	6.49
316.743	6.23
317.117	6.73
317.491	6.76
317.865	6.31
318.239	6.56
318.613	6.79
318.987	7.04
319.361	6.84
319.734	6.41
320.108	6.17
320.482	7.22
320.855	7.04
321.229	7.7
321.602	7.12
321.976	7.44
322.349	7.52
322.723	7.71
323.096	7.3
323.469	7.34
323.843	7.83
324.216	7.12
324.589	8.02
324.962	7.87
325.335	7.41
325.708	7.43
326.081	7.9
326.454	8.17
326.827	8.08
327.2	8.02
327.573	8.15
327.945	7.77
328.318	8.12
328.691	8.17
329.063	8.06
329.436	8.51
329.809	8.96
330.181	8.44
330.553	8.45
330.926	8.65
331.298	8.32
331.671	7.6
332.043	8.66
332.415	8.59
332.787	8.64
333.159	9.13
333.532	8.74
333.904	8.68
334.276	9.02
334.648	8.83
335.02	8.66
335.391	9.26
335.763	9.35
336.135	9.02
336.507	9.56
336.879	9.95
337.25	9.29
337.622	9.9
337.993	9.41
338.365	9.87
338.736	9.58
339.108	9.83
339.479	9.89
339.851	9.94
340.222	10
340.593	9.33
340.964	10.01
341.336	9.82
341.707	9.76
342.078	10.38
342.449	10.39
342.82	10.58
343.191	9.81
343.562	10.08
343.933	10.28
344.303	10.35
344.674	10.27
345.045	10.5
345.416	10.53
345.786	10.77
346.157	11.01
346.527	10.53
346.898	10.68
347.268	10.56
347.639	10.52
348.009	11.4
348.38	10.75
348.75	11.33
349.12	11.54
349.49	11.15
349.861	10.97
350.231	11.53
350.601	11.33
350.971	11.6
351.341	11.41
351.711	11.63
352.081	11.31
352.45	12.11
352.82	11.77
353.19	12.3
353.56	11.45
353.929	11.52
354.299	12.13
354.669	11.93
355.038	12.38
355.408	12.09
355.777	12.09
356.147	12.04
356.516	12.49
356.885	12.39
357.254	12.2
357.624	12.35
357.993	12.39
358.362	12.37
358.731	12.61
359.1	12.74
359.469	12.92
359.838	12.8
360.207	12.96
360.576	12.82
360.945	13.22
361.314	12.87
361.682	12.93
362.051	13.08
362.42	13.17
362.788	13.1
363.157	13.05
363.525	13.1
363.894	13.27
364.262	13.39
364.631	13.5
364.999	13.54
365.367	13.61
365.735	13.7
366.104	13.77
366.472	14.05
366.84	13.47
367.208	13.93
367.576	14.24
367.944	14.18
368.312	14.21
368.68	14.13
369.048	14.41
369.416	14.53
369.783	14.17
370.151	14.33
370.519	14.39
370.886	14.39
371.254	14.97
371.621	14.57
371.989	14.64
372.356	14.94
372.724	15
373.091	14.9
373.458	14.76
373.826	14.79
374.193	15.24
374.56	15.08
374.927	15.33
375.294	15.2
375.661	15.53
376.028	15.62
376.395	15.78
376.762	15.82
377.129	15.73
377.496	15.59
377.863	15.87
378.229	15.94
378.596	15.92
378.963	16.06
379.329	16.05
379.696	15.8
380.062	16.23
380.429	16.4
380.795	16.49
381.161	16.47
381.528	16.64
381.894	16.83
382.26	16.76
382.626	16.66
382.993	16.75
383.359	16.8
383.725	16.85
384.091	16.85
384.457	16.81
384.823	16.78
385.188	17.02
385.554	17.24
385.92	17.18
386.286	17.06
386.651	17.21
387.017	17.07
387.383	17.47
387.748	17.48
388.114	17.64
388.479	17.82
388.845	17.46
389.21	17.86
389.575	17.9
389.94	17.87
390.306	17.92
390.671	18.49
391.036	18.25
391.401	18.13
391.766	18.38
392.131	18.24
392.496	17.9
392.861	17.97
393.226	18.46
393.591	18.25
393.956	18.44
394.32	18.66
394.685	18.47
395.05	18.19
395.414	18.8
395.779	18.58
396.143	18.81
396.508	18.81
396.872	18.96
397.236	19.24
397.601	19.08
397.965	19.21
398.329	19.22
398.694	19.62
399.058	19.51
399.422	19.4
399.786	19.66
400.15	19.38
400.514	19.29
400.878	19.59
401.242	19.8
401.605	19.94
401.969	19.63
402.333	20.02
402.697	20.03
403.06	19.97
403.424	19.96
403.787	20.46
404.151	20.43
404.514	20.48
404.878	20.47
405.241	20.01
405.604	20.36
405.968	20.23
406.331	20.19
406.694	20.49
407.057	20.5
407.42	20.42
407.783	20.79
408.146	20.92
408.509	20.78
408.872	21.1
409.235	21.03
409.598	21.33
409.961	20.93
410.323	21.23
410.686	21.41
411.049	21.28
411.411	21.39
411.774	21.28
412.136	21.21
412.499	21.41
412.861	21.46
413.223	21.93
413.586	21.91
413.948	21.43
414.31	21.69
414.672	21.85
415.035	21.74
415.397	22.26
415.759	21.9
416.121	21.82
416.483	21.98
416.845	21.93
417.206	22.03
417.568	22.18
417.93	21.96
418.292	22.21
418.653	22.38
419.015	22.25
419.377	22.24
419.738	22.32
420.1	22.43
420.461	22.46
420.822	22.49
421.184	22.45
421.545	22.49
421.906	22.5
422.267	22.35
422.629	22.43
422.99	22.58
423.351	22.67
423.712	22.89
424.073	22.94
424.434	23.1
424.795	22.94
425.155	23
425.516	22.91
425.877	23
426.238	23.19
426.598	23.35
426.959	23.42
427.32	23.53
427.68	23.72
428.041	23.85
428.401	24.06
428.761	24.06
429.122	24.3
429.482	24.38
429.842	24.77
430.202	24.71
430.563	24.88
430.923	24.63
431.283	24.64
431.643	24.71
432.003	25.05
432.363	25.24
432.722	25.13
433.082	25.23
433.442	25.3
433.802	25.26
434.161	25.24
434.521	25.31
434.881	25.12
435.24	25.25
435.6	25.38
435.959	25.54
436.319	25.56
436.678	25.89
437.037	25.74
437.396	25.96
437.756	25.82
438.115	26.09
438.474	26.21
438.833	26.25
439.192	26.2
439.551	26.24
439.91	26.33
440.269	26.37
440.628	26.29
440.987	26.34
441.345	26.44
441.704	26.37
442.063	26.5
442.421	26.46
442.78	26.41
443.138	26.63
443.497	26.85
443.855	26.97
444.214	27.29
444.572	27.03
444.93	27.22
445.288	27.2
445.647	27.36
446.005	27.29
446.363	27.37
446.721	27.33
447.079	27.41
447.437	27.3
447.795	27.19
448.153	27.22
448.51	27.37
448.868	27.43
449.226	27.46
449.584	27.61
449.941	28.06
450.299	27.95
450.656	28.11
451.014	28.25
451.371	28.25
451.729	28.64
452.086	28.47
452.443	28.6
452.801	28.88
453.158	28.78
453.515	28.96
453.872	28.71
454.229	28.82
454.586	28.98
454.943	29.09
455.3	29.11
455.657	29.17
456.014	29.36
456.371	29.28
456.727	29.52
457.084	29.6
457.441	29.61
457.797	29.6
458.154	29.64
458.51	30
458.867	29.72
459.223	29.83
459.58	29.87
459.936	30.01
460.292	29.82
460.648	29.77
461.005	29.67
461.361	29.45
461.717	29.42
462.073	29.66
462.429	30.01
462.785	30.04
463.141	30.13
463.496	30.39
463.852	30.73
464.208	30.65
464.564	30.66
464.919	30.84
465.275	30.91
465.631	31.29
465.986	31.14
466.342	31.18
466.697	30.98
467.052	31.21
467.408	31.33
467.763	31.45
468.118	31.23
468.473	31.3
468.829	31.6
469.184	31.51
469.539	31.51
469.894	31.52
470.249	31.63
470.603	31.85
470.958	32.06
471.313	31.91
471.668	32.09
472.023	32.07
472.377	32.04
472.732	32.15
473.086	32.27
473.441	32.22
473.795	32.47
474.15	32.43
474.504	32.47
474.859	32.14
475.213	32.59
475.567	32.59
475.921	32.75
476.275	32.79
476.63	32.93
476.984	32.83
477.338	32.98
477.692	33.06
478.045	32.88
478.399	33
478.753	32.84
479.107	33.12
479.461	32.94
479.814	33.09
480.168	33.23
480.521	33.14
480.875	33.29
481.228	33.39
481.582	33.47
481.935	33.33
482.289	33.54
482.642	33.47
482.995	33.4
483.348	33.44
483.701	33.17
484.055	33.09
484.408	33.03
484.761	32.65
485.114	32.2
485.466	32.17
485.819	32.51
486.172	32.71
486.525	32.95
486.878	33.03
487.23	33.26
487.583	33.44
487.936	33.52
488.288	33.32
488.641	33.23
488.993	33.11
489.345	33.19
489.698	33.19
490.05	33.37
490.402	33.49
490.754	33.71
491.107	34.15
491.459	34.3
491.811	34.35
492.163	34.46
492.515	34.29
492.866	33.88
493.218	33.73
493.57	33.82
493.922	34.02
494.274	34.46
494.625	34.67
494.977	35.04
495.328	35.07
495.68	35.51
496.031	35.36
496.383	35.53
496.734	35.75
497.086	35.74
497.437	35.72
497.788	35.79
498.139	35.56
498.49	35.42
498.842	35.62
499.193	35.63
499.544	35.62
499.894	35.85
500.245	35.72
500.596	36.11
500.947	36.13
501.298	35.97
501.648	36.35
501.999	36.59
502.35	36.52
502.7	36.54
503.051	36.68
503.401	37.03
503.752	36.9
504.102	36.85
504.452	36.97
504.803	37.09
505.153	36.87
505.503	36.91
505.853	37.02
506.203	37.05
506.553	37.29
506.903	37.08
507.253	37.35
507.603	37.45
507.953	37.24
508.303	37.43
508.652	37.22
509.002	37.51
509.352	37.57
509.701	37.72
510.051	37.49
510.4	37.35
510.75	37.27
511.099	37.53
511.449	37.51
511.798	37.52
512.147	37.57
512.496	37.84
512.846	37.9
513.195	37.74
513.544	37.82
513.893	37.75
514.242	38.02
514.591	38.01
514.939	38.16
515.288	38.27
515.637	38.52
515.986	38.37
516.334	38.45
516.683	38.44
517.032	38.71
517.38	38.79
517.729	38.62
518.077	38.72
518.426	38.73
518.774	38.71
519.122	38.36
519.47	38.41
519.819	38.4
520.167	38.06
520.515	38.31
520.863	38.51
521.211	38.51
521.559	38.57
521.907	38.7
522.255	38.74
522.602	38.93
522.95	39.38
523.298	39.19
523.645	39.46
523.993	39.45
524.341	39.43
524.688	39.58
525.036	39.58
525.383	39.42
525.73	39.67
526.078	39.58
526.425	39.53
526.772	39.12
527.119	39.13
527.466	39.13
527.814	39.2
528.161	39.29
528.508	39.38
528.854	39.58
529.201	39.36
529.548	39.05
529.895	38.46
530.242	38.54
530.588	38.83
530.935	39.11
531.282	39.15
531.628	39.24
531.975	39.33
532.321	39.66
532.667	39.9
533.014	39.97
533.36	40.05
533.706	40.21
534.052	39.95
534.399	39.85
534.745	39.35
535.091	39.48
535.437	39.68
535.783	39.86
536.129	40.1
536.474	40.36
536.82	40.54
537.166	40.74
537.512	40.61
537.857	40.62
538.203	40.37
538.549	40.4
538.894	40.68
539.239	40.91
539.585	41.02
539.93	41.05
540.276	41.28
540.621	41.65
540.966	41.44
541.311	41.61
541.656	41.44
542.001	41.03
542.346	40.89
542.691	40.49
543.036	40.23
543.381	40.45
543.726	40.77
544.071	41.07
544.415	41.17
544.76	41.18
545.105	41.42
545.449	41.76
545.794	41.69
546.138	41.56
546.483	41.84
546.827	41.85
547.171	42.02
547.516	41.99
547.86	42.26
548.204	41.85
548.548	41.95
548.892	42.26
549.236	42.23
549.58	42.43
549.924	42.73
550.268	42.72
550.612	42.88
550.956	42.75
551.3	43.4
551.643	43.39
551.987	43.38
552.33	43.21
552.674	43.36
553.017	43.62
553.361	43.46
553.704	43.62
554.048	43.25
554.391	43.34
554.734	43.22
555.077	43.25
555.42	43.38
555.764	43.73
556.107	43.84
556.45	43.87
556.793	43.86
557.135	43.84
557.478	44.34
557.821	44.08
558.164	44.11
558.507	44.28
558.849	44.25
559.192	44.4
559.534	44.22
559.877	44.4
560.219	44.4
560.562	44.31
560.904	44.39
561.246	44.75
561.589	44.68
561.931	44.62
562.273	44.8
562.615	44.82
562.957	44.39
563.299	44.75
563.641	44.84
563.983	44.88
564.325	44.83
564.667	44.97
565.008	44.95
565.35	44.78
565.692	45.09
566.033	45.15
566.375	45.3
566.716	45.11
567.058	45.09
567.399	45.19
567.741	45.02
568.082	44.71
568.423	45.13
568.764	45.11
569.105	45.17
569.447	45.53
569.788	45.24
570.129	45.62
570.47	45.79
570.811	45.64
571.151	45.46
571.492	45.88
571.833	45.57
572.174	45.98
572.514	45.82
572.855	45.44
573.195	45.58
573.536	45.66
573.876	45.55
574.217	45.59
574.557	45.86
574.898	45.86
575.238	46.08
575.578	46
575.918	46.14
576.258	46.26
576.598	45.99
576.938	45.77
577.278	46.32
577.618	46.14
577.958	46.25
578.298	46.43
578.638	46.61
578.977	46.52
579.317	46.69
579.657	46.56
579.996	46.49
580.336	47.04
580.675	46.92
581.014	47.19
581.354	47.28
581.693	46.76
582.032	47.38
582.372	47.4
582.711	47.35
583.05	46.87
583.389	47.32
583.728	47.3
584.067	47.4
584.406	47.47
584.745	47.55
585.083	47.41
585.422	47.72
585.761	47.41
586.1	47.82
586.438	47.92
586.777	47.62
587.115	47.54
587.454	47.94
587.792	47.91
588.13	48.04
588.469	47.81
588.807	48.06
589.145	47.96
589.483	48.26
589.821	48.05
590.159	48.14
590.497	48.15
590.835	48.07
591.173	47.96
591.511	48.18
591.849	47.66
592.187	48.41
592.524	48.11
592.862	48.25
593.2	48.63
593.537	48.38
593.875	48.46
594.212	48.6
594.55	48.4
594.887	48.58
595.224	48.63
595.561	48.8
595.899	48.26
596.236	48.62
596.573	48.57
596.91	48.52
597.247	48.97
597.584	48.47
597.921	48.79
598.258	48.45
598.594	48.24
598.931	48.27
599.268	48.22
599.604	48.72
599.941	48.88
600.277	48.64
600.614	49.11
600.95	49.13
601.287	49.24
601.623	49.5
601.959	49.15
602.296	49.36
602.632	49.46
602.968	49.31
603.304	49.19
603.64	49.6
603.976	49.5
604.312	49.31
604.648	49.11
604.984	49.21
605.319	49.4
605.655	49.23
605.991	49.05
606.326	49.06
606.662	49.09
606.998	49.42
607.333	49.42
607.668	49.56
608.004	49.77
608.339	49.81
608.674	50.08
609.01	50.17
609.345	49.72
609.68	50
610.015	49.95
610.35	49.91
610.685	49.84
611.02	49.6
611.355	49.83
611.689	49.66
612.024	49.99
612.359	50.07
612.694	49.59
613.028	49.98
613.363	50.5
613.697	50.9
614.032	50.49
614.366	50.63
614.7	50.33
615.035	50.67
615.369	50.87
615.703	50.81
616.037	51.03
616.371	50.81
616.705	51.11
617.039	50.61
617.373	51.23
617.707	51.65
618.041	51.41
618.375	51.15
618.709	51.03
619.042	51.33
619.376	50.91
619.71	51.25
620.043	50.71
620.377	51.4
620.71	51.32
621.043	51.73
621.377	51.55
621.71	51.58
622.043	51.49
622.376	51.33
622.709	51.73
623.043	51.47
623.376	52.06
623.709	51.64
624.041	51.67
624.374	51.46
624.707	51.79
625.04	51.85
625.373	52.06
625.705	52.04
626.038	52.27
626.37	52.01
626.703	51.74
627.035	52.39
627.368	52.13
627.7	51.83
628.032	51.65
628.365	51.78
628.697	52.04
629.029	51.77
629.361	52.01
629.693	51.87
630.025	52.31
630.357	51.97
630.689	51.98
631.021	52.2
631.353	52.31
631.684	52.2
632.016	52.34
632.348	52.51
632.679	52.88
633.011	52.5
633.342	52.79
633.674	52.23
634.005	52.77
634.336	52.5
634.668	52.98
634.999	52.47
635.33	52.73
635.661	52.33
635.992	52.79
636.323	52.64
636.654	52.58
636.985	52.6
637.316	52.39
637.647	52.81
637.977	53.2
638.308	53.59
638.639	53.09
638.969	52.89
639.3	53.01
639.63	53.52
639.961	53.66
640.291	53.45
640.622	53.42
640.952	53.32
641.282	52.95
641.612	53.07
641.943	53.98
642.273	53.2
642.603	53.46
642.933	53.58
643.263	53.47
643.592	53.57
643.922	53.84
644.252	53.78
644.582	53.86
644.911	54.02
645.241	53.2
645.571	54.12
645.9	53.57
646.23	53.98
646.559	54.14
646.888	53.87
647.218	53.95
647.547	54.02
647.876	54.01
648.205	54.34
648.534	54.01
648.863	53.67
649.192	54.49
649.521	53.79
649.85	53.59
650.179	54.3
650.508	53.89
650.837	54.48
651.165	53.89
651.494	53.71
651.822	54.2
652.151	54.43
652.479	54.74
652.808	54.18
653.136	53.64
653.465	54.37
653.793	54.51
654.121	54.13
654.449	54.56
654.777	54.84
655.105	54.92
655.433	55.07
655.761	54.72
656.089	54.79
656.417	54.73
656.745	55.26
657.073	55.19
657.4	54.93
657.728	54.75
658.056	55.38
658.383	55.03
658.711	54.77
659.038	54.71
659.365	54.5
659.693	54.91
660.02	54.96
660.347	54.72
660.674	55.04
661.001	54.21
661.329	54.54
661.656	55.16
661.982	54.88
662.309	54.88
662.636	54.92
662.963	55.3
663.29	54.58
663.616	55.03
663.943	55.49
664.27	55.51
664.596	55.74
664.923	55.62
665.249	55.24
665.576	55.67
665.902	55.24
666.228	55.33
666.554	56.02
666.881	56.27
667.207	55.6
667.533	56.05
667.859	55.13
668.185	56.01
668.511	55.37
668.837	56.2
669.162	55.27
669.488	56.09
669.814	55.57
670.139	55.96
670.465	56.21
670.791	55.82
