Data from 2017-1_crown_Reflection__3__08.txt Node

Date: Fri Oct 07 15:03:30 CDT 2022
User: ToomeyLab
Spectrometer: FLMS14357
Trigger mode: 0
Integration Time (sec): 1.000000E-2
Scans to average: 100
Electric dark correction enabled: true
Nonlinearity correction enabled: false
Boxcar width: 0
XAxis mode: Wavelengths
Number of Pixels in Spectrum: 2048
>>>>>Begin Spectral Data<<<<<
189.047	115.24
189.435	115.24
189.823	115.24
190.211	67.53
190.599	1081.7
190.987	137.42
191.375	131.11
191.763	281.36
192.151	-432.7
192.538	-76.84
192.926	-265.69
193.314	2011.45
193.702	24.68
194.089	-987.18
194.477	-249.3
194.864	47.93
195.252	10.57
195.639	242.12
196.027	959.15
196.414	27.41
196.801	-35.33
197.189	-382.23
197.576	33.61
197.963	30.06
198.351	13.27
198.738	26.21
199.125	17
199.512	7.72
199.899	-10.89
200.286	24.46
200.673	-65.1
201.06	13.35
201.447	-11.76
201.833	35.42
202.22	12.83
202.607	3.76
202.994	2.9
203.38	1.35
203.767	-2.92
204.154	-14.46
204.54	-4.69
204.927	21.36
205.313	-4.55
205.699	-1.06
206.086	18.57
206.472	31.91
206.858	12.9
207.245	5.76
207.631	24.58
208.017	27.55
208.403	48.39
208.789	20.39
209.175	-67.09
209.561	26.34
209.947	3.04
210.333	8.53
210.719	18.62
211.105	12.77
211.491	28.66
211.876	12.44
212.262	32.92
212.648	15.83
213.034	7.79
213.419	-24.81
213.805	30.15
214.19	10.5
214.576	31.77
214.961	19.31
215.346	-7.91
215.732	2.78
216.117	-7.68
216.502	7.44
216.888	-34.7
217.273	-10.81
217.658	-4.33
218.043	-2.36
218.428	6.56
218.813	28.51
219.198	7.55
219.583	12.13
219.968	8.62
220.353	-5.79
220.738	7.39
221.122	8.44
221.507	-14.03
221.892	-5.14
222.276	11.98
222.661	16.31
223.046	4.47
223.43	16.28
223.815	1.92
224.199	3.09
224.583	13.24
224.968	-4.49
225.352	9.26
225.736	0.81
226.121	17.29
226.505	5.91
226.889	9.01
227.273	4.05
227.657	0.58
228.041	6.38
228.425	5.89
228.809	5.46
229.193	6
229.577	4.58
229.961	3.64
230.344	4.47
230.728	4.85
231.112	4.77
231.495	5.3
231.879	5.98
232.263	5.06
232.646	4.75
233.03	6.09
233.413	5.49
233.797	5.8
234.18	2.76
234.563	2.83
234.946	3.98
235.33	3.22
235.713	4.57
236.096	5.45
236.479	4.4
236.862	3.38
237.245	2.9
237.628	5.06
238.011	5.24
238.394	3.85
238.777	2.76
239.16	6.33
239.543	3.32
239.925	6.03
240.308	4.62
240.691	4.44
241.073	5.08
241.456	4.85
241.838	4.41
242.221	5.37
242.603	4.25
242.986	4.97
243.368	4.62
243.75	4.44
244.133	4.25
244.515	4.7
244.897	4.74
245.279	4.61
245.661	4.34
246.043	3.85
246.425	4.84
246.807	4.85
247.189	4.83
247.571	4.59
247.953	4.29
248.335	4.37
248.717	4.3
249.098	4.35
249.48	4.53
249.862	4.71
250.243	4.63
250.625	4.64
251.006	4.27
251.388	4.96
251.769	4.93
252.151	4.6
252.532	5.39
252.913	4.78
253.295	4.43
253.676	4.48
254.057	4.64
254.438	4.9
254.819	4.32
255.2	4.38
255.581	4.03
255.962	5.33
256.343	5.08
256.724	4.42
257.105	4.78
257.486	5.09
257.867	2.96
258.247	4.96
258.628	4.46
259.009	4.35
259.389	4.71
259.77	4.53
260.15	3.63
260.531	4.27
260.911	4.22
261.292	4.15
261.672	4.09
262.052	4.29
262.432	4.1
262.813	4.7
263.193	4.62
263.573	3.97
263.953	4.5
264.333	3.73
264.713	3.68
265.093	4.4
265.473	4.85
265.853	3.49
266.233	5.45
266.612	4.7
266.992	4.29
267.372	3.46
267.752	3.29
268.131	3.87
268.511	4.05
268.89	3.39
269.27	3.94
269.649	3.91
270.029	3.74
270.408	3.55
270.787	4.42
271.167	4.33
271.546	4.22
271.925	3.89
272.304	4.17
272.683	3.9
273.062	4.03
273.441	3.76
273.82	4.39
274.199	3.81
274.578	3.98
274.957	4.03
275.336	4.29
275.715	4.06
276.093	3.9
276.472	4.12
276.851	4.04
277.229	3.39
277.608	4.17
277.986	3.73
278.365	3.97
278.743	3.9
279.122	3.67
279.5	3.97
279.878	3.7
280.257	4.62
280.635	4.25
281.013	3.87
281.391	4.16
281.769	4.1
282.147	3.69
282.525	3.79
282.903	4.11
283.281	3.36
283.659	4.06
284.037	3.77
284.415	3.98
284.792	4.31
285.17	3.8
285.548	3.55
285.925	3.7
286.303	3.65
286.68	3.66
287.058	3.74
287.435	3.52
287.813	3.85
288.19	4.37
288.567	3.99
288.945	4.08
289.322	3.8
289.699	3.34
290.076	4.49
290.453	3.97
290.83	4.11
291.207	4.19
291.584	4.17
291.961	3.67
292.338	3.97
292.715	4.33
293.092	3.75
293.469	3.87
293.845	4.14
294.222	3.94
294.599	3.6
294.975	3.3
295.352	3.48
295.728	3.99
296.105	3.72
296.481	3.49
296.858	4.1
297.234	3.64
297.61	4.21
297.986	3.66
298.363	3.61
298.739	3.71
299.115	3.69
299.491	3.99
299.867	3.75
300.243	3.68
300.619	3.72
300.995	3.92
301.371	3.46
301.746	3.98
302.122	3.57
302.498	3.65
302.874	3.56
303.249	3.6
303.625	3.86
304	3.84
304.376	3.96
304.751	3.78
305.127	3.48
305.502	3.41
305.878	3.7
306.253	3.34
306.628	3.61
307.003	3.62
307.378	3.91
307.754	3.31
308.129	3.9
308.504	3.32
308.879	3.03
309.254	3.34
309.629	3.62
310.003	3.36
310.378	3.44
310.753	3.56
311.128	3.32
311.502	3.76
311.877	3.63
312.252	3.66
312.626	3.36
313.001	3.48
313.375	3.36
313.75	3.64
314.124	3.99
314.498	3.71
314.873	3.72
315.247	3.54
315.621	3.28
315.995	3.36
316.369	3.28
316.743	3.06
317.117	3.82
317.491	3.61
317.865	3.24
318.239	3.64
318.613	3.5
318.987	3.89
319.361	3.68
319.734	2.82
320.108	2.85
320.482	4.06
320.855	3.62
321.229	3.98
321.602	3.91
321.976	3.38
322.349	3.86
322.723	3.34
323.096	3.27
323.469	3.77
323.843	3.48
324.216	3.49
324.589	3.63
324.962	3.38
325.335	3.57
325.708	3.02
326.081	3.36
326.454	3.72
326.827	3.61
327.2	3.55
327.573	3.38
327.945	3.25
328.318	3.36
328.691	3.33
329.063	4.08
329.436	3.95
329.809	3.78
330.181	4.23
330.553	3.65
330.926	3.56
331.298	3.46
331.671	3.15
332.043	3.91
332.415	3.73
332.787	3.46
333.159	2.92
333.532	3.44
333.904	3.8
334.276	3.32
334.648	3.25
335.02	3.15
335.391	3.48
335.763	3.83
336.135	3.52
336.507	3.77
336.879	3.42
337.25	3.47
337.622	3.52
337.993	3.41
338.365	3.65
338.736	3.48
339.108	3.27
339.479	3.32
339.851	3.22
340.222	3.53
340.593	3.45
340.964	3.44
341.336	3.38
341.707	3.27
342.078	3.86
342.449	3.22
342.82	3.7
343.191	3.44
343.562	3.11
343.933	3.82
344.303	3.38
344.674	3.44
345.045	3.44
345.416	3.56
345.786	3.84
346.157	3.77
346.527	3.08
346.898	3.69
347.268	3.07
347.639	3.03
348.009	3.88
348.38	3.72
348.75	3.25
349.12	4.1
349.49	2.73
349.861	2.99
350.231	3.18
350.601	3.62
350.971	3.66
351.341	3.64
351.711	3.51
352.081	3.7
352.45	3.71
352.82	3.46
353.19	3.93
353.56	3.37
353.929	3.32
354.299	3.84
354.669	3.73
355.038	3.43
355.408	3.68
355.777	3.8
356.147	3.63
356.516	3.23
356.885	3.64
357.254	3.27
357.624	3.76
357.993	3.31
358.362	3.51
358.731	3.63
359.1	3.38
359.469	3.7
359.838	3.3
360.207	3.54
360.576	3.32
360.945	3.41
361.314	3.64
361.682	3.65
362.051	3.5
362.42	3.43
362.788	3.47
363.157	3.23
363.525	3.47
363.894	3.54
364.262	3.41
364.631	3.56
364.999	3.61
365.367	3.72
365.735	3.49
366.104	3.39
366.472	3.64
366.84	3.16
367.208	3.51
367.576	3.26
367.944	3.38
368.312	3.12
368.68	3.51
369.048	3.9
369.416	3.57
369.783	3.54
370.151	3.58
370.519	3.74
370.886	3.18
371.254	3.58
371.621	3.3
371.989	3.76
372.356	3.44
372.724	3.63
373.091	3.44
373.458	3.73
373.826	3.2
374.193	3.61
374.56	3.4
374.927	3.49
375.294	3.53
375.661	3.44
376.028	3.54
376.395	3.35
376.762	3.41
377.129	3.77
377.496	3.54
377.863	3.87
378.229	3.53
378.596	3.48
378.963	3.53
379.329	3.29
379.696	3.65
380.062	3.79
380.429	3.82
380.795	3.72
381.161	3.62
381.528	3.93
381.894	3.9
382.26	3.4
382.626	3.68
382.993	3.74
383.359	3.6
383.725	3.76
384.091	3.56
384.457	3.5
384.823	3.54
385.188	3.56
385.554	3.4
385.92	3.9
386.286	3.68
386.651	3.35
387.017	3.43
387.383	3.56
387.748	3.85
388.114	3.91
388.479	3.66
388.845	3.84
389.21	3.59
389.575	3.82
389.94	3.87
390.306	3.75
390.671	4.11
391.036	3.6
391.401	3.64
391.766	3.76
392.131	3.74
392.496	3.57
392.861	3.54
393.226	3.68
393.591	3.59
393.956	3.72
394.32	3.73
394.685	3.8
395.05	3.51
395.414	3.6
395.779	3.36
396.143	3.51
396.508	3.53
396.872	3.79
397.236	3.67
397.601	3.71
397.965	3.96
398.329	3.74
398.694	3.67
399.058	3.63
399.422	3.9
399.786	3.52
400.15	3.62
400.514	3.37
400.878	3.84
401.242	3.68
401.605	3.81
401.969	3.66
402.333	3.61
402.697	3.64
403.06	3.77
403.424	3.8
403.787	3.87
404.151	4
404.514	3.74
404.878	3.56
405.241	3.66
405.604	4
405.968	3.59
406.331	3.62
406.694	3.74
407.057	3.8
407.42	3.89
407.783	3.62
408.146	3.8
408.509	3.77
408.872	3.66
409.235	3.73
409.598	3.95
409.961	3.84
410.323	3.95
410.686	3.8
411.049	3.69
411.411	3.82
411.774	3.76
412.136	3.81
412.499	3.95
412.861	3.75
413.223	3.91
413.586	3.78
413.948	3.78
414.31	3.82
414.672	3.84
415.035	3.68
415.397	3.99
415.759	3.75
416.121	3.81
416.483	3.82
416.845	3.42
417.206	3.76
417.568	3.82
417.93	3.59
418.292	3.79
418.653	3.77
419.015	3.74
419.377	3.62
419.738	3.73
420.1	3.8
420.461	3.81
420.822	3.79
421.184	3.69
421.545	3.79
421.906	3.71
422.267	3.61
422.629	3.63
422.99	3.81
423.351	3.78
423.712	3.8
424.073	3.76
424.434	3.79
424.795	3.66
425.155	3.72
425.516	3.69
425.877	3.8
426.238	3.75
426.598	3.67
426.959	3.72
427.32	3.82
427.68	3.77
428.041	3.9
428.401	3.9
428.761	3.86
429.122	3.84
429.482	3.8
429.842	3.86
430.202	3.83
430.563	4.02
430.923	3.82
431.283	3.79
431.643	3.93
432.003	3.96
432.363	4.12
432.722	3.84
433.082	3.77
433.442	3.83
433.802	3.96
434.161	3.84
434.521	3.92
434.881	3.85
435.24	3.91
435.6	3.75
435.959	3.73
436.319	3.83
436.678	3.94
437.037	3.85
437.396	3.96
437.756	3.81
438.115	3.92
438.474	3.95
438.833	4.03
439.192	3.81
439.551	3.99
439.91	3.89
440.269	3.85
440.628	3.84
440.987	3.94
441.345	3.81
441.704	3.84
442.063	4.04
442.421	3.8
442.78	3.82
443.138	3.77
443.497	3.91
443.855	4.03
444.214	4
444.572	3.88
444.93	3.87
445.288	3.77
445.647	4.07
446.005	3.94
446.363	3.91
446.721	3.85
447.079	4
447.437	3.94
447.795	3.91
448.153	3.74
448.51	3.85
448.868	3.76
449.226	3.92
449.584	3.86
449.941	3.91
450.299	4.02
450.656	3.93
451.014	3.88
451.371	3.99
451.729	3.79
452.086	3.84
452.443	4.03
452.801	4.01
453.158	3.91
453.515	4.07
453.872	3.87
454.229	3.92
454.586	3.93
454.943	4.02
455.3	3.98
455.657	4.11
456.014	4.29
456.371	4.07
456.727	4.1
457.084	4
457.441	4.04
457.797	4.24
458.154	3.88
458.51	4.06
458.867	4.01
459.223	3.81
459.58	4.05
459.936	4.13
460.292	4.03
460.648	4.11
461.005	3.9
461.361	3.9
461.717	3.83
462.073	3.99
462.429	4.02
462.785	4.09
463.141	4.02
463.496	4.11
463.852	4.17
464.208	3.92
464.564	4.03
464.919	4.06
465.275	4.2
465.631	4.15
465.986	4.2
466.342	4.39
466.697	4.21
467.052	4.02
467.408	4.04
467.763	4.09
468.118	3.86
468.473	4
468.829	4.13
469.184	4.15
469.539	4.09
469.894	3.95
470.249	4.16
470.603	4.21
470.958	4.02
471.313	4.04
471.668	4.15
472.023	4.19
472.377	4.18
472.732	4.11
473.086	3.97
473.441	4.01
473.795	4.1
474.15	3.99
474.504	4.23
474.859	4.02
475.213	4.07
475.567	4.08
475.921	4.15
476.275	4.22
476.63	3.99
476.984	3.83
477.338	3.9
477.692	4.18
478.045	4
478.399	4.11
478.753	4.04
479.107	4.16
479.461	4.1
479.814	4.07
480.168	4.05
480.521	4.07
480.875	4
481.228	3.98
481.582	4.11
481.935	4.1
482.289	4.23
482.642	4.14
482.995	4.03
483.348	4.06
483.701	4.06
484.055	3.99
484.408	4.05
484.761	3.86
485.114	3.73
485.466	3.66
485.819	3.69
486.172	3.87
486.525	4.06
486.878	4.1
487.23	4.2
487.583	4.12
487.936	4.08
488.288	3.99
488.641	3.93
488.993	3.79
489.345	3.82
489.698	3.9
490.05	3.98
490.402	3.96
490.754	4.08
491.107	4.22
491.459	4.25
491.811	4.11
492.163	4.15
492.515	4.12
492.866	3.9
493.218	3.85
493.57	3.87
493.922	3.99
494.274	4.19
494.625	4.26
494.977	4.27
495.328	4.16
495.68	4.18
496.031	4.13
496.383	4.2
496.734	4.02
497.086	4.11
497.437	4.22
497.788	4.15
498.139	4.15
498.49	4.09
498.842	4.1
499.193	4.09
499.544	4.26
499.894	4.18
500.245	4.16
500.596	4.24
500.947	4.08
501.298	4.16
501.648	4.22
501.999	4.25
502.35	4.25
502.7	4.24
503.051	4.27
503.401	4.21
503.752	4.17
504.102	4.28
504.452	4.27
504.803	4.24
505.153	4.26
505.503	4.19
505.853	4.28
506.203	4.16
506.553	4.3
506.903	4.14
507.253	4.34
507.603	4.26
507.953	4.25
508.303	4.23
508.652	4.3
509.002	4.23
509.352	4.25
509.701	4.27
510.051	4.25
510.4	4.24
510.75	4.18
511.099	4.08
511.449	4.28
511.798	4.27
512.147	4.17
512.496	4.14
512.846	4.28
513.195	4.25
513.544	4.17
513.893	4.23
514.242	4.21
514.591	4.19
514.939	4.29
515.288	4.34
515.637	4.26
515.986	4.4
516.334	4.22
516.683	4.27
517.032	4.2
517.38	4.25
517.729	4.12
518.077	4.32
518.426	4.14
518.774	4.2
519.122	4.19
519.47	4.31
519.819	4.1
520.167	4.09
520.515	4.06
520.863	4.18
521.211	4.24
521.559	4.12
521.907	4.25
522.255	4.25
522.602	4.34
522.95	4.21
523.298	4.31
523.645	4.33
523.993	4.2
524.341	4.16
524.688	4.35
525.036	4.22
525.383	4.25
525.73	4.21
526.078	4.41
526.425	4.18
526.772	4.28
527.119	4.15
527.466	4.1
527.814	4.17
528.161	4.22
528.508	4.16
528.854	4.19
529.201	4.16
529.548	4.06
529.895	3.88
530.242	3.84
530.588	3.96
530.935	4.07
531.282	4.19
531.628	4.24
531.975	4.27
532.321	4.35
532.667	4.27
533.014	4.3
533.36	4.23
533.706	4.22
534.052	4.2
534.399	4.14
534.745	3.97
535.091	4.02
535.437	4.11
535.783	4.21
536.129	4.3
536.474	4.27
536.82	4.33
537.166	4.38
537.512	4.31
537.857	4.18
538.203	4.13
538.549	4.19
538.894	4.18
539.239	4.3
539.585	4.32
539.93	4.38
540.276	4.38
540.621	4.28
540.966	4.35
541.311	4.38
541.656	4.22
542.001	4.2
542.346	4.13
542.691	4.03
543.036	4
543.381	3.97
543.726	4.12
544.071	4.24
544.415	4.31
544.76	4.31
545.105	4.26
545.449	4.32
545.794	4.38
546.138	4.34
546.483	4.38
546.827	4.36
547.171	4.27
547.516	4.17
547.86	4.27
548.204	4.29
548.548	4.15
548.892	4.26
549.236	4.31
549.58	4.36
549.924	4.34
550.268	4.29
550.612	4.32
550.956	4.44
551.3	4.32
551.643	4.45
551.987	4.49
552.33	4.41
552.674	4.45
553.017	4.38
553.361	4.48
553.704	4.25
554.048	4.35
554.391	4.32
554.734	4.49
555.077	4.34
555.42	4.34
555.764	4.24
556.107	4.29
556.45	4.39
556.793	4.36
557.135	4.37
557.478	4.45
557.821	4.32
558.164	4.25
558.507	4.45
558.849	4.44
559.192	4.44
559.534	4.4
559.877	4.44
560.219	4.38
560.562	4.22
560.904	4.54
561.246	4.42
561.589	4.42
561.931	4.35
562.273	4.44
562.615	4.29
562.957	4.36
563.299	4.52
563.641	4.37
563.983	4.22
564.325	4.45
564.667	4.51
565.008	4.34
565.35	4.23
565.692	4.18
566.033	4.39
566.375	4.56
566.716	4.35
567.058	4.37
567.399	4.16
567.741	4.36
568.082	4.23
568.423	4.24
568.764	4.42
569.105	4.42
569.447	4.37
569.788	4.41
570.129	4.38
570.47	4.6
570.811	4.45
571.151	4.48
571.492	4.38
571.833	4.43
572.174	4.4
572.514	4.52
572.855	4.27
573.195	4.36
573.536	4.25
573.876	4.36
574.217	4.38
574.557	4.39
574.898	4.45
575.238	4.49
575.578	4.4
575.918	4.39
576.258	4.47
576.598	4.37
576.938	4.29
577.278	4.38
577.618	4.22
577.958	4.5
578.298	4.43
578.638	4.45
578.977	4.54
579.317	4.4
579.657	4.57
579.996	4.58
580.336	4.5
580.675	4.5
581.014	4.38
581.354	4.47
581.693	4.67
582.032	4.39
582.372	4.44
582.711	4.44
583.05	4.35
583.389	4.55
583.728	4.46
584.067	4.32
584.406	4.28
584.745	4.34
585.083	4.4
585.422	4.32
585.761	4.36
586.1	4.4
586.438	4.66
586.777	4.33
587.115	4.42
587.454	4.26
587.792	4.61
588.13	4.38
588.469	4.32
588.807	4.44
589.145	4.2
589.483	4.55
589.821	4.44
590.159	4.1
590.497	4.28
590.835	4.41
591.173	4.25
591.511	4.52
591.849	4.46
592.187	4.54
592.524	4.41
592.862	4.49
593.2	4.4
593.537	4.48
593.875	4.74
594.212	4.54
594.55	4.51
594.887	4.49
595.224	4.52
595.561	4.57
595.899	4.37
596.236	4.61
596.573	4.39
596.91	4.29
597.247	4.41
597.584	4.34
597.921	4.41
598.258	4.4
598.594	4.25
598.931	4.46
599.268	4.34
599.604	4.46
599.941	4.28
600.277	4.31
600.614	4.51
600.95	4.42
601.287	4.53
601.623	4.64
601.959	4.3
602.296	4.67
602.632	4.33
602.968	4.14
603.304	4.22
603.64	4.37
603.976	4.34
604.312	4.44
604.648	4.32
604.984	4.24
605.319	4.38
605.655	4.55
605.991	4.39
606.326	4.59
606.662	4.31
606.998	4.46
607.333	4.47
607.668	4.63
608.004	4.48
608.339	4.61
608.674	4.39
609.01	4.36
609.345	4.47
609.68	4.42
610.015	4.57
610.35	4.44
610.685	4.43
611.02	4.43
611.355	4.5
611.689	4.55
612.024	4.38
612.359	4.22
612.694	4.57
613.028	4.43
613.363	4.24
613.697	4.27
614.032	4.3
614.366	4.37
614.7	4.73
615.035	4.45
615.369	4.37
615.703	4.31
616.037	4.22
616.371	4.04
616.705	4.26
617.039	4.82
617.373	4.73
617.707	4.32
618.041	4.82
618.375	4.47
618.709	4.73
619.042	4.43
619.376	4.61
619.71	4.55
620.043	4.33
620.377	4.34
620.71	4.39
621.043	4.72
621.377	4.32
621.71	4.74
622.043	4.71
622.376	4.43
622.709	4.31
623.043	4.39
623.376	4.54
623.709	4.39
624.041	4.77
624.374	4.47
624.707	4.37
625.04	4.61
625.373	4.14
625.705	4.6
626.038	4.49
626.37	4.75
626.703	4.37
627.035	4.52
627.368	4.59
627.7	4.47
628.032	4.28
628.365	4.61
628.697	4.45
629.029	4.51
629.361	4.6
629.693	4.39
630.025	4.49
630.357	4.23
630.689	4.4
631.021	4.49
631.353	4.33
631.684	4.19
632.016	4.64
632.348	4.77
632.679	4.26
633.011	4.91
633.342	4.37
633.674	4.12
634.005	4.26
634.336	4.38
634.668	4.64
634.999	4.36
635.33	4.51
635.661	4.07
635.992	4.15
636.323	4.35
636.654	4.36
636.985	4.43
637.316	4.52
637.647	4.33
637.977	4.74
638.308	4.64
638.639	4.54
638.969	4.2
639.3	4.42
639.63	4.39
639.961	4.33
640.291	4.58
640.622	4.95
640.952	4.35
641.282	3.93
641.612	4.46
641.943	4.68
642.273	4.76
642.603	4.73
642.933	4.53
643.263	4.94
643.592	4.19
643.922	4.71
644.252	4.84
644.582	4.8
644.911	4.77
645.241	4.33
645.571	4.71
645.9	4.58
646.23	4.32
646.559	4.85
646.888	4.4
647.218	4.54
647.547	4.29
647.876	4.56
648.205	4.65
648.534	4.3
648.863	4.55
649.192	4.65
649.521	4.9
649.85	4.35
650.179	4.6
650.508	4.8
650.837	4.88
651.165	4.72
651.494	4.29
651.822	4.33
652.151	4.65
652.479	4.65
652.808	4.27
653.136	4.6
653.465	4.61
653.793	4.66
654.121	4.95
654.449	4.69
654.777	4.24
655.105	4.59
655.433	4.82
655.761	4.1
656.089	5.19
656.417	4.24
656.745	4.54
657.073	4.52
657.4	4.36
657.728	4.41
658.056	4.64
658.383	5.03
658.711	5.1
659.038	4.59
659.365	4.22
659.693	4.54
660.02	4.84
660.347	5.22
660.674	4.44
661.001	4.45
661.329	4.77
661.656	4.44
661.982	4.4
662.309	4.5
662.636	4.64
662.963	4.42
663.29	4.37
663.616	4.12
663.943	4.75
664.27	4.5
664.596	4.23
664.923	4.61
665.249	4.78
665.576	4.74
665.902	4.52
666.228	4.16
666.554	4.35
666.881	4.13
667.207	5.67
667.533	4.85
667.859	4.16
668.185	4.24
668.511	4.57
668.837	4.77
669.162	5.04
669.488	4.59
669.814	4.89
670.139	5.21
670.465	4.42
670.791	4.44
671.116	4.28
671.442	4.34
671.767	4.41
672.092	4.7
672.418	4.86
672.743	5.59
673.068	4.56
673.393	4.65
673.718	4.97
674.043	4.45
674.368	4.05
674.693	4.83
675.018	4.38
675.343	3.68
675.667	4.96
675.992	4.99
676.317	4.61
676.641	4.95
676.966	4.77
677.29	4.97
677.615	4.4
677.939	4.11
678.264	5.04
678.588	5.26
678.912	4.56
679.236	5.01
679.56	4.99
679.885	5.02
680.209	5.08
680.532	4.48
680.856	4.24
681.18	4.46
681.504	4.34
681.828	3.79
682.152	4.62
682.475	4.64
682.799	4.45
683.122	4.89
683.446	4.7
683.769	4.66
684.093	4.24
684.416	4.61
684.739	4.91
685.062	4.79
685.386	5.11
685.709	5.5
686.032	5.5
686.355	4.27
686.678	4.71
687.001	4.78
687.324	4.79
687.646	4.16
687.969	4.74
688.292	4.69
688.614	4.52
688.937	4.92
689.26	5.11
689.582	4.15
689.904	4.41
690.227	4.87
690.549	4.43
690.871	4.28
691.194	5.76
691.516	5.2
691.838	5.26
692.16	4.99
692.482	4.86
692.804	4.71
693.126	4.85
