Data from 2017-1_crown_Reflection__0__05.txt Node

Date: Fri Oct 07 15:02:53 CDT 2022
User: ToomeyLab
Spectrometer: FLMS14357
Trigger mode: 0
Integration Time (sec): 1.000000E-2
Scans to average: 100
Electric dark correction enabled: true
Nonlinearity correction enabled: false
Boxcar width: 0
XAxis mode: Wavelengths
Number of Pixels in Spectrum: 2048
>>>>>Begin Spectral Data<<<<<
189.047	105.28
189.435	105.28
189.823	105.28
190.211	322.17
190.599	-491.8
190.987	90.3
191.375	73.32
191.763	178.94
192.151	788.31
192.538	3.16
192.926	122.02
193.314	-458.78
193.702	214.53
194.089	-620
194.477	-209.86
194.864	97.02
195.252	-70.47
195.639	17.53
196.027	37.15
196.414	23.35
196.801	-120.86
197.189	-35.86
197.576	20.35
197.963	23.64
198.351	39
198.738	-13.37
199.125	0.38
199.512	-8.94
199.899	-55.57
200.286	32.14
200.673	-140.13
201.06	-9.89
201.447	15.02
201.833	44.24
202.22	5.87
202.607	22.19
202.994	19.76
203.38	-15.43
203.767	14.49
204.154	-5.37
204.54	27.16
204.927	30.4
205.313	-39.91
205.699	21.16
206.086	-8.7
206.472	21.88
206.858	-41.63
207.245	7.86
207.631	-14.52
208.017	9.51
208.403	-3.68
208.789	8.39
209.175	-31.83
209.561	35.95
209.947	-44.02
210.333	3.32
210.719	3.21
211.105	20.38
211.491	2.83
211.876	-29.11
212.262	1.59
212.648	-7.42
213.034	13.45
213.419	-5.82
213.805	13.63
214.19	10.36
214.576	11.45
214.961	-3.53
215.346	-24.55
215.732	24.06
216.117	11.87
216.502	15.57
216.888	-24.38
217.273	-11.37
217.658	17.71
218.043	-18.97
218.428	8.02
218.813	21.58
219.198	9.84
219.583	24.98
219.968	5.52
220.353	4.56
220.738	2.4
221.122	11.45
221.507	-31.3
221.892	-12
222.276	-1.99
222.661	8.85
223.046	-1.02
223.43	5.04
223.815	4.24
224.199	3.93
224.583	9.11
224.968	-4.14
225.352	-1.95
225.736	0.02
226.121	19.98
226.505	2.82
226.889	-0.73
227.273	8.37
227.657	2.01
228.041	4.04
228.425	4.31
228.809	5.66
229.193	2.41
229.577	3.42
229.961	3.54
230.344	3.59
230.728	4.19
231.112	4.7
231.495	5.49
231.879	4.24
232.263	3.53
232.646	4.61
233.03	3.63
233.413	3.29
233.797	4.95
234.18	1.89
234.563	1.68
234.946	3.11
235.33	3.6
235.713	3.95
236.096	4.14
236.479	3.7
236.862	4.43
237.245	4.92
237.628	3.99
238.011	5.42
238.394	4.52
238.777	3.71
239.16	5.49
239.543	3.03
239.925	5.43
240.308	3.48
240.691	2.8
241.073	2.44
241.456	4.36
241.838	3.65
242.221	3.79
242.603	4.06
242.986	4.01
243.368	4.06
243.75	3.9
244.133	4.22
244.515	4.21
244.897	4.51
245.279	4.17
245.661	4.33
246.043	3.65
246.425	5.51
246.807	4.3
247.189	4.54
247.571	4.06
247.953	4.19
248.335	3.9
248.717	4.02
249.098	4.02
249.48	3.82
249.862	3.84
250.243	4.2
250.625	4.13
251.006	4.2
251.388	3.99
251.769	4.46
252.151	4.9
252.532	4.58
252.913	2.72
253.295	4.34
253.676	3.6
254.057	4.02
254.438	4.11
254.819	4.03
255.2	4.51
255.581	4.03
255.962	4.25
256.343	4.35
256.724	4.15
257.105	4.81
257.486	3.39
257.867	4.76
258.247	4.04
258.628	3.49
259.009	4.43
259.389	4.42
259.77	4.01
260.15	3.3
260.531	4.08
260.911	4.08
261.292	3.73
261.672	3.9
262.052	3.94
262.432	3.8
262.813	4.19
263.193	3.7
263.573	4.21
263.953	4.09
264.333	3.58
264.713	4.44
265.093	3.82
265.473	3.75
265.853	3.31
266.233	4.24
266.612	4.31
266.992	4.3
267.372	3.49
267.752	3.41
268.131	3.68
268.511	3.65
268.89	3.68
269.27	3.51
269.649	3.98
270.029	3.76
270.408	3.4
270.787	3.41
271.167	4.33
271.546	4.38
271.925	2.95
272.304	4.15
272.683	3.06
273.062	3.32
273.441	3.55
273.82	3.67
274.199	3.63
274.578	3.91
274.957	3.7
275.336	3.75
275.715	3.93
276.093	4.51
276.472	3.4
276.851	3.54
277.229	3.87
277.608	4.08
277.986	3.62
278.365	4.06
278.743	4.06
279.122	3.74
279.5	3.94
279.878	3.7
280.257	4.26
280.635	3.69
281.013	3.73
281.391	4.12
281.769	3.72
282.147	3.59
282.525	3.67
282.903	3.82
283.281	3.41
283.659	4.06
284.037	3.87
284.415	4.21
284.792	4.12
285.17	3.53
285.548	3.43
285.925	3.94
286.303	3.49
286.68	3.03
287.058	3.34
287.435	3.54
287.813	3.68
288.19	3.7
288.567	3.76
288.945	3.7
289.322	3.79
289.699	3.65
290.076	4.08
290.453	4.01
290.83	3.92
291.207	3.78
291.584	4.23
291.961	3.6
292.338	3.55
292.715	4.05
293.092	3.73
293.469	3.91
293.845	4.41
294.222	4.02
294.599	3.57
294.975	3.7
295.352	3.66
295.728	3.72
296.105	3.6
296.481	3.65
296.858	3.83
297.234	3.41
297.61	4.07
297.986	3.49
298.363	3.84
298.739	3.65
299.115	3.51
299.491	3.81
299.867	3.41
300.243	3.82
300.619	3.95
300.995	3.69
301.371	3.83
301.746	3.86
302.122	3.74
302.498	3.62
302.874	3.76
303.249	3.83
303.625	3.91
304	3.65
304.376	3.43
304.751	3.45
305.127	3.43
305.502	3.71
305.878	3.54
306.253	3.9
306.628	3.85
307.003	4.01
307.378	4.52
307.754	3.52
308.129	3.77
308.504	3.15
308.879	3.26
309.254	3.4
309.629	3.47
310.003	3.64
310.378	3.61
310.753	3.7
311.128	3.75
311.502	3.67
311.877	3.59
312.252	3.72
312.626	3.83
313.001	3.74
313.375	3.61
313.75	3.59
314.124	3.6
314.498	3.46
314.873	3.6
315.247	3.43
315.621	3.25
315.995	3.3
316.369	3.65
316.743	3.26
317.117	3.58
317.491	3.58
317.865	3.57
318.239	3.23
318.613	3.71
318.987	3.79
319.361	3.66
319.734	3.2
320.108	3.8
320.482	4.3
320.855	3.94
321.229	4.62
321.602	3.74
321.976	3.24
322.349	3.84
322.723	3.31
323.096	3.43
323.469	3.81
323.843	3.75
324.216	3.79
324.589	3.74
324.962	3.73
325.335	3.43
325.708	3.47
326.081	3.51
326.454	3.97
326.827	3.39
327.2	3.87
327.573	3.85
327.945	3.88
328.318	3.87
328.691	3.84
329.063	3.73
329.436	3.71
329.809	3.66
330.181	4.03
330.553	3.56
330.926	3.76
331.298	3.46
331.671	3.04
332.043	3.33
332.415	3.77
332.787	3.18
333.159	3.6
333.532	3.41
333.904	3.71
334.276	3.8
334.648	3.65
335.02	3.23
335.391	3.92
335.763	3.94
336.135	3.54
336.507	3.94
336.879	3.87
337.25	3.55
337.622	3.68
337.993	3.99
338.365	3.82
338.736	3.37
339.108	3.6
339.479	3.72
339.851	3.5
340.222	3.48
340.593	3.6
340.964	3.71
341.336	3.36
341.707	3.4
342.078	3.76
342.449	3.63
342.82	3.72
343.191	3.33
343.562	3.45
343.933	3.75
344.303	3.36
344.674	3.96
345.045	3.64
345.416	3.78
345.786	4.16
346.157	3.85
346.527	3.6
346.898	3.81
347.268	3.24
347.639	3.24
348.009	3.67
348.38	3.73
348.75	3.85
349.12	3.75
349.49	3.45
349.861	3.32
350.231	3.44
350.601	3.61
350.971	3.81
351.341	3.35
351.711	3.71
352.081	3.5
352.45	3.63
352.82	3.98
353.19	3.75
353.56	3.51
353.929	3.29
354.299	3.72
354.669	3.38
355.038	3.71
355.408	3.61
355.777	3.56
356.147	3.58
356.516	3.6
356.885	3.44
357.254	3.59
357.624	3.22
357.993	3.56
358.362	3.49
358.731	3.67
359.1	3.9
359.469	3.5
359.838	3.33
360.207	3.59
360.576	3.5
360.945	3.76
361.314	3.6
361.682	3.61
362.051	3.61
362.42	3.73
362.788	3.57
363.157	3.67
363.525	3.42
363.894	3.63
364.262	3.64
364.631	3.57
364.999	3.61
365.367	3.74
365.735	3.86
366.104	3.69
366.472	3.92
366.84	3.18
367.208	3.72
367.576	3.54
367.944	3.47
368.312	3.71
368.68	3.63
369.048	3.78
369.416	3.42
369.783	3.45
370.151	3.97
370.519	3.4
370.886	3.66
371.254	3.52
371.621	3.46
371.989	3.57
372.356	3.69
372.724	3.74
373.091	3.55
373.458	3.7
373.826	3.07
374.193	3.59
374.56	3.57
374.927	3.72
375.294	3.58
375.661	3.51
376.028	3.61
376.395	3.52
376.762	3.49
377.129	4.08
377.496	3.54
377.863	3.85
378.229	3.65
378.596	3.84
378.963	3.8
379.329	3.55
379.696	3.59
380.062	3.72
380.429	3.65
380.795	3.75
381.161	3.76
381.528	3.51
381.894	3.73
382.26	3.51
382.626	3.47
382.993	3.46
383.359	3.67
383.725	3.58
384.091	3.49
384.457	3.75
384.823	3.63
385.188	3.74
385.554	3.49
385.92	3.96
386.286	3.74
386.651	3.32
387.017	3.45
387.383	3.61
387.748	3.49
388.114	3.49
388.479	3.97
388.845	3.61
389.21	3.96
389.575	3.62
389.94	3.64
390.306	3.57
390.671	4.02
391.036	3.73
391.401	3.8
391.766	3.75
392.131	3.69
392.496	3.47
392.861	3.57
393.226	3.85
393.591	3.46
393.956	3.67
394.32	3.55
394.685	3.76
395.05	3.41
395.414	3.81
395.779	3.74
396.143	3.43
396.508	3.55
396.872	3.62
397.236	3.72
397.601	3.86
397.965	3.67
398.329	3.54
398.694	3.63
399.058	3.64
399.422	3.65
399.786	3.72
400.15	3.66
400.514	3.54
400.878	3.74
401.242	3.73
401.605	4.01
401.969	3.71
402.333	3.57
402.697	3.67
403.06	3.83
403.424	3.68
403.787	4.05
404.151	3.81
404.514	3.86
404.878	3.75
405.241	3.67
405.604	3.89
405.968	3.75
406.331	3.64
406.694	3.85
407.057	3.77
407.42	3.81
407.783	3.71
408.146	3.76
408.509	3.75
408.872	3.81
409.235	3.71
409.598	3.97
409.961	4.02
410.323	3.9
410.686	3.71
411.049	3.66
411.411	3.77
411.774	3.74
412.136	3.54
412.499	3.92
412.861	3.71
413.223	3.83
413.586	3.82
413.948	3.6
414.31	3.6
414.672	3.94
415.035	3.84
415.397	4
415.759	3.47
416.121	3.79
416.483	4
416.845	3.61
417.206	3.62
417.568	3.78
417.93	3.5
418.292	3.86
418.653	3.81
419.015	3.67
419.377	3.69
419.738	3.64
420.1	3.73
420.461	3.73
420.822	3.58
421.184	3.59
421.545	3.7
421.906	3.75
422.267	3.64
422.629	3.69
422.99	3.58
423.351	3.8
423.712	3.76
424.073	3.76
424.434	3.72
424.795	3.63
425.155	3.72
425.516	3.7
425.877	3.63
426.238	3.64
426.598	3.49
426.959	3.69
427.32	3.61
427.68	3.67
428.041	3.6
428.401	3.87
428.761	3.84
429.122	3.89
429.482	3.8
429.842	3.87
430.202	3.91
430.563	3.8
430.923	3.73
431.283	3.62
431.643	3.9
432.003	3.89
432.363	4.05
432.722	4
433.082	3.73
433.442	3.79
433.802	3.99
434.161	3.88
434.521	3.82
434.881	3.77
435.24	3.88
435.6	3.78
435.959	3.77
436.319	3.8
436.678	3.9
437.037	3.79
437.396	3.96
437.756	3.88
438.115	3.84
438.474	3.89
438.833	3.8
439.192	3.73
439.551	3.74
439.91	3.8
440.269	3.96
440.628	3.78
440.987	3.92
441.345	3.85
441.704	3.85
442.063	3.77
442.421	3.71
442.78	3.77
443.138	3.89
443.497	3.78
443.855	3.98
444.214	4.01
444.572	3.85
444.93	3.69
445.288	3.64
445.647	3.97
446.005	3.95
446.363	3.91
446.721	3.78
447.079	3.88
447.437	3.76
447.795	3.87
448.153	3.77
448.51	3.78
448.868	3.75
449.226	3.87
449.584	3.8
449.941	3.88
450.299	3.93
450.656	3.8
451.014	3.86
451.371	4.11
451.729	3.89
452.086	3.91
452.443	4.05
452.801	3.9
453.158	4.02
453.515	4.09
453.872	3.82
454.229	3.96
454.586	3.97
454.943	3.93
455.3	3.91
455.657	4.21
456.014	3.91
456.371	4.01
456.727	4.16
457.084	3.88
457.441	4.12
457.797	4.17
458.154	3.9
458.51	4.06
458.867	3.89
459.223	3.9
459.58	4.11
459.936	3.99
460.292	4.06
460.648	4.02
461.005	3.93
461.361	3.88
461.717	3.94
462.073	3.95
462.429	4.01
462.785	4.2
463.141	4
463.496	4.12
463.852	4.2
464.208	3.97
464.564	4.03
464.919	4.04
465.275	4.16
465.631	4.09
465.986	4.13
466.342	4.24
466.697	4.26
467.052	3.98
467.408	3.99
467.763	3.96
468.118	3.89
468.473	4.12
468.829	4.01
469.184	4
469.539	4.19
469.894	4.04
470.249	4.01
470.603	4.31
470.958	4.22
471.313	4.14
471.668	4.18
472.023	4.34
472.377	4.18
472.732	4
473.086	4.36
473.441	4.16
473.795	4.19
474.15	4.05
474.504	4.15
474.859	4.15
475.213	4.07
475.567	4.12
475.921	4.13
476.275	4.14
476.63	4.11
476.984	3.99
477.338	4.16
477.692	4.24
478.045	4.2
478.399	4.27
478.753	4.19
479.107	4.29
479.461	4.25
479.814	4.18
480.168	4.22
480.521	4.22
480.875	4.07
481.228	4.09
481.582	4.29
481.935	4.13
482.289	4.32
482.642	4.26
482.995	4.23
483.348	4.2
483.701	4.01
484.055	4.06
484.408	4.04
484.761	3.91
485.114	3.88
485.466	3.83
485.819	3.8
486.172	3.91
486.525	4.05
486.878	4.15
487.23	4.17
487.583	4.14
487.936	4.16
488.288	4.16
488.641	4.03
488.993	3.94
489.345	4.01
489.698	3.99
490.05	4.03
490.402	4.02
490.754	4.12
491.107	4.22
491.459	4.26
491.811	4.26
492.163	4.37
492.515	4.21
492.866	4.1
493.218	4.05
493.57	3.99
493.922	4.11
494.274	4.2
494.625	4.22
494.977	4.28
495.328	4.23
495.68	4.32
496.031	4.27
496.383	4.4
496.734	4.31
497.086	4.35
497.437	4.21
497.788	4.35
498.139	4.39
498.49	4.34
498.842	4.27
499.193	4.23
499.544	4.36
499.894	4.36
500.245	4.31
500.596	4.38
500.947	4.27
501.298	4.33
501.648	4.32
501.999	4.4
502.35	4.27
502.7	4.46
503.051	4.45
503.401	4.41
503.752	4.38
504.102	4.54
504.452	4.38
504.803	4.55
505.153	4.55
505.503	4.35
505.853	4.37
506.203	4.4
506.553	4.55
506.903	4.45
507.253	4.56
507.603	4.44
507.953	4.32
508.303	4.53
508.652	4.49
509.002	4.47
509.352	4.48
509.701	4.48
510.051	4.4
510.4	4.41
510.75	4.45
511.099	4.39
511.449	4.44
511.798	4.54
512.147	4.44
512.496	4.49
512.846	4.56
513.195	4.43
513.544	4.48
513.893	4.51
514.242	4.42
514.591	4.49
514.939	4.52
515.288	4.61
515.637	4.51
515.986	4.57
516.334	4.55
516.683	4.51
517.032	4.58
517.38	4.62
517.729	4.51
518.077	4.4
518.426	4.52
518.774	4.49
519.122	4.4
519.47	4.54
519.819	4.45
520.167	4.37
520.515	4.39
520.863	4.41
521.211	4.44
521.559	4.51
521.907	4.54
522.255	4.47
522.602	4.52
522.95	4.54
523.298	4.66
523.645	4.64
523.993	4.52
524.341	4.51
524.688	4.64
525.036	4.45
525.383	4.62
525.73	4.56
526.078	4.77
526.425	4.53
526.772	4.56
527.119	4.44
527.466	4.45
527.814	4.52
528.161	4.53
528.508	4.42
528.854	4.57
529.201	4.49
529.548	4.5
529.895	4.33
530.242	4.25
530.588	4.29
530.935	4.35
531.282	4.42
531.628	4.55
531.975	4.58
532.321	4.62
532.667	4.61
533.014	4.66
533.36	4.65
533.706	4.56
534.052	4.51
534.399	4.6
534.745	4.37
535.091	4.42
535.437	4.38
535.783	4.49
536.129	4.63
536.474	4.59
536.82	4.61
537.166	4.68
537.512	4.7
537.857	4.61
538.203	4.54
538.549	4.48
538.894	4.61
539.239	4.59
539.585	4.72
539.93	4.79
540.276	4.74
540.621	4.85
540.966	4.72
541.311	4.69
541.656	4.73
542.001	4.64
542.346	4.68
542.691	4.58
543.036	4.41
543.381	4.47
543.726	4.56
544.071	4.65
544.415	4.62
544.76	4.66
545.105	4.64
545.449	4.7
545.794	4.82
546.138	4.77
546.483	4.87
546.827	4.73
547.171	4.8
547.516	4.69
547.86	4.77
548.204	4.72
548.548	4.71
548.892	4.77
549.236	4.75
549.58	4.76
549.924	4.9
550.268	4.81
550.612	4.79
550.956	4.84
551.3	4.93
551.643	4.83
551.987	4.98
552.33	4.79
552.674	4.97
553.017	5.05
553.361	4.9
553.704	4.96
554.048	4.86
554.391	4.8
554.734	4.92
555.077	4.88
555.42	4.92
555.764	4.88
556.107	4.89
556.45	5.06
556.793	4.92
557.135	4.9
557.478	4.85
557.821	4.83
558.164	4.78
558.507	5.02
558.849	4.98
559.192	4.95
559.534	4.91
559.877	5.01
560.219	4.91
560.562	4.78
560.904	5.02
561.246	4.97
561.589	4.81
561.931	4.88
562.273	4.97
562.615	4.95
562.957	4.89
563.299	5.08
563.641	4.98
563.983	4.77
564.325	4.98
564.667	5.05
565.008	5.03
565.35	4.82
565.692	4.95
566.033	4.86
566.375	5.1
566.716	5.09
567.058	4.91
567.399	4.96
567.741	5.01
568.082	4.94
568.423	4.85
568.764	4.99
569.105	4.95
569.447	5.05
569.788	4.86
570.129	5.13
570.47	5.1
570.811	5.17
571.151	4.97
571.492	5
571.833	4.97
572.174	5.05
572.514	5.24
572.855	5.04
573.195	5.09
573.536	4.9
573.876	5.07
574.217	5.05
574.557	5.05
574.898	5.08
575.238	5.19
575.578	5.18
575.918	5.03
576.258	5.05
576.598	5.03
576.938	5.08
577.278	5.09
577.618	5.02
577.958	5.26
578.298	5.19
578.638	5.18
578.977	5.1
579.317	5.13
579.657	5.16
579.996	5.1
580.336	5.11
580.675	5.28
581.014	5.13
581.354	5.36
581.693	5.33
582.032	5.21
582.372	4.96
582.711	5.11
583.05	5.01
583.389	5.26
583.728	5.16
584.067	5.1
584.406	5.13
584.745	5.22
585.083	5.33
585.422	4.99
585.761	5.19
586.1	5.3
586.438	5.28
586.777	5.26
587.115	5.26
587.454	5.24
587.792	5.43
588.13	5.3
588.469	5.17
588.807	5.19
589.145	5.34
589.483	5.18
589.821	5.32
590.159	5
590.497	5.27
590.835	5.27
591.173	5.04
591.511	5.26
591.849	5.28
592.187	5.1
592.524	5.37
592.862	5.37
593.2	5.26
593.537	5.06
593.875	5.46
594.212	5.35
594.55	5.03
594.887	5.27
595.224	5.22
595.561	5.52
595.899	5.28
596.236	5.43
596.573	5.28
596.91	5.56
597.247	5.28
597.584	5.29
597.921	5.26
598.258	5.38
598.594	5.17
598.931	5.16
599.268	5.27
599.604	5.55
599.941	5.37
600.277	5.27
600.614	5.09
600.95	5.36
601.287	5.34
601.623	5.56
601.959	5.22
602.296	5.48
602.632	5.16
602.968	4.97
603.304	5.38
603.64	5.48
603.976	5.41
604.312	5.42
604.648	5.38
604.984	5.35
605.319	5.39
605.655	5.59
605.991	5.07
606.326	5.3
606.662	5.31
606.998	5.38
607.333	5.28
607.668	5.54
608.004	5.51
608.339	5.65
608.674	5.39
609.01	5.52
609.345	5.51
609.68	5.64
610.015	5.46
610.35	5.6
610.685	5.31
611.02	5.42
611.355	5.5
611.689	5.53
612.024	5.44
612.359	5.54
612.694	5.57
613.028	5.44
613.363	5.65
613.697	5.46
614.032	5.4
614.366	5.43
614.7	5.62
615.035	5.5
615.369	5.36
615.703	5.27
616.037	5.21
616.371	5.45
616.705	5.39
617.039	5.7
617.373	5.78
617.707	5.71
618.041	6.08
618.375	5.65
618.709	5.63
619.042	5.35
619.376	5.63
619.71	5.4
620.043	5.44
620.377	5.7
620.71	5.55
621.043	5.5
621.377	5.63
621.71	5.69
622.043	5.99
622.376	5.14
622.709	5.72
623.043	5.66
623.376	5.78
623.709	5.54
624.041	5.23
624.374	5.59
624.707	5.37
625.04	5.86
625.373	5.52
625.705	5.83
626.038	5.64
626.37	6.14
626.703	5.88
627.035	6.34
627.368	5.59
627.7	5.83
628.032	5.63
628.365	5.38
628.697	5.61
629.029	5.65
629.361	5.74
629.693	5.57
630.025	5.82
630.357	5.61
630.689	5.98
631.021	5.65
631.353	5.52
631.684	5.27
632.016	5.62
632.348	5.85
632.679	5.92
633.011	5.71
633.342	5.94
633.674	5.68
634.005	5.58
634.336	5.4
634.668	5.82
634.999	5.68
635.33	5.53
635.661	5.71
635.992	5.34
636.323	5.63
636.654	5.55
636.985	5.86
637.316	5.41
637.647	5.7
637.977	5.79
638.308	6.03
638.639	5.72
638.969	5.44
639.3	5.78
639.63	5.39
639.961	5.8
640.291	5.76
640.622	6.02
640.952	5.52
641.282	5.52
641.612	5.95
641.943	6.07
642.273	5.83
642.603	6.01
642.933	6.1
643.263	5.69
643.592	5.94
643.922	6.28
644.252	6.07
644.582	6.33
644.911	6.06
645.241	5.95
645.571	5.33
645.9	5.89
646.23	5.71
646.559	5.97
646.888	5.33
647.218	6.26
647.547	6.25
647.876	5.97
648.205	6.02
648.534	5.76
648.863	5.86
649.192	5.97
649.521	5.81
649.85	5.61
650.179	5.58
650.508	5.62
650.837	6.17
651.165	6.07
651.494	5.92
651.822	5.36
652.151	5.93
652.479	6.11
652.808	5.9
653.136	5.76
653.465	6.39
653.793	6.24
654.121	6.39
654.449	6.01
654.777	5.59
655.105	6.1
655.433	5.93
655.761	5.91
656.089	6.25
656.417	5.91
656.745	5.98
657.073	5.89
657.4	5.69
657.728	5.98
658.056	5.93
658.383	6.13
658.711	6.16
659.038	6.04
659.365	5.97
659.693	5.87
660.02	6.54
660.347	6.13
660.674	6.02
661.001	5.94
661.329	5.79
661.656	6.04
661.982	5.57
662.309	6.1
662.636	5.83
662.963	5.92
663.29	5.74
663.616	5.66
663.943	6.26
664.27	5.4
664.596	5.85
664.923	6.08
665.249	6.25
665.576	5.63
665.902	6.36
666.228	5.94
666.554	5.74
666.881	6
667.207	6.2
667.533	6.62
667.859	6.05
668.185	6.3
668.511	5.75
668.837	6.26
669.162	6.25
669.488	6.03
669.814	6.44
670.139	6.34
670.465	5.93
670.791	6.12
671.116	5.9
671.442	6.23
671.767	6.08
672.092	6.41
672.418	6.2
672.743	6.98
673.068	6.16
673.393	6.11
673.718	6.69
674.043	6.2
674.368	5.91
674.693	7.32
675.018	5.62
675.343	5.8
675.667	6.62
675.992	6.2
676.317	6.34
676.641	6.68
676.966	6.21
677.29	6.08
677.615	5.78
677.939	6.24
678.264	6.21
678.588	6.59
678.912	5.75
679.236	6.73
679.56	6.5
679.885	6.3
680.209	6.19
680.532	6.16
680.856	6.08
681.18	6.55
681.504	5.98
681.828	5.78
682.152	6.1
682.475	6.45
682.799	6.41
683.122	6.44
683.446	5.69
683.769	6.04
684.093	6.25
684.416	5.98
684.739	6.12
685.062	6.27
685.386	6.22
685.709	7.02
686.032	6.65
686.355	6.63
686.678	6.35
687.001	6.3
687.324	6.62
687.646	6.59
687.969	6.09
688.292	6.02
688.614	6.45
688.937	6.52
689.26	6.17
689.582	5.97
689.904	5.73
690.227	6.49
690.549	5.94
690.871	6.59
691.194	6.24
691.516	6.78
691.838	6.61
692.16	6.32
692.482	5.6
692.804	6.62
693.126	6.72
