Data from 2017-1_crown_Reflection__2__07.txt Node

Date: Fri Oct 07 15:03:19 CDT 2022
User: ToomeyLab
Spectrometer: FLMS14357
Trigger mode: 0
Integration Time (sec): 1.000000E-2
Scans to average: 100
Electric dark correction enabled: true
Nonlinearity correction enabled: false
Boxcar width: 0
XAxis mode: Wavelengths
Number of Pixels in Spectrum: 2048
>>>>>Begin Spectral Data<<<<<
189.047	155.53
189.435	155.53
189.823	155.53
190.211	-419.08
190.599	804.73
190.987	73.72
191.375	-40.89
191.763	89.88
192.151	261.81
192.538	445.1
192.926	43.92
193.314	2596.18
193.702	82.08
194.089	-1062.05
194.477	179.13
194.864	102.08
195.252	17.97
195.639	128.59
196.027	572.09
196.414	158.26
196.801	0.31
197.189	50.03
197.576	-117.2
197.963	146.04
198.351	-0.51
198.738	32.65
199.125	71.19
199.512	9.69
199.899	-42.76
200.286	-8.95
200.673	-18.66
201.06	29.03
201.447	13.26
201.833	15.62
202.22	35.78
202.607	7.61
202.994	30.67
203.38	13.64
203.767	27.33
204.154	28.31
204.54	75.62
204.927	38.8
205.313	-30.2
205.699	-3.12
206.086	7.47
206.472	35.79
206.858	9.28
207.245	28.15
207.631	11.2
208.017	25.7
208.403	16.25
208.789	3.55
209.175	-21.44
209.561	37.14
209.947	4.82
210.333	11.81
210.719	20.44
211.105	26.21
211.491	-18.85
211.876	-24.88
212.262	29.67
212.648	39.32
213.034	27.77
213.419	-12.24
213.805	15.82
214.19	16.33
214.576	19.84
214.961	10.78
215.346	12.05
215.732	9.44
216.117	3.89
216.502	7.84
216.888	-35.76
217.273	-2.63
217.658	17.56
218.043	-15.84
218.428	14.35
218.813	39.8
219.198	10.75
219.583	29.35
219.968	2.11
220.353	10.36
220.738	-13.43
221.122	5.58
221.507	-23.87
221.892	-9.78
222.276	8.91
222.661	11.13
223.046	9.37
223.43	12.3
223.815	7.67
224.199	1.06
224.583	14.8
224.968	5.43
225.352	7.6
225.736	6.56
226.121	17.56
226.505	4.02
226.889	2.66
227.273	8.33
227.657	4.98
228.041	8.76
228.425	5.06
228.809	4.21
229.193	5.69
229.577	4.35
229.961	5.07
230.344	4.77
230.728	5.84
231.112	4.92
231.495	5.97
231.879	4.89
232.263	4.18
232.646	4.76
233.03	5.21
233.413	6.37
233.797	6.43
234.18	3.68
234.563	3.74
234.946	3.94
235.33	2.98
235.713	3.49
236.096	5.79
236.479	5.44
236.862	4.96
237.245	4.59
237.628	4.7
238.011	5.41
238.394	4.7
238.777	3.55
239.16	6.82
239.543	3.05
239.925	4.78
240.308	4.4
240.691	4.51
241.073	3.4
241.456	5.91
241.838	4.15
242.221	5.94
242.603	4.97
242.986	5.29
243.368	3.76
243.75	5.13
244.133	4.47
244.515	4.58
244.897	5.02
245.279	4.9
245.661	5.12
246.043	4.21
246.425	5.69
246.807	5.12
247.189	5.7
247.571	4.9
247.953	4.57
248.335	4.32
248.717	4.37
249.098	4.24
249.48	4.57
249.862	4.66
250.243	4.63
250.625	4.68
251.006	4.67
251.388	4.32
251.769	4.78
252.151	4.26
252.532	4.99
252.913	4.19
253.295	4.97
253.676	4.33
254.057	4.57
254.438	4.59
254.819	4.76
255.2	4.7
255.581	4.78
255.962	3.54
256.343	5
256.724	4.31
257.105	4.46
257.486	2.97
257.867	3.71
258.247	4.75
258.628	3.88
259.009	4.73
259.389	4.7
259.77	4.51
260.15	4.28
260.531	4.18
260.911	4.15
261.292	4.22
261.672	4.44
262.052	4.25
262.432	4.2
262.813	4.98
263.193	4.38
263.573	4.68
263.953	4.33
264.333	4.05
264.713	4.33
265.093	4.48
265.473	4.86
265.853	4.02
266.233	4.92
266.612	4.73
266.992	4.27
267.372	4.15
267.752	3.94
268.131	4.18
268.511	3.98
268.89	3.63
269.27	3.83
269.649	4.21
270.029	3.7
270.408	3.93
270.787	3.88
271.167	4.45
271.546	3.81
271.925	3.75
272.304	3.92
272.683	3.51
273.062	4.21
273.441	4.29
273.82	4.02
274.199	4.34
274.578	3.92
274.957	4
275.336	4.11
275.715	4.03
276.093	4.39
276.472	4.13
276.851	3.84
277.229	3.61
277.608	3.99
277.986	3.89
278.365	4.23
278.743	4.54
279.122	3.84
279.5	3.75
279.878	4.21
280.257	4.36
280.635	3.97
281.013	3.45
281.391	4.33
281.769	4.36
282.147	3.93
282.525	3.79
282.903	4.02
283.281	3.71
283.659	4.37
284.037	4.14
284.415	4.14
284.792	3.46
285.17	4.18
285.548	3.64
285.925	3.83
286.303	3.51
286.68	3.27
287.058	3.67
287.435	3.78
287.813	3.89
288.19	4.15
288.567	4.12
288.945	3.92
289.322	3.91
289.699	3.75
290.076	4.06
290.453	3.92
290.83	4.13
291.207	3.8
291.584	3.92
291.961	3.56
292.338	3.6
292.715	3.92
293.092	4.05
293.469	4.07
293.845	3.83
294.222	4
294.599	3.48
294.975	3.53
295.352	4.33
295.728	3.78
296.105	4.26
296.481	3.6
296.858	4.07
297.234	3.69
297.61	4.16
297.986	3.97
298.363	3.85
298.739	3.65
299.115	3.38
299.491	3.88
299.867	3.46
300.243	3.49
300.619	3.87
300.995	3.67
301.371	3.64
301.746	3.61
302.122	3.5
302.498	3.58
302.874	3.66
303.249	3.61
303.625	3.68
304	3.32
304.376	3.82
304.751	3.42
305.127	3.83
305.502	3.7
305.878	3.5
306.253	3.74
306.628	4
307.003	4.13
307.378	4.15
307.754	3.5
308.129	3.82
308.504	3.85
308.879	3.19
309.254	3.49
309.629	3.7
310.003	3.94
310.378	3.93
310.753	3.62
311.128	3.59
311.502	3.75
311.877	3.43
312.252	3.65
312.626	3.8
313.001	3.31
313.375	3.46
313.75	3.48
314.124	3.67
314.498	3.2
314.873	3.58
315.247	3.42
315.621	3.66
315.995	3.63
316.369	3.43
316.743	3.37
317.117	3.74
317.491	3.98
317.865	3.41
318.239	3.76
318.613	3.28
318.987	3.66
319.361	3.73
319.734	3.12
320.108	2.86
320.482	4.36
320.855	3.36
321.229	3.83
321.602	3.43
321.976	3.48
322.349	3.83
322.723	3.87
323.096	2.88
323.469	4.16
323.843	4.09
324.216	3.49
324.589	3.81
324.962	3.79
325.335	3.28
325.708	3.05
326.081	3.24
326.454	3.5
326.827	3.67
327.2	3.68
327.573	3.61
327.945	3.82
328.318	2.87
328.691	3.76
329.063	3.99
329.436	3.76
329.809	3.41
330.181	3.71
330.553	3.14
330.926	3.52
331.298	3.36
331.671	3.13
332.043	2.82
332.415	3.66
332.787	3.01
333.159	3.62
333.532	3.32
333.904	3.56
334.276	3.7
334.648	3.58
335.02	3.71
335.391	3.78
335.763	4.44
336.135	3.56
336.507	3.89
336.879	3.78
337.25	3.63
337.622	3.86
337.993	3.69
338.365	3.95
338.736	3.67
339.108	3.64
339.479	3.57
339.851	3.41
340.222	4.01
340.593	3.38
340.964	3.85
341.336	3.21
341.707	3.57
342.078	3.78
342.449	3.94
342.82	3.83
343.191	3.37
343.562	3.48
343.933	3.89
344.303	3.53
344.674	3.73
345.045	4.07
345.416	3.69
345.786	4.13
346.157	3.9
346.527	3.63
346.898	3.69
347.268	3.38
347.639	3.37
348.009	4.07
348.38	3.52
348.75	4.03
349.12	3.86
349.49	3.33
349.861	3.68
350.231	3.54
350.601	3.55
350.971	4.48
351.341	3.52
351.711	3.44
352.081	3.97
352.45	3.16
352.82	3.66
353.19	3.93
353.56	3.59
353.929	3.28
354.299	3.81
354.669	3.58
355.038	3.48
355.408	3.8
355.777	3.7
356.147	3.3
356.516	3.68
356.885	4.03
357.254	3.72
357.624	3.41
357.993	3.56
358.362	3.48
358.731	3.73
359.1	3.89
359.469	3.84
359.838	3.57
360.207	3.79
360.576	3.41
360.945	3.91
361.314	3.58
361.682	3.45
362.051	3.67
362.42	4.08
362.788	3.59
363.157	3.36
363.525	3.5
363.894	3.74
364.262	3.48
364.631	3.92
364.999	3.58
365.367	3.8
365.735	3.75
366.104	3.8
366.472	3.65
366.84	3.37
367.208	3.82
367.576	3.58
367.944	3.59
368.312	3.7
368.68	3.76
369.048	3.79
369.416	4.07
369.783	3.62
370.151	3.8
370.519	3.71
370.886	3.68
371.254	3.62
371.621	3.6
371.989	3.52
372.356	3.58
372.724	3.68
373.091	3.78
373.458	3.71
373.826	3.5
374.193	3.92
374.56	3.66
374.927	4.13
375.294	3.61
375.661	3.44
376.028	3.84
376.395	3.52
376.762	3.9
377.129	4
377.496	3.94
377.863	3.97
378.229	4.03
378.596	3.87
378.963	3.77
379.329	3.68
379.696	3.77
380.062	3.83
380.429	3.88
380.795	3.96
381.161	3.76
381.528	3.89
381.894	4.13
382.26	3.76
382.626	3.73
382.993	3.95
383.359	3.65
383.725	3.67
384.091	3.64
384.457	3.94
384.823	3.71
385.188	3.71
385.554	3.86
385.92	3.97
386.286	3.78
386.651	3.57
387.017	3.77
387.383	3.69
387.748	3.69
388.114	3.58
388.479	3.86
388.845	3.86
389.21	3.98
389.575	3.66
389.94	4.05
390.306	3.83
390.671	4.19
391.036	3.92
391.401	3.75
391.766	3.95
392.131	3.76
392.496	3.76
392.861	3.74
393.226	3.99
393.591	3.73
393.956	3.76
394.32	3.9
394.685	3.92
395.05	3.67
395.414	4.06
395.779	3.93
396.143	3.84
396.508	3.71
396.872	3.63
397.236	4.01
397.601	3.81
397.965	3.95
398.329	3.66
398.694	3.85
399.058	3.95
399.422	3.96
399.786	3.92
400.15	3.75
400.514	3.74
400.878	3.84
401.242	3.87
401.605	3.83
401.969	3.96
402.333	3.92
402.697	3.81
403.06	4.11
403.424	3.83
403.787	4.12
404.151	3.92
404.514	4.14
404.878	3.85
405.241	3.77
405.604	4.11
405.968	4.01
406.331	3.85
406.694	4.06
407.057	4
407.42	3.8
407.783	3.91
408.146	3.99
408.509	4.1
408.872	3.95
409.235	4.15
409.598	4.05
409.961	4.07
410.323	4.01
410.686	3.86
411.049	3.91
411.411	4.22
411.774	4.06
412.136	3.98
412.499	4.05
412.861	3.98
413.223	4.03
413.586	3.93
413.948	3.97
414.31	4.09
414.672	3.88
415.035	3.93
415.397	4.16
415.759	3.75
416.121	3.78
416.483	4.11
416.845	3.74
417.206	3.95
417.568	4.1
417.93	3.72
418.292	3.79
418.653	4.13
419.015	3.94
419.377	3.84
419.738	3.96
420.1	3.86
420.461	3.95
420.822	3.84
421.184	3.87
421.545	3.87
421.906	3.93
422.267	3.76
422.629	3.82
422.99	3.85
423.351	3.99
423.712	3.95
424.073	3.99
424.434	3.95
424.795	3.84
425.155	3.83
425.516	3.77
425.877	3.93
426.238	3.88
426.598	3.9
426.959	3.87
427.32	4.09
427.68	3.99
428.041	4.07
428.401	4.24
428.761	4.13
429.122	4.19
429.482	4
429.842	4.07
430.202	4.14
430.563	4.08
430.923	3.98
431.283	3.88
431.643	4.01
432.003	3.99
432.363	4.19
432.722	4.15
433.082	3.94
433.442	3.87
433.802	4.22
434.161	4.15
434.521	4.01
434.881	3.97
435.24	4.13
435.6	3.98
435.959	4.02
436.319	4.02
436.678	4.05
437.037	4.1
437.396	4.1
437.756	4
438.115	4.13
438.474	4.11
438.833	4.02
439.192	3.93
439.551	4.05
439.91	4.03
440.269	3.93
440.628	3.96
440.987	4.13
441.345	3.93
441.704	3.99
442.063	3.95
442.421	4.05
442.78	3.92
443.138	3.98
443.497	4.08
443.855	4.08
444.214	4.07
444.572	4.21
444.93	4.1
445.288	3.77
445.647	4.14
446.005	4.16
446.363	4.14
446.721	4.06
447.079	4.09
447.437	3.97
447.795	3.96
448.153	3.89
448.51	4.01
448.868	4
449.226	3.96
449.584	4.07
449.941	4.22
450.299	4
450.656	4.14
451.014	4.1
451.371	4.22
451.729	4.17
452.086	4.18
452.443	4.15
452.801	4.21
453.158	4.18
453.515	4.16
453.872	4.03
454.229	4.15
454.586	4.05
454.943	4.16
455.3	4.03
455.657	4.32
456.014	4.21
456.371	4.25
456.727	4.27
457.084	4.12
457.441	4.17
457.797	4.38
458.154	4.11
458.51	4.31
458.867	4.07
459.223	4.02
459.58	4.33
459.936	4.18
460.292	3.9
460.648	4.17
461.005	4.09
461.361	3.99
461.717	3.96
462.073	4.04
462.429	4.12
462.785	4.19
463.141	4.16
463.496	4.24
463.852	4.41
464.208	4.19
464.564	4.12
464.919	4.13
465.275	4.16
465.631	4.13
465.986	4.2
466.342	4.3
466.697	4.35
467.052	4.12
467.408	4.15
467.763	4.2
468.118	3.96
468.473	4.2
468.829	4.05
469.184	4.29
469.539	4.36
469.894	4.11
470.249	4.3
470.603	4.24
470.958	4.21
471.313	4.14
471.668	4.19
472.023	4.32
472.377	4.28
472.732	4.16
473.086	4.28
473.441	4.32
473.795	4.25
474.15	4.22
474.504	4.23
474.859	4.28
475.213	4.25
475.567	4.4
475.921	4.29
476.275	4.32
476.63	4.2
476.984	4.2
477.338	4.17
477.692	4.2
478.045	4.1
478.399	4.15
478.753	4.17
479.107	4.25
479.461	4.24
479.814	4.22
480.168	4.1
480.521	4.17
480.875	4.26
481.228	4.03
481.582	4.29
481.935	4.25
482.289	4.28
482.642	4.19
482.995	4.22
483.348	4.18
483.701	4.04
484.055	4.08
484.408	4.09
484.761	3.92
485.114	3.77
485.466	3.78
485.819	3.77
486.172	3.94
486.525	4.09
486.878	4.19
487.23	4.2
487.583	4.23
487.936	4.19
488.288	4.09
488.641	3.95
488.993	3.93
489.345	3.92
489.698	4
490.05	4.04
490.402	4.12
490.754	4.14
491.107	4.3
491.459	4.24
491.811	4.26
492.163	4.2
492.515	4.2
492.866	3.93
493.218	3.92
493.57	3.92
493.922	4.05
494.274	4.21
494.625	4.25
494.977	4.35
495.328	4.29
495.68	4.2
496.031	4.28
496.383	4.36
496.734	4.19
497.086	4.23
497.437	4.27
497.788	4.2
498.139	4.26
498.49	4.23
498.842	4.19
499.193	4.21
499.544	4.19
499.894	4.27
500.245	4.24
500.596	4.27
500.947	4.21
501.298	4.3
501.648	4.14
501.999	4.35
502.35	4.34
502.7	4.25
503.051	4.24
503.401	4.27
503.752	4.29
504.102	4.23
504.452	4.3
504.803	4.3
505.153	4.28
505.503	4.2
505.853	4.28
506.203	4.27
506.553	4.38
506.903	4.25
507.253	4.44
507.603	4.28
507.953	4.3
508.303	4.36
508.652	4.27
509.002	4.25
509.352	4.29
509.701	4.27
510.051	4.41
510.4	4.23
510.75	4.21
511.099	4.17
511.449	4.34
511.798	4.22
512.147	4.27
512.496	4.26
512.846	4.39
513.195	4.26
513.544	4.28
513.893	4.42
514.242	4.25
514.591	4.22
514.939	4.38
515.288	4.42
515.637	4.41
515.986	4.29
516.334	4.28
516.683	4.38
517.032	4.28
517.38	4.34
517.729	4.22
518.077	4.25
518.426	4.17
518.774	4.19
519.122	4.28
519.47	4.25
519.819	4.21
520.167	4.19
520.515	4.1
520.863	4.21
521.211	4.29
521.559	4.29
521.907	4.39
522.255	4.27
522.602	4.31
522.95	4.38
523.298	4.39
523.645	4.35
523.993	4.24
524.341	4.26
524.688	4.4
525.036	4.35
525.383	4.24
525.73	4.25
526.078	4.24
526.425	4.25
526.772	4.2
527.119	4.12
527.466	4.17
527.814	4.12
528.161	4.3
528.508	4.23
528.854	4.23
529.201	4.21
529.548	4.14
529.895	3.97
530.242	3.88
530.588	3.92
530.935	4.06
531.282	4.2
531.628	4.26
531.975	4.3
532.321	4.37
532.667	4.35
533.014	4.34
533.36	4.28
533.706	4.28
534.052	4.19
534.399	4.16
534.745	4.04
535.091	3.99
535.437	4.05
535.783	4.2
536.129	4.36
536.474	4.35
536.82	4.39
537.166	4.42
537.512	4.29
537.857	4.2
538.203	4.11
538.549	4.12
538.894	4.27
539.239	4.34
539.585	4.38
539.93	4.4
540.276	4.42
540.621	4.35
540.966	4.31
541.311	4.37
541.656	4.34
542.001	4.15
542.346	4.21
542.691	4.08
543.036	3.94
543.381	4
543.726	4.12
544.071	4.31
544.415	4.3
544.76	4.33
545.105	4.25
545.449	4.24
545.794	4.3
546.138	4.35
546.483	4.27
546.827	4.36
547.171	4.27
547.516	4.18
547.86	4.17
548.204	4.17
548.548	4.3
548.892	4.23
549.236	4.36
549.58	4.21
549.924	4.4
550.268	4.35
550.612	4.31
550.956	4.38
551.3	4.57
551.643	4.24
551.987	4.51
552.33	4.5
552.674	4.48
553.017	4.29
553.361	4.24
553.704	4.37
554.048	4.44
554.391	4.1
554.734	4.27
555.077	4.34
555.42	4.2
555.764	4.31
556.107	4.34
556.45	4.45
556.793	4.35
557.135	4.31
557.478	4.38
557.821	4.44
558.164	4.38
558.507	4.4
558.849	4.42
559.192	4.48
559.534	4.34
559.877	4.55
560.219	4.52
560.562	4.17
560.904	4.3
561.246	4.57
561.589	4.28
561.931	4.35
562.273	4.27
562.615	4.32
562.957	4.49
563.299	4.46
563.641	4.41
563.983	4.26
564.325	4.43
564.667	4.59
565.008	4.47
565.35	4.23
565.692	4.23
566.033	4.37
566.375	4.61
566.716	4.6
567.058	4.29
567.399	4.22
567.741	4.32
568.082	4.24
568.423	4.34
568.764	4.43
569.105	4.3
569.447	4.35
569.788	4.17
570.129	4.28
570.47	4.4
570.811	4.4
571.151	4.47
571.492	4.49
571.833	4.43
572.174	4.33
572.514	4.44
572.855	4.37
573.195	4.28
573.536	4.25
573.876	4.35
574.217	4.28
574.557	4.4
574.898	4.39
575.238	4.46
575.578	4.38
575.918	4.3
576.258	4.5
576.598	4.3
576.938	4.34
577.278	4.35
577.618	4.22
577.958	4.47
578.298	4.45
578.638	4.41
578.977	4.37
579.317	4.47
579.657	4.42
579.996	4.59
580.336	4.54
580.675	4.38
581.014	4.59
581.354	4.6
581.693	4.57
582.032	4.45
582.372	4.51
582.711	4.48
583.05	4.24
583.389	4.48
583.728	4.38
584.067	4.34
584.406	4.49
584.745	4.32
585.083	4.52
585.422	4.5
585.761	4.45
586.1	4.35
586.438	4.55
586.777	4.49
587.115	4.43
587.454	4.54
587.792	4.33
588.13	4.59
588.469	4.39
588.807	4.38
589.145	4.33
589.483	4.57
589.821	4.28
590.159	4.22
590.497	4.1
590.835	4.34
591.173	4.33
591.511	4.45
591.849	4.46
592.187	4.42
592.524	4.36
592.862	4.48
593.2	4.36
593.537	4.44
593.875	4.57
594.212	4.26
594.55	4.4
594.887	4.48
595.224	4.44
595.561	4.43
595.899	4.44
596.236	4.53
596.573	4.22
596.91	4.41
597.247	4.35
597.584	4.38
597.921	4.49
598.258	4.52
598.594	4.15
598.931	4.15
599.268	4.27
599.604	4.68
599.941	4.43
600.277	4.2
600.614	4.15
600.95	4.68
601.287	4.52
601.623	4.54
601.959	4.2
602.296	4.33
602.632	4.22
602.968	4.22
603.304	4.3
603.64	4.67
603.976	4.25
604.312	4.45
604.648	4.24
604.984	4.24
605.319	4.42
605.655	4.37
605.991	4.37
606.326	4.33
606.662	4.24
606.998	4.38
607.333	4.32
607.668	4.4
608.004	4.49
608.339	4.46
608.674	4.58
609.01	4.39
609.345	4.5
609.68	4.49
610.015	4.41
610.35	4.14
610.685	4.21
611.02	4.35
611.355	4.43
611.689	4.53
612.024	4.39
612.359	4.35
612.694	4.48
613.028	4.28
613.363	4.05
613.697	4.4
614.032	4.45
614.366	4.11
614.7	4.47
615.035	4.41
615.369	4.33
615.703	4.46
616.037	4.28
616.371	4.11
616.705	4.41
617.039	4.53
617.373	4.49
617.707	4.32
618.041	4.79
618.375	4.89
618.709	4.55
619.042	4.43
619.376	4.41
619.71	4.19
620.043	4.28
620.377	4.38
620.71	4.41
621.043	4.55
621.377	4.58
621.71	4.6
622.043	4.47
622.376	4.62
622.709	4.27
623.043	4.15
623.376	4.69
623.709	4.55
624.041	4.37
624.374	4.11
624.707	4.43
625.04	4.79
625.373	4.2
625.705	4.65
626.038	4.72
626.37	4.81
626.703	4.66
627.035	4.57
627.368	4.22
627.7	4.29
628.032	4.29
628.365	4.22
628.697	4.3
629.029	4.34
629.361	4.48
629.693	4.06
630.025	4.55
630.357	4.43
630.689	4.42
631.021	4.6
631.353	4.18
631.684	4.14
632.016	4.61
632.348	4.57
632.679	4.5
633.011	4.41
633.342	4.34
633.674	4.39
634.005	4.67
634.336	4.18
634.668	5
634.999	4.22
635.33	4.46
635.661	4.12
635.992	4.27
636.323	4.59
636.654	4.26
636.985	4.58
637.316	4.13
637.647	4
637.977	4.37
638.308	4.55
638.639	4.39
638.969	4.64
639.3	4.47
639.63	4.63
639.961	4.52
640.291	4.42
640.622	4.65
640.952	4.32
641.282	4.31
641.612	4.05
641.943	4.55
642.273	4.72
642.603	4.5
642.933	4.54
643.263	4.69
643.592	4.25
643.922	4.64
644.252	4.76
644.582	4.69
644.911	4.77
645.241	4.61
645.571	4.26
645.9	4.49
646.23	4.65
646.559	4.8
646.888	4.59
647.218	4.44
647.547	4.1
647.876	4.18
648.205	4.3
648.534	4.32
648.863	4.2
649.192	4.6
649.521	4.57
649.85	4.45
650.179	4.59
650.508	4.53
650.837	4.8
651.165	4.48
651.494	4.57
651.822	4.24
652.151	4.69
652.479	4.95
652.808	4.54
653.136	4.38
653.465	4.9
653.793	4.23
654.121	5.17
654.449	4.58
654.777	4.36
655.105	4.55
655.433	4.82
655.761	4.16
656.089	4.22
656.417	3.76
656.745	4.37
657.073	4.66
657.4	4.34
657.728	4.23
658.056	4.42
658.383	4.85
658.711	4.49
659.038	4.64
659.365	4.43
659.693	4.23
660.02	4.95
660.347	4.57
660.674	4.16
661.001	4.63
661.329	4.29
661.656	4.12
661.982	4.05
662.309	4.18
662.636	4.52
662.963	4.64
663.29	4.56
663.616	4.6
663.943	4.97
664.27	4.06
664.596	4.39
664.923	4.21
665.249	4.4
665.576	4.74
665.902	4.72
666.228	4.41
666.554	4.41
666.881	4.55
667.207	4.54
667.533	4.8
667.859	4.27
668.185	4.26
668.511	4.56
668.837	5.07
669.162	5.01
669.488	4.12
669.814	4.49
670.139	4.46
670.465	4.31
670.791	4.43
671.116	3.87
671.442	4.59
671.767	5.05
672.092	4.33
672.418	4.45
672.743	4.71
673.068	4.79
673.393	4.08
673.718	4.75
674.043	4.39
674.368	4.15
674.693	5.3
675.018	4.37
675.343	4.79
675.667	4.34
675.992	4.58
676.317	4.99
676.641	4.53
676.966	4.68
677.29	5.14
677.615	4.47
677.939	4.43
678.264	5.14
678.588	4.71
678.912	3.93
679.236	4.72
679.56	5.37
679.885	4.03
680.209	4.73
680.532	4.87
680.856	4.63
681.18	4.51
681.504	4.25
681.828	3.94
682.152	4.49
682.475	4.75
682.799	4.6
683.122	4.43
683.446	4.65
683.769	4.49
684.093	4.36
684.416	4.21
684.739	4.24
685.062	4.69
685.386	4.44
685.709	5.1
686.032	4.92
686.355	4.82
686.678	4.75
687.001	5.04
687.324	4.46
687.646	3.91
687.969	4.52
688.292	4.91
688.614	3.9
688.937	4.26
689.26	4.82
689.582	4.21
689.904	4.09
690.227	4.63
690.549	4.25
690.871	4.34
691.194	5.04
691.516	4.99
691.838	4.56
692.16	5.11
692.482	4.29
692.804	4.7
693.126	4.15
