Data from 21-4_crown_Reflection__1__141.txt Node

Date: Thu Dec 15 17:36:03 CST 2022
User: ToomeyLab
Spectrometer: FLMS14357
Trigger mode: 0
Integration Time (sec): 1.000000E-2
Scans to average: 100
Electric dark correction enabled: true
Nonlinearity correction enabled: false
Boxcar width: 0
XAxis mode: Wavelengths
Number of Pixels in Spectrum: 2048
>>>>>Begin Spectral Data<<<<<
189.047	11.87
189.435	11.87
189.823	11.87
190.211	-11.4
190.599	35.2
190.987	-0.64
191.375	137.84
191.763	70.48
192.151	-29.22
192.538	148.48
192.926	22.14
193.314	63.19
193.702	133.76
194.089	-26.69
194.477	275.37
194.864	-271.79
195.252	-101.89
195.639	77.76
196.027	108.24
196.414	44.5
196.801	275.03
197.189	116.24
197.576	-397.72
197.963	-1415.68
198.351	8.36
198.738	-50.87
199.125	-60.16
199.512	-14.28
199.899	-52.94
200.286	-40.74
200.673	41.81
201.06	-62
201.447	24.41
201.833	20.99
202.22	-9.8
202.607	-28.64
202.994	13.9
203.38	0.89
203.767	-40.66
204.154	50.2
204.54	2.64
204.927	15.01
205.313	37.1
205.699	26.26
206.086	66.95
206.472	58.85
206.858	5.19
207.245	-22.71
207.631	-30.01
208.017	22.53
208.403	-23.67
208.789	-19.18
209.175	-30.73
209.561	-68.07
209.947	-41.66
210.333	-19.4
210.719	12.03
211.105	13.61
211.491	12.31
211.876	0.91
212.262	13.09
212.648	0.79
213.034	-5.43
213.419	-41.62
213.805	-51.38
214.19	-22.94
214.576	-34.26
214.961	10.77
215.346	-36.22
215.732	-6.89
216.117	13.71
216.502	-13.58
216.888	-10.48
217.273	-6.12
217.658	-9.03
218.043	-34.14
218.428	-26.24
218.813	6.65
219.198	-36.59
219.583	-14.82
219.968	26.97
220.353	-15.48
220.738	12.54
221.122	-9.17
221.507	-2.03
221.892	-19.74
222.276	-13.76
222.661	-8.53
223.046	-18.12
223.43	12.18
223.815	5.17
224.199	-11.92
224.583	-0.42
224.968	-7.17
225.352	-7.68
225.736	3.92
226.121	-1.44
226.505	0.67
226.889	-2.97
227.273	-5.15
227.657	1.22
228.041	4.9
228.425	-1.98
228.809	-0.01
229.193	1.67
229.577	2.65
229.961	2.13
230.344	3.73
230.728	3.34
231.112	4
231.495	1.14
231.879	2.71
232.263	3.07
232.646	0.27
233.03	3.36
233.413	3.53
233.797	0.65
234.18	2.66
234.563	1.58
234.946	3.34
235.33	2.3
235.713	2.52
236.096	1.62
236.479	3.1
236.862	0.95
237.245	0.59
237.628	4.55
238.011	1.74
238.394	1.53
238.777	1.8
239.16	3.16
239.543	3.45
239.925	2.14
240.308	0.96
240.691	1.92
241.073	2
241.456	3.73
241.838	3.09
242.221	2.64
242.603	3.01
242.986	2.78
243.368	2.04
243.75	2.3
244.133	3.38
244.515	2.57
244.897	1.95
245.279	2.04
245.661	2.19
246.043	2.07
246.425	2.24
246.807	2.28
247.189	2.41
247.571	1.87
247.953	2.68
248.335	2.4
248.717	2.4
249.098	2.43
249.48	2.36
249.862	2.98
250.243	2.98
250.625	2.34
251.006	2.86
251.388	2.39
251.769	1.56
252.151	2.76
252.532	1.77
252.913	1.84
253.295	1.78
253.676	2.5
254.057	2.49
254.438	2
254.819	2.01
255.2	3.82
255.581	3.07
255.962	2.61
256.343	3.15
256.724	2.38
257.105	2.38
257.486	1.67
257.867	2.64
258.247	3.18
258.628	2.68
259.009	2.04
259.389	1.84
259.77	1.9
260.15	2.73
260.531	2.25
260.911	2.09
261.292	2.3
261.672	2.29
262.052	2.32
262.432	2.28
262.813	2.58
263.193	2.57
263.573	2.15
263.953	1.92
264.333	2
264.713	2.9
265.093	1.65
265.473	1.73
265.853	2.2
266.233	1.89
266.612	1.41
266.992	1.66
267.372	2.32
267.752	2.62
268.131	2
268.511	2.09
268.89	3.08
269.27	1.59
269.649	2.13
270.029	2.03
270.408	1.9
270.787	2.15
271.167	2.52
271.546	2.49
271.925	2.5
272.304	1.7
272.683	2.02
273.062	2.57
273.441	1.9
273.82	2.32
274.199	2.41
274.578	2.35
274.957	2.05
275.336	2.22
275.715	2.17
276.093	1.94
276.472	1.65
276.851	2.03
277.229	1.71
277.608	1.36
277.986	2.24
278.365	2.88
278.743	1.71
279.122	1.65
279.5	2.16
279.878	1.81
280.257	1.58
280.635	2.14
281.013	1.49
281.391	2.48
281.769	2.51
282.147	2.06
282.525	2.17
282.903	1.7
283.281	2.15
283.659	2.26
284.037	1.9
284.415	2.07
284.792	2.31
285.17	2.16
285.548	1.9
285.925	1.97
286.303	2.39
286.68	2.17
287.058	2.13
287.435	2.07
287.813	2.02
288.19	1.93
288.567	1.61
288.945	1.81
289.322	2.03
289.699	2.07
290.076	2.37
290.453	1.95
290.83	2.12
291.207	2.43
291.584	2.5
291.961	2.1
292.338	1.88
292.715	2
293.092	2.3
293.469	1.82
293.845	2.46
294.222	2.1
294.599	1.54
294.975	1.55
295.352	2.6
295.728	2.24
296.105	2.25
296.481	2.37
296.858	1.98
297.234	1.68
297.61	1.88
297.986	2.33
298.363	2.24
298.739	2.51
299.115	2.25
299.491	2.46
299.867	1.89
300.243	2.01
300.619	1.9
300.995	2.28
301.371	1.6
301.746	1.88
302.122	1.97
302.498	1.87
302.874	2.47
303.249	1.85
303.625	1.53
304	2.55
304.376	2.64
304.751	2.31
305.127	2.03
305.502	1.63
305.878	2.47
306.253	1.57
306.628	2.25
307.003	2.56
307.378	1.85
307.754	2.37
308.129	1.63
308.504	2.01
308.879	1.87
309.254	2.22
309.629	2.65
310.003	1.66
310.378	2.57
310.753	2.29
311.128	2.04
311.502	2.28
311.877	2.28
312.252	2.47
312.626	2.42
313.001	1.88
313.375	2.2
313.75	2.39
314.124	2.42
314.498	2.39
314.873	1.92
315.247	2.62
315.621	2.11
315.995	2.32
316.369	1.91
316.743	1.96
317.117	2.36
317.491	2.42
317.865	1.87
318.239	2.38
318.613	2.27
318.987	1.95
319.361	2.41
319.734	2.39
320.108	2.15
320.482	2.34
320.855	2.17
321.229	2.31
321.602	2.47
321.976	1.72
322.349	2.38
322.723	2.13
323.096	2.25
323.469	1.8
323.843	1.74
324.216	1.97
324.589	2.7
324.962	2.12
325.335	1.88
325.708	1.91
326.081	1.95
326.454	2.15
326.827	2.49
327.2	1.56
327.573	2.42
327.945	1.97
328.318	2
328.691	2.02
329.063	1.92
329.436	2.11
329.809	1.85
330.181	2.67
330.553	2.46
330.926	2.65
331.298	1.94
331.671	2.35
332.043	2.14
332.415	2.14
332.787	2.55
333.159	2.18
333.532	2.48
333.904	1.88
334.276	2.44
334.648	2.26
335.02	2.07
335.391	1.99
335.763	2.22
336.135	2.4
336.507	2.18
336.879	2.36
337.25	1.97
337.622	1.92
337.993	1.79
338.365	2.23
338.736	1.99
339.108	2.12
339.479	2.2
339.851	2.36
340.222	2.33
340.593	1.82
340.964	2.12
341.336	1.89
341.707	1.99
342.078	2.03
342.449	2.26
342.82	2.37
343.191	2.04
343.562	2.5
343.933	2.09
344.303	2.35
344.674	2.5
345.045	2.33
345.416	2.31
345.786	1.95
346.157	2.45
346.527	2.22
346.898	1.75
347.268	2.29
347.639	2.26
348.009	2.2
348.38	1.97
348.75	2.59
349.12	2.3
349.49	2.1
349.861	2.14
350.231	2.07
350.601	2.17
350.971	2.08
351.341	2.68
351.711	1.97
352.081	1.69
352.45	1.74
352.82	1.74
353.19	2.03
353.56	2.12
353.929	2.43
354.299	2.21
354.669	2.41
355.038	2.57
355.408	2.38
355.777	2.52
356.147	2.31
356.516	1.8
356.885	2.26
357.254	2.01
357.624	1.64
357.993	2.32
358.362	2.32
358.731	2.74
359.1	2.25
359.469	2.45
359.838	2.27
360.207	2.02
360.576	2.42
360.945	2.03
361.314	2.47
361.682	2.08
362.051	2.3
362.42	2.17
362.788	2.43
363.157	2.07
363.525	2.33
363.894	2.16
364.262	2.53
364.631	2.52
364.999	2.35
365.367	2.34
365.735	2.23
366.104	2.33
366.472	2.23
366.84	2.23
367.208	2.44
367.576	2.09
367.944	2.35
368.312	2.38
368.68	2.89
369.048	2.15
369.416	2.14
369.783	2.34
370.151	2.74
370.519	2.48
370.886	2.47
371.254	2.54
371.621	2.36
371.989	2.46
372.356	2.35
372.724	2.42
373.091	2.06
373.458	2.31
373.826	2.41
374.193	2.61
374.56	2.48
374.927	2.28
375.294	2.31
375.661	2.55
376.028	2.43
376.395	2.64
376.762	2.06
377.129	2.16
377.496	2.31
377.863	2.29
378.229	2.66
378.596	2.52
378.963	2.45
379.329	2.34
379.696	2.32
380.062	2.33
380.429	2.26
380.795	2.51
381.161	2.36
381.528	2.19
381.894	2.41
382.26	2.42
382.626	2.38
382.993	2.47
383.359	2.41
383.725	2.33
384.091	2.7
384.457	2.38
384.823	2.55
385.188	2.53
385.554	2.41
385.92	2.12
386.286	2.43
386.651	2.2
387.017	2.82
387.383	2.2
387.748	2.64
388.114	2.66
388.479	2.52
388.845	2.17
389.21	2.75
389.575	2.51
389.94	2.65
390.306	2.46
390.671	2.33
391.036	2.31
391.401	2.65
391.766	2.44
392.131	2.61
392.496	2.78
392.861	2.57
393.226	2.31
393.591	2.59
393.956	2.57
394.32	2.58
394.685	2.56
395.05	2.38
395.414	2.5
395.779	2.66
396.143	2.26
396.508	2.38
396.872	2.36
397.236	2.7
397.601	2.52
397.965	2.66
398.329	2.57
398.694	2.59
399.058	2.38
399.422	2.54
399.786	2.44
400.15	2.63
400.514	2.61
400.878	2.61
401.242	2.65
401.605	2.56
401.969	2.49
402.333	2.52
402.697	2.56
403.06	2.53
403.424	2.59
403.787	2.79
404.151	2.46
404.514	2.56
404.878	2.49
405.241	2.66
405.604	2.57
405.968	2.56
406.331	2.71
406.694	2.62
407.057	2.45
407.42	2.56
407.783	2.73
408.146	2.51
408.509	2.68
408.872	2.52
409.235	2.38
409.598	2.65
409.961	2.53
410.323	2.44
410.686	2.55
411.049	2.7
411.411	2.57
411.774	2.64
412.136	2.59
412.499	2.76
412.861	2.47
413.223	2.6
413.586	2.71
413.948	2.77
414.31	2.61
414.672	2.43
415.035	2.79
415.397	2.58
415.759	2.42
416.121	2.69
416.483	2.63
416.845	2.42
417.206	2.52
417.568	2.51
417.93	2.69
418.292	2.63
418.653	2.56
419.015	2.54
419.377	2.44
419.738	2.66
420.1	2.54
420.461	2.49
420.822	2.58
421.184	2.54
421.545	2.61
421.906	2.65
422.267	2.54
422.629	2.6
422.99	2.53
423.351	2.57
423.712	2.7
424.073	2.62
424.434	2.71
424.795	2.52
425.155	2.53
425.516	2.5
425.877	2.58
426.238	2.58
426.598	2.55
426.959	2.53
427.32	2.52
427.68	2.61
428.041	2.62
428.401	2.58
428.761	2.77
429.122	2.74
429.482	2.49
429.842	2.59
430.202	2.78
430.563	2.72
430.923	2.64
431.283	2.67
431.643	2.86
432.003	2.8
432.363	2.92
432.722	2.72
433.082	2.68
433.442	2.8
433.802	2.63
434.161	2.57
434.521	2.62
434.881	2.71
435.24	2.7
435.6	2.77
435.959	2.77
436.319	2.75
436.678	2.79
437.037	2.73
437.396	2.8
437.756	2.57
438.115	2.78
438.474	2.68
438.833	2.64
439.192	2.82
439.551	2.69
439.91	2.69
440.269	2.79
440.628	2.67
440.987	2.76
441.345	2.7
441.704	2.73
442.063	2.61
442.421	2.73
442.78	2.68
443.138	2.71
443.497	2.72
443.855	2.84
444.214	2.63
444.572	2.84
444.93	2.66
445.288	2.73
445.647	2.6
446.005	2.72
446.363	2.76
446.721	2.75
447.079	2.57
447.437	2.68
447.795	2.74
448.153	2.74
448.51	2.77
448.868	2.62
449.226	2.66
449.584	2.69
449.941	2.65
450.299	2.67
450.656	2.8
451.014	2.73
451.371	2.88
451.729	2.73
452.086	2.9
452.443	2.88
452.801	2.82
453.158	2.92
453.515	2.62
453.872	2.77
454.229	2.69
454.586	2.61
454.943	2.77
455.3	2.77
455.657	2.53
456.014	2.78
456.371	2.74
456.727	2.88
457.084	2.9
457.441	2.92
457.797	2.81
458.154	2.71
458.51	2.8
458.867	2.75
459.223	2.74
459.58	2.8
459.936	2.8
460.292	2.72
460.648	2.77
461.005	2.74
461.361	2.78
461.717	2.7
462.073	2.8
462.429	2.82
462.785	2.9
463.141	2.82
463.496	2.86
463.852	2.84
464.208	2.85
464.564	2.84
464.919	2.85
465.275	2.82
465.631	3.06
465.986	3.05
466.342	2.76
466.697	2.8
467.052	3.08
467.408	2.94
467.763	2.83
468.118	2.75
468.473	3.03
468.829	2.87
469.184	3.01
469.539	2.82
469.894	3.06
470.249	2.9
470.603	3.12
470.958	3.01
471.313	2.99
471.668	2.86
472.023	3.02
472.377	2.8
472.732	3.05
473.086	2.89
473.441	2.76
473.795	3.08
474.15	2.76
474.504	2.86
474.859	2.85
475.213	2.97
475.567	2.94
475.921	2.97
476.275	3.14
476.63	3.05
476.984	2.86
477.338	2.91
477.692	2.88
478.045	2.89
478.399	2.95
478.753	2.84
479.107	3.03
479.461	2.94
479.814	2.96
480.168	2.96
480.521	3.04
480.875	2.95
481.228	2.9
481.582	2.99
481.935	3.06
482.289	3.02
482.642	3.08
482.995	2.9
483.348	2.83
483.701	2.96
484.055	2.87
484.408	2.92
484.761	2.84
485.114	2.73
485.466	2.69
485.819	2.73
486.172	2.8
486.525	2.85
486.878	2.91
487.23	2.89
487.583	2.92
487.936	2.86
488.288	2.87
488.641	2.82
488.993	2.77
489.345	2.79
489.698	2.82
490.05	2.85
490.402	2.85
490.754	2.93
491.107	2.89
491.459	3
491.811	2.97
492.163	2.94
492.515	2.89
492.866	2.83
493.218	2.84
493.57	2.91
493.922	2.9
494.274	2.98
494.625	2.99
494.977	2.99
495.328	3
495.68	3.03
496.031	2.87
496.383	2.81
496.734	3
497.086	3.01
497.437	3.04
497.788	3.04
498.139	2.99
498.49	2.98
498.842	3.07
499.193	2.92
499.544	3.04
499.894	3.03
500.245	3.07
500.596	3.07
500.947	2.85
501.298	3.05
501.648	3.09
501.999	3.17
502.35	3.05
502.7	3.18
503.051	3.15
503.401	3
503.752	2.96
504.102	2.94
504.452	2.85
504.803	3.13
505.153	3.06
505.503	3.05
505.853	3.08
506.203	3.07
506.553	3.11
506.903	3.16
507.253	3.11
507.603	3.04
507.953	3.08
508.303	3.17
508.652	3.03
509.002	3.11
509.352	2.98
509.701	3
510.051	3.14
510.4	3.09
510.75	3.04
511.099	2.95
511.449	3.04
511.798	3.06
512.147	3.05
512.496	3.14
512.846	2.98
513.195	2.97
513.544	3.16
513.893	3.11
514.242	3.05
514.591	3
514.939	3.12
515.288	3.25
515.637	3.09
515.986	3.14
516.334	3.12
516.683	3.12
517.032	3.2
517.38	3
517.729	3.11
518.077	3.07
518.426	3.18
518.774	3.09
519.122	3.09
519.47	3.04
519.819	3.06
520.167	3
520.515	3.1
520.863	3.02
521.211	3.08
521.559	3
521.907	3.07
522.255	3.02
522.602	3.09
522.95	3.14
523.298	3.1
523.645	3.05
523.993	3.09
524.341	3.23
524.688	3.03
525.036	3.16
525.383	3.1
525.73	2.95
526.078	3.2
526.425	3.02
526.772	3.02
527.119	3.05
527.466	3.12
527.814	3.07
528.161	3.14
528.508	3.13
528.854	3.09
529.201	3.03
529.548	3
529.895	2.95
530.242	2.91
530.588	2.92
530.935	3
531.282	3
531.628	3.08
531.975	3.03
532.321	3.04
532.667	3.13
533.014	3.16
533.36	3.17
533.706	3.2
534.052	3.14
534.399	3.06
534.745	3.03
535.091	2.97
535.437	3.06
535.783	3.04
536.129	3.1
536.474	3.17
536.82	3.16
537.166	3.08
537.512	3.15
537.857	3.07
538.203	2.99
538.549	3.04
538.894	3.11
539.239	3.2
539.585	3.26
539.93	3.17
540.276	3.19
540.621	3.21
540.966	3.14
541.311	3.12
541.656	3.11
542.001	3.13
542.346	3.04
542.691	3.02
543.036	3
543.381	3
543.726	3.13
544.071	3.09
544.415	3.12
544.76	3.12
545.105	3.12
545.449	3.1
545.794	3.16
546.138	3.05
546.483	3.25
546.827	3.16
547.171	3.21
547.516	3.17
547.86	3.19
548.204	3.25
548.548	3.16
548.892	3.17
549.236	3.25
549.58	3.27
549.924	3.32
550.268	3.18
550.612	3.21
550.956	3.3
551.3	3.45
551.643	3.09
551.987	3.35
552.33	3.48
552.674	3.38
553.017	3.29
553.361	3.29
553.704	3.35
554.048	3.23
554.391	3.38
554.734	3.22
555.077	3.21
555.42	3.11
555.764	3.2
556.107	3.25
556.45	3.25
556.793	3.42
557.135	3.2
557.478	3.29
557.821	3.29
558.164	3.42
558.507	3.15
558.849	3.32
559.192	3.36
559.534	3.27
559.877	3.27
560.219	3.28
560.562	3.23
560.904	3.46
561.246	3.35
561.589	3.46
561.931	3.39
562.273	3.26
562.615	3.3
562.957	3.2
563.299	3.41
563.641	3.39
563.983	3.26
564.325	3.35
564.667	3.37
565.008	3.07
565.35	3.08
565.692	3.29
566.033	3.05
566.375	3.37
566.716	3.21
567.058	3.25
567.399	3.29
567.741	3.21
568.082	3.28
568.423	3.11
568.764	3.31
569.105	3.2
569.447	3.18
569.788	3.3
570.129	3.42
570.47	3.16
570.811	3.25
571.151	3.46
571.492	3.27
571.833	3.25
572.174	3.49
572.514	3.39
572.855	3.44
573.195	3.21
573.536	3.29
573.876	3.22
574.217	3.2
574.557	3.25
574.898	3.27
575.238	3.4
575.578	3.35
575.918	3.31
576.258	3.41
576.598	3.22
576.938	3.27
577.278	3.18
577.618	3.36
577.958	3.32
578.298	3.26
578.638	3.25
578.977	3.28
579.317	3.37
579.657	3.27
579.996	3.34
580.336	3.34
580.675	3.32
581.014	3.42
581.354	3.22
581.693	3.3
582.032	3.65
582.372	3.43
582.711	3.48
583.05	3.39
583.389	3.33
583.728	3.56
584.067	3.15
584.406	3.54
584.745	3.3
585.083	3.39
585.422	3.77
585.761	3.4
586.1	3.41
586.438	3.29
586.777	3.41
587.115	3.55
587.454	3.39
587.792	3.42
588.13	3.28
588.469	3.31
588.807	3.56
589.145	3.53
589.483	3.26
589.821	3.56
590.159	3.44
590.497	3.42
590.835	3.43
591.173	3.48
591.511	3.61
591.849	3.67
592.187	3.48
592.524	3.43
592.862	3.44
593.2	3.4
593.537	3.34
593.875	3.36
594.212	3.31
594.55	3.25
594.887	3.77
595.224	3.57
595.561	3.41
595.899	3.49
596.236	3.6
596.573	3.27
596.91	3.38
597.247	3.6
597.584	3.45
597.921	3.38
598.258	3.55
598.594	3.33
598.931	3.27
599.268	3.25
599.604	3.46
599.941	3.42
600.277	3.47
600.614	3.48
600.95	3.43
601.287	3.42
601.623	3.31
601.959	3.61
602.296	3.28
602.632	3.58
602.968	3.34
603.304	3.43
603.64	3.34
603.976	3.19
604.312	3.46
604.648	3.4
604.984	3.53
605.319	3.35
605.655	3.47
605.991	3.32
606.326	3.42
606.662	3.3
606.998	3.53
607.333	3.3
607.668	3.36
608.004	3.57
608.339	3.55
608.674	3.49
609.01	3.68
609.345	3.47
609.68	3.39
610.015	3.46
610.35	3.71
610.685	3.33
611.02	3.33
611.355	3.5
611.689	3.4
612.024	3.45
612.359	3.66
612.694	3.67
613.028	3.43
613.363	3.5
613.697	3.45
614.032	3.6
614.366	3.39
614.7	3.54
615.035	3.66
615.369	3.59
615.703	3.33
616.037	3.76
616.371	3.23
616.705	3.69
617.039	3.5
617.373	3.57
617.707	3.53
618.041	3.57
618.375	3
618.709	3.77
619.042	3.69
619.376	3.64
619.71	3.59
620.043	3.71
620.377	3.41
620.71	3.29
621.043	3.89
621.377	3.56
621.71	3.79
622.043	3.68
622.376	3.43
622.709	3.88
623.043	3.92
623.376	3.32
623.709	3.84
624.041	3.55
624.374	3.67
624.707	3.65
625.04	3.52
625.373	3.81
625.705	3.61
626.038	3.68
626.37	3.54
626.703	3.88
627.035	3.51
627.368	3.74
627.7	3.77
628.032	3.66
628.365	3.85
628.697	3.96
629.029	3.59
629.361	3.73
629.693	3.55
630.025	3.66
630.357	3.42
630.689	3.74
631.021	3.93
631.353	3.57
631.684	3.56
632.016	3.37
632.348	3.28
632.679	3.75
633.011	3.36
633.342	3.68
633.674	3.46
634.005	3.9
634.336	3.76
634.668	3.65
634.999	3.26
635.33	3.74
635.661	3.34
635.992	3.79
636.323	3.69
636.654	3.69
636.985	3.49
637.316	3.52
637.647	3.72
637.977	3.57
638.308	3.67
638.639	3.52
638.969	3.54
639.3	3.85
639.63	3.66
639.961	3.79
640.291	3.5
640.622	4.02
640.952	3.59
641.282	3.52
641.612	3.51
641.943	3.39
642.273	3.66
642.603	3.78
642.933	4.29
643.263	3.76
643.592	3.9
643.922	4.29
644.252	3.91
644.582	3.62
644.911	3.79
645.241	3.63
645.571	3.99
645.9	3.91
646.23	3.79
646.559	3.68
646.888	4.34
647.218	4.14
647.547	3.9
647.876	3.55
648.205	3.36
648.534	3.83
648.863	3.82
649.192	4.03
649.521	4.1
649.85	3.9
650.179	3.72
650.508	3.92
650.837	4.13
651.165	3.82
651.494	3.71
651.822	3.97
652.151	3.93
652.479	3.88
652.808	3.74
653.136	3.37
653.465	3.8
653.793	4.02
654.121	3.47
654.449	3.53
654.777	3.64
655.105	3.18
655.433	3.94
655.761	3.94
656.089	3.8
656.417	4.24
656.745	4.01
657.073	3.78
657.4	3.5
657.728	3.42
658.056	3.6
658.383	3.93
658.711	3.84
659.038	4.16
659.365	3.91
659.693	4.28
660.02	3.82
660.347	3.87
660.674	3.77
661.001	3.66
661.329	3.77
661.656	3.37
661.982	3.8
662.309	3.59
662.636	3.64
662.963	3.59
663.29	4.21
663.616	3.28
663.943	3.22
664.27	3.54
664.596	3.32
664.923	3.87
665.249	4.11
665.576	3.76
665.902	3.66
666.228	4.23
666.554	4.53
666.881	3.56
667.207	3.5
667.533	3.64
667.859	3.89
668.185	3.91
668.511	4.46
668.837	3.67
669.162	4.31
669.488	3.32
669.814	3.47
670.139	3.34
670.465	4.48
670.791	3.34
671.116	3.49
671.442	3.45
671.767	3.85
672.092	3.97
672.418	4.26
672.743	3.47
673.068	3.77
673.393	3.84
673.718	3.39
674.043	3.52
674.368	3.76
674.693	4.01
675.018	4.41
675.343	4.51
675.667	3.76
675.992	4.08
676.317	3.14
676.641	4.39
676.966	3.82
677.29	4.13
677.615	4.12
677.939	4.16
678.264	3.78
678.588	4.17
678.912	3.51
679.236	4.32
679.56	3.47
679.885	3.62
680.209	4.29
680.532	4.79
680.856	4.05
681.18	4.84
681.504	4.09
681.828	3.61
682.152	3.82
682.475	3.82
682.799	3.51
683.122	3.76
683.446	3.49
683.769	4.46
684.093	4.51
684.416	3.37
684.739	4
685.062	3.95
685.386	3.7
685.709	3.76
686.032	4.25
686.355	3.91
686.678	4.66
687.001	4.16
687.324	3.71
687.646	3.64
687.969	3.81
688.292	4.37
688.614	3.74
688.937	4.32
689.26	4.52
689.582	4.06
689.904	4.19
690.227	4.27
690.549	3.86
690.871	3.84
691.194	3.59
691.516	3.8
691.838	4.24
692.16	3.78
692.482	4.11
692.804	3.85
