Data from 21-4_chest_Reflection__1__136.txt Node

Date: Thu Dec 15 17:33:23 CST 2022
User: ToomeyLab
Spectrometer: FLMS14357
Trigger mode: 0
Integration Time (sec): 1.000000E-2
Scans to average: 100
Electric dark correction enabled: true
Nonlinearity correction enabled: false
Boxcar width: 0
XAxis mode: Wavelengths
Number of Pixels in Spectrum: 2048
>>>>>Begin Spectral Data<<<<<
189.047	76.7
189.435	76.7
189.823	76.7
190.211	38.05
190.599	233.35
190.987	-33.43
191.375	12.17
191.763	108.72
192.151	189.45
192.538	185.54
192.926	56.41
193.314	52.89
193.702	114.11
194.089	-152.59
194.477	161.17
194.864	-446.74
195.252	-92.8
195.639	79.91
196.027	20.24
196.414	29.76
196.801	410.82
197.189	60.08
197.576	-5.52
197.963	38.33
198.351	5.73
198.738	-51.43
199.125	-47.26
199.512	37.61
199.899	-2.19
200.286	-29.11
200.673	62
201.06	23.26
201.447	-5.81
201.833	29.79
202.22	64.7
202.607	-23.85
202.994	9.31
203.38	69.84
203.767	22.2
204.154	57.02
204.54	35.32
204.927	22.91
205.313	15.28
205.699	29.13
206.086	30
206.472	54.51
206.858	-14.15
207.245	-0.8
207.631	-24.54
208.017	47.35
208.403	2.64
208.789	14.81
209.175	-10.49
209.561	28.85
209.947	-17.69
210.333	9.31
210.719	26.18
211.105	35.48
211.491	16.58
211.876	-12.3
212.262	2.31
212.648	13.67
213.034	-12.96
213.419	2.24
213.805	2.41
214.19	4.23
214.576	19.19
214.961	11.95
215.346	10.12
215.732	-1.76
216.117	1.7
216.502	-7.83
216.888	24.27
217.273	14.26
217.658	-8.2
218.043	26.54
218.428	-21.62
218.813	0.06
219.198	-30.41
219.583	-2.58
219.968	5.29
220.353	-21.24
220.738	2.74
221.122	10.77
221.507	12.51
221.892	-23.8
222.276	1.67
222.661	-4.36
223.046	-13.79
223.43	10.59
223.815	-0.23
224.199	-1.05
224.583	5.9
224.968	-2.25
225.352	-1.91
225.736	17.31
226.121	6.2
226.505	1.02
226.889	0.82
227.273	-7.5
227.657	5.79
228.041	8.65
228.425	-0.74
228.809	0.69
229.193	5.34
229.577	4.29
229.961	4
230.344	4.76
230.728	5.22
231.112	6.16
231.495	3.36
231.879	3.01
232.263	4.77
232.646	4.83
233.03	5.09
233.413	5.34
233.797	2.18
234.18	4.96
234.563	4.79
234.946	4.55
235.33	3.71
235.713	5.41
236.096	5.28
236.479	5.55
236.862	5.07
237.245	3.56
237.628	4.74
238.011	5.99
238.394	2.88
238.777	4.28
239.16	5.29
239.543	4.69
239.925	4.41
240.308	2.05
240.691	3.44
241.073	4.64
241.456	5.54
241.838	4.22
242.221	4.21
242.603	5.26
242.986	4.78
243.368	4.99
243.75	4.47
244.133	5.15
244.515	4.8
244.897	4.65
245.279	4.72
245.661	5.59
246.043	5.73
246.425	5.15
246.807	5.54
247.189	5.12
247.571	5.04
247.953	5.25
248.335	5.2
248.717	5.16
249.098	5.13
249.48	5.17
249.862	5.25
250.243	5.21
250.625	5.45
251.006	6.24
251.388	5.1
251.769	5
252.151	5.68
252.532	4.48
252.913	4.99
253.295	4.93
253.676	4.92
254.057	5.19
254.438	5.5
254.819	5.44
255.2	5.7
255.581	5.99
255.962	6.64
256.343	5.59
256.724	5.33
257.105	4.76
257.486	4.19
257.867	5.48
258.247	5.24
258.628	5.99
259.009	5.2
259.389	4.47
259.77	4.79
260.15	5.66
260.531	5.17
260.911	4.95
261.292	4.87
261.672	4.75
262.052	5.02
262.432	4.6
262.813	4.72
263.193	5.1
263.573	4.81
263.953	4.42
264.333	4.89
264.713	5.06
265.093	4.12
265.473	4.22
265.853	5.46
266.233	4.44
266.612	4.75
266.992	4.46
267.372	5.24
267.752	5.34
268.131	4.41
268.511	4.83
268.89	5.19
269.27	4.23
269.649	4.49
270.029	4.51
270.408	4.19
270.787	4.68
271.167	4.92
271.546	4.89
271.925	4.7
272.304	5.27
272.683	4.31
273.062	4.72
273.441	4.72
273.82	4.69
274.199	4.51
274.578	4.77
274.957	4.6
275.336	5.05
275.715	4.87
276.093	4.94
276.472	4.27
276.851	4.41
277.229	4.28
277.608	3.76
277.986	4.79
278.365	4.99
278.743	4.48
279.122	4.21
279.5	4.57
279.878	4.31
280.257	4.74
280.635	4.38
281.013	4.11
281.391	3.95
281.769	4.98
282.147	4.44
282.525	4.46
282.903	4.14
283.281	5.11
283.659	4.73
284.037	4.26
284.415	4.45
284.792	4.74
285.17	4.73
285.548	4.47
285.925	4.25
286.303	4.95
286.68	4.38
287.058	4.7
287.435	4.5
287.813	4.54
288.19	4.47
288.567	4.7
288.945	4.66
289.322	4.81
289.699	4.92
290.076	4.83
290.453	4.45
290.83	5.09
291.207	4.47
291.584	5.28
291.961	5.15
292.338	4.81
292.715	5.06
293.092	5.32
293.469	4.9
293.845	4.99
294.222	5.75
294.599	5.3
294.975	4.94
295.352	5.79
295.728	4.89
296.105	5.36
296.481	5.26
296.858	5.23
297.234	4.85
297.61	5.26
297.986	5.79
298.363	5.86
298.739	5.87
299.115	5.56
299.491	5.91
299.867	5.52
300.243	5.75
300.619	5.3
300.995	5.8
301.371	5.82
301.746	5.6
302.122	5.38
302.498	5.64
302.874	5.85
303.249	6.18
303.625	5.22
304	6
304.376	6.47
304.751	5.5
305.127	5.52
305.502	6.19
305.878	5.51
306.253	5.78
306.628	6.03
307.003	5.71
307.378	5.59
307.754	6.3
308.129	5.9
308.504	5.86
308.879	5.92
309.254	6.04
309.629	5.85
310.003	5.86
310.378	6.44
310.753	6.49
311.128	5.73
311.502	6.17
311.877	5.69
312.252	6.46
312.626	6.3
313.001	6.32
313.375	6.37
313.75	6.08
314.124	6.43
314.498	6.39
314.873	5.36
315.247	5.78
315.621	6.31
315.995	6.48
316.369	6.12
316.743	5.83
317.117	5.77
317.491	5.83
317.865	5.93
318.239	6.36
318.613	5.74
318.987	5.89
319.361	6.13
319.734	6.68
320.108	5.93
320.482	6.6
320.855	6.04
321.229	5.97
321.602	6.04
321.976	6.19
322.349	6.8
322.723	6.56
323.096	5.79
323.469	5.8
323.843	5.69
324.216	6.35
324.589	6.57
324.962	6.12
325.335	5.81
325.708	6.09
326.081	6.3
326.454	6.68
326.827	6.48
327.2	5.91
327.573	6.79
327.945	6.28
328.318	6.24
328.691	5.93
329.063	6.12
329.436	5.8
329.809	6.01
330.181	7.27
330.553	6.63
330.926	6.95
331.298	6.1
331.671	6.54
332.043	5.7
332.415	6.42
332.787	6.08
333.159	5.96
333.532	6.79
333.904	6.57
334.276	6.06
334.648	6.3
335.02	6.07
335.391	6.34
335.763	6.78
336.135	6.5
336.507	6.14
336.879	6.39
337.25	6.28
337.622	6.35
337.993	6.42
338.365	6.57
338.736	6.52
339.108	6.42
339.479	6.47
339.851	6.57
340.222	6.63
340.593	6.64
340.964	6.65
341.336	5.91
341.707	6.81
342.078	6.32
342.449	6.13
342.82	6.32
343.191	6.27
343.562	6.34
343.933	6.11
344.303	6.47
344.674	6.43
345.045	6.42
345.416	6.69
345.786	6.42
346.157	6.56
346.527	6.6
346.898	6.14
347.268	6.82
347.639	6.19
348.009	6.62
348.38	6.16
348.75	6.52
349.12	6.53
349.49	6.73
349.861	6.31
350.231	6.2
350.601	6.21
350.971	6.35
351.341	6.5
351.711	6.3
352.081	6.24
352.45	5.81
352.82	5.96
353.19	6.44
353.56	6.05
353.929	6.37
354.299	6.63
354.669	6.72
355.038	6.77
355.408	6.4
355.777	6.34
356.147	6.58
356.516	6.17
356.885	6.37
357.254	6.02
357.624	6.07
357.993	6.27
358.362	6.16
358.731	6.66
359.1	6.35
359.469	6.6
359.838	6.72
360.207	6.46
360.576	6.38
360.945	6.43
361.314	6.1
361.682	6.21
362.051	6.29
362.42	6.61
362.788	6.47
363.157	6.28
363.525	6.26
363.894	6.32
364.262	6.49
364.631	6.61
364.999	6.27
365.367	6.49
365.735	6.34
366.104	6.16
366.472	6.16
366.84	6.53
367.208	6.77
367.576	6.08
367.944	6.4
368.312	6.13
368.68	6.79
369.048	6.5
369.416	6.17
369.783	6.46
370.151	6.79
370.519	6.93
370.886	6.52
371.254	6.51
371.621	6.57
371.989	6.9
372.356	6.24
372.724	6.48
373.091	6.33
373.458	6.22
373.826	6.41
374.193	6.38
374.56	6.64
374.927	6.58
375.294	6.37
375.661	6.47
376.028	6.56
376.395	6.76
376.762	6.45
377.129	6.45
377.496	6.52
377.863	6.76
378.229	6.71
378.596	6.76
378.963	6.45
379.329	6.46
379.696	6.72
380.062	6.44
380.429	6.19
380.795	6.64
381.161	6.35
381.528	6.37
381.894	6.49
382.26	6.65
382.626	6.76
382.993	6.66
383.359	6.51
383.725	6.45
384.091	6.67
384.457	6.52
384.823	6.69
385.188	6.72
385.554	6.55
385.92	6.55
386.286	6.87
386.651	6.46
387.017	6.79
387.383	6.62
387.748	6.6
388.114	6.6
388.479	6.45
388.845	6.43
389.21	6.9
389.575	6.77
389.94	6.77
390.306	6.75
390.671	6.8
391.036	6.48
391.401	6.62
391.766	6.51
392.131	6.82
392.496	6.6
392.861	6.67
393.226	6.53
393.591	6.8
393.956	6.69
394.32	6.74
394.685	6.71
395.05	6.76
395.414	6.7
395.779	6.73
396.143	6.69
396.508	6.6
396.872	6.46
397.236	6.88
397.601	6.87
397.965	6.64
398.329	6.65
398.694	6.49
399.058	6.82
399.422	6.62
399.786	6.63
400.15	6.57
400.514	6.59
400.878	6.72
401.242	6.8
401.605	6.68
401.969	6.62
402.333	6.75
402.697	6.83
403.06	6.88
403.424	6.93
403.787	6.77
404.151	6.95
404.514	6.78
404.878	6.67
405.241	6.71
405.604	6.72
405.968	6.84
406.331	6.85
406.694	6.77
407.057	6.68
407.42	6.75
407.783	7.08
408.146	6.94
408.509	6.87
408.872	6.91
409.235	6.95
409.598	6.85
409.961	7.16
410.323	6.86
410.686	6.76
411.049	6.87
411.411	6.72
411.774	6.89
412.136	6.83
412.499	7.03
412.861	6.63
413.223	7
413.586	6.81
413.948	6.99
414.31	6.83
414.672	6.82
415.035	7.04
415.397	6.87
415.759	6.47
416.121	7.01
416.483	6.82
416.845	7.03
417.206	6.97
417.568	6.69
417.93	6.93
418.292	6.62
418.653	6.67
419.015	6.9
419.377	6.83
419.738	6.8
420.1	7.01
420.461	6.7
420.822	6.82
421.184	6.84
421.545	6.96
421.906	6.92
422.267	6.82
422.629	6.71
422.99	6.74
423.351	6.69
423.712	6.83
424.073	6.97
424.434	6.89
424.795	6.88
425.155	6.75
425.516	6.74
425.877	6.86
426.238	6.81
426.598	6.91
426.959	6.89
427.32	6.74
427.68	6.98
428.041	7.07
428.401	7.06
428.761	7.03
429.122	7.04
429.482	6.99
429.842	7.05
430.202	6.93
430.563	7.07
430.923	7.02
431.283	7.12
431.643	7.09
432.003	7.1
432.363	7.18
432.722	7.16
433.082	7.27
433.442	7.16
433.802	6.96
434.161	7.15
434.521	7.16
434.881	7.11
435.24	7.06
435.6	7.16
435.959	7.18
436.319	6.97
436.678	7.16
437.037	7.09
437.396	7.07
437.756	7.06
438.115	7.09
438.474	7.2
438.833	7.11
439.192	7.22
439.551	7.19
439.91	7.06
440.269	7.15
440.628	7.05
440.987	7.1
441.345	7.16
441.704	7.11
442.063	7.17
442.421	7.2
442.78	7.23
443.138	7.01
443.497	7.15
443.855	7.16
444.214	7.08
444.572	7.46
444.93	7.23
445.288	7.21
445.647	7.07
446.005	7.18
446.363	7.15
446.721	7.26
447.079	7.21
447.437	7.17
447.795	7.19
448.153	7.14
448.51	7.14
448.868	7.1
449.226	7.21
449.584	7.24
449.941	7.25
450.299	7.26
450.656	7.32
451.014	7.27
451.371	7.34
451.729	7.46
452.086	7.47
452.443	7.49
452.801	7.32
453.158	7.64
453.515	7.36
453.872	7.4
454.229	7.23
454.586	7.31
454.943	7.5
455.3	7.61
455.657	7.19
456.014	7.46
456.371	7.45
456.727	7.51
457.084	7.49
457.441	7.53
457.797	7.28
458.154	7.39
458.51	7.45
458.867	7.34
459.223	7.45
459.58	7.49
459.936	7.49
460.292	7.43
460.648	7.31
461.005	7.39
461.361	7.34
461.717	7.31
462.073	7.47
462.429	7.5
462.785	7.66
463.141	7.64
463.496	7.55
463.852	7.63
464.208	7.61
464.564	7.53
464.919	7.63
465.275	7.59
465.631	7.79
465.986	7.74
466.342	7.56
466.697	7.66
467.052	7.68
467.408	7.67
467.763	7.75
468.118	7.56
468.473	7.76
468.829	7.59
469.184	7.84
469.539	7.63
469.894	7.7
470.249	7.75
470.603	7.8
470.958	7.82
471.313	7.83
471.668	7.79
472.023	7.88
472.377	7.73
472.732	7.79
473.086	7.62
473.441	7.84
473.795	7.83
474.15	7.97
474.504	7.82
474.859	7.6
475.213	7.78
475.567	7.56
475.921	7.8
476.275	7.84
476.63	7.93
476.984	7.68
477.338	7.9
477.692	7.77
478.045	7.97
478.399	7.76
478.753	7.78
479.107	7.81
479.461	7.89
479.814	7.86
480.168	7.78
480.521	8.07
480.875	7.9
481.228	7.83
481.582	7.83
481.935	7.98
482.289	7.97
482.642	7.87
482.995	7.83
483.348	7.86
483.701	7.79
484.055	7.78
484.408	7.7
484.761	7.7
485.114	7.55
485.466	7.47
485.819	7.51
486.172	7.56
486.525	7.61
486.878	7.65
487.23	7.74
487.583	7.76
487.936	7.8
488.288	7.73
488.641	7.71
488.993	7.66
489.345	7.68
489.698	7.72
490.05	7.72
490.402	7.71
490.754	7.82
491.107	7.88
491.459	7.93
491.811	8
492.163	8.02
492.515	7.89
492.866	7.83
493.218	7.8
493.57	7.85
493.922	7.83
494.274	7.96
494.625	7.99
494.977	8.04
495.328	8.17
495.68	8.27
496.031	8.15
496.383	8.2
496.734	8.17
497.086	8.21
497.437	8.27
497.788	8.26
498.139	8.24
498.49	8.24
498.842	8.24
499.193	8.1
499.544	8.21
499.894	8.18
500.245	8.34
500.596	8.28
500.947	8.27
501.298	8.33
501.648	8.26
501.999	8.46
502.35	8.35
502.7	8.58
503.051	8.39
503.401	8.44
503.752	8.45
504.102	8.39
504.452	8.38
504.803	8.51
505.153	8.5
505.503	8.52
505.853	8.55
506.203	8.52
506.553	8.46
506.903	8.56
507.253	8.49
507.603	8.62
507.953	8.52
508.303	8.68
508.652	8.42
509.002	8.63
509.352	8.64
509.701	8.4
510.051	8.53
510.4	8.67
510.75	8.44
511.099	8.49
511.449	8.58
511.798	8.66
512.147	8.68
512.496	8.62
512.846	8.63
513.195	8.75
513.544	8.72
513.893	8.65
514.242	8.69
514.591	8.68
514.939	8.85
515.288	8.74
515.637	8.75
515.986	8.76
516.334	8.9
516.683	8.79
517.032	8.83
517.38	8.8
517.729	8.91
518.077	8.93
518.426	8.92
518.774	8.81
519.122	8.73
519.47	8.85
519.819	8.74
520.167	8.78
520.515	8.81
520.863	8.76
521.211	8.76
521.559	8.8
521.907	8.89
522.255	8.9
522.602	9.15
522.95	9.04
523.298	9.12
523.645	9.08
523.993	9.11
524.341	9.15
524.688	9.13
525.036	9.11
525.383	9.11
525.73	8.99
526.078	9.11
526.425	9.03
526.772	9.08
527.119	9.03
527.466	9.1
527.814	9.03
528.161	9.06
528.508	9.12
528.854	9.06
529.201	9.03
529.548	8.95
529.895	8.89
530.242	8.84
530.588	8.89
530.935	8.89
531.282	8.87
531.628	9.05
531.975	9.02
532.321	9.13
532.667	9.22
533.014	9.22
533.36	9.34
533.706	9.38
534.052	9.3
534.399	9.24
534.745	9.15
535.091	9.15
535.437	9.17
535.783	9.33
536.129	9.29
536.474	9.42
536.82	9.45
537.166	9.4
537.512	9.56
537.857	9.52
538.203	9.48
538.549	9.42
538.894	9.5
539.239	9.64
539.585	9.57
539.93	9.66
540.276	9.75
540.621	9.77
540.966	9.85
541.311	9.79
541.656	9.71
542.001	9.68
542.346	9.6
542.691	9.5
543.036	9.6
543.381	9.5
543.726	9.61
544.071	9.64
544.415	9.68
544.76	9.68
545.105	9.76
545.449	9.81
545.794	9.79
546.138	9.96
546.483	9.97
546.827	9.9
547.171	10
547.516	10
547.86	9.91
548.204	10.01
548.548	9.97
548.892	9.97
549.236	10.11
549.58	10.12
549.924	10.22
550.268	10.29
550.612	10.39
550.956	10.37
551.3	10.6
551.643	10.22
551.987	10.3
552.33	10.57
552.674	10.32
553.017	10.47
553.361	10.48
553.704	10.49
554.048	10.48
554.391	10.63
554.734	10.47
555.077	10.54
555.42	10.47
555.764	10.53
556.107	10.63
556.45	10.67
556.793	10.72
557.135	10.78
557.478	10.71
557.821	10.72
558.164	10.93
558.507	10.62
558.849	10.95
559.192	10.79
559.534	10.9
559.877	11.01
560.219	10.87
560.562	10.9
560.904	11.04
561.246	10.88
561.589	11.13
561.931	11.08
562.273	10.93
562.615	11.05
562.957	10.9
563.299	10.9
563.641	11
563.983	11.03
564.325	11.03
564.667	11.18
565.008	11.24
565.35	11.21
565.692	11.23
566.033	11.28
566.375	11.17
566.716	11.22
567.058	11.29
567.399	11.3
567.741	11.36
568.082	11.32
568.423	11.24
568.764	11.34
569.105	11.37
569.447	11.48
569.788	11.28
570.129	11.39
570.47	11.52
570.811	11.64
571.151	11.56
571.492	11.61
571.833	11.53
572.174	11.66
572.514	11.6
572.855	11.8
573.195	11.67
573.536	11.64
573.876	11.57
574.217	11.51
574.557	11.58
574.898	11.74
575.238	11.72
575.578	12.04
575.918	11.9
576.258	11.98
576.598	11.75
576.938	11.72
577.278	11.93
577.618	11.91
577.958	11.94
578.298	12.05
578.638	12.02
578.977	11.98
579.317	12.07
579.657	12.03
579.996	12.43
580.336	12.12
580.675	12.14
581.014	12.4
581.354	12.25
581.693	12.34
582.032	12.46
582.372	12.35
582.711	12.46
583.05	12.48
583.389	12.32
583.728	12.73
584.067	12.19
584.406	12.62
584.745	12.51
585.083	12.54
585.422	12.59
585.761	12.61
586.1	12.7
586.438	12.47
586.777	12.78
587.115	12.75
587.454	12.41
587.792	12.67
588.13	12.72
588.469	12.94
588.807	13.07
589.145	12.97
589.483	12.56
589.821	12.96
590.159	13.08
590.497	12.88
590.835	13.16
591.173	13.17
591.511	13.14
591.849	13.02
592.187	12.96
592.524	13.2
592.862	12.9
593.2	13.18
593.537	13.16
593.875	13.35
594.212	13.15
594.55	13.56
594.887	13.36
595.224	13.58
595.561	13.34
595.899	13.22
596.236	13.6
596.573	13.14
596.91	13.35
597.247	13.36
597.584	13.52
597.921	13.44
598.258	13.36
598.594	13.41
598.931	13.33
599.268	13.28
599.604	13.54
599.941	13.51
600.277	13.52
600.614	13.49
600.95	13.57
601.287	13.41
601.623	13.52
601.959	14.06
602.296	13.84
602.632	13.77
602.968	13.59
603.304	14.1
603.64	13.92
603.976	13.85
604.312	14.01
604.648	13.89
604.984	13.97
605.319	13.78
605.655	13.83
605.991	13.83
606.326	14.11
606.662	13.87
606.998	14.11
607.333	14.07
607.668	14.04
608.004	14.09
608.339	14.23
608.674	14.09
609.01	14.64
609.345	14.06
609.68	14.37
610.015	14.38
610.35	14.44
610.685	14.21
611.02	14.26
611.355	14.38
611.689	14.37
612.024	14.5
612.359	14.56
612.694	14.64
613.028	14.39
613.363	14.52
613.697	14.69
614.032	14.7
614.366	14.73
614.7	14.65
615.035	15.02
615.369	14.96
615.703	14.73
616.037	15.09
616.371	14.89
616.705	15.17
617.039	14.97
617.373	15.01
617.707	14.99
618.041	14.71
618.375	14.56
618.709	15.14
619.042	15.04
619.376	15.14
619.71	15.18
620.043	15.54
620.377	15.21
620.71	15.46
621.043	15.19
621.377	15.41
621.71	15.69
622.043	15.56
622.376	15.35
622.709	15.5
623.043	15.24
623.376	15.28
623.709	15.84
624.041	15.41
624.374	15.7
624.707	15.39
625.04	15.28
625.373	15.36
625.705	15.52
626.038	15.92
626.37	15.54
626.703	16
627.035	15.76
627.368	15.76
627.7	15.74
628.032	15.64
628.365	15.89
628.697	15.98
629.029	15.6
629.361	16.05
629.693	15.76
630.025	15.8
630.357	15.77
630.689	15.99
631.021	15.7
631.353	16.09
631.684	15.92
632.016	16.04
632.348	15.65
632.679	16.04
633.011	16.23
633.342	16.06
633.674	16.37
634.005	16.44
634.336	16.61
634.668	16.21
634.999	16.24
635.33	16.5
635.661	16.55
635.992	16.38
636.323	16.39
636.654	16.38
636.985	16.23
637.316	16.38
637.647	16.73
637.977	16.42
638.308	16.61
638.639	16.33
638.969	16.34
639.3	16.58
639.63	16.62
639.961	16.84
640.291	16.78
640.622	16.87
640.952	16.78
641.282	16.27
641.612	16.41
641.943	16.65
642.273	16.7
642.603	17.06
642.933	16.96
643.263	17.14
643.592	17.04
643.922	17.08
644.252	16.96
644.582	17.35
644.911	17.37
645.241	16.88
645.571	17.18
645.9	17.02
646.23	17.58
646.559	17
646.888	17.64
647.218	17.17
647.547	17.47
647.876	17.49
648.205	17.28
648.534	17.61
648.863	17.26
649.192	17.59
649.521	17.34
649.85	18.08
650.179	17.71
650.508	17.41
650.837	17.92
651.165	17.43
651.494	17.56
651.822	17.9
652.151	17.64
652.479	17.52
652.808	17.81
653.136	17.39
653.465	17.56
653.793	17.9
654.121	17.52
654.449	17.55
654.777	17.15
655.105	17.37
655.433	18.16
655.761	18.16
656.089	17.9
656.417	18.05
656.745	18.1
657.073	18.08
657.4	17.86
657.728	17.83
658.056	18.17
658.383	17.99
658.711	18.44
659.038	18.3
659.365	18.11
659.693	18.21
660.02	18.17
660.347	18.35
660.674	18.11
661.001	17.99
661.329	18.12
661.656	17.98
661.982	18.01
662.309	18.32
662.636	18.29
662.963	18.5
663.29	18.55
663.616	18.56
663.943	18.59
664.27	18.53
664.596	18.43
664.923	18.6
665.249	19.07
665.576	18.85
665.902	18.13
666.228	18.68
666.554	19.56
666.881	18.16
667.207	19.32
667.533	18.78
667.859	18.83
668.185	18.93
668.511	19.02
668.837	18.77
669.162	18.47
669.488	18.85
669.814	18.66
670.139	18.59
670.465	19.12
670.791	18.69
671.116	18.53
671.442	18.02
671.767	19.19
672.092	18.9
672.418	18.6
672.743	19.19
673.068	19.2
673.393	19.32
673.718	19.1
674.043	19.51
674.368	18.85
674.693	19.33
675.018	19.94
675.343	19.63
675.667	18.9
675.992	19.36
676.317	18.43
676.641	20.16
676.966	20
677.29	19.36
677.615	19.37
677.939	19.12
678.264	20.17
678.588	20.03
678.912	19.38
679.236	19.13
679.56	19.95
679.885	19.52
680.209	19.57
680.532	19.55
680.856	20.28
681.18	20.26
681.504	20.11
681.828	19.31
682.152	19.51
682.475	19.85
682.799	19.42
683.122	19.89
683.446	19.32
683.769	20.16
