Data from 21-4_forehead_Reflection__2__147.txt Node

Date: Thu Dec 15 17:38:06 CST 2022
User: ToomeyLab
Spectrometer: FLMS14357
Trigger mode: 0
Integration Time (sec): 1.000000E-2
Scans to average: 100
Electric dark correction enabled: true
Nonlinearity correction enabled: false
Boxcar width: 0
XAxis mode: Wavelengths
Number of Pixels in Spectrum: 2048
>>>>>Begin Spectral Data<<<<<
189.047	-99.38
189.435	-99.38
189.823	-99.38
190.211	-34.89
190.599	180.52
190.987	-74.35
191.375	-7.73
191.763	245.94
192.151	134.89
192.538	251.44
192.926	57.02
193.314	49.65
193.702	67.96
194.089	-141.01
194.477	215.19
194.864	-334.32
195.252	93.98
195.639	104.34
196.027	-35.34
196.414	102.82
196.801	240.22
197.189	219.19
197.576	140.7
197.963	-1121.95
198.351	48.2
198.738	-28.12
199.125	-7.03
199.512	15.91
199.899	-16.91
200.286	3.69
200.673	26.98
201.06	13.91
201.447	18.33
201.833	3.43
202.22	-8.82
202.607	15.07
202.994	34.2
203.38	46.88
203.767	2.14
204.154	59.96
204.54	1.53
204.927	19
205.313	20.47
205.699	43
206.086	42.33
206.472	44.34
206.858	30.5
207.245	10.54
207.631	10.84
208.017	50.38
208.403	-3.38
208.789	14.29
209.175	10.03
209.561	-29.64
209.947	2.79
210.333	-0.16
210.719	28.59
211.105	22.93
211.491	27.74
211.876	3.02
212.262	24.9
212.648	28.36
213.034	-18.53
213.419	56.22
213.805	-12.13
214.19	3.2
214.576	5.72
214.961	-7.05
215.346	8.32
215.732	-4.39
216.117	16.78
216.502	-18.07
216.888	7.88
217.273	37.11
217.658	13.36
218.043	-8.57
218.428	-6.86
218.813	2.72
219.198	-13.67
219.583	5.99
219.968	-15.83
220.353	-31.96
220.738	15.41
221.122	8.62
221.507	-5.92
221.892	-47.42
222.276	-16.83
222.661	-11.37
223.046	-11.22
223.43	18.66
223.815	-1.94
224.199	7.41
224.583	-2.54
224.968	1.99
225.352	0.34
225.736	5.11
226.121	4.96
226.505	5.03
226.889	4.58
227.273	-3.63
227.657	6.69
228.041	0.85
228.425	2.87
228.809	4.53
229.193	0.39
229.577	2.48
229.961	1.75
230.344	3.25
230.728	3.23
231.112	3.62
231.495	1.76
231.879	5.05
232.263	2.81
232.646	3.08
233.03	3.81
233.413	3.53
233.797	4.72
234.18	2.76
234.563	3.95
234.946	0.76
235.33	1.52
235.713	3.77
236.096	4.27
236.479	4.27
236.862	3.13
237.245	4.05
237.628	4.54
238.011	2.55
238.394	2.14
238.777	3.53
239.16	3.97
239.543	3.49
239.925	2.56
240.308	2.84
240.691	2.59
241.073	3.28
241.456	2.83
241.838	2.96
242.221	2.4
242.603	3.41
242.986	3.09
243.368	3.03
243.75	3.12
244.133	3.57
244.515	3.02
244.897	3.06
245.279	2.45
245.661	3.6
246.043	4.36
246.425	3.01
246.807	3.32
247.189	2.63
247.571	3.04
247.953	2.83
248.335	3.09
248.717	3.21
249.098	2.98
249.48	2.78
249.862	3.14
250.243	3.24
250.625	2.88
251.006	4.09
251.388	2.04
251.769	2.5
252.151	3.97
252.532	3.27
252.913	3.11
253.295	2.75
253.676	3.55
254.057	2.89
254.438	2.84
254.819	3.17
255.2	3.68
255.581	4.39
255.962	3.89
256.343	3.16
256.724	3.4
257.105	3.32
257.486	2.18
257.867	3.2
258.247	3.32
258.628	3.19
259.009	3.11
259.389	2.87
259.77	3.06
260.15	3.66
260.531	3.41
260.911	3.3
261.292	2.96
261.672	2.88
262.052	3.03
262.432	2.8
262.813	3.06
263.193	3.08
263.573	2.98
263.953	2.27
264.333	3.14
264.713	3.16
265.093	3.03
265.473	2.51
265.853	3.37
266.233	3.37
266.612	2.23
266.992	3.58
267.372	2.89
267.752	3.82
268.131	3.3
268.511	2.8
268.89	3.77
269.27	2.12
269.649	2.47
270.029	3.38
270.408	2.65
270.787	3.27
271.167	3.4
271.546	3.32
271.925	3.78
272.304	3.24
272.683	2.53
273.062	3.08
273.441	2.39
273.82	2.98
274.199	2.85
274.578	3
274.957	3
275.336	3.35
275.715	3.38
276.093	3.28
276.472	2.63
276.851	2.88
277.229	3.16
277.608	2.6
277.986	3.45
278.365	3.22
278.743	3.24
279.122	3.34
279.5	3.08
279.878	3.01
280.257	3.51
280.635	3.21
281.013	2.87
281.391	3
281.769	3.38
282.147	3.18
282.525	2.79
282.903	2.66
283.281	3.13
283.659	3.14
284.037	2.84
284.415	2.82
284.792	3.17
285.17	2.91
285.548	3.35
285.925	3.23
286.303	3.63
286.68	3.15
287.058	3.68
287.435	2.84
287.813	3.08
288.19	2.58
288.567	3.14
288.945	3.2
289.322	3.19
289.699	3.47
290.076	3.16
290.453	2.94
290.83	3.07
291.207	3.46
291.584	3.73
291.961	3.37
292.338	3.16
292.715	3.23
293.092	4.27
293.469	3.78
293.845	3.63
294.222	3.74
294.599	3.44
294.975	3.01
295.352	3.95
295.728	3.58
296.105	3.85
296.481	4.05
296.858	3.43
297.234	3.54
297.61	3.87
297.986	4.09
298.363	3.91
298.739	4.23
299.115	3.99
299.491	4.2
299.867	3.84
300.243	3.97
300.619	3.9
300.995	4.08
301.371	4.44
301.746	4.36
302.122	3.63
302.498	4.09
302.874	4.37
303.249	4.26
303.625	4.44
304	4.4
304.376	4.53
304.751	4.68
305.127	4.47
305.502	4.49
305.878	4.8
306.253	4.13
306.628	5
307.003	4.42
307.378	4.71
307.754	4.94
308.129	5.39
308.504	4.74
308.879	5.02
309.254	5.3
309.629	5.47
310.003	4.78
310.378	5.39
310.753	5.22
311.128	5.07
311.502	5.29
311.877	5.33
312.252	5.18
312.626	5.74
313.001	5.38
313.375	5.41
313.75	5.13
314.124	5.87
314.498	5.79
314.873	5.47
315.247	5.7
315.621	5.57
315.995	5.82
316.369	5.37
316.743	5.71
317.117	5.66
317.491	5.79
317.865	5.32
318.239	6.48
318.613	5.94
318.987	5.92
319.361	6.59
319.734	5.94
320.108	5.87
320.482	6.95
320.855	6.64
321.229	6.38
321.602	6.45
321.976	6.1
322.349	6.66
322.723	6.39
323.096	6.71
323.469	6.54
323.843	5.98
324.216	6.64
324.589	6.12
324.962	6.47
325.335	6.62
325.708	6.76
326.081	6.95
326.454	6.98
326.827	6.83
327.2	6.85
327.573	7.19
327.945	6.72
328.318	6.6
328.691	6.98
329.063	6.8
329.436	6.73
329.809	7.4
330.181	7.91
330.553	7.37
330.926	7.77
331.298	7.27
331.671	7.72
332.043	7.16
332.415	7.51
332.787	7.39
333.159	7.24
333.532	7.46
333.904	7.51
334.276	7.28
334.648	7.57
335.02	7.6
335.391	7.44
335.763	7.7
336.135	7.95
336.507	7.41
336.879	7.76
337.25	7.51
337.622	7.73
337.993	7.25
338.365	7.94
338.736	8
339.108	7.82
339.479	7.89
339.851	8.21
340.222	8.32
340.593	8.21
340.964	8.03
341.336	7.87
341.707	8.21
342.078	7.77
342.449	7.73
342.82	7.83
343.191	7.76
343.562	8.1
343.933	7.94
344.303	8.55
344.674	8.01
345.045	7.85
345.416	8.89
345.786	8.37
346.157	8.27
346.527	8.19
346.898	8.57
347.268	8.47
347.639	8.2
348.009	8.76
348.38	7.75
348.75	8.58
349.12	8.89
349.49	8.82
349.861	8.62
350.231	8.74
350.601	8.95
350.971	8.41
351.341	9.11
351.711	8.34
352.081	8.56
352.45	8.44
352.82	8.67
353.19	9.31
353.56	8.94
353.929	9.27
354.299	9.22
354.669	9.02
355.038	9.22
355.408	8.92
355.777	9.18
356.147	8.83
356.516	8.94
356.885	8.98
357.254	8.93
357.624	8.96
357.993	9.3
358.362	9.28
358.731	9.62
359.1	9.22
359.469	9.59
359.838	9.65
360.207	9.32
360.576	9.4
360.945	9.76
361.314	9.39
361.682	9.31
362.051	9.72
362.42	9.58
362.788	9.47
363.157	9.32
363.525	9.51
363.894	9.39
364.262	9.77
364.631	9.87
364.999	9.78
365.367	9.67
365.735	9.71
366.104	9.66
366.472	9.71
366.84	9.93
367.208	9.98
367.576	9.86
367.944	10.11
368.312	9.86
368.68	10.58
369.048	10.13
369.416	10.27
369.783	10.27
370.151	10.46
370.519	10.54
370.886	10.28
371.254	10.34
371.621	10.59
371.989	10.45
372.356	10.6
372.724	10.34
373.091	10.15
373.458	10.49
373.826	10.55
374.193	10.49
374.56	10.63
374.927	10.4
375.294	10.68
375.661	10.55
376.028	10.63
376.395	10.88
376.762	10.4
377.129	10.66
377.496	10.77
377.863	11.09
378.229	10.76
378.596	10.94
378.963	11.02
379.329	10.96
379.696	10.66
380.062	10.96
380.429	10.88
380.795	11.07
381.161	10.55
381.528	10.8
381.894	10.91
382.26	11.3
382.626	11.22
382.993	11.67
383.359	11.02
383.725	11.06
384.091	11.33
384.457	11.05
384.823	11.55
385.188	11.3
385.554	11.15
385.92	11.33
386.286	11.22
386.651	11.46
387.017	11.74
387.383	11.67
387.748	11.87
388.114	11.77
388.479	11.54
388.845	11.32
389.21	11.7
389.575	11.94
389.94	11.69
390.306	11.86
390.671	11.89
391.036	11.8
391.401	11.62
391.766	11.73
392.131	11.97
392.496	12.05
392.861	11.82
393.226	11.54
393.591	12.08
393.956	12
394.32	12.06
394.685	11.93
395.05	12.32
395.414	12.2
395.779	12.18
396.143	11.98
396.508	11.99
396.872	12.21
397.236	12.33
397.601	12.34
397.965	12.2
398.329	12.24
398.694	12.24
399.058	12.48
399.422	12.43
399.786	12.5
400.15	12.34
400.514	12.63
400.878	12.71
401.242	12.58
401.605	12.54
401.969	12.61
402.333	12.74
402.697	12.73
403.06	12.61
403.424	12.88
403.787	12.5
404.151	12.77
404.514	12.82
404.878	12.48
405.241	12.69
405.604	12.57
405.968	12.81
406.331	12.85
406.694	12.84
407.057	12.73
407.42	12.87
407.783	12.83
408.146	12.92
408.509	13.3
408.872	12.98
409.235	13.08
409.598	13.13
409.961	13.12
410.323	13.18
410.686	13.2
411.049	13.32
411.411	13.26
411.774	13.44
412.136	13.2
412.499	13.36
412.861	13.08
413.223	13.44
413.586	13.43
413.948	13.44
414.31	13.57
414.672	13.32
415.035	13.6
415.397	13.5
415.759	13.43
416.121	13.8
416.483	13.68
416.845	13.36
417.206	13.54
417.568	13.48
417.93	13.41
418.292	13.6
418.653	13.47
419.015	13.63
419.377	13.54
419.738	13.73
420.1	13.52
420.461	13.6
420.822	13.61
421.184	13.68
421.545	13.63
421.906	13.64
422.267	13.65
422.629	13.61
422.99	13.64
423.351	13.73
423.712	13.8
424.073	13.86
424.434	13.83
424.795	13.91
425.155	13.83
425.516	13.83
425.877	13.85
426.238	13.86
426.598	13.89
426.959	14
427.32	14.01
427.68	14.02
428.041	14.23
428.401	14.28
428.761	14.25
429.122	14.24
429.482	14.4
429.842	14.35
430.202	14.47
430.563	14.66
430.923	14.63
431.283	14.63
431.643	14.79
432.003	14.6
432.363	14.59
432.722	14.5
433.082	14.73
433.442	14.85
433.802	14.79
434.161	14.82
434.521	14.67
434.881	14.78
435.24	14.8
435.6	14.78
435.959	14.82
436.319	14.74
436.678	14.93
437.037	14.91
437.396	14.99
437.756	14.94
438.115	14.98
438.474	15.06
438.833	15.11
439.192	15.1
439.551	15.01
439.91	15.09
440.269	15.14
440.628	15.1
440.987	15.1
441.345	15.23
441.704	15.12
442.063	15.16
442.421	15.13
442.78	15.09
443.138	15.25
443.497	15.21
443.855	15.43
444.214	15.17
444.572	15.62
444.93	15.4
445.288	15.48
445.647	15.35
446.005	15.58
446.363	15.57
446.721	15.49
447.079	15.52
447.437	15.48
447.795	15.57
448.153	15.47
448.51	15.55
448.868	15.57
449.226	15.67
449.584	15.72
449.941	15.83
450.299	15.73
450.656	15.77
451.014	15.94
451.371	16.14
451.729	16.13
452.086	15.97
452.443	16.17
452.801	15.95
453.158	16.12
453.515	16.13
453.872	16.27
454.229	15.99
454.586	16.13
454.943	16.38
455.3	16.47
455.657	16.3
456.014	16.31
456.371	16.42
456.727	16.48
457.084	16.58
457.441	16.65
457.797	16.45
458.154	16.69
458.51	16.51
458.867	16.78
459.223	16.6
459.58	16.52
459.936	16.59
460.292	16.59
460.648	16.64
461.005	16.52
461.361	16.44
461.717	16.52
462.073	16.64
462.429	16.72
462.785	16.79
463.141	16.91
463.496	17.04
463.852	17.14
464.208	16.97
464.564	16.95
464.919	17.08
465.275	17.11
465.631	17.23
465.986	17.3
466.342	17.12
466.697	17.19
467.052	17.41
467.408	17.34
467.763	17.29
468.118	17.26
468.473	17.6
468.829	17.21
469.184	17.7
469.539	17.38
469.894	17.51
470.249	17.63
470.603	17.68
470.958	17.55
471.313	17.54
471.668	17.58
472.023	17.79
472.377	17.66
472.732	17.65
473.086	17.78
473.441	17.82
473.795	17.96
474.15	17.65
474.504	17.72
474.859	17.68
475.213	17.99
475.567	17.63
475.921	18.04
476.275	18.04
476.63	18.07
476.984	17.86
477.338	18.26
477.692	18.22
478.045	18.24
478.399	18.24
478.753	18.19
479.107	18.33
479.461	18.3
479.814	18.2
480.168	18.21
480.521	18.52
480.875	18.39
481.228	18.41
481.582	18.34
481.935	18.53
482.289	18.46
482.642	18.39
482.995	18.36
483.348	18.29
483.701	18.34
484.055	18.28
484.408	18.13
484.761	17.88
485.114	17.81
485.466	17.92
485.819	17.95
486.172	17.86
486.525	17.79
486.878	17.93
487.23	18.05
487.583	18.26
487.936	18.2
488.288	18.36
488.641	18.28
488.993	18.2
489.345	18.28
489.698	18.24
490.05	18.31
490.402	18.34
490.754	18.45
491.107	18.6
491.459	18.79
491.811	18.77
492.163	18.91
492.515	18.79
492.866	18.6
493.218	18.68
493.57	18.77
493.922	18.83
494.274	18.78
494.625	18.95
494.977	19.04
495.328	19.16
495.68	19.3
496.031	19.46
496.383	19.47
496.734	19.42
497.086	19.68
497.437	19.65
497.788	19.76
498.139	19.53
498.49	19.57
498.842	19.67
499.193	19.65
499.544	19.57
499.894	19.68
500.245	19.88
500.596	19.89
500.947	19.77
501.298	19.95
501.648	19.98
501.999	20.09
502.35	19.98
502.7	20.25
503.051	20.31
503.401	20.16
503.752	20.06
504.102	19.97
504.452	20.29
504.803	20.23
505.153	20.37
505.503	20.43
505.853	20.42
506.203	20.53
506.553	20.46
506.903	20.61
507.253	20.47
507.603	20.58
507.953	20.62
508.303	20.58
508.652	20.48
509.002	20.73
509.352	20.64
509.701	20.55
510.051	20.75
510.4	20.6
510.75	20.62
511.099	20.7
511.449	20.69
511.798	20.48
512.147	20.82
512.496	20.97
512.846	20.89
513.195	20.93
513.544	20.92
513.893	21.04
514.242	20.97
514.591	20.94
514.939	21.07
515.288	21.17
515.637	21.1
515.986	21.26
516.334	21.28
516.683	21.36
517.032	21.25
517.38	21.34
517.729	21.39
518.077	21.43
518.426	21.51
518.774	21.38
519.122	21.33
519.47	21.29
519.819	21.19
520.167	21.29
520.515	21.34
520.863	21.18
521.211	21.28
521.559	21.33
521.907	21.53
522.255	21.54
522.602	21.71
522.95	21.78
523.298	21.76
523.645	21.94
523.993	21.89
524.341	21.98
524.688	21.95
525.036	21.98
525.383	21.96
525.73	21.96
526.078	22.09
526.425	21.86
526.772	21.82
527.119	21.8
527.466	21.86
527.814	21.9
528.161	21.85
528.508	21.92
528.854	21.84
529.201	21.66
529.548	21.64
529.895	21.62
530.242	21.59
530.588	21.76
530.935	21.64
531.282	21.52
531.628	21.55
531.975	21.71
532.321	21.98
532.667	22.16
533.014	22.3
533.36	22.36
533.706	22.48
534.052	22.33
534.399	22.21
534.745	22.22
535.091	22.2
535.437	22.22
535.783	22.26
536.129	22.28
536.474	22.47
536.82	22.64
537.166	22.55
537.512	22.77
537.857	22.72
538.203	22.83
538.549	22.7
538.894	22.86
539.239	22.95
539.585	22.82
539.93	23
540.276	23.24
540.621	23.31
540.966	23.32
541.311	23.45
541.656	23.25
542.001	23.09
542.346	22.99
542.691	22.86
543.036	22.95
543.381	22.93
543.726	22.86
544.071	22.8
544.415	22.82
544.76	22.98
545.105	23.13
545.449	23.32
545.794	23.33
546.138	23.26
546.483	23.57
546.827	23.55
547.171	23.63
547.516	23.71
547.86	23.67
548.204	23.77
548.548	23.68
548.892	23.77
549.236	23.68
549.58	23.71
549.924	24.02
550.268	24.22
550.612	24.22
550.956	24.53
551.3	24.56
551.643	24.23
551.987	24.67
552.33	24.6
552.674	24.49
553.017	24.66
553.361	24.62
553.704	24.77
554.048	24.55
554.391	24.73
554.734	24.48
555.077	24.7
555.42	24.59
555.764	24.7
556.107	24.75
556.45	24.97
556.793	24.87
557.135	24.86
557.478	24.89
557.821	25.14
558.164	25.14
558.507	25.04
558.849	25.15
559.192	25.28
559.534	24.96
559.877	25.36
560.219	25.08
560.562	25.3
560.904	25.5
561.246	25.43
561.589	25.61
561.931	25.53
562.273	25.43
562.615	25.25
562.957	25.43
563.299	25.63
563.641	25.41
563.983	25.68
564.325	25.75
564.667	25.64
565.008	25.65
565.35	25.65
565.692	25.57
566.033	25.86
566.375	25.79
566.716	25.76
567.058	25.77
567.399	25.76
567.741	25.89
568.082	25.84
568.423	25.82
568.764	25.96
569.105	25.99
569.447	25.91
569.788	25.98
570.129	26.1
570.47	26.03
570.811	26.14
571.151	26.14
571.492	26.36
571.833	26.01
572.174	26.36
572.514	26.25
572.855	26.33
573.195	26.35
573.536	26.16
573.876	26.33
574.217	26.22
574.557	26.17
574.898	26.2
575.238	26.45
575.578	26.47
575.918	26.59
576.258	26.71
576.598	26.62
576.938	26.62
577.278	26.89
577.618	26.63
577.958	26.86
578.298	26.9
578.638	26.7
578.977	26.77
579.317	27.11
579.657	26.94
579.996	27.05
580.336	27
580.675	27.07
581.014	27.36
581.354	27.22
581.693	27.6
582.032	27.53
582.372	27.33
582.711	27.42
583.05	27.52
583.389	27.45
583.728	27.38
584.067	27.26
584.406	27.63
584.745	27.47
585.083	27.59
585.422	27.61
585.761	27.78
586.1	27.57
586.438	27.79
586.777	27.62
587.115	27.73
587.454	27.65
587.792	27.58
588.13	27.9
588.469	27.84
588.807	27.98
589.145	27.86
589.483	27.72
589.821	28.08
590.159	28.15
590.497	28.06
590.835	28.09
591.173	28.41
591.511	28.07
591.849	28.26
592.187	28.35
592.524	28.08
592.862	28.34
593.2	28.23
593.537	28.16
593.875	28.33
594.212	28
594.55	28.3
594.887	28.56
595.224	28.58
595.561	28.39
595.899	28.68
596.236	28.15
596.573	28.4
596.91	28.59
597.247	28.57
597.584	28.55
597.921	28.66
598.258	28.43
598.594	28.43
598.931	28.59
599.268	28.45
599.604	28.35
599.941	28.54
600.277	28.68
600.614	28.56
600.95	28.65
601.287	28.64
601.623	28.84
601.959	29.01
602.296	29.15
602.632	29.28
602.968	29.01
603.304	29.09
603.64	29.05
603.976	28.92
604.312	29.07
604.648	29.16
604.984	29.4
605.319	29.17
605.655	29.19
605.991	28.95
606.326	29.15
606.662	28.97
606.998	29.29
607.333	29.2
607.668	29.27
608.004	29.31
608.339	29.11
608.674	29.34
609.01	29.73
609.345	29.74
609.68	29.58
610.015	29.71
610.35	29.53
610.685	29.44
611.02	29.78
611.355	29.75
611.689	29.77
612.024	29.74
612.359	29.7
612.694	29.67
613.028	29.92
613.363	29.95
613.697	29.9
614.032	29.91
614.366	30.05
614.7	30.02
615.035	30.2
615.369	30.28
615.703	30.23
616.037	30.18
616.371	30.58
616.705	30.51
617.039	30.27
617.373	30.24
617.707	30.33
618.041	30.07
618.375	30.21
618.709	30.74
619.042	30.37
619.376	30.59
619.71	30.68
620.043	30.84
620.377	30.56
620.71	30.88
621.043	30.89
621.377	30.78
621.71	30.89
622.043	30.61
622.376	30.75
622.709	31.22
623.043	30.88
623.376	30.68
623.709	31.11
624.041	30.97
624.374	31.18
624.707	30.93
625.04	30.94
625.373	31.21
625.705	31.38
626.038	31.58
626.37	31.15
626.703	31.21
627.035	31.33
627.368	31.32
627.7	31.61
628.032	31.31
628.365	31.24
628.697	31.61
629.029	31.23
629.361	31.42
629.693	31.26
630.025	31.43
630.357	31.57
630.689	31.49
631.021	31.75
631.353	31.59
631.684	31.3
632.016	31.35
632.348	31.42
632.679	31.68
633.011	31.28
633.342	31.76
633.674	31.67
634.005	31.89
634.336	31.94
634.668	31.47
634.999	32.15
635.33	32.16
635.661	31.73
635.992	31.93
636.323	31.82
636.654	31.68
636.985	31.75
637.316	31.8
637.647	32.24
637.977	32.16
638.308	32.25
638.639	32.07
638.969	32.03
639.3	31.79
639.63	32.19
639.961	32.49
640.291	32.23
640.622	32.33
640.952	32.6
641.282	32.44
641.612	32.42
641.943	31.86
642.273	32.19
642.603	33.06
642.933	32.73
643.263	32.65
643.592	32.12
643.922	32.56
644.252	32.73
644.582	33.07
644.911	32.72
645.241	32.53
645.571	33.11
645.9	32.81
646.23	32.91
646.559	32.55
646.888	33.11
647.218	32.98
647.547	32.88
647.876	32.75
648.205	32.75
648.534	32.92
648.863	32.79
649.192	32.79
649.521	33.29
649.85	33.59
650.179	33.55
650.508	33
650.837	33.22
651.165	32.96
651.494	33.67
651.822	33.6
652.151	33.32
652.479	33.11
652.808	33.35
653.136	33.22
653.465	32.99
653.793	33.54
654.121	33.26
654.449	33.12
654.777	32.85
655.105	33.26
655.433	33.57
655.761	33.49
656.089	33.57
656.417	34
656.745	33.69
657.073	33.81
657.4	33.62
657.728	33.48
658.056	33.82
658.383	33.88
658.711	34.13
659.038	33.8
659.365	34.4
659.693	34.03
660.02	33.73
660.347	34.16
660.674	33.59
661.001	33.89
661.329	33.84
661.656	33.83
661.982	33.47
662.309	33.75
662.636	34.23
662.963	33.89
663.29	34.39
663.616	34.21
663.943	33.5
664.27	34.14
664.596	34.22
664.923	33.83
665.249	34.22
665.576	33.98
665.902	34.23
666.228	34.45
666.554	35.54
666.881	33.96
667.207	34.42
667.533	34.57
667.859	34.51
668.185	34.33
668.511	34.26
668.837	34.16
669.162	34.48
669.488	33.94
669.814	34.96
670.139	34.79
670.465	34.52
670.791	34.51
671.116	34.66
671.442	34.62
671.767	34.51
672.092	34.7
