Data from 21-4_forehead_Reflection__4__149.txt Node

Date: Thu Dec 15 17:38:29 CST 2022
User: ToomeyLab
Spectrometer: FLMS14357
Trigger mode: 0
Integration Time (sec): 1.000000E-2
Scans to average: 100
Electric dark correction enabled: true
Nonlinearity correction enabled: false
Boxcar width: 0
XAxis mode: Wavelengths
Number of Pixels in Spectrum: 2048
>>>>>Begin Spectral Data<<<<<
189.047	-39.16
189.435	-39.16
189.823	-39.16
190.211	-100.39
190.599	159
190.987	73.67
191.375	39.04
191.763	54.45
192.151	94.84
192.538	37.8
192.926	64.78
193.314	9.74
193.702	339.35
194.089	116.17
194.477	240
194.864	-276.49
195.252	40.14
195.639	79.78
196.027	59.18
196.414	-67.71
196.801	685.16
197.189	398.64
197.576	-173.35
197.963	-723.34
198.351	-14.98
198.738	-31.71
199.125	14.02
199.512	16.16
199.899	-4.14
200.286	-33.21
200.673	55.05
201.06	-42.35
201.447	-37.29
201.833	53.04
202.22	-23.68
202.607	-32.78
202.994	18.48
203.38	17.83
203.767	27.02
204.154	40.98
204.54	53.33
204.927	43.81
205.313	11.52
205.699	-11.71
206.086	71.75
206.472	24.38
206.858	27.86
207.245	15.83
207.631	4.51
208.017	29.34
208.403	-35.08
208.789	25.51
209.175	-9.36
209.561	-91.03
209.947	-0.29
210.333	-12.41
210.719	25.84
211.105	10.58
211.491	17.3
211.876	-36.61
212.262	4.41
212.648	-9.65
213.034	-6.45
213.419	11.2
213.805	-27.05
214.19	-12.6
214.576	12.59
214.961	37.68
215.346	-9.69
215.732	16.35
216.117	2.71
216.502	12.49
216.888	9.94
217.273	23.4
217.658	0.66
218.043	-36.28
218.428	-3.61
218.813	-6.37
219.198	-8.4
219.583	7.74
219.968	17.92
220.353	-5.52
220.738	-4.35
221.122	0.48
221.507	-3.86
221.892	-13.89
222.276	-13.81
222.661	-20.28
223.046	-6.41
223.43	8.75
223.815	-2.78
224.199	-3.34
224.583	11.89
224.968	4.72
225.352	-6.22
225.736	4.6
226.121	-1.9
226.505	-2.93
226.889	7.12
227.273	-1.23
227.657	6.95
228.041	0
228.425	2.59
228.809	3.77
229.193	1.33
229.577	4.23
229.961	3.27
230.344	4.28
230.728	4
231.112	4.73
231.495	3
231.879	3.81
232.263	3.14
232.646	3.37
233.03	4.77
233.413	4.32
233.797	2.32
234.18	3.67
234.563	3.83
234.946	1.07
235.33	3.56
235.713	3.29
236.096	5.38
236.479	4.51
236.862	3.26
237.245	2.93
237.628	4.21
238.011	3.04
238.394	1.92
238.777	5.09
239.16	5.63
239.543	5.31
239.925	3.05
240.308	4.88
240.691	4.45
241.073	2.8
241.456	3.55
241.838	3.39
242.221	3.43
242.603	3.8
242.986	4.02
243.368	4.49
243.75	4.05
244.133	4.33
244.515	3.85
244.897	4.33
245.279	4.61
245.661	4.1
246.043	4.25
246.425	4.84
246.807	4.09
247.189	4.48
247.571	4.22
247.953	3.78
248.335	4.17
248.717	4.08
249.098	4.39
249.48	4.15
249.862	4.46
250.243	4.18
250.625	4.56
251.006	4.68
251.388	4.25
251.769	4.46
252.151	4.3
252.532	4.55
252.913	3.92
253.295	4.07
253.676	4.55
254.057	4.11
254.438	4.77
254.819	4.85
255.2	4.7
255.581	6.78
255.962	5.28
256.343	4.06
256.724	4.52
257.105	3.81
257.486	3.25
257.867	3.84
258.247	4.64
258.628	4.15
259.009	4.08
259.389	3.61
259.77	3.68
260.15	4.93
260.531	4.3
260.911	4.36
261.292	4.37
261.672	4.16
262.052	4.2
262.432	4.12
262.813	4.44
263.193	4.61
263.573	4.66
263.953	3.75
264.333	4.67
264.713	4.13
265.093	4.07
265.473	2.78
265.853	3.86
266.233	4.73
266.612	4.41
266.992	4.15
267.372	3.91
267.752	4.99
268.131	3.81
268.511	4.48
268.89	4.93
269.27	3.97
269.649	3.47
270.029	3.78
270.408	4.45
270.787	3.86
271.167	4.73
271.546	5.04
271.925	4.8
272.304	4.27
272.683	4.11
273.062	4.06
273.441	3.4
273.82	4.35
274.199	3.89
274.578	4.5
274.957	4.03
275.336	4
275.715	4.63
276.093	4.33
276.472	3.9
276.851	4.86
277.229	4.35
277.608	3.98
277.986	4.38
278.365	4.23
278.743	4
279.122	3.85
279.5	4.42
279.878	3.81
280.257	4.01
280.635	3.86
281.013	3.79
281.391	4.14
281.769	4.65
282.147	4.02
282.525	4.36
282.903	4.06
283.281	4.66
283.659	4.61
284.037	4.05
284.415	3.82
284.792	4.43
285.17	3.64
285.548	4.03
285.925	4.06
286.303	4.5
286.68	4.45
287.058	4.48
287.435	4.35
287.813	4.5
288.19	4.1
288.567	4.2
288.945	4.45
289.322	4.36
289.699	4.25
290.076	4.52
290.453	4.63
290.83	4.78
291.207	4.35
291.584	4.91
291.961	4.96
292.338	4.52
292.715	4.85
293.092	5.13
293.469	5.03
293.845	5.38
294.222	5.39
294.599	4.54
294.975	4.33
295.352	5.15
295.728	5.19
296.105	5.27
296.481	5.04
296.858	5.19
297.234	4.88
297.61	5.55
297.986	5.65
298.363	5.6
298.739	5.4
299.115	5.42
299.491	5.81
299.867	5.5
300.243	5.6
300.619	5.31
300.995	5.87
301.371	5.89
301.746	5.86
302.122	5.36
302.498	5.55
302.874	5.74
303.249	5.75
303.625	5.2
304	5.92
304.376	6.22
304.751	6.18
305.127	5.49
305.502	6.23
305.878	6.26
306.253	5.67
306.628	6.14
307.003	5.84
307.378	6.14
307.754	6.12
308.129	6.29
308.504	6.4
308.879	6.54
309.254	6.72
309.629	6.35
310.003	6.22
310.378	6.96
310.753	6.14
311.128	6.28
311.502	6.59
311.877	6.8
312.252	6.7
312.626	7.29
313.001	7.06
313.375	6.89
313.75	7.03
314.124	7.42
314.498	7.43
314.873	6.84
315.247	6.99
315.621	6.69
315.995	6.92
316.369	6.76
316.743	6.78
317.117	6.74
317.491	7.76
317.865	6.97
318.239	8.07
318.613	7.19
318.987	7.4
319.361	7.46
319.734	7.74
320.108	7.33
320.482	7.94
320.855	7.96
321.229	7.93
321.602	8.05
321.976	7.97
322.349	8.34
322.723	8.02
323.096	7.83
323.469	7.68
323.843	7.52
324.216	7.65
324.589	8.43
324.962	7.49
325.335	8.03
325.708	8.45
326.081	8.25
326.454	8.66
326.827	8.13
327.2	8.06
327.573	8.7
327.945	8.38
328.318	8.32
328.691	8.61
329.063	8.09
329.436	8.28
329.809	8.88
330.181	8.65
330.553	8.7
330.926	8.68
331.298	8.16
331.671	9.04
332.043	8.18
332.415	8.76
332.787	9.16
333.159	8.26
333.532	8.99
333.904	8.71
334.276	9.1
334.648	8.93
335.02	8.67
335.391	8.69
335.763	8.99
336.135	9.06
336.507	8.49
336.879	9.08
337.25	9.29
337.622	9.48
337.993	9.2
338.365	9.13
338.736	9.01
339.108	9.4
339.479	9.18
339.851	9.46
340.222	9.61
340.593	9.15
340.964	9.45
341.336	8.8
341.707	9.3
342.078	9.77
342.449	9.19
342.82	9.01
343.191	9.67
343.562	9.73
343.933	9.03
344.303	9.89
344.674	9.71
345.045	9.48
345.416	9.84
345.786	9.5
346.157	10.09
346.527	9.76
346.898	9.65
347.268	9.84
347.639	9.9
348.009	10.31
348.38	10.1
348.75	10.07
349.12	10.15
349.49	10.22
349.861	9.88
350.231	9.81
350.601	9.9
350.971	10.09
351.341	10.5
351.711	10.12
352.081	9.88
352.45	10.04
352.82	9.69
353.19	10.09
353.56	10.21
353.929	9.94
354.299	10.39
354.669	10.75
355.038	10.37
355.408	10.48
355.777	10.4
356.147	10.72
356.516	10.57
356.885	10.56
357.254	10.2
357.624	10.27
357.993	10.27
358.362	10.65
358.731	10.72
359.1	10.75
359.469	10.82
359.838	10.76
360.207	10.97
360.576	10.69
360.945	10.87
361.314	10.89
361.682	10.56
362.051	10.79
362.42	10.8
362.788	10.84
363.157	10.79
363.525	10.87
363.894	10.74
364.262	11.07
364.631	11.11
364.999	10.95
365.367	10.89
365.735	11.03
366.104	10.72
366.472	10.98
366.84	10.87
367.208	11.15
367.576	10.96
367.944	11.21
368.312	11.56
368.68	11.59
369.048	11.12
369.416	11.35
369.783	11.3
370.151	11.8
370.519	11.76
370.886	11.57
371.254	12.04
371.621	11.66
371.989	12.1
372.356	11.84
372.724	11.6
373.091	11.69
373.458	11.86
373.826	12.02
374.193	11.83
374.56	12.02
374.927	11.77
375.294	12.11
375.661	12.15
376.028	11.92
376.395	11.97
376.762	11.98
377.129	11.89
377.496	11.88
377.863	12.24
378.229	12.2
378.596	12.63
378.963	11.99
379.329	12.03
379.696	12.06
380.062	12.46
380.429	11.77
380.795	12.45
381.161	12.07
381.528	12.14
381.894	12.21
382.26	12.43
382.626	12.53
382.993	12.67
383.359	12.37
383.725	12.2
384.091	12.7
384.457	12.41
384.823	12.6
385.188	12.84
385.554	12.87
385.92	12.47
386.286	12.47
386.651	12.48
387.017	12.71
387.383	12.9
387.748	12.78
388.114	12.9
388.479	12.85
388.845	12.59
389.21	13.05
389.575	12.89
389.94	12.93
390.306	12.95
390.671	13.03
391.036	12.95
391.401	12.99
391.766	12.86
392.131	13.43
392.496	13.07
392.861	13.08
393.226	13.06
393.591	13.25
393.956	13.09
394.32	13.36
394.685	13.07
395.05	13.33
395.414	13.39
395.779	13.34
396.143	13.1
396.508	12.99
396.872	13.42
397.236	13.61
397.601	13.46
397.965	13.42
398.329	13.68
398.694	13.29
399.058	13.29
399.422	13.4
399.786	13.39
400.15	13.63
400.514	13.63
400.878	13.48
401.242	13.55
401.605	13.65
401.969	13.56
402.333	13.61
402.697	14.03
403.06	13.81
403.424	13.79
403.787	13.9
404.151	13.82
404.514	13.82
404.878	13.87
405.241	13.92
405.604	13.8
405.968	13.78
406.331	13.96
406.694	14.04
407.057	14.06
407.42	14.05
407.783	14.1
408.146	13.96
408.509	14.24
408.872	14.12
409.235	14.39
409.598	14.11
409.961	14.2
410.323	14.04
410.686	14.1
411.049	14.32
411.411	14.45
411.774	14.29
412.136	14.25
412.499	14.35
412.861	13.99
413.223	14.29
413.586	14.69
413.948	14.44
414.31	14.54
414.672	14.39
415.035	14.94
415.397	14.52
415.759	14.37
416.121	14.76
416.483	14.79
416.845	14.78
417.206	14.58
417.568	14.66
417.93	14.49
418.292	14.65
418.653	14.51
419.015	14.71
419.377	14.64
419.738	14.76
420.1	14.61
420.461	14.61
420.822	14.69
421.184	14.66
421.545	14.81
421.906	14.77
422.267	14.64
422.629	14.66
422.99	14.52
423.351	14.63
423.712	14.83
424.073	14.99
424.434	14.95
424.795	14.78
425.155	14.84
425.516	14.75
425.877	14.75
426.238	14.87
426.598	14.93
426.959	15.19
427.32	15.18
427.68	15.3
428.041	15.33
428.401	15.24
428.761	15.43
429.122	15.42
429.482	15.52
429.842	15.32
430.202	15.69
430.563	15.6
430.923	15.55
431.283	15.74
431.643	15.83
432.003	15.79
432.363	15.76
432.722	15.69
433.082	15.74
433.442	15.74
433.802	15.81
434.161	15.76
434.521	15.77
434.881	15.82
435.24	15.88
435.6	15.98
435.959	15.89
436.319	15.97
436.678	16.09
437.037	16.15
437.396	16.07
437.756	16.06
438.115	16.14
438.474	16.14
438.833	16.07
439.192	16.23
439.551	16.13
439.91	16.3
440.269	16.2
440.628	16.14
440.987	16.19
441.345	16.35
441.704	16.18
442.063	16.27
442.421	16.27
442.78	16.24
443.138	16.38
443.497	16.45
443.855	16.6
444.214	16.38
444.572	16.8
444.93	16.36
445.288	16.61
445.647	16.5
446.005	16.65
446.363	16.62
446.721	16.68
447.079	16.52
447.437	16.51
447.795	16.49
448.153	16.54
448.51	16.69
448.868	16.53
449.226	16.72
449.584	16.73
449.941	16.98
450.299	16.88
450.656	17.05
451.014	17.09
451.371	17.22
451.729	17.12
452.086	17.36
452.443	17.3
452.801	17.22
453.158	17.5
453.515	17.14
453.872	17.12
454.229	17.23
454.586	17.21
454.943	17.43
455.3	17.54
455.657	17.46
456.014	17.46
456.371	17.44
456.727	17.68
457.084	17.63
457.441	17.71
457.797	17.8
458.154	17.63
458.51	17.6
458.867	17.71
459.223	17.58
459.58	17.83
459.936	17.77
460.292	17.59
460.648	17.52
461.005	17.46
461.361	17.46
461.717	17.48
462.073	17.76
462.429	17.83
462.785	18.2
463.141	18
463.496	18.24
463.852	18.13
464.208	18.18
464.564	18.27
464.919	18.06
465.275	18.28
465.631	18.6
465.986	18.37
466.342	18.13
466.697	18.23
467.052	18.46
467.408	18.42
467.763	18.49
468.118	18.32
468.473	18.4
468.829	18.39
469.184	18.67
469.539	18.54
469.894	18.66
470.249	18.78
470.603	18.89
470.958	18.72
471.313	18.63
471.668	18.91
472.023	18.76
472.377	18.82
472.732	19.07
473.086	18.64
473.441	18.89
473.795	19.11
474.15	18.78
474.504	18.95
474.859	18.86
475.213	19.09
475.567	18.86
475.921	19.12
476.275	19.32
476.63	19.18
476.984	19.14
477.338	19.23
477.692	19.18
478.045	19.34
478.399	19.17
478.753	19.14
479.107	19.31
479.461	19.22
479.814	19.24
480.168	19.31
480.521	19.42
480.875	19.35
481.228	19.6
481.582	19.5
481.935	19.5
482.289	19.51
482.642	19.64
482.995	19.5
483.348	19.24
483.701	19.47
484.055	19.28
484.408	19.1
484.761	18.8
485.114	18.61
485.466	18.46
485.819	18.6
486.172	18.93
486.525	19.27
486.878	19.5
487.23	19.57
487.583	19.54
487.936	19.57
488.288	19.29
488.641	19.14
488.993	19
489.345	19.11
489.698	19.23
490.05	19.37
490.402	19.56
490.754	19.89
491.107	19.98
491.459	20.04
491.811	20.06
492.163	19.99
492.515	19.84
492.866	19.48
493.218	19.31
493.57	19.54
493.922	19.89
494.274	20.21
494.625	20.33
494.977	20.34
495.328	20.56
495.68	20.74
496.031	20.68
496.383	20.57
496.734	20.7
497.086	20.81
497.437	20.71
497.788	20.75
498.139	20.6
498.49	20.61
498.842	20.72
499.193	20.73
499.544	20.96
499.894	20.83
500.245	21.02
500.596	21.03
500.947	21.14
501.298	21.19
501.648	21.19
501.999	21.45
502.35	21.22
502.7	21.54
503.051	21.37
503.401	21.33
503.752	21.45
504.102	21.26
504.452	21.35
504.803	21.35
505.153	21.54
505.503	21.57
505.853	21.54
506.203	21.57
506.553	21.57
506.903	21.56
507.253	21.81
507.603	21.79
507.953	21.65
508.303	21.73
508.652	21.64
509.002	21.77
509.352	21.75
509.701	21.6
510.051	21.79
510.4	21.78
510.75	21.62
511.099	21.69
511.449	21.85
511.798	21.83
512.147	21.87
512.496	22.03
512.846	22.08
513.195	22.14
513.544	22.15
513.893	22.02
514.242	22.09
514.591	22.21
514.939	22.32
515.288	22.33
515.637	22.26
515.986	22.34
516.334	22.5
516.683	22.48
517.032	22.59
517.38	22.49
517.729	22.53
518.077	22.66
518.426	22.46
518.774	22.43
519.122	22.35
519.47	22.33
519.819	22.24
520.167	22.22
520.515	22.33
520.863	22.32
521.211	22.57
521.559	22.7
521.907	22.82
522.255	22.82
522.602	22.94
522.95	23.12
523.298	23.04
523.645	23.15
523.993	23.09
524.341	23.02
524.688	23.12
525.036	23.19
525.383	23.07
525.73	23.13
526.078	23.15
526.425	22.99
526.772	22.82
527.119	22.84
527.466	22.78
527.814	22.89
528.161	23.19
528.508	23.12
528.854	23.03
529.201	22.92
529.548	22.72
529.895	22.42
530.242	22.19
530.588	22.49
530.935	22.86
531.282	23.1
531.628	23.38
531.975	23.41
532.321	23.49
532.667	23.62
533.014	23.71
533.36	23.56
533.706	23.51
534.052	23.54
534.399	23.26
534.745	22.97
535.091	22.95
535.437	23.28
535.783	23.66
536.129	23.86
536.474	24.11
536.82	24.14
537.166	24.04
537.512	24
537.857	23.73
538.203	23.59
538.549	23.69
538.894	23.97
539.239	24.3
539.585	24.42
539.93	24.43
540.276	24.55
540.621	24.8
540.966	24.74
541.311	24.42
541.656	24.49
542.001	24.16
542.346	23.97
542.691	23.65
543.036	23.63
543.381	23.79
543.726	24.14
544.071	24.42
544.415	24.52
544.76	24.54
545.105	24.52
545.449	24.76
545.794	24.81
546.138	24.81
546.483	25
546.827	25.09
547.171	25.04
547.516	24.96
547.86	24.95
548.204	25.07
548.548	24.88
548.892	25.04
549.236	25.31
549.58	25.38
549.924	25.68
550.268	25.63
550.612	25.68
550.956	26.02
551.3	25.92
551.643	25.68
551.987	25.79
552.33	25.98
552.674	25.8
553.017	25.97
553.361	25.95
553.704	26.02
554.048	25.85
554.391	25.72
554.734	25.89
555.077	25.99
555.42	26.05
555.764	26.19
556.107	26.36
556.45	26.52
556.793	26.48
557.135	26.25
557.478	26.54
557.821	26.44
558.164	26.52
558.507	26.32
558.849	26.64
559.192	26.41
559.534	26.56
559.877	26.6
560.219	26.38
560.562	26.63
560.904	26.65
561.246	26.69
561.589	27.03
561.931	27.1
562.273	26.83
562.615	26.58
562.957	26.74
563.299	26.96
563.641	27.01
563.983	27.09
564.325	27.09
564.667	27.18
565.008	27.06
565.35	26.97
565.692	27.18
566.033	27.29
566.375	27.2
566.716	27.01
567.058	27.24
567.399	27.18
567.741	26.84
568.082	27.1
568.423	27.05
568.764	27.18
569.105	27.63
569.447	27.67
569.788	27.68
570.129	27.78
570.47	27.55
570.811	27.56
571.151	27.55
571.492	27.9
571.833	27.55
572.174	27.81
572.514	27.64
572.855	27.72
573.195	27.59
573.536	27.6
573.876	27.53
574.217	27.53
574.557	27.84
574.898	27.84
575.238	28.16
575.578	28.02
575.918	27.91
576.258	28.03
576.598	27.93
576.938	28.03
577.278	28.22
577.618	27.99
577.958	28.35
578.298	28.28
578.638	28.25
578.977	28.41
579.317	28.52
579.657	28.47
579.996	28.61
580.336	28.55
580.675	28.52
581.014	28.78
581.354	28.84
581.693	28.78
582.032	28.87
582.372	28.95
582.711	28.83
583.05	28.94
583.389	28.94
583.728	29.18
584.067	29.03
584.406	29.12
584.745	29.2
585.083	29.05
585.422	29.34
585.761	29.11
586.1	29.45
586.438	29.05
586.777	29.24
587.115	29.17
587.454	29.04
587.792	29.23
588.13	29.33
588.469	29.14
588.807	29.71
589.145	29.52
589.483	29.11
589.821	29.62
590.159	29.64
590.497	29.89
590.835	29.42
591.173	29.71
591.511	29.74
591.849	29.77
592.187	29.64
592.524	29.74
592.862	29.93
593.2	29.6
593.537	29.71
593.875	29.74
594.212	30.04
594.55	30.02
594.887	30.15
595.224	30.03
595.561	30.11
595.899	30.11
596.236	30.04
596.573	29.93
596.91	29.99
597.247	30.33
597.584	30.38
597.921	30.03
598.258	29.7
598.594	29.87
598.931	29.81
599.268	29.91
599.604	30.28
599.941	30.32
600.277	30.43
600.614	30.86
600.95	30.52
601.287	30.2
601.623	30.49
601.959	30.52
602.296	30.45
602.632	30.41
602.968	30.54
603.304	30.29
603.64	30.69
603.976	30.58
604.312	30.52
604.648	30.69
604.984	30.62
605.319	30.53
605.655	30.54
605.991	30.58
606.326	30.37
606.662	30.5
606.998	30.86
607.333	30.81
607.668	31.08
608.004	30.99
608.339	31.23
608.674	31.21
609.01	31.04
609.345	31.06
609.68	31.25
610.015	31.25
610.35	31.2
610.685	30.93
611.02	30.71
611.355	30.99
611.689	31.02
612.024	31.37
612.359	31.32
612.694	31.47
613.028	31.37
613.363	31.55
613.697	31.79
614.032	31.52
614.366	31.57
614.7	31.67
615.035	31.88
615.369	31.96
615.703	31.82
616.037	32.06
616.371	31.74
616.705	32.03
617.039	31.76
617.373	32.03
617.707	32
618.041	32.11
618.375	31.42
618.709	32.68
619.042	31.98
619.376	32.18
619.71	32.19
620.043	32.24
620.377	32.14
620.71	32.38
621.043	32.21
621.377	32.18
621.71	32.63
622.043	32.39
622.376	32.29
622.709	32.6
623.043	32.54
623.376	32.55
623.709	32.29
624.041	32.14
624.374	32.43
624.707	32.33
625.04	32.55
625.373	32.45
625.705	32.57
626.038	32.92
626.37	32.59
626.703	32.6
627.035	32.52
627.368	32.75
627.7	32.61
628.032	32.48
628.365	32.3
628.697	32.85
629.029	32.62
629.361	32.93
629.693	32.89
630.025	32.73
630.357	33.06
630.689	33.01
631.021	33.08
631.353	33.32
631.684	32.73
632.016	32.94
632.348	32.65
632.679	33.42
633.011	33.24
633.342	33.29
633.674	33.39
634.005	33.44
634.336	33.41
634.668	33.01
634.999	33.05
635.33	33.46
635.661	33.26
635.992	33.49
636.323	33.36
636.654	33.3
636.985	33.59
637.316	33.58
637.647	33.74
637.977	33.52
638.308	34.03
638.639	33.6
638.969	33.56
639.3	33.76
639.63	33.97
639.961	33.84
640.291	33.71
640.622	34
640.952	34.39
641.282	33.95
641.612	33.83
641.943	33.42
642.273	33.8
642.603	34.03
642.933	34.32
643.263	34.14
643.592	34.23
643.922	34.33
644.252	34.24
644.582	34.39
644.911	34.01
645.241	33.95
645.571	34.98
645.9	34.36
646.23	34.47
646.559	34.35
646.888	35.02
647.218	34.32
647.547	34.52
647.876	34.1
648.205	34.33
648.534	34.58
648.863	34.68
649.192	34.39
649.521	34.9
649.85	34.88
650.179	34.96
650.508	34.35
650.837	35.3
651.165	34.61
651.494	34.67
651.822	35.18
652.151	34.5
652.479	34.81
652.808	34.47
653.136	34.29
653.465	34.73
653.793	35.24
654.121	35.1
654.449	34.88
654.777	34.44
655.105	34.43
655.433	35.14
655.761	35.31
656.089	35.22
656.417	35.81
656.745	35
657.073	34.82
657.4	35.04
657.728	34.68
658.056	34.81
658.383	35.23
658.711	35.18
659.038	35.62
659.365	35.44
659.693	35.23
660.02	35.17
660.347	35.32
660.674	34.98
661.001	35.26
661.329	35.24
661.656	35.16
661.982	35.17
662.309	35.67
662.636	35.69
662.963	35.62
663.29	35.94
663.616	35.95
663.943	36.12
664.27	36.02
664.596	36.23
664.923	36.22
665.249	35.55
665.576	36.03
665.902	35.76
666.228	35.71
666.554	36.89
666.881	35.93
667.207	35.54
667.533	35.67
667.859	36.62
668.185	35.97
668.511	35.5
668.837	35.97
669.162	36.35
669.488	36.09
669.814	35.78
670.139	35.96
670.465	36.42
670.791	36.73
671.116	36.19
