Data from 21-4_forehead_Reflection__0__145.txt Node

Date: Thu Dec 15 17:37:40 CST 2022
User: ToomeyLab
Spectrometer: FLMS14357
Trigger mode: 0
Integration Time (sec): 1.000000E-2
Scans to average: 100
Electric dark correction enabled: true
Nonlinearity correction enabled: false
Boxcar width: 0
XAxis mode: Wavelengths
Number of Pixels in Spectrum: 2048
>>>>>Begin Spectral Data<<<<<
189.047	-1.46
189.435	-1.46
189.823	-1.46
190.211	33.37
190.599	235.88
190.987	-20.37
191.375	14.53
191.763	75.79
192.151	-16.18
192.538	436.4
192.926	122.49
193.314	114.68
193.702	20.42
194.089	-29.72
194.477	181.17
194.864	-564.84
195.252	-120.78
195.639	26.06
196.027	-41.73
196.414	79.01
196.801	326.07
197.189	134.41
197.576	-572.51
197.963	557.84
198.351	43.43
198.738	24.93
199.125	-16.01
199.512	55.71
199.899	26.79
200.286	5.52
200.673	43.3
201.06	-13.96
201.447	28.63
201.833	12.51
202.22	0.3
202.607	7.17
202.994	-4.56
203.38	29.57
203.767	-13.21
204.154	45.2
204.54	-3.83
204.927	13.42
205.313	42.85
205.699	18.91
206.086	69.34
206.472	48.14
206.858	-7.44
207.245	44.79
207.631	39.32
208.017	39.17
208.403	-14.08
208.789	22.75
209.175	-30.6
209.561	-54.22
209.947	14.51
210.333	-3.72
210.719	21.82
211.105	21.97
211.491	33.76
211.876	13.99
212.262	17.22
212.648	8.73
213.034	-9.01
213.419	-5.44
213.805	-21.42
214.19	0.01
214.576	37.09
214.961	28.55
215.346	-4.11
215.732	9.44
216.117	14.52
216.502	11.45
216.888	24.52
217.273	11.56
217.658	11.91
218.043	0.28
218.428	-25.57
218.813	13.23
219.198	-22.84
219.583	8.82
219.968	-11.87
220.353	2.97
220.738	21.13
221.122	-14.75
221.507	1.59
221.892	-15.08
222.276	3.62
222.661	-6.29
223.046	9.94
223.43	20.3
223.815	14.73
224.199	-0.52
224.583	-0.04
224.968	10.3
225.352	1.63
225.736	12.58
226.121	-8.37
226.505	-1.43
226.889	14.43
227.273	3.54
227.657	3.17
228.041	6.76
228.425	6.64
228.809	4.86
229.193	3.36
229.577	6.3
229.961	4.84
230.344	5.88
230.728	7.03
231.112	6.04
231.495	4.62
231.879	6.23
232.263	6.55
232.646	3.94
233.03	7.52
233.413	6.8
233.797	3.78
234.18	7.12
234.563	5.93
234.946	4.24
235.33	5.3
235.713	6.08
236.096	6.44
236.479	5.67
236.862	4.67
237.245	5.77
237.628	5.91
238.011	6.9
238.394	6.41
238.777	7.42
239.16	6.54
239.543	7.16
239.925	6.05
240.308	5.68
240.691	6.37
241.073	5.53
241.456	4.84
241.838	5.84
242.221	5.35
242.603	5.82
242.986	5.3
243.368	5.33
243.75	5.4
244.133	6.24
244.515	5.2
244.897	5.43
245.279	5.26
245.661	5.38
246.043	5.2
246.425	5.94
246.807	6.39
247.189	5.4
247.571	5.25
247.953	5.38
248.335	5.54
248.717	5.48
249.098	5.62
249.48	5.49
249.862	5.72
250.243	5.95
250.625	5.89
251.006	6.3
251.388	4.83
251.769	5.16
252.151	6.47
252.532	5.19
252.913	5.44
253.295	5.12
253.676	5.8
254.057	5.44
254.438	6.26
254.819	5.67
255.2	5.83
255.581	7.37
255.962	5.82
256.343	6.74
256.724	6.11
257.105	6.18
257.486	4.74
257.867	5.48
258.247	5.08
258.628	5.84
259.009	5.31
259.389	5.65
259.77	5.65
260.15	5.89
260.531	5.59
260.911	5.41
261.292	5.72
261.672	5.44
262.052	5.45
262.432	5.06
262.813	5.79
263.193	5.97
263.573	5.73
263.953	5.47
264.333	5.94
264.713	5.89
265.093	5.22
265.473	5.08
265.853	5.96
266.233	5.89
266.612	5.43
266.992	6.02
267.372	5.66
267.752	5.93
268.131	5.6
268.511	5.6
268.89	6.25
269.27	4.78
269.649	5.18
270.029	4.96
270.408	5.15
270.787	5.69
271.167	5.94
271.546	6.29
271.925	5.86
272.304	5.35
272.683	5.45
273.062	5.1
273.441	5.32
273.82	5.46
274.199	4.88
274.578	5.81
274.957	5.11
275.336	6.21
275.715	5.81
276.093	5.02
276.472	5.18
276.851	5.29
277.229	5.5
277.608	5.53
277.986	5.9
278.365	6.18
278.743	5.45
279.122	5.65
279.5	5.94
279.878	5
280.257	5.16
280.635	5.83
281.013	5.11
281.391	5.31
281.769	5.68
282.147	5.59
282.525	5.78
282.903	5.22
283.281	5.96
283.659	5.62
284.037	5.15
284.415	5.71
284.792	5.61
285.17	5.64
285.548	5.65
285.925	5.19
286.303	5.92
286.68	5.52
287.058	5.53
287.435	5.43
287.813	5.67
288.19	5.09
288.567	5.52
288.945	5.62
289.322	5.51
289.699	6.13
290.076	5.98
290.453	5.91
290.83	6.1
291.207	6.01
291.584	6.15
291.961	6.26
292.338	6.12
292.715	6.03
293.092	6.63
293.469	6.3
293.845	6.22
294.222	6.65
294.599	6.3
294.975	6.21
295.352	6.49
295.728	6.75
296.105	6.57
296.481	6.64
296.858	6.96
297.234	6.37
297.61	7.15
297.986	6.73
298.363	6.95
298.739	7.03
299.115	6.78
299.491	7.15
299.867	6.62
300.243	7.01
300.619	7.19
300.995	7.2
301.371	7.5
301.746	7.49
302.122	6.92
302.498	7.51
302.874	7.55
303.249	7.64
303.625	7.41
304	7.9
304.376	7.89
304.751	7.95
305.127	7.32
305.502	8.09
305.878	8.32
306.253	7.69
306.628	7.95
307.003	8.07
307.378	8.03
307.754	8.23
308.129	8.11
308.504	8.07
308.879	8.33
309.254	8.47
309.629	8.88
310.003	8.75
310.378	8.8
310.753	8.73
311.128	8.49
311.502	8.53
311.877	8.62
312.252	9.02
312.626	9.05
313.001	9
313.375	9.13
313.75	9.04
314.124	9.32
314.498	9.27
314.873	9.29
315.247	9.3
315.621	9.42
315.995	9.52
316.369	9.52
316.743	9.11
317.117	9.6
317.491	9.81
317.865	9.77
318.239	10.34
318.613	10.07
318.987	9.93
319.361	9.8
319.734	9.71
320.108	10.01
320.482	10.25
320.855	10.26
321.229	10.04
321.602	10.66
321.976	10.11
322.349	11.14
322.723	10.84
323.096	10.24
323.469	10.3
323.843	10.36
324.216	10.67
324.589	10.61
324.962	10.79
325.335	10.5
325.708	11.2
326.081	10.55
326.454	11.2
326.827	10.36
327.2	10.51
327.573	10.99
327.945	11.06
328.318	10.7
328.691	11.18
329.063	10.67
329.436	10.96
329.809	11.37
330.181	12.21
330.553	11.49
330.926	11.64
331.298	11.88
331.671	11.74
332.043	11.58
332.415	11.45
332.787	11.6
333.159	11.43
333.532	11.93
333.904	11.99
334.276	11.36
334.648	11.48
335.02	11.6
335.391	11.71
335.763	11.79
336.135	12
336.507	11.86
336.879	12.16
337.25	11.91
337.622	12.18
337.993	12.18
338.365	12.26
338.736	12.28
339.108	12.24
339.479	12.37
339.851	12.18
340.222	12.16
340.593	12.38
340.964	12.68
341.336	12.15
341.707	12.4
342.078	12.56
342.449	12.52
342.82	12.73
343.191	12.56
343.562	12.87
343.933	12.6
344.303	12.88
344.674	12.73
345.045	12.48
345.416	12.96
345.786	12.77
346.157	13.13
346.527	12.65
346.898	12.52
347.268	13.02
347.639	12.7
348.009	12.74
348.38	13.15
348.75	13.09
349.12	13.41
349.49	12.98
349.861	13.46
350.231	13.25
350.601	13.48
350.971	13.35
351.341	13.42
351.711	13.42
352.081	13.45
352.45	13.04
352.82	13.16
353.19	13.26
353.56	13.74
353.929	13.23
354.299	13.7
354.669	13.78
355.038	13.59
355.408	13.7
355.777	14.07
356.147	13.67
356.516	13.78
356.885	13.87
357.254	13.67
357.624	13.52
357.993	14.08
358.362	14.32
358.731	14.33
359.1	14.05
359.469	14.22
359.838	14.11
360.207	14.12
360.576	14.26
360.945	14.06
361.314	14.12
361.682	14.15
362.051	14.31
362.42	14.4
362.788	14.4
363.157	14.22
363.525	14.46
363.894	14.46
364.262	14.18
364.631	14.56
364.999	14.64
365.367	14.62
365.735	14.63
366.104	14.7
366.472	14.58
366.84	14.83
367.208	15.13
367.576	14.99
367.944	14.87
368.312	14.79
368.68	14.91
369.048	15.05
369.416	15.08
369.783	15.31
370.151	15.3
370.519	15.52
370.886	15.27
371.254	15.4
371.621	15.24
371.989	15.31
372.356	15.49
372.724	15.4
373.091	15.19
373.458	15.36
373.826	15.79
374.193	15.53
374.56	15.85
374.927	15.7
375.294	15.7
375.661	15.89
376.028	16.11
376.395	15.98
376.762	15.5
377.129	15.6
377.496	15.91
377.863	15.9
378.229	15.97
378.596	15.97
378.963	16
379.329	15.92
379.696	15.77
380.062	16.23
380.429	16.02
380.795	16.3
381.161	15.72
381.528	16.03
381.894	16.43
382.26	16.03
382.626	16.46
382.993	16.5
383.359	16.08
383.725	16.41
384.091	16.45
384.457	16.26
384.823	16.82
385.188	16.64
385.554	16.41
385.92	16.41
386.286	16.69
386.651	16.76
387.017	17.1
387.383	16.68
387.748	16.82
388.114	17.08
388.479	16.66
388.845	16.84
389.21	17.28
389.575	17.31
389.94	17.18
390.306	17.01
390.671	17.08
391.036	17.16
391.401	17.01
391.766	16.89
392.131	17.56
392.496	17.12
392.861	16.99
393.226	16.93
393.591	17.17
393.956	17.06
394.32	17.41
394.685	17.32
395.05	17.51
395.414	17.36
395.779	17.52
396.143	17.27
396.508	17.39
396.872	17.51
397.236	17.89
397.601	17.77
397.965	17.65
398.329	17.73
398.694	17.67
399.058	17.64
399.422	17.74
399.786	17.85
400.15	17.76
400.514	18.17
400.878	18.09
401.242	18.11
401.605	18.18
401.969	18.03
402.333	18.04
402.697	18.33
403.06	18.36
403.424	18.22
403.787	18.18
404.151	18.18
404.514	18.3
404.878	18.14
405.241	18.31
405.604	18.14
405.968	18.15
406.331	18.37
406.694	18.36
407.057	18.36
407.42	18.26
407.783	18.35
408.146	18.31
408.509	18.62
408.872	18.64
409.235	18.54
409.598	18.73
409.961	18.8
410.323	18.71
410.686	18.53
411.049	18.75
411.411	18.76
411.774	18.92
412.136	18.85
412.499	18.95
412.861	18.7
413.223	18.95
413.586	19.09
413.948	18.94
414.31	18.9
414.672	18.87
415.035	19.05
415.397	19.05
415.759	18.97
416.121	19.4
416.483	19.16
416.845	19.24
417.206	19.21
417.568	19.14
417.93	19.17
418.292	19.18
418.653	19.05
419.015	19.13
419.377	19.16
419.738	19.2
420.1	19.18
420.461	19.11
420.822	19.38
421.184	19.25
421.545	19.23
421.906	19.33
422.267	19.28
422.629	19.25
422.99	19.18
423.351	19.34
423.712	19.22
424.073	19.44
424.434	19.68
424.795	19.51
425.155	19.42
425.516	19.39
425.877	19.5
426.238	19.47
426.598	19.52
426.959	19.76
427.32	19.67
427.68	19.9
428.041	19.84
428.401	19.97
428.761	19.92
429.122	20.23
429.482	20.13
429.842	20.11
430.202	20.31
430.563	20.31
430.923	20.44
431.283	20.33
431.643	20.47
432.003	20.48
432.363	20.71
432.722	20.25
433.082	20.37
433.442	20.71
433.802	20.58
434.161	20.67
434.521	20.51
434.881	20.61
435.24	20.61
435.6	20.68
435.959	20.58
436.319	20.56
436.678	20.69
437.037	20.73
437.396	20.87
437.756	20.74
438.115	20.99
438.474	20.93
438.833	20.82
439.192	21.04
439.551	21.03
439.91	20.96
440.269	20.97
440.628	20.92
440.987	21.13
441.345	21.16
441.704	20.94
442.063	21.09
442.421	21.1
442.78	21.05
443.138	21.15
443.497	21.07
443.855	21.36
444.214	21.33
444.572	21.47
444.93	21.45
445.288	21.3
445.647	21.47
446.005	21.5
446.363	21.42
446.721	21.45
447.079	21.22
447.437	21.36
447.795	21.31
448.153	21.38
448.51	21.46
448.868	21.39
449.226	21.43
449.584	21.59
449.941	21.62
450.299	21.82
450.656	21.81
451.014	21.92
451.371	22.05
451.729	22.21
452.086	22.11
452.443	22.28
452.801	22.19
453.158	22.38
453.515	22.04
453.872	22.34
454.229	22.25
454.586	22.23
454.943	22.51
455.3	22.45
455.657	22.43
456.014	22.46
456.371	22.56
456.727	22.69
457.084	22.83
457.441	22.6
457.797	22.69
458.154	22.7
458.51	22.44
458.867	22.69
459.223	22.74
459.58	22.88
459.936	22.83
460.292	22.67
460.648	22.79
461.005	22.6
461.361	22.56
461.717	22.51
462.073	22.59
462.429	22.82
462.785	23.16
463.141	23.02
463.496	23.27
463.852	23.41
464.208	23.33
464.564	23.21
464.919	23.46
465.275	23.41
465.631	23.55
465.986	23.62
466.342	23.39
466.697	23.61
467.052	23.57
467.408	23.63
467.763	23.79
468.118	23.57
468.473	23.82
468.829	23.66
469.184	23.78
469.539	23.76
469.894	23.85
470.249	23.9
470.603	24.08
470.958	24.09
471.313	23.87
471.668	24.17
472.023	24.27
472.377	24.06
472.732	24.37
473.086	24.03
473.441	24.38
473.795	24.54
474.15	24.18
474.504	24.21
474.859	24.13
475.213	24.33
475.567	24.07
475.921	24.51
476.275	24.48
476.63	24.61
476.984	24.34
477.338	24.65
477.692	24.55
478.045	24.45
478.399	24.66
478.753	24.67
479.107	24.62
479.461	24.71
479.814	24.67
480.168	24.66
480.521	24.68
480.875	24.81
481.228	24.72
481.582	24.81
481.935	25.07
482.289	24.9
482.642	24.96
482.995	24.79
483.348	24.73
483.701	24.76
484.055	24.66
484.408	24.53
484.761	24.15
485.114	24.1
485.466	24.05
485.819	24.16
486.172	24.24
486.525	24.32
486.878	24.45
487.23	24.54
487.583	24.76
487.936	24.78
488.288	24.66
488.641	24.57
488.993	24.54
489.345	24.64
489.698	24.61
490.05	24.73
490.402	24.86
490.754	24.97
491.107	25.1
491.459	25.34
491.811	25.34
492.163	25.34
492.515	25.16
492.866	24.98
493.218	25.04
493.57	25.14
493.922	25.22
494.274	25.36
494.625	25.55
494.977	25.63
495.328	25.96
495.68	26.11
496.031	26.04
496.383	25.87
496.734	25.96
497.086	26.19
497.437	26.25
497.788	26.25
498.139	26.1
498.49	26.18
498.842	26.2
499.193	26.1
499.544	26.31
499.894	26.27
500.245	26.6
500.596	26.62
500.947	26.64
501.298	26.62
501.648	26.63
501.999	26.92
502.35	26.78
502.7	26.89
503.051	26.93
503.401	26.98
503.752	26.84
504.102	26.84
504.452	26.95
504.803	26.91
505.153	27.05
505.503	27.03
505.853	27.1
506.203	27.08
506.553	27.23
506.903	27.17
507.253	27.11
507.603	27.35
507.953	27.34
508.303	27.46
508.652	27.46
509.002	27.6
509.352	27.27
509.701	27.36
510.051	27.42
510.4	27.3
510.75	27.33
511.099	27.4
511.449	27.42
511.798	27.56
512.147	27.61
512.496	27.58
512.846	27.63
513.195	27.75
513.544	27.75
513.893	27.69
514.242	27.8
514.591	27.81
514.939	27.96
515.288	27.94
515.637	27.92
515.986	28.17
516.334	28.23
516.683	28.22
517.032	28.19
517.38	28.16
517.729	28.18
518.077	28.25
518.426	28.32
518.774	28.29
519.122	28.08
519.47	28.15
519.819	28.22
520.167	28.13
520.515	28.24
520.863	28.14
521.211	28.21
521.559	28.41
521.907	28.29
522.255	28.42
522.602	28.73
522.95	28.79
523.298	28.75
523.645	28.87
523.993	28.96
524.341	28.84
524.688	28.91
525.036	28.65
525.383	28.95
525.73	28.96
526.078	28.92
526.425	28.88
526.772	28.69
527.119	28.67
527.466	28.74
527.814	28.84
528.161	28.98
528.508	28.84
528.854	28.81
529.201	28.71
529.548	28.53
529.895	28.47
530.242	28.45
530.588	28.58
530.935	28.6
531.282	28.64
531.628	28.8
531.975	28.88
532.321	29.11
532.667	29.22
533.014	29.31
533.36	29.39
533.706	29.55
534.052	29.4
534.399	29.27
534.745	29.21
535.091	29.11
535.437	29.34
535.783	29.35
536.129	29.45
536.474	29.7
536.82	29.76
537.166	29.74
537.512	29.89
537.857	29.82
538.203	29.81
538.549	29.76
538.894	29.99
539.239	30.05
539.585	30.12
539.93	30.5
540.276	30.43
540.621	30.38
540.966	30.39
541.311	30.51
541.656	30.42
542.001	30.2
542.346	30.07
542.691	29.93
543.036	29.99
543.381	29.95
543.726	30.08
544.071	30.12
544.415	30.24
544.76	30.31
545.105	30.43
545.449	30.65
545.794	30.62
546.138	30.62
546.483	30.85
546.827	30.87
547.171	30.96
547.516	30.89
547.86	31.03
548.204	31
548.548	30.92
548.892	31.07
549.236	31.13
549.58	31.18
549.924	31.52
550.268	31.55
550.612	31.64
550.956	31.98
551.3	31.93
551.643	31.72
551.987	31.85
552.33	32.02
552.674	31.92
553.017	31.88
553.361	32.11
553.704	32.14
554.048	31.84
554.391	32.07
554.734	31.91
555.077	32.14
555.42	32.04
555.764	32.16
556.107	32.34
556.45	32.38
556.793	32.49
557.135	32.5
557.478	32.55
557.821	32.51
558.164	32.62
558.507	32.45
558.849	32.72
559.192	32.64
559.534	32.53
559.877	32.62
560.219	32.81
560.562	32.62
560.904	32.85
561.246	32.67
561.589	33.03
561.931	33.12
562.273	32.87
562.615	32.96
562.957	33.01
563.299	32.93
563.641	32.97
563.983	33.04
564.325	33.33
564.667	33.29
565.008	33.24
565.35	33.28
565.692	33.26
566.033	33.29
566.375	33.44
566.716	33.19
567.058	33.22
567.399	33.21
567.741	33.05
568.082	33.32
568.423	33.38
568.764	33.46
569.105	33.38
569.447	33.5
569.788	33.59
570.129	33.66
570.47	33.45
570.811	33.67
571.151	33.69
571.492	33.79
571.833	33.76
572.174	33.72
572.514	33.82
572.855	33.85
573.195	33.89
573.536	33.79
573.876	33.64
574.217	33.79
574.557	34.08
574.898	33.99
575.238	34.31
575.578	34.02
575.918	34.07
576.258	34.32
576.598	34.03
576.938	34.41
577.278	34.3
577.618	34.2
577.958	34.32
578.298	34.49
578.638	34.29
578.977	34.6
579.317	34.58
579.657	34.57
579.996	34.73
580.336	34.75
580.675	34.41
581.014	34.66
581.354	34.78
581.693	34.77
582.032	35.02
582.372	34.94
582.711	35.37
583.05	34.95
583.389	35.27
583.728	35.5
584.067	35.34
584.406	35.4
584.745	35.25
585.083	34.99
585.422	35.47
585.761	35.48
586.1	35.67
586.438	35.42
586.777	35.37
587.115	35.56
587.454	35.58
587.792	35.26
588.13	35.51
588.469	35.49
588.807	35.73
589.145	35.79
589.483	35.61
589.821	35.67
590.159	35.63
590.497	35.86
590.835	35.65
591.173	36.2
591.511	36.15
591.849	35.8
592.187	35.99
592.524	36.13
592.862	35.68
593.2	35.87
593.537	36.02
593.875	36.25
594.212	36.15
594.55	36.34
594.887	36.43
595.224	36.27
595.561	36.29
595.899	36.24
596.236	36.3
596.573	36.45
596.91	36.23
597.247	36.51
597.584	36.46
597.921	35.95
598.258	36.52
598.594	36.17
598.931	36.16
599.268	36.05
599.604	36.44
599.941	36.52
600.277	36.68
600.614	36.55
600.95	36.5
601.287	36.69
601.623	36.61
601.959	36.9
602.296	36.86
602.632	36.86
602.968	36.68
603.304	36.92
603.64	36.77
603.976	36.83
604.312	36.97
604.648	37.15
604.984	37.13
605.319	36.8
605.655	36.83
605.991	36.99
606.326	37.26
606.662	36.91
606.998	37.14
607.333	37.11
607.668	37.27
608.004	36.87
608.339	37.28
608.674	37.42
609.01	37.61
609.345	37.44
609.68	37.33
610.015	37.47
610.35	37.8
610.685	37.58
611.02	37.44
611.355	37.42
611.689	37.59
612.024	37.69
612.359	37.6
612.694	37.69
613.028	37.65
613.363	38.09
613.697	38.13
614.032	38.11
614.366	37.91
614.7	38.14
615.035	38.42
615.369	38.59
615.703	38.36
616.037	38.75
616.371	38.56
616.705	38.47
617.039	38.21
617.373	38.48
617.707	38.32
618.041	38.05
618.375	38.18
618.709	38.55
619.042	38.29
619.376	38.64
619.71	38.54
620.043	38.76
620.377	38.78
620.71	38.45
621.043	38.98
621.377	38.54
621.71	38.82
622.043	38.99
622.376	38.65
622.709	38.63
623.043	38.59
623.376	38.65
623.709	39.04
624.041	39.11
624.374	39.58
624.707	38.76
625.04	38.94
625.373	38.95
625.705	39.15
626.038	39.07
626.37	39.19
626.703	38.89
627.035	38.94
627.368	38.65
627.7	39.15
628.032	39.07
628.365	39.47
628.697	39.56
629.029	39.33
629.361	39.47
629.693	39.03
630.025	39.21
630.357	39.74
630.689	39.27
631.021	39.34
631.353	39.58
631.684	39.12
632.016	39.33
632.348	39.51
632.679	39.76
633.011	39.64
633.342	39.78
633.674	39.85
634.005	39.69
634.336	40.21
634.668	39.83
634.999	39.56
635.33	39.76
635.661	39.65
635.992	39.9
636.323	39.94
636.654	39.97
636.985	40.11
637.316	39.92
637.647	40.17
637.977	40.69
638.308	40.08
638.639	40.49
638.969	40.46
639.3	39.73
639.63	40.05
639.961	40.37
640.291	40.06
640.622	40.74
640.952	40.18
641.282	40.33
641.612	40.29
641.943	40.41
642.273	40.4
642.603	40.74
642.933	40.89
643.263	40.79
643.592	40.98
643.922	40.62
644.252	41.01
644.582	40.69
644.911	40.34
645.241	40.51
645.571	40.65
645.9	40.27
646.23	40.9
646.559	40.75
646.888	40.51
647.218	40.99
647.547	40.83
647.876	40.74
648.205	41.01
648.534	41.44
648.863	41.24
649.192	41.63
649.521	41.66
649.85	41.13
650.179	40.81
650.508	40.72
650.837	41.52
651.165	40.77
651.494	41.49
651.822	41.42
652.151	40.81
652.479	41.52
652.808	41.25
653.136	40.55
653.465	41.63
653.793	41.8
654.121	41.39
654.449	41.14
654.777	40.86
655.105	41.23
655.433	42.16
655.761	41.55
656.089	41.69
656.417	41.83
656.745	41.85
657.073	41.81
657.4	41.71
657.728	41.6
658.056	41.96
658.383	41.91
658.711	41.37
659.038	41.9
659.365	41.8
659.693	41.23
660.02	41.53
660.347	41.85
660.674	41.66
661.001	41.66
661.329	41.69
661.656	41.75
661.982	42.02
662.309	42.2
662.636	41.87
662.963	41.92
663.29	41.93
663.616	42.39
663.943	42.33
664.27	42.07
664.596	42.11
664.923	42.74
665.249	41.97
665.576	42.43
665.902	42.11
666.228	42.6
666.554	42.7
666.881	42.35
667.207	42.4
667.533	42.86
667.859	42.22
668.185	42.47
668.511	41.96
668.837	42.66
