Data from 21-4_crown_Reflection__2__142.txt Node

Date: Thu Dec 15 17:36:15 CST 2022
User: ToomeyLab
Spectrometer: FLMS14357
Trigger mode: 0
Integration Time (sec): 1.000000E-2
Scans to average: 100
Electric dark correction enabled: true
Nonlinearity correction enabled: false
Boxcar width: 0
XAxis mode: Wavelengths
Number of Pixels in Spectrum: 2048
>>>>>Begin Spectral Data<<<<<
189.047	-27.34
189.435	-27.34
189.823	-27.34
190.211	72.61
190.599	283.4
190.987	-112.68
191.375	17.35
191.763	91.55
192.151	273.54
192.538	21.77
192.926	44.71
193.314	6.96
193.702	8.36
194.089	85.16
194.477	55.78
194.864	-326.11
195.252	121.72
195.639	117.99
196.027	81.63
196.414	64.02
196.801	-120.8
197.189	133.16
197.576	-788.36
197.963	-649.83
198.351	12.7
198.738	-23.79
199.125	-14.08
199.512	16.18
199.899	15.86
200.286	16.4
200.673	24.06
201.06	-6.51
201.447	-14.68
201.833	9.87
202.22	-42.84
202.607	-59.45
202.994	14.83
203.38	-3.47
203.767	-7.01
204.154	29.34
204.54	30.23
204.927	1.27
205.313	23.04
205.699	13.73
206.086	31.14
206.472	-4.11
206.858	15.37
207.245	20.82
207.631	1.5
208.017	36.49
208.403	-34.02
208.789	17.91
209.175	-4.24
209.561	-71.74
209.947	-33.76
210.333	-18.73
210.719	14.11
211.105	14.02
211.491	-3.79
211.876	-24.98
212.262	2.02
212.648	-2.32
213.034	-4.92
213.419	24.4
213.805	-47.53
214.19	-18.21
214.576	12.03
214.961	-0.5
215.346	-14.32
215.732	-8.17
216.117	4.28
216.502	34.37
216.888	22.21
217.273	1.61
217.658	-19.61
218.043	-44.66
218.428	-26.86
218.813	5.76
219.198	-18.55
219.583	7.05
219.968	8.22
220.353	-16.4
220.738	-13.56
221.122	3.78
221.507	0.03
221.892	-29.94
222.276	-14.79
222.661	1.56
223.046	-9.59
223.43	16.52
223.815	17.09
224.199	8.59
224.583	-9.18
224.968	8.59
225.352	-4.97
225.736	6.55
226.121	-3.31
226.505	-8.26
226.889	6.54
227.273	-1.47
227.657	5.22
228.041	9.29
228.425	3.05
228.809	5.22
229.193	5.06
229.577	5.25
229.961	5.51
230.344	6.19
230.728	5.86
231.112	5.31
231.495	4.94
231.879	4.75
232.263	5.93
232.646	4.2
233.03	6.63
233.413	4.16
233.797	3.97
234.18	5.69
234.563	5.11
234.946	2.13
235.33	4.91
235.713	5.07
236.096	5.45
236.479	6.22
236.862	3.59
237.245	3.72
237.628	5.31
238.011	6.28
238.394	4.94
238.777	5.8
239.16	6.83
239.543	7.22
239.925	3.74
240.308	4.21
240.691	5.74
241.073	4.89
241.456	5.37
241.838	4.32
242.221	4.51
242.603	5.43
242.986	5.12
243.368	5.21
243.75	5.23
244.133	5.55
244.515	4.96
244.897	4.82
245.279	4.14
245.661	5.42
246.043	5.01
246.425	4.96
246.807	4.84
247.189	4.73
247.571	4.74
247.953	4.52
248.335	4.78
248.717	4.84
249.098	4.76
249.48	4.48
249.862	4.79
250.243	5.4
250.625	5.13
251.006	5.64
251.388	5.03
251.769	4.27
252.151	4.53
252.532	3.64
252.913	4.51
253.295	4.41
253.676	4.78
254.057	4.24
254.438	4.28
254.819	4.29
255.2	5.3
255.581	6.03
255.962	6.16
256.343	5.39
256.724	3.88
257.105	4.05
257.486	4.16
257.867	4.17
258.247	4.73
258.628	4.33
259.009	4.41
259.389	3.81
259.77	4.42
260.15	4.96
260.531	4.22
260.911	4.28
261.292	4.36
261.672	4.52
262.052	4.42
262.432	4.24
262.813	4.37
263.193	4.67
263.573	4.27
263.953	4.02
264.333	4.59
264.713	4.43
265.093	3.19
265.473	3.66
265.853	4.3
266.233	4.17
266.612	3.76
266.992	4.61
267.372	4.5
267.752	3.97
268.131	3.99
268.511	3.94
268.89	4.52
269.27	3.68
269.649	3.65
270.029	3.87
270.408	4.04
270.787	4.64
271.167	4.33
271.546	4.34
271.925	3.96
272.304	4.13
272.683	3.56
273.062	3.83
273.441	3.89
273.82	4.03
274.199	4.11
274.578	4.2
274.957	4.01
275.336	4.17
275.715	4.11
276.093	3.62
276.472	3.3
276.851	4.24
277.229	4.21
277.608	3.59
277.986	4.06
278.365	4.69
278.743	3.69
279.122	4.15
279.5	4.15
279.878	3.31
280.257	4.62
280.635	4.18
281.013	3.5
281.391	4.12
281.769	3.99
282.147	4.11
282.525	4.08
282.903	3.58
283.281	3.98
283.659	4.48
284.037	3.69
284.415	3.48
284.792	4.12
285.17	4.26
285.548	3.9
285.925	3.52
286.303	4.5
286.68	3.77
287.058	3.83
287.435	3.78
287.813	3.96
288.19	3.36
288.567	3.91
288.945	3.64
289.322	4.13
289.699	4.04
290.076	3.82
290.453	3.4
290.83	3.8
291.207	3.46
291.584	3.83
291.961	3.62
292.338	3.57
292.715	4.14
293.092	3.88
293.469	3.72
293.845	4.14
294.222	4.24
294.599	3.3
294.975	3.16
295.352	3.94
295.728	3.56
296.105	3.39
296.481	3.58
296.858	3.81
297.234	3.37
297.61	3.7
297.986	4.04
298.363	3.99
298.739	4.05
299.115	3.66
299.491	3.7
299.867	3.53
300.243	3.33
300.619	3.33
300.995	3.97
301.371	3.46
301.746	3.79
302.122	3.09
302.498	3.28
302.874	3.63
303.249	3.69
303.625	3.51
304	3.57
304.376	4.1
304.751	3.72
305.127	3.49
305.502	4.05
305.878	3.54
306.253	3.33
306.628	4.02
307.003	3.01
307.378	3.71
307.754	3.48
308.129	3.64
308.504	3.69
308.879	3.2
309.254	3.58
309.629	3.57
310.003	3.72
310.378	3.92
310.753	3.76
311.128	3.37
311.502	3.58
311.877	3.8
312.252	3.75
312.626	3.82
313.001	3.75
313.375	3.73
313.75	3.84
314.124	3.7
314.498	3.84
314.873	3.22
315.247	3.21
315.621	2.9
315.995	3.3
316.369	3.28
316.743	3.3
317.117	3.18
317.491	4.03
317.865	3.43
318.239	3.71
318.613	3.46
318.987	3.02
319.361	3.36
319.734	3.73
320.108	3.66
320.482	4.23
320.855	3.72
321.229	3.33
321.602	3.75
321.976	3.05
322.349	4.14
322.723	3.63
323.096	3.24
323.469	3.26
323.843	2.75
324.216	3.19
324.589	3.82
324.962	3.42
325.335	3.07
325.708	3.31
326.081	3.26
326.454	3.74
326.827	3.81
327.2	3.12
327.573	3.18
327.945	3.13
328.318	3.58
328.691	3.59
329.063	2.98
329.436	3.34
329.809	3.91
330.181	4.55
330.553	3.41
330.926	3.72
331.298	3.23
331.671	3.58
332.043	3.6
332.415	3.74
332.787	3.71
333.159	3.16
333.532	3.47
333.904	3.73
334.276	3.54
334.648	3.73
335.02	3.78
335.391	3.43
335.763	3.32
336.135	3.83
336.507	3.61
336.879	3.55
337.25	3.65
337.622	3.91
337.993	3.43
338.365	3.21
338.736	3.79
339.108	3.32
339.479	3.15
339.851	3.72
340.222	3.65
340.593	3.88
340.964	3.66
341.336	3.2
341.707	3.71
342.078	3.61
342.449	3.41
342.82	3.41
343.191	3.49
343.562	3.73
343.933	3.3
344.303	3.64
344.674	4.1
345.045	3.48
345.416	3.89
345.786	3.54
346.157	3.68
346.527	3.47
346.898	3.45
347.268	3.98
347.639	3.57
348.009	3.67
348.38	3.55
348.75	3.51
349.12	3.65
349.49	3.67
349.861	3.6
350.231	3.5
350.601	3.39
350.971	3.69
351.341	4.11
351.711	3.68
352.081	3.43
352.45	2.94
352.82	3.34
353.19	3.73
353.56	3.35
353.929	3.51
354.299	3.94
354.669	3.49
355.038	4.06
355.408	3.57
355.777	4.07
356.147	3.6
356.516	3.6
356.885	3.74
357.254	3.69
357.624	3.35
357.993	3.93
358.362	3.91
358.731	4.13
359.1	3.78
359.469	3.65
359.838	3.53
360.207	3.46
360.576	3.9
360.945	3.74
361.314	3.61
361.682	3.3
362.051	3.67
362.42	3.85
362.788	3.7
363.157	3.48
363.525	3.77
363.894	3.6
364.262	3.58
364.631	3.79
364.999	3.6
365.367	3.44
365.735	3.3
366.104	3.47
366.472	3.82
366.84	3.77
367.208	3.91
367.576	3.8
367.944	3.73
368.312	3.71
368.68	4.01
369.048	3.9
369.416	3.51
369.783	3.64
370.151	4.12
370.519	4.17
370.886	3.55
371.254	4.48
371.621	3.84
371.989	4.05
372.356	3.74
372.724	3.67
373.091	3.85
373.458	3.61
373.826	3.95
374.193	3.91
374.56	3.58
374.927	3.33
375.294	3.8
375.661	4.08
376.028	3.87
376.395	3.81
376.762	3.79
377.129	3.73
377.496	3.84
377.863	3.75
378.229	3.94
378.596	3.92
378.963	3.95
379.329	4.23
379.696	3.69
380.062	4
380.429	3.61
380.795	3.88
381.161	3.58
381.528	3.75
381.894	3.89
382.26	3.88
382.626	4.01
382.993	3.91
383.359	3.54
383.725	3.56
384.091	4.14
384.457	3.68
384.823	3.93
385.188	3.7
385.554	3.83
385.92	3.8
386.286	3.94
386.651	3.77
387.017	3.94
387.383	3.84
387.748	4.2
388.114	4.01
388.479	3.94
388.845	3.63
389.21	3.77
389.575	4.08
389.94	4.21
390.306	3.99
390.671	4.15
391.036	3.98
391.401	3.76
391.766	3.94
392.131	4.34
392.496	4.07
392.861	3.82
393.226	3.7
393.591	4.01
393.956	4
394.32	4.16
394.685	3.95
395.05	4.14
395.414	3.85
395.779	4
396.143	3.64
396.508	3.97
396.872	3.87
397.236	4.16
397.601	4.1
397.965	3.88
398.329	3.89
398.694	3.89
399.058	3.87
399.422	3.84
399.786	3.98
400.15	3.94
400.514	4.04
400.878	4.18
401.242	4.02
401.605	3.99
401.969	3.96
402.333	4
402.697	4.24
403.06	3.92
403.424	4.17
403.787	3.79
404.151	4.11
404.514	4.07
404.878	3.77
405.241	3.98
405.604	3.98
405.968	4.17
406.331	4.06
406.694	4.17
407.057	3.76
407.42	4.03
407.783	3.96
408.146	3.95
408.509	4.23
408.872	4.01
409.235	4.04
409.598	3.89
409.961	4.11
410.323	4.03
410.686	4.05
411.049	4.19
411.411	4.13
411.774	3.84
412.136	4.07
412.499	4.32
412.861	3.72
413.223	4.02
413.586	4.15
413.948	4.26
414.31	4.25
414.672	3.83
415.035	4.25
415.397	3.95
415.759	3.83
416.121	4.03
416.483	4.24
416.845	4.05
417.206	4.05
417.568	3.92
417.93	4.03
418.292	3.93
418.653	3.93
419.015	3.89
419.377	3.95
419.738	3.95
420.1	4.05
420.461	3.89
420.822	4.02
421.184	3.96
421.545	4
421.906	4.02
422.267	3.95
422.629	3.93
422.99	3.88
423.351	3.96
423.712	3.97
424.073	4.08
424.434	4.13
424.795	3.87
425.155	3.88
425.516	3.9
425.877	3.96
426.238	4.01
426.598	4
426.959	4.02
427.32	3.95
427.68	4.16
428.041	4.16
428.401	3.91
428.761	3.94
429.122	3.96
429.482	4.05
429.842	4.05
430.202	3.96
430.563	4.05
430.923	4.1
431.283	4.15
431.643	4.34
432.003	4.01
432.363	4.12
432.722	4
433.082	4.07
433.442	4.22
433.802	3.95
434.161	4.08
434.521	4
434.881	4.06
435.24	4.02
435.6	4.08
435.959	4.09
436.319	4.15
436.678	4.12
437.037	4
437.396	4.09
437.756	4.11
438.115	4.17
438.474	4.16
438.833	4.02
439.192	4.13
439.551	3.92
439.91	4.06
440.269	4.04
440.628	4
440.987	4.01
441.345	4.14
441.704	4.11
442.063	4.06
442.421	4.04
442.78	4.04
443.138	3.96
443.497	4.02
443.855	4.23
444.214	3.93
444.572	4.22
444.93	4.05
445.288	4.07
445.647	4
446.005	4.09
446.363	4.04
446.721	4.15
447.079	3.98
447.437	4
447.795	4.08
448.153	4.06
448.51	4.02
448.868	3.99
449.226	4.12
449.584	4.03
449.941	4.05
450.299	4.09
450.656	4.11
451.014	4.17
451.371	4.15
451.729	4.22
452.086	4.06
452.443	4.19
452.801	4.05
453.158	4.34
453.515	4.09
453.872	4.25
454.229	3.89
454.586	4.06
454.943	4.23
455.3	4.26
455.657	4.11
456.014	4.15
456.371	4.15
456.727	4.15
457.084	4.27
457.441	4.19
457.797	3.98
458.154	3.98
458.51	4.05
458.867	4.12
459.223	4.04
459.58	4.21
459.936	4.04
460.292	4.04
460.648	4.02
461.005	3.99
461.361	4.06
461.717	4.05
462.073	4.1
462.429	4.13
462.785	4.29
463.141	4.17
463.496	4.22
463.852	4.29
464.208	4.37
464.564	4.05
464.919	4.18
465.275	4.19
465.631	4.29
465.986	4.29
466.342	4.04
466.697	4.24
467.052	4.3
467.408	4.22
467.763	4.17
468.118	4.01
468.473	4.12
468.829	4.33
469.184	4.27
469.539	4.14
469.894	4.28
470.249	4.2
470.603	4.29
470.958	4.25
471.313	4.26
471.668	4.25
472.023	4.3
472.377	4.05
472.732	4.31
473.086	4.16
473.441	4.24
473.795	4.37
474.15	4.14
474.504	4.21
474.859	4
475.213	4.29
475.567	4.07
475.921	4.07
476.275	4.24
476.63	4.27
476.984	4.05
477.338	4.28
477.692	4.06
478.045	4.25
478.399	4.26
478.753	4.13
479.107	4.17
479.461	4.08
479.814	4.29
480.168	4.15
480.521	4.21
480.875	4.16
481.228	4.36
481.582	4.07
481.935	4.33
482.289	4.22
482.642	4.31
482.995	4.13
483.348	4
483.701	4.17
484.055	4.18
484.408	4.12
484.761	3.97
485.114	3.89
485.466	3.8
485.819	3.87
486.172	3.95
486.525	3.98
486.878	4.03
487.23	4.06
487.583	4.02
487.936	4.06
488.288	4.03
488.641	3.9
488.993	3.9
489.345	3.94
489.698	3.93
490.05	3.98
490.402	4.02
490.754	4.03
491.107	4.05
491.459	4.15
491.811	4.05
492.163	4.12
492.515	3.95
492.866	3.89
493.218	3.93
493.57	4.01
493.922	4.05
494.274	4.13
494.625	4.12
494.977	4.24
495.328	4.17
495.68	4.23
496.031	4.2
496.383	4.16
496.734	3.96
497.086	4.21
497.437	4.24
497.788	4.21
498.139	4.19
498.49	4.15
498.842	4.19
499.193	4.15
499.544	4.07
499.894	4.14
500.245	4.22
500.596	4.22
500.947	4.14
501.298	4.13
501.648	4.18
501.999	4.27
502.35	4.02
502.7	4.35
503.051	4.23
503.401	4.27
503.752	4.1
504.102	4.12
504.452	4.14
504.803	4.23
505.153	4.24
505.503	4.11
505.853	4.23
506.203	4.2
506.553	4.13
506.903	4.25
507.253	4.13
507.603	4.24
507.953	4.19
508.303	4.21
508.652	4.04
509.002	4.25
509.352	4.18
509.701	4.1
510.051	4.27
510.4	4.2
510.75	4.03
511.099	4.12
511.449	4.24
511.798	4.19
512.147	4.02
512.496	4.12
512.846	4.11
513.195	4.05
513.544	4.21
513.893	4.11
514.242	4.11
514.591	4.1
514.939	4.21
515.288	4.22
515.637	4.09
515.986	4.19
516.334	4.09
516.683	4.21
517.032	4.13
517.38	3.99
517.729	4.09
518.077	4.12
518.426	4.21
518.774	4.01
519.122	4.03
519.47	4.08
519.819	4.1
520.167	4.04
520.515	4.06
520.863	3.99
521.211	4.09
521.559	4.06
521.907	4.2
522.255	4.14
522.602	4.2
522.95	4.24
523.298	4.11
523.645	4.2
523.993	4.12
524.341	4.08
524.688	4.1
525.036	4.09
525.383	4.16
525.73	4.01
526.078	4.12
526.425	4.06
526.772	4
527.119	4.06
527.466	4.06
527.814	4.01
528.161	4.11
528.508	4.08
528.854	3.95
529.201	3.97
529.548	3.95
529.895	3.89
530.242	3.84
530.588	3.86
530.935	3.87
531.282	3.92
531.628	3.98
531.975	3.98
532.321	3.97
532.667	4.09
533.014	4.11
533.36	4.1
533.706	4.05
534.052	4.06
534.399	3.98
534.745	3.91
535.091	3.91
535.437	3.91
535.783	4
536.129	4.04
536.474	4.09
536.82	4.1
537.166	3.96
537.512	4
537.857	4
538.203	3.97
538.549	3.92
538.894	4.05
539.239	4.15
539.585	4.09
539.93	4.16
540.276	4.13
540.621	4.13
540.966	3.91
541.311	4.08
541.656	4
542.001	3.96
542.346	3.96
542.691	3.88
543.036	3.9
543.381	3.88
543.726	3.94
544.071	3.95
544.415	4.02
544.76	4.03
545.105	3.9
545.449	4.01
545.794	4.03
546.138	4.04
546.483	4.09
546.827	3.9
547.171	4.06
547.516	4.06
547.86	3.97
548.204	4
548.548	3.97
548.892	4.07
549.236	4
549.58	4.08
549.924	4.02
550.268	4.19
550.612	4.16
550.956	4.15
551.3	4.24
551.643	4.12
551.987	4.09
552.33	4.28
552.674	4.04
553.017	4.18
553.361	4.12
553.704	4.09
554.048	4.13
554.391	4.13
554.734	4.01
555.077	4.16
555.42	3.98
555.764	4.21
556.107	4.24
556.45	3.98
556.793	4.26
557.135	4.19
557.478	4.13
557.821	4.15
558.164	4.19
558.507	3.96
558.849	4.27
559.192	4.22
559.534	4.09
559.877	4.06
560.219	4.21
560.562	4.11
560.904	4.24
561.246	4.01
561.589	4.34
561.931	4.14
562.273	4.15
562.615	4.11
562.957	3.96
563.299	4.04
563.641	4.11
563.983	3.91
564.325	4.1
564.667	4.05
565.008	4.18
565.35	4.12
565.692	4.33
566.033	3.98
566.375	4.3
566.716	3.89
567.058	4.12
567.399	4.1
567.741	4.16
568.082	4.05
568.423	3.98
568.764	4.1
569.105	4.17
569.447	4.02
569.788	4.1
570.129	4.05
570.47	4.07
570.811	4.09
571.151	4.04
571.492	4.06
571.833	4.1
572.174	4.2
572.514	3.94
572.855	4.24
573.195	3.94
573.536	3.96
573.876	4.05
574.217	3.94
574.557	4.01
574.898	3.9
575.238	4
575.578	4.13
575.918	4.07
576.258	4.2
576.598	3.96
576.938	3.99
577.278	4.05
577.618	4.1
577.958	4.15
578.298	4.02
578.638	3.87
578.977	3.93
579.317	4.13
579.657	4.16
579.996	4.16
580.336	4.12
580.675	3.98
581.014	4.26
581.354	4.05
581.693	4.19
582.032	4.27
582.372	4.26
582.711	4.18
583.05	4.08
583.389	4.07
583.728	4.18
584.067	3.88
584.406	4.24
584.745	4
585.083	4.19
585.422	4.11
585.761	4.22
586.1	4.27
586.438	3.98
586.777	3.91
587.115	4.06
587.454	4.01
587.792	3.95
588.13	3.95
588.469	3.92
588.807	4.24
589.145	4.02
589.483	3.83
589.821	4.02
590.159	4.13
590.497	3.98
590.835	4.19
591.173	4.27
591.511	4.34
591.849	4.14
592.187	3.96
592.524	4.24
592.862	3.93
593.2	4.09
593.537	3.83
593.875	4.15
594.212	4.17
594.55	4.04
594.887	4.07
595.224	4.13
595.561	4.04
595.899	4.22
596.236	4.08
596.573	4.08
596.91	3.97
597.247	4.19
597.584	4.12
597.921	4.2
598.258	4.01
598.594	3.95
598.931	3.8
599.268	3.85
599.604	3.98
599.941	3.96
600.277	3.92
600.614	4.13
600.95	4.02
601.287	3.7
601.623	3.84
601.959	4.3
602.296	4.04
602.632	4.16
602.968	4.17
603.304	4.08
603.64	3.91
603.976	3.87
604.312	3.82
604.648	4.14
604.984	3.96
605.319	4.07
605.655	3.94
605.991	3.97
606.326	4.02
606.662	3.7
606.998	4.11
607.333	4.05
607.668	4.01
608.004	3.92
608.339	3.94
608.674	4.21
609.01	4.22
609.345	4.07
609.68	3.87
610.015	4.01
610.35	4.03
610.685	3.68
611.02	3.91
611.355	3.88
611.689	4.04
612.024	4.01
612.359	4.09
612.694	4.03
613.028	4.03
613.363	3.94
613.697	4.04
614.032	4.13
614.366	4
614.7	4.17
615.035	4
615.369	4.25
615.703	4.28
616.037	4.33
616.371	3.99
616.705	4.25
617.039	4.11
617.373	3.98
617.707	4.03
618.041	3.88
618.375	3.58
618.709	4.05
619.042	4.09
619.376	3.88
619.71	3.79
620.043	4.23
620.377	4.02
620.71	4.02
621.043	3.87
621.377	4.16
621.71	4.2
622.043	4.14
622.376	3.99
622.709	4.08
623.043	3.86
623.376	4.06
623.709	4.21
624.041	3.98
624.374	3.95
624.707	3.85
625.04	4.01
625.373	4.26
625.705	4.13
626.038	4.16
626.37	4.17
626.703	4.19
627.035	4.04
627.368	4.29
627.7	3.84
628.032	3.7
628.365	4.15
628.697	4.18
629.029	3.93
629.361	4.41
629.693	4.11
630.025	4.18
630.357	4.29
630.689	3.89
631.021	4.15
631.353	4.25
631.684	3.92
632.016	3.9
632.348	3.79
632.679	4.28
633.011	4.02
633.342	4.03
633.674	3.98
634.005	3.73
634.336	4.17
634.668	3.76
634.999	3.84
635.33	4.27
635.661	3.88
635.992	3.85
636.323	3.99
636.654	3.97
636.985	3.93
637.316	3.93
637.647	4.05
637.977	4.18
638.308	4.26
638.639	3.96
638.969	4.22
639.3	3.95
639.63	4.04
639.961	4.21
640.291	4.21
640.622	4.4
640.952	4.47
641.282	3.7
641.612	3.93
641.943	3.56
642.273	4.08
642.603	4.04
642.933	4.29
643.263	4.17
643.592	4.4
643.922	4.71
644.252	4.12
644.582	4.13
644.911	4.21
645.241	3.69
645.571	4.09
645.9	4.15
646.23	4.38
646.559	3.97
646.888	4.23
647.218	3.75
647.547	4.28
647.876	3.85
648.205	3.82
648.534	4.32
648.863	4.24
649.192	3.82
649.521	4.37
649.85	4.51
650.179	4.21
650.508	4.08
650.837	4.54
651.165	4.26
651.494	4.19
651.822	4.36
652.151	3.93
652.479	4.1
652.808	4.38
653.136	3.99
653.465	4.11
653.793	4.21
654.121	4.21
654.449	3.84
654.777	4.01
655.105	4.11
655.433	4.26
655.761	4.06
656.089	4.17
656.417	4.59
656.745	4.25
657.073	3.71
657.4	4.23
657.728	3.51
658.056	4.1
658.383	4.22
658.711	4.37
659.038	4.24
659.365	4.42
659.693	4.19
660.02	3.91
660.347	4.27
660.674	4.09
661.001	3.83
661.329	3.88
661.656	4.27
661.982	4.05
662.309	4.06
662.636	3.96
662.963	4.23
663.29	4.77
663.616	3.89
663.943	4.07
664.27	3.82
664.596	3.52
664.923	4.06
665.249	4.16
665.576	4.02
665.902	4.09
666.228	4.47
666.554	4.17
666.881	4.26
667.207	4.45
667.533	4.12
667.859	3.99
668.185	4.2
668.511	4.31
668.837	4.18
669.162	4.12
669.488	3.65
669.814	4.05
670.139	3.62
670.465	4.66
670.791	3.57
671.116	4.11
671.442	3.45
671.767	4.46
672.092	4.15
672.418	4.37
672.743	3.78
673.068	4.04
673.393	4.3
673.718	3.63
674.043	3.71
674.368	3.35
674.693	4.29
675.018	4.8
675.343	4.46
675.667	4.62
675.992	3.88
676.317	3.68
676.641	4.56
676.966	4.17
677.29	3.91
677.615	4.01
677.939	3.99
678.264	3.94
678.588	4.04
678.912	4.32
679.236	4.33
679.56	3.69
679.885	4.07
680.209	4.64
680.532	4.8
680.856	4.32
681.18	4.58
681.504	3.94
681.828	3.97
682.152	4
682.475	4.42
682.799	4.15
683.122	4.17
683.446	3.82
683.769	4.25
684.093	4.22
684.416	4.23
684.739	4.17
685.062	4.15
685.386	4.51
685.709	5.01
686.032	4.61
686.355	4.1
686.678	4.5
687.001	4.01
687.324	3.89
687.646	4.64
687.969	4.24
688.292	3.99
688.614	4.38
688.937	4.69
689.26	4.64
689.582	4.58
689.904	4.13
690.227	4.48
690.549	4.49
690.871	3.93
691.194	3.57
691.516	4.28
691.838	4.66
692.16	4.18
692.482	4.4
692.804	4.89
693.126	4.14
