Data from 21-4_forehead_Reflection__3__148.txt Node

Date: Thu Dec 15 17:38:17 CST 2022
User: ToomeyLab
Spectrometer: FLMS14357
Trigger mode: 0
Integration Time (sec): 1.000000E-2
Scans to average: 100
Electric dark correction enabled: true
Nonlinearity correction enabled: false
Boxcar width: 0
XAxis mode: Wavelengths
Number of Pixels in Spectrum: 2048
>>>>>Begin Spectral Data<<<<<
189.047	-34.04
189.435	-34.04
189.823	-34.04
190.211	22.15
190.599	188.25
190.987	-232.41
191.375	41.8
191.763	57.71
192.151	74.19
192.538	49.3
192.926	130.89
193.314	33.37
193.702	-199.67
194.089	-80.27
194.477	126.2
194.864	-304.84
195.252	-42.5
195.639	55.37
196.027	3.15
196.414	11.99
196.801	78.78
197.189	122.2
197.576	-175.75
197.963	-1731.01
198.351	39.61
198.738	-11.84
199.125	-13.25
199.512	40.86
199.899	23.61
200.286	9.14
200.673	37.39
201.06	-1.84
201.447	21.68
201.833	4.97
202.22	35.95
202.607	7.49
202.994	13.15
203.38	68.61
203.767	16.23
204.154	28.43
204.54	17.55
204.927	-6.77
205.313	22.07
205.699	19.79
206.086	68.33
206.472	66.28
206.858	42.67
207.245	39.23
207.631	44.74
208.017	29.56
208.403	-24.08
208.789	34.67
209.175	16.31
209.561	-18.9
209.947	12.25
210.333	42.35
210.719	43.29
211.105	13.49
211.491	24.32
211.876	7.5
212.262	16.76
212.648	34.32
213.034	-1.21
213.419	37.97
213.805	25.75
214.19	15.44
214.576	6.43
214.961	3.13
215.346	1.53
215.732	-1.09
216.117	10.32
216.502	19.49
216.888	12.94
217.273	23.95
217.658	38.84
218.043	-23.38
218.428	-13.29
218.813	33.78
219.198	-28.22
219.583	12.13
219.968	24.92
220.353	-7.12
220.738	28.21
221.122	20.83
221.507	29.38
221.892	-29.22
222.276	-19.4
222.661	2.21
223.046	0.63
223.43	9.76
223.815	-2.21
224.199	11.23
224.583	3.2
224.968	1.99
225.352	-0.26
225.736	13.2
226.121	5.53
226.505	-0.74
226.889	4.62
227.273	0.38
227.657	2.92
228.041	5.33
228.425	1.98
228.809	1.77
229.193	3.38
229.577	2.47
229.961	2.8
230.344	3.94
230.728	3.68
231.112	3.14
231.495	2.14
231.879	1.74
232.263	5.24
232.646	3.57
233.03	3.3
233.413	2.82
233.797	3.89
234.18	4.97
234.563	5.32
234.946	2.46
235.33	4.23
235.713	3.23
236.096	3.02
236.479	3.87
236.862	2.43
237.245	2.62
237.628	2.48
238.011	4.08
238.394	4.24
238.777	1.98
239.16	4.71
239.543	4.59
239.925	4.42
240.308	2.42
240.691	2.74
241.073	4.42
241.456	3.17
241.838	3.01
242.221	3.08
242.603	3.76
242.986	2.98
243.368	4.03
243.75	3.7
244.133	3.65
244.515	3.31
244.897	3.26
245.279	3.12
245.661	3.73
246.043	3.31
246.425	3.61
246.807	3.3
247.189	3.84
247.571	3.21
247.953	3.25
248.335	3.37
248.717	3.4
249.098	3.49
249.48	3.2
249.862	3.26
250.243	3.93
250.625	3.93
251.006	4.05
251.388	3.22
251.769	3.73
252.151	4.93
252.532	2.56
252.913	3.69
253.295	3.76
253.676	3.89
254.057	3.12
254.438	3.95
254.819	4.41
255.2	3.94
255.581	5.19
255.962	4.18
256.343	3.91
256.724	4.41
257.105	3.98
257.486	3.78
257.867	3.39
258.247	4.35
258.628	3.54
259.009	3.42
259.389	3.23
259.77	3.04
260.15	4.34
260.531	3.34
260.911	3.61
261.292	3.42
261.672	3.48
262.052	3.39
262.432	3.04
262.813	3.94
263.193	3.37
263.573	3.95
263.953	3.36
264.333	3.56
264.713	3.61
265.093	2.89
265.473	3.33
265.853	4.33
266.233	4.04
266.612	3.24
266.992	3.31
267.372	3.86
267.752	4.21
268.131	3.82
268.511	3.39
268.89	4.36
269.27	3.83
269.649	3.13
270.029	3.52
270.408	3.43
270.787	3.68
271.167	3.62
271.546	4.48
271.925	4.03
272.304	3.53
272.683	3.17
273.062	3.66
273.441	3.63
273.82	3.44
274.199	3.52
274.578	3.48
274.957	3.36
275.336	4
275.715	4.03
276.093	3.58
276.472	3.68
276.851	3.99
277.229	3.32
277.608	3.53
277.986	3.51
278.365	3.99
278.743	3.48
279.122	3.36
279.5	4.07
279.878	3.88
280.257	3.77
280.635	3.89
281.013	3.4
281.391	3.62
281.769	3.73
282.147	3.64
282.525	3.49
282.903	3.23
283.281	3.44
283.659	3.86
284.037	3.35
284.415	3.52
284.792	3.77
285.17	3.67
285.548	3.94
285.925	3.55
286.303	3.85
286.68	4.08
287.058	3.96
287.435	3.55
287.813	3.56
288.19	3.32
288.567	3.85
288.945	3.62
289.322	4.2
289.699	4.36
290.076	4.41
290.453	3.48
290.83	4.57
291.207	4.02
291.584	4
291.961	4.07
292.338	4.04
292.715	3.97
293.092	4.69
293.469	4.57
293.845	4.88
294.222	4.64
294.599	4.24
294.975	3.77
295.352	4.67
295.728	4.32
296.105	4.12
296.481	4.8
296.858	4.48
297.234	4.1
297.61	4.7
297.986	4.84
298.363	4.76
298.739	4.94
299.115	4.72
299.491	4.89
299.867	4.54
300.243	4.6
300.619	5.06
300.995	5.09
301.371	4.99
301.746	5.36
302.122	4.94
302.498	5.56
302.874	5.3
303.249	5.29
303.625	5.04
304	5.7
304.376	5.53
304.751	5.32
305.127	5.13
305.502	5.62
305.878	5.75
306.253	5.66
306.628	5.16
307.003	5.28
307.378	5.62
307.754	5.95
308.129	6.06
308.504	6.32
308.879	6.2
309.254	6.49
309.629	5.83
310.003	5.66
310.378	6.31
310.753	6.73
311.128	6.13
311.502	6.71
311.877	6.44
312.252	6.46
312.626	6.97
313.001	6.49
313.375	6.89
313.75	6.92
314.124	6.88
314.498	7.17
314.873	7.01
315.247	7.15
315.621	6.69
315.995	7.18
316.369	6.96
316.743	6.98
317.117	7
317.491	7.7
317.865	6.9
318.239	7.97
318.613	7.58
318.987	6.97
319.361	7.32
319.734	7.96
320.108	7.7
320.482	8.36
320.855	7.9
321.229	8.2
321.602	7.41
321.976	7.36
322.349	8.73
322.723	7.87
323.096	8.2
323.469	8.02
323.843	8.43
324.216	8.07
324.589	8.62
324.962	8.3
325.335	7.78
325.708	8.42
326.081	8.78
326.454	8.96
326.827	8.53
327.2	8.46
327.573	9.25
327.945	8.62
328.318	8.27
328.691	8.76
329.063	8.49
329.436	9.23
329.809	8.88
330.181	9.16
330.553	8.78
330.926	9.12
331.298	8.96
331.671	9.27
332.043	9.14
332.415	9.37
332.787	9.91
333.159	9.06
333.532	9.48
333.904	9.93
334.276	9.28
334.648	9.53
335.02	9.56
335.391	9.35
335.763	9.67
336.135	9.97
336.507	9.68
336.879	9.9
337.25	9.68
337.622	9.99
337.993	9.71
338.365	9.59
338.736	10.01
339.108	10.03
339.479	10.1
339.851	10.61
340.222	10.09
340.593	10.04
340.964	9.97
341.336	9.9
341.707	10.46
342.078	10.08
342.449	10.3
342.82	10.52
343.191	10.43
343.562	10.25
343.933	10.34
344.303	10.28
344.674	10.36
345.045	10.43
345.416	10.87
345.786	10.7
346.157	10.51
346.527	10.62
346.898	10.66
347.268	10.7
347.639	10.73
348.009	11.26
348.38	11.03
348.75	11.34
349.12	11.02
349.49	11.06
349.861	11.31
350.231	10.82
350.601	11.35
350.971	10.85
351.341	11.34
351.711	11.07
352.081	10.82
352.45	11.06
352.82	10.99
353.19	11.1
353.56	11.07
353.929	11.74
354.299	12
354.669	11.65
355.038	11.55
355.408	11.69
355.777	11.92
356.147	11.74
356.516	11.55
356.885	11.7
357.254	11.82
357.624	11.58
357.993	12.1
358.362	11.8
358.731	12.22
359.1	12.08
359.469	12.21
359.838	12.15
360.207	12.09
360.576	12.06
360.945	12.43
361.314	12.36
361.682	12.04
362.051	12.36
362.42	12.46
362.788	12.26
363.157	12.04
363.525	12.46
363.894	12.17
364.262	12.56
364.631	12.7
364.999	12.63
365.367	12.84
365.735	12.82
366.104	12.66
366.472	12.91
366.84	12.64
367.208	13.09
367.576	12.82
367.944	12.93
368.312	12.74
368.68	13.14
369.048	13.1
369.416	13.03
369.783	12.85
370.151	13.48
370.519	13.47
370.886	13.52
371.254	13.38
371.621	13.57
371.989	13.63
372.356	13.91
372.724	13.31
373.091	13.09
373.458	13.61
373.826	13.6
374.193	13.5
374.56	13.64
374.927	13.5
375.294	14.03
375.661	13.82
376.028	13.83
376.395	13.84
376.762	13.74
377.129	13.74
377.496	14.18
377.863	14.12
378.229	14.1
378.596	14.2
378.963	14.13
379.329	14.21
379.696	14.17
380.062	14.35
380.429	14.04
380.795	14.46
381.161	14.43
381.528	14.17
381.894	14.38
382.26	14.33
382.626	14.52
382.993	14.79
383.359	14.3
383.725	14.34
384.091	14.62
384.457	14.64
384.823	14.9
385.188	14.71
385.554	14.55
385.92	14.61
386.286	14.77
386.651	14.8
387.017	15.02
387.383	14.77
387.748	14.8
388.114	15.14
388.479	15.05
388.845	15.06
389.21	15.41
389.575	15.1
389.94	15.44
390.306	15.35
390.671	15.52
391.036	15.16
391.401	15.36
391.766	15.5
392.131	15.58
392.496	15.57
392.861	15.48
393.226	15.36
393.591	15.44
393.956	15.66
394.32	15.65
394.685	15.49
395.05	15.67
395.414	15.81
395.779	16.03
396.143	15.78
396.508	15.73
396.872	15.75
397.236	16.07
397.601	15.98
397.965	15.77
398.329	15.95
398.694	15.91
399.058	15.85
399.422	16.01
399.786	15.98
400.15	16.25
400.514	16.29
400.878	16.12
401.242	16.38
401.605	16.36
401.969	16.29
402.333	16.08
402.697	16.54
403.06	16.54
403.424	16.59
403.787	16.49
404.151	16.51
404.514	16.51
404.878	16.5
405.241	16.65
405.604	16.65
405.968	16.63
406.331	16.61
406.694	16.66
407.057	16.69
407.42	16.59
407.783	16.91
408.146	16.76
408.509	17.1
408.872	16.84
409.235	16.99
409.598	16.82
409.961	17.14
410.323	17.17
410.686	17.09
411.049	17
411.411	17.11
411.774	17.13
412.136	17.2
412.499	17.55
412.861	16.96
413.223	17.28
413.586	17.41
413.948	17.64
414.31	17.5
414.672	17.48
415.035	17.76
415.397	17.36
415.759	17.44
416.121	17.71
416.483	17.73
416.845	17.53
417.206	17.77
417.568	17.75
417.93	17.87
418.292	17.58
418.653	17.58
419.015	17.58
419.377	17.67
419.738	17.88
420.1	17.92
420.461	17.74
420.822	17.86
421.184	17.89
421.545	18.01
421.906	17.95
422.267	17.87
422.629	17.77
422.99	17.79
423.351	17.93
423.712	17.87
424.073	18.11
424.434	18.11
424.795	18.03
425.155	18
425.516	17.97
425.877	18.07
426.238	18.02
426.598	18.13
426.959	18.27
427.32	18.32
427.68	18.5
428.041	18.77
428.401	18.59
428.761	18.81
429.122	18.72
429.482	18.88
429.842	18.79
430.202	18.98
430.563	19
430.923	19.12
431.283	19.18
431.643	19.13
432.003	19.29
432.363	19.28
432.722	19.31
433.082	19.28
433.442	19.14
433.802	19.44
434.161	19.39
434.521	19.42
434.881	19.51
435.24	19.21
435.6	19.38
435.959	19.59
436.319	19.33
436.678	19.82
437.037	19.61
437.396	19.77
437.756	19.75
438.115	19.68
438.474	19.8
438.833	19.72
439.192	19.84
439.551	19.68
439.91	19.96
440.269	19.92
440.628	19.76
440.987	19.94
441.345	19.92
441.704	19.9
442.063	19.85
442.421	20
442.78	20.08
443.138	20.14
443.497	20.14
443.855	20.32
444.214	20.08
444.572	20.34
444.93	20.37
445.288	20.24
445.647	20.18
446.005	20.49
446.363	20.55
446.721	20.37
447.079	20.43
447.437	20.43
447.795	20.32
448.153	20.32
448.51	20.4
448.868	20.41
449.226	20.48
449.584	20.65
449.941	20.75
450.299	20.58
450.656	20.93
451.014	21.02
451.371	21.26
451.729	21.24
452.086	21.23
452.443	21.11
452.801	21.18
453.158	21.48
453.515	21.33
453.872	21.29
454.229	21.31
454.586	21.23
454.943	21.59
455.3	21.58
455.657	21.49
456.014	21.56
456.371	21.53
456.727	21.77
457.084	21.8
457.441	21.82
457.797	21.84
458.154	21.93
458.51	21.88
458.867	22
459.223	21.75
459.58	21.91
459.936	22.09
460.292	21.91
460.648	21.78
461.005	21.68
461.361	21.66
461.717	21.74
462.073	21.75
462.429	21.81
462.785	22.17
463.141	22.26
463.496	22.36
463.852	22.36
464.208	22.54
464.564	22.46
464.919	22.7
465.275	22.58
465.631	22.96
465.986	22.71
466.342	22.51
466.697	22.63
467.052	23.1
467.408	22.73
467.763	23.02
468.118	22.87
468.473	22.92
468.829	22.83
469.184	23.02
469.539	22.91
469.894	23.16
470.249	23.22
470.603	23.38
470.958	23.33
471.313	23.35
471.668	23.48
472.023	23.38
472.377	23.38
472.732	23.6
473.086	23.26
473.441	23.7
473.795	23.62
474.15	23.54
474.504	23.48
474.859	23.34
475.213	23.89
475.567	23.54
475.921	23.69
476.275	23.72
476.63	24.04
476.984	23.81
477.338	24.02
477.692	23.91
478.045	24.2
478.399	23.95
478.753	24
479.107	24.2
479.461	24.04
479.814	24.16
480.168	24.12
480.521	24.4
480.875	24.35
481.228	24.38
481.582	24.21
481.935	24.45
482.289	24.36
482.642	24.35
482.995	24.28
483.348	24.2
483.701	24.35
484.055	24.21
484.408	23.96
484.761	23.77
485.114	23.57
485.466	23.6
485.819	23.69
486.172	23.65
486.525	23.81
486.878	23.94
487.23	24.06
487.583	24.22
487.936	24.19
488.288	24.3
488.641	24.14
488.993	24.19
489.345	24.13
489.698	24.23
490.05	24.26
490.402	24.26
490.754	24.46
491.107	24.7
491.459	24.91
491.811	25.05
492.163	25.04
492.515	24.93
492.866	24.7
493.218	24.66
493.57	24.74
493.922	24.89
494.274	24.99
494.625	25.03
494.977	25.26
495.328	25.58
495.68	25.7
496.031	25.84
496.383	25.69
496.734	25.8
497.086	25.92
497.437	26.07
497.788	25.97
498.139	25.77
498.49	25.88
498.842	25.85
499.193	25.93
499.544	26.03
499.894	26.05
500.245	26.34
500.596	26.28
500.947	26.4
501.298	26.32
501.648	26.5
501.999	26.51
502.35	26.6
502.7	26.78
503.051	26.72
503.401	26.67
503.752	26.69
504.102	26.67
504.452	26.66
504.803	27.01
505.153	26.96
505.503	26.91
505.853	27.09
506.203	26.97
506.553	26.98
506.903	27.1
507.253	26.94
507.603	27.38
507.953	27.18
508.303	27.27
508.652	27.2
509.002	27.3
509.352	27.25
509.701	27.24
510.051	27.35
510.4	27.33
510.75	27.2
511.099	27.25
511.449	27.4
511.798	27.48
512.147	27.61
512.496	27.74
512.846	27.56
513.195	27.7
513.544	27.74
513.893	27.78
514.242	27.71
514.591	27.85
514.939	27.99
515.288	27.9
515.637	27.96
515.986	28.02
516.334	28.16
516.683	28.04
517.032	28.12
517.38	28.14
517.729	28.43
518.077	28.33
518.426	28.36
518.774	28.34
519.122	28.23
519.47	28.11
519.819	28.25
520.167	28.22
520.515	28.18
520.863	28.1
521.211	28.21
521.559	28.38
521.907	28.4
522.255	28.48
522.602	28.95
522.95	28.86
523.298	28.87
523.645	28.97
523.993	28.94
524.341	29.05
524.688	29.06
525.036	29.09
525.383	29.19
525.73	29.13
526.078	29.24
526.425	28.95
526.772	28.94
527.119	28.89
527.466	28.85
527.814	28.94
528.161	28.96
528.508	28.91
528.854	28.98
529.201	28.9
529.548	28.79
529.895	28.69
530.242	28.68
530.588	28.84
530.935	28.81
531.282	28.73
531.628	28.86
531.975	29.11
532.321	29.23
532.667	29.48
533.014	29.56
533.36	29.59
533.706	29.69
534.052	29.58
534.399	29.52
534.745	29.48
535.091	29.4
535.437	29.58
535.783	29.74
536.129	29.66
536.474	29.96
536.82	30.1
537.166	30.16
537.512	30.16
537.857	30.18
538.203	30.23
538.549	30.07
538.894	30.27
539.239	30.48
539.585	30.4
539.93	30.72
540.276	30.66
540.621	30.83
540.966	30.87
541.311	30.85
541.656	30.91
542.001	30.55
542.346	30.4
542.691	30.26
543.036	30.33
543.381	30.46
543.726	30.4
544.071	30.52
544.415	30.48
544.76	30.64
545.105	30.83
545.449	30.94
545.794	31
546.138	31.14
546.483	31.28
546.827	31.34
547.171	31.48
547.516	31.54
547.86	31.4
548.204	31.45
548.548	31.36
548.892	31.63
549.236	31.56
549.58	31.75
549.924	32.01
550.268	32.14
550.612	32.11
550.956	32.24
551.3	32.21
551.643	32.41
551.987	32.5
552.33	32.49
552.674	32.39
553.017	32.66
553.361	32.71
553.704	32.59
554.048	32.43
554.391	32.66
554.734	32.61
555.077	32.59
555.42	32.76
555.764	32.74
556.107	32.73
556.45	33.09
556.793	33.05
557.135	33.02
557.478	33.22
557.821	33.35
558.164	33.37
558.507	33.09
558.849	33.42
559.192	33.25
559.534	33.25
559.877	33.5
560.219	33.42
560.562	33.27
560.904	33.57
561.246	33.68
561.589	33.64
561.931	33.85
562.273	33.79
562.615	33.61
562.957	33.92
563.299	33.88
563.641	33.78
563.983	33.92
564.325	33.92
564.667	34.11
565.008	33.86
565.35	33.83
565.692	33.9
566.033	34.14
566.375	34.25
566.716	33.9
567.058	34.15
567.399	34.14
567.741	34.03
568.082	34.11
568.423	34.18
568.764	34.2
569.105	34.36
569.447	34.2
569.788	34.4
570.129	34.45
570.47	34.36
570.811	34.53
571.151	34.68
571.492	34.75
571.833	34.4
572.174	34.83
572.514	34.91
572.855	34.8
573.195	34.65
573.536	34.81
573.876	34.73
574.217	34.44
574.557	34.93
574.898	35.02
575.238	35.1
575.578	35.1
575.918	35.25
576.258	35.34
576.598	35.24
576.938	35.3
577.278	35.37
577.618	35.44
577.958	35.35
578.298	35.49
578.638	35.4
578.977	35.59
579.317	35.54
579.657	35.45
579.996	35.69
580.336	35.89
580.675	35.7
581.014	36.04
581.354	35.9
581.693	36.2
582.032	36.33
582.372	36.03
582.711	36.44
583.05	36.27
583.389	36.35
583.728	36.62
584.067	35.86
584.406	36.84
584.745	36.33
585.083	36.43
585.422	36.48
585.761	36.67
586.1	36.59
586.438	36.47
586.777	36.46
587.115	36.5
587.454	36.59
587.792	36.53
588.13	36.77
588.469	36.92
588.807	37.26
589.145	37.28
589.483	37.03
589.821	37.1
590.159	37.02
590.497	37.4
590.835	37.11
591.173	37.21
591.511	37.25
591.849	37.26
592.187	37.28
592.524	37.39
592.862	37.18
593.2	37.35
593.537	37.44
593.875	37.48
594.212	37.68
594.55	37.67
594.887	37.55
595.224	37.75
595.561	37.68
595.899	37.75
596.236	37.75
596.573	37.67
596.91	37.74
597.247	37.93
597.584	37.88
597.921	37.69
598.258	37.41
598.594	37.53
598.931	37.68
599.268	37.49
599.604	37.68
599.941	37.89
600.277	38.2
600.614	38.09
600.95	38.27
601.287	38.34
601.623	37.98
601.959	38.15
602.296	38.34
602.632	38.41
602.968	38.29
603.304	38.53
603.64	38.33
603.976	38.34
604.312	38.48
604.648	38.66
604.984	38.8
605.319	38.42
605.655	38.68
605.991	38.41
606.326	38.49
606.662	38.44
606.998	38.59
607.333	38.67
607.668	38.7
608.004	38.62
608.339	38.67
608.674	38.99
609.01	39.07
609.345	39.19
609.68	38.78
610.015	39.24
610.35	39.3
610.685	38.94
611.02	39.07
611.355	39
611.689	39.11
612.024	39.49
612.359	39.39
612.694	39.23
613.028	39.22
613.363	39.52
613.697	39.55
614.032	39.81
614.366	39.81
614.7	39.5
615.035	40.05
615.369	39.87
615.703	39.72
616.037	39.92
616.371	39.73
616.705	40.54
617.039	40.22
617.373	39.95
617.707	40.3
618.041	39.96
618.375	40.11
618.709	40.17
619.042	39.93
619.376	40.2
619.71	40.17
620.043	40.48
620.377	40.76
620.71	40.33
621.043	40.52
621.377	40.75
621.71	40.86
622.043	40.74
622.376	40.63
622.709	40.71
623.043	40.68
623.376	40.68
623.709	41.09
624.041	40.69
624.374	40.93
624.707	41.09
625.04	40.53
625.373	41.16
625.705	40.86
626.038	40.86
626.37	41.42
626.703	40.93
627.035	40.99
627.368	41.17
627.7	41
628.032	41.23
628.365	41.11
628.697	41.56
629.029	41.05
629.361	41.39
629.693	41.2
630.025	41.01
630.357	41.52
630.689	41.31
631.021	41.63
631.353	41.74
631.684	41.15
632.016	41.41
632.348	41.35
632.679	41.8
633.011	41.84
633.342	41.63
633.674	41.47
634.005	41.66
634.336	42.31
634.668	41.56
634.999	41.49
635.33	42.09
635.661	41.71
635.992	42.07
636.323	41.95
636.654	41.9
636.985	42.12
637.316	42.04
637.647	42.22
637.977	42.09
638.308	42.24
638.639	42.18
638.969	42.04
639.3	42.15
639.63	42.28
639.961	42.65
640.291	42.61
640.622	42.63
640.952	42.97
641.282	42.25
641.612	42.17
641.943	42.45
642.273	42.17
642.603	43.04
642.933	42.73
643.263	42.39
643.592	42.64
643.922	43.11
644.252	42.74
644.582	42.97
644.911	42.3
645.241	43.05
645.571	43.52
645.9	42.76
646.23	43.32
646.559	43.27
646.888	43.32
647.218	43.03
647.547	43.77
647.876	43.24
648.205	42.88
648.534	43.69
648.863	43.07
649.192	43.25
649.521	43.48
649.85	43.37
650.179	43.49
650.508	43.53
650.837	43.68
651.165	43.78
651.494	43.62
651.822	43.9
652.151	43.91
652.479	43.59
652.808	43.64
653.136	43.12
653.465	43.53
653.793	43.85
654.121	43.44
654.449	44.09
654.777	42.99
655.105	43.25
655.433	43.99
655.761	43.85
656.089	43.95
656.417	44.46
656.745	44.18
657.073	44.14
657.4	44.2
657.728	44.24
658.056	44.53
658.383	44.11
658.711	43.7
659.038	44.43
659.365	44.49
659.693	43.89
660.02	44.4
660.347	44.29
660.674	44.39
661.001	44.56
661.329	44.24
661.656	44.21
661.982	43.93
662.309	43.95
662.636	44.49
662.963	44.52
663.29	44.4
663.616	44.43
663.943	44.43
664.27	44.81
664.596	44.77
664.923	45.21
665.249	44.56
665.576	44.63
665.902	44.52
666.228	45.53
666.554	45.33
666.881	44.66
667.207	45.38
667.533	44.84
667.859	45.07
668.185	45.51
668.511	45.32
668.837	45.38
669.162	44.96
669.488	44.88
669.814	45.7
670.139	45.13
670.465	45.51
670.791	45.5
