Data from 21-4_chest_Reflection__3__138.txt Node

Date: Thu Dec 15 17:33:57 CST 2022
User: ToomeyLab
Spectrometer: FLMS14357
Trigger mode: 0
Integration Time (sec): 1.000000E-2
Scans to average: 100
Electric dark correction enabled: true
Nonlinearity correction enabled: false
Boxcar width: 0
XAxis mode: Wavelengths
Number of Pixels in Spectrum: 2048
>>>>>Begin Spectral Data<<<<<
189.047	-33.38
189.435	-33.38
189.823	-33.38
190.211	2.92
190.599	64.95
190.987	-169.37
191.375	90.91
191.763	70.45
192.151	87.47
192.538	235.17
192.926	-20.09
193.314	111.39
193.702	117.87
194.089	-102.46
194.477	160.99
194.864	-148.35
195.252	281.7
195.639	62.86
196.027	40.68
196.414	256.31
196.801	99.58
197.189	342.42
197.576	107.32
197.963	-885.71
198.351	33.05
198.738	-5.07
199.125	-11.47
199.512	25.09
199.899	-13.14
200.286	-4.82
200.673	38.1
201.06	-48.02
201.447	43.74
201.833	28.03
202.22	3.97
202.607	-50.9
202.994	10.93
203.38	10.02
203.767	-14.68
204.154	59.47
204.54	11.03
204.927	14.89
205.313	28.87
205.699	46.66
206.086	21.93
206.472	65.81
206.858	6.05
207.245	-0.24
207.631	-12.98
208.017	45.78
208.403	-22.04
208.789	-9.84
209.175	-2.13
209.561	-83.55
209.947	-28.15
210.333	2.13
210.719	27.97
211.105	53.51
211.491	32.07
211.876	-7.65
212.262	10.36
212.648	8.97
213.034	0.59
213.419	3.21
213.805	-12.66
214.19	-38.15
214.576	2.68
214.961	30.31
215.346	-15.83
215.732	20.8
216.117	-9.45
216.502	-21.76
216.888	18.72
217.273	-19.96
217.658	-2.96
218.043	-0.8
218.428	-41.11
218.813	8.87
219.198	-41.71
219.583	-2.95
219.968	11.25
220.353	-4.67
220.738	13.53
221.122	-1.75
221.507	-20.7
221.892	-22.97
222.276	-12.63
222.661	-11.76
223.046	-23.88
223.43	1.44
223.815	5.03
224.199	0.12
224.583	-5.86
224.968	-6.57
225.352	-5.36
225.736	-2.87
226.121	-4.41
226.505	-2.82
226.889	2.2
227.273	1.92
227.657	-1.74
228.041	4.5
228.425	1.4
228.809	1.09
229.193	0.26
229.577	-0.68
229.961	1.15
230.344	1.5
230.728	2.86
231.112	2.49
231.495	1.22
231.879	3.43
232.263	2.96
232.646	0.86
233.03	4.53
233.413	1.74
233.797	-1.41
234.18	2.39
234.563	3.05
234.946	2.15
235.33	0.7
235.713	2.45
236.096	4.06
236.479	2.57
236.862	0.71
237.245	-0.32
237.628	0.43
238.011	3.01
238.394	1.52
238.777	1.23
239.16	4.18
239.543	2.42
239.925	1.62
240.308	0.44
240.691	2.92
241.073	2.22
241.456	1.64
241.838	0.96
242.221	1.98
242.603	2.65
242.986	2.52
243.368	1.89
243.75	2.57
244.133	2.41
244.515	2.24
244.897	2.23
245.279	1.95
245.661	2.29
246.043	1.63
246.425	2.52
246.807	2.48
247.189	2.52
247.571	2.08
247.953	2.03
248.335	2.14
248.717	2.27
249.098	2.4
249.48	2.1
249.862	2.29
250.243	2.61
250.625	2.36
251.006	2.83
251.388	2.17
251.769	1.63
252.151	3.11
252.532	1.72
252.913	2.26
253.295	2.29
253.676	2.08
254.057	2.17
254.438	1.95
254.819	2.73
255.2	2.46
255.581	2.56
255.962	2.46
256.343	2.9
256.724	2.25
257.105	1.53
257.486	0.6
257.867	1.73
258.247	2.48
258.628	2.18
259.009	2.38
259.389	1.72
259.77	1.18
260.15	2.68
260.531	2.23
260.911	2.41
261.292	2.29
261.672	2.32
262.052	2.17
262.432	2.12
262.813	2.4
263.193	2.8
263.573	2.46
263.953	2.35
264.333	2.35
264.713	2.68
265.093	2.1
265.473	1.94
265.853	2.08
266.233	2.24
266.612	2.07
266.992	2.14
267.372	2.06
267.752	2.27
268.131	2.07
268.511	2.18
268.89	3.09
269.27	2.02
269.649	1.76
270.029	2.04
270.408	2.09
270.787	1.87
271.167	2.95
271.546	3.09
271.925	2.82
272.304	2.13
272.683	1.95
273.062	2.12
273.441	2.2
273.82	2.68
274.199	2.03
274.578	2.77
274.957	2.1
275.336	2.53
275.715	2.71
276.093	1.65
276.472	2.08
276.851	2.45
277.229	1.99
277.608	1.68
277.986	2.64
278.365	2.87
278.743	2.09
279.122	1.99
279.5	2.09
279.878	2.06
280.257	1.98
280.635	2.83
281.013	2.2
281.391	2.29
281.769	2.87
282.147	2.49
282.525	1.97
282.903	2.21
283.281	2.62
283.659	2.51
284.037	2.27
284.415	2.25
284.792	2.66
285.17	2.48
285.548	2.8
285.925	1.95
286.303	2.81
286.68	2.34
287.058	2.37
287.435	2.17
287.813	2.44
288.19	2.34
288.567	2.05
288.945	1.93
289.322	2.27
289.699	2.57
290.076	2.07
290.453	2.02
290.83	2.37
291.207	2.33
291.584	2.58
291.961	2.95
292.338	2.29
292.715	2.48
293.092	3.11
293.469	2.27
293.845	2.91
294.222	2.69
294.599	2.25
294.975	2.36
295.352	3
295.728	3
296.105	2.51
296.481	2.93
296.858	2.91
297.234	2.75
297.61	2.56
297.986	3.18
298.363	2.8
298.739	2.78
299.115	3.08
299.491	3.12
299.867	2.56
300.243	2.96
300.619	2.49
300.995	3.25
301.371	3.24
301.746	3.08
302.122	2.82
302.498	3.12
302.874	2.9
303.249	2.99
303.625	2.83
304	3.22
304.376	3.49
304.751	3.44
305.127	3.07
305.502	3.37
305.878	3.06
306.253	3.2
306.628	3.45
307.003	3.29
307.378	3.35
307.754	3.21
308.129	2.82
308.504	3.65
308.879	3.7
309.254	3.67
309.629	3.71
310.003	3.17
310.378	3.67
310.753	3.35
311.128	2.89
311.502	3.54
311.877	3.27
312.252	3.37
312.626	3.95
313.001	3.66
313.375	3.64
313.75	3.34
314.124	3.84
314.498	3.73
314.873	3.63
315.247	3.37
315.621	3.19
315.995	3.31
316.369	3.19
316.743	3.72
317.117	3.96
317.491	3.59
317.865	3.43
318.239	4.16
318.613	3.4
318.987	3.18
319.361	3.82
319.734	4
320.108	4.05
320.482	4.13
320.855	4.05
321.229	3.86
321.602	3.83
321.976	2.89
322.349	4.3
322.723	3.74
323.096	4.33
323.469	3.64
323.843	3.31
324.216	4.31
324.589	4.31
324.962	3.62
325.335	3.79
325.708	4.22
326.081	3.84
326.454	4.06
326.827	4.06
327.2	3.34
327.573	4.45
327.945	3.47
328.318	3.82
328.691	4.23
329.063	3.63
329.436	3.56
329.809	4.16
330.181	4.67
330.553	4.53
330.926	4.37
331.298	3.94
331.671	4.3
332.043	3.96
332.415	3.87
332.787	4.28
333.159	3.72
333.532	4.59
333.904	4.5
334.276	4.16
334.648	4.39
335.02	3.91
335.391	3.68
335.763	4.35
336.135	4.35
336.507	4.08
336.879	4.31
337.25	4.41
337.622	4.17
337.993	3.94
338.365	4.09
338.736	4.79
339.108	4.18
339.479	4.05
339.851	4.36
340.222	4.51
340.593	4.25
340.964	4.6
341.336	3.86
341.707	3.79
342.078	3.99
342.449	4.08
342.82	4.19
343.191	4.45
343.562	4.18
343.933	4
344.303	4.41
344.674	4.51
345.045	4.42
345.416	4.84
345.786	4.4
346.157	4.35
346.527	4.5
346.898	4.01
347.268	4.61
347.639	3.98
348.009	4.49
348.38	4.15
348.75	4.78
349.12	4.3
349.49	4.69
349.861	4.74
350.231	4.07
350.601	4.35
350.971	4.35
351.341	4.49
351.711	4.31
352.081	4.02
352.45	3.63
352.82	4.07
353.19	4.6
353.56	4.31
353.929	4.78
354.299	4.87
354.669	4.64
355.038	4.42
355.408	4.36
355.777	4.49
356.147	4.62
356.516	4.57
356.885	4.36
357.254	4.69
357.624	4.51
357.993	4.32
358.362	4.69
358.731	4.76
359.1	4.75
359.469	4.53
359.838	4.4
360.207	4.53
360.576	4.56
360.945	4.88
361.314	4.63
361.682	4.45
362.051	4.58
362.42	4.54
362.788	4.78
363.157	4.44
363.525	4.61
363.894	4.32
364.262	4.45
364.631	4.82
364.999	4.62
365.367	4.67
365.735	4.67
366.104	4.68
366.472	4.67
366.84	4.61
367.208	4.91
367.576	4.2
367.944	4.95
368.312	4.51
368.68	5.01
369.048	4.76
369.416	4.51
369.783	4.52
370.151	5.02
370.519	5.01
370.886	4.77
371.254	4.97
371.621	4.97
371.989	4.88
372.356	4.91
372.724	4.63
373.091	4.69
373.458	4.7
373.826	5.18
374.193	4.81
374.56	4.71
374.927	4.5
375.294	4.97
375.661	4.92
376.028	4.79
376.395	4.9
376.762	4.7
377.129	4.68
377.496	5.1
377.863	5.17
378.229	4.92
378.596	5.08
378.963	4.93
379.329	4.87
379.696	4.76
380.062	4.91
380.429	4.79
380.795	5.09
381.161	4.62
381.528	4.68
381.894	5.1
382.26	4.79
382.626	5.05
382.993	5.06
383.359	4.92
383.725	4.8
384.091	5.15
384.457	5.26
384.823	5.09
385.188	4.86
385.554	5.19
385.92	4.92
386.286	4.84
386.651	4.92
387.017	5.21
387.383	5.17
387.748	5.17
388.114	4.94
388.479	5.05
388.845	4.82
389.21	5.06
389.575	5.25
389.94	5.32
390.306	4.97
390.671	5.41
391.036	5.07
391.401	5.07
391.766	5.3
392.131	5.27
392.496	5.1
392.861	4.9
393.226	4.75
393.591	5.09
393.956	5.09
394.32	5.31
394.685	5.15
395.05	5.02
395.414	5.18
395.779	5.27
396.143	4.91
396.508	5.02
396.872	5.09
397.236	5.36
397.601	5.21
397.965	5.21
398.329	5.17
398.694	5.05
399.058	5.31
399.422	5.06
399.786	5.03
400.15	5.03
400.514	5.33
400.878	5.09
401.242	5.16
401.605	5.16
401.969	5.12
402.333	4.97
402.697	5.37
403.06	5.1
403.424	5.1
403.787	4.89
404.151	5.23
404.514	5.15
404.878	5.07
405.241	5.19
405.604	5.1
405.968	5.22
406.331	5.17
406.694	5.09
407.057	5.18
407.42	5.17
407.783	5.34
408.146	5.2
408.509	5.16
408.872	5.14
409.235	5.27
409.598	5.28
409.961	5.35
410.323	5.22
410.686	5.16
411.049	5.28
411.411	5.09
411.774	5.29
412.136	5.14
412.499	5.35
412.861	5.04
413.223	5.03
413.586	5.39
413.948	5.23
414.31	5.4
414.672	5.2
415.035	5.48
415.397	5.28
415.759	5.11
416.121	5.48
416.483	5.17
416.845	5.36
417.206	5.27
417.568	5.24
417.93	5.36
418.292	5.18
418.653	5.2
419.015	5.31
419.377	5.16
419.738	5.19
420.1	5.24
420.461	5.07
420.822	5.18
421.184	5.25
421.545	5.3
421.906	5.25
422.267	5.15
422.629	5.1
422.99	5.16
423.351	5.13
423.712	5.2
424.073	5.3
424.434	5.34
424.795	5.13
425.155	5.21
425.516	5.12
425.877	5.22
426.238	5.25
426.598	5.31
426.959	5.23
427.32	5.26
427.68	5.28
428.041	5.31
428.401	5.15
428.761	5.36
429.122	5.45
429.482	5.31
429.842	5.38
430.202	5.46
430.563	5.28
430.923	5.49
431.283	5.6
431.643	5.54
432.003	5.57
432.363	5.57
432.722	5.35
433.082	5.37
433.442	5.66
433.802	5.5
434.161	5.39
434.521	5.48
434.881	5.42
435.24	5.4
435.6	5.51
435.959	5.45
436.319	5.39
436.678	5.59
437.037	5.51
437.396	5.45
437.756	5.44
438.115	5.52
438.474	5.55
438.833	5.51
439.192	5.49
439.551	5.34
439.91	5.56
440.269	5.53
440.628	5.46
440.987	5.43
441.345	5.47
441.704	5.48
442.063	5.46
442.421	5.46
442.78	5.53
443.138	5.46
443.497	5.41
443.855	5.59
444.214	5.38
444.572	5.66
444.93	5.5
445.288	5.47
445.647	5.45
446.005	5.58
446.363	5.52
446.721	5.49
447.079	5.43
447.437	5.44
447.795	5.55
448.153	5.45
448.51	5.52
448.868	5.44
449.226	5.52
449.584	5.51
449.941	5.62
450.299	5.55
450.656	5.49
451.014	5.66
451.371	5.72
451.729	5.55
452.086	5.64
452.443	5.73
452.801	5.6
453.158	5.73
453.515	5.53
453.872	5.75
454.229	5.47
454.586	5.55
454.943	5.69
455.3	5.7
455.657	5.64
456.014	5.74
456.371	5.75
456.727	5.7
457.084	5.76
457.441	5.63
457.797	5.72
458.154	5.79
458.51	5.71
458.867	5.78
459.223	5.65
459.58	5.73
459.936	5.65
460.292	5.63
460.648	5.54
461.005	5.63
461.361	5.63
461.717	5.5
462.073	5.66
462.429	5.67
462.785	5.83
463.141	5.81
463.496	5.79
463.852	5.79
464.208	5.85
464.564	5.8
464.919	5.82
465.275	5.82
465.631	6.1
465.986	5.91
466.342	5.66
466.697	5.67
467.052	5.88
467.408	6.02
467.763	5.98
468.118	5.83
468.473	5.98
468.829	5.91
469.184	5.9
469.539	5.81
469.894	6.03
470.249	5.86
470.603	5.96
470.958	6.05
471.313	6.01
471.668	5.93
472.023	5.9
472.377	5.83
472.732	5.94
473.086	5.98
473.441	5.83
473.795	6.24
474.15	6.07
474.504	5.98
474.859	5.74
475.213	6.11
475.567	5.98
475.921	5.91
476.275	5.89
476.63	6.06
476.984	5.95
477.338	5.89
477.692	6.05
478.045	6.05
478.399	6.03
478.753	5.96
479.107	5.97
479.461	5.89
479.814	5.96
480.168	5.88
480.521	6.12
480.875	6.06
481.228	6
481.582	5.93
481.935	6.12
482.289	5.99
482.642	6.11
482.995	5.96
483.348	5.88
483.701	5.93
484.055	5.91
484.408	5.85
484.761	5.65
485.114	5.61
485.466	5.57
485.819	5.57
486.172	5.65
486.525	5.7
486.878	5.75
487.23	5.74
487.583	5.85
487.936	5.86
488.288	5.83
488.641	5.7
488.993	5.66
489.345	5.69
489.698	5.71
490.05	5.68
490.402	5.74
490.754	5.85
491.107	5.92
491.459	5.98
491.811	5.95
492.163	5.98
492.515	5.83
492.866	5.8
493.218	5.74
493.57	5.82
493.922	5.86
494.274	5.97
494.625	6.05
494.977	6.02
495.328	6.17
495.68	6.2
496.031	6.22
496.383	6.14
496.734	6.21
497.086	6.23
497.437	6.25
497.788	6.19
498.139	6.17
498.49	6.14
498.842	6.16
499.193	6.13
499.544	6.16
499.894	6.17
500.245	6.18
500.596	6.2
500.947	6.22
501.298	6.23
501.648	6.28
501.999	6.33
502.35	6.26
502.7	6.46
503.051	6.3
503.401	6.42
503.752	6.28
504.102	6.33
504.452	6.22
504.803	6.28
505.153	6.3
505.503	6.27
505.853	6.48
506.203	6.32
506.553	6.38
506.903	6.27
507.253	6.38
507.603	6.38
507.953	6.3
508.303	6.46
508.652	6.29
509.002	6.35
509.352	6.37
509.701	6.21
510.051	6.44
510.4	6.3
510.75	6.26
511.099	6.19
511.449	6.46
511.798	6.29
512.147	6.28
512.496	6.39
512.846	6.32
513.195	6.37
513.544	6.43
513.893	6.44
514.242	6.39
514.591	6.37
514.939	6.53
515.288	6.43
515.637	6.42
515.986	6.45
516.334	6.51
516.683	6.48
517.032	6.41
517.38	6.53
517.729	6.51
518.077	6.61
518.426	6.58
518.774	6.46
519.122	6.46
519.47	6.39
519.819	6.36
520.167	6.34
520.515	6.41
520.863	6.35
521.211	6.44
521.559	6.5
521.907	6.55
522.255	6.46
522.602	6.51
522.95	6.57
523.298	6.52
523.645	6.63
523.993	6.65
524.341	6.71
524.688	6.62
525.036	6.61
525.383	6.65
525.73	6.52
526.078	6.59
526.425	6.55
526.772	6.42
527.119	6.45
527.466	6.5
527.814	6.39
528.161	6.6
528.508	6.6
528.854	6.44
529.201	6.41
529.548	6.37
529.895	6.26
530.242	6.26
530.588	6.25
530.935	6.34
531.282	6.33
531.628	6.45
531.975	6.48
532.321	6.61
532.667	6.69
533.014	6.59
533.36	6.56
533.706	6.66
534.052	6.67
534.399	6.54
534.745	6.46
535.091	6.41
535.437	6.54
535.783	6.61
536.129	6.63
536.474	6.69
536.82	6.71
537.166	6.69
537.512	6.73
537.857	6.67
538.203	6.7
538.549	6.67
538.894	6.69
539.239	6.83
539.585	6.82
539.93	6.97
540.276	6.84
540.621	6.99
540.966	6.92
541.311	6.97
541.656	6.83
542.001	6.89
542.346	6.67
542.691	6.6
543.036	6.6
543.381	6.71
543.726	6.75
544.071	6.69
544.415	6.82
544.76	6.76
545.105	6.83
545.449	6.93
545.794	6.93
546.138	7
546.483	7.05
546.827	6.92
547.171	7.08
547.516	7.04
547.86	6.93
548.204	7.08
548.548	7.04
548.892	7.05
549.236	7
549.58	7.18
549.924	7.29
550.268	7.33
550.612	7.22
550.956	7.46
551.3	7.42
551.643	7.3
551.987	7.47
552.33	7.4
552.674	7.27
553.017	7.47
553.361	7.58
553.704	7.38
554.048	7.26
554.391	7.39
554.734	7.28
555.077	7.39
555.42	7.35
555.764	7.29
556.107	7.47
556.45	7.61
556.793	7.68
557.135	7.61
557.478	7.63
557.821	7.58
558.164	7.61
558.507	7.5
558.849	7.75
559.192	7.7
559.534	7.76
559.877	7.57
560.219	7.71
560.562	7.74
560.904	7.87
561.246	7.63
561.589	8.03
561.931	7.68
562.273	7.65
562.615	7.68
562.957	7.67
563.299	7.89
563.641	7.75
563.983	7.79
564.325	8.07
564.667	8.01
565.008	7.85
565.35	7.73
565.692	7.9
566.033	7.84
566.375	7.78
566.716	7.68
567.058	7.85
567.399	7.79
567.741	7.97
568.082	7.87
568.423	7.82
568.764	8.02
569.105	7.94
569.447	7.96
569.788	7.97
570.129	8.01
570.47	7.86
570.811	8.08
571.151	8.07
571.492	7.99
571.833	7.85
572.174	8.03
572.514	8.1
572.855	8.16
573.195	8.04
573.536	8.14
573.876	7.92
574.217	8.04
574.557	8.16
574.898	8.12
575.238	8.1
575.578	8.16
575.918	8.31
576.258	8.17
576.598	8.09
576.938	8.11
577.278	8.11
577.618	8.21
577.958	8.41
578.298	8.29
578.638	8.3
578.977	8.25
579.317	8.54
579.657	8.51
579.996	8.49
580.336	8.32
580.675	8.45
581.014	8.73
581.354	8.53
581.693	8.69
582.032	8.8
582.372	8.61
582.711	8.72
583.05	8.79
583.389	8.68
583.728	8.72
584.067	8.69
584.406	8.85
584.745	8.68
585.083	8.7
585.422	8.97
585.761	8.77
586.1	8.9
586.438	8.67
586.777	8.95
587.115	8.95
587.454	8.77
587.792	8.82
588.13	8.7
588.469	8.79
588.807	9.13
589.145	8.94
589.483	8.8
589.821	8.97
590.159	9.02
590.497	9.18
590.835	9.01
591.173	9.05
591.511	9.27
591.849	8.92
592.187	9.11
592.524	8.94
592.862	9
593.2	9.05
593.537	9.12
593.875	9.21
594.212	9.22
594.55	9.24
594.887	9.31
595.224	9.31
595.561	9.28
595.899	9.17
596.236	9.5
596.573	9.42
596.91	9.36
597.247	9.26
597.584	9.35
597.921	9.26
598.258	9.25
598.594	9.21
598.931	9.12
599.268	9.12
599.604	9.34
599.941	9.35
600.277	9.42
600.614	9.55
600.95	9.44
601.287	9.29
601.623	9.15
601.959	9.68
602.296	9.51
602.632	9.45
602.968	9.46
603.304	9.5
603.64	9.62
603.976	9.41
604.312	9.47
604.648	9.77
604.984	9.73
605.319	9.61
605.655	9.57
605.991	9.68
606.326	9.55
606.662	9.47
606.998	9.8
607.333	9.84
607.668	9.62
608.004	9.72
608.339	9.63
608.674	9.87
609.01	10.39
609.345	9.95
609.68	9.8
610.015	10
610.35	9.92
610.685	9.75
611.02	9.76
611.355	9.99
611.689	9.99
612.024	9.95
612.359	10.02
612.694	10.16
613.028	10.17
613.363	10.06
613.697	10.08
614.032	10.23
614.366	10.38
614.7	10.32
615.035	10.18
615.369	10.53
615.703	10.71
616.037	10.63
616.371	10.51
616.705	10.71
617.039	10.49
617.373	10.73
617.707	10.46
618.041	10.4
618.375	9.93
618.709	10.49
619.042	10.4
619.376	10.47
619.71	10.53
620.043	10.93
620.377	10.59
620.71	10.65
621.043	11.16
621.377	11.02
621.71	11.16
622.043	10.52
622.376	10.72
622.709	11.18
623.043	10.91
623.376	10.93
623.709	11.02
624.041	10.98
624.374	10.8
624.707	11.01
625.04	11.1
625.373	10.87
625.705	11.04
626.038	11.3
626.37	11.04
626.703	11.21
627.035	11.17
627.368	11.04
627.7	11.38
628.032	10.87
628.365	11.1
628.697	11.61
629.029	11.1
629.361	11.38
629.693	11.16
630.025	11.09
630.357	11.27
630.689	11.41
631.021	11.21
631.353	11.46
631.684	11.05
632.016	11.19
632.348	11.37
632.679	11.19
633.011	11.27
633.342	11.48
633.674	11.21
634.005	11.73
634.336	11.65
634.668	11.57
634.999	11.07
635.33	11.39
635.661	11.28
635.992	11.55
636.323	11.44
636.654	11.68
636.985	11.25
637.316	11.93
637.647	11.98
637.977	11.7
638.308	11.74
638.639	11.57
638.969	11.8
639.3	11.9
639.63	11.81
639.961	12.11
640.291	11.74
640.622	12.34
640.952	12.26
641.282	11.61
641.612	12.05
641.943	12.05
642.273	11.83
642.603	12.23
642.933	12.24
643.263	12.59
643.592	12.49
643.922	12.6
644.252	12.19
644.582	12.73
644.911	12.13
645.241	12.44
645.571	12.11
645.9	12.6
646.23	12.78
646.559	12
646.888	12.48
647.218	12.61
647.547	12.45
647.876	12.31
648.205	11.87
648.534	12.58
648.863	12.3
649.192	12.56
649.521	12.71
649.85	12.47
650.179	12.3
650.508	12.63
650.837	12.84
651.165	12.42
651.494	12.55
651.822	12.64
652.151	12.6
652.479	12.9
652.808	12.28
653.136	12.43
653.465	12.79
653.793	12.66
654.121	12.79
654.449	12.48
654.777	12.41
655.105	12.97
655.433	13.14
655.761	13.1
656.089	13.16
656.417	13.61
656.745	12.95
657.073	13.25
657.4	13.09
657.728	13
658.056	12.84
658.383	13.15
658.711	13.48
659.038	13.39
659.365	13.42
659.693	13.1
660.02	12.91
660.347	13.48
660.674	13
661.001	13.01
661.329	13.24
661.656	13.1
661.982	12.97
662.309	13.34
662.636	13.41
662.963	13.56
663.29	13.47
663.616	13.53
663.943	13.53
664.27	13.38
664.596	13.58
664.923	13.69
665.249	14.3
665.576	13.6
665.902	13.58
666.228	14.12
666.554	14.48
666.881	13.81
667.207	13.8
667.533	13.75
667.859	14.04
668.185	13.66
668.511	14.64
668.837	13.82
669.162	14.08
669.488	13.35
669.814	14.25
670.139	13.66
670.465	14.29
670.791	13.92
671.116	13.49
671.442	13.65
671.767	14.06
672.092	13.68
672.418	14.04
672.743	14.17
673.068	13.54
673.393	14.3
673.718	14.19
674.043	14.32
674.368	13.71
674.693	14.47
675.018	14.67
675.343	14.41
675.667	14.25
675.992	14.28
676.317	14.1
676.641	14.61
676.966	14.44
677.29	14.22
677.615	14.06
677.939	14.91
678.264	14.18
678.588	14.84
678.912	14.88
679.236	14.33
679.56	14.57
679.885	14.19
680.209	14.18
680.532	14.75
680.856	14.68
681.18	15.11
681.504	14.41
681.828	14.32
682.152	14.29
682.475	14.86
682.799	14.91
683.122	14.8
683.446	13.99
683.769	14.96
684.093	15.41
684.416	14.62
684.739	14.87
685.062	15.55
685.386	15.37
685.709	15.12
686.032	14.7
686.355	15.26
686.678	15.66
687.001	15.13
