Data from 21-4_chest_Reflection__0__135.txt Node

Date: Thu Dec 15 17:33:04 CST 2022
User: ToomeyLab
Spectrometer: FLMS14357
Trigger mode: 0
Integration Time (sec): 1.000000E-2
Scans to average: 100
Electric dark correction enabled: true
Nonlinearity correction enabled: false
Boxcar width: 0
XAxis mode: Wavelengths
Number of Pixels in Spectrum: 2048
>>>>>Begin Spectral Data<<<<<
189.047	-48.97
189.435	-48.97
189.823	-48.97
190.211	-152.01
190.599	95.72
190.987	-237.6
191.375	15.6
191.763	101.96
192.151	127.98
192.538	640.43
192.926	31.65
193.314	71.14
193.702	92.86
194.089	-139.27
194.477	-0.63
194.864	-294.04
195.252	239.67
195.639	93.82
196.027	-10.88
196.414	9.87
196.801	-292.65
197.189	96.42
197.576	194.24
197.963	-993.03
198.351	42.28
198.738	-3.88
199.125	-34.53
199.512	-15.94
199.899	-26.96
200.286	-9.94
200.673	38.82
201.06	-40.72
201.447	-1.83
201.833	7.69
202.22	-14.66
202.607	-0.02
202.994	12.89
203.38	43.66
203.767	-26.78
204.154	68.32
204.54	6.57
204.927	39.01
205.313	46.41
205.699	20.57
206.086	25.48
206.472	69.25
206.858	-27.42
207.245	-18.16
207.631	18.13
208.017	36.78
208.403	-20.11
208.789	9.02
209.175	46.43
209.561	-109.44
209.947	-0.35
210.333	-5.99
210.719	9.87
211.105	27.73
211.491	26.06
211.876	-22
212.262	21.76
212.648	-1.66
213.034	-6.95
213.419	23.79
213.805	-22.94
214.19	-28.4
214.576	-38.13
214.961	14.92
215.346	-4.77
215.732	-0.1
216.117	-3.93
216.502	8.83
216.888	2.49
217.273	8.66
217.658	11.78
218.043	-16.82
218.428	-5.42
218.813	19.02
219.198	-29.64
219.583	23.94
219.968	-2.98
220.353	-16.36
220.738	-8.88
221.122	-2.91
221.507	-7.57
221.892	-12.04
222.276	-29.15
222.661	-2.24
223.046	-13.35
223.43	18.05
223.815	3.98
224.199	0.41
224.583	-4.6
224.968	-3.73
225.352	-6.72
225.736	5.02
226.121	-1.56
226.505	7.42
226.889	-1.69
227.273	0.59
227.657	5.09
228.041	6.43
228.425	1.54
228.809	1.93
229.193	3.81
229.577	3.16
229.961	3.1
230.344	3.1
230.728	3.96
231.112	4.05
231.495	1.32
231.879	2.15
232.263	3.91
232.646	3.26
233.03	3.97
233.413	2.93
233.797	0.72
234.18	2.41
234.563	3.12
234.946	2.3
235.33	1.6
235.713	4.43
236.096	4.11
236.479	4.18
236.862	1.34
237.245	2.59
237.628	3.4
238.011	3.17
238.394	3.62
238.777	5.02
239.16	4.65
239.543	3.31
239.925	3.18
240.308	1.73
240.691	2.64
241.073	2.97
241.456	4.66
241.838	3.1
242.221	3.42
242.603	2.79
242.986	3.08
243.368	3.52
243.75	3.32
244.133	3.36
244.515	3.07
244.897	3.01
245.279	3.37
245.661	4.04
246.043	4.44
246.425	3.97
246.807	4.23
247.189	2.95
247.571	2.82
247.953	3.29
248.335	3.44
248.717	3.38
249.098	3.54
249.48	3.12
249.862	3.33
250.243	3.23
250.625	3.54
251.006	4.11
251.388	4.01
251.769	2.81
252.151	3.1
252.532	2.61
252.913	3.58
253.295	3.3
253.676	2.93
254.057	3.53
254.438	3.3
254.819	3.92
255.2	3.77
255.581	4.08
255.962	3.41
256.343	3.12
256.724	2.73
257.105	2.96
257.486	1.94
257.867	2.95
258.247	4.17
258.628	2.99
259.009	2.92
259.389	2.84
259.77	2.97
260.15	3.38
260.531	3.18
260.911	3.05
261.292	3.36
261.672	3.11
262.052	3.26
262.432	2.79
262.813	3.55
263.193	3.29
263.573	3.14
263.953	3.03
264.333	2.92
264.713	3.55
265.093	3
265.473	2.41
265.853	2.81
266.233	3.31
266.612	2.26
266.992	3.01
267.372	3.43
267.752	3.57
268.131	2.89
268.511	3.17
268.89	3.21
269.27	3.03
269.649	2.86
270.029	3.29
270.408	3.08
270.787	3.18
271.167	3.5
271.546	4.05
271.925	3.12
272.304	2.91
272.683	2.77
273.062	3.09
273.441	2.9
273.82	3
274.199	2.86
274.578	3.07
274.957	2.91
275.336	3.15
275.715	3.06
276.093	2.33
276.472	3.18
276.851	3.15
277.229	2.69
277.608	2.71
277.986	2.84
278.365	3.47
278.743	3.09
279.122	2.47
279.5	2.89
279.878	3.23
280.257	2.67
280.635	2.94
281.013	2.52
281.391	2.4
281.769	3.83
282.147	3.13
282.525	2.77
282.903	2.77
283.281	3.34
283.659	3.15
284.037	2.84
284.415	2.83
284.792	3.08
285.17	2.67
285.548	2.69
285.925	2.78
286.303	3.47
286.68	3.08
287.058	3.08
287.435	2.8
287.813	3
288.19	2.67
288.567	3.18
288.945	3.14
289.322	3.34
289.699	3.34
290.076	3.14
290.453	2.88
290.83	3.11
291.207	3.29
291.584	3.61
291.961	3.01
292.338	2.53
292.715	3.28
293.092	3.48
293.469	3.13
293.845	3.48
294.222	4.02
294.599	3.08
294.975	2.56
295.352	3.99
295.728	3.19
296.105	3.49
296.481	3.26
296.858	3.45
297.234	3.12
297.61	3.23
297.986	3.86
298.363	3.73
298.739	3.52
299.115	3.51
299.491	3.57
299.867	3.38
300.243	3.13
300.619	3.42
300.995	3.74
301.371	3.84
301.746	3.43
302.122	3.2
302.498	3.4
302.874	3.82
303.249	3.69
303.625	3.47
304	3.78
304.376	3.58
304.751	3.58
305.127	3.34
305.502	3.42
305.878	3.37
306.253	3.47
306.628	3.75
307.003	3.45
307.378	3.42
307.754	3.53
308.129	3.4
308.504	4.05
308.879	3.32
309.254	3.95
309.629	4.08
310.003	3.38
310.378	3.87
310.753	3.8
311.128	3.32
311.502	3.84
311.877	3.63
312.252	3.6
312.626	4.04
313.001	3.66
313.375	3.77
313.75	3.8
314.124	4.15
314.498	4.16
314.873	3.51
315.247	3.91
315.621	4.13
315.995	4.09
316.369	3.75
316.743	3.64
317.117	3.78
317.491	4.5
317.865	3.61
318.239	4.39
318.613	3.92
318.987	3.67
319.361	3.98
319.734	4.03
320.108	3.9
320.482	4.17
320.855	3.97
321.229	4.03
321.602	3.57
321.976	3.74
322.349	3.99
322.723	3.57
323.096	3.54
323.469	3.9
323.843	3.48
324.216	3.22
324.589	3.8
324.962	3.57
325.335	3.7
325.708	3.63
326.081	4.18
326.454	4.42
326.827	3.79
327.2	3.35
327.573	4.44
327.945	3.88
328.318	4.1
328.691	3.66
329.063	3.47
329.436	3.74
329.809	4.12
330.181	4.57
330.553	3.8
330.926	3.62
331.298	3.61
331.671	4.33
332.043	3.83
332.415	4.06
332.787	4.28
333.159	3.78
333.532	3.85
333.904	4.26
334.276	3.86
334.648	4.46
335.02	4.15
335.391	4.08
335.763	3.96
336.135	4.28
336.507	3.92
336.879	4.41
337.25	4.01
337.622	4.16
337.993	4.22
338.365	3.93
338.736	4.18
339.108	4.3
339.479	4.02
339.851	4.42
340.222	4.58
340.593	3.95
340.964	4.15
341.336	3.9
341.707	3.87
342.078	3.96
342.449	3.69
342.82	4.19
343.191	3.93
343.562	4.23
343.933	3.98
344.303	4.2
344.674	4.32
345.045	4.08
345.416	4.52
345.786	4.24
346.157	4.16
346.527	3.98
346.898	3.54
347.268	4.09
347.639	3.93
348.009	4.21
348.38	4.1
348.75	4.16
349.12	4.38
349.49	4.1
349.861	4.16
350.231	3.72
350.601	4.33
350.971	3.97
351.341	4.32
351.711	4.25
352.081	3.82
352.45	3.79
352.82	3.52
353.19	4.41
353.56	3.93
353.929	4.37
354.299	4.25
354.669	4.25
355.038	4.37
355.408	4.1
355.777	4.21
356.147	4.29
356.516	4.04
356.885	4.3
357.254	4.25
357.624	3.52
357.993	4.15
358.362	4.51
358.731	4.31
359.1	4.47
359.469	4.24
359.838	4.23
360.207	4.1
360.576	4.52
360.945	4.2
361.314	4.01
361.682	4.05
362.051	4.34
362.42	4.44
362.788	4.38
363.157	4.18
363.525	4.31
363.894	3.93
364.262	4.13
364.631	4.47
364.999	4.25
365.367	4.2
365.735	4.2
366.104	4.15
366.472	4.24
366.84	4.38
367.208	4.43
367.576	4.03
367.944	4.41
368.312	4.17
368.68	4.59
369.048	4.51
369.416	3.89
369.783	4.18
370.151	4.49
370.519	4.7
370.886	4.03
371.254	4.62
371.621	4.45
371.989	4.69
372.356	4.35
372.724	4.22
373.091	4.27
373.458	4.32
373.826	4.75
374.193	4.39
374.56	4.34
374.927	4.43
375.294	4.63
375.661	4.66
376.028	4.49
376.395	4.47
376.762	4.07
377.129	4.15
377.496	4.51
377.863	4.61
378.229	4.4
378.596	4.58
378.963	4.41
379.329	4.37
379.696	4.13
380.062	4.49
380.429	4.13
380.795	4.45
381.161	4.22
381.528	4.58
381.894	4.2
382.26	4.72
382.626	4.78
382.993	4.88
383.359	4.59
383.725	4.42
384.091	4.67
384.457	4.5
384.823	4.66
385.188	4.78
385.554	4.51
385.92	4.29
386.286	4.46
386.651	4.58
387.017	4.6
387.383	4.59
387.748	4.34
388.114	4.51
388.479	4.52
388.845	4.06
389.21	4.83
389.575	4.7
389.94	4.75
390.306	4.66
390.671	4.69
391.036	4.66
391.401	4.57
391.766	4.66
392.131	4.94
392.496	4.66
392.861	4.71
393.226	4.35
393.591	4.79
393.956	4.54
394.32	4.77
394.685	4.69
395.05	4.72
395.414	4.57
395.779	4.86
396.143	4.43
396.508	4.64
396.872	4.35
397.236	4.66
397.601	4.72
397.965	4.62
398.329	4.61
398.694	4.36
399.058	4.61
399.422	4.58
399.786	4.57
400.15	4.45
400.514	4.78
400.878	4.56
401.242	4.74
401.605	4.69
401.969	4.7
402.333	4.64
402.697	4.91
403.06	4.72
403.424	4.72
403.787	4.6
404.151	4.89
404.514	4.64
404.878	4.59
405.241	4.92
405.604	4.69
405.968	4.7
406.331	4.72
406.694	4.69
407.057	4.54
407.42	4.65
407.783	4.87
408.146	4.91
408.509	4.83
408.872	4.68
409.235	4.81
409.598	4.76
409.961	5.12
410.323	4.6
410.686	4.85
411.049	4.73
411.411	4.64
411.774	4.88
412.136	4.82
412.499	4.94
412.861	4.51
413.223	4.88
413.586	4.8
413.948	5.13
414.31	4.98
414.672	4.81
415.035	4.92
415.397	4.67
415.759	4.63
416.121	5.06
416.483	4.62
416.845	4.88
417.206	4.77
417.568	4.76
417.93	4.82
418.292	4.87
418.653	4.74
419.015	4.72
419.377	4.56
419.738	4.82
420.1	4.85
420.461	4.69
420.822	4.7
421.184	4.72
421.545	4.76
421.906	4.87
422.267	4.88
422.629	4.7
422.99	4.76
423.351	4.76
423.712	4.8
424.073	4.81
424.434	4.93
424.795	4.66
425.155	4.8
425.516	4.74
425.877	4.77
426.238	4.75
426.598	4.75
426.959	4.84
427.32	4.77
427.68	4.82
428.041	5.09
428.401	4.86
428.761	5.04
429.122	4.88
429.482	4.88
429.842	4.95
430.202	5.14
430.563	4.92
430.923	4.98
431.283	5.15
431.643	5.06
432.003	5.11
432.363	5.21
432.722	5.14
433.082	4.99
433.442	5.12
433.802	4.93
434.161	5
434.521	5.09
434.881	5.04
435.24	4.97
435.6	5.03
435.959	5.04
436.319	5.15
436.678	5.29
437.037	4.99
437.396	4.95
437.756	5.07
438.115	5.09
438.474	5.12
438.833	4.99
439.192	5.1
439.551	5.09
439.91	4.99
440.269	5.06
440.628	5.09
440.987	5.18
441.345	5.08
441.704	5.1
442.063	4.97
442.421	5.07
442.78	5.07
443.138	5.13
443.497	5.14
443.855	5.18
444.214	4.98
444.572	5.29
444.93	5.18
445.288	5.19
445.647	4.99
446.005	5.11
446.363	5.09
446.721	5.13
447.079	5.08
447.437	5.21
447.795	5.13
448.153	5.11
448.51	5.2
448.868	5.1
449.226	5.19
449.584	5.06
449.941	5.24
450.299	5.18
450.656	5.1
451.014	5.34
451.371	5.29
451.729	5.37
452.086	5.33
452.443	5.33
452.801	5.23
453.158	5.42
453.515	5.28
453.872	5.34
454.229	5.24
454.586	5.26
454.943	5.32
455.3	5.36
455.657	5.23
456.014	5.38
456.371	5.33
456.727	5.4
457.084	5.46
457.441	5.4
457.797	5.48
458.154	5.39
458.51	5.44
458.867	5.26
459.223	5.4
459.58	5.44
459.936	5.36
460.292	5.42
460.648	5.27
461.005	5.27
461.361	5.24
461.717	5.29
462.073	5.4
462.429	5.36
462.785	5.49
463.141	5.4
463.496	5.54
463.852	5.57
464.208	5.49
464.564	5.44
464.919	5.46
465.275	5.53
465.631	5.71
465.986	5.49
466.342	5.51
466.697	5.48
467.052	5.6
467.408	5.66
467.763	5.54
468.118	5.38
468.473	5.58
468.829	5.41
469.184	5.76
469.539	5.49
469.894	5.6
470.249	5.68
470.603	5.7
470.958	5.79
471.313	5.54
471.668	5.69
472.023	5.73
472.377	5.53
472.732	5.73
473.086	5.57
473.441	5.73
473.795	5.94
474.15	5.68
474.504	5.7
474.859	5.57
475.213	5.83
475.567	5.53
475.921	5.76
476.275	5.74
476.63	5.73
476.984	5.55
477.338	5.84
477.692	5.67
478.045	5.78
478.399	5.9
478.753	5.72
479.107	5.75
479.461	5.78
479.814	5.77
480.168	5.74
480.521	5.84
480.875	5.73
481.228	5.73
481.582	5.91
481.935	5.87
482.289	5.76
482.642	5.92
482.995	5.76
483.348	5.68
483.701	5.77
484.055	5.72
484.408	5.78
484.761	5.56
485.114	5.48
485.466	5.48
485.819	5.5
486.172	5.54
486.525	5.61
486.878	5.69
487.23	5.68
487.583	5.72
487.936	5.78
488.288	5.75
488.641	5.66
488.993	5.63
489.345	5.64
489.698	5.63
490.05	5.71
490.402	5.73
490.754	5.74
491.107	5.78
491.459	5.91
491.811	5.87
492.163	5.83
492.515	5.78
492.866	5.75
493.218	5.75
493.57	5.8
493.922	5.8
494.274	5.96
494.625	6.06
494.977	5.99
495.328	5.94
495.68	5.98
496.031	5.94
496.383	6.09
496.734	6.05
497.086	6.16
497.437	6.16
497.788	6.23
498.139	6.04
498.49	6.13
498.842	6.17
499.193	6.09
499.544	6.1
499.894	6.22
500.245	6.23
500.596	6.23
500.947	6.16
501.298	6.25
501.648	6.2
501.999	6.26
502.35	6.22
502.7	6.42
503.051	6.26
503.401	6.29
503.752	6.28
504.102	6.15
504.452	6.18
504.803	6.34
505.153	6.35
505.503	6.35
505.853	6.43
506.203	6.45
506.553	6.4
506.903	6.37
507.253	6.37
507.603	6.45
507.953	6.33
508.303	6.52
508.652	6.29
509.002	6.49
509.352	6.43
509.701	6.38
510.051	6.57
510.4	6.55
510.75	6.37
511.099	6.42
511.449	6.48
511.798	6.23
512.147	6.33
512.496	6.43
512.846	6.38
513.195	6.49
513.544	6.51
513.893	6.56
514.242	6.54
514.591	6.42
514.939	6.64
515.288	6.58
515.637	6.65
515.986	6.48
516.334	6.67
516.683	6.59
517.032	6.67
517.38	6.58
517.729	6.56
518.077	6.56
518.426	6.66
518.774	6.57
519.122	6.61
519.47	6.53
519.819	6.64
520.167	6.57
520.515	6.63
520.863	6.63
521.211	6.65
521.559	6.63
521.907	6.76
522.255	6.69
522.602	6.92
522.95	6.85
523.298	6.78
523.645	6.84
523.993	6.76
524.341	6.91
524.688	6.88
525.036	6.84
525.383	6.99
525.73	6.79
526.078	6.95
526.425	6.85
526.772	6.8
527.119	6.8
527.466	6.85
527.814	6.86
528.161	6.83
528.508	6.97
528.854	6.81
529.201	6.79
529.548	6.73
529.895	6.72
530.242	6.65
530.588	6.74
530.935	6.76
531.282	6.73
531.628	6.81
531.975	6.88
532.321	6.96
532.667	7.05
533.014	7.11
533.36	7.05
533.706	7.08
534.052	7.03
534.399	6.99
534.745	6.94
535.091	6.98
535.437	6.98
535.783	7.06
536.129	7.15
536.474	7.18
536.82	7.19
537.166	7.2
537.512	7.22
537.857	7.18
538.203	7.16
538.549	7.21
538.894	7.28
539.239	7.37
539.585	7.29
539.93	7.45
540.276	7.4
540.621	7.5
540.966	7.63
541.311	7.51
541.656	7.38
542.001	7.26
542.346	7.31
542.691	7.26
543.036	7.23
543.381	7.32
543.726	7.36
544.071	7.37
544.415	7.45
544.76	7.47
545.105	7.45
545.449	7.45
545.794	7.52
546.138	7.56
546.483	7.78
546.827	7.61
547.171	7.77
547.516	7.64
547.86	7.67
548.204	7.83
548.548	7.65
548.892	7.78
549.236	7.71
549.58	7.81
549.924	7.94
550.268	8.04
550.612	7.91
550.956	8.12
551.3	8.18
551.643	7.9
551.987	8.08
552.33	8.3
552.674	8.01
553.017	8.09
553.361	8.03
553.704	8.19
554.048	7.94
554.391	8.31
554.734	8.05
555.077	8.25
555.42	8.14
555.764	8.18
556.107	8.42
556.45	8.37
556.793	8.41
557.135	8.31
557.478	8.31
557.821	8.47
558.164	8.5
558.507	8.41
558.849	8.76
559.192	8.45
559.534	8.37
559.877	8.53
560.219	8.51
560.562	8.36
560.904	8.61
561.246	8.53
561.589	8.84
561.931	8.7
562.273	8.55
562.615	8.66
562.957	8.61
563.299	8.78
563.641	8.87
563.983	8.68
564.325	8.77
564.667	8.86
565.008	8.68
565.35	8.61
565.692	8.93
566.033	8.9
566.375	8.8
566.716	8.72
567.058	8.82
567.399	8.75
567.741	8.86
568.082	8.95
568.423	8.88
568.764	8.91
569.105	9.02
569.447	8.79
569.788	8.92
570.129	8.99
570.47	8.91
570.811	8.95
571.151	9.05
571.492	9.15
571.833	9.17
572.174	9.28
572.514	9.18
572.855	9.39
573.195	9.03
573.536	9.3
573.876	9.23
574.217	9.22
574.557	9.23
574.898	9.22
575.238	9.51
575.578	9.45
575.918	9.38
576.258	9.48
576.598	9.57
576.938	9.43
577.278	9.5
577.618	9.38
577.958	9.65
578.298	9.41
578.638	9.53
578.977	9.73
579.317	9.67
579.657	9.6
579.996	9.78
580.336	9.69
580.675	9.61
581.014	10.07
581.354	9.71
581.693	10.09
582.032	9.92
582.372	9.98
582.711	9.99
583.05	9.88
583.389	9.86
583.728	10.19
584.067	9.99
584.406	10.17
584.745	9.73
585.083	10.08
585.422	10.1
585.761	10.36
586.1	10.14
586.438	10.18
586.777	10.29
587.115	10.24
587.454	10.3
587.792	10.18
588.13	10.13
588.469	10.3
588.807	10.6
589.145	10.42
589.483	10.54
589.821	10.48
590.159	10.47
590.497	10.48
590.835	10.65
591.173	10.6
591.511	10.72
591.849	10.71
592.187	10.43
592.524	10.47
592.862	10.66
593.2	10.6
593.537	10.59
593.875	10.71
594.212	10.82
594.55	10.81
594.887	10.76
595.224	10.94
595.561	10.94
595.899	10.64
596.236	10.65
596.573	10.62
596.91	10.89
597.247	11.04
597.584	10.92
597.921	10.76
598.258	10.99
598.594	10.87
598.931	10.72
599.268	10.7
599.604	10.95
599.941	10.92
600.277	11.14
600.614	11.06
600.95	11.22
601.287	10.96
601.623	10.91
601.959	11.4
602.296	11.13
602.632	11.2
602.968	11.51
603.304	11.33
603.64	11.17
603.976	11.42
604.312	11.14
604.648	11.39
604.984	11.62
605.319	11.49
605.655	11.34
605.991	11.48
606.326	11.44
606.662	11.36
606.998	11.58
607.333	11.49
607.668	11.41
608.004	11.61
608.339	11.56
608.674	11.72
609.01	11.93
609.345	11.8
609.68	11.62
610.015	12
610.35	12.05
610.685	11.59
611.02	11.56
611.355	11.77
611.689	11.88
612.024	11.75
612.359	11.99
612.694	11.96
613.028	11.82
613.363	12.1
613.697	12.1
614.032	12.04
614.366	11.98
614.7	12.28
615.035	12.52
615.369	12.56
615.703	12.35
616.037	12.25
616.371	12.49
616.705	12.57
617.039	12.42
617.373	12.51
617.707	12.6
618.041	12.42
618.375	12.02
618.709	12.44
619.042	12.29
619.376	12.66
619.71	12.44
620.043	12.83
620.377	12.61
620.71	12.41
621.043	13.12
621.377	12.97
621.71	13.21
622.043	12.73
622.376	12.7
622.709	13.13
623.043	12.85
623.376	12.77
623.709	13.38
624.041	12.82
624.374	13.04
624.707	12.95
625.04	12.88
625.373	12.91
625.705	13.15
626.038	13.13
626.37	12.85
626.703	13.44
627.035	13.47
627.368	13.17
627.7	12.97
628.032	13.14
628.365	13.27
628.697	13.56
629.029	13.26
629.361	13.62
629.693	13.36
630.025	13.51
630.357	13.56
630.689	13.21
631.021	13.21
631.353	13.57
631.684	13.4
632.016	12.95
632.348	13.57
632.679	13.87
633.011	13.52
633.342	13.69
633.674	13.82
634.005	13.73
634.336	13.87
634.668	13.81
634.999	13.59
635.33	13.84
635.661	13.5
635.992	13.71
636.323	13.67
636.654	14.07
636.985	13.95
637.316	13.82
637.647	14.03
637.977	14.31
638.308	14.2
638.639	14.09
638.969	14.05
639.3	13.97
639.63	13.79
639.961	14.56
640.291	14.33
640.622	14.65
640.952	14.59
641.282	14.11
641.612	14.39
641.943	14.29
642.273	14.39
642.603	14.58
642.933	14.54
643.263	14.51
643.592	14.41
643.922	14.59
644.252	14.44
644.582	15.24
644.911	14.68
645.241	14.68
645.571	14.74
645.9	14.56
646.23	14.8
646.559	14.66
646.888	14.88
647.218	15.07
647.547	14.47
647.876	14.77
648.205	14.79
648.534	15.34
648.863	14.76
649.192	15.06
649.521	14.96
649.85	15.7
650.179	15.16
650.508	14.68
650.837	15.59
651.165	15.17
651.494	15.12
651.822	15.43
652.151	15.3
652.479	15.24
652.808	15.27
653.136	14.95
653.465	15.16
653.793	15.31
654.121	15.59
654.449	15.39
654.777	15.31
655.105	14.9
655.433	15.84
655.761	15.72
656.089	15.86
656.417	15.64
656.745	15.84
657.073	15.6
657.4	15.1
657.728	15.04
658.056	15.13
658.383	16.01
658.711	15.59
659.038	15.74
659.365	16.18
659.693	15.94
660.02	15.73
660.347	15.64
660.674	15.64
661.001	15.8
661.329	16.06
661.656	15.58
661.982	15.87
662.309	15.66
662.636	15.87
662.963	16.46
663.29	16.39
663.616	16.12
663.943	16.17
664.27	16.37
664.596	15.74
664.923	16.32
665.249	16.31
665.576	16.41
665.902	16.24
666.228	16.17
666.554	17.02
666.881	15.82
667.207	16.53
667.533	16.91
667.859	16.51
668.185	16.05
668.511	16.55
668.837	16.64
669.162	16.4
669.488	16.6
669.814	16.58
670.139	16.65
670.465	16.81
670.791	16.44
671.116	16.08
671.442	15.95
671.767	16.67
672.092	16.86
672.418	16.56
672.743	16.61
673.068	16.96
673.393	17.13
673.718	16.7
674.043	17.26
674.368	17.19
674.693	16.87
675.018	17.21
675.343	16.67
675.667	17.11
675.992	17.15
676.317	16.16
676.641	17.17
676.966	16.93
677.29	17.12
677.615	17.1
677.939	17.58
678.264	17.41
678.588	16.69
678.912	17.43
679.236	16.93
679.56	17.53
679.885	17.53
680.209	17.87
680.532	17.98
680.856	17.88
681.18	17.72
681.504	17.37
681.828	17.09
682.152	17.6
682.475	17.17
682.799	17.68
683.122	17.68
683.446	17
683.769	17.91
684.093	17.53
684.416	18.23
684.739	17.66
