Data from 21-4_crown_Reflection__3__143.txt Node

Date: Thu Dec 15 17:36:27 CST 2022
User: ToomeyLab
Spectrometer: FLMS14357
Trigger mode: 0
Integration Time (sec): 1.000000E-2
Scans to average: 100
Electric dark correction enabled: true
Nonlinearity correction enabled: false
Boxcar width: 0
XAxis mode: Wavelengths
Number of Pixels in Spectrum: 2048
>>>>>Begin Spectral Data<<<<<
189.047	-47.13
189.435	-47.13
189.823	-47.13
190.211	73.36
190.599	72.75
190.987	-17.01
191.375	6.11
191.763	2.9
192.151	179.43
192.538	152.51
192.926	56.12
193.314	103.52
193.702	-64.64
194.089	-120.56
194.477	10.07
194.864	-256
195.252	105.79
195.639	8.35
196.027	77.47
196.414	205.34
196.801	-166.44
197.189	205.34
197.576	57.62
197.963	-78.05
198.351	16.51
198.738	-63.52
199.125	-50.52
199.512	32.38
199.899	-9.13
200.286	-87.9
200.673	29.33
201.06	-16.91
201.447	20.41
201.833	-9.15
202.22	31.92
202.607	-1.82
202.994	1.09
203.38	20.88
203.767	11.85
204.154	0.56
204.54	12.58
204.927	22.68
205.313	41.43
205.699	20.39
206.086	11.95
206.472	27.26
206.858	5.18
207.245	-40.34
207.631	-14.67
208.017	23.58
208.403	-26.56
208.789	34.93
209.175	-6.85
209.561	-92.27
209.947	-27.5
210.333	-27.61
210.719	5.59
211.105	20.67
211.491	4.74
211.876	-26.27
212.262	14.65
212.648	1.02
213.034	4.86
213.419	-7.05
213.805	-35.03
214.19	-31.25
214.576	-53.03
214.961	13.06
215.346	-5.91
215.732	-12.05
216.117	7.5
216.502	12.28
216.888	-17.42
217.273	-15.59
217.658	4.78
218.043	-66.94
218.428	3.53
218.813	20.59
219.198	-19.75
219.583	5.77
219.968	1.52
220.353	-25.05
220.738	-3.66
221.122	-16.06
221.507	6.23
221.892	-28.28
222.276	-27.15
222.661	-11.77
223.046	-9.39
223.43	10.9
223.815	-1.41
224.199	1.12
224.583	-9.89
224.968	-9.17
225.352	-5.64
225.736	4.85
226.121	1.44
226.505	-7.25
226.889	-1.19
227.273	-1.48
227.657	2.63
228.041	-1.74
228.425	-1.39
228.809	0.45
229.193	2.41
229.577	2.91
229.961	1.94
230.344	3.7
230.728	3.81
231.112	3.64
231.495	1.2
231.879	2.38
232.263	3.55
232.646	3.83
233.03	4.03
233.413	3.05
233.797	0.94
234.18	3.77
234.563	4.79
234.946	3
235.33	1.16
235.713	2.49
236.096	2.18
236.479	2.94
236.862	1.47
237.245	1.91
237.628	3.99
238.011	2.52
238.394	0.62
238.777	2.53
239.16	3.8
239.543	3.59
239.925	2.42
240.308	2.93
240.691	1.16
241.073	2.08
241.456	3.29
241.838	1.68
242.221	2.52
242.603	2.95
242.986	2.56
243.368	2.64
243.75	2.86
244.133	3.21
244.515	2.32
244.897	2.72
245.279	2.59
245.661	2.02
246.043	2.13
246.425	3.24
246.807	2.47
247.189	2.6
247.571	2.12
247.953	2.68
248.335	2.6
248.717	2.97
249.098	2.86
249.48	2.44
249.862	2.79
250.243	2.64
250.625	2.39
251.006	3.55
251.388	2.87
251.769	1.17
252.151	2.44
252.532	2.02
252.913	2.49
253.295	2.19
253.676	2.48
254.057	2.31
254.438	2.08
254.819	1.77
255.2	3.13
255.581	2.8
255.962	2.75
256.343	2.88
256.724	2.19
257.105	2.67
257.486	1.96
257.867	2.7
258.247	2.79
258.628	2.23
259.009	1.97
259.389	1.58
259.77	2.58
260.15	3.35
260.531	2.52
260.911	2.44
261.292	2.44
261.672	2.57
262.052	2.35
262.432	2.03
262.813	2.83
263.193	2.3
263.573	2.31
263.953	2.22
264.333	1.76
264.713	2.52
265.093	2.66
265.473	1.45
265.853	2.21
266.233	2.37
266.612	1.73
266.992	2.4
267.372	2.62
267.752	2.34
268.131	2
268.511	2.38
268.89	2.5
269.27	1.75
269.649	2.16
270.029	1.88
270.408	1.94
270.787	2.61
271.167	2.52
271.546	3.29
271.925	2.2
272.304	2.47
272.683	2.02
273.062	2.37
273.441	2.18
273.82	2.25
274.199	2.51
274.578	2.28
274.957	1.83
275.336	2.39
275.715	2.57
276.093	1.76
276.472	2.15
276.851	2.74
277.229	2.16
277.608	2.06
277.986	2.47
278.365	2.11
278.743	2.6
279.122	1.53
279.5	2.49
279.878	2.28
280.257	2.29
280.635	2.58
281.013	1.7
281.391	1.88
281.769	2.75
282.147	2.24
282.525	1.9
282.903	1.75
283.281	2.17
283.659	2.31
284.037	2.12
284.415	1.86
284.792	2.05
285.17	2.15
285.548	2.2
285.925	2.06
286.303	2.35
286.68	2.63
287.058	2.62
287.435	2.37
287.813	2.19
288.19	2.3
288.567	2.28
288.945	1.81
289.322	2.46
289.699	2.71
290.076	2.05
290.453	2.18
290.83	2.07
291.207	2.13
291.584	2.43
291.961	2.12
292.338	2.05
292.715	1.75
293.092	2.58
293.469	2.28
293.845	2.53
294.222	2.8
294.599	1.58
294.975	1.75
295.352	2.15
295.728	2.08
296.105	2.26
296.481	2.24
296.858	1.99
297.234	1.63
297.61	2.14
297.986	2.31
298.363	2.21
298.739	2.46
299.115	2.33
299.491	2.44
299.867	2.25
300.243	1.99
300.619	1.55
300.995	2.15
301.371	2.24
301.746	2.17
302.122	1.7
302.498	1.74
302.874	2.31
303.249	2.09
303.625	1.86
304	2.27
304.376	2.48
304.751	2.16
305.127	1.54
305.502	2.36
305.878	2.52
306.253	1.87
306.628	2.36
307.003	2
307.378	1.81
307.754	1.88
308.129	1.83
308.504	2.3
308.879	2.25
309.254	2.35
309.629	1.99
310.003	1.72
310.378	2.11
310.753	2.07
311.128	1.94
311.502	2.04
311.877	1.84
312.252	2.21
312.626	2.62
313.001	2.01
313.375	2.34
313.75	2.18
314.124	2.34
314.498	2.29
314.873	1.91
315.247	1.91
315.621	2.19
315.995	1.67
316.369	2
316.743	1.8
317.117	1.87
317.491	2.32
317.865	1.59
318.239	2.45
318.613	2.18
318.987	1.56
319.361	2.31
319.734	2.21
320.108	2.01
320.482	2.37
320.855	2.13
321.229	2.22
321.602	2.21
321.976	2.12
322.349	2.45
322.723	2.16
323.096	1.97
323.469	1.65
323.843	1.42
324.216	2.15
324.589	2.35
324.962	1.94
325.335	1.65
325.708	1.92
326.081	2.25
326.454	2.48
326.827	1.96
327.2	1.95
327.573	2.44
327.945	1.94
328.318	2
328.691	1.9
329.063	1.83
329.436	1.42
329.809	2.46
330.181	2.69
330.553	2.2
330.926	2.46
331.298	1.95
331.671	2.32
332.043	1.95
332.415	2.51
332.787	2.36
333.159	1.89
333.532	2.48
333.904	2.29
334.276	2.18
334.648	2.38
335.02	2.19
335.391	2.03
335.763	2.2
336.135	2.42
336.507	2.31
336.879	2.02
337.25	2.38
337.622	2.16
337.993	2.2
338.365	1.74
338.736	2.16
339.108	2.32
339.479	1.66
339.851	2.12
340.222	2.57
340.593	1.96
340.964	2.38
341.336	1.59
341.707	1.8
342.078	1.98
342.449	2.39
342.82	2.02
343.191	2.03
343.562	2.32
343.933	1.83
344.303	2.65
344.674	2.28
345.045	2.19
345.416	2.49
345.786	2.13
346.157	2.01
346.527	2.42
346.898	1.97
347.268	2.46
347.639	2.3
348.009	2.41
348.38	2.16
348.75	2.52
349.12	2.38
349.49	1.73
349.861	2.32
350.231	2.38
350.601	2.13
350.971	2.03
351.341	1.92
351.711	2.09
352.081	1.71
352.45	1.94
352.82	1.76
353.19	1.88
353.56	2.11
353.929	1.99
354.299	2.13
354.669	2.22
355.038	2.1
355.408	2.02
355.777	2.1
356.147	2.12
356.516	2.02
356.885	2.09
357.254	2.06
357.624	1.81
357.993	2.11
358.362	2.44
358.731	2.32
359.1	1.96
359.469	2.28
359.838	2.24
360.207	2.11
360.576	2.34
360.945	2.45
361.314	2.04
361.682	1.9
362.051	2.3
362.42	2.24
362.788	2.13
363.157	1.99
363.525	2.31
363.894	1.85
364.262	2.34
364.631	2.33
364.999	2.12
365.367	2.28
365.735	1.94
366.104	2.21
366.472	2.02
366.84	2.23
367.208	2.46
367.576	2.32
367.944	2.14
368.312	1.9
368.68	2.69
369.048	2.16
369.416	2.11
369.783	2.22
370.151	2.76
370.519	2.64
370.886	2.17
371.254	2.56
371.621	2.15
371.989	2.73
372.356	2.41
372.724	2.11
373.091	2.12
373.458	2.15
373.826	2.3
374.193	2.39
374.56	2.24
374.927	2.29
375.294	2.39
375.661	2.03
376.028	2.04
376.395	2.16
376.762	1.95
377.129	2.31
377.496	2.28
377.863	2.37
378.229	2.28
378.596	2.15
378.963	2.22
379.329	2.39
379.696	2.17
380.062	2.31
380.429	1.97
380.795	2.55
381.161	2.02
381.528	2.06
381.894	2.49
382.26	2.35
382.626	2.26
382.993	2.47
383.359	2.34
383.725	2.03
384.091	2.46
384.457	1.93
384.823	2.36
385.188	2.24
385.554	2.53
385.92	2.15
386.286	2.41
386.651	2.24
387.017	2.73
387.383	2.16
387.748	2.28
388.114	2.45
388.479	2.35
388.845	2.38
389.21	2.49
389.575	2.49
389.94	2.42
390.306	2.38
390.671	2.39
391.036	2.36
391.401	2.47
391.766	2.18
392.131	2.61
392.496	2.33
392.861	2.25
393.226	2.29
393.591	2.44
393.956	2.38
394.32	2.53
394.685	2.27
395.05	2.22
395.414	2.57
395.779	2.58
396.143	2.39
396.508	2.21
396.872	2.34
397.236	2.7
397.601	2.5
397.965	2.5
398.329	2.27
398.694	2.43
399.058	2.52
399.422	2.61
399.786	2.21
400.15	2.41
400.514	2.37
400.878	2.41
401.242	2.44
401.605	2.26
401.969	2.25
402.333	2.41
402.697	2.6
403.06	2.27
403.424	2.4
403.787	2.19
404.151	2.56
404.514	2.42
404.878	2.28
405.241	2.58
405.604	2.53
405.968	2.36
406.331	2.43
406.694	2.47
407.057	2.37
407.42	2.38
407.783	2.47
408.146	2.44
408.509	2.52
408.872	2.16
409.235	2.41
409.598	2.41
409.961	2.39
410.323	2.27
410.686	2.4
411.049	2.51
411.411	2.25
411.774	2.38
412.136	2.37
412.499	2.6
412.861	2.08
413.223	2.15
413.586	2.43
413.948	2.6
414.31	2.49
414.672	2.44
415.035	2.55
415.397	2.28
415.759	2.21
416.121	2.47
416.483	2.34
416.845	2.4
417.206	2.39
417.568	2.37
417.93	2.39
418.292	2.14
418.653	2.35
419.015	2.25
419.377	2.42
419.738	2.39
420.1	2.4
420.461	2.37
420.822	2.39
421.184	2.39
421.545	2.45
421.906	2.38
422.267	2.33
422.629	2.36
422.99	2.31
423.351	2.29
423.712	2.41
424.073	2.51
424.434	2.53
424.795	2.28
425.155	2.24
425.516	2.37
425.877	2.38
426.238	2.39
426.598	2.34
426.959	2.44
427.32	2.4
427.68	2.37
428.041	2.44
428.401	2.35
428.761	2.54
429.122	2.43
429.482	2.3
429.842	2.3
430.202	2.48
430.563	2.44
430.923	2.48
431.283	2.66
431.643	2.56
432.003	2.48
432.363	2.58
432.722	2.4
433.082	2.39
433.442	2.57
433.802	2.54
434.161	2.45
434.521	2.45
434.881	2.48
435.24	2.49
435.6	2.43
435.959	2.48
436.319	2.46
436.678	2.51
437.037	2.49
437.396	2.47
437.756	2.43
438.115	2.37
438.474	2.49
438.833	2.46
439.192	2.44
439.551	2.34
439.91	2.41
440.269	2.43
440.628	2.39
440.987	2.39
441.345	2.41
441.704	2.45
442.063	2.37
442.421	2.49
442.78	2.48
443.138	2.41
443.497	2.43
443.855	2.47
444.214	2.27
444.572	2.46
444.93	2.51
445.288	2.41
445.647	2.4
446.005	2.46
446.363	2.44
446.721	2.51
447.079	2.29
447.437	2.41
447.795	2.42
448.153	2.37
448.51	2.49
448.868	2.35
449.226	2.39
449.584	2.5
449.941	2.41
450.299	2.31
450.656	2.46
451.014	2.45
451.371	2.55
451.729	2.49
452.086	2.35
452.443	2.53
452.801	2.44
453.158	2.65
453.515	2.45
453.872	2.49
454.229	2.33
454.586	2.3
454.943	2.44
455.3	2.46
455.657	2.42
456.014	2.51
456.371	2.53
456.727	2.49
457.084	2.61
457.441	2.57
457.797	2.42
458.154	2.59
458.51	2.39
458.867	2.58
459.223	2.54
459.58	2.54
459.936	2.32
460.292	2.36
460.648	2.43
461.005	2.41
461.361	2.43
461.717	2.4
462.073	2.51
462.429	2.49
462.785	2.52
463.141	2.37
463.496	2.46
463.852	2.64
464.208	2.54
464.564	2.37
464.919	2.42
465.275	2.43
465.631	2.63
465.986	2.51
466.342	2.41
466.697	2.55
467.052	2.54
467.408	2.69
467.763	2.53
468.118	2.38
468.473	2.5
468.829	2.53
469.184	2.5
469.539	2.28
469.894	2.61
470.249	2.44
470.603	2.61
470.958	2.5
471.313	2.63
471.668	2.59
472.023	2.53
472.377	2.41
472.732	2.54
473.086	2.56
473.441	2.43
473.795	2.62
474.15	2.53
474.504	2.55
474.859	2.26
475.213	2.5
475.567	2.46
475.921	2.61
476.275	2.51
476.63	2.61
476.984	2.41
477.338	2.54
477.692	2.55
478.045	2.55
478.399	2.5
478.753	2.52
479.107	2.61
479.461	2.46
479.814	2.49
480.168	2.49
480.521	2.52
480.875	2.54
481.228	2.59
481.582	2.53
481.935	2.6
482.289	2.53
482.642	2.69
482.995	2.61
483.348	2.38
483.701	2.49
484.055	2.4
484.408	2.49
484.761	2.45
485.114	2.33
485.466	2.33
485.819	2.36
486.172	2.38
486.525	2.41
486.878	2.48
487.23	2.43
487.583	2.5
487.936	2.38
488.288	2.49
488.641	2.4
488.993	2.36
489.345	2.38
489.698	2.39
490.05	2.42
490.402	2.42
490.754	2.41
491.107	2.39
491.459	2.53
491.811	2.4
492.163	2.42
492.515	2.39
492.866	2.38
493.218	2.39
493.57	2.47
493.922	2.45
494.274	2.51
494.625	2.55
494.977	2.54
495.328	2.45
495.68	2.47
496.031	2.46
496.383	2.52
496.734	2.42
497.086	2.57
497.437	2.54
497.788	2.61
498.139	2.53
498.49	2.55
498.842	2.55
499.193	2.48
499.544	2.5
499.894	2.41
500.245	2.56
500.596	2.49
500.947	2.57
501.298	2.44
501.648	2.53
501.999	2.64
502.35	2.47
502.7	2.73
503.051	2.6
503.401	2.54
503.752	2.48
504.102	2.53
504.452	2.42
504.803	2.59
505.153	2.52
505.503	2.36
505.853	2.59
506.203	2.64
506.553	2.58
506.903	2.55
507.253	2.51
507.603	2.53
507.953	2.56
508.303	2.6
508.652	2.5
509.002	2.62
509.352	2.5
509.701	2.5
510.051	2.56
510.4	2.56
510.75	2.45
511.099	2.41
511.449	2.57
511.798	2.46
512.147	2.5
512.496	2.55
512.846	2.52
513.195	2.6
513.544	2.59
513.893	2.48
514.242	2.61
514.591	2.56
514.939	2.61
515.288	2.67
515.637	2.56
515.986	2.46
516.334	2.55
516.683	2.6
517.032	2.59
517.38	2.38
517.729	2.55
518.077	2.6
518.426	2.52
518.774	2.53
519.122	2.55
519.47	2.51
519.819	2.53
520.167	2.52
520.515	2.46
520.863	2.55
521.211	2.5
521.559	2.52
521.907	2.49
522.255	2.51
522.602	2.56
522.95	2.52
523.298	2.57
523.645	2.55
523.993	2.54
524.341	2.6
524.688	2.42
525.036	2.49
525.383	2.57
525.73	2.53
526.078	2.61
526.425	2.49
526.772	2.5
527.119	2.49
527.466	2.53
527.814	2.48
528.161	2.6
528.508	2.51
528.854	2.5
529.201	2.52
529.548	2.48
529.895	2.38
530.242	2.4
530.588	2.42
530.935	2.45
531.282	2.44
531.628	2.46
531.975	2.47
532.321	2.51
532.667	2.57
533.014	2.51
533.36	2.54
533.706	2.51
534.052	2.51
534.399	2.49
534.745	2.43
535.091	2.41
535.437	2.41
535.783	2.41
536.129	2.53
536.474	2.59
536.82	2.6
537.166	2.46
537.512	2.54
537.857	2.53
538.203	2.51
538.549	2.41
538.894	2.47
539.239	2.59
539.585	2.61
539.93	2.63
540.276	2.65
540.621	2.62
540.966	2.61
541.311	2.64
541.656	2.39
542.001	2.49
542.346	2.44
542.691	2.42
543.036	2.48
543.381	2.42
543.726	2.5
544.071	2.47
544.415	2.53
544.76	2.5
545.105	2.45
545.449	2.48
545.794	2.54
546.138	2.47
546.483	2.59
546.827	2.44
547.171	2.6
547.516	2.56
547.86	2.56
548.204	2.61
548.548	2.48
548.892	2.57
549.236	2.54
549.58	2.62
549.924	2.63
550.268	2.7
550.612	2.7
550.956	2.79
551.3	2.73
551.643	2.67
551.987	2.69
552.33	2.79
552.674	2.6
553.017	2.63
553.361	2.53
553.704	2.72
554.048	2.52
554.391	2.64
554.734	2.43
555.077	2.62
555.42	2.59
555.764	2.47
556.107	2.67
556.45	2.62
556.793	2.81
557.135	2.76
557.478	2.7
557.821	2.58
558.164	2.5
558.507	2.64
558.849	2.72
559.192	2.57
559.534	2.62
559.877	2.55
560.219	2.6
560.562	2.57
560.904	2.84
561.246	2.61
561.589	2.75
561.931	2.61
562.273	2.64
562.615	2.51
562.957	2.57
563.299	2.62
563.641	2.59
563.983	2.52
564.325	2.78
564.667	2.54
565.008	2.6
565.35	2.51
565.692	2.67
566.033	2.67
566.375	2.56
566.716	2.46
567.058	2.47
567.399	2.66
567.741	2.5
568.082	2.54
568.423	2.53
568.764	2.72
569.105	2.62
569.447	2.59
569.788	2.66
570.129	2.56
570.47	2.44
570.811	2.64
571.151	2.55
571.492	2.64
571.833	2.49
572.174	2.68
572.514	2.72
572.855	2.61
573.195	2.5
573.536	2.66
573.876	2.46
574.217	2.51
574.557	2.64
574.898	2.57
575.238	2.74
575.578	2.65
575.918	2.64
576.258	2.82
576.598	2.62
576.938	2.7
577.278	2.61
577.618	2.6
577.958	2.48
578.298	2.58
578.638	2.66
578.977	2.67
579.317	2.57
579.657	2.6
579.996	2.66
580.336	2.75
580.675	2.39
581.014	2.66
581.354	2.58
581.693	2.94
582.032	2.78
582.372	2.8
582.711	2.81
583.05	2.46
583.389	2.75
583.728	2.95
584.067	2.52
584.406	2.79
584.745	2.54
585.083	2.67
585.422	2.74
585.761	2.82
586.1	2.69
586.438	2.77
586.777	2.71
587.115	2.9
587.454	2.58
587.792	2.71
588.13	2.82
588.469	2.54
588.807	2.66
589.145	2.72
589.483	2.48
589.821	2.56
590.159	2.7
590.497	2.79
590.835	2.8
591.173	2.56
591.511	2.79
591.849	2.78
592.187	2.45
592.524	2.65
592.862	2.67
593.2	2.68
593.537	2.73
593.875	2.7
594.212	2.73
594.55	2.67
594.887	2.71
595.224	2.74
595.561	2.61
595.899	2.55
596.236	2.68
596.573	2.41
596.91	2.62
597.247	2.67
597.584	2.84
597.921	2.73
598.258	2.67
598.594	2.59
598.931	2.61
599.268	2.68
599.604	2.57
599.941	2.61
600.277	2.66
600.614	2.55
600.95	2.65
601.287	2.42
601.623	2.34
601.959	2.85
602.296	2.58
602.632	2.56
602.968	2.58
603.304	2.81
603.64	2.6
603.976	2.52
604.312	2.71
604.648	2.58
604.984	2.64
605.319	2.67
605.655	2.55
605.991	2.68
606.326	2.69
606.662	2.53
606.998	2.66
607.333	2.57
607.668	2.48
608.004	2.47
608.339	2.67
608.674	2.55
609.01	2.92
609.345	2.66
609.68	2.49
610.015	2.62
610.35	2.84
610.685	2.52
611.02	2.69
611.355	2.58
611.689	2.58
612.024	2.83
612.359	2.82
612.694	2.88
613.028	2.53
613.363	2.75
613.697	2.67
614.032	2.76
614.366	2.7
614.7	2.64
615.035	2.68
615.369	2.84
615.703	2.83
616.037	2.7
616.371	2.73
616.705	2.77
617.039	2.76
617.373	2.72
617.707	2.78
618.041	2.43
618.375	2.22
618.709	2.83
619.042	2.8
619.376	2.63
619.71	2.33
620.043	3.03
620.377	2.81
620.71	2.44
621.043	2.9
621.377	2.84
621.71	3.11
622.043	2.73
622.376	2.64
622.709	3.1
623.043	2.65
623.376	2.56
623.709	2.97
624.041	2.43
624.374	2.68
624.707	2.64
625.04	2.81
625.373	2.84
625.705	2.75
626.038	2.67
626.37	2.53
626.703	2.66
627.035	2.53
627.368	3.03
627.7	2.58
628.032	2.66
628.365	2.91
628.697	3.02
629.029	2.64
629.361	2.91
629.693	2.55
630.025	2.8
630.357	2.72
630.689	2.72
631.021	2.7
631.353	2.96
631.684	2.44
632.016	2.71
632.348	2.55
632.679	2.91
633.011	2.81
633.342	2.81
633.674	2.63
634.005	2.63
634.336	2.85
634.668	2.84
634.999	2.58
635.33	2.97
635.661	2.78
635.992	3.01
636.323	2.79
636.654	2.7
636.985	2.82
637.316	2.47
637.647	2.81
637.977	2.71
638.308	3.25
638.639	2.73
638.969	2.73
639.3	2.32
639.63	2.47
639.961	3.06
640.291	2.5
640.622	3.23
640.952	2.93
641.282	2.4
641.612	2.7
641.943	1.97
642.273	2.61
642.603	2.59
642.933	3.09
643.263	2.97
643.592	3.03
643.922	3.26
644.252	2.96
644.582	2.86
644.911	2.36
645.241	2.64
645.571	2.69
645.9	3.02
646.23	3.13
646.559	2.59
646.888	2.75
647.218	2.83
647.547	2.55
647.876	2.61
648.205	2.29
648.534	2.74
648.863	2.89
649.192	2.83
649.521	2.98
649.85	2.83
650.179	2.68
650.508	2.6
650.837	3.09
651.165	3.04
651.494	2.8
651.822	2.77
652.151	2.94
652.479	2.79
652.808	2.8
653.136	2.72
653.465	3.08
653.793	2.67
654.121	2.81
654.449	2.6
654.777	2.72
655.105	2.47
655.433	2.86
655.761	2.73
656.089	3.02
656.417	3.11
656.745	3.16
657.073	2.54
657.4	2.24
657.728	2.71
658.056	2.68
658.383	2.87
658.711	3.04
659.038	3.49
659.365	3.08
659.693	2.66
660.02	2.82
660.347	2.75
660.674	2.83
661.001	2.77
661.329	2.86
661.656	2.45
661.982	2.62
662.309	2.78
662.636	2.61
662.963	2.23
663.29	3.24
663.616	2.56
663.943	2.82
664.27	2.77
664.596	2.81
664.923	2.73
665.249	2.95
665.576	2.65
665.902	2.95
666.228	3.2
666.554	3.06
666.881	2.47
667.207	2.92
667.533	2.49
667.859	2.71
668.185	2.83
668.511	3.62
668.837	2.61
669.162	2.86
669.488	2.46
669.814	2.72
670.139	2.5
670.465	3.05
670.791	2.39
671.116	2.33
671.442	2.31
671.767	3.1
672.092	2.83
672.418	2.91
672.743	2.9
673.068	2.05
673.393	2.94
673.718	2.47
674.043	3.13
674.368	2.65
674.693	3.05
675.018	3.39
675.343	3.04
675.667	3.03
675.992	3.06
676.317	2.43
676.641	3.22
676.966	2.55
677.29	2.41
677.615	3.06
677.939	2.79
678.264	2.59
678.588	2.93
678.912	3.01
679.236	2.65
679.56	2.43
679.885	2.53
680.209	3.34
680.532	2.94
680.856	2.62
681.18	3.06
681.504	3.15
681.828	2.6
682.152	2.91
682.475	2.9
682.799	2.81
683.122	2.87
683.446	2.05
683.769	3.77
684.093	3.11
684.416	2.48
684.739	2.59
685.062	3.11
685.386	3.03
685.709	3.05
686.032	3.05
686.355	2.47
686.678	3.1
687.001	2.7
687.324	2.47
687.646	2.8
687.969	2.92
688.292	2.5
688.614	3.37
688.937	3.19
689.26	2.96
689.582	2.94
689.904	2.76
690.227	3.24
690.549	3.02
690.871	2.13
691.194	2.9
691.516	2.42
691.838	3.08
692.16	2.4
