Data from 21-4_crown_Reflection__4__144.txt Node

Date: Thu Dec 15 17:36:37 CST 2022
User: ToomeyLab
Spectrometer: FLMS14357
Trigger mode: 0
Integration Time (sec): 1.000000E-2
Scans to average: 100
Electric dark correction enabled: true
Nonlinearity correction enabled: false
Boxcar width: 0
XAxis mode: Wavelengths
Number of Pixels in Spectrum: 2048
>>>>>Begin Spectral Data<<<<<
189.047	-83.07
189.435	-83.07
189.823	-83.07
190.211	-25.48
190.599	120.35
190.987	-153.47
191.375	60.13
191.763	49.02
192.151	-2.17
192.538	99.26
192.926	128.9
193.314	52.72
193.702	-243.05
194.089	140.25
194.477	179.42
194.864	-327.3
195.252	412.75
195.639	68.5
196.027	76.31
196.414	90.38
196.801	-47.71
197.189	274.84
197.576	267.95
197.963	-1218.12
198.351	11.78
198.738	-42.9
199.125	-116.13
199.512	26.06
199.899	-38.01
200.286	-26.99
200.673	19.6
201.06	-28.31
201.447	-15.04
201.833	2.96
202.22	-4.61
202.607	-3.97
202.994	-31.2
203.38	-39.49
203.767	6.32
204.154	34.36
204.54	20.78
204.927	-14.7
205.313	9.6
205.699	13.36
206.086	24.37
206.472	30.53
206.858	2.97
207.245	-48.24
207.631	-1.29
208.017	31.94
208.403	-30.89
208.789	-10.1
209.175	-51.48
209.561	-123.61
209.947	-8.75
210.333	-14.99
210.719	0.89
211.105	4.83
211.491	17.89
211.876	-20.46
212.262	-11.13
212.648	-11.05
213.034	-35.2
213.419	-2.73
213.805	-48.33
214.19	-47.61
214.576	18.24
214.961	22.67
215.346	-15.68
215.732	1.79
216.117	-3.87
216.502	-9.54
216.888	-14.88
217.273	0.83
217.658	33
218.043	-41.4
218.428	-13.62
218.813	4.46
219.198	-22.9
219.583	-26.41
219.968	9.51
220.353	-16.01
220.738	-7.92
221.122	4.47
221.507	-2.89
221.892	-28.95
222.276	-37.58
222.661	-12.38
223.046	-24.63
223.43	4.08
223.815	-7.01
224.199	-3.86
224.583	0.9
224.968	3.78
225.352	-13.14
225.736	6.7
226.121	-4.43
226.505	-4.12
226.889	-1.91
227.273	-9.57
227.657	1.55
228.041	1.02
228.425	-5.89
228.809	-2.4
229.193	0.47
229.577	-0.52
229.961	0.95
230.344	2.43
230.728	2.87
231.112	3.04
231.495	0.45
231.879	1.27
232.263	2.96
232.646	1.26
233.03	2.07
233.413	0.64
233.797	0.23
234.18	1.03
234.563	3.38
234.946	1.81
235.33	0.87
235.713	2.65
236.096	3.24
236.479	1.19
236.862	1.91
237.245	0.32
237.628	1.01
238.011	3.28
238.394	1.74
238.777	0.05
239.16	1.43
239.543	2.24
239.925	1.29
240.308	0.23
240.691	0.1
241.073	1.89
241.456	2.14
241.838	2.33
242.221	2.19
242.603	2.31
242.986	1.8
243.368	2.33
243.75	2.26
244.133	2.58
244.515	2.04
244.897	1.53
245.279	1.18
245.661	2.05
246.043	1.78
246.425	2.52
246.807	1.69
247.189	2.2
247.571	1.69
247.953	1.68
248.335	1.91
248.717	2.12
249.098	1.87
249.48	1.91
249.862	2.05
250.243	2
250.625	2.01
251.006	2.84
251.388	1.81
251.769	1.16
252.151	1.91
252.532	1.03
252.913	1.78
253.295	2.12
253.676	2
254.057	1.65
254.438	2.03
254.819	1.73
255.2	1.9
255.581	2.46
255.962	2.07
256.343	1.88
256.724	1.01
257.105	0.56
257.486	0.01
257.867	1.45
258.247	1.23
258.628	1.95
259.009	1.56
259.389	1.33
259.77	1.72
260.15	2.2
260.531	1.99
260.911	1.93
261.292	2.17
261.672	1.91
262.052	1.94
262.432	1.69
262.813	2.17
263.193	2.07
263.573	2.06
263.953	1.68
264.333	1.93
264.713	1.82
265.093	0.96
265.473	1.14
265.853	2.18
266.233	2.45
266.612	0.74
266.992	1.51
267.372	2.36
267.752	1.86
268.131	1.9
268.511	1.57
268.89	2.21
269.27	1.6
269.649	1.54
270.029	1.68
270.408	1.87
270.787	1.21
271.167	1.95
271.546	2.22
271.925	1.86
272.304	1.77
272.683	1.68
273.062	1.68
273.441	1.61
273.82	1.85
274.199	1.6
274.578	1.95
274.957	1.52
275.336	1.99
275.715	2.12
276.093	0.98
276.472	1.39
276.851	1.12
277.229	1.43
277.608	1.42
277.986	1.65
278.365	2.38
278.743	1.5
279.122	1.68
279.5	1.58
279.878	1.53
280.257	1.54
280.635	1.66
281.013	1.37
281.391	2.22
281.769	2.01
282.147	1.45
282.525	0.95
282.903	1.73
283.281	2.7
283.659	2.35
284.037	1.69
284.415	1.27
284.792	1.62
285.17	1.65
285.548	1.78
285.925	1.53
286.303	2.25
286.68	1.51
287.058	1.86
287.435	1.68
287.813	1.95
288.19	1.65
288.567	1.74
288.945	1.62
289.322	1.75
289.699	2.12
290.076	1.46
290.453	1.14
290.83	1.92
291.207	2.02
291.584	1.79
291.961	1.64
292.338	1.37
292.715	1.58
293.092	1.91
293.469	1.7
293.845	1.7
294.222	1.99
294.599	1.05
294.975	1.45
295.352	1.69
295.728	1.74
296.105	1.74
296.481	1.91
296.858	1.99
297.234	1.05
297.61	1.85
297.986	1.96
298.363	1.89
298.739	1.81
299.115	1.8
299.491	2.33
299.867	1.84
300.243	1.61
300.619	1.75
300.995	1.66
301.371	1.83
301.746	1.57
302.122	1.3
302.498	1.16
302.874	1.85
303.249	1.91
303.625	1.1
304	1.78
304.376	2.39
304.751	2.17
305.127	1.58
305.502	1.68
305.878	1.57
306.253	1.55
306.628	1.76
307.003	1.68
307.378	1.81
307.754	2.39
308.129	1.39
308.504	2
308.879	1.98
309.254	2.19
309.629	1.81
310.003	1.73
310.378	2.03
310.753	1.9
311.128	1.82
311.502	1.56
311.877	1.97
312.252	1.93
312.626	1.98
313.001	2.07
313.375	2.14
313.75	1.99
314.124	2.22
314.498	2.04
314.873	1.72
315.247	1.82
315.621	1.42
315.995	1.91
316.369	1.34
316.743	1.21
317.117	2.11
317.491	1.79
317.865	1.57
318.239	1.96
318.613	1.91
318.987	1.25
319.361	1.64
319.734	1.57
320.108	2.02
320.482	2.27
320.855	1.15
321.229	2.03
321.602	1.8
321.976	0.86
322.349	2.86
322.723	1.66
323.096	1.35
323.469	1.63
323.843	1.34
324.216	2.02
324.589	1.55
324.962	1.7
325.335	1.7
325.708	2.15
326.081	1.55
326.454	2.25
326.827	1.78
327.2	1.31
327.573	2.18
327.945	1.81
328.318	1.51
328.691	1.56
329.063	1.64
329.436	1.6
329.809	2.44
330.181	2.47
330.553	1.84
330.926	2.16
331.298	1.68
331.671	2.3
332.043	2.08
332.415	1.94
332.787	2.22
333.159	2.25
333.532	2.02
333.904	2.11
334.276	2.03
334.648	1.54
335.02	1.57
335.391	1.52
335.763	1.8
336.135	2.3
336.507	1.85
336.879	1.78
337.25	1.86
337.622	2.18
337.993	1.74
338.365	2.06
338.736	2.17
339.108	1.95
339.479	1.6
339.851	1.59
340.222	2.42
340.593	1.94
340.964	1.72
341.336	1.96
341.707	1.92
342.078	1.71
342.449	1.86
342.82	2.23
343.191	1.75
343.562	2.06
343.933	1.88
344.303	1.88
344.674	1.87
345.045	1.95
345.416	2.14
345.786	1.45
346.157	2.08
346.527	1.83
346.898	1.7
347.268	2.01
347.639	1.62
348.009	2.34
348.38	1.6
348.75	1.99
349.12	1.89
349.49	1.75
349.861	2.23
350.231	1.92
350.601	1.76
350.971	1.88
351.341	2.08
351.711	2.07
352.081	1.74
352.45	1.67
352.82	1.57
353.19	1.82
353.56	1.56
353.929	2.15
354.299	1.97
354.669	2.3
355.038	1.89
355.408	2
355.777	1.83
356.147	2.14
356.516	1.55
356.885	2.04
357.254	1.51
357.624	1.81
357.993	1.99
358.362	1.96
358.731	2.02
359.1	2.13
359.469	2.06
359.838	2.13
360.207	2.1
360.576	2.15
360.945	2.15
361.314	1.93
361.682	1.73
362.051	1.9
362.42	1.92
362.788	2.14
363.157	1.79
363.525	2.13
363.894	1.83
364.262	1.9
364.631	2.32
364.999	2.01
365.367	1.82
365.735	1.96
366.104	1.78
366.472	2.06
366.84	2.14
367.208	1.99
367.576	2.02
367.944	1.74
368.312	1.96
368.68	2.08
369.048	1.89
369.416	1.92
369.783	1.93
370.151	2.33
370.519	2.29
370.886	2.21
371.254	2.2
371.621	2.4
371.989	2.21
372.356	2.06
372.724	1.91
373.091	2.03
373.458	1.67
373.826	2.16
374.193	2
374.56	1.91
374.927	1.81
375.294	2.28
375.661	2.24
376.028	2.01
376.395	2.06
376.762	1.9
377.129	1.82
377.496	2.3
377.863	1.94
378.229	2.28
378.596	2.17
378.963	1.92
379.329	2.12
379.696	2.03
380.062	2.1
380.429	1.77
380.795	2.38
381.161	1.8
381.528	1.69
381.894	2.09
382.26	2.02
382.626	2.19
382.993	2.38
383.359	1.93
383.725	1.91
384.091	2.23
384.457	1.8
384.823	2.29
385.188	2.07
385.554	2.34
385.92	1.89
386.286	2.14
386.651	1.79
387.017	2.23
387.383	2.16
387.748	2.27
388.114	2.12
388.479	1.81
388.845	1.91
389.21	2.44
389.575	2.13
389.94	2.02
390.306	2.04
390.671	2.19
391.036	1.98
391.401	1.97
391.766	1.99
392.131	2.22
392.496	2.2
392.861	2.11
393.226	2.07
393.591	2.22
393.956	2.22
394.32	2.41
394.685	2.16
395.05	2.14
395.414	2.09
395.779	2.34
396.143	2
396.508	2.2
396.872	2.06
397.236	2.51
397.601	2.17
397.965	2.08
398.329	2.14
398.694	2.13
399.058	2.07
399.422	2.17
399.786	2.02
400.15	2.07
400.514	2.37
400.878	2.29
401.242	2.2
401.605	2.2
401.969	2.14
402.333	2.03
402.697	2.44
403.06	2.26
403.424	2.46
403.787	2.22
404.151	2.24
404.514	2.35
404.878	1.92
405.241	2.23
405.604	2.22
405.968	2.17
406.331	2.3
406.694	2.25
407.057	1.97
407.42	2.21
407.783	2.29
408.146	1.98
408.509	2.21
408.872	2.26
409.235	2.29
409.598	2.25
409.961	2.24
410.323	2.29
410.686	2.18
411.049	2.17
411.411	2.12
411.774	2.41
412.136	2.26
412.499	2.25
412.861	1.93
413.223	2.11
413.586	2.25
413.948	2.5
414.31	2.28
414.672	2.2
415.035	2.3
415.397	2.12
415.759	2.02
416.121	2.25
416.483	2.24
416.845	2.17
417.206	2.19
417.568	2.2
417.93	2.26
418.292	2.25
418.653	2.02
419.015	2.23
419.377	2.16
419.738	2.21
420.1	2.2
420.461	2.21
420.822	2.29
421.184	2.23
421.545	2.2
421.906	2.3
422.267	2.16
422.629	2.17
422.99	2.22
423.351	2.17
423.712	2.2
424.073	2.31
424.434	2.23
424.795	2.06
425.155	2.11
425.516	2.18
425.877	2.19
426.238	2.14
426.598	2.16
426.959	2.26
427.32	2.14
427.68	2.25
428.041	2.27
428.401	2.09
428.761	2.4
429.122	2.39
429.482	2.26
429.842	2.22
430.202	2.35
430.563	2.23
430.923	2.32
431.283	2.45
431.643	2.38
432.003	2.26
432.363	2.44
432.722	2.31
433.082	2.28
433.442	2.27
433.802	2.31
434.161	2.24
434.521	2.31
434.881	2.32
435.24	2.23
435.6	2.19
435.959	2.31
436.319	2.35
436.678	2.39
437.037	2.32
437.396	2.31
437.756	2.13
438.115	2.26
438.474	2.28
438.833	2.29
439.192	2.3
439.551	2.14
439.91	2.25
440.269	2.23
440.628	2.39
440.987	2.33
441.345	2.33
441.704	2.33
442.063	2.22
442.421	2.27
442.78	2.32
443.138	2.3
443.497	2.21
443.855	2.32
444.214	2.19
444.572	2.41
444.93	2.21
445.288	2.28
445.647	2.1
446.005	2.38
446.363	2.24
446.721	2.15
447.079	2.29
447.437	2.29
447.795	2.32
448.153	2.31
448.51	2.29
448.868	2.28
449.226	2.31
449.584	2.28
449.941	2.36
450.299	2.27
450.656	2.35
451.014	2.39
451.371	2.34
451.729	2.33
452.086	2.34
452.443	2.4
452.801	2.33
453.158	2.38
453.515	2.22
453.872	2.34
454.229	2.23
454.586	2.32
454.943	2.33
455.3	2.32
455.657	2.24
456.014	2.37
456.371	2.44
456.727	2.42
457.084	2.45
457.441	2.38
457.797	2.38
458.154	2.35
458.51	2.28
458.867	2.4
459.223	2.41
459.58	2.31
459.936	2.31
460.292	2.28
460.648	2.26
461.005	2.34
461.361	2.28
461.717	2.34
462.073	2.39
462.429	2.4
462.785	2.55
463.141	2.32
463.496	2.41
463.852	2.53
464.208	2.35
464.564	2.31
464.919	2.4
465.275	2.27
465.631	2.64
465.986	2.6
466.342	2.45
466.697	2.33
467.052	2.65
467.408	2.43
467.763	2.35
468.118	2.32
468.473	2.35
468.829	2.29
469.184	2.36
469.539	2.32
469.894	2.42
470.249	2.54
470.603	2.5
470.958	2.44
471.313	2.43
471.668	2.34
472.023	2.45
472.377	2.37
472.732	2.57
473.086	2.45
473.441	2.46
473.795	2.69
474.15	2.45
474.504	2.34
474.859	2.22
475.213	2.5
475.567	2.4
475.921	2.53
476.275	2.56
476.63	2.59
476.984	2.32
477.338	2.5
477.692	2.37
478.045	2.53
478.399	2.46
478.753	2.39
479.107	2.5
479.461	2.45
479.814	2.44
480.168	2.32
480.521	2.57
480.875	2.52
481.228	2.49
481.582	2.43
481.935	2.48
482.289	2.42
482.642	2.46
482.995	2.36
483.348	2.33
483.701	2.41
484.055	2.46
484.408	2.4
484.761	2.32
485.114	2.25
485.466	2.22
485.819	2.27
486.172	2.35
486.525	2.34
486.878	2.43
487.23	2.41
487.583	2.44
487.936	2.38
488.288	2.35
488.641	2.34
488.993	2.29
489.345	2.34
489.698	2.34
490.05	2.35
490.402	2.35
490.754	2.38
491.107	2.39
491.459	2.44
491.811	2.5
492.163	2.43
492.515	2.32
492.866	2.32
493.218	2.36
493.57	2.38
493.922	2.37
494.274	2.49
494.625	2.55
494.977	2.5
495.328	2.52
495.68	2.41
496.031	2.55
496.383	2.46
496.734	2.35
497.086	2.58
497.437	2.55
497.788	2.66
498.139	2.41
498.49	2.55
498.842	2.61
499.193	2.44
499.544	2.51
499.894	2.52
500.245	2.51
500.596	2.55
500.947	2.44
501.298	2.49
501.648	2.52
501.999	2.58
502.35	2.53
502.7	2.65
503.051	2.48
503.401	2.56
503.752	2.48
504.102	2.47
504.452	2.34
504.803	2.49
505.153	2.58
505.503	2.48
505.853	2.64
506.203	2.51
506.553	2.5
506.903	2.57
507.253	2.39
507.603	2.55
507.953	2.52
508.303	2.58
508.652	2.43
509.002	2.56
509.352	2.56
509.701	2.42
510.051	2.55
510.4	2.58
510.75	2.43
511.099	2.45
511.449	2.6
511.798	2.53
512.147	2.51
512.496	2.6
512.846	2.52
513.195	2.5
513.544	2.59
513.893	2.45
514.242	2.48
514.591	2.45
514.939	2.6
515.288	2.67
515.637	2.52
515.986	2.64
516.334	2.6
516.683	2.48
517.032	2.5
517.38	2.45
517.729	2.42
518.077	2.58
518.426	2.52
518.774	2.51
519.122	2.61
519.47	2.5
519.819	2.48
520.167	2.47
520.515	2.54
520.863	2.53
521.211	2.51
521.559	2.52
521.907	2.6
522.255	2.53
522.602	2.6
522.95	2.75
523.298	2.53
523.645	2.63
523.993	2.53
524.341	2.59
524.688	2.51
525.036	2.52
525.383	2.58
525.73	2.44
526.078	2.59
526.425	2.64
526.772	2.5
527.119	2.59
527.466	2.51
527.814	2.51
528.161	2.61
528.508	2.55
528.854	2.58
529.201	2.47
529.548	2.5
529.895	2.43
530.242	2.39
530.588	2.41
530.935	2.47
531.282	2.45
531.628	2.55
531.975	2.49
532.321	2.51
532.667	2.56
533.014	2.57
533.36	2.52
533.706	2.64
534.052	2.55
534.399	2.54
534.745	2.48
535.091	2.47
535.437	2.54
535.783	2.47
536.129	2.52
536.474	2.65
536.82	2.62
537.166	2.52
537.512	2.54
537.857	2.5
538.203	2.57
538.549	2.46
538.894	2.56
539.239	2.61
539.585	2.56
539.93	2.64
540.276	2.57
540.621	2.66
540.966	2.65
541.311	2.68
541.656	2.44
542.001	2.55
542.346	2.55
542.691	2.48
543.036	2.48
543.381	2.53
543.726	2.56
544.071	2.55
544.415	2.55
544.76	2.56
545.105	2.52
545.449	2.54
545.794	2.52
546.138	2.53
546.483	2.67
546.827	2.59
547.171	2.67
547.516	2.61
547.86	2.6
548.204	2.64
548.548	2.65
548.892	2.59
549.236	2.66
549.58	2.63
549.924	2.68
550.268	2.71
550.612	2.61
550.956	2.65
551.3	2.79
551.643	2.7
551.987	2.8
552.33	2.79
552.674	2.65
553.017	2.94
553.361	2.7
553.704	2.79
554.048	2.64
554.391	2.75
554.734	2.56
555.077	2.6
555.42	2.58
555.764	2.73
556.107	2.85
556.45	2.65
556.793	2.87
557.135	2.85
557.478	2.66
557.821	2.65
558.164	2.74
558.507	2.58
558.849	2.84
559.192	2.78
559.534	2.71
559.877	2.71
560.219	2.6
560.562	2.68
560.904	2.89
561.246	2.57
561.589	2.92
561.931	2.69
562.273	2.66
562.615	2.73
562.957	2.66
563.299	2.61
563.641	2.62
563.983	2.45
564.325	2.79
564.667	2.68
565.008	2.62
565.35	2.61
565.692	2.74
566.033	2.66
566.375	2.63
566.716	2.61
567.058	2.69
567.399	2.87
567.741	2.75
568.082	2.75
568.423	2.67
568.764	2.67
569.105	2.67
569.447	2.75
569.788	2.76
570.129	2.62
570.47	2.63
570.811	2.6
571.151	2.67
571.492	2.67
571.833	2.73
572.174	2.87
572.514	2.7
572.855	2.8
573.195	2.53
573.536	2.84
573.876	2.57
574.217	2.67
574.557	2.66
574.898	2.71
575.238	2.7
575.578	2.85
575.918	2.86
576.258	2.95
576.598	2.53
576.938	2.6
577.278	2.72
577.618	2.83
577.958	2.81
578.298	2.8
578.638	2.72
578.977	2.79
579.317	2.79
579.657	2.66
579.996	2.79
580.336	2.79
580.675	2.76
581.014	2.83
581.354	2.65
581.693	2.83
582.032	2.79
582.372	2.73
582.711	2.94
583.05	2.57
583.389	2.83
583.728	2.98
584.067	2.65
584.406	2.86
584.745	2.57
585.083	2.87
585.422	2.8
585.761	2.76
586.1	2.81
586.438	2.7
586.777	2.97
587.115	2.86
587.454	2.67
587.792	2.77
588.13	2.81
588.469	2.8
588.807	2.99
589.145	2.71
589.483	2.73
589.821	2.71
590.159	2.96
590.497	2.92
590.835	2.81
591.173	2.94
591.511	2.93
591.849	3.03
592.187	2.61
592.524	2.96
592.862	2.66
593.2	2.77
593.537	2.69
593.875	2.64
594.212	2.85
594.55	2.85
594.887	2.76
595.224	2.77
595.561	2.8
595.899	2.82
596.236	2.83
596.573	2.73
596.91	2.79
597.247	3.08
597.584	2.76
597.921	2.84
598.258	2.95
598.594	2.72
598.931	2.52
599.268	2.55
599.604	2.89
599.941	2.79
600.277	2.82
600.614	2.77
600.95	2.75
601.287	2.8
601.623	2.52
601.959	2.97
602.296	2.87
602.632	2.73
602.968	2.87
603.304	2.81
603.64	2.79
603.976	2.57
604.312	2.74
604.648	2.94
604.984	2.86
605.319	2.81
605.655	2.8
605.991	2.99
606.326	2.86
606.662	2.66
606.998	2.97
607.333	2.76
607.668	2.69
608.004	2.68
608.339	2.53
608.674	2.84
609.01	3.01
609.345	2.66
609.68	2.74
610.015	3.1
610.35	2.97
610.685	2.6
611.02	2.73
611.355	2.76
611.689	2.92
612.024	2.88
612.359	2.89
612.694	3.02
613.028	2.8
613.363	2.86
613.697	2.9
614.032	2.8
614.366	2.77
614.7	3.22
615.035	2.73
615.369	2.78
615.703	3.09
616.037	2.63
616.371	2.64
616.705	3.04
617.039	2.75
617.373	3.16
617.707	3.02
618.041	2.53
618.375	2.52
618.709	3.03
619.042	2.91
619.376	2.87
619.71	2.66
620.043	2.85
620.377	2.93
620.71	2.81
621.043	3.01
621.377	2.91
621.71	3.06
622.043	2.78
622.376	2.96
622.709	3.19
623.043	2.83
623.376	2.63
623.709	3
624.041	2.71
624.374	3.2
624.707	3.01
625.04	2.78
625.373	3.06
625.705	3.18
626.038	2.97
626.37	3.19
626.703	3.02
627.035	2.87
627.368	3.1
627.7	3.02
628.032	2.84
628.365	2.95
628.697	3.22
629.029	2.8
629.361	3.05
629.693	2.96
630.025	3.28
630.357	2.99
630.689	2.98
631.021	3
631.353	3.07
631.684	2.75
632.016	2.65
632.348	2.91
632.679	2.92
633.011	2.97
633.342	2.86
633.674	2.81
634.005	3.01
634.336	3.5
634.668	2.94
634.999	2.36
635.33	2.83
635.661	2.83
635.992	3.11
636.323	3.02
636.654	3.29
636.985	2.82
637.316	3.01
637.647	3.04
637.977	2.82
638.308	3.16
638.639	2.97
638.969	2.98
639.3	3.02
639.63	3.09
639.961	3.17
640.291	2.89
640.622	3.27
640.952	3.22
641.282	2.73
641.612	2.7
641.943	2.8
642.273	2.86
642.603	3.13
642.933	3.2
643.263	3.01
643.592	3.24
643.922	3.56
644.252	2.91
644.582	3.16
644.911	2.98
645.241	3.12
645.571	3.11
645.9	2.94
646.23	3.26
646.559	2.77
646.888	3
647.218	3.11
647.547	2.94
647.876	3.19
648.205	2.7
648.534	2.91
648.863	3.1
649.192	2.97
649.521	2.58
649.85	3.21
650.179	3.14
650.508	2.74
650.837	2.91
651.165	3.18
651.494	3.35
651.822	3.46
652.151	2.83
652.479	3.23
652.808	2.99
653.136	2.53
653.465	2.88
653.793	2.98
654.121	2.88
654.449	3.02
654.777	2.61
655.105	2.81
655.433	3.28
655.761	3.33
656.089	3.27
656.417	3.5
656.745	3.49
657.073	3.34
657.4	2.99
657.728	2.42
658.056	3.08
658.383	3.05
658.711	2.93
659.038	3.42
659.365	3.13
659.693	3.32
660.02	3.01
660.347	3.05
660.674	2.85
661.001	3.19
661.329	2.68
661.656	2.68
661.982	3
662.309	3.06
662.636	2.94
662.963	2.96
663.29	3.29
663.616	3.1
663.943	3.37
664.27	3.08
664.596	3.33
664.923	3.71
665.249	3.24
665.576	2.87
665.902	2.86
666.228	3.1
666.554	3.3
666.881	2.87
667.207	3.11
667.533	2.67
667.859	2.76
668.185	2.95
668.511	3.19
668.837	3.26
669.162	3.13
669.488	2.23
669.814	2.98
670.139	2.5
670.465	3.39
670.791	3.25
671.116	2.93
671.442	2.88
671.767	3.45
672.092	2.84
672.418	3.01
672.743	3.02
673.068	2.83
673.393	3.15
673.718	3.01
674.043	2.97
674.368	3.16
674.693	4.13
675.018	3.05
675.343	3.33
675.667	2.98
675.992	3.3
676.317	2.88
676.641	3.14
676.966	3.02
677.29	3.1
677.615	2.8
677.939	3.47
678.264	2.98
678.588	3.12
678.912	2.76
679.236	3.1
679.56	2.41
679.885	2.79
680.209	3.12
680.532	3.41
680.856	2.86
681.18	3.7
681.504	2.99
681.828	2.53
682.152	2.9
682.475	3.05
682.799	2.83
683.122	2.85
683.446	2.68
683.769	3.6
684.093	3.64
684.416	2.78
684.739	2.84
685.062	3.18
685.386	3.22
685.709	3.17
686.032	3.12
686.355	3.47
686.678	3.38
687.001	3.07
687.324	3.23
687.646	3.28
687.969	3.71
688.292	3.61
688.614	3.42
688.937	3.62
689.26	3.52
689.582	3.6
689.904	3.22
690.227	3.38
690.549	3.21
690.871	3.58
691.194	2.91
691.516	3.26
691.838	3.5
692.16	3.2
692.482	2.92
