Data from 0057_chest_Reflection__4__82.txt Node

Date: Fri Dec 16 14:31:17 CST 2022
User: ToomeyLab
Spectrometer: FLMS14357
Trigger mode: 0
Integration Time (sec): 1.000000E-2
Scans to average: 100
Electric dark correction enabled: true
Nonlinearity correction enabled: false
Boxcar width: 0
XAxis mode: Wavelengths
Number of Pixels in Spectrum: 2048
>>>>>Begin Spectral Data<<<<<
189.047	60.04
189.435	60.04
189.823	60.04
190.211	144.14
190.599	80.85
190.987	67.49
191.375	27.69
191.763	97.98
192.151	3533.33
192.538	-31.27
192.926	293.62
193.314	125.39
193.702	-78.49
194.089	-114.29
194.477	-289.52
194.864	8.05
195.252	-127.13
195.639	162.31
196.027	-256
196.414	40.46
196.801	-597.26
197.189	151.6
197.576	225.55
197.963	-480
198.351	9.29
198.738	-24.23
199.125	35.42
199.512	12.44
199.899	-27.38
200.286	-43.38
200.673	-6.72
201.06	44.78
201.447	54.34
201.833	-7.13
202.22	3.83
202.607	3.29
202.994	20.19
203.38	-10.31
203.767	-15.44
204.154	-14.14
204.54	11.65
204.927	2.3
205.313	29.66
205.699	14.75
206.086	-16.15
206.472	26.76
206.858	14.47
207.245	29.17
207.631	-13.95
208.017	18.59
208.403	12.3
208.789	-0.39
209.175	39.64
209.561	23.5
209.947	-5.48
210.333	48.49
210.719	0.26
211.105	-29.94
211.491	23.19
211.876	27.36
212.262	-13.03
212.648	-14.74
213.034	2.82
213.419	38.57
213.805	29.73
214.19	-11.21
214.576	10
214.961	0.76
215.346	-24.71
215.732	-16.93
216.117	-11.85
216.502	-30.42
216.888	-4.03
217.273	-3.34
217.658	-10.76
218.043	-4.83
218.428	-4.2
218.813	2.45
219.198	-3.59
219.583	16.16
219.968	-8.9
220.353	19.98
220.738	-7.65
221.122	-12.85
221.507	3.71
221.892	12
222.276	8.91
222.661	0.24
223.046	8.34
223.43	5.18
223.815	7.45
224.199	8.97
224.583	2.54
224.968	11.27
225.352	1.29
225.736	8.77
226.121	1.72
226.505	-0.42
226.889	11.59
227.273	3.86
227.657	3
228.041	7.57
228.425	5.66
228.809	5.1
229.193	4.77
229.577	5.41
229.961	5.24
230.344	5.25
230.728	5.07
231.112	5.01
231.495	4.43
231.879	5.36
232.263	3.27
232.646	4.82
233.03	3.58
233.413	3.76
233.797	7.66
234.18	4.53
234.563	5.64
234.946	4.44
235.33	6.62
235.713	5.77
236.096	5.37
236.479	5.29
236.862	4.92
237.245	7.63
237.628	5.15
238.011	4.75
238.394	5.05
238.777	6.82
239.16	2.74
239.543	3.65
239.925	4.4
240.308	6
240.691	4.65
241.073	5.49
241.456	5.38
241.838	5.32
242.221	5.01
242.603	4.96
242.986	5.72
243.368	4.53
243.75	4.54
244.133	4.79
244.515	4.91
244.897	4.46
245.279	5.09
245.661	5.63
246.043	5.13
246.425	4.15
246.807	4.71
247.189	4.84
247.571	4.56
247.953	4.74
248.335	4.73
248.717	4.79
249.098	4.68
249.48	4.55
249.862	4.88
250.243	4.6
250.625	4.83
251.006	4.46
251.388	5.39
251.769	4.58
252.151	4.37
252.532	4.41
252.913	4.93
253.295	4.48
253.676	4.68
254.057	4.7
254.438	4.32
254.819	4.37
255.2	3.86
255.581	4.38
255.962	4.22
256.343	4.94
256.724	4.6
257.105	4.93
257.486	5.02
257.867	3.54
258.247	5.13
258.628	4.72
259.009	4.18
259.389	4.89
259.77	4.43
260.15	5.5
260.531	4.41
260.911	4.53
261.292	4.44
261.672	4.33
262.052	4.36
262.432	3.75
262.813	4.45
263.193	4.42
263.573	4.63
263.953	4.45
264.333	4.49
264.713	4.35
265.093	4.04
265.473	4.76
265.853	4.78
266.233	4.02
266.612	5.55
266.992	4.79
267.372	4.11
267.752	4.28
268.131	4.49
268.511	4.55
268.89	4.53
269.27	4.26
269.649	4.7
270.029	4.58
270.408	4.02
270.787	4.6
271.167	4.22
271.546	3.8
271.925	4.95
272.304	4.62
272.683	4.13
273.062	4.72
273.441	4.37
273.82	4.51
274.199	4.61
274.578	4.15
274.957	4.4
275.336	4.31
275.715	4.61
276.093	5.12
276.472	4.1
276.851	3.97
277.229	4.42
277.608	4.15
277.986	4.29
278.365	3.72
278.743	4.15
279.122	4.1
279.5	3.78
279.878	3.72
280.257	4.42
280.635	4.01
281.013	4.63
281.391	4.56
281.769	4.08
282.147	4.3
282.525	4.28
282.903	4.58
283.281	3.91
283.659	4.6
284.037	3.96
284.415	4.29
284.792	3.98
285.17	4.17
285.548	4.13
285.925	4.07
286.303	4.24
286.68	4.19
287.058	3.99
287.435	3.92
287.813	4.51
288.19	4.36
288.567	3.66
288.945	4.01
289.322	4.2
289.699	4.15
290.076	4.67
290.453	3.41
290.83	3.94
291.207	4.23
291.584	3.77
291.961	4.17
292.338	4.39
292.715	4.07
293.092	4.06
293.469	4.68
293.845	4.04
294.222	4.36
294.599	4.44
294.975	4.09
295.352	3.57
295.728	4.18
296.105	4.07
296.481	4.36
296.858	3.95
297.234	4.1
297.61	4.39
297.986	4.02
298.363	3.44
298.739	4.13
299.115	3.85
299.491	4.01
299.867	4.59
300.243	3.83
300.619	3.98
300.995	4.44
301.371	3.99
301.746	3.82
302.122	4.35
302.498	3.98
302.874	4.41
303.249	4.04
303.625	3.84
304	3.88
304.376	4.29
304.751	4.37
305.127	3.84
305.502	3.91
305.878	4.16
306.253	4.23
306.628	4.43
307.003	4.29
307.378	3.86
307.754	4.43
308.129	3.33
308.504	3.77
308.879	4.45
309.254	4.74
309.629	3.91
310.003	4.37
310.378	4.27
310.753	4.14
311.128	3.63
311.502	3.89
311.877	4.21
312.252	4.06
312.626	3.94
313.001	4.06
313.375	3.97
313.75	3.65
314.124	4.2
314.498	3.97
314.873	3.9
315.247	3.76
315.621	4.28
315.995	4.12
316.369	4.14
316.743	4.2
317.117	3.75
317.491	4.54
317.865	3.28
318.239	4.69
318.613	3.66
318.987	4.18
319.361	3.75
319.734	3.87
320.108	3.87
320.482	3.66
320.855	3.78
321.229	4.43
321.602	3.78
321.976	3.7
322.349	3.31
322.723	3.85
323.096	4.15
323.469	3.59
323.843	3.85
324.216	3.11
324.589	4.32
324.962	4.67
325.335	4.12
325.708	3.8
326.081	4.58
326.454	3.88
326.827	4.4
327.2	4.05
327.573	4.24
327.945	4.08
328.318	4.35
328.691	3.72
329.063	3.36
329.436	4.02
329.809	3.84
330.181	3.66
330.553	4.15
330.926	3.88
331.298	3.78
331.671	4.75
332.043	3.91
332.415	4.41
332.787	4.22
333.159	3.72
333.532	4.04
333.904	4.14
334.276	4.1
334.648	4.42
335.02	3.87
335.391	4.12
335.763	4.48
336.135	4.21
336.507	4.35
336.879	3.8
337.25	4.02
337.622	4.39
337.993	4.07
338.365	4.16
338.736	4.37
339.108	3.58
339.479	3.67
339.851	4.34
340.222	4.32
340.593	3.53
340.964	3.97
341.336	3.83
341.707	3.85
342.078	4.16
342.449	4.07
342.82	3.69
343.191	3.92
343.562	4.13
343.933	3.96
344.303	4.16
344.674	4.01
345.045	4.4
345.416	4.03
345.786	3.88
346.157	3.94
346.527	3.63
346.898	4.08
347.268	3.94
347.639	3.97
348.009	4.14
348.38	3.97
348.75	4.36
349.12	4.16
349.49	3.96
349.861	4.77
350.231	4.24
350.601	4.18
350.971	4.13
351.341	4.31
351.711	3.94
352.081	4.37
352.45	4.15
352.82	4.21
353.19	3.79
353.56	4.51
353.929	4.18
354.299	4.06
354.669	4.48
355.038	4.05
355.408	4.38
355.777	4.22
356.147	4.57
356.516	4.6
356.885	4.38
357.254	4.29
357.624	4.41
357.993	4.05
358.362	4.3
358.731	4.07
359.1	4.23
359.469	4.44
359.838	4.02
360.207	4.18
360.576	4.29
360.945	3.92
361.314	4.33
361.682	3.86
362.051	4.45
362.42	4.36
362.788	4.05
363.157	4.1
363.525	4.28
363.894	3.87
364.262	4.1
364.631	4.6
364.999	3.68
365.367	4.48
365.735	3.79
366.104	4.03
366.472	4.31
366.84	3.98
367.208	4.12
367.576	4.11
367.944	4.14
368.312	4.04
368.68	4.5
369.048	4.14
369.416	4.18
369.783	4.07
370.151	4.06
370.519	4.22
370.886	4.31
371.254	4.31
371.621	4.44
371.989	4.3
372.356	4.43
372.724	4.32
373.091	4.22
373.458	4.17
373.826	4.17
374.193	4.63
374.56	4.04
374.927	3.95
375.294	4.4
375.661	4.39
376.028	4.2
376.395	4.08
376.762	4.5
377.129	4.47
377.496	4.49
377.863	4.11
378.229	4.31
378.596	3.98
378.963	4.43
379.329	4.39
379.696	4.27
380.062	4.31
380.429	4.58
380.795	4.09
381.161	4.36
381.528	4.08
381.894	4.66
382.26	4.26
382.626	4.11
382.993	4.22
383.359	4.3
383.725	4.49
384.091	4.32
384.457	4.46
384.823	4.5
385.188	4.46
385.554	4.37
385.92	4.49
386.286	4.42
386.651	4.33
387.017	4.47
387.383	4.27
387.748	3.99
388.114	4.31
388.479	4.34
388.845	4.36
389.21	4.34
389.575	4.41
389.94	4.12
390.306	4.27
390.671	4.29
391.036	4.51
391.401	4.78
391.766	4.48
392.131	4.54
392.496	4.31
392.861	4.29
393.226	4.5
393.591	4.46
393.956	4.29
394.32	4.2
394.685	4.52
395.05	4.16
395.414	4.49
395.779	4.08
396.143	4.54
396.508	4.59
396.872	4.48
397.236	4.36
397.601	4.51
397.965	4.41
398.329	4.73
398.694	4.19
399.058	4.5
399.422	4.51
399.786	4.47
400.15	4.49
400.514	4.45
400.878	4.24
401.242	4.49
401.605	4.45
401.969	4.39
402.333	4.25
402.697	4.58
403.06	4.43
403.424	4.33
403.787	4.55
404.151	4.38
404.514	4.65
404.878	4.52
405.241	4.59
405.604	4.46
405.968	4.63
406.331	4.54
406.694	4.32
407.057	4.64
407.42	4.4
407.783	4.49
408.146	4.49
408.509	4.58
408.872	4.39
409.235	4.71
409.598	4.74
409.961	5.03
410.323	4.55
410.686	4.32
411.049	4.19
411.411	4.44
411.774	4.5
412.136	4.56
412.499	4.58
412.861	4.52
413.223	4.76
413.586	4.42
413.948	4.4
414.31	4.6
414.672	4.62
415.035	4.75
415.397	4.72
415.759	4.39
416.121	4.68
416.483	4.78
416.845	4.59
417.206	4.81
417.568	4.63
417.93	4.43
418.292	4.43
418.653	4.56
419.015	4.7
419.377	4.58
419.738	4.49
420.1	4.48
420.461	4.36
420.822	4.56
421.184	4.56
421.545	4.45
421.906	4.52
422.267	4.48
422.629	4.49
422.99	4.47
423.351	4.49
423.712	4.46
424.073	4.65
424.434	4.48
424.795	4.34
425.155	4.46
425.516	4.44
425.877	4.58
426.238	4.48
426.598	4.49
426.959	4.5
427.32	4.61
427.68	4.58
428.041	4.53
428.401	4.51
428.761	4.48
429.122	4.68
429.482	4.52
429.842	4.68
430.202	4.62
430.563	4.66
430.923	4.56
431.283	4.64
431.643	4.6
432.003	4.47
432.363	4.55
432.722	4.56
433.082	4.53
433.442	4.55
433.802	4.71
434.161	4.62
434.521	4.63
434.881	4.76
435.24	4.54
435.6	4.56
435.959	4.5
436.319	4.5
436.678	4.66
437.037	4.61
437.396	4.7
437.756	4.66
438.115	4.61
438.474	4.77
438.833	4.82
439.192	4.74
439.551	4.73
439.91	4.66
440.269	4.82
440.628	4.67
440.987	4.53
441.345	4.62
441.704	4.62
442.063	4.71
442.421	4.62
442.78	4.54
443.138	4.55
443.497	4.6
443.855	4.64
444.214	4.63
444.572	4.65
444.93	4.81
445.288	4.72
445.647	4.69
446.005	4.67
446.363	4.78
446.721	4.56
447.079	4.68
447.437	4.58
447.795	4.65
448.153	4.66
448.51	4.59
448.868	4.69
449.226	4.7
449.584	4.67
449.941	4.69
450.299	4.65
450.656	4.85
451.014	4.71
451.371	4.71
451.729	4.62
452.086	4.69
452.443	4.58
452.801	4.8
453.158	4.66
453.515	4.59
453.872	4.82
454.229	4.54
454.586	4.81
454.943	4.8
455.3	4.9
455.657	4.67
456.014	4.75
456.371	4.89
456.727	4.78
457.084	4.74
457.441	4.78
457.797	4.74
458.154	4.74
458.51	4.84
458.867	4.7
459.223	4.84
459.58	4.76
459.936	4.6
460.292	4.71
460.648	4.71
461.005	4.63
461.361	4.68
461.717	4.63
462.073	4.66
462.429	4.64
462.785	4.67
463.141	4.87
463.496	4.69
463.852	4.88
464.208	4.82
464.564	4.72
464.919	4.71
465.275	4.79
465.631	4.85
465.986	4.69
466.342	4.79
466.697	4.8
467.052	4.94
467.408	4.98
467.763	4.79
468.118	4.71
468.473	4.82
468.829	4.74
469.184	5.05
469.539	4.61
469.894	4.84
470.249	4.95
470.603	4.97
470.958	4.94
471.313	4.82
471.668	4.86
472.023	5.05
472.377	4.85
472.732	4.91
473.086	4.68
473.441	4.94
473.795	4.99
474.15	4.81
474.504	4.71
474.859	4.89
475.213	4.9
475.567	4.82
475.921	5.03
476.275	4.95
476.63	4.81
476.984	4.81
477.338	5.17
477.692	4.87
478.045	4.87
478.399	4.94
478.753	4.8
479.107	4.84
479.461	4.92
479.814	4.86
480.168	4.92
480.521	4.83
480.875	5.1
481.228	4.99
481.582	4.91
481.935	4.85
482.289	4.87
482.642	4.95
482.995	4.88
483.348	4.78
483.701	4.9
484.055	4.75
484.408	4.77
484.761	4.67
485.114	4.64
485.466	4.62
485.819	4.63
486.172	4.64
486.525	4.64
486.878	4.68
487.23	4.76
487.583	4.73
487.936	4.76
488.288	4.78
488.641	4.77
488.993	4.68
489.345	4.7
489.698	4.7
490.05	4.72
490.402	4.83
490.754	4.78
491.107	4.81
491.459	4.83
491.811	4.96
492.163	4.95
492.515	4.84
492.866	4.73
493.218	4.77
493.57	4.77
493.922	4.76
494.274	4.84
494.625	4.82
494.977	4.89
495.328	5
495.68	5.17
496.031	4.94
496.383	4.9
496.734	5.11
497.086	4.89
497.437	5.21
497.788	4.94
498.139	4.95
498.49	4.99
498.842	4.97
499.193	5.04
499.544	5.15
499.894	5.03
500.245	4.92
500.596	5.05
500.947	5.04
501.298	5.1
501.648	5.05
501.999	5.16
502.35	5.13
502.7	5.07
503.051	5.2
503.401	5.12
503.752	5.04
504.102	5.08
504.452	5.07
504.803	5.05
505.153	5.2
505.503	5.11
505.853	5.08
506.203	5.2
506.553	5.18
506.903	5.16
507.253	5.1
507.603	5.09
507.953	5.16
508.303	5.13
508.652	5.18
509.002	5.25
509.352	5.06
509.701	5.18
510.051	5.12
510.4	5.07
510.75	5.12
511.099	5.08
511.449	5.15
511.798	5.21
512.147	5.18
512.496	5.22
512.846	5.2
513.195	5.14
513.544	5.13
513.893	5.05
514.242	5.23
514.591	5.26
514.939	5.22
515.288	5.2
515.637	5.27
515.986	5.26
516.334	5.2
516.683	5.29
517.032	5.22
517.38	5.27
517.729	5.25
518.077	5.3
518.426	5.19
518.774	5.19
519.122	5.18
519.47	5.18
519.819	5.27
520.167	5.2
520.515	5.15
520.863	5.25
521.211	5.23
521.559	5.25
521.907	5.2
522.255	5.34
522.602	5.28
522.95	5.37
523.298	5.3
523.645	5.27
523.993	5.41
524.341	5.32
524.688	5.31
525.036	5.4
525.383	5.4
525.73	5.27
526.078	5.34
526.425	5.3
526.772	5.22
527.119	5.23
527.466	5.29
527.814	5.29
528.161	5.32
528.508	5.27
528.854	5.28
529.201	5.26
529.548	5.22
529.895	5.19
530.242	5.13
530.588	5.15
530.935	5.17
531.282	5.26
531.628	5.28
531.975	5.33
532.321	5.27
532.667	5.41
533.014	5.43
533.36	5.36
533.706	5.4
534.052	5.32
534.399	5.24
534.745	5.26
535.091	5.35
535.437	5.36
535.783	5.45
536.129	5.45
536.474	5.47
536.82	5.47
537.166	5.56
537.512	5.51
537.857	5.48
538.203	5.49
538.549	5.62
538.894	5.52
539.239	5.64
539.585	5.58
539.93	5.65
540.276	5.57
540.621	5.54
540.966	5.7
541.311	5.62
541.656	5.67
542.001	5.68
542.346	5.51
542.691	5.48
543.036	5.42
543.381	5.56
543.726	5.54
544.071	5.62
544.415	5.61
544.76	5.56
545.105	5.6
545.449	5.59
545.794	5.68
546.138	5.72
546.483	5.58
546.827	5.71
547.171	5.64
547.516	5.82
547.86	5.8
548.204	5.72
548.548	5.89
548.892	5.8
549.236	5.86
549.58	5.92
549.924	5.88
550.268	6.03
550.612	5.9
550.956	5.8
551.3	6.07
551.643	6
551.987	6.06
552.33	5.99
552.674	6.13
553.017	6.12
553.361	6.08
553.704	5.94
554.048	6.13
554.391	5.98
554.734	6.12
555.077	6.11
555.42	5.94
555.764	6.14
556.107	6.25
556.45	6.09
556.793	6.43
557.135	6.37
557.478	6.33
557.821	6.22
558.164	6.29
558.507	5.99
558.849	6.15
559.192	6.39
559.534	6.11
559.877	6.41
560.219	6.46
560.562	6.22
560.904	6.31
561.246	6.24
561.589	6.41
561.931	6.44
562.273	6.28
562.615	6.47
562.957	6.34
563.299	6.41
563.641	6.46
563.983	6.36
564.325	6.29
564.667	6.48
565.008	6.43
565.35	6.6
565.692	6.47
566.033	6.53
566.375	6.3
566.716	6.52
567.058	6.58
567.399	6.56
567.741	6.65
568.082	6.51
568.423	6.45
568.764	6.64
569.105	6.55
569.447	6.6
569.788	6.72
570.129	6.7
570.47	6.64
570.811	6.72
571.151	6.69
571.492	6.86
571.833	6.68
572.174	6.67
572.514	6.64
572.855	6.77
573.195	6.71
573.536	6.63
573.876	6.77
574.217	6.78
574.557	6.76
574.898	6.67
575.238	6.59
575.578	7.04
575.918	6.8
576.258	7.02
576.598	6.89
576.938	7.09
577.278	6.83
577.618	6.8
577.958	6.88
578.298	6.98
578.638	7.02
578.977	7.01
579.317	7.22
579.657	7.16
579.996	7.1
580.336	6.99
580.675	7.24
581.014	7.05
581.354	7.31
581.693	7.06
582.032	7.2
582.372	7.19
582.711	7.07
583.05	7.46
583.389	7.33
583.728	7.32
584.067	7.27
584.406	7.43
584.745	7.28
585.083	7.32
585.422	7.33
585.761	7.55
586.1	7.68
586.438	7.44
586.777	7.32
587.115	7.77
587.454	7.52
587.792	7.24
588.13	7.77
588.469	7.58
588.807	7.86
589.145	7.56
589.483	7.6
589.821	7.58
590.159	7.61
590.497	7.35
590.835	7.58
591.173	7.97
591.511	7.9
591.849	7.56
592.187	7.71
592.524	7.67
592.862	7.69
593.2	7.67
593.537	7.72
593.875	7.85
594.212	7.86
594.55	7.87
594.887	8.18
595.224	7.75
595.561	7.9
595.899	7.93
596.236	8.15
596.573	7.94
596.91	8.08
597.247	7.89
597.584	8.23
597.921	7.99
598.258	8.08
598.594	7.99
598.931	8.14
599.268	8.01
599.604	8.17
599.941	7.99
600.277	8.06
600.614	8.18
600.95	8.45
601.287	8.24
601.623	8.25
601.959	8.28
602.296	8.39
602.632	8.49
602.968	8.23
603.304	8.49
603.64	8.44
603.976	8.48
604.312	8.55
604.648	8.45
604.984	8.39
605.319	8.38
605.655	8.49
605.991	8.58
606.326	8.35
606.662	8.46
606.998	8.5
607.333	8.74
607.668	8.64
608.004	8.52
608.339	8.41
608.674	8.54
609.01	8.51
609.345	9.05
609.68	8.58
610.015	8.95
610.35	8.73
610.685	8.65
611.02	8.93
611.355	9
611.689	8.58
612.024	8.9
612.359	8.61
612.694	8.79
613.028	9.09
613.363	8.94
613.697	9.14
614.032	9.21
614.366	8.85
614.7	9.32
615.035	9.24
615.369	8.96
615.703	9.72
616.037	9.02
616.371	9.13
616.705	9.33
617.039	9.39
617.373	9.18
617.707	9.29
618.041	9.42
618.375	9.33
618.709	9.33
619.042	9.3
619.376	9.6
619.71	9.59
620.043	9.38
620.377	9.79
620.71	9.26
621.043	9.31
621.377	9.34
621.71	9.36
622.043	9.43
622.376	9.46
622.709	9.86
623.043	9.59
623.376	9.37
623.709	9.83
624.041	9.55
624.374	9.66
624.707	9.65
625.04	9.97
625.373	9.57
625.705	9.7
626.038	9.62
626.37	9.6
626.703	9.73
627.035	9.98
627.368	10.21
627.7	9.92
628.032	9.88
628.365	9.74
628.697	10.05
629.029	10.18
629.361	10.07
629.693	10.23
630.025	10.01
630.357	10.02
630.689	10.43
631.021	10.15
631.353	10.31
631.684	9.99
632.016	9.82
632.348	10.35
632.679	10.17
633.011	9.89
633.342	10.38
633.674	10.29
634.005	10.41
634.336	10.6
634.668	10.45
634.999	10.58
635.33	10.36
635.661	10.67
635.992	10.63
636.323	10.44
636.654	10.44
636.985	10.38
637.316	10.59
637.647	10.9
637.977	10.42
638.308	10.32
638.639	10.49
638.969	10.56
639.3	10.76
639.63	10.5
639.961	10.83
640.291	11.35
640.622	10.87
640.952	10.74
641.282	10.72
641.612	10.69
641.943	11.12
642.273	10.81
642.603	11.2
642.933	11.32
643.263	11.26
643.592	10.87
643.922	11.53
644.252	11.17
644.582	11.02
644.911	11.13
645.241	11.16
645.571	10.85
645.9	11.48
646.23	10.71
646.559	11.21
646.888	11.07
647.218	11.26
647.547	11.64
647.876	11.46
648.205	10.99
648.534	11.28
648.863	11.91
649.192	11.13
649.521	11.05
649.85	11.87
650.179	11.42
650.508	11.13
650.837	11.49
651.165	11.55
651.494	11.5
651.822	11.24
652.151	11.93
652.479	11.85
652.808	11.34
653.136	11.65
653.465	11.92
653.793	11.56
654.121	11.95
654.449	11.93
654.777	11.75
655.105	12.17
655.433	12.21
655.761	11.33
656.089	11.75
656.417	11.72
656.745	12.56
657.073	12.17
657.4	12.17
657.728	12.11
658.056	11.86
658.383	12.07
658.711	12
659.038	12.24
659.365	12.19
659.693	12.25
660.02	11.81
660.347	12.3
660.674	11.88
661.001	12.13
661.329	11.98
661.656	11.98
661.982	12.44
662.309	12.16
662.636	12.39
662.963	12.91
663.29	12.21
663.616	12.36
663.943	12.53
664.27	12.56
664.596	12.53
664.923	12.5
665.249	12.69
665.576	12.94
665.902	12.82
666.228	12.21
666.554	12.89
666.881	12.7
667.207	12.78
667.533	13.02
667.859	12.49
668.185	13
668.511	12.5
668.837	12.32
669.162	12.62
669.488	13.17
669.814	13.83
670.139	12.7
670.465	13.07
670.791	13.47
671.116	12.63
671.442	12.87
671.767	13.49
672.092	13.23
672.418	13.24
672.743	12.88
673.068	12.84
673.393	13.12
673.718	12.69
674.043	13.57
674.368	13.5
674.693	13.68
675.018	13.04
675.343	13.46
675.667	13.2
675.992	13.18
676.317	13.43
676.641	13.26
676.966	13.95
677.29	13.34
677.615	12.66
677.939	13.55
678.264	13.45
678.588	13.54
678.912	13.57
679.236	14.1
679.56	13.46
679.885	13.79
680.209	13.68
680.532	13.65
680.856	13.95
681.18	13.46
681.504	13.61
681.828	13.29
682.152	13.64
682.475	13.57
682.799	14.22
683.122	14.18
683.446	13.49
683.769	14.4
684.093	14.2
684.416	13.8
684.739	14.52
685.062	14.23
685.386	13.64
685.709	13.71
686.032	14.08
686.355	14.12
686.678	13.83
687.001	13.47
687.324	13.87
687.646	14.08
687.969	14.4
688.292	14.99
