Data from 0057_forehead_Reflection__0__88.txt Node

Date: Fri Dec 16 14:36:00 CST 2022
User: ToomeyLab
Spectrometer: FLMS14357
Trigger mode: 0
Integration Time (sec): 1.000000E-2
Scans to average: 100
Electric dark correction enabled: true
Nonlinearity correction enabled: false
Boxcar width: 0
XAxis mode: Wavelengths
Number of Pixels in Spectrum: 2048
>>>>>Begin Spectral Data<<<<<
189.047	127.16
189.435	127.16
189.823	127.16
190.211	-69.42
190.599	132.61
190.987	92.85
191.375	125.96
191.763	-1.88
192.151	-7520.83
192.538	98.49
192.926	-439.1
193.314	118.19
193.702	-103.25
194.089	-174.15
194.477	-187.02
194.864	177.43
195.252	-126.16
195.639	158.24
196.027	1054.5
196.414	116.41
196.801	517.29
197.189	219.35
197.576	118.78
197.963	7832.5
198.351	30.23
198.738	1.68
199.125	52.85
199.512	2.65
199.899	-2.03
200.286	-37.52
200.673	22.6
201.06	16.88
201.447	20.55
201.833	17.29
202.22	78.32
202.607	13.02
202.994	3.94
203.38	-38.23
203.767	0.42
204.154	15.46
204.54	38.89
204.927	-9.55
205.313	28.51
205.699	-8.42
206.086	-9.92
206.472	1.98
206.858	15.34
207.245	2.7
207.631	-13.04
208.017	25.89
208.403	9.23
208.789	-9.89
209.175	63.88
209.561	16.77
209.947	14.49
210.333	17.57
210.719	3.1
211.105	-13.26
211.491	13.46
211.876	31.26
212.262	11.17
212.648	-18.63
213.034	3.31
213.419	21.26
213.805	-6.92
214.19	5.41
214.576	-29.38
214.961	9.06
215.346	-31.63
215.732	-1.52
216.117	3.33
216.502	10.03
216.888	-15.65
217.273	3.41
217.658	-5.59
218.043	-18.21
218.428	1.24
218.813	24.75
219.198	-32.68
219.583	-3.37
219.968	0.59
220.353	13.15
220.738	4.79
221.122	5.08
221.507	8.04
221.892	1.3
222.276	6.01
222.661	3.63
223.046	10.81
223.43	6.35
223.815	9.8
224.199	9.25
224.583	3.62
224.968	9.96
225.352	1.8
225.736	16.16
226.121	-1.06
226.505	15.65
226.889	10.31
227.273	6.52
227.657	7.06
228.041	10.31
228.425	4.18
228.809	4.9
229.193	3.97
229.577	3.48
229.961	5.3
230.344	5.19
230.728	5.49
231.112	5.49
231.495	4.24
231.879	5.62
232.263	3.23
232.646	4.6
233.03	4.2
233.413	5.09
233.797	4.34
234.18	2.77
234.563	4
234.946	4.49
235.33	5.88
235.713	5.28
236.096	4.96
236.479	5.63
236.862	6.27
237.245	6.9
237.628	6.51
238.011	5.95
238.394	5.06
238.777	5.79
239.16	3.35
239.543	4.57
239.925	4.76
240.308	5.25
240.691	3.78
241.073	4.63
241.456	4.18
241.838	4.12
242.221	4.55
242.603	5.42
242.986	5.34
243.368	4.7
243.75	4.08
244.133	4.22
244.515	4.82
244.897	4.51
245.279	4.18
245.661	4.85
246.043	5.61
246.425	4.11
246.807	3.82
247.189	4.68
247.571	4.66
247.953	4.62
248.335	4.7
248.717	4.78
249.098	4.43
249.48	4.38
249.862	4.58
250.243	4.8
250.625	4.6
251.006	4.7
251.388	5.11
251.769	4.62
252.151	5.45
252.532	4.22
252.913	4.47
253.295	4.39
253.676	4.97
254.057	4.57
254.438	3.99
254.819	4.63
255.2	5.47
255.581	5.02
255.962	4.84
256.343	4.33
256.724	4.41
257.105	4.83
257.486	4.61
257.867	3.54
258.247	5.03
258.628	4.82
259.009	4.56
259.389	5.55
259.77	4.46
260.15	4.71
260.531	4.71
260.911	4.38
261.292	4.59
261.672	4.46
262.052	4.43
262.432	4.09
262.813	4.46
263.193	3.86
263.573	4.47
263.953	4.54
264.333	4.49
264.713	3.57
265.093	3.71
265.473	5.14
265.853	4.42
266.233	4.53
266.612	4.83
266.992	3.84
267.372	4.75
267.752	4.3
268.131	4.72
268.511	4.73
268.89	4.64
269.27	4.8
269.649	4.55
270.029	4.4
270.408	4.12
270.787	4.25
271.167	4.92
271.546	3.51
271.925	4.39
272.304	4.7
272.683	3.93
273.062	4.44
273.441	4.33
273.82	4.4
274.199	4.64
274.578	3.89
274.957	4.27
275.336	4.34
275.715	4.6
276.093	4.54
276.472	4.73
276.851	4.44
277.229	4.54
277.608	3.9
277.986	4.82
278.365	4.42
278.743	4.49
279.122	3.72
279.5	4.56
279.878	3.8
280.257	4.44
280.635	4.12
281.013	4.89
281.391	3.8
281.769	4.1
282.147	4.54
282.525	4.27
282.903	4.82
283.281	4.19
283.659	4.25
284.037	4.74
284.415	4.31
284.792	4.37
285.17	4.31
285.548	4.09
285.925	3.85
286.303	4.21
286.68	4.42
287.058	3.8
287.435	4.42
287.813	4.44
288.19	4.66
288.567	4.18
288.945	4.23
289.322	3.87
289.699	4.57
290.076	4.55
290.453	4.1
290.83	4.4
291.207	4.51
291.584	4.01
291.961	4.37
292.338	4.35
292.715	4.43
293.092	4.7
293.469	4.78
293.845	4.79
294.222	4.4
294.599	4.73
294.975	4.78
295.352	4.56
295.728	4.59
296.105	4.19
296.481	4.82
296.858	4.93
297.234	4.78
297.61	4.6
297.986	4.56
298.363	4.37
298.739	4.8
299.115	4.06
299.491	4.44
299.867	4.44
300.243	4.46
300.619	4.36
300.995	4.72
301.371	4.97
301.746	4.53
302.122	4.63
302.498	4.89
302.874	4.86
303.249	5.16
303.625	5.03
304	4.63
304.376	4.53
304.751	4.83
305.127	4.43
305.502	4.64
305.878	4.77
306.253	4.6
306.628	4.99
307.003	5.15
307.378	5.03
307.754	4.74
308.129	4.3
308.504	4.95
308.879	4.75
309.254	5.3
309.629	4.82
310.003	5.27
310.378	5.18
310.753	5.13
311.128	4.87
311.502	5
311.877	5.19
312.252	4.99
312.626	4.99
313.001	5
313.375	5.5
313.75	4.93
314.124	5.68
314.498	4.98
314.873	5.07
315.247	5.04
315.621	5.3
315.995	5.27
316.369	5.55
316.743	5.6
317.117	5.45
317.491	5.7
317.865	4.44
318.239	5.51
318.613	5.49
318.987	5.36
319.361	5.13
319.734	5.34
320.108	5.85
320.482	5.53
320.855	5.86
321.229	5.91
321.602	5.81
321.976	5.61
322.349	4.92
322.723	5.14
323.096	5.41
323.469	5.25
323.843	6.12
324.216	5.59
324.589	5.78
324.962	5.85
325.335	5.91
325.708	5.52
326.081	5.98
326.454	5.88
326.827	5.81
327.2	6.24
327.573	5.79
327.945	5.88
328.318	5.3
328.691	5.92
329.063	5.64
329.436	5.39
329.809	5.74
330.181	5.89
330.553	5.9
330.926	6.19
331.298	5.76
331.671	6.37
332.043	6.44
332.415	6.44
332.787	6.57
333.159	5.95
333.532	6.17
333.904	6.46
334.276	5.8
334.648	6.39
335.02	5.67
335.391	6.04
335.763	6.28
336.135	6.34
336.507	6.57
336.879	6
337.25	6.32
337.622	6.3
337.993	6.01
338.365	6.64
338.736	6.62
339.108	6.15
339.479	6.17
339.851	6.61
340.222	6.44
340.593	6.05
340.964	6.77
341.336	6.41
341.707	6.18
342.078	5.93
342.449	6.77
342.82	6.68
343.191	6.27
343.562	6.47
343.933	6.58
344.303	6.48
344.674	6.47
345.045	6.78
345.416	6.58
345.786	6.43
346.157	6.86
346.527	6.65
346.898	6.54
347.268	6.47
347.639	6.57
348.009	6.66
348.38	7.05
348.75	6.91
349.12	7.03
349.49	6.5
349.861	6.99
350.231	7.39
350.601	7.02
350.971	6.86
351.341	7.07
351.711	6.96
352.081	7.08
352.45	7.02
352.82	7.05
353.19	7.14
353.56	6.97
353.929	7.22
354.299	7.04
354.669	6.83
355.038	7
355.408	7.51
355.777	6.73
356.147	7.42
356.516	7.35
356.885	7.19
357.254	7.46
357.624	7.25
357.993	7.13
358.362	7.2
358.731	7.37
359.1	7.86
359.469	7.25
359.838	7.05
360.207	7.5
360.576	7.16
360.945	7.49
361.314	7.44
361.682	7.25
362.051	7.52
362.42	7.6
362.788	7.48
363.157	7.41
363.525	7.34
363.894	7.15
364.262	7.47
364.631	7.99
364.999	7.43
365.367	7.72
365.735	7.37
366.104	7.66
366.472	7.68
366.84	7.7
367.208	7.16
367.576	7.49
367.944	8.08
368.312	7.77
368.68	8.04
369.048	8.06
369.416	7.92
369.783	7.87
370.151	8.19
370.519	7.87
370.886	8.14
371.254	8.09
371.621	8.05
371.989	8.28
372.356	8.05
372.724	8.29
373.091	7.98
373.458	8.31
373.826	8.01
374.193	8.38
374.56	7.86
374.927	8.06
375.294	8.1
375.661	8.55
376.028	8.09
376.395	8.26
376.762	8.41
377.129	8.71
377.496	8.24
377.863	8.41
378.229	8.7
378.596	8.54
378.963	8.23
379.329	8.53
379.696	8.42
380.062	8.75
380.429	8.62
380.795	8.54
381.161	8.51
381.528	8.29
381.894	9.06
382.26	8.65
382.626	8.51
382.993	8.81
383.359	8.57
383.725	9.12
384.091	8.9
384.457	9.12
384.823	8.8
385.188	9.1
385.554	8.9
385.92	9.06
386.286	9.24
386.651	9.22
387.017	9.46
387.383	9.3
387.748	9.17
388.114	9.2
388.479	9.34
388.845	9.48
389.21	9.3
389.575	9.16
389.94	9.18
390.306	9.31
390.671	9.13
391.036	9.48
391.401	9.66
391.766	9.52
392.131	9.46
392.496	9.29
392.861	9.49
393.226	9.59
393.591	9.5
393.956	9.7
394.32	9.53
394.685	9.85
395.05	9.36
395.414	9.46
395.779	9.7
396.143	9.69
396.508	9.5
396.872	9.66
397.236	9.4
397.601	9.62
397.965	9.53
398.329	10.12
398.694	9.73
399.058	10.07
399.422	9.84
399.786	9.95
400.15	9.88
400.514	10.03
400.878	9.76
401.242	10.16
401.605	9.96
401.969	9.94
402.333	9.85
402.697	10.23
403.06	10.26
403.424	10.03
403.787	10.29
404.151	10.13
404.514	10.59
404.878	10.37
405.241	10.24
405.604	10.2
405.968	10.33
406.331	10.37
406.694	10.31
407.057	10.8
407.42	10.46
407.783	10.42
408.146	10.43
408.509	10.39
408.872	10.63
409.235	10.71
409.598	10.86
409.961	10.69
410.323	10.71
410.686	10.61
411.049	10.63
411.411	10.49
411.774	10.73
412.136	10.87
412.499	10.69
412.861	10.66
413.223	11.05
413.586	10.69
413.948	10.83
414.31	11.06
414.672	11.05
415.035	11.17
415.397	11.25
415.759	11.04
416.121	11.33
416.483	11.37
416.845	11.13
417.206	11.23
417.568	11.25
417.93	11
418.292	11.13
418.653	11.23
419.015	11.33
419.377	11.28
419.738	11.1
420.1	11.14
420.461	11.08
420.822	11.21
421.184	11.25
421.545	11.11
421.906	11.11
422.267	11.28
422.629	11.12
422.99	11.14
423.351	11.29
423.712	11.27
424.073	11.37
424.434	11.27
424.795	11.29
425.155	11.39
425.516	11.24
425.877	11.41
426.238	11.34
426.598	11.49
426.959	11.42
427.32	11.58
427.68	11.67
428.041	11.72
428.401	11.69
428.761	11.65
429.122	11.77
429.482	11.61
429.842	11.8
430.202	12.07
430.563	12.14
430.923	11.98
431.283	12.05
431.643	12.07
432.003	12.23
432.363	12.45
432.722	12.22
433.082	12.25
433.442	12.24
433.802	12.11
434.161	12.22
434.521	12.21
434.881	12.28
435.24	12.1
435.6	12.29
435.959	12.04
436.319	12.26
436.678	12.55
437.037	12.48
437.396	12.61
437.756	12.49
438.115	12.6
438.474	12.63
438.833	12.7
439.192	12.73
439.551	12.66
439.91	12.8
440.269	12.71
440.628	12.64
440.987	12.54
441.345	12.54
441.704	12.86
442.063	12.6
442.421	12.77
442.78	12.64
443.138	12.78
443.497	12.75
443.855	12.77
444.214	12.81
444.572	12.85
444.93	12.95
445.288	13.13
445.647	13.1
446.005	12.99
446.363	13.13
446.721	13.04
447.079	13.04
447.437	12.86
447.795	13.09
448.153	13.02
448.51	12.92
448.868	13.13
449.226	13.14
449.584	13.18
449.941	13.38
450.299	13.32
450.656	13.41
451.014	13.37
451.371	13.52
451.729	13.56
452.086	13.37
452.443	13.64
452.801	13.78
453.158	13.62
453.515	13.62
453.872	13.74
454.229	13.68
454.586	13.69
454.943	13.67
455.3	13.91
455.657	13.74
456.014	13.86
456.371	13.98
456.727	13.97
457.084	13.87
457.441	13.93
457.797	14.19
458.154	14.11
458.51	14.09
458.867	13.9
459.223	14.16
459.58	14.17
459.936	14.19
460.292	14.08
460.648	14.07
461.005	13.95
461.361	13.92
461.717	13.91
462.073	14.01
462.429	14.07
462.785	14.2
463.141	14.47
463.496	14.36
463.852	14.61
464.208	14.61
464.564	14.36
464.919	14.56
465.275	14.76
465.631	14.69
465.986	14.44
466.342	14.8
466.697	14.68
467.052	14.96
467.408	14.93
467.763	14.86
468.118	14.9
468.473	14.92
468.829	14.89
469.184	14.92
469.539	15.06
469.894	15.08
470.249	15.11
470.603	15.16
470.958	15.25
471.313	15.25
471.668	15.28
472.023	15.44
472.377	15.24
472.732	15.18
473.086	15.11
473.441	15.45
473.795	15.46
474.15	15.43
474.504	15.5
474.859	15.62
475.213	15.44
475.567	15.63
475.921	15.64
476.275	15.87
476.63	15.58
476.984	15.55
477.338	15.72
477.692	15.54
478.045	15.72
478.399	15.88
478.753	15.57
479.107	15.87
479.461	15.8
479.814	15.84
480.168	15.98
480.521	15.9
480.875	16.06
481.228	16.14
481.582	15.98
481.935	15.93
482.289	15.97
482.642	16.03
482.995	16.02
483.348	15.88
483.701	15.9
484.055	15.82
484.408	15.54
484.761	15.41
485.114	15.33
485.466	15.33
485.819	15.31
486.172	15.36
486.525	15.43
486.878	15.53
487.23	15.69
487.583	15.95
487.936	15.97
488.288	15.9
488.641	15.77
488.993	15.67
489.345	15.76
489.698	15.87
490.05	15.92
490.402	16.04
490.754	16.21
491.107	16.34
491.459	16.45
491.811	16.52
492.163	16.47
492.515	16.38
492.866	16.13
493.218	16.16
493.57	16.26
493.922	16.24
494.274	16.49
494.625	16.64
494.977	16.72
495.328	17.03
495.68	17.21
496.031	17.3
496.383	17.19
496.734	17.3
497.086	17.39
497.437	17.41
497.788	17.28
498.139	17.29
498.49	17.36
498.842	17.32
499.193	17.36
499.544	17.48
499.894	17.46
500.245	17.59
500.596	17.55
500.947	17.47
501.298	17.58
501.648	17.84
501.999	17.93
502.35	17.93
502.7	18.07
503.051	17.91
503.401	17.99
503.752	18.04
504.102	17.99
504.452	18.08
504.803	18.01
505.153	17.99
505.503	18.11
505.853	18.22
506.203	18.21
506.553	18.31
506.903	18.17
507.253	18.33
507.603	18.42
507.953	18.61
508.303	18.43
508.652	18.57
509.002	18.48
509.352	18.45
509.701	18.45
510.051	18.52
510.4	18.53
510.75	18.47
511.099	18.43
511.449	18.49
511.798	18.61
512.147	18.61
512.496	18.63
512.846	18.66
513.195	18.75
513.544	18.59
513.893	18.63
514.242	18.83
514.591	18.85
514.939	18.81
515.288	18.82
515.637	18.95
515.986	18.98
516.334	19.3
516.683	19.24
517.032	19.08
517.38	19.28
517.729	19.04
518.077	19.22
518.426	19.22
518.774	19.22
519.122	19.07
519.47	19.13
519.819	19.09
520.167	19
520.515	19.05
520.863	19.12
521.211	19.16
521.559	19.26
521.907	19.46
522.255	19.57
522.602	19.51
522.95	19.72
523.298	19.64
523.645	19.75
523.993	19.79
524.341	19.82
524.688	19.82
525.036	19.87
525.383	20
525.73	19.96
526.078	19.89
526.425	19.76
526.772	19.72
527.119	19.54
527.466	19.63
527.814	19.68
528.161	19.69
528.508	19.67
528.854	19.73
529.201	19.63
529.548	19.49
529.895	19.37
530.242	19.35
530.588	19.38
530.935	19.33
531.282	19.45
531.628	19.62
531.975	19.87
532.321	19.97
532.667	20.09
533.014	20.17
533.36	20.21
533.706	20.36
534.052	20.23
534.399	20.01
534.745	20.01
535.091	20.08
535.437	20.12
535.783	20.28
536.129	20.3
536.474	20.55
536.82	20.64
537.166	20.81
537.512	20.7
537.857	20.68
538.203	20.64
538.549	20.72
538.894	20.85
539.239	20.95
539.585	20.99
539.93	21.14
540.276	21.1
540.621	21.26
540.966	21.23
541.311	21.29
541.656	20.96
542.001	21.14
542.346	20.83
542.691	20.74
543.036	20.76
543.381	20.75
543.726	20.82
544.071	20.99
544.415	20.95
544.76	21.07
545.105	21.27
545.449	21.26
545.794	21.39
546.138	21.63
546.483	21.64
546.827	21.64
547.171	21.66
547.516	21.9
547.86	21.84
548.204	21.76
548.548	21.82
548.892	21.8
549.236	22.17
549.58	22.19
549.924	22.16
550.268	22.28
550.612	22.6
550.956	22.48
551.3	22.57
551.643	22.64
551.987	22.79
552.33	22.77
552.674	22.71
553.017	22.77
553.361	22.86
553.704	22.75
554.048	22.72
554.391	22.71
554.734	22.6
555.077	22.84
555.42	22.82
555.764	22.97
556.107	22.9
556.45	23.13
556.793	23.21
557.135	23.49
557.478	23.3
557.821	23.08
558.164	23.47
558.507	23.35
558.849	23.47
559.192	23.45
559.534	23.25
559.877	23.63
560.219	23.52
560.562	23.56
560.904	23.6
561.246	23.81
561.589	23.9
561.931	23.99
562.273	23.61
562.615	23.79
562.957	23.89
563.299	23.94
563.641	23.97
563.983	24.06
564.325	23.88
564.667	24.05
565.008	23.74
565.35	24.18
565.692	23.98
566.033	24.23
566.375	23.99
566.716	24.11
567.058	24.05
567.399	24.12
567.741	24.24
568.082	24.05
568.423	23.95
568.764	24.09
569.105	24.35
569.447	24.26
569.788	24.42
570.129	24.42
570.47	24.45
570.811	24.46
571.151	24.51
571.492	24.62
571.833	24.49
572.174	24.63
572.514	24.8
572.855	24.82
573.195	24.64
573.536	24.55
573.876	24.59
574.217	24.6
574.557	24.84
574.898	24.7
575.238	24.8
575.578	24.92
575.918	24.94
576.258	24.73
576.598	24.83
576.938	25.16
577.278	25
577.618	25.13
577.958	25.1
578.298	25.22
578.638	25.32
578.977	25.42
579.317	25.4
579.657	25.46
579.996	25.54
580.336	25.64
580.675	25.62
581.014	25.65
581.354	26.1
581.693	25.68
582.032	25.8
582.372	25.93
582.711	25.79
583.05	26.07
583.389	25.93
583.728	26.05
584.067	26.45
584.406	26.25
584.745	26.29
585.083	26.09
585.422	26.43
585.761	26.21
586.1	26.48
586.438	26.38
586.777	26.24
587.115	26.41
587.454	26.29
587.792	26.3
588.13	26.59
588.469	26.52
588.807	26.81
589.145	26.47
589.483	26.62
589.821	26.41
590.159	26.51
590.497	26.6
590.835	26.77
591.173	27.16
591.511	26.86
591.849	26.68
592.187	26.69
592.524	26.58
592.862	26.66
593.2	26.66
593.537	27.24
593.875	27.05
594.212	27.2
594.55	26.97
594.887	27.41
595.224	27.26
595.561	27.25
595.899	27.22
596.236	27.22
596.573	27.05
596.91	27.3
597.247	27.15
597.584	27.22
597.921	27.01
598.258	27.09
598.594	27.23
598.931	27.22
599.268	27.02
599.604	27.2
599.941	27.29
600.277	27.66
600.614	27.4
600.95	28.07
601.287	27.6
601.623	28.09
601.959	27.77
602.296	27.93
602.632	28.03
602.968	27.77
603.304	27.75
603.64	27.86
603.976	27.7
604.312	28
604.648	27.96
604.984	27.83
605.319	27.73
605.655	28.08
605.991	27.87
606.326	27.79
606.662	27.64
606.998	27.9
607.333	27.97
607.668	28.16
608.004	28.25
608.339	28.35
608.674	28.3
609.01	28.27
609.345	28.64
609.68	28.39
610.015	28.4
610.35	28.61
610.685	28.53
611.02	28.59
611.355	28.46
611.689	28.37
612.024	28.47
612.359	28.59
612.694	28.72
613.028	28.79
613.363	28.43
613.697	29.09
614.032	28.97
614.366	28.68
614.7	29.17
615.035	28.92
615.369	29.32
615.703	29.35
616.037	28.84
616.371	28.99
616.705	29.26
617.039	29.55
617.373	29.12
617.707	29.06
618.041	29.17
618.375	29.07
618.709	29.7
619.042	29.43
619.376	29.27
619.71	29.43
620.043	29.5
620.377	29.92
620.71	29.27
621.043	29.42
621.377	29.45
621.71	29.77
622.043	29.74
622.376	29.58
622.709	30.19
623.043	29.76
623.376	29.81
623.709	30.02
624.041	29.74
624.374	29.44
624.707	29.99
625.04	30.18
625.373	29.86
625.705	30.47
626.038	30.14
626.37	30.21
626.703	30.54
627.035	30.32
627.368	30.44
627.7	29.93
628.032	30.18
628.365	29.95
628.697	30.15
629.029	30.21
629.361	30
629.693	30.39
630.025	30.58
630.357	30.28
630.689	30.61
631.021	30.36
631.353	30.86
631.684	30.49
632.016	30.61
632.348	30.61
632.679	30.34
633.011	30.37
633.342	30.96
633.674	30.46
634.005	30.85
634.336	31.12
634.668	30.89
634.999	30.84
635.33	31.01
635.661	31.44
635.992	30.56
636.323	31.12
636.654	31.37
636.985	30.77
637.316	31.08
637.647	30.89
637.977	31.07
638.308	30.94
638.639	31.06
638.969	30.88
639.3	31.13
639.63	30.95
639.961	31.07
640.291	31.53
640.622	31.76
640.952	31.81
641.282	31.08
641.612	31.41
641.943	31.85
642.273	31.79
642.603	31.51
642.933	31.92
643.263	31.83
643.592	31.7
643.922	32.1
644.252	31.69
644.582	31.67
644.911	31.89
645.241	31.52
645.571	32.04
645.9	32.46
646.23	32.05
646.559	31.92
646.888	31.74
647.218	31.88
647.547	32.59
647.876	32.36
648.205	31.47
648.534	32.13
648.863	32.46
649.192	32.19
649.521	31.93
649.85	32.96
650.179	31.99
650.508	32.77
650.837	32.27
651.165	32.7
651.494	32.54
651.822	32.41
652.151	32.72
652.479	32.59
652.808	32.7
653.136	32.32
653.465	32.4
653.793	32.14
654.121	32.75
654.449	32.43
654.777	32.99
655.105	33.08
655.433	32.76
655.761	32.16
656.089	33
656.417	32.39
656.745	33.22
657.073	33.24
657.4	33.11
657.728	33.1
658.056	33.08
658.383	33.25
658.711	32.5
659.038	33.34
659.365	32.94
659.693	33.06
660.02	32.58
660.347	32.99
660.674	33.13
661.001	32.98
661.329	33.28
661.656	33.45
661.982	33.1
662.309	33.06
662.636	33.31
662.963	33.41
663.29	33.3
663.616	33.78
663.943	33.42
664.27	33.59
664.596	32.81
664.923	33.99
665.249	34.04
665.576	33.59
665.902	33.53
666.228	33.72
666.554	33.58
666.881	33.77
667.207	33.1
667.533	33.75
667.859	34.05
668.185	34.03
668.511	33.96
668.837	33.83
669.162	33.6
669.488	33.49
669.814	34.58
670.139	34.19
670.465	33.88
670.791	34.62
671.116	33.67
671.442	34.53
671.767	34.59
672.092	34.54
672.418	34.39
672.743	34.1
673.068	34.13
673.393	34.4
673.718	33.33
674.043	34.51
674.368	34.55
