Data from 0057_chest_Reflection__3__81.txt Node

Date: Fri Dec 16 14:31:07 CST 2022
User: ToomeyLab
Spectrometer: FLMS14357
Trigger mode: 0
Integration Time (sec): 1.000000E-2
Scans to average: 100
Electric dark correction enabled: true
Nonlinearity correction enabled: false
Boxcar width: 0
XAxis mode: Wavelengths
Number of Pixels in Spectrum: 2048
>>>>>Begin Spectral Data<<<<<
189.047	-12.2
189.435	-12.2
189.823	-12.2
190.211	75.97
190.599	179.84
190.987	-256.53
191.375	-184.29
191.763	62.61
192.151	2045.83
192.538	110.55
192.926	767.29
193.314	82.32
193.702	37.5
194.089	41.38
194.477	-309.88
194.864	10.32
195.252	45.9
195.639	72.27
196.027	2250.5
196.414	-80.14
196.801	211.82
197.189	30.38
197.576	185.3
197.963	-1627.5
198.351	39.6
198.738	8.82
199.125	29.98
199.512	8.07
199.899	4.63
200.286	-24.43
200.673	31.51
201.06	18.62
201.447	33.26
201.833	-0.39
202.22	-23.52
202.607	-3.89
202.994	27.71
203.38	-43.24
203.767	-14.31
204.154	-40.36
204.54	47.82
204.927	8.1
205.313	36.15
205.699	-8.36
206.086	-29.63
206.472	-6.14
206.858	48.89
207.245	28.32
207.631	5.03
208.017	24.86
208.403	52.01
208.789	9.5
209.175	49.38
209.561	12.69
209.947	6.37
210.333	-21.05
210.719	-16.88
211.105	-33.37
211.491	-6.34
211.876	31.86
212.262	-39.06
212.648	-15.46
213.034	5.23
213.419	29.3
213.805	24.46
214.19	26.51
214.576	-8.03
214.961	4.1
215.346	-10.07
215.732	16.42
216.117	7.96
216.502	11.24
216.888	-10.91
217.273	18.36
217.658	3.93
218.043	3.87
218.428	-4.09
218.813	9.31
219.198	-20.65
219.583	-0.8
219.968	-18.45
220.353	10.49
220.738	2.66
221.122	-5.71
221.507	0.08
221.892	9.11
222.276	19.75
222.661	1.85
223.046	0.01
223.43	4.3
223.815	15.4
224.199	2.47
224.583	-0.26
224.968	10.48
225.352	3.87
225.736	4.47
226.121	10.38
226.505	3.65
226.889	0.23
227.273	5.64
227.657	2.93
228.041	1.99
228.425	2.98
228.809	3.57
229.193	2.17
229.577	2.48
229.961	2.67
230.344	2.98
230.728	2.82
231.112	3.73
231.495	1.87
231.879	2
232.263	1.33
232.646	3.33
233.03	1.84
233.413	1.77
233.797	4.84
234.18	1.72
234.563	2.02
234.946	1.64
235.33	4.16
235.713	3.03
236.096	3.59
236.479	2.58
236.862	3.37
237.245	3.06
237.628	3.1
238.011	1.5
238.394	3.91
238.777	3.11
239.16	2.62
239.543	2.56
239.925	2.49
240.308	2.44
240.691	3.15
241.073	1.67
241.456	2.91
241.838	2.27
242.221	3.76
242.603	2.87
242.986	3.66
243.368	2.75
243.75	2.36
244.133	2.84
244.515	2.96
244.897	3.27
245.279	2.49
245.661	3.64
246.043	2.33
246.425	2.36
246.807	2.09
247.189	2.42
247.571	2.63
247.953	2.86
248.335	2.83
248.717	2.86
249.098	3.07
249.48	2.37
249.862	3.25
250.243	2.77
250.625	2.85
251.006	3.44
251.388	3.69
251.769	3.8
252.151	2.37
252.532	2.83
252.913	3.06
253.295	2.64
253.676	2.89
254.057	2.61
254.438	2.56
254.819	2.86
255.2	3.12
255.581	2.06
255.962	2.68
256.343	3.63
256.724	2.97
257.105	2.8
257.486	3.61
257.867	2.05
258.247	2.53
258.628	3.31
259.009	3.04
259.389	2.54
259.77	2.13
260.15	3.05
260.531	2.78
260.911	2.73
261.292	2.69
261.672	2.7
262.052	2.75
262.432	2.38
262.813	2.78
263.193	2.4
263.573	2.5
263.953	2.5
264.333	2.4
264.713	1.83
265.093	2.42
265.473	3.11
265.853	2.49
266.233	2.47
266.612	2.97
266.992	2.77
267.372	3.34
267.752	2.55
268.131	2.73
268.511	3.05
268.89	3.15
269.27	2.79
269.649	2.99
270.029	2.27
270.408	2.31
270.787	2.19
271.167	3
271.546	2.16
271.925	2.59
272.304	2.7
272.683	2.63
273.062	2.83
273.441	2.52
273.82	2.72
274.199	2.75
274.578	2.64
274.957	2.81
275.336	2.27
275.715	3.22
276.093	3.31
276.472	2.69
276.851	2.44
277.229	2.55
277.608	2.9
277.986	2.4
278.365	2.4
278.743	2.48
279.122	2.15
279.5	2.47
279.878	1.73
280.257	3.06
280.635	1.83
281.013	2.8
281.391	2.62
281.769	2.33
282.147	2.77
282.525	2.82
282.903	2.84
283.281	2.55
283.659	3.03
284.037	2.72
284.415	2.45
284.792	2.12
285.17	1.97
285.548	2.76
285.925	2.25
286.303	2.26
286.68	2.64
287.058	2.55
287.435	2.67
287.813	2.66
288.19	2.98
288.567	2.36
288.945	2.45
289.322	2.04
289.699	2.18
290.076	2.85
290.453	2.74
290.83	2.78
291.207	2.46
291.584	2.59
291.961	2.96
292.338	2.95
292.715	2.89
293.092	2.96
293.469	3.15
293.845	3.13
294.222	2.49
294.599	2.91
294.975	2.61
295.352	2.6
295.728	2.71
296.105	2.92
296.481	3.54
296.858	2.98
297.234	3.19
297.61	3.27
297.986	3.07
298.363	2.61
298.739	2.96
299.115	2.67
299.491	3.18
299.867	2.91
300.243	3.13
300.619	2.84
300.995	3.36
301.371	3.07
301.746	2.79
302.122	3.4
302.498	2.99
302.874	3.37
303.249	3.61
303.625	3.4
304	2.97
304.376	2.84
304.751	3.37
305.127	2.94
305.502	3.29
305.878	3.22
306.253	2.93
306.628	3.54
307.003	3.65
307.378	3.43
307.754	3.35
308.129	3.01
308.504	2.96
308.879	3.43
309.254	3.58
309.629	3.05
310.003	3.77
310.378	3.27
310.753	3.58
311.128	3.11
311.502	3.12
311.877	3.4
312.252	3.24
312.626	2.9
313.001	3
313.375	3.29
313.75	2.85
314.124	3.64
314.498	3.43
314.873	3.19
315.247	3.61
315.621	3.57
315.995	3.63
316.369	3.19
316.743	3.89
317.117	3.27
317.491	3.61
317.865	3.19
318.239	3.9
318.613	3.76
318.987	3.05
319.361	3.07
319.734	3.68
320.108	3.56
320.482	3.53
320.855	3.31
321.229	3.66
321.602	3.46
321.976	3.84
322.349	3.11
322.723	2.96
323.096	3.52
323.469	3.17
323.843	3.67
324.216	3.1
324.589	4.02
324.962	3.4
325.335	3.44
325.708	3.6
326.081	3.96
326.454	3.37
326.827	3.47
327.2	3.88
327.573	3.45
327.945	3.64
328.318	3.67
328.691	3.87
329.063	3.67
329.436	3.5
329.809	3.45
330.181	3.82
330.553	3.84
330.926	3.55
331.298	3.26
331.671	3.63
332.043	3.86
332.415	4.04
332.787	3.63
333.159	3.53
333.532	3.67
333.904	3.68
334.276	3.2
334.648	3.78
335.02	3.68
335.391	3.68
335.763	3.57
336.135	3.93
336.507	3.68
336.879	3.14
337.25	3.2
337.622	3.6
337.993	3.51
338.365	4.11
338.736	3.9
339.108	3.38
339.479	3.83
339.851	3.87
340.222	3.84
340.593	3.29
340.964	3.83
341.336	3.46
341.707	3.47
342.078	3.54
342.449	4.1
342.82	4.01
343.191	3.18
343.562	3.54
343.933	3.64
344.303	3.76
344.674	3.46
345.045	3.69
345.416	3.55
345.786	3.38
346.157	3.56
346.527	3.17
346.898	3.77
347.268	3.61
347.639	3.65
348.009	4.01
348.38	3.69
348.75	3.88
349.12	3.67
349.49	3.79
349.861	4.27
350.231	3.95
350.601	3.51
350.971	3.67
351.341	4.02
351.711	3.89
352.081	3.91
352.45	3.79
352.82	4.05
353.19	3.86
353.56	4
353.929	3.96
354.299	3.74
354.669	3.98
355.038	4.06
355.408	4.43
355.777	3.84
356.147	4.4
356.516	3.81
356.885	3.53
357.254	3.74
357.624	3.68
357.993	3.71
358.362	4.18
358.731	3.67
359.1	3.97
359.469	3.85
359.838	3.83
360.207	3.61
360.576	3.92
360.945	3.86
361.314	4.13
361.682	3.52
362.051	3.77
362.42	4.1
362.788	3.96
363.157	3.66
363.525	3.7
363.894	3.65
364.262	3.72
364.631	4.67
364.999	3.64
365.367	3.99
365.735	3.48
366.104	3.63
366.472	4.24
366.84	4.02
367.208	3.5
367.576	3.82
367.944	3.97
368.312	3.71
368.68	4.27
369.048	4.18
369.416	3.93
369.783	4
370.151	3.99
370.519	3.86
370.886	3.94
371.254	3.88
371.621	3.77
371.989	4.12
372.356	4.09
372.724	4.14
373.091	4.11
373.458	3.86
373.826	4.16
374.193	4.54
374.56	4.13
374.927	3.67
375.294	4.19
375.661	4.04
376.028	4.12
376.395	4.26
376.762	4.33
377.129	4.14
377.496	4.16
377.863	4.21
378.229	3.61
378.596	3.96
378.963	3.89
379.329	4.15
379.696	3.83
380.062	4.23
380.429	4.06
380.795	3.79
381.161	3.94
381.528	3.56
381.894	4.16
382.26	3.89
382.626	3.93
382.993	3.99
383.359	3.98
383.725	4.12
384.091	4.15
384.457	4.21
384.823	4.06
385.188	4.17
385.554	4.14
385.92	4.21
386.286	4.42
386.651	4.26
387.017	4.19
387.383	4.08
387.748	4.03
388.114	4.15
388.479	4.29
388.845	3.95
389.21	4.31
389.575	4.14
389.94	4.06
390.306	4.17
390.671	4.23
391.036	4.34
391.401	4.58
391.766	4
392.131	4.19
392.496	4.15
392.861	4.18
393.226	4.3
393.591	4.19
393.956	4.29
394.32	4.11
394.685	4.28
395.05	4.17
395.414	4.34
395.779	4.41
396.143	4.1
396.508	4.33
396.872	4.48
397.236	4.14
397.601	4.45
397.965	4.03
398.329	4.34
398.694	4.12
399.058	4.3
399.422	4.37
399.786	4.24
400.15	4.12
400.514	4.35
400.878	4.27
401.242	4.43
401.605	4.31
401.969	4.51
402.333	4.41
402.697	4.5
403.06	4.36
403.424	4.23
403.787	4.46
404.151	4.32
404.514	4.2
404.878	4.29
405.241	4.45
405.604	4.43
405.968	4.34
406.331	4.4
406.694	4.37
407.057	4.58
407.42	4.42
407.783	4.45
408.146	4.28
408.509	4.43
408.872	4.5
409.235	4.48
409.598	4.56
409.961	4.56
410.323	4.39
410.686	4.38
411.049	4.45
411.411	4.41
411.774	4.37
412.136	4.45
412.499	4.31
412.861	4.13
413.223	4.51
413.586	4.24
413.948	4.54
414.31	4.39
414.672	4.28
415.035	4.55
415.397	4.66
415.759	4.44
416.121	4.57
416.483	4.61
416.845	4.52
417.206	4.54
417.568	4.48
417.93	4.42
418.292	4.49
418.653	4.6
419.015	4.33
419.377	4.55
419.738	4.38
420.1	4.41
420.461	4.33
420.822	4.4
421.184	4.45
421.545	4.32
421.906	4.46
422.267	4.33
422.629	4.43
422.99	4.41
423.351	4.42
423.712	4.46
424.073	4.59
424.434	4.41
424.795	4.43
425.155	4.51
425.516	4.42
425.877	4.51
426.238	4.43
426.598	4.56
426.959	4.38
427.32	4.59
427.68	4.7
428.041	4.56
428.401	4.48
428.761	4.59
429.122	4.7
429.482	4.41
429.842	4.74
430.202	4.59
430.563	4.79
430.923	4.44
431.283	4.7
431.643	4.75
432.003	4.62
432.363	4.87
432.722	4.48
433.082	4.65
433.442	4.6
433.802	4.66
434.161	4.59
434.521	4.71
434.881	4.68
435.24	4.59
435.6	4.67
435.959	4.59
436.319	4.6
436.678	4.79
437.037	4.65
437.396	4.7
437.756	4.49
438.115	4.77
438.474	4.89
438.833	4.78
439.192	4.75
439.551	4.67
439.91	4.82
440.269	4.8
440.628	4.66
440.987	4.62
441.345	4.57
441.704	4.78
442.063	4.71
442.421	4.81
442.78	4.69
443.138	4.62
443.497	4.64
443.855	4.68
444.214	4.72
444.572	4.6
444.93	4.84
445.288	4.82
445.647	4.81
446.005	4.66
446.363	4.84
446.721	4.61
447.079	4.76
447.437	4.74
447.795	4.73
448.153	4.63
448.51	4.7
448.868	4.78
449.226	4.67
449.584	4.75
449.941	4.82
450.299	4.83
450.656	4.8
451.014	4.78
451.371	4.87
451.729	4.94
452.086	4.76
452.443	4.73
452.801	5.1
453.158	4.77
453.515	4.89
453.872	4.89
454.229	4.87
454.586	4.82
454.943	4.86
455.3	4.91
455.657	4.82
456.014	4.93
456.371	4.78
456.727	4.96
457.084	4.81
457.441	4.77
457.797	4.96
458.154	4.94
458.51	4.83
458.867	4.72
459.223	4.88
459.58	4.91
459.936	4.86
460.292	4.93
460.648	4.77
461.005	4.84
461.361	4.83
461.717	4.9
462.073	4.92
462.429	5
462.785	5.02
463.141	5.07
463.496	4.85
463.852	5.08
464.208	5.09
464.564	4.92
464.919	4.97
465.275	5.02
465.631	4.93
465.986	4.99
466.342	5.05
466.697	4.99
467.052	5.16
467.408	5.04
467.763	5.01
468.118	4.97
468.473	5.11
468.829	5.03
469.184	5.28
469.539	4.98
469.894	5.09
470.249	5.28
470.603	5.13
470.958	5.2
471.313	5.02
471.668	5.17
472.023	5.3
472.377	4.99
472.732	4.99
473.086	4.99
473.441	5.17
473.795	5.32
474.15	5.1
474.504	5.07
474.859	5.19
475.213	5.31
475.567	5.09
475.921	5.18
476.275	5.17
476.63	5.09
476.984	5.12
477.338	5.31
477.692	5.2
478.045	5.1
478.399	5.36
478.753	5.12
479.107	5.12
479.461	5.22
479.814	5.22
480.168	5.26
480.521	5.15
480.875	5.4
481.228	5.33
481.582	5.1
481.935	5.23
482.289	5.19
482.642	5.25
482.995	5.28
483.348	5.16
483.701	5.05
484.055	5.13
484.408	5.12
484.761	4.94
485.114	4.89
485.466	4.89
485.819	4.96
486.172	5.04
486.525	5.15
486.878	5.11
487.23	5.2
487.583	5.21
487.936	5.2
488.288	5.11
488.641	5.09
488.993	5.07
489.345	5.06
489.698	5.14
490.05	5.15
490.402	5.22
490.754	5.29
491.107	5.3
491.459	5.4
491.811	5.35
492.163	5.34
492.515	5.27
492.866	5.11
493.218	5.16
493.57	5.21
493.922	5.25
494.274	5.38
494.625	5.36
494.977	5.35
495.328	5.59
495.68	5.63
496.031	5.62
496.383	5.51
496.734	5.57
497.086	5.44
497.437	5.61
497.788	5.37
498.139	5.48
498.49	5.49
498.842	5.54
499.193	5.59
499.544	5.6
499.894	5.55
500.245	5.59
500.596	5.55
500.947	5.55
501.298	5.53
501.648	5.54
501.999	5.77
502.35	5.66
502.7	5.77
503.051	5.72
503.401	5.72
503.752	5.6
504.102	5.66
504.452	5.62
504.803	5.57
505.153	5.65
505.503	5.66
505.853	5.68
506.203	5.73
506.553	5.77
506.903	5.69
507.253	5.87
507.603	5.83
507.953	5.91
508.303	5.81
508.652	5.81
509.002	5.78
509.352	5.75
509.701	5.82
510.051	5.91
510.4	5.93
510.75	5.85
511.099	5.79
511.449	5.79
511.798	6
512.147	5.92
512.496	5.9
512.846	5.81
513.195	5.94
513.544	5.89
513.893	5.81
514.242	6.01
514.591	5.87
514.939	5.93
515.288	5.98
515.637	5.94
515.986	5.94
516.334	5.94
516.683	5.95
517.032	6.01
517.38	6.18
517.729	6.03
518.077	6.11
518.426	5.94
518.774	6.06
519.122	6
519.47	6.02
519.819	5.95
520.167	6.08
520.515	5.98
520.863	6.04
521.211	6.01
521.559	6.12
521.907	6.19
522.255	6.1
522.602	6.25
522.95	6.24
523.298	6.23
523.645	6.15
523.993	6.29
524.341	6.23
524.688	6.3
525.036	6.37
525.383	6.35
525.73	6.34
526.078	6.24
526.425	6.27
526.772	6.08
527.119	6.13
527.466	6.18
527.814	6.29
528.161	6.26
528.508	6.3
528.854	6.21
529.201	6.25
529.548	6.19
529.895	6.08
530.242	6.07
530.588	6.18
530.935	6.18
531.282	6.32
531.628	6.34
531.975	6.35
532.321	6.38
532.667	6.47
533.014	6.51
533.36	6.43
533.706	6.54
534.052	6.41
534.399	6.35
534.745	6.36
535.091	6.43
535.437	6.41
535.783	6.48
536.129	6.59
536.474	6.66
536.82	6.64
537.166	6.67
537.512	6.61
537.857	6.68
538.203	6.62
538.549	6.74
538.894	6.71
539.239	6.9
539.585	6.76
539.93	7.04
540.276	6.9
540.621	6.89
540.966	6.8
541.311	6.87
541.656	6.79
542.001	6.77
542.346	6.75
542.691	6.64
543.036	6.73
543.381	6.76
543.726	6.81
544.071	6.92
544.415	6.83
544.76	6.89
545.105	6.96
545.449	6.96
545.794	7.02
546.138	7.11
546.483	7.04
546.827	7.07
547.171	7.08
547.516	7.21
547.86	7.18
548.204	7.21
548.548	7.26
548.892	7.27
549.236	7.2
549.58	7.25
549.924	7.34
550.268	7.49
550.612	7.36
550.956	7.33
551.3	7.36
551.643	7.4
551.987	7.38
552.33	7.37
552.674	7.38
553.017	7.64
553.361	7.55
553.704	7.55
554.048	7.54
554.391	7.51
554.734	7.52
555.077	7.54
555.42	7.6
555.764	7.64
556.107	7.72
556.45	7.51
556.793	7.99
557.135	7.85
557.478	7.78
557.821	7.75
558.164	7.78
558.507	7.69
558.849	7.82
559.192	7.81
559.534	7.69
559.877	7.92
560.219	8.11
560.562	8.11
560.904	8
561.246	8.09
561.589	8.01
561.931	8.07
562.273	8.03
562.615	8.05
562.957	8.23
563.299	8.33
563.641	8.2
563.983	8.16
564.325	8.06
564.667	8.18
565.008	8.26
565.35	8.37
565.692	8.29
566.033	8.35
566.375	8.18
566.716	8.32
567.058	8.39
567.399	8.42
567.741	8.36
568.082	8.41
568.423	8.38
568.764	8.5
569.105	8.61
569.447	8.5
569.788	8.54
570.129	8.73
570.47	8.73
570.811	8.64
571.151	8.76
571.492	8.62
571.833	8.67
572.174	8.54
572.514	8.61
572.855	8.89
573.195	8.66
573.536	8.73
573.876	8.73
574.217	8.73
574.557	8.91
574.898	8.81
575.238	8.84
575.578	9.05
575.918	8.86
576.258	8.91
576.598	8.9
576.938	9.05
577.278	9.05
577.618	9.04
577.958	9.05
578.298	9.2
578.638	9.16
578.977	9.22
579.317	9.32
579.657	9.33
579.996	9.45
580.336	9.29
580.675	9.41
581.014	9.2
581.354	9.44
581.693	9.52
582.032	9.21
582.372	9.41
582.711	9.42
583.05	9.65
583.389	9.68
583.728	9.51
584.067	9.67
584.406	9.52
584.745	9.86
585.083	9.71
585.422	9.74
585.761	9.8
586.1	10.08
586.438	9.77
586.777	9.53
587.115	9.83
587.454	9.96
587.792	9.68
588.13	9.96
588.469	10.22
588.807	9.89
589.145	10.2
589.483	9.93
589.821	10.29
590.159	9.82
590.497	10.05
590.835	10.06
591.173	10.23
591.511	10.39
591.849	10.37
592.187	10.06
592.524	10.3
592.862	10.36
593.2	10.14
593.537	10.39
593.875	10.31
594.212	10.26
594.55	10.35
594.887	10.62
595.224	10.46
595.561	10.49
595.899	10.55
596.236	10.43
596.573	10.48
596.91	10.43
597.247	10.37
597.584	10.6
597.921	10.51
598.258	10.62
598.594	10.54
598.931	10.51
599.268	10.62
599.604	10.79
599.941	10.58
600.277	10.79
600.614	10.81
600.95	11.14
601.287	11.11
601.623	11.19
601.959	10.82
602.296	11.14
602.632	11
602.968	11
603.304	11.07
603.64	11.18
603.976	11.17
604.312	11.27
604.648	11.18
604.984	11.19
605.319	11.24
605.655	11.09
605.991	11.21
606.326	11.1
606.662	11.26
606.998	11.38
607.333	11.12
607.668	11.36
608.004	11.29
608.339	11.33
608.674	11.63
609.01	11.55
609.345	11.89
609.68	11.48
610.015	11.48
610.35	11.83
610.685	11.84
611.02	11.78
611.355	11.59
611.689	11.51
612.024	11.58
612.359	11.9
612.694	11.92
613.028	12.08
613.363	11.9
613.697	11.84
614.032	11.91
614.366	11.67
614.7	11.95
615.035	12.02
615.369	12.12
615.703	12.14
616.037	12.29
616.371	12.1
616.705	12.34
617.039	12.54
617.373	12.43
617.707	12.45
618.041	12.39
618.375	12.11
618.709	12.39
619.042	12.3
619.376	12.36
619.71	12.21
620.043	12.12
620.377	12.49
620.71	12.52
621.043	12.31
621.377	12.12
621.71	12.73
622.043	12.87
622.376	12.61
622.709	12.7
623.043	12.59
623.376	12.73
623.709	12.89
624.041	12.72
624.374	12.52
624.707	12.84
625.04	12.99
625.373	13.11
625.705	12.47
626.038	13.16
626.37	12.91
626.703	12.8
627.035	12.88
627.368	12.94
627.7	12.93
628.032	13.28
628.365	12.82
628.697	12.86
629.029	13.27
629.361	12.96
629.693	13.42
630.025	13.16
630.357	13.33
630.689	13.4
631.021	13.3
631.353	13.3
631.684	13.4
632.016	13.31
632.348	13.67
632.679	13.52
633.011	13.6
633.342	13.62
633.674	13.57
634.005	13.77
634.336	13.44
634.668	13.3
634.999	13.65
635.33	13.84
635.661	13.96
635.992	13.46
636.323	13.77
636.654	13.81
636.985	13.6
637.316	13.8
637.647	13.99
637.977	13.74
638.308	13.39
638.639	13.73
638.969	14.1
639.3	13.99
639.63	13.78
639.961	13.74
640.291	14.57
640.622	14.2
640.952	13.83
641.282	14.26
641.612	13.76
641.943	14.73
642.273	14.26
642.603	14.34
642.933	14.57
643.263	14.35
643.592	14.34
643.922	14.95
644.252	14.46
644.582	14.22
644.911	14.34
645.241	14.54
645.571	14.75
645.9	14.45
646.23	14.17
646.559	14.69
646.888	14.08
647.218	14.64
647.547	14.95
647.876	14.67
648.205	14.62
648.534	14.5
648.863	15.41
649.192	14.69
649.521	15.33
649.85	14.88
650.179	14.99
650.508	14.89
650.837	15.4
651.165	14.65
651.494	14.91
651.822	14.97
652.151	15.29
652.479	15.05
652.808	14.74
653.136	14.89
653.465	15.14
653.793	15.37
654.121	15.62
654.449	15.19
654.777	14.9
655.105	15.21
655.433	15.5
655.761	15.34
656.089	15.33
656.417	14.94
656.745	15.91
657.073	15.73
657.4	15.52
657.728	15.59
658.056	15.26
658.383	16.01
658.711	15.61
659.038	16.1
659.365	15.72
659.693	16.03
660.02	15.38
660.347	15.6
660.674	15.63
661.001	15.42
661.329	15.71
661.656	15.73
661.982	15.8
662.309	15.54
662.636	15.55
662.963	16.09
663.29	15.94
663.616	15.93
663.943	16.21
664.27	15.93
664.596	15.73
664.923	16.18
665.249	16.23
665.576	16.05
665.902	16.03
666.228	16.12
666.554	15.98
666.881	16.23
667.207	15.8
667.533	16.23
667.859	16.03
668.185	16.48
668.511	16.5
668.837	15.77
669.162	16.61
669.488	16.01
669.814	16.59
670.139	16.95
670.465	16.21
670.791	16.39
671.116	16.18
671.442	16.59
671.767	16.33
672.092	16.83
672.418	16.8
672.743	16.52
673.068	16.72
673.393	16.45
673.718	16.25
674.043	16.41
674.368	16.85
674.693	16.5
675.018	17.04
675.343	17.32
675.667	16.9
675.992	17.07
676.317	17.2
676.641	16.83
676.966	16.65
677.29	16.84
677.615	17.2
677.939	17.08
678.264	16.54
678.588	17.17
678.912	17.17
679.236	17.55
679.56	16.81
679.885	17.21
680.209	16.59
680.532	17.02
680.856	17.53
681.18	17.03
681.504	16.73
681.828	17.02
682.152	17.31
682.475	16.99
682.799	17.71
683.122	17.3
683.446	17.28
683.769	17.68
684.093	18.06
684.416	17.38
684.739	17.27
685.062	17.58
685.386	17.46
685.709	16.55
686.032	17.42
