Data from 0057_crown_Reflection__2__85.txt Node

Date: Fri Dec 16 14:35:18 CST 2022
User: ToomeyLab
Spectrometer: FLMS14357
Trigger mode: 0
Integration Time (sec): 1.000000E-2
Scans to average: 100
Electric dark correction enabled: true
Nonlinearity correction enabled: false
Boxcar width: 0
XAxis mode: Wavelengths
Number of Pixels in Spectrum: 2048
>>>>>Begin Spectral Data<<<<<
189.047	-14.31
189.435	-14.31
189.823	-14.31
190.211	1.5
190.599	169.36
190.987	-68.31
191.375	72.82
191.763	173.48
192.151	5133.33
192.538	187.62
192.926	-1025.53
193.314	71.75
193.702	-264.91
194.089	-121.74
194.477	-11.43
194.864	-187.92
195.252	51.01
195.639	59.15
196.027	440
196.414	89.2
196.801	-106.85
197.189	316.73
197.576	-237
197.963	-10480
198.351	30.11
198.738	-4.32
199.125	51.32
199.512	-12.58
199.899	-19.78
200.286	-7.9
200.673	10.8
201.06	1.1
201.447	-15.47
201.833	-30.2
202.22	66.87
202.607	33.31
202.994	22.66
203.38	3.92
203.767	-19.31
204.154	-50.77
204.54	19.35
204.927	13.93
205.313	19.5
205.699	7.94
206.086	1.6
206.472	-11.6
206.858	7.57
207.245	22.96
207.631	-1.05
208.017	14.4
208.403	19.17
208.789	5.13
209.175	21.76
209.561	-8.16
209.947	-34.61
210.333	-19.34
210.719	14.31
211.105	-34.89
211.491	-2.37
211.876	-10.46
212.262	-13.17
212.648	-6.24
213.034	28
213.419	25.6
213.805	9.61
214.19	4.61
214.576	-3.15
214.961	13.66
215.346	-14.41
215.732	-14.68
216.117	4.4
216.502	2.78
216.888	4.32
217.273	3.99
217.658	4.7
218.043	-7.1
218.428	6.71
218.813	-7.35
219.198	-53.46
219.583	-11.47
219.968	10.18
220.353	-1.38
220.738	-6.63
221.122	1.34
221.507	-9.43
221.892	15.12
222.276	13.17
222.661	2.28
223.046	4.52
223.43	5.36
223.815	12.18
224.199	6.37
224.583	-2.39
224.968	5.57
225.352	4.52
225.736	11.91
226.121	-0.63
226.505	3.74
226.889	8.71
227.273	7.27
227.657	0.31
228.041	3.65
228.425	6.06
228.809	4.12
229.193	6.07
229.577	5.94
229.961	7.9
230.344	6.77
230.728	7.85
231.112	6.67
231.495	5.28
231.879	6.9
232.263	6.57
232.646	6.64
233.03	5.77
233.413	4.91
233.797	9.89
234.18	5.14
234.563	5.12
234.946	5.79
235.33	6.98
235.713	7.03
236.096	6.58
236.479	7.67
236.862	8.03
237.245	7.95
237.628	6.96
238.011	8.19
238.394	7.8
238.777	7.13
239.16	5.99
239.543	6.22
239.925	6.79
240.308	7.57
240.691	6.69
241.073	6.62
241.456	6.53
241.838	6.83
242.221	6.62
242.603	6.68
242.986	7.1
243.368	6.58
243.75	6.27
244.133	6.82
244.515	6.91
244.897	6.48
245.279	5.77
245.661	6.46
246.043	7.23
246.425	6.22
246.807	7.52
247.189	5.89
247.571	6.52
247.953	6.43
248.335	6.43
248.717	6.76
249.098	6.47
249.48	6.1
249.862	6.85
250.243	6.29
250.625	6.25
251.006	6.7
251.388	6.72
251.769	6.37
252.151	6.73
252.532	6.13
252.913	6.27
253.295	6.49
253.676	6.82
254.057	6
254.438	6.25
254.819	6.52
255.2	6.16
255.581	6.26
255.962	5.11
256.343	6.4
256.724	5.62
257.105	6
257.486	5.33
257.867	4.78
258.247	6.42
258.628	7.08
259.009	5.48
259.389	6.66
259.77	6.29
260.15	6.49
260.531	6.12
260.911	5.89
261.292	5.88
261.672	5.74
262.052	5.86
262.432	5.88
262.813	6.48
263.193	5.32
263.573	5.7
263.953	5.73
264.333	5.74
264.713	5.85
265.093	5.28
265.473	6.47
265.853	6.16
266.233	5.85
266.612	5.5
266.992	6.09
267.372	5.69
267.752	5.25
268.131	5.82
268.511	5.7
268.89	5.91
269.27	6.01
269.649	5.89
270.029	6.01
270.408	5.77
270.787	6.04
271.167	6.28
271.546	5.45
271.925	5.34
272.304	5.59
272.683	5.46
273.062	5.97
273.441	5.52
273.82	5.68
274.199	5.74
274.578	5.42
274.957	5.15
275.336	5.64
275.715	5.92
276.093	5.43
276.472	5.56
276.851	6.1
277.229	6.39
277.608	5.51
277.986	5.47
278.365	5.51
278.743	5.46
279.122	4.86
279.5	5.11
279.878	5.12
280.257	5.66
280.635	5.49
281.013	4.98
281.391	5.02
281.769	5.13
282.147	5.55
282.525	4.97
282.903	5.62
283.281	5.35
283.659	5.75
284.037	5.27
284.415	5.28
284.792	5.65
285.17	5.22
285.548	5
285.925	5.38
286.303	4.93
286.68	5.46
287.058	5.05
287.435	5.03
287.813	5.32
288.19	5.53
288.567	5.22
288.945	5.54
289.322	4.84
289.699	5.2
290.076	5
290.453	5.23
290.83	5.31
291.207	4.95
291.584	4.96
291.961	5.31
292.338	4.89
292.715	4.96
293.092	4.86
293.469	5.26
293.845	5.22
294.222	5.35
294.599	5.3
294.975	5.15
295.352	4.54
295.728	5.19
296.105	4.72
296.481	5.81
296.858	5.05
297.234	4.86
297.61	4.93
297.986	5.05
298.363	4.61
298.739	5.06
299.115	4.46
299.491	5.07
299.867	4.53
300.243	4.67
300.619	4.74
300.995	4.92
301.371	5.01
301.746	4.81
302.122	4.92
302.498	4.9
302.874	4.77
303.249	5.21
303.625	4.88
304	3.9
304.376	4.78
304.751	4.36
305.127	4.76
305.502	4.75
305.878	4.51
306.253	4.36
306.628	5.04
307.003	4.39
307.378	5.07
307.754	4.6
308.129	4.36
308.504	4.27
308.879	5.1
309.254	4.97
309.629	4.81
310.003	5.18
310.378	4.58
310.753	4.73
311.128	4.43
311.502	4.68
311.877	4.93
312.252	4.91
312.626	4.37
313.001	4.67
313.375	4.8
313.75	4.55
314.124	5.18
314.498	4.3
314.873	4.42
315.247	4.18
315.621	4.92
315.995	4.55
316.369	4.79
316.743	5.01
317.117	4.88
317.491	4.59
317.865	4.71
318.239	4.79
318.613	4.72
318.987	4.58
319.361	4.72
319.734	4.28
320.108	4.5
320.482	4.48
320.855	4.34
321.229	5.21
321.602	4.53
321.976	4.81
322.349	4.16
322.723	4.07
323.096	4.24
323.469	3.95
323.843	4.61
324.216	4.29
324.589	4.77
324.962	4.54
325.335	4.33
325.708	4.13
326.081	4.89
326.454	4.68
326.827	4.8
327.2	4.89
327.573	4.1
327.945	4.62
328.318	4.37
328.691	4.35
329.063	3.67
329.436	4.39
329.809	4.29
330.181	4.58
330.553	4.76
330.926	4.59
331.298	4.45
331.671	4.73
332.043	4.5
332.415	4.76
332.787	4.82
333.159	4.35
333.532	4.88
333.904	4.46
334.276	4.78
334.648	4.77
335.02	4.33
335.391	5.01
335.763	4.3
336.135	4.57
336.507	4.69
336.879	4.67
337.25	4.44
337.622	4.77
337.993	4.86
338.365	4.76
338.736	4.83
339.108	4.14
339.479	4.8
339.851	5.2
340.222	4.68
340.593	4.65
340.964	4.31
341.336	4.05
341.707	4.26
342.078	3.96
342.449	4.93
342.82	4.83
343.191	4.36
343.562	4.54
343.933	4.7
344.303	4.62
344.674	4.71
345.045	4.6
345.416	4.25
345.786	4.11
346.157	4.57
346.527	4.14
346.898	4.76
347.268	4.69
347.639	4.29
348.009	4.78
348.38	4.67
348.75	4.9
349.12	4.7
349.49	4.55
349.861	4.82
350.231	4.92
350.601	4.96
350.971	5.04
351.341	4.89
351.711	4.46
352.081	4.8
352.45	4.8
352.82	5.02
353.19	4.58
353.56	4.4
353.929	4.91
354.299	4.55
354.669	4.92
355.038	4.72
355.408	5.3
355.777	4.68
356.147	4.89
356.516	4.63
356.885	4.5
357.254	4.91
357.624	5.04
357.993	4.88
358.362	4.9
358.731	4.83
359.1	4.99
359.469	5.04
359.838	4.65
360.207	4.63
360.576	4.97
360.945	4.71
361.314	5.02
361.682	4.63
362.051	4.75
362.42	4.93
362.788	4.71
363.157	4.65
363.525	4.65
363.894	4.65
364.262	4.77
364.631	5.49
364.999	4.73
365.367	5.37
365.735	4.76
366.104	4.77
366.472	5.2
366.84	5.01
367.208	4.95
367.576	5.04
367.944	5.11
368.312	4.8
368.68	5.12
369.048	5.23
369.416	5.09
369.783	4.94
370.151	5.21
370.519	4.86
370.886	4.97
371.254	5.27
371.621	4.98
371.989	5.02
372.356	4.74
372.724	5.02
373.091	4.99
373.458	4.89
373.826	5
374.193	5.35
374.56	4.76
374.927	4.97
375.294	5.35
375.661	5.17
376.028	5.3
376.395	4.9
376.762	5.64
377.129	5.46
377.496	5.05
377.863	4.97
378.229	5.18
378.596	5.01
378.963	5.32
379.329	5.09
379.696	4.94
380.062	5.6
380.429	5.06
380.795	4.95
381.161	4.86
381.528	4.84
381.894	5.1
382.26	5.15
382.626	4.84
382.993	4.99
383.359	5.05
383.725	5.32
384.091	4.73
384.457	5.32
384.823	5.2
385.188	5.49
385.554	5.01
385.92	5.57
386.286	5.38
386.651	4.98
387.017	5.39
387.383	5.16
387.748	5.08
388.114	5.32
388.479	5.11
388.845	5.43
389.21	5.28
389.575	5.32
389.94	5.14
390.306	5.14
390.671	5.16
391.036	5.39
391.401	5.47
391.766	5.28
392.131	5.2
392.496	5.3
392.861	5.13
393.226	5.42
393.591	5.29
393.956	5.34
394.32	5.2
394.685	5.35
395.05	5.08
395.414	5.25
395.779	5.21
396.143	5.41
396.508	5.54
396.872	5.25
397.236	4.88
397.601	5.33
397.965	5.27
398.329	5.37
398.694	5.2
399.058	5.17
399.422	5.69
399.786	5.39
400.15	5.43
400.514	5.62
400.878	5.18
401.242	5.41
401.605	5.39
401.969	5.37
402.333	5.29
402.697	5.71
403.06	5.6
403.424	5.22
403.787	5.65
404.151	5.3
404.514	5.52
404.878	5.47
405.241	5.45
405.604	5.61
405.968	5.4
406.331	5.46
406.694	5.43
407.057	5.71
407.42	5.37
407.783	5.49
408.146	5.75
408.509	5.32
408.872	5.47
409.235	5.42
409.598	5.7
409.961	5.52
410.323	5.29
410.686	5.43
411.049	5.07
411.411	5.4
411.774	5.46
412.136	5.48
412.499	5.59
412.861	5.37
413.223	5.7
413.586	5.48
413.948	5.48
414.31	5.42
414.672	5.6
415.035	5.64
415.397	5.85
415.759	5.48
416.121	5.66
416.483	5.65
416.845	5.58
417.206	5.77
417.568	5.59
417.93	5.55
418.292	5.58
418.653	5.65
419.015	5.67
419.377	5.63
419.738	5.43
420.1	5.49
420.461	5.47
420.822	5.48
421.184	5.46
421.545	5.47
421.906	5.44
422.267	5.38
422.629	5.45
422.99	5.44
423.351	5.45
423.712	5.45
424.073	5.48
424.434	5.56
424.795	5.44
425.155	5.56
425.516	5.39
425.877	5.53
426.238	5.51
426.598	5.56
426.959	5.53
427.32	5.52
427.68	5.55
428.041	5.63
428.401	5.62
428.761	5.49
429.122	5.54
429.482	5.65
429.842	5.7
430.202	5.55
430.563	5.66
430.923	5.62
431.283	5.68
431.643	5.62
432.003	5.73
432.363	5.83
432.722	5.5
433.082	5.7
433.442	5.6
433.802	5.68
434.161	5.73
434.521	5.61
434.881	5.74
435.24	5.48
435.6	5.66
435.959	5.5
436.319	5.56
436.678	5.65
437.037	5.73
437.396	5.75
437.756	5.86
438.115	5.72
438.474	5.67
438.833	5.63
439.192	5.75
439.551	5.67
439.91	5.85
440.269	5.78
440.628	5.59
440.987	5.53
441.345	5.65
441.704	5.68
442.063	5.65
442.421	5.65
442.78	5.64
443.138	5.72
443.497	5.66
443.855	5.64
444.214	5.78
444.572	5.81
444.93	5.76
445.288	5.77
445.647	5.82
446.005	5.68
446.363	5.6
446.721	5.64
447.079	5.65
447.437	5.65
447.795	5.56
448.153	5.55
448.51	5.6
448.868	5.68
449.226	5.66
449.584	5.73
449.941	5.75
450.299	5.75
450.656	5.79
451.014	5.83
451.371	5.8
451.729	5.66
452.086	5.74
452.443	5.92
452.801	5.8
453.158	5.72
453.515	5.66
453.872	5.84
454.229	5.68
454.586	5.69
454.943	5.82
455.3	5.81
455.657	5.69
456.014	5.7
456.371	5.79
456.727	5.85
457.084	5.63
457.441	5.69
457.797	5.82
458.154	5.85
458.51	5.76
458.867	5.79
459.223	5.89
459.58	5.68
459.936	5.77
460.292	5.72
460.648	5.65
461.005	5.63
461.361	5.65
461.717	5.67
462.073	5.79
462.429	5.82
462.785	5.83
463.141	5.91
463.496	5.73
463.852	5.87
464.208	5.78
464.564	5.8
464.919	5.76
465.275	5.82
465.631	5.71
465.986	5.79
466.342	5.8
466.697	5.89
467.052	5.97
467.408	5.89
467.763	5.74
468.118	5.82
468.473	6.01
468.829	5.88
469.184	5.95
469.539	5.88
469.894	5.72
470.249	5.94
470.603	5.99
470.958	5.96
471.313	5.72
471.668	5.82
472.023	6.19
472.377	5.75
472.732	5.67
473.086	5.88
473.441	5.93
473.795	5.86
474.15	5.64
474.504	5.8
474.859	5.98
475.213	5.8
475.567	5.83
475.921	5.98
476.275	5.89
476.63	5.76
476.984	5.92
477.338	6.14
477.692	5.88
478.045	5.95
478.399	5.92
478.753	5.72
479.107	5.74
479.461	5.72
479.814	5.9
480.168	6
480.521	5.87
480.875	5.93
481.228	5.92
481.582	5.82
481.935	5.85
482.289	5.81
482.642	5.91
482.995	5.78
483.348	5.76
483.701	5.72
484.055	5.65
484.408	5.6
484.761	5.52
485.114	5.45
485.466	5.44
485.819	5.53
486.172	5.57
486.525	5.65
486.878	5.68
487.23	5.72
487.583	5.69
487.936	5.74
488.288	5.57
488.641	5.56
488.993	5.53
489.345	5.57
489.698	5.63
490.05	5.64
490.402	5.76
490.754	5.78
491.107	5.76
491.459	5.84
491.811	5.81
492.163	5.79
492.515	5.72
492.866	5.54
493.218	5.52
493.57	5.71
493.922	5.67
494.274	5.73
494.625	5.77
494.977	5.84
495.328	5.96
495.68	6.04
496.031	5.84
496.383	5.84
496.734	5.92
497.086	5.76
497.437	5.9
497.788	5.71
498.139	5.81
498.49	5.82
498.842	5.9
499.193	5.84
499.544	5.94
499.894	5.89
500.245	5.87
500.596	5.86
500.947	5.83
501.298	5.97
501.648	5.88
501.999	6.08
502.35	5.98
502.7	5.96
503.051	5.92
503.401	5.94
503.752	5.81
504.102	5.9
504.452	5.95
504.803	5.77
505.153	6.08
505.503	5.82
505.853	5.87
506.203	5.92
506.553	5.87
506.903	5.98
507.253	5.88
507.603	5.92
507.953	5.99
508.303	5.96
508.652	5.84
509.002	6.05
509.352	5.79
509.701	5.81
510.051	5.93
510.4	5.94
510.75	5.86
511.099	5.81
511.449	5.81
511.798	6.03
512.147	5.82
512.496	6.02
512.846	5.9
513.195	5.88
513.544	5.85
513.893	5.79
514.242	5.94
514.591	5.87
514.939	5.92
515.288	6.03
515.637	6.06
515.986	5.99
516.334	6.11
516.683	5.97
517.032	5.84
517.38	5.83
517.729	5.94
518.077	6.03
518.426	5.85
518.774	5.83
519.122	5.8
519.47	5.84
519.819	5.76
520.167	5.78
520.515	5.76
520.863	5.81
521.211	5.83
521.559	5.84
521.907	5.87
522.255	5.99
522.602	6
522.95	5.98
523.298	5.88
523.645	5.85
523.993	6.1
524.341	5.98
524.688	5.83
525.036	5.97
525.383	6.05
525.73	5.98
526.078	5.97
526.425	5.84
526.772	5.66
527.119	5.74
527.466	5.83
527.814	5.81
528.161	5.84
528.508	5.75
528.854	5.66
529.201	5.64
529.548	5.57
529.895	5.51
530.242	5.51
530.588	5.57
530.935	5.63
531.282	5.72
531.628	5.79
531.975	5.83
532.321	5.79
532.667	5.79
533.014	5.77
533.36	5.8
533.706	5.82
534.052	5.77
534.399	5.61
534.745	5.6
535.091	5.59
535.437	5.7
535.783	5.82
536.129	5.76
536.474	5.89
536.82	5.8
537.166	5.88
537.512	5.87
537.857	5.75
538.203	5.75
538.549	5.84
538.894	5.85
539.239	5.87
539.585	5.89
539.93	5.86
540.276	5.84
540.621	5.84
540.966	5.95
541.311	5.86
541.656	5.72
542.001	5.78
542.346	5.63
542.691	5.51
543.036	5.59
543.381	5.58
543.726	5.7
544.071	5.79
544.415	5.76
544.76	5.66
545.105	5.75
545.449	5.76
545.794	5.82
546.138	5.86
546.483	5.75
546.827	5.73
547.171	5.73
547.516	5.92
547.86	5.83
548.204	5.67
548.548	5.78
548.892	5.88
549.236	5.9
549.58	5.95
549.924	5.93
550.268	5.94
550.612	5.92
550.956	5.92
551.3	5.9
551.643	6.03
551.987	5.87
552.33	5.88
552.674	6.02
553.017	5.95
553.361	5.92
553.704	5.86
554.048	5.85
554.391	5.84
554.734	5.73
555.077	5.82
555.42	5.93
555.764	5.95
556.107	5.89
556.45	5.82
556.793	5.97
557.135	5.94
557.478	6.01
557.821	5.83
558.164	5.88
558.507	5.79
558.849	5.82
559.192	6.01
559.534	5.84
559.877	5.97
560.219	5.92
560.562	6.02
560.904	5.8
561.246	6.13
561.589	5.82
561.931	6.1
562.273	5.82
562.615	5.95
562.957	5.99
563.299	5.97
563.641	5.94
563.983	5.84
564.325	5.78
564.667	5.8
565.008	5.77
565.35	6.03
565.692	5.83
566.033	5.92
566.375	5.7
566.716	5.97
567.058	5.98
567.399	5.78
567.741	5.91
568.082	5.76
568.423	5.62
568.764	5.88
569.105	5.88
569.447	5.88
569.788	5.82
570.129	5.91
570.47	5.93
570.811	5.81
571.151	5.66
571.492	5.88
571.833	5.95
572.174	5.81
572.514	5.72
572.855	5.83
573.195	5.75
573.536	5.71
573.876	5.73
574.217	5.86
574.557	5.82
574.898	5.67
575.238	5.77
575.578	5.88
575.918	5.68
576.258	5.89
576.598	5.65
576.938	5.93
577.278	5.69
577.618	5.81
577.958	5.75
578.298	5.77
578.638	5.76
578.977	5.85
579.317	5.83
579.657	5.79
579.996	5.77
580.336	5.84
580.675	5.93
581.014	5.76
581.354	6.06
581.693	5.83
582.032	5.73
582.372	5.82
582.711	5.81
583.05	5.95
583.389	5.9
583.728	5.8
584.067	5.87
584.406	5.83
584.745	5.57
585.083	6
585.422	5.77
585.761	5.87
586.1	6.07
586.438	5.8
586.777	5.77
587.115	5.94
587.454	5.82
587.792	5.52
588.13	5.99
588.469	5.99
588.807	5.85
589.145	5.76
589.483	5.57
589.821	5.85
590.159	5.62
590.497	5.59
590.835	5.78
591.173	5.83
591.511	5.87
591.849	5.69
592.187	5.78
592.524	5.72
592.862	5.82
593.2	5.82
593.537	5.68
593.875	5.88
594.212	5.76
594.55	5.95
594.887	5.89
595.224	5.86
595.561	5.77
595.899	5.72
596.236	5.88
596.573	5.64
596.91	5.52
597.247	5.57
597.584	5.88
597.921	5.63
598.258	5.72
598.594	5.48
598.931	5.72
599.268	5.62
599.604	5.83
599.941	5.66
600.277	5.71
600.614	5.61
600.95	5.95
601.287	5.76
601.623	5.82
601.959	5.35
602.296	5.73
602.632	6.05
602.968	5.75
603.304	5.63
603.64	5.52
603.976	5.74
604.312	5.78
604.648	5.6
604.984	5.81
605.319	5.72
605.655	5.87
605.991	5.59
606.326	5.57
606.662	5.49
606.998	5.71
607.333	5.62
607.668	5.56
608.004	5.62
608.339	5.52
608.674	5.78
609.01	5.67
609.345	5.85
609.68	5.35
610.015	5.68
610.35	5.62
610.685	5.74
611.02	5.75
611.355	5.86
611.689	5.54
612.024	5.85
612.359	5.94
612.694	5.76
613.028	5.85
613.363	5.43
613.697	5.85
614.032	5.8
614.366	5.55
614.7	6.11
615.035	5.65
615.369	5.89
615.703	6.12
616.037	5.66
616.371	5.77
616.705	5.98
617.039	6.1
617.373	5.41
617.707	5.58
618.041	5.67
618.375	5.49
618.709	5.92
619.042	5.8
619.376	5.8
619.71	5.83
620.043	5.63
620.377	5.71
620.71	5.51
621.043	5.51
621.377	5.8
621.71	5.95
622.043	5.88
622.376	5.67
622.709	6.31
623.043	5.9
623.376	5.55
623.709	5.99
624.041	5.79
624.374	5.53
624.707	5.58
625.04	5.85
625.373	5.59
625.705	5.74
626.038	5.55
626.37	5.6
626.703	5.4
627.035	5.86
627.368	5.71
627.7	5.49
628.032	5.7
628.365	5.19
628.697	5.45
629.029	5.83
629.361	5.53
629.693	5.83
630.025	5.85
630.357	5.54
630.689	5.63
631.021	5.61
631.353	5.87
631.684	5.69
632.016	5.59
632.348	5.84
632.679	5.6
633.011	5.67
633.342	5.52
633.674	5.7
634.005	5.69
634.336	5.95
634.668	5.54
634.999	5.69
635.33	5.46
635.661	5.58
635.992	5.4
636.323	5.77
636.654	5.76
636.985	5.46
637.316	5.96
637.647	5.62
637.977	5.64
638.308	5.77
638.639	5.56
638.969	5.39
639.3	5.85
639.63	5.51
639.961	5.59
640.291	5.94
640.622	5.66
640.952	5.75
641.282	5.27
641.612	5.75
641.943	5.83
642.273	5.42
642.603	5.49
642.933	5.65
643.263	5.74
643.592	5.64
643.922	6.2
644.252	5.51
644.582	5.57
644.911	5.49
645.241	5.28
645.571	5.58
645.9	6.05
646.23	5.61
646.559	5.73
646.888	5.63
647.218	5.84
647.547	5.46
647.876	5.84
648.205	5.4
648.534	5.48
648.863	5.82
649.192	5.63
649.521	5.46
649.85	5.77
650.179	5.24
650.508	5.58
650.837	5.69
651.165	5.61
651.494	5.48
651.822	5.75
652.151	5.99
652.479	6.03
652.808	5.37
653.136	5.57
653.465	5.72
653.793	5.78
654.121	5.55
654.449	5.57
654.777	5.77
655.105	5.77
655.433	5.83
655.761	5.83
656.089	6
656.417	5.38
656.745	6.13
657.073	6.21
657.4	6.25
657.728	5.74
658.056	5.36
658.383	5.94
658.711	5.5
659.038	6.43
659.365	5.62
659.693	5.5
660.02	5.69
660.347	5.62
660.674	5.42
661.001	5.28
661.329	5.89
661.656	5.6
661.982	5.59
662.309	5.57
662.636	5.8
662.963	6.09
663.29	5.62
663.616	5.72
663.943	5.61
664.27	5.32
664.596	5.4
664.923	5.84
665.249	6.02
665.576	5.14
665.902	5.56
666.228	5.09
666.554	5.35
666.881	5.93
667.207	5.53
667.533	6.03
667.859	5.5
668.185	5.66
668.511	5.66
668.837	5.55
669.162	5.57
669.488	5.15
669.814	6.27
670.139	5.93
670.465	5.74
670.791	5.83
671.116	5.62
671.442	5.37
671.767	5.77
672.092	5.4
672.418	5.85
672.743	5.55
673.068	5.52
673.393	5.57
673.718	5.37
674.043	5.62
674.368	5.8
674.693	5.94
675.018	5.14
675.343	6.05
675.667	5.3
675.992	5.13
676.317	5.79
676.641	5.61
676.966	5.59
677.29	5.47
677.615	5.8
677.939	5.51
678.264	5.41
678.588	5.96
678.912	5.81
679.236	5.83
679.56	5.45
679.885	5.66
680.209	5.43
680.532	4.52
680.856	6.06
681.18	5.17
681.504	5.38
681.828	5.17
682.152	5.61
682.475	5.92
682.799	5.49
683.122	5.74
683.446	5.22
683.769	5.49
684.093	6.01
684.416	4.92
684.739	5.7
685.062	5.85
685.386	5.35
685.709	5.32
686.032	5.28
686.355	5.93
686.678	5.61
687.001	5.13
687.324	4.88
687.646	5.18
687.969	5.73
688.292	6.08
688.614	5.9
688.937	5.61
689.26	5.12
689.582	5.47
689.904	5.14
690.227	6.13
690.549	6.27
690.871	5.7
691.194	6.08
691.516	5.8
691.838	5.42
692.16	5.39
692.482	5.67
692.804	5.55
