Data from 0057_forehead_Reflection__2__90.txt Node

Date: Fri Dec 16 14:36:21 CST 2022
User: ToomeyLab
Spectrometer: FLMS14357
Trigger mode: 0
Integration Time (sec): 1.000000E-2
Scans to average: 100
Electric dark correction enabled: true
Nonlinearity correction enabled: false
Boxcar width: 0
XAxis mode: Wavelengths
Number of Pixels in Spectrum: 2048
>>>>>Begin Spectral Data<<<<<
189.047	53.11
189.435	53.11
189.823	53.11
190.211	191.3
190.599	-1.22
190.987	-29.17
191.375	-89.68
191.763	95.53
192.151	15695.83
192.538	23.74
192.926	10.9
193.314	101.45
193.702	-59.29
194.089	-113.59
194.477	151.55
194.864	-304.11
195.252	-91.14
195.639	197.09
196.027	60.5
196.414	65.03
196.801	544.01
197.189	295.69
197.576	-216.24
197.963	-6017.5
198.351	5.63
198.738	-1.63
199.125	49.21
199.512	18.94
199.899	-23.72
200.286	-4.72
200.673	35.21
201.06	12.72
201.447	50.24
201.833	10.97
202.22	67.11
202.607	-18.04
202.994	10.18
203.38	-26.79
203.767	-11.08
204.154	-30.23
204.54	23.58
204.927	-6.12
205.313	11.14
205.699	8.23
206.086	-0.06
206.472	49.27
206.858	21.88
207.245	14.71
207.631	16.57
208.017	19.32
208.403	8.64
208.789	-14.35
209.175	39.76
209.561	18.43
209.947	-2.63
210.333	-30.55
210.719	-3.44
211.105	-32.4
211.491	24.38
211.876	24.04
212.262	-16.12
212.648	17.38
213.034	7.56
213.419	42.85
213.805	0.06
214.19	-3.11
214.576	-0.6
214.961	5.22
215.346	-11.65
215.732	-4.01
216.117	1.87
216.502	7.23
216.888	7.44
217.273	41.68
217.658	-22.35
218.043	1.25
218.428	14.82
218.813	8.45
219.198	-5.27
219.583	5.48
219.968	-10.29
220.353	10.1
220.738	-8.96
221.122	7.16
221.507	5.76
221.892	4.47
222.276	4.71
222.661	-3.1
223.046	7.83
223.43	0.09
223.815	7.03
224.199	-2.23
224.583	5.43
224.968	6.33
225.352	-8.28
225.736	5.96
226.121	4.88
226.505	5
226.889	6.03
227.273	5.24
227.657	0.85
228.041	6.16
228.425	3.92
228.809	4.97
229.193	2.39
229.577	3.66
229.961	3.58
230.344	3.67
230.728	3.17
231.112	3.02
231.495	2.25
231.879	4.37
232.263	1.71
232.646	1.82
233.03	2.18
233.413	4.13
233.797	3.91
234.18	1.85
234.563	2.76
234.946	4.54
235.33	4.07
235.713	4.31
236.096	3.06
236.479	4.88
236.862	3.69
237.245	3.05
237.628	5.25
238.011	4.21
238.394	5.5
238.777	3.19
239.16	2.29
239.543	3.73
239.925	3.03
240.308	2.97
240.691	3.49
241.073	2.73
241.456	3.63
241.838	3.38
242.221	3.69
242.603	4.07
242.986	3.94
243.368	3.02
243.75	3.16
244.133	3.17
244.515	3.31
244.897	3.11
245.279	3.57
245.661	3.25
246.043	3.16
246.425	3.68
246.807	2.85
247.189	2.73
247.571	3.64
247.953	3.38
248.335	3.58
248.717	3.35
249.098	3.36
249.48	3.11
249.862	3.43
250.243	3.32
250.625	3.28
251.006	2.98
251.388	3.9
251.769	3.07
252.151	3.46
252.532	4.17
252.913	3.72
253.295	3.77
253.676	3.52
254.057	3.29
254.438	2.69
254.819	3.91
255.2	3.53
255.581	2.98
255.962	3.41
256.343	2.87
256.724	2.8
257.105	3.16
257.486	3.52
257.867	2.21
258.247	3.53
258.628	4.23
259.009	3.18
259.389	3.73
259.77	2.91
260.15	3.71
260.531	3.67
260.911	3.28
261.292	3.27
261.672	3.24
262.052	3.35
262.432	3.46
262.813	3.47
263.193	3.35
263.573	2.99
263.953	3.69
264.333	3.58
264.713	3.19
265.093	2.93
265.473	3.17
265.853	3.87
266.233	3.28
266.612	4
266.992	2.96
267.372	3.74
267.752	3.21
268.131	3.63
268.511	3.48
268.89	3.33
269.27	3.47
269.649	3.55
270.029	3.75
270.408	3.36
270.787	2.96
271.167	3.26
271.546	2.91
271.925	2.84
272.304	3.47
272.683	3.29
273.062	3.43
273.441	3.5
273.82	3.38
274.199	3.2
274.578	2.9
274.957	3.61
275.336	2.89
275.715	3.73
276.093	3.5
276.472	3.51
276.851	3.68
277.229	4.21
277.608	2.95
277.986	3.5
278.365	2.77
278.743	3.31
279.122	3.07
279.5	2.78
279.878	2.59
280.257	3.38
280.635	3.12
281.013	3.75
281.391	2.8
281.769	3.27
282.147	3.05
282.525	3.14
282.903	3.23
283.281	3.35
283.659	3.35
284.037	3.05
284.415	3.67
284.792	3.41
285.17	3.08
285.548	3.24
285.925	3.11
286.303	3
286.68	3.47
287.058	3.5
287.435	3.34
287.813	3.33
288.19	3.29
288.567	3.31
288.945	3.36
289.322	3.14
289.699	3.22
290.076	3.31
290.453	3.32
290.83	3.4
291.207	3.53
291.584	3.22
291.961	3.77
292.338	3.49
292.715	3.13
293.092	3.98
293.469	3.7
293.845	3.6
294.222	3.44
294.599	4.14
294.975	3.74
295.352	3.12
295.728	3.52
296.105	3.56
296.481	4.04
296.858	3.72
297.234	3.79
297.61	3.62
297.986	3.52
298.363	3.18
298.739	3.98
299.115	3.52
299.491	3.42
299.867	3.99
300.243	3.61
300.619	3.68
300.995	3.79
301.371	3.71
301.746	3.53
302.122	4.05
302.498	3.56
302.874	3.94
303.249	3.93
303.625	3.94
304	3.81
304.376	3.88
304.751	3.53
305.127	3.9
305.502	4.21
305.878	3.58
306.253	4.02
306.628	4.32
307.003	4.08
307.378	3.87
307.754	4.36
308.129	3.57
308.504	3.33
308.879	4.5
309.254	4.5
309.629	4.23
310.003	4.33
310.378	4
310.753	4.48
311.128	3.95
311.502	4.08
311.877	4.37
312.252	4.19
312.626	4.16
313.001	4.03
313.375	4.12
313.75	4.35
314.124	4.68
314.498	4.41
314.873	4.26
315.247	4.08
315.621	4.49
315.995	4.49
316.369	4.59
316.743	4.89
317.117	4.64
317.491	4.63
317.865	3.8
318.239	4.73
318.613	5.03
318.987	4.7
319.361	4.64
319.734	4.48
320.108	4.64
320.482	4.52
320.855	4.74
321.229	5.6
321.602	5.09
321.976	4.75
322.349	4.23
322.723	4.49
323.096	4.66
323.469	4.84
323.843	5.1
324.216	4.44
324.589	4.88
324.962	4.9
325.335	5.14
325.708	5
326.081	5.43
326.454	5.09
326.827	5.32
327.2	5.34
327.573	4.93
327.945	4.73
328.318	5.32
328.691	5.04
329.063	4.83
329.436	4.91
329.809	4.69
330.181	5.07
330.553	5.7
330.926	5.25
331.298	4.46
331.671	5.48
332.043	4.89
332.415	5.49
332.787	5.6
333.159	5.58
333.532	5.33
333.904	5.56
334.276	5.36
334.648	5.45
335.02	5.44
335.391	5.31
335.763	5.57
336.135	5.55
336.507	5.23
336.879	5.56
337.25	5.57
337.622	5.32
337.993	5.4
338.365	5.67
338.736	5.44
339.108	5.78
339.479	5.56
339.851	5.46
340.222	5.57
340.593	5.5
340.964	5.68
341.336	5.23
341.707	5.42
342.078	5.58
342.449	6.14
342.82	5.32
343.191	5.4
343.562	5.71
343.933	5.57
344.303	5.99
344.674	5.75
345.045	6.06
345.416	5.87
345.786	5.58
346.157	5.5
346.527	5.51
346.898	5.52
347.268	5.91
347.639	5.81
348.009	6.02
348.38	5.63
348.75	5.54
349.12	5.8
349.49	5.58
349.861	6.48
350.231	6.06
350.601	6.15
350.971	6.16
351.341	6.38
351.711	6.37
352.081	6.49
352.45	6.48
352.82	6.39
353.19	6.14
353.56	5.98
353.929	6.39
354.299	6.02
354.669	6.2
355.038	5.99
355.408	6.31
355.777	6.35
356.147	6.7
356.516	6.54
356.885	6.07
357.254	6.18
357.624	6.28
357.993	6.24
358.362	6.68
358.731	6.49
359.1	6.67
359.469	6.28
359.838	6.4
360.207	6.56
360.576	6.39
360.945	6.57
361.314	6.72
361.682	6.37
362.051	6.32
362.42	6.77
362.788	6.64
363.157	6.51
363.525	6.78
363.894	6.42
364.262	6.67
364.631	7.37
364.999	6.57
365.367	6.92
365.735	6.48
366.104	6.72
366.472	6.94
366.84	6.8
367.208	6.35
367.576	6.98
367.944	7.08
368.312	6.52
368.68	7.17
369.048	6.99
369.416	6.89
369.783	6.85
370.151	7.05
370.519	6.97
370.886	6.95
371.254	7.1
371.621	7.25
371.989	7.38
372.356	7.24
372.724	7.5
373.091	7.31
373.458	7.19
373.826	7.16
374.193	7.75
374.56	6.92
374.927	7.28
375.294	7.43
375.661	7.54
376.028	7.51
376.395	7.08
376.762	7.46
377.129	7.51
377.496	7.76
377.863	7.63
378.229	7.5
378.596	7.37
378.963	7.43
379.329	7.58
379.696	7.63
380.062	7.99
380.429	7.88
380.795	7.83
381.161	7.94
381.528	7.5
381.894	8.01
382.26	7.53
382.626	7.88
382.993	7.52
383.359	7.87
383.725	8.22
384.091	8.11
384.457	8.18
384.823	8.08
385.188	8.05
385.554	8.16
385.92	8.3
386.286	8.27
386.651	7.97
387.017	8.09
387.383	8.17
387.748	8.12
388.114	8.49
388.479	8.48
388.845	8.17
389.21	8.04
389.575	8.42
389.94	8.41
390.306	8.15
390.671	8.33
391.036	8.63
391.401	8.59
391.766	8.46
392.131	8.51
392.496	8.44
392.861	8.19
393.226	8.62
393.591	8.54
393.956	8.62
394.32	8.73
394.685	8.69
395.05	8.48
395.414	8.49
395.779	8.49
396.143	8.54
396.508	8.53
396.872	8.83
397.236	8.47
397.601	8.93
397.965	8.44
398.329	9.07
398.694	8.66
399.058	9.09
399.422	9
399.786	9.07
400.15	8.91
400.514	8.91
400.878	9.01
401.242	9.28
401.605	9.31
401.969	8.99
402.333	9.25
402.697	9.18
403.06	9.27
403.424	9.12
403.787	9.31
404.151	9.15
404.514	9.24
404.878	9.07
405.241	9.38
405.604	9.43
405.968	9.23
406.331	9.38
406.694	9.29
407.057	9.41
407.42	9.44
407.783	9.3
408.146	9.45
408.509	9.3
408.872	9.49
409.235	9.55
409.598	9.8
409.961	9.75
410.323	9.71
410.686	9.61
411.049	9.51
411.411	9.61
411.774	9.72
412.136	10.06
412.499	9.72
412.861	9.62
413.223	9.77
413.586	9.71
413.948	10.21
414.31	9.91
414.672	9.77
415.035	10.14
415.397	10.03
415.759	10.03
416.121	10.2
416.483	9.94
416.845	10.28
417.206	10.18
417.568	10.09
417.93	9.93
418.292	10.28
418.653	10.15
419.015	10.13
419.377	10.21
419.738	10.06
420.1	10.07
420.461	10.07
420.822	10.15
421.184	10.16
421.545	10.14
421.906	10.04
422.267	9.9
422.629	10.11
422.99	10.1
423.351	10.23
423.712	10.18
424.073	10.44
424.434	10.29
424.795	10.33
425.155	10.36
425.516	10.31
425.877	10.31
426.238	10.35
426.598	10.39
426.959	10.28
427.32	10.54
427.68	10.61
428.041	10.68
428.401	10.61
428.761	10.64
429.122	10.87
429.482	10.72
429.842	10.87
430.202	11.03
430.563	10.88
430.923	10.94
431.283	10.98
431.643	11.06
432.003	10.99
432.363	11.3
432.722	11.09
433.082	11.15
433.442	11.06
433.802	11.28
434.161	11.07
434.521	11.05
434.881	11.22
435.24	11.1
435.6	11.13
435.959	11.11
436.319	11.22
436.678	11.28
437.037	11.37
437.396	11.34
437.756	11.45
438.115	11.46
438.474	11.55
438.833	11.51
439.192	11.8
439.551	11.5
439.91	11.63
440.269	11.71
440.628	11.48
440.987	11.44
441.345	11.5
441.704	11.5
442.063	11.42
442.421	11.65
442.78	11.47
443.138	11.64
443.497	11.72
443.855	11.81
444.214	11.88
444.572	11.85
444.93	11.97
445.288	12.01
445.647	11.9
446.005	11.75
446.363	12
446.721	11.88
447.079	11.94
447.437	11.91
447.795	11.72
448.153	11.82
448.51	11.8
448.868	11.92
449.226	11.99
449.584	12.11
449.941	12.15
450.299	12.18
450.656	12.27
451.014	12.36
451.371	12.44
451.729	12.38
452.086	12.29
452.443	12.33
452.801	12.49
453.158	12.58
453.515	12.39
453.872	12.58
454.229	12.51
454.586	12.55
454.943	12.59
455.3	12.93
455.657	12.57
456.014	12.83
456.371	12.68
456.727	12.83
457.084	12.75
457.441	12.95
457.797	12.98
458.154	12.98
458.51	13.02
458.867	12.98
459.223	13.1
459.58	13.11
459.936	13.04
460.292	12.97
460.648	12.81
461.005	12.93
461.361	12.86
461.717	12.75
462.073	12.98
462.429	13.03
462.785	13.27
463.141	13.26
463.496	13.16
463.852	13.44
464.208	13.36
464.564	13.5
464.919	13.36
465.275	13.58
465.631	13.74
465.986	13.6
466.342	13.71
466.697	13.56
467.052	13.49
467.408	13.76
467.763	13.5
468.118	13.86
468.473	13.97
468.829	13.73
469.184	13.95
469.539	13.73
469.894	13.9
470.249	13.94
470.603	13.92
470.958	14.07
471.313	13.83
471.668	14.1
472.023	14.27
472.377	14.19
472.732	14.27
473.086	14.14
473.441	14.27
473.795	14.44
474.15	14.36
474.504	14.26
474.859	14.29
475.213	14.43
475.567	14.54
475.921	14.63
476.275	14.74
476.63	14.46
476.984	14.59
477.338	14.73
477.692	14.6
478.045	14.61
478.399	14.7
478.753	14.5
479.107	14.75
479.461	14.72
479.814	14.76
480.168	14.78
480.521	14.73
480.875	14.79
481.228	14.95
481.582	14.93
481.935	14.87
482.289	14.76
482.642	14.91
482.995	14.93
483.348	14.82
483.701	14.82
484.055	14.71
484.408	14.63
484.761	14.32
485.114	14.26
485.466	14.24
485.819	14.24
486.172	14.27
486.525	14.47
486.878	14.58
487.23	14.71
487.583	14.78
487.936	14.91
488.288	14.85
488.641	14.78
488.993	14.68
489.345	14.67
489.698	14.77
490.05	14.82
490.402	15.02
490.754	15.15
491.107	15.24
491.459	15.45
491.811	15.42
492.163	15.44
492.515	15.31
492.866	15.06
493.218	15.12
493.57	15.14
493.922	15.32
494.274	15.44
494.625	15.56
494.977	15.71
495.328	15.96
495.68	16.19
496.031	16.17
496.383	16.12
496.734	16.31
497.086	16.21
497.437	16.35
497.788	16.35
498.139	16.29
498.49	16.11
498.842	16.3
499.193	16.27
499.544	16.45
499.894	16.35
500.245	16.42
500.596	16.54
500.947	16.56
501.298	16.74
501.648	16.71
501.999	16.85
502.35	16.92
502.7	16.94
503.051	16.98
503.401	16.91
503.752	17
504.102	17.08
504.452	17.06
504.803	16.98
505.153	17.19
505.503	17.14
505.853	17.06
506.203	17.2
506.553	17.16
506.903	17.27
507.253	17.43
507.603	17.38
507.953	17.3
508.303	17.45
508.652	17.46
509.002	17.49
509.352	17.51
509.701	17.38
510.051	17.47
510.4	17.35
510.75	17.4
511.099	17.5
511.449	17.51
511.798	17.55
512.147	17.57
512.496	17.71
512.846	17.64
513.195	17.65
513.544	17.74
513.893	17.66
514.242	17.83
514.591	17.91
514.939	18.02
515.288	17.93
515.637	18.01
515.986	18.13
516.334	18.18
516.683	18.09
517.032	18.26
517.38	18.34
517.729	18.38
518.077	18.2
518.426	18.2
518.774	18.17
519.122	18.12
519.47	18.11
519.819	18.14
520.167	18.1
520.515	18.07
520.863	18.16
521.211	18.27
521.559	18.42
521.907	18.54
522.255	18.47
522.602	18.69
522.95	18.72
523.298	18.82
523.645	18.89
523.993	19.01
524.341	18.98
524.688	18.91
525.036	19.06
525.383	19.14
525.73	19.01
526.078	19.06
526.425	18.91
526.772	18.79
527.119	18.71
527.466	18.76
527.814	18.9
528.161	18.9
528.508	18.92
528.854	18.78
529.201	18.78
529.548	18.64
529.895	18.48
530.242	18.45
530.588	18.55
530.935	18.58
531.282	18.66
531.628	18.72
531.975	18.93
532.321	19.12
532.667	19.36
533.014	19.41
533.36	19.31
533.706	19.46
534.052	19.37
534.399	19.22
534.745	19.15
535.091	19.24
535.437	19.21
535.783	19.42
536.129	19.57
536.474	19.71
536.82	19.83
537.166	19.93
537.512	19.87
537.857	19.79
538.203	19.82
538.549	19.96
538.894	19.93
539.239	20.05
539.585	20.16
539.93	20.4
540.276	20.4
540.621	20.48
540.966	20.61
541.311	20.55
541.656	20.3
542.001	20.39
542.346	20.11
542.691	20.03
543.036	20
543.381	20.07
543.726	20.06
544.071	20.26
544.415	20.27
544.76	20.4
545.105	20.5
545.449	20.56
545.794	20.75
546.138	20.87
546.483	20.97
546.827	20.97
547.171	21.03
547.516	21.23
547.86	21.08
548.204	21.01
548.548	21.09
548.892	21.21
549.236	21.32
549.58	21.54
549.924	21.52
550.268	21.62
550.612	21.86
550.956	21.73
551.3	21.98
551.643	21.9
551.987	22.2
552.33	22.11
552.674	22.21
553.017	22.14
553.361	22.04
553.704	22.11
554.048	22.24
554.391	22.01
554.734	21.88
555.077	22.17
555.42	22.42
555.764	22.37
556.107	22.46
556.45	22.28
556.793	22.75
557.135	22.67
557.478	22.58
557.821	22.63
558.164	22.92
558.507	22.66
558.849	22.67
559.192	23.08
559.534	22.67
559.877	23.05
560.219	22.92
560.562	23.08
560.904	22.98
561.246	22.95
561.589	23.1
561.931	23.26
562.273	23.37
562.615	23.1
562.957	23.42
563.299	23.28
563.641	23.53
563.983	23.3
564.325	23.4
564.667	23.54
565.008	23.48
565.35	23.39
565.692	23.56
566.033	23.46
566.375	23.39
566.716	23.62
567.058	23.62
567.399	23.5
567.741	23.62
568.082	23.53
568.423	23.64
568.764	23.64
569.105	23.81
569.447	23.71
569.788	23.82
570.129	23.89
570.47	24.04
570.811	23.93
571.151	23.93
571.492	24.28
571.833	24.08
572.174	24.09
572.514	24.14
572.855	24.38
573.195	24.03
573.536	24.04
573.876	24.15
574.217	24.1
574.557	24.2
574.898	23.94
575.238	24.31
575.578	24.58
575.918	24.26
576.258	24.45
576.598	24.48
576.938	24.57
577.278	24.6
577.618	24.66
577.958	24.76
578.298	24.59
578.638	24.67
578.977	24.75
579.317	25.2
579.657	25.08
579.996	25.1
580.336	24.95
580.675	25.4
581.014	25.06
581.354	25.71
581.693	25.19
582.032	25.5
582.372	25.55
582.711	25.6
583.05	25.72
583.389	25.93
583.728	25.47
584.067	25.71
584.406	25.76
584.745	25.91
585.083	25.9
585.422	26.01
585.761	25.92
586.1	26.18
586.438	25.99
586.777	26.04
587.115	25.83
587.454	26.25
587.792	26.07
588.13	26.5
588.469	26.08
588.807	26.41
589.145	25.93
589.483	26.21
589.821	26.41
590.159	26.18
590.497	26.33
590.835	26.41
591.173	26.5
591.511	26.48
591.849	26.55
592.187	26.55
592.524	26.65
592.862	26.63
593.2	26.76
593.537	26.53
593.875	26.71
594.212	26.81
594.55	26.68
594.887	27.06
595.224	26.9
595.561	26.81
595.899	27.11
596.236	26.92
596.573	26.8
596.91	26.8
597.247	26.87
597.584	27.14
597.921	26.78
598.258	27.1
598.594	26.84
598.931	26.72
599.268	26.89
599.604	26.88
599.941	27.23
600.277	27.29
600.614	27.37
600.95	27.44
601.287	27.49
601.623	27.56
601.959	27.64
602.296	27.78
602.632	27.87
602.968	27.67
603.304	27.9
603.64	27.93
603.976	27.82
604.312	27.83
604.648	27.7
604.984	27.71
605.319	27.69
605.655	27.62
605.991	27.66
606.326	27.45
606.662	27.57
606.998	27.74
607.333	27.98
607.668	27.67
608.004	28.04
608.339	27.91
608.674	28.29
609.01	28.3
609.345	28.71
609.68	28.13
610.015	28.2
610.35	28.4
610.685	28.15
611.02	28.39
611.355	28.32
611.689	28.13
612.024	28.43
612.359	28.53
612.694	28.69
613.028	28.61
613.363	28.58
613.697	29.13
614.032	28.87
614.366	28.85
614.7	28.93
615.035	28.63
615.369	29.01
615.703	29.24
616.037	29.05
616.371	29.06
616.705	29.19
617.039	29.31
617.373	29.1
617.707	29.56
618.041	29.47
618.375	29.41
618.709	29.53
619.042	29.31
619.376	29.65
619.71	29.34
620.043	29.35
620.377	29.48
620.71	29.38
621.043	29.56
621.377	29.44
621.71	29.87
622.043	30.04
622.376	29.91
622.709	30.1
623.043	29.73
623.376	29.69
623.709	30.24
624.041	29.77
624.374	29.91
624.707	30.16
625.04	29.7
625.373	30.11
625.705	29.99
626.038	30.11
626.37	29.85
626.703	30.1
627.035	30.4
627.368	30.39
627.7	30.02
628.032	30
628.365	30.39
628.697	30.13
629.029	30.41
629.361	30.41
629.693	30.66
630.025	30.51
630.357	30.54
630.689	31.03
631.021	30.59
631.353	30.81
631.684	30.67
632.016	30.27
632.348	30.57
632.679	31.03
633.011	30.72
633.342	30.79
633.674	30.9
634.005	30.79
634.336	30.69
634.668	30.75
634.999	30.77
635.33	30.78
635.661	31.1
635.992	30.7
636.323	30.74
636.654	31.25
636.985	31.14
637.316	31.23
637.647	31.07
637.977	31.35
638.308	31.23
638.639	31.37
638.969	31.02
639.3	31.5
639.63	31.37
639.961	31.14
640.291	31.73
640.622	31.97
640.952	31.39
641.282	31.37
641.612	31.47
641.943	32.21
642.273	32.16
642.603	31.88
642.933	32.25
643.263	32.19
643.592	31.75
643.922	32.1
644.252	32.23
644.582	31.87
644.911	32.32
645.241	32.29
645.571	32.27
645.9	32.17
646.23	31.96
646.559	32.08
646.888	31.99
647.218	32.02
647.547	32.71
647.876	32.77
648.205	32.53
648.534	32.29
648.863	32.46
649.192	32.11
649.521	32
649.85	32.79
650.179	32.36
650.508	32.25
650.837	32.73
651.165	32.86
651.494	32.55
651.822	32.56
652.151	33.11
652.479	32.79
652.808	33.09
653.136	32.74
653.465	33.11
653.793	32.92
654.121	33.28
654.449	32.88
654.777	32.75
655.105	33.49
655.433	32.99
655.761	32.7
656.089	33.65
656.417	32.73
656.745	33.47
657.073	33.45
657.4	33.38
657.728	33.18
658.056	32.76
658.383	33.42
658.711	33.65
659.038	33.63
659.365	32.91
659.693	33.7
660.02	33.23
660.347	33.35
660.674	33.23
661.001	32.98
661.329	33.35
661.656	33.74
661.982	33.42
662.309	33.55
662.636	33.14
662.963	33.65
663.29	33.87
663.616	34.02
663.943	34.15
664.27	33.59
664.596	33.86
664.923	34.07
665.249	34.08
665.576	33.97
665.902	33.66
666.228	34.35
666.554	34.09
666.881	34.51
667.207	34.18
667.533	34.78
667.859	34.4
668.185	34.17
668.511	33.72
668.837	34.19
669.162	34.13
669.488	35.05
669.814	34.61
670.139	34.5
670.465	34.8
670.791	34.16
671.116	34.12
671.442	34.59
671.767	34.61
672.092	34.5
672.418	34.61
672.743	34.48
673.068	34.74
673.393	34.55
673.718	34.45
674.043	34.79
674.368	34.86
674.693	34.69
675.018	34.94
675.343	35.1
