Data from 0057_crown_Reflection__3__86.txt Node

Date: Fri Dec 16 14:35:27 CST 2022
User: ToomeyLab
Spectrometer: FLMS14357
Trigger mode: 0
Integration Time (sec): 1.000000E-2
Scans to average: 100
Electric dark correction enabled: true
Nonlinearity correction enabled: false
Boxcar width: 0
XAxis mode: Wavelengths
Number of Pixels in Spectrum: 2048
>>>>>Begin Spectral Data<<<<<
189.047	47.47
189.435	47.47
189.823	47.47
190.211	204.18
190.599	96.49
190.987	-27.67
191.375	-159.62
191.763	48.71
192.151	1508.33
192.538	6.92
192.926	516.49
193.314	90.2
193.702	-185.19
194.089	-110.09
194.477	86.43
194.864	-31.38
195.252	54.76
195.639	150.93
196.027	-773
196.414	-2.47
196.801	264.04
197.189	310.77
197.576	124.56
197.963	5975
198.351	6.65
198.738	25.72
199.125	0.14
199.512	25.6
199.899	-42.53
200.286	-41.31
200.673	28.06
201.06	36.28
201.447	30.04
201.833	-15.59
202.22	0.06
202.607	-22.5
202.994	5.39
203.38	-30.74
203.767	-23.9
204.154	-9.65
204.54	30.4
204.927	44.77
205.313	15.12
205.699	21.6
206.086	-10.13
206.472	43.21
206.858	7.72
207.245	24.5
207.631	32.12
208.017	-4.01
208.403	12.72
208.789	9.11
209.175	36.72
209.561	29.79
209.947	4.12
210.333	-6.4
210.719	-21.42
211.105	-48.97
211.491	6.07
211.876	25.76
212.262	-47.22
212.648	-26.32
213.034	-3.04
213.419	39.66
213.805	12.37
214.19	-3.76
214.576	-33.78
214.961	-9.81
215.346	-5.67
215.732	13.43
216.117	0.9
216.502	-8.04
216.888	6.56
217.273	34.25
217.658	9.68
218.043	15.51
218.428	1.88
218.813	-18.7
219.198	-19.88
219.583	-5.11
219.968	9.98
220.353	12.36
220.738	3.14
221.122	-2.46
221.507	-5.13
221.892	3.36
222.276	20.67
222.661	-0.95
223.046	0.4
223.43	-9.24
223.815	-1.26
224.199	9.93
224.583	1.19
224.968	10.78
225.352	6.39
225.736	7.92
226.121	1.52
226.505	-2.85
226.889	7.36
227.273	9.67
227.657	4.78
228.041	6.49
228.425	6.34
228.809	6.05
229.193	4.79
229.577	5.1
229.961	5.9
230.344	6
230.728	6.66
231.112	5.97
231.495	5.81
231.879	7
232.263	5.05
232.646	5.13
233.03	4.02
233.413	5.16
233.797	7.4
234.18	5.58
234.563	5.25
234.946	5.61
235.33	5.86
235.713	5.55
236.096	4.74
236.479	6.78
236.862	6.12
237.245	3.47
237.628	5.5
238.011	6.74
238.394	7.49
238.777	6.41
239.16	3.81
239.543	5.3
239.925	7.74
240.308	5.39
240.691	4.76
241.073	5.5
241.456	4.95
241.838	5.74
242.221	6.13
242.603	5.54
242.986	6.17
243.368	5.47
243.75	4.76
244.133	5.03
244.515	5.38
244.897	4.77
245.279	5.05
245.661	5.46
246.043	6.17
246.425	3.95
246.807	5.48
247.189	5.14
247.571	6.07
247.953	5.18
248.335	5.42
248.717	5.3
249.098	5.21
249.48	4.76
249.862	5.14
250.243	5.27
250.625	5.5
251.006	5.47
251.388	4.89
251.769	5.09
252.151	5.81
252.532	4.86
252.913	4.22
253.295	5.06
253.676	5.28
254.057	5.18
254.438	5.11
254.819	5.64
255.2	5.67
255.581	4.8
255.962	5.31
256.343	6.05
256.724	5.21
257.105	5.58
257.486	5.11
257.867	3.66
258.247	4.71
258.628	5.38
259.009	4.55
259.389	4.91
259.77	5.16
260.15	5.21
260.531	4.91
260.911	4.93
261.292	4.88
261.672	4.74
262.052	4.66
262.432	4.62
262.813	4.87
263.193	4.39
263.573	5.55
263.953	5.5
264.333	4.91
264.713	4.56
265.093	4.14
265.473	5.27
265.853	5.07
266.233	4.24
266.612	4.45
266.992	4.87
267.372	4.84
267.752	4.63
268.131	4.96
268.511	4.71
268.89	5.26
269.27	4.77
269.649	5.06
270.029	5.05
270.408	4.65
270.787	4.49
271.167	4.68
271.546	4.14
271.925	4.58
272.304	4.9
272.683	4.57
273.062	4.85
273.441	4.95
273.82	4.87
274.199	4.83
274.578	4.3
274.957	4.65
275.336	4.85
275.715	4.74
276.093	5.23
276.472	4.46
276.851	4.88
277.229	4.64
277.608	4.32
277.986	4.63
278.365	4.18
278.743	4.9
279.122	4.48
279.5	4.05
279.878	3.94
280.257	5.02
280.635	4.72
281.013	4.59
281.391	4.3
281.769	4.92
282.147	4.65
282.525	4.2
282.903	4.83
283.281	4.14
283.659	4.5
284.037	4.46
284.415	4.42
284.792	4.5
285.17	4.64
285.548	4.52
285.925	4.56
286.303	4.61
286.68	4.74
287.058	4.58
287.435	4.63
287.813	4.33
288.19	4.47
288.567	3.95
288.945	4.41
289.322	4.18
289.699	4.4
290.076	4.99
290.453	3.85
290.83	4.36
291.207	4.4
291.584	4.39
291.961	4.58
292.338	4.28
292.715	4.41
293.092	4.58
293.469	4.55
293.845	4.23
294.222	4.05
294.599	4.68
294.975	4.32
295.352	4.13
295.728	4.44
296.105	4.55
296.481	4.41
296.858	4.6
297.234	4.26
297.61	4.36
297.986	4.28
298.363	3.75
298.739	4.42
299.115	4.19
299.491	3.96
299.867	4.56
300.243	4.21
300.619	4.77
300.995	4.46
301.371	4.09
301.746	4.25
302.122	4.16
302.498	4.32
302.874	4.29
303.249	4.23
303.625	4.32
304	3.89
304.376	3.99
304.751	4.23
305.127	4.55
305.502	4.31
305.878	3.82
306.253	4.03
306.628	4.64
307.003	4.21
307.378	4.02
307.754	4.15
308.129	3.54
308.504	3.93
308.879	4.25
309.254	4.06
309.629	4.28
310.003	4.77
310.378	4.41
310.753	4.25
311.128	3.74
311.502	4.27
311.877	4.25
312.252	3.93
312.626	3.89
313.001	4.38
313.375	4.06
313.75	3.86
314.124	4.34
314.498	3.95
314.873	3.87
315.247	3.62
315.621	4.29
315.995	3.67
316.369	4.04
316.743	4.32
317.117	4.33
317.491	3.95
317.865	3.75
318.239	3.92
318.613	4.16
318.987	4
319.361	4.22
319.734	3.94
320.108	4.01
320.482	3.9
320.855	3.9
321.229	4.54
321.602	3.81
321.976	3.71
322.349	4.05
322.723	3.72
323.096	3.86
323.469	3.63
323.843	3.95
324.216	3.61
324.589	4.13
324.962	4.19
325.335	4.01
325.708	3.87
326.081	4.35
326.454	3.72
326.827	4.13
327.2	4.24
327.573	4.38
327.945	4.22
328.318	4.14
328.691	4.07
329.063	4.1
329.436	3.98
329.809	3.93
330.181	4.13
330.553	3.64
330.926	3.99
331.298	3.74
331.671	4.23
332.043	3.97
332.415	4.58
332.787	4.22
333.159	4.02
333.532	4.34
333.904	4.24
334.276	3.79
334.648	4.08
335.02	3.75
335.391	4.13
335.763	3.96
336.135	4.26
336.507	3.99
336.879	4.29
337.25	3.96
337.622	3.95
337.993	3.87
338.365	4.23
338.736	4.13
339.108	4.27
339.479	4.42
339.851	4.3
340.222	4.19
340.593	4
340.964	4.02
341.336	3.47
341.707	4.02
342.078	3.59
342.449	4.02
342.82	4.33
343.191	3.76
343.562	4.25
343.933	4
344.303	4.42
344.674	4.13
345.045	4.14
345.416	4.14
345.786	3.86
346.157	4.24
346.527	3.88
346.898	4.1
347.268	3.94
347.639	3.84
348.009	4.04
348.38	4.3
348.75	3.92
349.12	3.98
349.49	3.98
349.861	4.64
350.231	4.29
350.601	4.37
350.971	3.77
351.341	4.21
351.711	4.13
352.081	4.19
352.45	4.35
352.82	3.92
353.19	4
353.56	4.11
353.929	4.46
354.299	3.93
354.669	4.15
355.038	4.1
355.408	4.5
355.777	3.99
356.147	4.44
356.516	4.41
356.885	4.28
357.254	4.21
357.624	4.39
357.993	3.91
358.362	4.25
358.731	4.45
359.1	4.26
359.469	4.01
359.838	4.18
360.207	4.09
360.576	3.92
360.945	4.11
361.314	4.3
361.682	4.19
362.051	4.16
362.42	4.17
362.788	4.26
363.157	4.14
363.525	3.99
363.894	4.03
364.262	4.06
364.631	4.88
364.999	3.86
365.367	4.4
365.735	4.07
366.104	4.33
366.472	4.54
366.84	4.24
367.208	4.01
367.576	4.54
367.944	4.54
368.312	3.75
368.68	4.55
369.048	3.93
369.416	4.22
369.783	4.22
370.151	4.3
370.519	4.06
370.886	4.38
371.254	4.33
371.621	4.16
371.989	4.49
372.356	4.15
372.724	4.38
373.091	4.09
373.458	4.43
373.826	4.09
374.193	4.54
374.56	4.06
374.927	4.2
375.294	4.45
375.661	4.26
376.028	4.48
376.395	4.3
376.762	4.32
377.129	4.37
377.496	4.33
377.863	4.44
378.229	4.29
378.596	4.2
378.963	4.25
379.329	4.32
379.696	4.47
380.062	4.5
380.429	4.19
380.795	4.18
381.161	4.28
381.528	4.2
381.894	4.7
382.26	4.45
382.626	4.28
382.993	4.07
383.359	4.48
383.725	4.67
384.091	4.39
384.457	4.31
384.823	4.55
385.188	4.59
385.554	4.44
385.92	4.5
386.286	4.39
386.651	4.43
387.017	4.6
387.383	4.42
387.748	4.25
388.114	4.4
388.479	4.37
388.845	4.2
389.21	4.61
389.575	4.45
389.94	4.61
390.306	4.45
390.671	4.49
391.036	4.59
391.401	4.83
391.766	4.4
392.131	4.49
392.496	4.49
392.861	4.32
393.226	4.45
393.591	4.54
393.956	4.73
394.32	4.24
394.685	4.74
395.05	4.43
395.414	4.53
395.779	4.37
396.143	4.47
396.508	4.69
396.872	4.49
397.236	4.19
397.601	4.59
397.965	4.43
398.329	4.59
398.694	4.39
399.058	4.44
399.422	4.72
399.786	4.64
400.15	4.38
400.514	4.49
400.878	4.43
401.242	4.57
401.605	4.46
401.969	4.54
402.333	4.29
402.697	4.75
403.06	4.73
403.424	4.44
403.787	4.67
404.151	4.39
404.514	4.88
404.878	4.69
405.241	4.6
405.604	4.57
405.968	4.75
406.331	4.68
406.694	4.61
407.057	4.78
407.42	4.6
407.783	4.56
408.146	4.45
408.509	4.4
408.872	4.47
409.235	4.65
409.598	4.79
409.961	4.6
410.323	4.66
410.686	4.54
411.049	4.47
411.411	4.65
411.774	4.62
412.136	4.84
412.499	4.5
412.861	4.3
413.223	4.69
413.586	4.46
413.948	4.71
414.31	4.63
414.672	4.54
415.035	4.66
415.397	4.73
415.759	4.62
416.121	4.89
416.483	4.63
416.845	4.62
417.206	4.62
417.568	4.63
417.93	4.66
418.292	4.79
418.653	4.53
419.015	4.79
419.377	4.68
419.738	4.57
420.1	4.51
420.461	4.52
420.822	4.56
421.184	4.54
421.545	4.62
421.906	4.53
422.267	4.39
422.629	4.51
422.99	4.49
423.351	4.56
423.712	4.54
424.073	4.66
424.434	4.48
424.795	4.54
425.155	4.59
425.516	4.53
425.877	4.6
426.238	4.49
426.598	4.64
426.959	4.52
427.32	4.66
427.68	4.65
428.041	4.78
428.401	4.65
428.761	4.6
429.122	4.6
429.482	4.42
429.842	4.68
430.202	4.69
430.563	4.61
430.923	4.69
431.283	4.73
431.643	4.77
432.003	4.61
432.363	4.87
432.722	4.75
433.082	4.64
433.442	4.6
433.802	4.7
434.161	4.62
434.521	4.8
434.881	4.85
435.24	4.61
435.6	4.56
435.959	4.64
436.319	4.65
436.678	4.67
437.037	4.74
437.396	4.72
437.756	4.77
438.115	4.71
438.474	4.73
438.833	4.84
439.192	4.82
439.551	4.76
439.91	4.8
440.269	4.69
440.628	4.61
440.987	4.64
441.345	4.52
441.704	4.71
442.063	4.61
442.421	4.7
442.78	4.72
443.138	4.68
443.497	4.57
443.855	4.72
444.214	4.71
444.572	4.67
444.93	4.83
445.288	4.82
445.647	4.77
446.005	4.59
446.363	4.71
446.721	4.49
447.079	4.7
447.437	4.64
447.795	4.58
448.153	4.68
448.51	4.55
448.868	4.74
449.226	4.69
449.584	4.65
449.941	4.83
450.299	4.81
450.656	4.86
451.014	4.79
451.371	4.76
451.729	4.68
452.086	4.69
452.443	4.76
452.801	4.91
453.158	4.83
453.515	4.66
453.872	4.86
454.229	4.65
454.586	4.81
454.943	4.66
455.3	4.99
455.657	4.59
456.014	4.81
456.371	4.79
456.727	4.6
457.084	4.76
457.441	4.69
457.797	4.72
458.154	4.84
458.51	4.78
458.867	4.68
459.223	4.64
459.58	4.8
459.936	4.68
460.292	4.9
460.648	4.73
461.005	4.65
461.361	4.6
461.717	4.72
462.073	4.78
462.429	4.81
462.785	4.79
463.141	4.96
463.496	4.74
463.852	4.92
464.208	4.86
464.564	4.76
464.919	4.71
465.275	4.86
465.631	4.78
465.986	4.83
466.342	4.83
466.697	4.83
467.052	4.88
467.408	4.81
467.763	4.69
468.118	4.71
468.473	5.01
468.829	4.86
469.184	4.79
469.539	4.76
469.894	4.78
470.249	4.86
470.603	4.84
470.958	4.91
471.313	4.9
471.668	4.93
472.023	5.02
472.377	4.82
472.732	4.77
473.086	4.73
473.441	4.86
473.795	4.92
474.15	4.83
474.504	4.8
474.859	4.88
475.213	4.85
475.567	4.77
475.921	4.97
476.275	4.96
476.63	4.9
476.984	4.79
477.338	5.04
477.692	4.84
478.045	4.84
478.399	4.88
478.753	4.83
479.107	4.83
479.461	4.85
479.814	4.77
480.168	4.83
480.521	4.83
480.875	4.9
481.228	4.95
481.582	4.72
481.935	4.73
482.289	4.7
482.642	4.87
482.995	4.78
483.348	4.75
483.701	4.77
484.055	4.69
484.408	4.61
484.761	4.52
485.114	4.5
485.466	4.47
485.819	4.54
486.172	4.59
486.525	4.66
486.878	4.65
487.23	4.69
487.583	4.7
487.936	4.68
488.288	4.67
488.641	4.59
488.993	4.5
489.345	4.58
489.698	4.64
490.05	4.64
490.402	4.79
490.754	4.73
491.107	4.8
491.459	4.79
491.811	4.86
492.163	4.77
492.515	4.7
492.866	4.54
493.218	4.61
493.57	4.67
493.922	4.67
494.274	4.77
494.625	4.79
494.977	4.81
495.328	4.91
495.68	4.97
496.031	4.75
496.383	4.92
496.734	4.94
497.086	4.74
497.437	4.83
497.788	4.73
498.139	4.85
498.49	4.86
498.842	4.84
499.193	4.87
499.544	4.83
499.894	4.92
500.245	4.82
500.596	4.94
500.947	4.89
501.298	4.85
501.648	4.92
501.999	5.06
502.35	5
502.7	4.99
503.051	4.95
503.401	4.86
503.752	4.72
504.102	4.79
504.452	4.92
504.803	4.84
505.153	5
505.503	4.86
505.853	4.91
506.203	4.98
506.553	4.99
506.903	4.92
507.253	4.98
507.603	4.88
507.953	4.97
508.303	4.95
508.652	4.94
509.002	4.94
509.352	4.85
509.701	4.97
510.051	4.99
510.4	4.94
510.75	4.89
511.099	4.87
511.449	4.91
511.798	4.95
512.147	4.88
512.496	4.9
512.846	4.91
513.195	4.93
513.544	4.96
513.893	4.74
514.242	4.9
514.591	4.93
514.939	4.78
515.288	4.87
515.637	5.04
515.986	4.75
516.334	4.98
516.683	4.95
517.032	4.81
517.38	4.99
517.729	4.86
518.077	4.86
518.426	4.82
518.774	4.86
519.122	4.76
519.47	4.9
519.819	4.79
520.167	4.86
520.515	4.81
520.863	4.9
521.211	4.85
521.559	4.97
521.907	4.86
522.255	4.91
522.602	4.97
522.95	4.85
523.298	4.98
523.645	4.94
523.993	5.08
524.341	4.9
524.688	4.99
525.036	4.94
525.383	5.03
525.73	4.92
526.078	4.86
526.425	4.88
526.772	4.79
527.119	4.79
527.466	4.86
527.814	4.78
528.161	4.81
528.508	4.81
528.854	4.74
529.201	4.77
529.548	4.67
529.895	4.61
530.242	4.59
530.588	4.7
530.935	4.71
531.282	4.76
531.628	4.83
531.975	4.8
532.321	4.8
532.667	4.87
533.014	4.81
533.36	4.88
533.706	4.89
534.052	4.73
534.399	4.67
534.745	4.71
535.091	4.71
535.437	4.79
535.783	4.87
536.129	4.83
536.474	4.92
536.82	4.9
537.166	4.92
537.512	4.88
537.857	4.88
538.203	4.88
538.549	4.98
538.894	4.93
539.239	4.93
539.585	5.01
539.93	5.01
540.276	4.93
540.621	4.89
540.966	4.99
541.311	4.98
541.656	4.83
542.001	4.93
542.346	4.78
542.691	4.69
543.036	4.73
543.381	4.78
543.726	4.8
544.071	4.89
544.415	4.89
544.76	4.8
545.105	4.86
545.449	4.94
545.794	4.83
546.138	4.85
546.483	4.91
546.827	4.9
547.171	4.92
547.516	5
547.86	4.9
548.204	4.94
548.548	4.93
548.892	4.91
549.236	4.98
549.58	5.02
549.924	4.94
550.268	5.08
550.612	5.05
550.956	5.03
551.3	5.11
551.643	5.09
551.987	4.94
552.33	4.99
552.674	5.03
553.017	5.05
553.361	5.05
553.704	4.85
554.048	5.09
554.391	5.07
554.734	5.18
555.077	4.95
555.42	4.98
555.764	5.06
556.107	4.97
556.45	4.96
556.793	5.13
557.135	5.25
557.478	5.3
557.821	4.9
558.164	5.07
558.507	4.98
558.849	5
559.192	5.24
559.534	4.89
559.877	5.2
560.219	5.36
560.562	5.1
560.904	5.03
561.246	5.15
561.589	5.15
561.931	5.43
562.273	5
562.615	5.12
562.957	5
563.299	5.27
563.641	5.02
563.983	4.95
564.325	5.09
564.667	5.05
565.008	5.12
565.35	5.17
565.692	5.21
566.033	5.11
566.375	4.98
566.716	5.05
567.058	5.15
567.399	5.09
567.741	5.09
568.082	4.98
568.423	5.1
568.764	5.13
569.105	5.1
569.447	5.1
569.788	5.17
570.129	5.19
570.47	5.17
570.811	5.19
571.151	5.1
571.492	5.15
571.833	4.88
572.174	5.09
572.514	5.08
572.855	5.1
573.195	4.89
573.536	5
573.876	4.99
574.217	5.15
574.557	5.07
574.898	5
575.238	4.93
575.578	5.18
575.918	4.98
576.258	4.93
576.598	5.01
576.938	5.29
577.278	5.05
577.618	5.01
577.958	5.09
578.298	5.23
578.638	5.12
578.977	5.08
579.317	5.21
579.657	5.17
579.996	5.05
580.336	5.23
580.675	5.26
581.014	4.99
581.354	5.3
581.693	5.14
582.032	5.02
582.372	5.28
582.711	5.12
583.05	5.24
583.389	5.34
583.728	5.18
584.067	5.11
584.406	5.49
584.745	5.09
585.083	5.44
585.422	5.17
585.761	5.5
586.1	5.3
586.438	5.14
586.777	5.04
587.115	5.25
587.454	5.36
587.792	5.05
588.13	5.47
588.469	5.14
588.807	5.37
589.145	5.36
589.483	5.21
589.821	5.11
590.159	5.16
590.497	4.93
590.835	5.08
591.173	5.31
591.511	5.27
591.849	5.25
592.187	5.35
592.524	5.17
592.862	5.25
593.2	4.97
593.537	5.29
593.875	5.17
594.212	5.24
594.55	5.29
594.887	5.32
595.224	5.19
595.561	5.16
595.899	5.17
596.236	5.11
596.573	4.84
596.91	5.19
597.247	5.08
597.584	5.35
597.921	5.12
598.258	5.26
598.594	4.95
598.931	5.17
599.268	5.12
599.604	5.27
599.941	5.25
600.277	5.12
600.614	5.21
600.95	5.11
601.287	5.29
601.623	5.42
601.959	5.3
602.296	5.32
602.632	5.3
602.968	5.15
603.304	5.12
603.64	5.16
603.976	5.15
604.312	5.29
604.648	5.35
604.984	5.3
605.319	5.27
605.655	5.19
605.991	5.14
606.326	5
606.662	5.14
606.998	5.11
607.333	5.15
607.668	5.22
608.004	5.07
608.339	5.22
608.674	4.98
609.01	5.3
609.345	5.38
609.68	5.12
610.015	5.31
610.35	5.31
610.685	5.22
611.02	5.39
611.355	5.24
611.689	5.02
612.024	5.35
612.359	5.3
612.694	5.4
613.028	5.51
613.363	5.06
613.697	5.37
614.032	5.39
614.366	5.2
614.7	5.45
615.035	5.35
615.369	5.31
615.703	5.46
616.037	5.06
616.371	5.14
616.705	5.32
617.039	5.39
617.373	5.43
617.707	5.28
618.041	5.4
618.375	5.44
618.709	5.52
619.042	5.44
619.376	5.23
619.71	5.36
620.043	5.38
620.377	5.32
620.71	5.28
621.043	5.23
621.377	5.36
621.71	5.55
622.043	5.52
622.376	4.9
622.709	5.49
623.043	5.24
623.376	5.43
623.709	5.69
624.041	5.26
624.374	5.22
624.707	5.31
625.04	5.6
625.373	5.26
625.705	5.59
626.038	5.59
626.37	5.74
626.703	5.34
627.035	5.53
627.368	5.49
627.7	5.42
628.032	5.44
628.365	5.01
628.697	5.29
629.029	5.66
629.361	5.45
629.693	5.61
630.025	5.49
630.357	5.23
630.689	5.61
631.021	5.43
631.353	5.44
631.684	5.22
632.016	5.23
632.348	5.51
632.679	5.46
633.011	5.49
633.342	5.19
633.674	5.14
634.005	5.31
634.336	5.5
634.668	5.05
634.999	5.36
635.33	5.4
635.661	5.69
635.992	5.21
636.323	5.57
636.654	5.49
636.985	5.22
637.316	5.7
637.647	5.18
637.977	5.19
638.308	5.19
638.639	5.21
638.969	5.23
639.3	5.28
639.63	5.17
639.961	5.06
640.291	5.82
640.622	5.39
640.952	5.42
641.282	5.14
641.612	5.03
641.943	5.77
642.273	5.63
642.603	5.46
642.933	5.46
643.263	5.55
643.592	5.53
643.922	6.06
644.252	5.97
644.582	5.37
644.911	5.27
645.241	5.52
645.571	5.61
645.9	5.57
646.23	5.22
646.559	5.2
646.888	5.1
647.218	5.64
647.547	5.66
647.876	5.49
648.205	5.08
648.534	5.65
648.863	5.88
649.192	5.41
649.521	5.14
649.85	6.22
650.179	5.21
650.508	5.37
650.837	5.28
651.165	5.44
651.494	5.38
651.822	5.26
652.151	5.86
652.479	5.81
652.808	5.47
653.136	5.33
653.465	5.7
653.793	5.64
654.121	5.41
654.449	5.39
654.777	5.44
655.105	5.61
655.433	6.17
655.761	5.59
656.089	5.48
656.417	5.15
656.745	6.23
657.073	6.02
657.4	5.43
657.728	5.39
658.056	5.76
658.383	5.91
658.711	5.06
659.038	5.82
659.365	5.81
659.693	5.79
660.02	5.34
660.347	5.62
660.674	5.28
661.001	5.13
661.329	5.37
661.656	5.67
661.982	5.68
662.309	5.5
662.636	5.39
662.963	5.58
663.29	5.36
663.616	5.6
663.943	5.82
664.27	5.75
664.596	5.25
664.923	5.62
665.249	5.38
665.576	5.61
665.902	5.64
666.228	5.33
666.554	5.23
666.881	5.76
667.207	5.17
667.533	6.11
667.859	5.9
668.185	5.66
668.511	5.68
668.837	5.05
669.162	5.9
669.488	5.31
669.814	5.84
670.139	6.26
670.465	5.93
670.791	5.82
671.116	5.17
671.442	5.92
671.767	5.42
672.092	5.69
672.418	5.43
672.743	5.53
673.068	5.46
673.393	6.09
673.718	5.64
674.043	6.11
674.368	5.71
674.693	5.31
675.018	5.36
675.343	5.42
675.667	5.55
675.992	4.72
676.317	6.17
676.641	5.72
676.966	5.53
677.29	5.63
677.615	5.88
677.939	5.64
678.264	5.4
678.588	6.29
678.912	5.92
679.236	6.11
679.56	5.72
679.885	6.16
680.209	5.09
680.532	5.62
680.856	5.89
681.18	5.45
681.504	5.46
681.828	5.32
682.152	5.49
682.475	5.79
682.799	6.12
683.122	5.57
683.446	5.45
683.769	5.93
684.093	5.77
684.416	5.3
684.739	5.73
685.062	6.42
685.386	5.63
685.709	5.86
686.032	5.67
686.355	5.69
686.678	6.28
687.001	5.52
687.324	5.57
687.646	5.31
687.969	5.35
688.292	6.07
688.614	6.34
688.937	5.45
689.26	5.06
689.582	5.65
689.904	5.52
690.227	6.08
690.549	5.99
690.871	5.49
691.194	6.73
691.516	5.18
691.838	5.87
692.16	6.29
692.482	5.87
692.804	5.65
693.126	5.61
693.448	5.9
