Data from 0057_crown_Reflection__1__84.txt Node

Date: Fri Dec 16 14:35:09 CST 2022
User: ToomeyLab
Spectrometer: FLMS14357
Trigger mode: 0
Integration Time (sec): 1.000000E-2
Scans to average: 100
Electric dark correction enabled: true
Nonlinearity correction enabled: false
Boxcar width: 0
XAxis mode: Wavelengths
Number of Pixels in Spectrum: 2048
>>>>>Begin Spectral Data<<<<<
189.047	30.29
189.435	30.29
189.823	30.29
190.211	19.05
190.599	177.18
190.987	-0.67
191.375	166.35
191.763	32.44
192.151	7587.5
192.538	-57.45
192.926	98.67
193.314	119
193.702	165.9
194.089	-86.72
194.477	-626.31
194.864	-115.69
195.252	-190.44
195.639	98.99
196.027	137.5
196.414	97.84
196.801	334.76
197.189	184.21
197.576	-158.43
197.963	4207.5
198.351	16.51
198.738	1.73
199.125	24.9
199.512	-37.43
199.899	-21.34
200.286	-43.81
200.673	44.24
201.06	24.6
201.447	14.28
201.833	7.99
202.22	-6.86
202.607	-14.42
202.994	4.22
203.38	3.08
203.767	-31.75
204.154	-37.69
204.54	26.96
204.927	-15.38
205.313	23.31
205.699	-3.5
206.086	1.19
206.472	-10.49
206.858	-12
207.245	-2.85
207.631	19.89
208.017	-9.05
208.403	20.33
208.789	16.89
209.175	50.46
209.561	2.38
209.947	-21.26
210.333	-23.48
210.719	-34.2
211.105	-25.13
211.491	12.1
211.876	11.25
212.262	-33.81
212.648	-30.75
213.034	1.55
213.419	14.53
213.805	13.14
214.19	-17.52
214.576	-36.3
214.961	-1.85
215.346	-34.2
215.732	12.77
216.117	-22.53
216.502	-13.62
216.888	-17.25
217.273	-8.7
217.658	-14.57
218.043	1.9
218.428	3.71
218.813	-1.82
219.198	-40.15
219.583	2.55
219.968	-6.02
220.353	28.88
220.738	-19.01
221.122	-8.83
221.507	-1.87
221.892	-4.15
222.276	8.08
222.661	2.61
223.046	-0.24
223.43	-0.74
223.815	-6.38
224.199	1.7
224.583	-0.69
224.968	4.74
225.352	-0.22
225.736	12.62
226.121	-3.91
226.505	5.78
226.889	6.03
227.273	7.57
227.657	1.71
228.041	2.65
228.425	2.92
228.809	2.66
229.193	1.13
229.577	1.44
229.961	2.79
230.344	2.33
230.728	2.88
231.112	2.5
231.495	2.14
231.879	3.62
232.263	1.9
232.646	0.6
233.03	0.25
233.413	1.29
233.797	2.56
234.18	1.3
234.563	1.34
234.946	1.1
235.33	2.43
235.713	1.31
236.096	1.46
236.479	2.14
236.862	2.88
237.245	4.16
237.628	2.1
238.011	2.12
238.394	2.56
238.777	2.48
239.16	0.36
239.543	0.62
239.925	2.25
240.308	3.66
240.691	2.44
241.073	1.53
241.456	1.54
241.838	1.9
242.221	2.17
242.603	1.71
242.986	2.26
243.368	2.23
243.75	2.01
244.133	2.48
244.515	1.66
244.897	2.5
245.279	2.22
245.661	1.95
246.043	1.87
246.425	1.25
246.807	2.15
247.189	1.56
247.571	2.11
247.953	2.09
248.335	2.25
248.717	2.27
249.098	2.18
249.48	1.81
249.862	2.39
250.243	1.94
250.625	2.39
251.006	2.31
251.388	2.23
251.769	1.12
252.151	1.59
252.532	2.01
252.913	2.13
253.295	2.07
253.676	2.48
254.057	1.88
254.438	2.23
254.819	2.03
255.2	2.89
255.581	1.13
255.962	1.37
256.343	2.07
256.724	1.31
257.105	2.51
257.486	2.19
257.867	0.13
258.247	1.85
258.628	2.11
259.009	1.86
259.389	2.48
259.77	1.74
260.15	2.36
260.531	2.21
260.911	2.18
261.292	1.97
261.672	1.9
262.052	1.95
262.432	1.67
262.813	2.44
263.193	1.58
263.573	1.97
263.953	1.75
264.333	2.04
264.713	1.57
265.093	1.04
265.473	2.91
265.853	2.06
266.233	1.76
266.612	1.61
266.992	1.72
267.372	1.9
267.752	1.46
268.131	2.23
268.511	2.04
268.89	2.6
269.27	1.89
269.649	2.27
270.029	1.9
270.408	1.66
270.787	1.75
271.167	1.64
271.546	1.54
271.925	1.81
272.304	2.16
272.683	1.73
273.062	2.22
273.441	2
273.82	2.43
274.199	2.04
274.578	1.87
274.957	2.12
275.336	2.03
275.715	2.15
276.093	2.52
276.472	2.31
276.851	2.11
277.229	2.69
277.608	1.76
277.986	2.41
278.365	1.43
278.743	1.88
279.122	1.43
279.5	1.5
279.878	0.93
280.257	2.18
280.635	1.88
281.013	2.19
281.391	1.77
281.769	2.03
282.147	1.99
282.525	1.91
282.903	1.92
283.281	1.89
283.659	1.67
284.037	1.58
284.415	2.19
284.792	1.68
285.17	1.67
285.548	1.45
285.925	1.77
286.303	1.73
286.68	2.37
287.058	1.99
287.435	1.56
287.813	2.1
288.19	2.14
288.567	1.8
288.945	2.06
289.322	1.22
289.699	2.05
290.076	1.99
290.453	1.38
290.83	2.16
291.207	1.99
291.584	1.8
291.961	1.87
292.338	1.72
292.715	1.81
293.092	1.77
293.469	2.08
293.845	2.16
294.222	1.6
294.599	2.19
294.975	1.92
295.352	1.57
295.728	2.29
296.105	2.01
296.481	2.36
296.858	1.88
297.234	1.97
297.61	2
297.986	1.92
298.363	1.79
298.739	2.27
299.115	1.48
299.491	1.92
299.867	1.86
300.243	1.83
300.619	1.58
300.995	1.86
301.371	1.81
301.746	1.53
302.122	1.82
302.498	2.01
302.874	1.76
303.249	2.23
303.625	1.95
304	1.86
304.376	2.1
304.751	1.68
305.127	1.88
305.502	2.18
305.878	1.62
306.253	1.85
306.628	2.32
307.003	1.85
307.378	1.81
307.754	1.9
308.129	1.46
308.504	1.63
308.879	1.93
309.254	2
309.629	2.14
310.003	2.28
310.378	2.42
310.753	2
311.128	1.95
311.502	1.55
311.877	1.96
312.252	1.83
312.626	1.6
313.001	1.79
313.375	1.89
313.75	1.55
314.124	2.32
314.498	1.56
314.873	2.27
315.247	1.7
315.621	2.11
315.995	1.72
316.369	1.61
316.743	2.13
317.117	1.95
317.491	2.16
317.865	1.3
318.239	2.15
318.613	2.06
318.987	2.06
319.361	1.56
319.734	2.24
320.108	2.2
320.482	1.81
320.855	2.29
321.229	2.55
321.602	1.74
321.976	1.94
322.349	1.55
322.723	1.21
323.096	1.96
323.469	1.38
323.843	1.86
324.216	1.27
324.589	2.18
324.962	2.24
325.335	2.01
325.708	2.12
326.081	2.28
326.454	2.16
326.827	2.14
327.2	2.12
327.573	1.97
327.945	2.06
328.318	1.92
328.691	1.72
329.063	1.41
329.436	1.83
329.809	1.53
330.181	1.96
330.553	2.01
330.926	2
331.298	1.81
331.671	1.88
332.043	2.32
332.415	2.29
332.787	2.37
333.159	2.11
333.532	1.67
333.904	2.25
334.276	1.93
334.648	1.99
335.02	1.8
335.391	2.02
335.763	1.83
336.135	1.61
336.507	2.15
336.879	2.14
337.25	2.07
337.622	1.79
337.993	2.07
338.365	2.17
338.736	2.16
339.108	1.52
339.479	1.75
339.851	2.01
340.222	2.34
340.593	1.99
340.964	2.02
341.336	1.58
341.707	1.81
342.078	1.89
342.449	2.09
342.82	1.64
343.191	1.59
343.562	1.94
343.933	1.85
344.303	1.84
344.674	1.81
345.045	2.29
345.416	1.74
345.786	1.55
346.157	1.96
346.527	1.85
346.898	1.78
347.268	1.93
347.639	1.89
348.009	2.15
348.38	1.75
348.75	2.1
349.12	1.75
349.49	1.54
349.861	1.69
350.231	2.04
350.601	1.49
350.971	1.84
351.341	2.2
351.711	1.96
352.081	1.93
352.45	2.18
352.82	2.36
353.19	1.85
353.56	1.62
353.929	2.24
354.299	2.08
354.669	1.83
355.038	1.98
355.408	2.25
355.777	1.91
356.147	2.12
356.516	2.24
356.885	1.86
357.254	1.88
357.624	2.03
357.993	1.68
358.362	1.85
358.731	1.83
359.1	2.11
359.469	2.23
359.838	1.89
360.207	1.83
360.576	2.05
360.945	1.87
361.314	2.18
361.682	1.7
362.051	1.91
362.42	2.31
362.788	2.08
363.157	1.68
363.525	1.84
363.894	1.69
364.262	1.92
364.631	2.52
364.999	1.72
365.367	2.15
365.735	1.6
366.104	1.69
366.472	2.07
366.84	1.93
367.208	1.72
367.576	1.97
367.944	2.15
368.312	1.65
368.68	2.01
369.048	2.18
369.416	2.21
369.783	1.96
370.151	2.07
370.519	1.95
370.886	1.75
371.254	2.1
371.621	1.86
371.989	2.05
372.356	1.98
372.724	1.9
373.091	2.32
373.458	1.88
373.826	1.98
374.193	2.59
374.56	2.06
374.927	1.92
375.294	2.05
375.661	2.03
376.028	2.13
376.395	2.01
376.762	2.06
377.129	2.24
377.496	2.15
377.863	2.03
378.229	1.94
378.596	2.04
378.963	1.97
379.329	1.82
379.696	1.9
380.062	2.17
380.429	2.19
380.795	1.96
381.161	1.84
381.528	1.94
381.894	2.17
382.26	2.02
382.626	2.02
382.993	1.81
383.359	1.78
383.725	2.14
384.091	1.85
384.457	2.15
384.823	1.96
385.188	2.41
385.554	2.27
385.92	2.1
386.286	2.36
386.651	1.92
387.017	2.13
387.383	1.86
387.748	2.14
388.114	2.15
388.479	2.23
388.845	2.15
389.21	2.2
389.575	2.25
389.94	1.96
390.306	2.03
390.671	2.14
391.036	2.28
391.401	2.5
391.766	2.25
392.131	2.36
392.496	1.96
392.861	1.99
393.226	1.98
393.591	2.25
393.956	2.09
394.32	1.99
394.685	2.14
395.05	1.99
395.414	2.1
395.779	2.15
396.143	2.22
396.508	2.13
396.872	2.47
397.236	1.94
397.601	2.13
397.965	2.07
398.329	2.49
398.694	1.93
399.058	2.26
399.422	2.34
399.786	2.25
400.15	2
400.514	2.3
400.878	2.1
401.242	2.38
401.605	2.05
401.969	2.26
402.333	2.32
402.697	2.22
403.06	2.26
403.424	2.16
403.787	2.38
404.151	2.11
404.514	2.17
404.878	2.28
405.241	2.16
405.604	2.18
405.968	2.18
406.331	2.35
406.694	2.35
407.057	2.46
407.42	2.22
407.783	2.18
408.146	2.36
408.509	2.21
408.872	2.14
409.235	2.36
409.598	2.39
409.961	2.42
410.323	2.27
410.686	2.01
411.049	1.88
411.411	2.45
411.774	2.04
412.136	2.23
412.499	2.29
412.861	2.26
413.223	2.37
413.586	1.99
413.948	2.18
414.31	2.29
414.672	2.13
415.035	2.35
415.397	2.28
415.759	2.16
416.121	2.48
416.483	2.33
416.845	2.17
417.206	2.42
417.568	2.19
417.93	2.21
418.292	2.36
418.653	2.34
419.015	2.32
419.377	2.31
419.738	2.23
420.1	2.21
420.461	2.16
420.822	2.38
421.184	2.24
421.545	2.28
421.906	2.36
422.267	2.12
422.629	2.25
422.99	2.3
423.351	2.26
423.712	2.23
424.073	2.36
424.434	2.18
424.795	2.25
425.155	2.23
425.516	2.17
425.877	2.24
426.238	2.15
426.598	2.28
426.959	2.3
427.32	2.18
427.68	2.38
428.041	2.35
428.401	2.18
428.761	2.11
429.122	2.17
429.482	2.16
429.842	2.46
430.202	2.26
430.563	2.23
430.923	2.21
431.283	2.51
431.643	2.39
432.003	2.21
432.363	2.4
432.722	2.28
433.082	2.21
433.442	2.2
433.802	2.29
434.161	2.23
434.521	2.28
434.881	2.41
435.24	2.22
435.6	2.27
435.959	2.27
436.319	2.17
436.678	2.39
437.037	2.22
437.396	2.27
437.756	2.28
438.115	2.46
438.474	2.25
438.833	2.43
439.192	2.58
439.551	2.28
439.91	2.37
440.269	2.45
440.628	2.35
440.987	2.23
441.345	2.25
441.704	2.4
442.063	2.37
442.421	2.28
442.78	2.27
443.138	2.29
443.497	2.31
443.855	2.33
444.214	2.31
444.572	2.21
444.93	2.39
445.288	2.37
445.647	2.46
446.005	2.24
446.363	2.36
446.721	2.27
447.079	2.37
447.437	2.38
447.795	2.37
448.153	2.35
448.51	2.24
448.868	2.33
449.226	2.34
449.584	2.37
449.941	2.46
450.299	2.38
450.656	2.4
451.014	2.33
451.371	2.32
451.729	2.19
452.086	2.39
452.443	2.24
452.801	2.33
453.158	2.3
453.515	2.23
453.872	2.37
454.229	2.29
454.586	2.36
454.943	2.33
455.3	2.55
455.657	2.32
456.014	2.47
456.371	2.53
456.727	2.41
457.084	2.34
457.441	2.29
457.797	2.44
458.154	2.43
458.51	2.14
458.867	2.18
459.223	2.34
459.58	2.37
459.936	2.42
460.292	2.56
460.648	2.28
461.005	2.29
461.361	2.37
461.717	2.37
462.073	2.45
462.429	2.42
462.785	2.38
463.141	2.43
463.496	2.36
463.852	2.57
464.208	2.38
464.564	2.25
464.919	2.28
465.275	2.49
465.631	2.35
465.986	2.27
466.342	2.41
466.697	2.32
467.052	2.43
467.408	2.35
467.763	2.33
468.118	2.33
468.473	2.57
468.829	2.3
469.184	2.51
469.539	2.33
469.894	2.48
470.249	2.54
470.603	2.56
470.958	2.54
471.313	2.44
471.668	2.51
472.023	2.59
472.377	2.51
472.732	2.45
473.086	2.22
473.441	2.51
473.795	2.61
474.15	2.33
474.504	2.47
474.859	2.48
475.213	2.44
475.567	2.44
475.921	2.62
476.275	2.43
476.63	2.34
476.984	2.46
477.338	2.65
477.692	2.4
478.045	2.44
478.399	2.49
478.753	2.33
479.107	2.5
479.461	2.41
479.814	2.39
480.168	2.45
480.521	2.45
480.875	2.57
481.228	2.49
481.582	2.41
481.935	2.43
482.289	2.41
482.642	2.41
482.995	2.41
483.348	2.44
483.701	2.44
484.055	2.4
484.408	2.37
484.761	2.29
485.114	2.26
485.466	2.27
485.819	2.3
486.172	2.32
486.525	2.39
486.878	2.37
487.23	2.44
487.583	2.34
487.936	2.42
488.288	2.38
488.641	2.37
488.993	2.3
489.345	2.32
489.698	2.38
490.05	2.37
490.402	2.43
490.754	2.44
491.107	2.46
491.459	2.49
491.811	2.44
492.163	2.44
492.515	2.42
492.866	2.34
493.218	2.37
493.57	2.41
493.922	2.4
494.274	2.48
494.625	2.46
494.977	2.51
495.328	2.43
495.68	2.66
496.031	2.5
496.383	2.45
496.734	2.5
497.086	2.46
497.437	2.54
497.788	2.39
498.139	2.48
498.49	2.53
498.842	2.57
499.193	2.43
499.544	2.56
499.894	2.54
500.245	2.54
500.596	2.62
500.947	2.48
501.298	2.47
501.648	2.47
501.999	2.71
502.35	2.55
502.7	2.59
503.051	2.59
503.401	2.61
503.752	2.55
504.102	2.42
504.452	2.41
504.803	2.44
505.153	2.56
505.503	2.56
505.853	2.5
506.203	2.49
506.553	2.57
506.903	2.44
507.253	2.53
507.603	2.47
507.953	2.59
508.303	2.56
508.652	2.63
509.002	2.57
509.352	2.52
509.701	2.5
510.051	2.58
510.4	2.47
510.75	2.54
511.099	2.45
511.449	2.45
511.798	2.66
512.147	2.6
512.496	2.6
512.846	2.46
513.195	2.52
513.544	2.43
513.893	2.37
514.242	2.58
514.591	2.58
514.939	2.58
515.288	2.52
515.637	2.56
515.986	2.61
516.334	2.57
516.683	2.52
517.032	2.5
517.38	2.47
517.729	2.65
518.077	2.55
518.426	2.55
518.774	2.49
519.122	2.5
519.47	2.53
519.819	2.55
520.167	2.51
520.515	2.48
520.863	2.56
521.211	2.49
521.559	2.5
521.907	2.56
522.255	2.56
522.602	2.63
522.95	2.53
523.298	2.5
523.645	2.48
523.993	2.74
524.341	2.6
524.688	2.76
525.036	2.72
525.383	2.53
525.73	2.62
526.078	2.59
526.425	2.58
526.772	2.42
527.119	2.5
527.466	2.44
527.814	2.58
528.161	2.55
528.508	2.55
528.854	2.43
529.201	2.46
529.548	2.47
529.895	2.41
530.242	2.43
530.588	2.46
530.935	2.48
531.282	2.55
531.628	2.53
531.975	2.53
532.321	2.54
532.667	2.6
533.014	2.58
533.36	2.57
533.706	2.6
534.052	2.51
534.399	2.51
534.745	2.44
535.091	2.49
535.437	2.55
535.783	2.59
536.129	2.54
536.474	2.7
536.82	2.54
537.166	2.65
537.512	2.63
537.857	2.52
538.203	2.52
538.549	2.66
538.894	2.59
539.239	2.79
539.585	2.65
539.93	2.6
540.276	2.43
540.621	2.65
540.966	2.62
541.311	2.58
541.656	2.62
542.001	2.62
542.346	2.52
542.691	2.47
543.036	2.53
543.381	2.55
543.726	2.53
544.071	2.65
544.415	2.56
544.76	2.51
545.105	2.59
545.449	2.54
545.794	2.61
546.138	2.71
546.483	2.62
546.827	2.62
547.171	2.61
547.516	2.68
547.86	2.64
548.204	2.58
548.548	2.62
548.892	2.68
549.236	2.73
549.58	2.68
549.924	2.59
550.268	2.76
550.612	2.71
550.956	2.51
551.3	2.74
551.643	2.73
551.987	2.67
552.33	2.64
552.674	2.8
553.017	2.72
553.361	2.67
553.704	2.54
554.048	2.74
554.391	2.53
554.734	2.73
555.077	2.74
555.42	2.72
555.764	2.69
556.107	2.62
556.45	2.65
556.793	2.92
557.135	2.82
557.478	2.84
557.821	2.68
558.164	2.78
558.507	2.68
558.849	2.42
559.192	2.88
559.534	2.66
559.877	2.68
560.219	2.88
560.562	2.71
560.904	2.62
561.246	2.7
561.589	2.8
561.931	2.92
562.273	2.66
562.615	2.78
562.957	2.81
563.299	2.87
563.641	2.74
563.983	2.73
564.325	2.7
564.667	2.6
565.008	2.78
565.35	2.84
565.692	2.77
566.033	2.73
566.375	2.53
566.716	2.72
567.058	2.72
567.399	2.92
567.741	2.82
568.082	2.65
568.423	2.7
568.764	2.84
569.105	2.8
569.447	2.55
569.788	2.91
570.129	2.74
570.47	2.97
570.811	2.78
571.151	2.78
571.492	2.93
571.833	2.76
572.174	2.68
572.514	2.74
572.855	2.73
573.195	2.72
573.536	2.72
573.876	2.8
574.217	2.83
574.557	2.79
574.898	2.7
575.238	2.73
575.578	2.82
575.918	2.75
576.258	2.77
576.598	2.83
576.938	2.93
577.278	2.68
577.618	2.75
577.958	2.81
578.298	2.85
578.638	2.7
578.977	2.94
579.317	2.92
579.657	2.78
579.996	2.72
580.336	2.69
580.675	2.87
581.014	2.69
581.354	2.85
581.693	2.57
582.032	2.79
582.372	2.92
582.711	2.79
583.05	2.96
583.389	2.85
583.728	2.96
584.067	3.13
584.406	2.95
584.745	2.81
585.083	3.17
585.422	2.94
585.761	2.9
586.1	2.96
586.438	2.98
586.777	2.82
587.115	2.85
587.454	2.82
587.792	2.83
588.13	3.12
588.469	2.94
588.807	3.16
589.145	3.19
589.483	2.78
589.821	2.97
590.159	2.77
590.497	2.73
590.835	2.87
591.173	2.82
591.511	2.95
591.849	2.82
592.187	2.85
592.524	2.72
592.862	2.98
593.2	2.91
593.537	2.86
593.875	2.97
594.212	2.9
594.55	2.71
594.887	3.15
595.224	3.02
595.561	3.19
595.899	2.95
596.236	2.88
596.573	2.83
596.91	2.73
597.247	2.89
597.584	2.65
597.921	2.89
598.258	2.79
598.594	2.61
598.931	2.81
599.268	2.63
599.604	2.91
599.941	2.81
600.277	3.1
600.614	2.98
600.95	3.16
601.287	2.85
601.623	3.11
601.959	2.61
602.296	3.02
602.632	3.15
602.968	2.98
603.304	2.85
603.64	2.87
603.976	2.9
604.312	3.15
604.648	2.93
604.984	2.77
605.319	2.69
605.655	2.97
605.991	2.8
606.326	2.82
606.662	2.71
606.998	3.06
607.333	2.8
607.668	2.85
608.004	2.83
608.339	2.86
608.674	2.77
609.01	2.89
609.345	3.03
609.68	2.72
610.015	3.13
610.35	2.75
610.685	2.96
611.02	3.08
611.355	3.03
611.689	2.73
612.024	3.05
612.359	2.97
612.694	3.16
613.028	3.1
613.363	2.78
613.697	2.92
614.032	2.94
614.366	2.97
614.7	3.42
615.035	2.5
615.369	2.97
615.703	3.27
616.037	2.82
616.371	2.87
616.705	2.85
617.039	3.23
617.373	2.74
617.707	3.15
618.041	3.09
618.375	2.88
618.709	2.96
619.042	3.11
619.376	3.24
619.71	3.08
620.043	3.17
620.377	3.09
620.71	2.91
621.043	2.72
621.377	2.99
621.71	3.1
622.043	2.96
622.376	2.45
622.709	3.1
623.043	2.99
623.376	3.26
623.709	3.08
624.041	3.28
624.374	3.08
624.707	2.88
625.04	3.08
625.373	2.87
625.705	3.12
626.038	3.1
626.37	3.12
626.703	2.99
627.035	3.08
627.368	3.22
627.7	2.99
628.032	2.9
628.365	2.91
628.697	2.75
629.029	3.28
629.361	2.68
629.693	3.1
630.025	3.12
630.357	3.16
630.689	3.33
631.021	2.93
631.353	3.26
631.684	3.09
632.016	3.08
632.348	3.14
632.679	2.93
633.011	3
633.342	3.01
633.674	3.03
634.005	3.17
634.336	2.94
634.668	3.17
634.999	3.23
635.33	2.93
635.661	3.12
635.992	3.09
636.323	3.26
636.654	3.16
636.985	3.02
637.316	3.01
637.647	3.29
637.977	2.94
638.308	2.98
638.639	2.84
638.969	3.27
639.3	3.08
639.63	2.97
639.961	3.02
640.291	3.68
640.622	3.5
640.952	3.02
641.282	2.62
641.612	2.89
641.943	3.29
642.273	3.13
642.603	3.18
642.933	3.35
643.263	3.29
643.592	3.37
643.922	3.57
644.252	3.32
644.582	2.92
644.911	2.73
645.241	2.66
645.571	3.08
645.9	3.67
646.23	2.82
646.559	3.18
646.888	2.97
647.218	3.27
647.547	3.04
647.876	3.48
648.205	2.96
648.534	2.81
648.863	3.37
649.192	2.88
649.521	2.58
649.85	3.78
650.179	2.95
650.508	3.13
650.837	3.01
651.165	3.09
651.494	2.73
651.822	3.02
652.151	3.81
652.479	3.47
652.808	3.05
653.136	3.3
653.465	3.72
653.793	3.39
654.121	3.21
654.449	3.07
654.777	3.49
655.105	3.56
655.433	3.75
655.761	2.97
656.089	3.33
656.417	3.24
656.745	3.5
657.073	3.36
657.4	3.31
657.728	3.34
658.056	2.82
658.383	3.24
658.711	2.95
659.038	3.48
659.365	3.53
659.693	3.15
660.02	3.01
660.347	3.45
660.674	2.94
661.001	2.8
661.329	3.08
661.656	3.21
661.982	3.33
662.309	3.29
662.636	3.54
662.963	3.68
663.29	3.42
663.616	2.89
663.943	3.11
664.27	3.24
664.596	2.6
664.923	3.62
665.249	3.08
665.576	3.21
665.902	2.92
666.228	3.07
666.554	3.11
666.881	3.65
667.207	3.14
667.533	3.3
667.859	3.18
668.185	3.61
668.511	2.89
668.837	3.09
669.162	3.4
669.488	2.98
669.814	3.92
670.139	3.63
670.465	3.16
670.791	3.57
671.116	2.83
671.442	3.56
671.767	3.64
672.092	3.3
672.418	3.29
672.743	3.18
673.068	2.95
673.393	3.86
673.718	3.54
674.043	3.53
674.368	3.3
674.693	3.37
675.018	3
675.343	3.26
675.667	3.55
675.992	3.36
676.317	3.58
676.641	3.56
676.966	3.83
677.29	2.98
677.615	3.44
677.939	3.6
678.264	3.31
678.588	3.69
678.912	3.23
679.236	3.26
679.56	2.76
679.885	3.23
680.209	3.06
680.532	3.24
680.856	3.99
681.18	3.42
681.504	3.13
681.828	3.03
682.152	3.22
682.475	3.5
682.799	3.59
683.122	3.34
683.446	3.26
683.769	3.58
684.093	3.32
684.416	3.26
684.739	3.97
685.062	3.5
685.386	3.39
685.709	3.17
686.032	3.52
686.355	3.66
686.678	3.73
687.001	2.64
687.324	3.1
687.646	3.25
687.969	4.02
688.292	3.79
688.614	3.98
688.937	3.3
689.26	3.04
689.582	3.01
689.904	3.49
690.227	3.53
690.549	3.24
690.871	3.51
691.194	3.29
691.516	3.78
691.838	4.01
692.16	3.68
