Data from 0057_chest_Reflection__2__80.txt Node

Date: Fri Dec 16 14:30:52 CST 2022
User: ToomeyLab
Spectrometer: FLMS14357
Trigger mode: 0
Integration Time (sec): 1.000000E-2
Scans to average: 100
Electric dark correction enabled: true
Nonlinearity correction enabled: false
Boxcar width: 0
XAxis mode: Wavelengths
Number of Pixels in Spectrum: 2048
>>>>>Begin Spectral Data<<<<<
189.047	-3.31
189.435	-3.31
189.823	-3.31
190.211	41.74
190.599	-207.07
190.987	217.85
191.375	-76.22
191.763	35.37
192.151	21887.5
192.538	-36.28
192.926	453.99
193.314	34.49
193.702	-65.42
194.089	-11.57
194.477	-198.69
194.864	-21.06
195.252	2.68
195.639	186.88
196.027	1925.5
196.414	-32.04
196.801	371.75
197.189	393.1
197.576	107.21
197.963	9147.5
198.351	49.69
198.738	-27.28
199.125	46.53
199.512	25.91
199.899	-16.1
200.286	-23.29
200.673	30.84
201.06	22.96
201.447	22.82
201.833	19.79
202.22	15.71
202.607	-28.67
202.994	10.6
203.38	-14.42
203.767	-26.95
204.154	-46.51
204.54	34.49
204.927	-4.12
205.313	20.8
205.699	10.06
206.086	-5.86
206.472	-8.87
206.858	6.42
207.245	23.57
207.631	4.84
208.017	-0.94
208.403	9.51
208.789	8.36
209.175	35.65
209.561	6.39
209.947	1.69
210.333	-25.29
210.719	12.58
211.105	-29.07
211.491	15.98
211.876	-14.64
212.262	-34.01
212.648	-30.59
213.034	9.88
213.419	30.71
213.805	-19.03
214.19	-2.38
214.576	-1.6
214.961	4.22
215.346	-14.34
215.732	5.32
216.117	-5.29
216.502	-0.75
216.888	15.51
217.273	11.95
217.658	5.95
218.043	7.53
218.428	15.67
218.813	8.81
219.198	-56.32
219.583	7.87
219.968	-7.56
220.353	4.87
220.738	5.39
221.122	10.93
221.507	6.14
221.892	0.59
222.276	6.18
222.661	5.67
223.046	2.96
223.43	-14.45
223.815	8.79
224.199	4.6
224.583	7.15
224.968	4.39
225.352	-3.33
225.736	12.66
226.121	1.45
226.505	0.53
226.889	7.12
227.273	3.85
227.657	2.57
228.041	5.22
228.425	5.57
228.809	3.63
229.193	4.95
229.577	4.67
229.961	6.75
230.344	5.24
230.728	5.55
231.112	5.09
231.495	4.01
231.879	6.07
232.263	4.54
232.646	5.26
233.03	2.58
233.413	4.59
233.797	6.13
234.18	2.12
234.563	5.15
234.946	4.59
235.33	5.92
235.713	6.01
236.096	5.51
236.479	8.1
236.862	6.36
237.245	5.45
237.628	6.99
238.011	5.37
238.394	7.55
238.777	4.27
239.16	2.85
239.543	4.3
239.925	6.82
240.308	6.17
240.691	4.75
241.073	5.82
241.456	5.13
241.838	5.63
242.221	5.83
242.603	5.88
242.986	6.46
243.368	5.59
243.75	5.86
244.133	5.53
244.515	5.78
244.897	5.58
245.279	5.99
245.661	5.66
246.043	5.92
246.425	5.22
246.807	5.29
247.189	5.68
247.571	6.46
247.953	5.88
248.335	5.99
248.717	6.07
249.098	5.69
249.48	5.34
249.862	6.2
250.243	5.79
250.625	5.58
251.006	6.11
251.388	6.23
251.769	5.47
252.151	5.5
252.532	5.77
252.913	6.44
253.295	6.22
253.676	6.27
254.057	5.55
254.438	5.28
254.819	6.29
255.2	5.29
255.581	5.92
255.962	4.82
256.343	6.21
256.724	5.4
257.105	5.04
257.486	5.84
257.867	4.94
258.247	6.64
258.628	6.8
259.009	5.58
259.389	6.54
259.77	5.46
260.15	6.78
260.531	5.8
260.911	5.82
261.292	5.58
261.672	5.46
262.052	5.38
262.432	5.33
262.813	5.94
263.193	5.75
263.573	5.87
263.953	5.81
264.333	5.58
264.713	5.47
265.093	5.05
265.473	6.32
265.853	5.38
266.233	5.21
266.612	5.21
266.992	4.93
267.372	5.33
267.752	5.35
268.131	5.06
268.511	5.62
268.89	5.11
269.27	5.38
269.649	5.37
270.029	5.52
270.408	4.83
270.787	5.01
271.167	5.39
271.546	5.07
271.925	5.29
272.304	5.57
272.683	5.24
273.062	5.94
273.441	5.58
273.82	5.42
274.199	5.88
274.578	5.5
274.957	5.38
275.336	4.9
275.715	6.02
276.093	5.9
276.472	5.72
276.851	5.69
277.229	5.27
277.608	5.02
277.986	5.18
278.365	4.82
278.743	5.79
279.122	5.38
279.5	5.16
279.878	4.69
280.257	5.15
280.635	5.26
281.013	5.74
281.391	5.03
281.769	5.31
282.147	5.81
282.525	5.46
282.903	5.42
283.281	5.4
283.659	5.16
284.037	5.05
284.415	5.45
284.792	5.39
285.17	4.78
285.548	5.47
285.925	5.32
286.303	5.38
286.68	5.45
287.058	5.34
287.435	5.14
287.813	5.3
288.19	5.81
288.567	5.03
288.945	5.09
289.322	5.18
289.699	5.15
290.076	5.42
290.453	5.46
290.83	5.58
291.207	5.39
291.584	5.41
291.961	5.35
292.338	5.6
292.715	5.6
293.092	5.31
293.469	5.63
293.845	6.05
294.222	6.09
294.599	5.73
294.975	5.87
295.352	5.45
295.728	6.13
296.105	5.79
296.481	6.35
296.858	6.08
297.234	5.96
297.61	6.03
297.986	5.91
298.363	5.5
298.739	5.93
299.115	5.75
299.491	5.86
299.867	6.08
300.243	5.79
300.619	5.83
300.995	5.79
301.371	5.95
301.746	5.98
302.122	6.05
302.498	6.12
302.874	6.34
303.249	6.47
303.625	6.09
304	5.95
304.376	6.17
304.751	6.16
305.127	5.93
305.502	6.18
305.878	5.74
306.253	5.93
306.628	6.22
307.003	6.47
307.378	6.22
307.754	6.12
308.129	5.94
308.504	5.98
308.879	6.61
309.254	6.15
309.629	6.2
310.003	6.78
310.378	6.56
310.753	6.35
311.128	6.11
311.502	6.16
311.877	6.3
312.252	6.27
312.626	5.93
313.001	6.25
313.375	6.23
313.75	6.32
314.124	6.99
314.498	6.38
314.873	6.47
315.247	6.62
315.621	6.8
315.995	6.39
316.369	6.65
316.743	6.25
317.117	6.48
317.491	6.56
317.865	5.66
318.239	6.59
318.613	6.25
318.987	6.42
319.361	6.58
319.734	6.72
320.108	6.82
320.482	6.63
320.855	6.63
321.229	6.67
321.602	6.21
321.976	5.87
322.349	6.05
322.723	5.72
323.096	6.28
323.469	6.28
323.843	6.41
324.216	6.49
324.589	6.55
324.962	6.6
325.335	6.74
325.708	6.28
326.081	6.86
326.454	6.86
326.827	6.55
327.2	6.85
327.573	7.14
327.945	6.7
328.318	6.93
328.691	6.77
329.063	6.24
329.436	6.52
329.809	6.36
330.181	6.76
330.553	7.05
330.926	6.84
331.298	6.98
331.671	6.52
332.043	6.76
332.415	7.01
332.787	7.04
333.159	6.6
333.532	6.48
333.904	6.9
334.276	6.76
334.648	6.62
335.02	6.57
335.391	6.39
335.763	6.67
336.135	6.51
336.507	6.66
336.879	6.54
337.25	6.47
337.622	6.94
337.993	6.92
338.365	6.75
338.736	6.9
339.108	6.54
339.479	6.76
339.851	7.15
340.222	6.49
340.593	6.57
340.964	6.5
341.336	6.46
341.707	6.63
342.078	6.39
342.449	6.9
342.82	6.65
343.191	6.34
343.562	6.89
343.933	6.51
344.303	6.97
344.674	7.01
345.045	7.11
345.416	6.87
345.786	6.59
346.157	6.86
346.527	6.49
346.898	6.76
347.268	6.42
347.639	6.92
348.009	7.09
348.38	6.78
348.75	6.49
349.12	6.84
349.49	6.57
349.861	7.38
350.231	7.31
350.601	7.08
350.971	6.78
351.341	7.03
351.711	6.75
352.081	6.91
352.45	6.86
352.82	7.45
353.19	6.59
353.56	6.7
353.929	7.01
354.299	6.9
354.669	6.83
355.038	7.03
355.408	7.58
355.777	6.78
356.147	7.22
356.516	7.21
356.885	6.8
357.254	7.18
357.624	7.06
357.993	7
358.362	6.79
358.731	7.06
359.1	7.04
359.469	6.97
359.838	6.89
360.207	6.85
360.576	7.28
360.945	6.92
361.314	7.36
361.682	6.99
362.051	6.84
362.42	7.18
362.788	7.29
363.157	7.04
363.525	6.97
363.894	6.9
364.262	6.89
364.631	7.68
364.999	7
365.367	7.55
365.735	6.87
366.104	7.05
366.472	7.14
366.84	7.14
367.208	6.99
367.576	7.04
367.944	7.34
368.312	7.02
368.68	7.6
369.048	7.27
369.416	7.2
369.783	6.95
370.151	7.29
370.519	6.93
370.886	7.15
371.254	7.21
371.621	7.03
371.989	7.16
372.356	7.07
372.724	7.13
373.091	7.03
373.458	6.95
373.826	7.14
374.193	7.42
374.56	7.26
374.927	7.14
375.294	7.44
375.661	7.61
376.028	7.04
376.395	6.89
376.762	7.32
377.129	7.53
377.496	7.26
377.863	7.2
378.229	7.21
378.596	7.4
378.963	7.25
379.329	7.46
379.696	7.15
380.062	7.63
380.429	7.62
380.795	7.07
381.161	7.13
381.528	6.96
381.894	7.34
382.26	7.32
382.626	7.21
382.993	7.02
383.359	7.39
383.725	7.52
384.091	7.21
384.457	7.67
384.823	7.28
385.188	7.61
385.554	7.46
385.92	7.64
386.286	7.65
386.651	7.44
387.017	7.55
387.383	7.22
387.748	7.38
388.114	7.64
388.479	7.32
388.845	7.28
389.21	7.53
389.575	7.46
389.94	7.14
390.306	7.43
390.671	7.41
391.036	7.4
391.401	7.64
391.766	7.6
392.131	7.29
392.496	7.52
392.861	7.55
393.226	7.54
393.591	7.51
393.956	7.68
394.32	7.56
394.685	7.55
395.05	7.53
395.414	7.45
395.779	7.44
396.143	7.68
396.508	7.68
396.872	7.45
397.236	7.41
397.601	7.68
397.965	7.4
398.329	7.67
398.694	7.41
399.058	7.73
399.422	7.84
399.786	7.68
400.15	7.47
400.514	7.73
400.878	7.46
401.242	7.5
401.605	7.53
401.969	7.81
402.333	7.52
402.697	7.8
403.06	7.76
403.424	7.72
403.787	7.7
404.151	7.5
404.514	7.79
404.878	7.82
405.241	7.86
405.604	7.82
405.968	7.78
406.331	7.69
406.694	7.68
407.057	7.91
407.42	7.75
407.783	7.72
408.146	7.58
408.509	7.66
408.872	7.68
409.235	7.79
409.598	7.86
409.961	7.68
410.323	7.78
410.686	7.85
411.049	7.71
411.411	7.85
411.774	7.66
412.136	7.73
412.499	7.76
412.861	7.61
413.223	8.11
413.586	7.68
413.948	7.83
414.31	7.98
414.672	7.59
415.035	8.2
415.397	7.86
415.759	7.89
416.121	8.11
416.483	8
416.845	7.76
417.206	8
417.568	7.82
417.93	7.74
418.292	7.8
418.653	7.92
419.015	7.98
419.377	7.93
419.738	7.79
420.1	7.79
420.461	7.73
420.822	7.92
421.184	7.78
421.545	7.77
421.906	7.86
422.267	7.7
422.629	7.84
422.99	7.88
423.351	7.75
423.712	7.77
424.073	7.81
424.434	7.8
424.795	7.82
425.155	7.83
425.516	7.77
425.877	7.9
426.238	7.79
426.598	7.88
426.959	7.83
427.32	7.97
427.68	7.99
428.041	8
428.401	7.88
428.761	7.91
429.122	7.93
429.482	7.93
429.842	8.02
430.202	7.96
430.563	8.06
430.923	8.01
431.283	8.05
431.643	8.16
432.003	8.18
432.363	8.22
432.722	8.06
433.082	8.18
433.442	8.06
433.802	8.08
434.161	8.11
434.521	8.1
434.881	8.07
435.24	7.98
435.6	7.96
435.959	8.04
436.319	7.88
436.678	8.14
437.037	8.22
437.396	8.31
437.756	8.23
438.115	8.03
438.474	8.21
438.833	8.13
439.192	8.41
439.551	8.29
439.91	8.39
440.269	8.24
440.628	8.12
440.987	8.08
441.345	8.15
441.704	8.23
442.063	8.15
442.421	8.14
442.78	8.1
443.138	8.18
443.497	8.06
443.855	8.15
444.214	8.21
444.572	8.12
444.93	8.41
445.288	8.32
445.647	8.33
446.005	8.25
446.363	8.25
446.721	8.34
447.079	8.28
447.437	8.17
447.795	8.16
448.153	8.09
448.51	8.13
448.868	8.25
449.226	8.22
449.584	8.22
449.941	8.33
450.299	8.3
450.656	8.23
451.014	8.23
451.371	8.41
451.729	8.41
452.086	8.25
452.443	8.35
452.801	8.4
453.158	8.42
453.515	8.26
453.872	8.52
454.229	8.52
454.586	8.35
454.943	8.45
455.3	8.6
455.657	8.35
456.014	8.48
456.371	8.52
456.727	8.38
457.084	8.36
457.441	8.54
457.797	8.69
458.154	8.41
458.51	8.53
458.867	8.59
459.223	8.47
459.58	8.46
459.936	8.34
460.292	8.52
460.648	8.37
461.005	8.31
461.361	8.49
461.717	8.4
462.073	8.42
462.429	8.47
462.785	8.53
463.141	8.63
463.496	8.42
463.852	8.62
464.208	8.47
464.564	8.47
464.919	8.56
465.275	8.56
465.631	8.65
465.986	8.66
466.342	8.63
466.697	8.72
467.052	8.64
467.408	8.63
467.763	8.7
468.118	8.74
468.473	8.68
468.829	8.59
469.184	8.73
469.539	8.69
469.894	8.79
470.249	8.85
470.603	8.84
470.958	8.79
471.313	8.66
471.668	8.8
472.023	8.91
472.377	8.72
472.732	8.74
473.086	8.67
473.441	8.82
473.795	8.87
474.15	8.82
474.504	8.9
474.859	8.91
475.213	8.85
475.567	8.72
475.921	8.87
476.275	8.94
476.63	8.89
476.984	8.84
477.338	9.19
477.692	8.81
478.045	8.79
478.399	8.87
478.753	8.77
479.107	8.8
479.461	8.89
479.814	8.79
480.168	8.89
480.521	8.81
480.875	8.99
481.228	9
481.582	8.96
481.935	8.91
482.289	8.96
482.642	9.04
482.995	9.03
483.348	8.97
483.701	8.88
484.055	8.88
484.408	8.85
484.761	8.65
485.114	8.61
485.466	8.6
485.819	8.54
486.172	8.54
486.525	8.64
486.878	8.69
487.23	8.77
487.583	8.84
487.936	8.91
488.288	8.85
488.641	8.8
488.993	8.74
489.345	8.74
489.698	8.83
490.05	8.82
490.402	8.82
490.754	8.92
491.107	8.96
491.459	9.03
491.811	9.12
492.163	9.12
492.515	9.07
492.866	8.87
493.218	8.89
493.57	8.94
493.922	8.95
494.274	9
494.625	8.97
494.977	9.16
495.328	9.32
495.68	9.28
496.031	9.37
496.383	9.24
496.734	9.29
497.086	9.35
497.437	9.48
497.788	9.3
498.139	9.36
498.49	9.49
498.842	9.25
499.193	9.29
499.544	9.49
499.894	9.54
500.245	9.31
500.596	9.34
500.947	9.4
501.298	9.29
501.648	9.5
501.999	9.57
502.35	9.61
502.7	9.48
503.051	9.59
503.401	9.49
503.752	9.6
504.102	9.49
504.452	9.56
504.803	9.41
505.153	9.52
505.503	9.56
505.853	9.68
506.203	9.61
506.553	9.42
506.903	9.54
507.253	9.56
507.603	9.68
507.953	9.75
508.303	9.72
508.652	9.56
509.002	9.7
509.352	9.68
509.701	9.73
510.051	9.83
510.4	9.58
510.75	9.67
511.099	9.67
511.449	9.66
511.798	9.85
512.147	9.76
512.496	9.83
512.846	9.75
513.195	9.81
513.544	9.76
513.893	9.72
514.242	9.82
514.591	9.8
514.939	9.82
515.288	9.95
515.637	9.99
515.986	9.82
516.334	9.9
516.683	10.02
517.032	9.85
517.38	10
517.729	9.93
518.077	10.03
518.426	9.92
518.774	10.04
519.122	9.98
519.47	10.03
519.819	9.9
520.167	10.02
520.515	9.93
520.863	10.01
521.211	9.92
521.559	10.11
521.907	10.08
522.255	10.08
522.602	10.16
522.95	10.21
523.298	10.11
523.645	10.24
523.993	10.28
524.341	10.18
524.688	10.31
525.036	10.29
525.383	10.33
525.73	10.22
526.078	10.31
526.425	10.18
526.772	10.14
527.119	10.21
527.466	10.23
527.814	10.16
528.161	10.22
528.508	10.23
528.854	10.22
529.201	10.18
529.548	10.11
529.895	10.08
530.242	10.04
530.588	10.06
530.935	10.03
531.282	10.08
531.628	10.09
531.975	10.3
532.321	10.29
532.667	10.37
533.014	10.36
533.36	10.4
533.706	10.62
534.052	10.5
534.399	10.39
534.745	10.35
535.091	10.34
535.437	10.39
535.783	10.44
536.129	10.41
536.474	10.55
536.82	10.56
537.166	10.67
537.512	10.79
537.857	10.69
538.203	10.64
538.549	10.76
538.894	10.69
539.239	10.84
539.585	10.69
539.93	10.97
540.276	10.79
540.621	10.99
540.966	11.03
541.311	10.99
541.656	10.94
542.001	10.99
542.346	10.83
542.691	10.72
543.036	10.69
543.381	10.8
543.726	10.86
544.071	10.88
544.415	10.85
544.76	10.88
545.105	11.05
545.449	11.01
545.794	11
546.138	11.2
546.483	11.15
546.827	11.33
547.171	11.24
547.516	11.44
547.86	11.29
548.204	11.25
548.548	11.38
548.892	11.31
549.236	11.45
549.58	11.34
549.924	11.47
550.268	11.49
550.612	11.53
550.956	11.47
551.3	11.68
551.643	11.67
551.987	11.73
552.33	11.61
552.674	11.84
553.017	11.74
553.361	11.62
553.704	11.71
554.048	11.85
554.391	11.68
554.734	11.82
555.077	11.62
555.42	11.8
555.764	11.85
556.107	11.83
556.45	11.79
556.793	12.12
557.135	12.04
557.478	11.96
557.821	11.89
558.164	12
558.507	12
558.849	12.08
559.192	12.25
559.534	11.9
559.877	12.43
560.219	12.2
560.562	12.21
560.904	12.1
561.246	12.43
561.589	12.28
561.931	12.38
562.273	12.35
562.615	12.3
562.957	12.48
563.299	12.49
563.641	12.5
563.983	12.59
564.325	12.36
564.667	12.4
565.008	12.28
565.35	12.66
565.692	12.59
566.033	12.62
566.375	12.52
566.716	12.62
567.058	12.76
567.399	12.85
567.741	12.67
568.082	12.61
568.423	12.62
568.764	12.76
569.105	13
569.447	12.69
569.788	12.79
570.129	12.85
570.47	12.8
570.811	12.85
571.151	12.77
571.492	13.01
571.833	12.95
572.174	13.07
572.514	12.92
572.855	13.08
573.195	12.9
573.536	13.04
573.876	12.96
574.217	13.05
574.557	13.17
574.898	13.16
575.238	13.04
575.578	13.34
575.918	13.17
576.258	13.12
576.598	13.29
576.938	13.48
577.278	13.3
577.618	13.35
577.958	13.37
578.298	13.38
578.638	13.33
578.977	13.69
579.317	13.69
579.657	13.67
579.996	13.62
580.336	13.55
580.675	13.79
581.014	13.77
581.354	14
581.693	13.53
582.032	13.79
582.372	13.88
582.711	13.91
583.05	14.07
583.389	14.12
583.728	14.12
584.067	13.89
584.406	14.19
584.745	14.07
585.083	14.33
585.422	14.45
585.761	14.35
586.1	14.29
586.438	14.17
586.777	14.11
587.115	14.23
587.454	14.53
587.792	14.2
588.13	14.38
588.469	14.46
588.807	14.64
589.145	14.58
589.483	14.32
589.821	14.44
590.159	14.5
590.497	14.46
590.835	14.54
591.173	14.72
591.511	14.52
591.849	14.61
592.187	14.61
592.524	14.65
592.862	14.64
593.2	14.82
593.537	14.72
593.875	14.71
594.212	15.05
594.55	14.94
594.887	15.12
595.224	14.73
595.561	14.77
595.899	14.93
596.236	15.11
596.573	14.86
596.91	15.23
597.247	15.18
597.584	15.39
597.921	15.12
598.258	15.27
598.594	15.06
598.931	15.18
599.268	15.08
599.604	15.25
599.941	15.21
600.277	15.58
600.614	15.37
600.95	15.44
601.287	15.05
601.623	15.72
601.959	15.62
602.296	15.78
602.632	15.74
602.968	15.48
603.304	15.61
603.64	15.67
603.976	15.47
604.312	15.81
604.648	15.81
604.984	15.88
605.319	15.79
605.655	15.92
605.991	15.77
606.326	15.76
606.662	15.75
606.998	15.97
607.333	15.96
607.668	16.04
608.004	15.9
608.339	16.25
608.674	15.97
609.01	15.97
609.345	16.07
609.68	16.04
610.015	16.08
610.35	16.23
610.685	16.18
611.02	16.3
611.355	16.31
611.689	16.27
612.024	16.42
612.359	16.43
612.694	16.37
613.028	16.73
613.363	16.22
613.697	16.4
614.032	17.01
614.366	16.7
614.7	16.87
615.035	16.52
615.369	16.96
615.703	17.33
616.037	16.92
616.371	16.76
616.705	16.93
617.039	17
617.373	16.74
617.707	16.91
618.041	17.01
618.375	16.77
618.709	16.91
619.042	17.15
619.376	16.95
619.71	16.84
620.043	16.81
620.377	17.06
620.71	17.45
621.043	16.88
621.377	17.1
621.71	17.56
622.043	17.63
622.376	17.21
622.709	17.88
623.043	17.16
623.376	17.59
623.709	17.35
624.041	17.42
624.374	17.35
624.707	17.69
625.04	18.14
625.373	17.52
625.705	17.21
626.038	17.68
626.37	17.7
626.703	17.78
627.035	17.76
627.368	17.9
627.7	17.88
628.032	17.75
628.365	17.6
628.697	17.92
629.029	18.13
629.361	17.92
629.693	18.16
630.025	18.11
630.357	18.24
630.689	18.38
631.021	18.32
631.353	18.28
631.684	18.52
632.016	17.84
632.348	18.32
632.679	18
633.011	18.1
633.342	18.3
633.674	17.85
634.005	18.36
634.336	18.55
634.668	18.35
634.999	18.39
635.33	18.7
635.661	18.66
635.992	18.15
636.323	18.59
636.654	18.49
636.985	18.43
637.316	18.7
637.647	18.86
637.977	18.9
638.308	18.54
638.639	18.71
638.969	18.81
639.3	19.11
639.63	18.97
639.961	18.75
640.291	19.55
640.622	19.21
640.952	18.96
641.282	18.81
641.612	19.26
641.943	19.26
642.273	19.32
642.603	19.45
642.933	19.47
643.263	19.58
643.592	19.24
643.922	19.65
644.252	19.49
644.582	19.22
644.911	19.43
645.241	19.15
645.571	19.3
645.9	19.7
646.23	19.34
646.559	19.23
646.888	18.9
647.218	19.7
647.547	19.71
647.876	19.81
648.205	19.64
648.534	19.34
648.863	20.16
649.192	19.52
649.521	19.39
649.85	20.31
650.179	19.63
650.508	19.91
650.837	19.67
651.165	19.77
651.494	20.16
651.822	20.1
652.151	20.67
652.479	20.34
652.808	20.26
653.136	19.94
653.465	20.61
653.793	20.13
654.121	20.27
654.449	20.21
654.777	20.38
655.105	20.16
655.433	20.56
655.761	20.1
656.089	20.44
656.417	20.04
656.745	20.98
657.073	20.76
657.4	20.25
657.728	20.64
658.056	20.51
658.383	21.33
658.711	20.86
659.038	21.44
659.365	20.83
659.693	20.62
660.02	20.46
660.347	20.97
660.674	20.69
661.001	20.88
661.329	21.21
661.656	20.99
661.982	20.63
662.309	21.07
662.636	21.08
662.963	21.04
663.29	21.14
663.616	21.11
663.943	21.72
664.27	20.92
664.596	20.86
664.923	21.34
665.249	21.63
665.576	21.27
665.902	21.48
666.228	21.57
666.554	20.66
666.881	21.61
667.207	21.49
667.533	21.47
667.859	20.97
668.185	21.84
668.511	21.62
668.837	21.17
669.162	21.84
669.488	21.82
669.814	22.07
670.139	22.02
670.465	21.39
670.791	21.68
671.116	21.64
671.442	22.36
671.767	21.84
672.092	21.84
672.418	21.9
672.743	22.09
673.068	21.55
673.393	22.13
673.718	21.5
674.043	21.98
674.368	21.84
674.693	22.35
675.018	21.92
675.343	21.83
675.667	22.46
675.992	22.06
676.317	22.21
676.641	22.75
676.966	22.72
677.29	22.35
677.615	22.45
677.939	22.43
678.264	22.05
678.588	22.41
678.912	22.65
679.236	22.78
679.56	22.37
679.885	22.28
680.209	22.09
680.532	22.52
680.856	22.91
681.18	22.81
681.504	22.71
