Data from 0057_forehead_Reflection__3__91.txt Node

Date: Fri Dec 16 14:36:32 CST 2022
User: ToomeyLab
Spectrometer: FLMS14357
Trigger mode: 0
Integration Time (sec): 1.000000E-2
Scans to average: 100
Electric dark correction enabled: true
Nonlinearity correction enabled: false
Boxcar width: 0
XAxis mode: Wavelengths
Number of Pixels in Spectrum: 2048
>>>>>Begin Spectral Data<<<<<
189.047	0.3
189.435	0.3
189.823	0.3
190.211	18.33
190.599	-122.77
190.987	205.56
191.375	7.95
191.763	119.89
192.151	10883.33
192.538	75.73
192.926	-120.21
193.314	41.18
193.702	-56.42
194.089	94.1
194.477	108.1
194.864	252.68
195.252	52.02
195.639	92.5
196.027	-1202
196.414	-27.93
196.801	223.97
197.189	299.11
197.576	-7.27
197.963	7550
198.351	30.97
198.738	-16.4
199.125	40.55
199.512	16.02
199.899	3.69
200.286	-33.19
200.673	29.32
201.06	37.92
201.447	54.03
201.833	-9.99
202.22	25.98
202.607	46.2
202.994	22.81
203.38	11.58
203.767	12.44
204.154	-8.65
204.54	26.38
204.927	7.73
205.313	62.67
205.699	22.55
206.086	-6.15
206.472	14.81
206.858	26.24
207.245	27.56
207.631	0.78
208.017	32.9
208.403	26.68
208.789	9.25
209.175	47.63
209.561	11.12
209.947	-4
210.333	3.73
210.719	-6.28
211.105	27.87
211.491	21.29
211.876	23.41
212.262	-20.7
212.648	10.3
213.034	-4.46
213.419	42.05
213.805	-0.48
214.19	10.91
214.576	-1.6
214.961	8.8
215.346	24.19
215.732	-1.21
216.117	16.99
216.502	0.61
216.888	7.17
217.273	49.02
217.658	-10.22
218.043	11.08
218.428	16.76
218.813	-7.37
219.198	-11.24
219.583	14.13
219.968	20.79
220.353	23.27
220.738	12.71
221.122	11.18
221.507	3
221.892	8.53
222.276	11.74
222.661	13.83
223.046	8.26
223.43	3.24
223.815	13.93
224.199	14.1
224.583	13.32
224.968	17.66
225.352	5.63
225.736	14.6
226.121	2.59
226.505	2.12
226.889	9.51
227.273	7.86
227.657	5.4
228.041	10.05
228.425	10.3
228.809	3.77
229.193	4.83
229.577	4.09
229.961	5.23
230.344	5.3
230.728	4.59
231.112	5.1
231.495	4.85
231.879	4.26
232.263	4.8
232.646	4.93
233.03	4.16
233.413	5.03
233.797	8.38
234.18	5.58
234.563	4.58
234.946	3.27
235.33	4.04
235.713	4.54
236.096	3.99
236.479	5.51
236.862	4.51
237.245	6.17
237.628	4.38
238.011	5.52
238.394	5.34
238.777	3.73
239.16	2.79
239.543	4.48
239.925	3.74
240.308	6.06
240.691	4.99
241.073	4.15
241.456	4.4
241.838	4.63
242.221	4.32
242.603	4.79
242.986	5.25
243.368	4.33
243.75	3.98
244.133	4.24
244.515	4.63
244.897	4.67
245.279	3.99
245.661	4.78
246.043	5.05
246.425	4.85
246.807	4.44
247.189	4.01
247.571	4.45
247.953	4.48
248.335	4.39
248.717	4.43
249.098	4.44
249.48	4.32
249.862	4.32
250.243	4.5
250.625	5.11
251.006	4.82
251.388	4.96
251.769	4.27
252.151	4.03
252.532	5.23
252.913	4.96
253.295	4.4
253.676	4.56
254.057	4.55
254.438	3.86
254.819	4.83
255.2	4.36
255.581	4.18
255.962	4.03
256.343	5.07
256.724	4.04
257.105	3.99
257.486	4.5
257.867	2.6
258.247	4.07
258.628	4.9
259.009	5.24
259.389	5.56
259.77	4.02
260.15	4.84
260.531	4.63
260.911	4.5
261.292	4.19
261.672	4.15
262.052	4.05
262.432	3.93
262.813	4.11
263.193	3.93
263.573	4.39
263.953	4.51
264.333	4.64
264.713	4.26
265.093	4.47
265.473	6.11
265.853	4.46
266.233	4.75
266.612	4.71
266.992	4.25
267.372	4.54
267.752	3.93
268.131	4.53
268.511	4.87
268.89	4.64
269.27	4.29
269.649	4.34
270.029	4.51
270.408	4.13
270.787	4.02
271.167	4.18
271.546	3.86
271.925	4.59
272.304	4.35
272.683	3.86
273.062	4.24
273.441	4.55
273.82	4.36
274.199	4.55
274.578	4.01
274.957	4.38
275.336	3.86
275.715	4.26
276.093	4.69
276.472	4.4
276.851	4.5
277.229	4.4
277.608	3.89
277.986	4.65
278.365	4.1
278.743	4.43
279.122	4.19
279.5	4.27
279.878	3.37
280.257	5.42
280.635	4.26
281.013	4.11
281.391	4.12
281.769	3.84
282.147	4.36
282.525	4.24
282.903	4.14
283.281	4.2
283.659	4.49
284.037	4.06
284.415	4.17
284.792	4.44
285.17	3.36
285.548	3.88
285.925	3.98
286.303	3.76
286.68	4.25
287.058	4.23
287.435	3.83
287.813	4.08
288.19	4.36
288.567	4.13
288.945	4.33
289.322	3.66
289.699	4.23
290.076	4.48
290.453	4.38
290.83	4.39
291.207	4.39
291.584	4.19
291.961	4.27
292.338	4.13
292.715	4.27
293.092	4.47
293.469	4.15
293.845	4.68
294.222	4.02
294.599	4.56
294.975	4.71
295.352	4.02
295.728	4.54
296.105	4.54
296.481	4.33
296.858	5.08
297.234	4.26
297.61	4.63
297.986	4.42
298.363	4.1
298.739	4.48
299.115	4.33
299.491	4.43
299.867	4.67
300.243	4.57
300.619	4.33
300.995	4.77
301.371	4.73
301.746	4.97
302.122	4.94
302.498	4.68
302.874	4.55
303.249	4.63
303.625	4.88
304	4.51
304.376	5.07
304.751	4.73
305.127	4.63
305.502	5.36
305.878	4.55
306.253	4.76
306.628	4.93
307.003	5.32
307.378	4.71
307.754	5.01
308.129	4.96
308.504	5.16
308.879	4.67
309.254	5.36
309.629	4.78
310.003	5.2
310.378	4.78
310.753	4.88
311.128	4.82
311.502	4.82
311.877	5.21
312.252	4.75
312.626	4.89
313.001	4.99
313.375	4.95
313.75	5.08
314.124	5.5
314.498	4.86
314.873	5.66
315.247	5.16
315.621	5.83
315.995	5.53
316.369	5.21
316.743	5.84
317.117	5.93
317.491	5.75
317.865	5.26
318.239	6
318.613	5.7
318.987	5.39
319.361	5.75
319.734	5.54
320.108	5.84
320.482	5.36
320.855	5.16
321.229	6.05
321.602	5.62
321.976	5.55
322.349	5.4
322.723	5.16
323.096	5.16
323.469	5.25
323.843	6.23
324.216	5.23
324.589	5.9
324.962	6.08
325.335	5.88
325.708	5.7
326.081	6.32
326.454	5.86
326.827	5.85
327.2	6.37
327.573	6.02
327.945	5.6
328.318	6.17
328.691	6.45
329.063	5.72
329.436	6.1
329.809	5.63
330.181	6.39
330.553	6.48
330.926	6.09
331.298	5.82
331.671	6.53
332.043	6.24
332.415	6.55
332.787	6.41
333.159	5.91
333.532	6.23
333.904	6.24
334.276	5.97
334.648	6.04
335.02	5.96
335.391	6.25
335.763	6.14
336.135	6.57
336.507	6.48
336.879	6.49
337.25	6.5
337.622	6.33
337.993	5.98
338.365	6.97
338.736	6.71
339.108	6.17
339.479	6.42
339.851	6.78
340.222	6.3
340.593	6.35
340.964	6.6
341.336	5.81
341.707	6.45
342.078	6.13
342.449	6.76
342.82	7.02
343.191	6.52
343.562	6.61
343.933	6.71
344.303	6.46
344.674	7.07
345.045	6.92
345.416	6.75
345.786	6.59
346.157	6.63
346.527	6.66
346.898	6.79
347.268	6.4
347.639	6.64
348.009	7.13
348.38	6.75
348.75	7.07
349.12	6.8
349.49	7.06
349.861	7.33
350.231	7.32
350.601	6.98
350.971	7.2
351.341	7.12
351.711	6.88
352.081	7.26
352.45	7.2
352.82	7.09
353.19	6.89
353.56	7.33
353.929	7.07
354.299	7
354.669	7.59
355.038	7.29
355.408	7.72
355.777	7.31
356.147	7.42
356.516	7.59
356.885	7.26
357.254	7.83
357.624	7.35
357.993	7.19
358.362	7.54
358.731	7.42
359.1	7.64
359.469	7.54
359.838	7.48
360.207	7.54
360.576	7.85
360.945	7.65
361.314	7.61
361.682	7.19
362.051	7.81
362.42	8.04
362.788	7.65
363.157	7.53
363.525	7.64
363.894	7.5
364.262	7.67
364.631	8.41
364.999	7.75
365.367	8.2
365.735	7.84
366.104	7.71
366.472	8.22
366.84	7.96
367.208	7.92
367.576	7.68
367.944	8.1
368.312	7.9
368.68	8.17
369.048	8.3
369.416	7.69
369.783	8.42
370.151	8.12
370.519	8.14
370.886	8.2
371.254	8.48
371.621	8.15
371.989	8.45
372.356	8.17
372.724	8.14
373.091	8.21
373.458	8.37
373.826	8.3
374.193	8.73
374.56	8.25
374.927	8.23
375.294	8.63
375.661	8.78
376.028	8.51
376.395	8.32
376.762	8.96
377.129	8.74
377.496	8.61
377.863	8.79
378.229	8.77
378.596	8.61
378.963	8.66
379.329	8.7
379.696	8.82
380.062	9.1
380.429	8.95
380.795	9.15
381.161	8.87
381.528	8.65
381.894	9.19
382.26	8.69
382.626	8.71
382.993	9.09
383.359	9.07
383.725	9.26
384.091	9.18
384.457	9.34
384.823	9.13
385.188	9.4
385.554	9.09
385.92	9.58
386.286	9.5
386.651	9.17
387.017	9.32
387.383	9.22
387.748	9.29
388.114	9.47
388.479	9.65
388.845	9.82
389.21	9.66
389.575	9.79
389.94	9.42
390.306	9.53
390.671	9.62
391.036	9.54
391.401	9.77
391.766	9.67
392.131	9.62
392.496	9.69
392.861	9.59
393.226	9.76
393.591	9.7
393.956	9.96
394.32	9.93
394.685	9.88
395.05	9.84
395.414	10.01
395.779	9.8
396.143	9.97
396.508	10.15
396.872	10.07
397.236	9.61
397.601	10.09
397.965	10.06
398.329	10.12
398.694	10.11
399.058	10.27
399.422	10.44
399.786	10.34
400.15	10.26
400.514	10.59
400.878	10.24
401.242	10.41
401.605	10.45
401.969	10.57
402.333	10.5
402.697	10.75
403.06	10.72
403.424	10.44
403.787	10.94
404.151	10.58
404.514	10.64
404.878	10.78
405.241	10.8
405.604	10.63
405.968	10.54
406.331	10.59
406.694	10.81
407.057	11.06
407.42	10.79
407.783	10.81
408.146	10.77
408.509	10.86
408.872	10.91
409.235	11.14
409.598	11.24
409.961	11.24
410.323	11.24
410.686	10.97
411.049	10.88
411.411	11.04
411.774	11.12
412.136	11.1
412.499	11.15
412.861	11.21
413.223	11.42
413.586	11.13
413.948	11.36
414.31	11.57
414.672	11.52
415.035	11.42
415.397	11.65
415.759	11.48
416.121	11.51
416.483	11.67
416.845	11.81
417.206	11.54
417.568	11.6
417.93	11.37
418.292	11.8
418.653	11.63
419.015	11.7
419.377	11.66
419.738	11.54
420.1	11.58
420.461	11.39
420.822	11.64
421.184	11.64
421.545	11.68
421.906	11.68
422.267	11.52
422.629	11.72
422.99	11.65
423.351	11.75
423.712	11.74
424.073	11.86
424.434	11.77
424.795	11.82
425.155	11.87
425.516	11.86
425.877	11.81
426.238	11.87
426.598	11.99
426.959	11.92
427.32	12.07
427.68	12.16
428.041	12.18
428.401	12.27
428.761	12.32
429.122	12.28
429.482	12.19
429.842	12.54
430.202	12.34
430.563	12.42
430.923	12.53
431.283	12.64
431.643	12.47
432.003	12.52
432.363	12.82
432.722	12.62
433.082	12.77
433.442	12.72
433.802	12.9
434.161	12.71
434.521	12.87
434.881	12.84
435.24	12.9
435.6	12.67
435.959	12.85
436.319	12.76
436.678	12.99
437.037	13.19
437.396	13.07
437.756	13.02
438.115	13
438.474	13.13
438.833	13.27
439.192	13.25
439.551	13.33
439.91	13.06
440.269	13.26
440.628	13.23
440.987	13.16
441.345	13.23
441.704	13.29
442.063	13.3
442.421	13.26
442.78	13.09
443.138	13.3
443.497	13.35
443.855	13.43
444.214	13.64
444.572	13.58
444.93	13.66
445.288	13.6
445.647	13.75
446.005	13.68
446.363	13.63
446.721	13.54
447.079	13.66
447.437	13.68
447.795	13.64
448.153	13.55
448.51	13.55
448.868	13.73
449.226	13.66
449.584	13.83
449.941	13.94
450.299	13.97
450.656	14.09
451.014	14.02
451.371	14.06
451.729	14.12
452.086	13.91
452.443	14.21
452.801	14.36
453.158	14.31
453.515	14.31
453.872	14.32
454.229	14.34
454.586	14.4
454.943	14.47
455.3	14.6
455.657	14.44
456.014	14.48
456.371	14.62
456.727	14.64
457.084	14.69
457.441	14.61
457.797	14.74
458.154	14.61
458.51	14.95
458.867	14.73
459.223	15.11
459.58	14.87
459.936	14.96
460.292	14.94
460.648	14.77
461.005	14.71
461.361	14.72
461.717	14.62
462.073	14.8
462.429	14.85
462.785	14.95
463.141	15.12
463.496	15.05
463.852	15.13
464.208	15.18
464.564	15.16
464.919	15.29
465.275	15.32
465.631	15.55
465.986	15.28
466.342	15.37
466.697	15.66
467.052	15.55
467.408	15.54
467.763	15.75
468.118	15.6
468.473	15.82
468.829	15.73
469.184	15.86
469.539	15.77
469.894	15.78
470.249	16.01
470.603	15.96
470.958	16.08
471.313	15.94
471.668	15.97
472.023	16.12
472.377	16.21
472.732	16.13
473.086	16.04
473.441	16.17
473.795	16.23
474.15	16.37
474.504	16.29
474.859	16.19
475.213	16.19
475.567	16.23
475.921	16.45
476.275	16.43
476.63	16.34
476.984	16.58
477.338	16.62
477.692	16.39
478.045	16.59
478.399	16.66
478.753	16.53
479.107	16.58
479.461	16.66
479.814	16.78
480.168	16.7
480.521	16.62
480.875	16.8
481.228	16.82
481.582	16.79
481.935	16.84
482.289	16.82
482.642	16.95
482.995	16.94
483.348	16.76
483.701	16.76
484.055	16.66
484.408	16.63
484.761	16.33
485.114	16.41
485.466	16.31
485.819	16.11
486.172	16.04
486.525	16.12
486.878	16.3
487.23	16.5
487.583	16.62
487.936	16.88
488.288	16.83
488.641	16.67
488.993	16.79
489.345	16.7
489.698	16.69
490.05	16.71
490.402	16.78
490.754	17.07
491.107	17.18
491.459	17.32
491.811	17.41
492.163	17.42
492.515	17.53
492.866	17.19
493.218	17.18
493.57	17.15
493.922	17.13
494.274	17.32
494.625	17.35
494.977	17.69
495.328	18
495.68	18.11
496.031	18.05
496.383	18.2
496.734	18.39
497.086	18.25
497.437	18.41
497.788	18.19
498.139	18.26
498.49	18.37
498.842	18.18
499.193	18.16
499.544	18.42
499.894	18.39
500.245	18.47
500.596	18.44
500.947	18.48
501.298	18.58
501.648	18.76
501.999	18.85
502.35	18.9
502.7	18.91
503.051	19.07
503.401	18.86
503.752	18.84
504.102	19.12
504.452	19.09
504.803	19
505.153	19.05
505.503	18.97
505.853	19.1
506.203	19.16
506.553	19.34
506.903	19.32
507.253	19.35
507.603	19.4
507.953	19.61
508.303	19.66
508.652	19.43
509.002	19.46
509.352	19.47
509.701	19.6
510.051	19.6
510.4	19.29
510.75	19.54
511.099	19.54
511.449	19.52
511.798	19.71
512.147	19.78
512.496	19.74
512.846	19.81
513.195	19.83
513.544	19.66
513.893	19.8
514.242	19.75
514.591	19.94
514.939	19.9
515.288	20.12
515.637	20.07
515.986	20.17
516.334	20.18
516.683	20.3
517.032	20.12
517.38	20.37
517.729	20.36
518.077	20.42
518.426	20.38
518.774	20.4
519.122	20.35
519.47	20.29
519.819	20.21
520.167	20.23
520.515	20.2
520.863	20.21
521.211	20.14
521.559	20.25
521.907	20.46
522.255	20.59
522.602	20.76
522.95	20.83
523.298	20.87
523.645	20.85
523.993	20.98
524.341	21.02
524.688	21.03
525.036	21.13
525.383	21.22
525.73	21.14
526.078	21.16
526.425	21.03
526.772	20.91
527.119	20.93
527.466	20.98
527.814	20.94
528.161	20.94
528.508	20.92
528.854	20.99
529.201	21.07
529.548	20.89
529.895	20.9
530.242	20.77
530.588	20.72
530.935	20.59
531.282	20.66
531.628	20.76
531.975	20.89
532.321	21.19
532.667	21.25
533.014	21.51
533.36	21.51
533.706	21.71
534.052	21.57
534.399	21.51
534.745	21.37
535.091	21.38
535.437	21.38
535.783	21.38
536.129	21.62
536.474	21.72
536.82	21.88
537.166	22.01
537.512	22.08
537.857	22.09
538.203	22.03
538.549	22.13
538.894	22.03
539.239	22.16
539.585	22.22
539.93	22.34
540.276	22.51
540.621	22.58
540.966	22.71
541.311	22.71
541.656	22.62
542.001	22.6
542.346	22.49
542.691	22.37
543.036	22.16
543.381	22.14
543.726	22.14
544.071	22.22
544.415	22.36
544.76	22.39
545.105	22.68
545.449	22.64
545.794	22.83
546.138	22.94
546.483	22.96
546.827	23.17
547.171	23.24
547.516	23.31
547.86	23.22
548.204	23.2
548.548	23.29
548.892	23.37
549.236	23.47
549.58	23.47
549.924	23.5
550.268	23.7
550.612	23.72
550.956	23.9
551.3	23.98
551.643	24.13
551.987	24.01
552.33	24.29
552.674	24.34
553.017	24.21
553.361	24.13
553.704	24.25
554.048	24.38
554.391	24.28
554.734	24.09
555.077	24.3
555.42	24.44
555.764	24.44
556.107	24.6
556.45	24.33
556.793	25.01
557.135	24.62
557.478	24.81
557.821	24.73
558.164	24.87
558.507	24.87
558.849	24.93
559.192	25.08
559.534	24.9
559.877	25.18
560.219	25.32
560.562	25.08
560.904	25.29
561.246	25.21
561.589	25.35
561.931	25.43
562.273	25.56
562.615	25.49
562.957	25.64
563.299	25.48
563.641	25.74
563.983	25.69
564.325	25.57
564.667	25.63
565.008	25.66
565.35	25.92
565.692	25.69
566.033	25.91
566.375	25.65
566.716	25.9
567.058	26.15
567.399	25.99
567.741	25.87
568.082	25.85
568.423	25.86
568.764	25.83
569.105	26.23
569.447	26.16
569.788	26.06
570.129	26.28
570.47	26.32
570.811	26
571.151	26.4
571.492	26.52
571.833	26.31
572.174	26.26
572.514	26.32
572.855	26.57
573.195	26.27
573.536	26.47
573.876	26.38
574.217	26.33
574.557	26.48
574.898	26.21
575.238	26.61
575.578	26.71
575.918	26.58
576.258	26.89
576.598	26.75
576.938	26.93
577.278	26.81
577.618	27.02
577.958	26.95
578.298	27.02
578.638	27.06
578.977	27.11
579.317	27.2
579.657	27.16
579.996	27.2
580.336	27.34
580.675	27.65
581.014	27.36
581.354	27.69
581.693	27.67
582.032	27.52
582.372	27.75
582.711	27.64
583.05	28.06
583.389	28.02
583.728	27.81
584.067	27.86
584.406	28
584.745	28.13
585.083	28.33
585.422	28.27
585.761	28.25
586.1	28.19
586.438	28.24
586.777	28.36
587.115	28.57
587.454	28.43
587.792	28.41
588.13	28.53
588.469	28.47
588.807	28.33
589.145	28.56
589.483	28.37
589.821	28.58
590.159	28.54
590.497	28.54
590.835	28.72
591.173	29.09
591.511	28.99
591.849	28.72
592.187	28.68
592.524	28.68
592.862	28.94
593.2	28.93
593.537	29.11
593.875	28.86
594.212	29.06
594.55	29.1
594.887	29.4
595.224	29.17
595.561	29.14
595.899	29.17
596.236	29.13
596.573	29.04
596.91	29.47
597.247	29.61
597.584	29.2
597.921	29.47
598.258	29.23
598.594	29.32
598.931	29.31
599.268	29.13
599.604	29.22
599.941	29.18
600.277	29.58
600.614	29.47
600.95	29.51
601.287	29.6
601.623	29.76
601.959	29.59
602.296	29.93
602.632	30.42
602.968	29.99
603.304	30.12
603.64	29.97
603.976	29.96
604.312	30.03
604.648	30.19
604.984	30.15
605.319	30.1
605.655	29.99
605.991	30.06
606.326	29.99
606.662	29.95
606.998	30
607.333	30.3
607.668	29.77
608.004	30.14
608.339	30.32
608.674	30.48
609.01	30.5
609.345	31.02
609.68	30.78
610.015	30.63
610.35	30.68
610.685	30.77
611.02	30.65
611.355	30.65
611.689	30.66
612.024	30.9
612.359	30.65
612.694	30.95
613.028	31.14
613.363	30.88
613.697	31.03
614.032	31.57
614.366	30.71
614.7	31.19
615.035	31.35
615.369	31.05
615.703	31.59
616.037	31.32
616.371	31.57
616.705	31.35
617.039	31.89
617.373	31.44
617.707	31.95
618.041	32
618.375	31.81
618.709	31.95
619.042	31.63
619.376	31.83
619.71	31.93
620.043	32.03
620.377	31.76
620.71	31.89
621.043	31.7
621.377	31.46
621.71	31.93
622.043	31.81
622.376	31.95
622.709	32.33
623.043	31.87
623.376	32.21
623.709	32.47
624.041	32.09
624.374	32.17
624.707	32.11
625.04	32.61
625.373	32.26
625.705	32.26
626.038	32.72
626.37	32.76
626.703	32.61
627.035	32.8
627.368	32.47
627.7	32.62
628.032	32.46
628.365	32.5
628.697	32.67
629.029	32.44
629.361	32.54
629.693	32.9
630.025	32.79
630.357	32.98
630.689	33.6
631.021	33.13
631.353	33.09
631.684	32.87
632.016	32.85
632.348	32.96
632.679	33.02
633.011	32.76
633.342	33.14
633.674	32.67
634.005	32.83
634.336	33.14
634.668	33.12
634.999	33.17
635.33	33.59
635.661	33.87
635.992	33.29
636.323	33.6
636.654	33.35
636.985	33.36
637.316	33.52
637.647	33.81
637.977	33.48
638.308	33.58
638.639	33.64
638.969	33.84
639.3	33.94
639.63	33.21
639.961	33.47
640.291	34.38
640.622	33.87
640.952	34.31
641.282	33.56
641.612	34
641.943	34.42
642.273	34.34
642.603	34.31
642.933	33.99
643.263	34.45
643.592	34.17
643.922	34.7
644.252	34.55
644.582	33.85
644.911	34.64
645.241	34.16
645.571	34.74
645.9	34.7
646.23	34.6
646.559	34.31
646.888	34.37
647.218	34.41
647.547	35.07
647.876	34.79
648.205	34.63
648.534	34.61
648.863	35.1
649.192	34.86
649.521	34.87
649.85	35.26
650.179	34.7
650.508	34.95
650.837	34.71
651.165	35.38
651.494	34.6
651.822	35.19
652.151	35.24
652.479	35.66
652.808	35.06
653.136	34.95
653.465	35.19
653.793	35.15
654.121	35.13
654.449	35.39
654.777	35.2
655.105	35.21
655.433	35.76
655.761	35.1
656.089	35.71
656.417	35.34
656.745	36.17
657.073	35.83
657.4	35.4
657.728	35.69
658.056	35.61
658.383	35.9
658.711	35.83
659.038	35.96
659.365	35.5
659.693	35.94
660.02	36.12
660.347	35.96
660.674	35.64
661.001	35.27
661.329	35.66
661.656	36.08
661.982	35.72
662.309	35.54
662.636	35.55
662.963	35.56
663.29	36.04
663.616	36.11
663.943	36.3
664.27	36.43
664.596	36.47
664.923	36.55
665.249	36.9
665.576	36.59
665.902	36.56
666.228	36.65
666.554	35.89
666.881	36.69
667.207	36.49
667.533	36.45
667.859	36.57
668.185	36.92
668.511	36.76
668.837	36.39
669.162	36.99
669.488	37.01
669.814	37.43
670.139	36.91
670.465	36.73
670.791	37.12
671.116	36.71
671.442	36.89
671.767	37.2
672.092	37.29
672.418	36.7
672.743	37.02
673.068	36.99
673.393	37.27
673.718	36.58
674.043	37.47
674.368	37.53
