Data from 0057_chest_Reflection__0__78.txt Node

Date: Fri Dec 16 14:30:34 CST 2022
User: ToomeyLab
Spectrometer: FLMS14357
Trigger mode: 0
Integration Time (sec): 1.000000E-2
Scans to average: 100
Electric dark correction enabled: true
Nonlinearity correction enabled: false
Boxcar width: 0
XAxis mode: Wavelengths
Number of Pixels in Spectrum: 2048
>>>>>Begin Spectral Data<<<<<
189.047	64.96
189.435	64.96
189.823	64.96
190.211	30.61
190.599	-41.38
190.987	177.26
191.375	139.87
191.763	3.31
192.151	12375
192.538	148.94
192.926	899.47
193.314	93.77
193.702	-118.77
194.089	149.53
194.477	-159.29
194.864	-60.91
195.252	144.64
195.639	122.59
196.027	-445
196.414	26.03
196.801	-144.18
197.189	240.3
197.576	25.88
197.963	-145
198.351	5.9
198.738	-41.99
199.125	25.13
199.512	2.86
199.899	-12.56
200.286	1.76
200.673	29.58
201.06	35.18
201.447	4.22
201.833	4.02
202.22	49.48
202.607	-17.43
202.994	-4.42
203.38	-4.45
203.767	10.19
204.154	-37.26
204.54	7.95
204.927	16.91
205.313	12.15
205.699	5.83
206.086	-3.58
206.472	8.1
206.858	12.28
207.245	27.05
207.631	-2.05
208.017	17.63
208.403	22.93
208.789	8.42
209.175	35.79
209.561	0.41
209.947	22.93
210.333	-36.08
210.719	7.34
211.105	-34.83
211.491	-14.75
211.876	-23.83
212.262	-44.85
212.648	-24.92
213.034	-5.43
213.419	18.78
213.805	5.24
214.19	-23.28
214.576	-15.99
214.961	17.26
215.346	-27.78
215.732	-55.99
216.117	-43.06
216.502	-15.76
216.888	-36.03
217.273	7.85
217.658	-6.83
218.043	-11.75
218.428	-5.76
218.813	-21.85
219.198	8.53
219.583	-0.87
219.968	-7.74
220.353	4.57
220.738	1.38
221.122	5.5
221.507	-4.63
221.892	3.53
222.276	6
222.661	-1.15
223.046	3.55
223.43	-1.84
223.815	-4.44
224.199	1.17
224.583	-3.46
224.968	4.47
225.352	5.39
225.736	7.95
226.121	-2.93
226.505	5.95
226.889	1.34
227.273	1.26
227.657	2.55
228.041	2.88
228.425	-0.07
228.809	2.29
229.193	-0.53
229.577	-1.84
229.961	0.9
230.344	0.55
230.728	1.47
231.112	0.32
231.495	1.24
231.879	1.23
232.263	0.35
232.646	-0.94
233.03	0.78
233.413	0.18
233.797	3.26
234.18	-1.28
234.563	0.52
234.946	-0.01
235.33	1.09
235.713	0.19
236.096	0.68
236.479	0.53
236.862	1.55
237.245	1.45
237.628	2.19
238.011	-1.45
238.394	1
238.777	-0.17
239.16	-0.49
239.543	-0.7
239.925	1.45
240.308	1.99
240.691	1.24
241.073	1.51
241.456	0.34
241.838	0.76
242.221	0.7
242.603	0.89
242.986	1.47
243.368	0.72
243.75	0.92
244.133	0.83
244.515	1.08
244.897	0.83
245.279	0.94
245.661	0.85
246.043	1.41
246.425	1.26
246.807	0.9
247.189	0.82
247.571	0.81
247.953	0.91
248.335	1.08
248.717	0.92
249.098	0.97
249.48	0.73
249.862	1.23
250.243	0.81
250.625	1.18
251.006	0.86
251.388	1.45
251.769	1.51
252.151	0.37
252.532	0.69
252.913	1.19
253.295	0.85
253.676	1.02
254.057	0.59
254.438	0.43
254.819	1.1
255.2	-0
255.581	0.41
255.962	1.14
256.343	1.73
256.724	0.22
257.105	0.69
257.486	1.15
257.867	-0.19
258.247	0.56
258.628	0.99
259.009	0.87
259.389	1.55
259.77	0.77
260.15	0.99
260.531	1.04
260.911	1.18
261.292	0.97
261.672	0.78
262.052	0.94
262.432	0.51
262.813	0.94
263.193	0.76
263.573	1.05
263.953	0.37
264.333	1.01
264.713	0.36
265.093	0.38
265.473	1.05
265.853	0.7
266.233	0.83
266.612	1.37
266.992	0.67
267.372	0.75
267.752	1.08
268.131	1.04
268.511	1.14
268.89	0.99
269.27	1
269.649	1.37
270.029	0.96
270.408	0.54
270.787	0.36
271.167	1.38
271.546	0.57
271.925	1.23
272.304	1.09
272.683	0.65
273.062	0.97
273.441	0.49
273.82	1.12
274.199	1.02
274.578	0.58
274.957	0.93
275.336	0.61
275.715	1.28
276.093	1.23
276.472	0.85
276.851	0.87
277.229	1.46
277.608	0.8
277.986	1.01
278.365	1.08
278.743	1.22
279.122	0.29
279.5	0.52
279.878	0.03
280.257	1.24
280.635	0.73
281.013	1.25
281.391	0.91
281.769	0.67
282.147	1.09
282.525	0.72
282.903	1.1
283.281	1.12
283.659	1.24
284.037	0.95
284.415	0.89
284.792	1.07
285.17	1.11
285.548	0.78
285.925	0.77
286.303	0.88
286.68	1.08
287.058	1.15
287.435	0.65
287.813	0.73
288.19	1.27
288.567	0.63
288.945	0.86
289.322	0.89
289.699	0.88
290.076	1.14
290.453	0.68
290.83	0.8
291.207	0.76
291.584	0.9
291.961	1.45
292.338	0.95
292.715	1
293.092	0.88
293.469	1.17
293.845	1.01
294.222	0.81
294.599	1.74
294.975	1.05
295.352	0.93
295.728	1.46
296.105	0.97
296.481	1.44
296.858	1.14
297.234	1.03
297.61	1.09
297.986	1.27
298.363	0.87
298.739	1.46
299.115	0.8
299.491	1.04
299.867	1.17
300.243	1.1
300.619	1.03
300.995	1.03
301.371	1.39
301.746	1.21
302.122	1.19
302.498	0.99
302.874	1.24
303.249	1.13
303.625	1.5
304	0.98
304.376	0.66
304.751	1.31
305.127	1.32
305.502	1.15
305.878	1.26
306.253	1.08
306.628	1.67
307.003	1.3
307.378	1.31
307.754	1.52
308.129	0.74
308.504	1.23
308.879	1.3
309.254	1.5
309.629	1.44
310.003	1.51
310.378	1.49
310.753	1.21
311.128	1.12
311.502	1.2
311.877	1.15
312.252	1.38
312.626	0.93
313.001	1.3
313.375	1.24
313.75	0.98
314.124	1.92
314.498	0.82
314.873	1.19
315.247	0.62
315.621	1.81
315.995	1.3
316.369	1.39
316.743	1.38
317.117	1.56
317.491	1.05
317.865	1.17
318.239	1.4
318.613	1.02
318.987	1.34
319.361	1.45
319.734	1.38
320.108	1.52
320.482	1.89
320.855	1.36
321.229	1.63
321.602	1.67
321.976	1.24
322.349	0.8
322.723	0.78
323.096	1.08
323.469	1.62
323.843	1.35
324.216	1.22
324.589	2.01
324.962	1.1
325.335	1.29
325.708	1.5
326.081	1.54
326.454	1.6
326.827	1.71
327.2	1.7
327.573	1.24
327.945	1.51
328.318	1.86
328.691	1.77
329.063	1.35
329.436	1.7
329.809	1.25
330.181	1.46
330.553	1.91
330.926	1.66
331.298	1.24
331.671	1.01
332.043	1.56
332.415	2.25
332.787	2.04
333.159	1.14
333.532	1.43
333.904	2.02
334.276	1.37
334.648	1.19
335.02	1.27
335.391	1.89
335.763	1.66
336.135	1.98
336.507	1.78
336.879	2.1
337.25	1.76
337.622	1.26
337.993	1.39
338.365	2.17
338.736	1.59
339.108	1.41
339.479	1.08
339.851	1.65
340.222	1.86
340.593	1.84
340.964	1.41
341.336	1.17
341.707	1.78
342.078	1.12
342.449	1.57
342.82	1.52
343.191	1.63
343.562	1.81
343.933	1.47
344.303	2.07
344.674	1.45
345.045	2.12
345.416	1.77
345.786	1.52
346.157	1.34
346.527	1.35
346.898	1.44
347.268	1.43
347.639	1.74
348.009	1.77
348.38	1.47
348.75	1.72
349.12	1.71
349.49	1.44
349.861	1.95
350.231	1.91
350.601	1.94
350.971	1.64
351.341	1.65
351.711	1.54
352.081	1.93
352.45	1.81
352.82	1.92
353.19	1.58
353.56	1.72
353.929	1.77
354.299	1.46
354.669	1.71
355.038	1.56
355.408	1.96
355.777	1.56
356.147	1.93
356.516	1.77
356.885	1.69
357.254	1.93
357.624	1.9
357.993	1.57
358.362	2.1
358.731	1.49
359.1	1.83
359.469	1.97
359.838	1.66
360.207	1.69
360.576	1.71
360.945	1.77
361.314	1.71
361.682	1.54
362.051	1.67
362.42	1.96
362.788	1.78
363.157	1.57
363.525	1.53
363.894	1.63
364.262	1.79
364.631	2.2
364.999	1.26
365.367	2.08
365.735	1.6
366.104	1.56
366.472	1.66
366.84	1.95
367.208	1.51
367.576	1.72
367.944	1.73
368.312	1.71
368.68	2.01
369.048	1.91
369.416	1.75
369.783	2
370.151	1.99
370.519	1.88
370.886	1.61
371.254	1.91
371.621	1.97
371.989	2
372.356	1.68
372.724	1.72
373.091	1.66
373.458	1.9
373.826	1.71
374.193	2.1
374.56	1.63
374.927	1.64
375.294	1.98
375.661	1.97
376.028	1.97
376.395	1.47
376.762	2.08
377.129	2.14
377.496	1.99
377.863	2.04
378.229	1.89
378.596	1.63
378.963	1.56
379.329	1.59
379.696	1.62
380.062	1.88
380.429	1.88
380.795	1.7
381.161	2.03
381.528	1.23
381.894	1.91
382.26	1.72
382.626	1.68
382.993	1.71
383.359	1.89
383.725	2.04
384.091	1.76
384.457	1.89
384.823	2.05
385.188	2.08
385.554	1.71
385.92	1.95
386.286	1.98
386.651	1.89
387.017	2.04
387.383	1.83
387.748	1.69
388.114	1.82
388.479	1.76
388.845	1.92
389.21	2.14
389.575	1.94
389.94	1.79
390.306	1.9
390.671	1.89
391.036	2.04
391.401	2.29
391.766	2.2
392.131	1.92
392.496	2.1
392.861	1.83
393.226	1.95
393.591	2.01
393.956	1.99
394.32	1.9
394.685	2.19
395.05	1.77
395.414	1.96
395.779	1.95
396.143	1.93
396.508	2.12
396.872	2.05
397.236	1.68
397.601	2.25
397.965	1.68
398.329	2.03
398.694	1.87
399.058	1.91
399.422	1.93
399.786	2.05
400.15	1.77
400.514	1.82
400.878	2.05
401.242	2.1
401.605	2.03
401.969	1.89
402.333	1.89
402.697	2.28
403.06	2.16
403.424	2
403.787	2.22
404.151	1.8
404.514	2.07
404.878	1.89
405.241	2.23
405.604	2.23
405.968	1.97
406.331	2.1
406.694	1.87
407.057	2.14
407.42	2.02
407.783	2.07
408.146	1.94
408.509	1.86
408.872	1.92
409.235	2.08
409.598	2.09
409.961	2.27
410.323	2.12
410.686	2.01
411.049	1.74
411.411	2.16
411.774	2.08
412.136	1.97
412.499	1.97
412.861	1.92
413.223	2.01
413.586	2.02
413.948	2.13
414.31	2.19
414.672	1.97
415.035	2.1
415.397	2.14
415.759	1.99
416.121	2.2
416.483	2.22
416.845	2.08
417.206	2.05
417.568	2.07
417.93	2
418.292	2.14
418.653	2.14
419.015	2.25
419.377	2.05
419.738	1.98
420.1	2.05
420.461	2.05
420.822	2.19
421.184	2.05
421.545	2.06
421.906	2.08
422.267	1.98
422.629	2.11
422.99	2.08
423.351	2.05
423.712	2.13
424.073	2.23
424.434	2.06
424.795	2.13
425.155	2.15
425.516	2.08
425.877	2.1
426.238	2
426.598	2.18
426.959	2.1
427.32	2.2
427.68	2.11
428.041	2.21
428.401	2.09
428.761	2.08
429.122	2.04
429.482	2.02
429.842	2.3
430.202	1.99
430.563	2.08
430.923	2.2
431.283	2.24
431.643	2.09
432.003	2.1
432.363	2.22
432.722	2.06
433.082	2.18
433.442	2.16
433.802	2.06
434.161	2.04
434.521	2.1
434.881	2.26
435.24	2.07
435.6	2.26
435.959	2.18
436.319	2.02
436.678	2.04
437.037	2.19
437.396	2.19
437.756	2.4
438.115	2.19
438.474	2.24
438.833	2.35
439.192	2.46
439.551	2.26
439.91	2.25
440.269	2.28
440.628	2.24
440.987	2.12
441.345	2.2
441.704	2.25
442.063	2.27
442.421	2.18
442.78	2.17
443.138	2.13
443.497	2.15
443.855	2.2
444.214	2.29
444.572	2.31
444.93	2.28
445.288	2.36
445.647	2.25
446.005	2.14
446.363	2.22
446.721	2.12
447.079	2.23
447.437	2.19
447.795	2.26
448.153	2.22
448.51	2.21
448.868	2.36
449.226	2.23
449.584	2.2
449.941	2.39
450.299	2.28
450.656	2.45
451.014	2.44
451.371	2.35
451.729	2.34
452.086	2.25
452.443	2.12
452.801	2.41
453.158	2.28
453.515	2.25
453.872	2.45
454.229	2.28
454.586	2.35
454.943	2.26
455.3	2.68
455.657	2.21
456.014	2.42
456.371	2.46
456.727	2.2
457.084	2.24
457.441	2.25
457.797	2.32
458.154	2.25
458.51	2.28
458.867	2.24
459.223	2.38
459.58	2.47
459.936	2.31
460.292	2.4
460.648	2.25
461.005	2.22
461.361	2.26
461.717	2.28
462.073	2.34
462.429	2.47
462.785	2.38
463.141	2.47
463.496	2.25
463.852	2.56
464.208	2.36
464.564	2.25
464.919	2.43
465.275	2.34
465.631	2.34
465.986	2.35
466.342	2.53
466.697	2.47
467.052	2.61
467.408	2.51
467.763	2.43
468.118	2.49
468.473	2.54
468.829	2.42
469.184	2.53
469.539	2.19
469.894	2.2
470.249	2.46
470.603	2.63
470.958	2.57
471.313	2.31
471.668	2.55
472.023	2.65
472.377	2.46
472.732	2.5
473.086	2.32
473.441	2.55
473.795	2.58
474.15	2.47
474.504	2.44
474.859	2.49
475.213	2.5
475.567	2.44
475.921	2.58
476.275	2.49
476.63	2.4
476.984	2.42
477.338	2.75
477.692	2.53
478.045	2.47
478.399	2.65
478.753	2.42
479.107	2.53
479.461	2.55
479.814	2.45
480.168	2.52
480.521	2.55
480.875	2.71
481.228	2.66
481.582	2.5
481.935	2.51
482.289	2.37
482.642	2.66
482.995	2.56
483.348	2.52
483.701	2.55
484.055	2.43
484.408	2.41
484.761	2.39
485.114	2.36
485.466	2.35
485.819	2.4
486.172	2.43
486.525	2.47
486.878	2.47
487.23	2.5
487.583	2.47
487.936	2.52
488.288	2.48
488.641	2.51
488.993	2.44
489.345	2.45
489.698	2.52
490.05	2.47
490.402	2.52
490.754	2.59
491.107	2.56
491.459	2.65
491.811	2.69
492.163	2.59
492.515	2.56
492.866	2.48
493.218	2.49
493.57	2.58
493.922	2.56
494.274	2.59
494.625	2.55
494.977	2.67
495.328	2.73
495.68	2.81
496.031	2.71
496.383	2.6
496.734	2.71
497.086	2.6
497.437	2.76
497.788	2.72
498.139	2.72
498.49	2.75
498.842	2.66
499.193	2.71
499.544	2.86
499.894	2.68
500.245	2.72
500.596	2.82
500.947	2.7
501.298	2.73
501.648	2.81
501.999	2.91
502.35	2.88
502.7	2.87
503.051	2.91
503.401	2.95
503.752	2.79
504.102	2.77
504.452	2.9
504.803	2.63
505.153	2.87
505.503	2.81
505.853	2.86
506.203	2.76
506.553	2.88
506.903	2.87
507.253	2.85
507.603	2.78
507.953	2.93
508.303	2.82
508.652	2.85
509.002	2.91
509.352	2.83
509.701	2.93
510.051	2.89
510.4	2.83
510.75	2.8
511.099	2.94
511.449	2.8
511.798	3.11
512.147	2.87
512.496	2.97
512.846	2.92
513.195	2.98
513.544	2.86
513.893	2.85
514.242	2.96
514.591	2.99
514.939	3.02
515.288	2.94
515.637	3.05
515.986	2.97
516.334	2.99
516.683	3.01
517.032	2.92
517.38	2.98
517.729	3.08
518.077	3.07
518.426	3.05
518.774	2.98
519.122	2.98
519.47	2.97
519.819	3
520.167	3.04
520.515	3
520.863	3.01
521.211	3.04
521.559	3.05
521.907	3
522.255	3.1
522.602	3.17
522.95	3.12
523.298	3.18
523.645	3.06
523.993	3.23
524.341	3.12
524.688	3.19
525.036	3.2
525.383	3.3
525.73	3.27
526.078	3.15
526.425	3.09
526.772	3.03
527.119	3.12
527.466	3.16
527.814	3.1
528.161	3.25
528.508	3.19
528.854	3.09
529.201	3.17
529.548	3.13
529.895	3.07
530.242	3.07
530.588	3.1
530.935	3.11
531.282	3.18
531.628	3.19
531.975	3.24
532.321	3.21
532.667	3.25
533.014	3.2
533.36	3.23
533.706	3.33
534.052	3.25
534.399	3.25
534.745	3.19
535.091	3.23
535.437	3.3
535.783	3.36
536.129	3.3
536.474	3.36
536.82	3.35
537.166	3.4
537.512	3.44
537.857	3.38
538.203	3.37
538.549	3.49
538.894	3.35
539.239	3.57
539.585	3.53
539.93	3.54
540.276	3.44
540.621	3.53
540.966	3.44
541.311	3.6
541.656	3.51
542.001	3.58
542.346	3.46
542.691	3.44
543.036	3.42
543.381	3.5
543.726	3.51
544.071	3.55
544.415	3.54
544.76	3.49
545.105	3.6
545.449	3.54
545.794	3.6
546.138	3.75
546.483	3.59
546.827	3.72
547.171	3.68
547.516	3.87
547.86	3.68
548.204	3.68
548.548	3.69
548.892	3.82
549.236	3.86
549.58	3.84
549.924	3.76
550.268	3.87
550.612	3.98
550.956	3.77
551.3	3.82
551.643	3.89
551.987	3.83
552.33	3.88
552.674	4.03
553.017	4.05
553.361	4.02
553.704	3.89
554.048	4.03
554.391	3.97
554.734	3.94
555.077	4.05
555.42	3.98
555.764	4.04
556.107	4.08
556.45	4.08
556.793	4.35
557.135	4.33
557.478	4.18
557.821	4.14
558.164	4.21
558.507	4.05
558.849	4.15
559.192	4.32
559.534	4.11
559.877	4.31
560.219	4.39
560.562	4.27
560.904	4.2
561.246	4.41
561.589	4.25
561.931	4.42
562.273	4.28
562.615	4.32
562.957	4.34
563.299	4.51
563.641	4.43
563.983	4.41
564.325	4.35
564.667	4.49
565.008	4.51
565.35	4.54
565.692	4.63
566.033	4.55
566.375	4.4
566.716	4.53
567.058	4.6
567.399	4.76
567.741	4.55
568.082	4.5
568.423	4.57
568.764	4.7
569.105	4.78
569.447	4.78
569.788	4.54
570.129	4.75
570.47	4.73
570.811	4.78
571.151	4.75
571.492	4.79
571.833	4.8
572.174	4.85
572.514	4.62
572.855	4.87
573.195	4.81
573.536	4.69
573.876	4.9
574.217	4.93
574.557	4.95
574.898	4.76
575.238	4.79
575.578	5.11
575.918	4.89
576.258	5.04
576.598	4.96
576.938	5.17
577.278	5
577.618	5.09
577.958	5.18
578.298	5.16
578.638	4.99
578.977	5.22
579.317	5.11
579.657	5.32
579.996	5.26
580.336	5.07
580.675	5.33
581.014	5.25
581.354	5.3
581.693	5.19
582.032	5.29
582.372	5.37
582.711	5.25
583.05	5.51
583.389	5.56
583.728	5.51
584.067	5.45
584.406	5.43
584.745	5.36
585.083	5.77
585.422	5.55
585.761	5.81
586.1	5.7
586.438	5.64
586.777	5.7
587.115	5.9
587.454	5.79
587.792	5.82
588.13	5.96
588.469	6.06
588.807	5.97
589.145	6.04
589.483	5.76
589.821	5.85
590.159	5.8
590.497	5.49
590.835	5.89
591.173	5.78
591.511	6.07
591.849	6.05
592.187	6.17
592.524	6
592.862	6.13
593.2	5.78
593.537	5.94
593.875	6.11
594.212	6.17
594.55	6.18
594.887	6.48
595.224	6.01
595.561	6.21
595.899	6.16
596.236	6.26
596.573	6.09
596.91	6.21
597.247	6.27
597.584	6.45
597.921	6.11
598.258	6.35
598.594	6.16
598.931	6.31
599.268	6.4
599.604	6.44
599.941	6.55
600.277	6.51
600.614	6.59
600.95	6.64
601.287	6.1
601.623	6.76
601.959	6.43
602.296	6.72
602.632	7.06
602.968	6.63
603.304	6.45
603.64	6.57
603.976	6.77
604.312	7.02
604.648	6.81
604.984	6.81
605.319	6.91
605.655	6.83
605.991	6.87
606.326	6.74
606.662	6.73
606.998	6.87
607.333	6.79
607.668	6.96
608.004	7.17
608.339	6.99
608.674	6.83
609.01	7.4
609.345	7.16
609.68	7.32
610.015	7.27
610.35	7.2
610.685	7.14
611.02	7.25
611.355	7.36
611.689	7.09
612.024	7.44
612.359	7.46
612.694	7.43
613.028	7.46
613.363	7.38
613.697	7.56
614.032	7.52
614.366	7.44
614.7	7.74
615.035	7.26
615.369	7.41
615.703	7.7
616.037	7.75
616.371	7.31
616.705	7.51
617.039	8
617.373	7.68
617.707	7.75
618.041	7.91
618.375	7.78
618.709	7.76
619.042	8.05
619.376	7.77
619.71	7.99
620.043	7.96
620.377	8.01
620.71	8.24
621.043	7.89
621.377	7.96
621.71	8.32
622.043	8.17
622.376	8.06
622.709	8.27
623.043	8.23
623.376	8.55
623.709	8.56
624.041	7.91
624.374	7.96
624.707	7.91
625.04	8.13
625.373	8.33
625.705	8.14
626.038	8.34
626.37	8.42
626.703	8.48
627.035	8.67
627.368	8.58
627.7	8.45
628.032	8.41
628.365	8.28
628.697	8.58
629.029	8.59
629.361	8.51
629.693	8.89
630.025	8.77
630.357	8.78
630.689	8.99
631.021	8.79
631.353	9.02
631.684	9.02
632.016	8.65
632.348	8.99
632.679	8.82
633.011	8.76
633.342	8.78
633.674	8.94
634.005	8.75
634.336	8.97
634.668	9.35
634.999	9.12
635.33	9.24
635.661	9.35
635.992	9.07
636.323	9.1
636.654	9.48
636.985	8.76
637.316	9.16
637.647	9.26
637.977	9.24
638.308	9
638.639	9.17
638.969	9.24
639.3	9.43
639.63	9.26
639.961	9.62
640.291	10.15
640.622	9.65
640.952	9.72
641.282	9.15
641.612	9.28
641.943	9.81
642.273	9.86
642.603	9.49
642.933	9.8
643.263	10.03
643.592	10.2
643.922	9.84
644.252	10.14
644.582	10.05
644.911	9.77
645.241	9.62
645.571	9.88
645.9	10.46
646.23	9.82
646.559	10.12
646.888	9.75
647.218	10.29
647.547	10.06
647.876	10.42
648.205	10.29
648.534	9.93
648.863	10.54
649.192	9.62
649.521	10.2
649.85	10.7
650.179	9.85
650.508	10.76
650.837	10.43
651.165	10.71
651.494	9.97
651.822	10.43
652.151	10.98
652.479	10.56
652.808	10.33
653.136	10.15
653.465	10.71
653.793	10.73
654.121	10.44
654.449	10.88
654.777	10.54
655.105	10.68
655.433	11.04
655.761	10.08
656.089	11.18
656.417	10.52
656.745	10.98
657.073	11.24
657.4	11.13
657.728	10.93
658.056	10.82
658.383	11.16
658.711	10.94
659.038	11.12
659.365	11.16
659.693	10.95
660.02	11.25
660.347	11.2
660.674	10.88
661.001	11.03
661.329	11.31
661.656	11.23
661.982	11.16
662.309	10.98
662.636	11.1
662.963	11.56
663.29	11.49
663.616	11.44
663.943	11.66
664.27	11.38
664.596	11.6
664.923	12.3
665.249	12.12
665.576	11.66
665.902	11.82
666.228	11.38
666.554	11.68
666.881	11.75
667.207	11.89
667.533	12.12
667.859	11.92
668.185	12.14
668.511	11.6
668.837	11.67
669.162	11.69
669.488	12.22
669.814	12.8
670.139	12.05
670.465	12.45
670.791	12.57
671.116	12.25
671.442	12.72
671.767	12.27
672.092	12.19
672.418	11.99
672.743	12.5
673.068	11.92
673.393	12.6
673.718	12.41
674.043	13.24
674.368	13.09
674.693	12.19
675.018	12.15
675.343	12.69
675.667	12.51
675.992	12.39
676.317	13.06
676.641	13.37
676.966	12.58
677.29	12.67
677.615	12.46
677.939	12.81
678.264	12.23
678.588	12.69
678.912	12.58
679.236	13.03
679.56	12.66
679.885	12.72
680.209	11.89
680.532	12.93
680.856	13.2
681.18	12.99
681.504	12.75
681.828	12.75
682.152	12.79
682.475	12.33
682.799	13.19
683.122	12.88
683.446	13.02
683.769	13.24
684.093	13.48
684.416	13.3
684.739	13.69
685.062	13.51
685.386	13.41
685.709	13.07
686.032	13.55
686.355	13.9
686.678	13.55
687.001	13.24
687.324	13.4
687.646	13.62
687.969	13.71
688.292	14.27
688.614	13.45
688.937	13.4
689.26	12.93
689.582	13.83
689.904	13.62
