Data from 0057_crown_Reflection__4__87.txt Node

Date: Fri Dec 16 14:35:36 CST 2022
User: ToomeyLab
Spectrometer: FLMS14357
Trigger mode: 0
Integration Time (sec): 1.000000E-2
Scans to average: 100
Electric dark correction enabled: true
Nonlinearity correction enabled: false
Boxcar width: 0
XAxis mode: Wavelengths
Number of Pixels in Spectrum: 2048
>>>>>Begin Spectral Data<<<<<
189.047	39.29
189.435	39.29
189.823	39.29
190.211	122.6
190.599	-64.84
190.987	139.76
191.375	-29.94
191.763	145.53
192.151	4412.5
192.538	-72.84
192.926	-1034.84
193.314	51.68
193.702	-111.56
194.089	-396.51
194.477	-177.5
194.864	66.02
195.252	-112.4
195.639	118.62
196.027	38.5
196.414	34.11
196.801	525.51
197.189	252.09
197.576	75.61
197.963	-18887.5
198.351	-51.71
198.738	7.96
199.125	9.07
199.512	18.3
199.899	-13.65
200.286	-18.31
200.673	41.14
201.06	16.8
201.447	-16.3
201.833	-34.73
202.22	19.25
202.607	5.04
202.994	13.33
203.38	-53.04
203.767	-5.1
204.154	-40.97
204.54	4.47
204.927	-9.55
205.313	23.07
205.699	-26
206.086	-41.05
206.472	-2.81
206.858	-1.91
207.245	-11.41
207.631	-28.84
208.017	8.67
208.403	-2.12
208.789	6.69
209.175	2.71
209.561	-11.77
209.947	-10.01
210.333	-61.95
210.719	-40.49
211.105	-54.21
211.491	4.31
211.876	-18.88
212.262	-19.25
212.648	-50.37
213.034	-8.98
213.419	22.57
213.805	-15.51
214.19	-17.28
214.576	-16.78
214.961	1.6
215.346	-16.23
215.732	8.23
216.117	-8.04
216.502	-29
216.888	-17
217.273	-9.63
217.658	-18.11
218.043	-15.72
218.428	7.62
218.813	-37.65
219.198	-7.31
219.583	-15.81
219.968	-21.88
220.353	13.49
220.738	-6.31
221.122	4.51
221.507	-6.93
221.892	21.08
222.276	4.8
222.661	-8.25
223.046	-5.03
223.43	-10.87
223.815	-3.42
224.199	5.48
224.583	-5.36
224.968	5.34
225.352	1.02
225.736	7.05
226.121	-4.45
226.505	3
226.889	3.9
227.273	-1.46
227.657	-4.5
228.041	1.73
228.425	4.17
228.809	0.24
229.193	-0.4
229.577	1.12
229.961	2.62
230.344	3.01
230.728	2.77
231.112	2.44
231.495	1.9
231.879	3.1
232.263	1.68
232.646	1.29
233.03	0.84
233.413	3.56
233.797	4.66
234.18	0.21
234.563	1.21
234.946	2.48
235.33	2.66
235.713	2.87
236.096	2.34
236.479	2.6
236.862	3.23
237.245	3.35
237.628	3.08
238.011	0.9
238.394	3.8
238.777	2.28
239.16	0.56
239.543	2.49
239.925	2.3
240.308	1.8
240.691	1.85
241.073	2.85
241.456	1.6
241.838	1.78
242.221	2.46
242.603	2.57
242.986	2.73
243.368	2.38
243.75	2.06
244.133	2.3
244.515	2.68
244.897	2.42
245.279	1.94
245.661	2.52
246.043	1.76
246.425	2.56
246.807	2.21
247.189	2
247.571	2.51
247.953	2.2
248.335	2.61
248.717	2.4
249.098	2.67
249.48	2.34
249.862	2.37
250.243	2.27
250.625	2.31
251.006	2.72
251.388	2.83
251.769	1.69
252.151	2.56
252.532	2.38
252.913	2.17
253.295	2.16
253.676	2.21
254.057	1.73
254.438	1.92
254.819	2.3
255.2	2.89
255.581	2.07
255.962	1.87
256.343	2.42
256.724	1.78
257.105	1.47
257.486	2.22
257.867	0.96
258.247	1.72
258.628	3.22
259.009	2.64
259.389	2.25
259.77	2.12
260.15	3.1
260.531	2.49
260.911	2.19
261.292	2.24
261.672	2.09
262.052	2.17
262.432	1.92
262.813	2.18
263.193	1.73
263.573	2.4
263.953	2.2
264.333	1.92
264.713	1.94
265.093	2.51
265.473	2.43
265.853	2.1
266.233	1.94
266.612	2.19
266.992	1.83
267.372	2.54
267.752	2.02
268.131	2.44
268.511	2.55
268.89	2.06
269.27	1.88
269.649	2.45
270.029	2.15
270.408	1.84
270.787	2.26
271.167	2.59
271.546	1.79
271.925	2.24
272.304	2.18
272.683	1.94
273.062	2.3
273.441	2.25
273.82	2.61
274.199	2.07
274.578	1.85
274.957	2.36
275.336	1.86
275.715	2.72
276.093	2.65
276.472	2.54
276.851	2.6
277.229	2.39
277.608	1.74
277.986	2.27
278.365	1.86
278.743	2.31
279.122	1.86
279.5	2.08
279.878	1.48
280.257	2.34
280.635	1.69
281.013	2.11
281.391	2.21
281.769	1.88
282.147	2.19
282.525	2.28
282.903	2.12
283.281	1.98
283.659	2.43
284.037	2.17
284.415	2.32
284.792	2.15
285.17	1.98
285.548	1.99
285.925	1.89
286.303	1.91
286.68	1.8
287.058	1.94
287.435	1.9
287.813	2.17
288.19	2.49
288.567	1.9
288.945	2.08
289.322	1.84
289.699	1.62
290.076	2.05
290.453	1.96
290.83	2.1
291.207	1.94
291.584	1.78
291.961	2.07
292.338	1.82
292.715	1.94
293.092	1.84
293.469	1.66
293.845	2.16
294.222	1.91
294.599	2.46
294.975	2.16
295.352	1.77
295.728	2.25
296.105	1.88
296.481	2.4
296.858	1.87
297.234	1.74
297.61	1.87
297.986	1.97
298.363	1.66
298.739	2.1
299.115	1.47
299.491	1.84
299.867	2.07
300.243	1.75
300.619	2.15
300.995	1.82
301.371	2.12
301.746	1.89
302.122	1.9
302.498	2.66
302.874	1.98
303.249	1.71
303.625	2.2
304	1.36
304.376	1.84
304.751	1.78
305.127	1.9
305.502	2.29
305.878	1.82
306.253	1.63
306.628	2.26
307.003	1.75
307.378	1.46
307.754	2.19
308.129	1.87
308.504	1.78
308.879	2.13
309.254	2.6
309.629	1.92
310.003	2.44
310.378	2.04
310.753	1.83
311.128	2.13
311.502	2.01
311.877	1.97
312.252	2.06
312.626	1.86
313.001	1.74
313.375	1.63
313.75	1.89
314.124	2.05
314.498	1.95
314.873	1.92
315.247	1.57
315.621	2.45
315.995	1.87
316.369	1.96
316.743	2.42
317.117	1.78
317.491	2.39
317.865	1.29
318.239	2.8
318.613	1.93
318.987	1.77
319.361	1.69
319.734	1.93
320.108	1.9
320.482	1.72
320.855	1.76
321.229	2.5
321.602	2.08
321.976	1.68
322.349	1.16
322.723	1.88
323.096	1.96
323.469	1.51
323.843	2.15
324.216	1.55
324.589	2.35
324.962	1.78
325.335	1.61
325.708	1.89
326.081	2
326.454	2.11
326.827	2.13
327.2	2.52
327.573	2.14
327.945	1.72
328.318	1.67
328.691	2.18
329.063	1.59
329.436	2.02
329.809	1.89
330.181	1.71
330.553	1.99
330.926	2.15
331.298	1.85
331.671	2.15
332.043	2.5
332.415	1.9
332.787	2.29
333.159	1.71
333.532	2.12
333.904	2.18
334.276	2.07
334.648	2.02
335.02	1.87
335.391	2.05
335.763	2.57
336.135	2.13
336.507	2.12
336.879	1.9
337.25	2.24
337.622	1.67
337.993	2.1
338.365	2.02
338.736	1.78
339.108	1.64
339.479	1.64
339.851	2.4
340.222	2.25
340.593	2.03
340.964	1.94
341.336	1.96
341.707	1.88
342.078	1.3
342.449	2.27
342.82	1.82
343.191	1.66
343.562	1.88
343.933	2.2
344.303	2.24
344.674	1.76
345.045	2.08
345.416	1.76
345.786	1.84
346.157	2.13
346.527	1.82
346.898	1.82
347.268	1.82
347.639	2.09
348.009	2.61
348.38	1.98
348.75	2.2
349.12	2.07
349.49	1.54
349.861	2.18
350.231	2.83
350.601	2.14
350.971	1.79
351.341	2.13
351.711	2.29
352.081	2.43
352.45	2.08
352.82	2.17
353.19	1.76
353.56	1.74
353.929	2.23
354.299	1.56
354.669	2.38
355.038	2.1
355.408	2.26
355.777	1.63
356.147	2.2
356.516	2.27
356.885	1.92
357.254	2.12
357.624	2.18
357.993	1.82
358.362	2.26
358.731	2.03
359.1	2.21
359.469	2.03
359.838	2.13
360.207	1.8
360.576	1.99
360.945	2.16
361.314	2.05
361.682	1.79
362.051	2.09
362.42	2.25
362.788	2.21
363.157	1.93
363.525	1.94
363.894	1.89
364.262	2.22
364.631	2.67
364.999	1.82
365.367	2.42
365.735	1.57
366.104	1.93
366.472	2.28
366.84	2.21
367.208	2.07
367.576	2.15
367.944	1.99
368.312	1.69
368.68	2.35
369.048	2.36
369.416	2.07
369.783	2.06
370.151	1.96
370.519	2.08
370.886	2.39
371.254	2
371.621	2.14
371.989	2.35
372.356	2.17
372.724	2.18
373.091	2.13
373.458	1.99
373.826	2.28
374.193	2.53
374.56	1.94
374.927	1.96
375.294	2.38
375.661	2.24
376.028	2.24
376.395	2
376.762	2.43
377.129	2.35
377.496	2.13
377.863	2.16
378.229	2.17
378.596	2.14
378.963	2.11
379.329	1.99
379.696	2.19
380.062	2.46
380.429	2.25
380.795	2.04
381.161	2.06
381.528	1.71
381.894	2.43
382.26	1.93
382.626	1.82
382.993	2.1
383.359	2.19
383.725	2.4
384.091	2.33
384.457	2.29
384.823	2.26
385.188	2.3
385.554	2.29
385.92	2.25
386.286	2.2
386.651	2.05
387.017	2.21
387.383	2.21
387.748	2.15
388.114	2.31
388.479	2.19
388.845	2.28
389.21	2.25
389.575	2.49
389.94	2.14
390.306	2.17
390.671	2.23
391.036	2.29
391.401	2.56
391.766	2.4
392.131	2.28
392.496	2.38
392.861	2.13
393.226	2.26
393.591	2.46
393.956	2.4
394.32	2.3
394.685	2.61
395.05	2.12
395.414	2.18
395.779	2.21
396.143	2.31
396.508	2.35
396.872	2.37
397.236	2.14
397.601	2.25
397.965	2.02
398.329	2.23
398.694	2.01
399.058	2.17
399.422	2.4
399.786	2.3
400.15	2.35
400.514	2.37
400.878	2.17
401.242	2.58
401.605	2.1
401.969	2.26
402.333	2.13
402.697	2.42
403.06	2.27
403.424	2.33
403.787	2.38
404.151	2.22
404.514	2.44
404.878	2.34
405.241	2.39
405.604	2.33
405.968	2.33
406.331	2.36
406.694	2.34
407.057	2.66
407.42	2.31
407.783	2.27
408.146	2.28
408.509	2.24
408.872	2.23
409.235	2.39
409.598	2.52
409.961	2.35
410.323	2.51
410.686	2.49
411.049	2.3
411.411	2.39
411.774	2.24
412.136	2.47
412.499	2.34
412.861	2.19
413.223	2.66
413.586	2.27
413.948	2.26
414.31	2.45
414.672	2.46
415.035	2.44
415.397	2.45
415.759	2.43
416.121	2.42
416.483	2.53
416.845	2.36
417.206	2.38
417.568	2.46
417.93	2.29
418.292	2.58
418.653	2.21
419.015	2.4
419.377	2.41
419.738	2.4
420.1	2.36
420.461	2.29
420.822	2.29
421.184	2.34
421.545	2.31
421.906	2.35
422.267	2.24
422.629	2.33
422.99	2.39
423.351	2.35
423.712	2.27
424.073	2.4
424.434	2.34
424.795	2.36
425.155	2.26
425.516	2.37
425.877	2.31
426.238	2.32
426.598	2.37
426.959	2.28
427.32	2.4
427.68	2.52
428.041	2.35
428.401	2.34
428.761	2.39
429.122	2.36
429.482	2.35
429.842	2.5
430.202	2.47
430.563	2.3
430.923	2.39
431.283	2.55
431.643	2.38
432.003	2.45
432.363	2.51
432.722	2.39
433.082	2.35
433.442	2.19
433.802	2.42
434.161	2.44
434.521	2.33
434.881	2.46
435.24	2.34
435.6	2.38
435.959	2.34
436.319	2.27
436.678	2.43
437.037	2.52
437.396	2.54
437.756	2.35
438.115	2.49
438.474	2.5
438.833	2.55
439.192	2.49
439.551	2.44
439.91	2.51
440.269	2.51
440.628	2.43
440.987	2.34
441.345	2.37
441.704	2.47
442.063	2.46
442.421	2.47
442.78	2.35
443.138	2.48
443.497	2.51
443.855	2.56
444.214	2.53
444.572	2.35
444.93	2.46
445.288	2.54
445.647	2.59
446.005	2.34
446.363	2.56
446.721	2.4
447.079	2.53
447.437	2.5
447.795	2.37
448.153	2.41
448.51	2.39
448.868	2.54
449.226	2.43
449.584	2.5
449.941	2.48
450.299	2.42
450.656	2.49
451.014	2.37
451.371	2.6
451.729	2.38
452.086	2.27
452.443	2.36
452.801	2.62
453.158	2.58
453.515	2.43
453.872	2.59
454.229	2.31
454.586	2.46
454.943	2.46
455.3	2.56
455.657	2.42
456.014	2.6
456.371	2.52
456.727	2.55
457.084	2.54
457.441	2.4
457.797	2.53
458.154	2.55
458.51	2.43
458.867	2.4
459.223	2.56
459.58	2.43
459.936	2.42
460.292	2.49
460.648	2.34
461.005	2.42
461.361	2.5
461.717	2.37
462.073	2.57
462.429	2.54
462.785	2.52
463.141	2.54
463.496	2.47
463.852	2.53
464.208	2.48
464.564	2.49
464.919	2.35
465.275	2.62
465.631	2.52
465.986	2.48
466.342	2.52
466.697	2.55
467.052	2.57
467.408	2.51
467.763	2.38
468.118	2.51
468.473	2.66
468.829	2.46
469.184	2.68
469.539	2.37
469.894	2.4
470.249	2.56
470.603	2.65
470.958	2.57
471.313	2.29
471.668	2.61
472.023	2.62
472.377	2.6
472.732	2.5
473.086	2.45
473.441	2.53
473.795	2.66
474.15	2.46
474.504	2.65
474.859	2.64
475.213	2.64
475.567	2.4
475.921	2.59
476.275	2.59
476.63	2.34
476.984	2.49
477.338	2.7
477.692	2.57
478.045	2.51
478.399	2.58
478.753	2.49
479.107	2.62
479.461	2.62
479.814	2.58
480.168	2.67
480.521	2.62
480.875	2.73
481.228	2.59
481.582	2.56
481.935	2.5
482.289	2.58
482.642	2.59
482.995	2.53
483.348	2.51
483.701	2.56
484.055	2.47
484.408	2.45
484.761	2.39
485.114	2.38
485.466	2.38
485.819	2.42
486.172	2.49
486.525	2.51
486.878	2.49
487.23	2.56
487.583	2.51
487.936	2.53
488.288	2.44
488.641	2.41
488.993	2.43
489.345	2.44
489.698	2.5
490.05	2.51
490.402	2.57
490.754	2.63
491.107	2.55
491.459	2.7
491.811	2.6
492.163	2.65
492.515	2.54
492.866	2.38
493.218	2.43
493.57	2.54
493.922	2.49
494.274	2.55
494.625	2.6
494.977	2.66
495.328	2.72
495.68	2.73
496.031	2.74
496.383	2.65
496.734	2.8
497.086	2.56
497.437	2.63
497.788	2.56
498.139	2.58
498.49	2.63
498.842	2.58
499.193	2.67
499.544	2.66
499.894	2.62
500.245	2.53
500.596	2.61
500.947	2.74
501.298	2.7
501.648	2.7
501.999	2.75
502.35	2.63
502.7	2.79
503.051	2.73
503.401	2.64
503.752	2.59
504.102	2.61
504.452	2.56
504.803	2.49
505.153	2.63
505.503	2.55
505.853	2.63
506.203	2.6
506.553	2.64
506.903	2.68
507.253	2.7
507.603	2.57
507.953	2.73
508.303	2.71
508.652	2.54
509.002	2.63
509.352	2.73
509.701	2.63
510.051	2.71
510.4	2.64
510.75	2.69
511.099	2.66
511.449	2.68
511.798	2.75
512.147	2.63
512.496	2.72
512.846	2.64
513.195	2.69
513.544	2.6
513.893	2.59
514.242	2.81
514.591	2.71
514.939	2.61
515.288	2.69
515.637	2.77
515.986	2.64
516.334	2.86
516.683	2.66
517.032	2.57
517.38	2.68
517.729	2.59
518.077	2.77
518.426	2.66
518.774	2.68
519.122	2.65
519.47	2.59
519.819	2.64
520.167	2.64
520.515	2.62
520.863	2.69
521.211	2.69
521.559	2.65
521.907	2.66
522.255	2.67
522.602	2.7
522.95	2.71
523.298	2.62
523.645	2.64
523.993	2.64
524.341	2.65
524.688	2.74
525.036	2.8
525.383	2.68
525.73	2.74
526.078	2.72
526.425	2.75
526.772	2.53
527.119	2.55
527.466	2.65
527.814	2.59
528.161	2.69
528.508	2.66
528.854	2.55
529.201	2.65
529.548	2.56
529.895	2.49
530.242	2.51
530.588	2.58
530.935	2.59
531.282	2.64
531.628	2.68
531.975	2.71
532.321	2.67
532.667	2.63
533.014	2.62
533.36	2.67
533.706	2.7
534.052	2.6
534.399	2.55
534.745	2.53
535.091	2.56
535.437	2.66
535.783	2.74
536.129	2.67
536.474	2.75
536.82	2.72
537.166	2.75
537.512	2.75
537.857	2.65
538.203	2.68
538.549	2.74
538.894	2.76
539.239	2.82
539.585	2.74
539.93	2.7
540.276	2.66
540.621	2.71
540.966	2.7
541.311	2.81
541.656	2.61
542.001	2.76
542.346	2.63
542.691	2.58
543.036	2.57
543.381	2.67
543.726	2.69
544.071	2.75
544.415	2.64
544.76	2.64
545.105	2.67
545.449	2.68
545.794	2.74
546.138	2.84
546.483	2.71
546.827	2.72
547.171	2.73
547.516	2.89
547.86	2.74
548.204	2.66
548.548	2.86
548.892	2.79
549.236	2.71
549.58	2.82
549.924	2.77
550.268	2.74
550.612	2.81
550.956	2.69
551.3	2.72
551.643	2.76
551.987	2.76
552.33	2.73
552.674	2.86
553.017	2.82
553.361	2.88
553.704	2.76
554.048	2.82
554.391	2.67
554.734	2.75
555.077	2.88
555.42	2.86
555.764	2.87
556.107	2.67
556.45	2.64
556.793	3.05
557.135	2.89
557.478	2.99
557.821	2.61
558.164	2.82
558.507	2.93
558.849	2.75
559.192	2.91
559.534	2.64
559.877	2.87
560.219	2.95
560.562	2.78
560.904	2.79
561.246	3.01
561.589	2.82
561.931	3.05
562.273	2.82
562.615	2.86
562.957	2.85
563.299	2.84
563.641	2.94
563.983	2.84
564.325	2.87
564.667	2.87
565.008	2.81
565.35	2.93
565.692	2.92
566.033	2.91
566.375	2.59
566.716	2.95
567.058	2.9
567.399	2.74
567.741	2.84
568.082	2.82
568.423	2.87
568.764	2.95
569.105	2.87
569.447	2.9
569.788	2.8
570.129	2.8
570.47	2.95
570.811	2.91
571.151	2.8
571.492	3.09
571.833	2.81
572.174	2.9
572.514	2.96
572.855	2.91
573.195	2.77
573.536	2.9
573.876	2.86
574.217	2.84
574.557	2.87
574.898	2.73
575.238	2.72
575.578	3.05
575.918	2.77
576.258	2.78
576.598	2.84
576.938	3.01
577.278	2.81
577.618	2.8
577.958	2.86
578.298	3.01
578.638	2.92
578.977	3
579.317	2.95
579.657	2.87
579.996	2.71
580.336	2.65
580.675	3.02
581.014	2.81
581.354	2.97
581.693	2.87
582.032	2.61
582.372	2.85
582.711	2.88
583.05	3.15
583.389	2.87
583.728	3
584.067	3
584.406	2.92
584.745	2.96
585.083	3.21
585.422	2.85
585.761	2.97
586.1	3.08
586.438	3.05
586.777	2.98
587.115	3.07
587.454	2.93
587.792	2.85
588.13	3.23
588.469	3.15
588.807	2.96
589.145	3.12
589.483	2.93
589.821	2.92
590.159	2.83
590.497	2.68
590.835	2.71
591.173	3.33
591.511	2.93
591.849	3.04
592.187	3.1
592.524	2.86
592.862	2.89
593.2	2.77
593.537	2.98
593.875	3.09
594.212	2.98
594.55	2.86
594.887	3.1
595.224	2.95
595.561	2.86
595.899	2.99
596.236	2.92
596.573	3.03
596.91	3.01
597.247	2.99
597.584	3.01
597.921	2.84
598.258	2.94
598.594	2.79
598.931	2.91
599.268	2.88
599.604	3.18
599.941	3.14
600.277	3.19
600.614	3.12
600.95	3.08
601.287	2.94
601.623	3.19
601.959	2.89
602.296	2.98
602.632	3.13
602.968	2.88
603.304	3.07
603.64	3.11
603.976	3.08
604.312	3.28
604.648	3.06
604.984	2.91
605.319	2.86
605.655	2.91
605.991	2.93
606.326	2.96
606.662	2.9
606.998	3.07
607.333	2.98
607.668	2.99
608.004	2.94
608.339	2.83
608.674	3
609.01	3.03
609.345	3.22
609.68	2.77
610.015	3.19
610.35	2.79
610.685	2.93
611.02	3.2
611.355	2.92
611.689	2.89
612.024	3.16
612.359	3.01
612.694	2.89
613.028	3.26
613.363	2.9
613.697	3.27
614.032	3.26
614.366	3.07
614.7	3.36
615.035	2.83
615.369	3.14
615.703	3.3
616.037	3.29
616.371	3.13
616.705	3.09
617.039	3.23
617.373	3.27
617.707	2.93
618.041	3.38
618.375	2.96
618.709	3.26
619.042	3.09
619.376	2.58
619.71	2.89
620.043	3.26
620.377	3.01
620.71	2.85
621.043	3.11
621.377	2.9
621.71	3.35
622.043	3.25
622.376	3.01
622.709	3.36
623.043	2.97
623.376	3.24
623.709	3.37
624.041	2.99
624.374	3
624.707	3.27
625.04	3.21
625.373	2.93
625.705	3.35
626.038	3.38
626.37	2.97
626.703	3.18
627.035	3.35
627.368	3.28
627.7	3.31
628.032	3.1
628.365	3
628.697	3.09
629.029	3.27
629.361	3.08
629.693	3.43
630.025	3.24
630.357	3.24
630.689	3.4
631.021	3.09
631.353	3.16
631.684	3.16
632.016	3
632.348	3.16
632.679	3.02
633.011	3.36
633.342	3.44
633.674	3.05
634.005	3.24
634.336	3.11
634.668	2.93
634.999	3.05
635.33	3.06
635.661	3.46
635.992	3.04
636.323	3.37
636.654	3.18
636.985	3.11
637.316	3.23
637.647	3.28
637.977	3.08
638.308	2.78
638.639	3.14
638.969	2.91
639.3	3.09
639.63	2.92
639.961	3.15
640.291	3.75
640.622	3.33
640.952	3.27
641.282	3.01
641.612	3.29
641.943	3.24
642.273	3.41
642.603	3.29
642.933	3.12
643.263	3.28
643.592	3.4
643.922	3.64
644.252	3.37
644.582	3.22
644.911	3.04
645.241	3.31
645.571	3.39
645.9	3.69
646.23	3.1
646.559	3.57
646.888	3.19
647.218	3.29
647.547	3.51
647.876	3.36
648.205	3.49
648.534	3.17
648.863	3.68
649.192	3.1
649.521	3.15
649.85	3.44
650.179	3.12
650.508	3.61
650.837	3.38
651.165	3.48
651.494	3.6
651.822	3.22
652.151	3.8
652.479	3.79
652.808	3.18
653.136	3.35
653.465	3.52
653.793	3.42
654.121	3.61
654.449	3.28
654.777	3.48
655.105	3.63
655.433	3.66
655.761	2.7
656.089	3.54
656.417	3.25
656.745	4.07
657.073	3.48
657.4	3.08
657.728	3.38
658.056	3.14
658.383	3.29
658.711	3.17
659.038	3.8
659.365	3.34
659.693	2.99
660.02	2.88
660.347	3.47
660.674	2.99
661.001	2.8
661.329	3.31
661.656	3.21
661.982	3.42
662.309	3.31
662.636	3.5
662.963	3.67
663.29	3.13
663.616	3.32
663.943	3.35
664.27	3.09
664.596	3.15
664.923	3.57
665.249	3.24
665.576	3.1
665.902	3.63
666.228	3.03
666.554	3.32
666.881	3.36
667.207	3.26
667.533	3.71
667.859	3.58
668.185	3.69
668.511	2.94
668.837	3.07
669.162	3.65
669.488	3.4
669.814	3.98
670.139	3.88
670.465	3.58
670.791	3.66
671.116	3.35
671.442	3.74
671.767	3.7
672.092	3.35
672.418	3.43
672.743	3.53
673.068	2.8
673.393	3.91
673.718	3.29
674.043	3.43
674.368	3.79
674.693	3.54
675.018	4.38
675.343	3.82
675.667	3.84
675.992	3.32
676.317	3.76
676.641	3.58
676.966	3.75
677.29	3.46
677.615	3.87
677.939	3.09
678.264	3.84
678.588	3.66
678.912	3.79
679.236	3.36
679.56	3.36
679.885	3.55
680.209	3.15
680.532	3.26
680.856	3.9
681.18	3.25
681.504	3.55
681.828	3.37
682.152	3.58
682.475	3.27
682.799	3.58
683.122	3.47
683.446	2.83
683.769	3.44
684.093	3.64
684.416	3.5
684.739	3.4
685.062	3.26
685.386	3.58
685.709	3.43
686.032	3.25
686.355	3.57
686.678	3.44
687.001	2.94
687.324	2.87
687.646	3.56
687.969	3.58
688.292	3.78
688.614	4.14
688.937	3.39
689.26	2.8
689.582	3.35
689.904	3.79
690.227	3.96
690.549	3.79
690.871	4.01
691.194	3.73
691.516	3.41
691.838	3.51
692.16	3.8
692.482	3.62
692.804	3.07
