Data from 22-1_crown_Reflection__3__219.txt Node

Date: Thu Dec 15 18:11:50 CST 2022
User: ToomeyLab
Spectrometer: FLMS14357
Trigger mode: 0
Integration Time (sec): 1.000000E-2
Scans to average: 100
Electric dark correction enabled: true
Nonlinearity correction enabled: false
Boxcar width: 0
XAxis mode: Wavelengths
Number of Pixels in Spectrum: 2048
>>>>>Begin Spectral Data<<<<<
189.047	11.79
189.435	11.79
189.823	11.79
190.211	94.61
190.599	34.9
190.987	77.27
191.375	71.85
191.763	-107.59
192.151	124.76
192.538	87.9
192.926	429.26
193.314	514.99
193.702	625.15
194.089	58.84
194.477	65.29
194.864	123.7
195.252	243.79
195.639	94.36
196.027	-6.6
196.414	26.08
196.801	45.84
197.189	36.27
197.576	68.96
197.963	108.05
198.351	-19.45
198.738	-19.65
199.125	-147.71
199.512	20.97
199.899	-55.01
200.286	-4.43
200.673	41.25
201.06	59.03
201.447	6.09
201.833	20.13
202.22	-18.14
202.607	12.14
202.994	1.95
203.38	-4.4
203.767	31.92
204.154	27.42
204.54	3.9
204.927	13.38
205.313	11.12
205.699	29.94
206.086	28.97
206.472	-15.9
206.858	-4.87
207.245	-12.46
207.631	-30.13
208.017	38.37
208.403	-104.74
208.789	11.93
209.175	-24.39
209.561	-72.7
209.947	7.03
210.333	-35.73
210.719	25.54
211.105	15.15
211.491	-9.48
211.876	-10.67
212.262	24.66
212.648	28.12
213.034	-19.13
213.419	6.44
213.805	-28.37
214.19	-9.6
214.576	-39.81
214.961	14.35
215.346	-35.75
215.732	-10.74
216.117	0.71
216.502	-32.13
216.888	6.62
217.273	-9.38
217.658	-57.1
218.043	-40.83
218.428	-19.29
218.813	14.96
219.198	-48.47
219.583	5.8
219.968	-26.11
220.353	-39.35
220.738	-10.11
221.122	-30.51
221.507	-21.02
221.892	-14.95
222.276	-19.41
222.661	-25.39
223.046	-11.03
223.43	17.5
223.815	-4.78
224.199	-5.41
224.583	4.2
224.968	-2.24
225.352	-9.97
225.736	-3.02
226.121	1.85
226.505	-5.83
226.889	0.06
227.273	-5.44
227.657	0.77
228.041	2.55
228.425	-2.52
228.809	-3.39
229.193	0.84
229.577	1.23
229.961	0.39
230.344	1.09
230.728	1.85
231.112	2.24
231.495	-0.73
231.879	0.14
232.263	0.74
232.646	-0.25
233.03	1.91
233.413	2.64
233.797	-1.7
234.18	3.03
234.563	-1.36
234.946	-0.41
235.33	0.26
235.713	-0.02
236.096	1.21
236.479	1.65
236.862	0.22
237.245	2.11
237.628	2.62
238.011	1.48
238.394	-0.55
238.777	-1.33
239.16	1.3
239.543	2.02
239.925	1.28
240.308	-2.43
240.691	0.03
241.073	1.47
241.456	1.8
241.838	1.06
242.221	0.75
242.603	1.6
242.986	1.5
243.368	1.52
243.75	1.74
244.133	1.5
244.515	1.3
244.897	1.28
245.279	0.46
245.661	1.33
246.043	1.2
246.425	0.82
246.807	0.68
247.189	0.53
247.571	1.15
247.953	0.75
248.335	1.28
248.717	1.4
249.098	1.54
249.48	0.96
249.862	1.16
250.243	1.28
250.625	1.23
251.006	1.82
251.388	1.03
251.769	0.43
252.151	1.57
252.532	0.48
252.913	1.05
253.295	1.2
253.676	0.91
254.057	1.08
254.438	1.2
254.819	1.56
255.2	1.4
255.581	1.87
255.962	1.15
256.343	1.19
256.724	0.83
257.105	0.35
257.486	0
257.867	0.91
258.247	1.58
258.628	0.03
259.009	1.38
259.389	0.42
259.77	0.49
260.15	1.8
260.531	1.24
260.911	1.45
261.292	1.19
261.672	1.36
262.052	1.21
262.432	1.06
262.813	1.86
263.193	0.98
263.573	1.04
263.953	0.46
264.333	1.52
264.713	0.87
265.093	0.38
265.473	-0.04
265.853	1.43
266.233	1.51
266.612	0.33
266.992	0.74
267.372	1.59
267.752	1.39
268.131	1.24
268.511	0.95
268.89	1.83
269.27	0.69
269.649	0.88
270.029	1.15
270.408	0.71
270.787	1.44
271.167	1.26
271.546	1.5
271.925	1.74
272.304	0.72
272.683	0.6
273.062	1.16
273.441	0.9
273.82	1.53
274.199	1.13
274.578	1.39
274.957	1.13
275.336	1.48
275.715	1.31
276.093	0.91
276.472	0.66
276.851	1.13
277.229	0.65
277.608	0.92
277.986	1.12
278.365	0.93
278.743	0.76
279.122	1.47
279.5	0.95
279.878	1.03
280.257	0.81
280.635	1.5
281.013	0.63
281.391	0.91
281.769	1.22
282.147	1.01
282.525	0.74
282.903	0.85
283.281	2.02
283.659	1.5
284.037	0.89
284.415	0.79
284.792	1.19
285.17	0.95
285.548	0.88
285.925	1.31
286.303	1.39
286.68	1.06
287.058	1.23
287.435	1.01
287.813	1.52
288.19	1.06
288.567	1
288.945	0.42
289.322	1.21
289.699	1.61
290.076	1.19
290.453	0.9
290.83	1.31
291.207	1.12
291.584	1.51
291.961	1.01
292.338	1.11
292.715	0.8
293.092	0.97
293.469	1.41
293.845	1.17
294.222	1.6
294.599	0.78
294.975	0.74
295.352	1.29
295.728	1.14
296.105	1.09
296.481	1.24
296.858	1.22
297.234	0.72
297.61	1.29
297.986	1.38
298.363	1.41
298.739	1.28
299.115	1.34
299.491	1.56
299.867	1.22
300.243	0.97
300.619	1.18
300.995	1.24
301.371	1.62
301.746	1.38
302.122	0.62
302.498	0.93
302.874	1.62
303.249	1.52
303.625	1.07
304	1.16
304.376	1.41
304.751	1.37
305.127	1.21
305.502	1.55
305.878	1.37
306.253	1.11
306.628	1.23
307.003	1.02
307.378	1.1
307.754	1.14
308.129	1.22
308.504	0.96
308.879	1.41
309.254	1.63
309.629	1.21
310.003	1.54
310.378	1.79
310.753	1.24
311.128	0.97
311.502	1.54
311.877	1.18
312.252	1.36
312.626	2.05
313.001	1.16
313.375	1.78
313.75	1.53
314.124	1.45
314.498	1.78
314.873	1.18
315.247	1.26
315.621	0.98
315.995	1.48
316.369	1.15
316.743	1.39
317.117	1.18
317.491	1.31
317.865	0.44
318.239	1.95
318.613	1.45
318.987	0.91
319.361	0.92
319.734	1.3
320.108	1.01
320.482	1.52
320.855	1.02
321.229	1.24
321.602	1.53
321.976	0.92
322.349	1.53
322.723	1.23
323.096	1.14
323.469	1.34
323.843	1.09
324.216	1.59
324.589	1.66
324.962	1.48
325.335	1.15
325.708	1.3
326.081	1.38
326.454	1.81
326.827	1.22
327.2	0.66
327.573	2.09
327.945	1.09
328.318	1.33
328.691	1.41
329.063	1.13
329.436	1.09
329.809	1.49
330.181	2.14
330.553	1.49
330.926	1.43
331.298	1.33
331.671	1.62
332.043	1.53
332.415	1.92
332.787	1.73
333.159	1.38
333.532	1.49
333.904	1.36
334.276	1.97
334.648	1.62
335.02	1.44
335.391	0.83
335.763	1.36
336.135	1.47
336.507	1.12
336.879	1.31
337.25	1.41
337.622	1.13
337.993	1.74
338.365	1.47
338.736	1.85
339.108	1.45
339.479	1.61
339.851	1.83
340.222	2.11
340.593	1.46
340.964	1.48
341.336	1.16
341.707	1.08
342.078	0.94
342.449	1.74
342.82	1.58
343.191	1.64
343.562	1.32
343.933	1.18
344.303	2.03
344.674	1.95
345.045	1.38
345.416	2
345.786	1.19
346.157	1.65
346.527	1.52
346.898	0.96
347.268	1.87
347.639	1.42
348.009	1.71
348.38	1.39
348.75	1.95
349.12	1.12
349.49	1.57
349.861	1.43
350.231	1.4
350.601	1.13
350.971	1.47
351.341	1.77
351.711	1.56
352.081	1.4
352.45	1.16
352.82	1.35
353.19	1.5
353.56	1.74
353.929	1.88
354.299	1.7
354.669	1.83
355.038	1.99
355.408	1.52
355.777	1.77
356.147	1.49
356.516	1.49
356.885	1.62
357.254	1.24
357.624	1.03
357.993	1.51
358.362	1.75
358.731	1.75
359.1	1.7
359.469	1.75
359.838	1.68
360.207	1.53
360.576	1.48
360.945	1.85
361.314	1.55
361.682	1.38
362.051	1.48
362.42	1.48
362.788	1.54
363.157	1.55
363.525	1.57
363.894	1.4
364.262	1.62
364.631	1.72
364.999	1.57
365.367	1.35
365.735	1.87
366.104	1.67
366.472	1.33
366.84	1.47
367.208	1.95
367.576	1.64
367.944	1.25
368.312	1.44
368.68	1.86
369.048	1.68
369.416	1.21
369.783	1.57
370.151	1.95
370.519	1.88
370.886	1.99
371.254	1.73
371.621	1.65
371.989	1.56
372.356	1.56
372.724	1.65
373.091	1.49
373.458	1.55
373.826	1.85
374.193	1.61
374.56	1.69
374.927	1.25
375.294	1.72
375.661	1.73
376.028	1.47
376.395	1.77
376.762	1.33
377.129	1.33
377.496	1.72
377.863	1.99
378.229	1.84
378.596	1.87
378.963	1.68
379.329	1.88
379.696	1.46
380.062	1.68
380.429	1.68
380.795	1.54
381.161	1.33
381.528	1.3
381.894	1.54
382.26	1.73
382.626	1.74
382.993	1.75
383.359	1.43
383.725	1.23
384.091	1.92
384.457	1.49
384.823	1.71
385.188	1.95
385.554	1.92
385.92	1.39
386.286	1.72
386.651	1.59
387.017	1.95
387.383	1.54
387.748	1.8
388.114	1.63
388.479	1.6
388.845	1.47
389.21	1.92
389.575	2
389.94	1.99
390.306	1.7
390.671	1.71
391.036	1.6
391.401	1.66
391.766	1.71
392.131	2.03
392.496	1.71
392.861	1.61
393.226	1.66
393.591	1.82
393.956	1.67
394.32	1.92
394.685	1.9
395.05	1.64
395.414	1.67
395.779	1.92
396.143	1.61
396.508	1.45
396.872	1.52
397.236	1.99
397.601	1.92
397.965	1.76
398.329	1.81
398.694	1.74
399.058	1.95
399.422	1.63
399.786	1.65
400.15	1.74
400.514	1.84
400.878	1.81
401.242	1.85
401.605	1.8
401.969	1.65
402.333	1.52
402.697	1.97
403.06	1.65
403.424	1.97
403.787	1.79
404.151	1.88
404.514	1.79
404.878	1.72
405.241	1.65
405.604	1.63
405.968	1.94
406.331	1.84
406.694	1.78
407.057	1.68
407.42	1.72
407.783	1.81
408.146	1.66
408.509	1.88
408.872	1.84
409.235	1.69
409.598	1.78
409.961	1.97
410.323	1.7
410.686	1.57
411.049	1.85
411.411	1.77
411.774	1.82
412.136	1.64
412.499	2.03
412.861	1.27
413.223	1.79
413.586	1.74
413.948	2.09
414.31	1.86
414.672	1.83
415.035	2.12
415.397	1.7
415.759	1.57
416.121	1.83
416.483	1.64
416.845	1.76
417.206	1.69
417.568	1.75
417.93	1.97
418.292	1.6
418.653	1.58
419.015	1.81
419.377	1.63
419.738	1.81
420.1	1.72
420.461	1.65
420.822	1.87
421.184	1.67
421.545	1.88
421.906	1.77
422.267	1.74
422.629	1.76
422.99	1.71
423.351	1.67
423.712	1.77
424.073	1.85
424.434	1.92
424.795	1.71
425.155	1.74
425.516	1.65
425.877	1.7
426.238	1.74
426.598	1.76
426.959	1.7
427.32	1.78
427.68	1.74
428.041	1.83
428.401	1.72
428.761	1.8
429.122	1.87
429.482	1.78
429.842	1.79
430.202	1.78
430.563	1.64
430.923	1.85
431.283	1.9
431.643	1.91
432.003	1.89
432.363	1.84
432.722	1.81
433.082	1.85
433.442	1.86
433.802	1.86
434.161	1.71
434.521	1.91
434.881	1.79
435.24	1.88
435.6	1.81
435.959	1.77
436.319	1.71
436.678	1.79
437.037	1.75
437.396	1.88
437.756	1.68
438.115	1.87
438.474	1.83
438.833	1.75
439.192	1.73
439.551	1.74
439.91	1.8
440.269	1.86
440.628	1.72
440.987	1.78
441.345	1.88
441.704	1.78
442.063	1.79
442.421	1.88
442.78	1.82
443.138	1.77
443.497	1.8
443.855	1.92
444.214	1.72
444.572	1.93
444.93	1.88
445.288	1.8
445.647	1.83
446.005	1.85
446.363	1.8
446.721	1.92
447.079	1.77
447.437	1.84
447.795	1.92
448.153	1.82
448.51	1.87
448.868	1.73
449.226	1.86
449.584	1.74
449.941	1.8
450.299	1.78
450.656	1.86
451.014	1.93
451.371	1.91
451.729	1.76
452.086	1.77
452.443	1.96
452.801	1.85
453.158	2.14
453.515	1.71
453.872	1.91
454.229	1.64
454.586	1.64
454.943	1.82
455.3	1.82
455.657	1.79
456.014	1.9
456.371	1.94
456.727	2.03
457.084	2.08
457.441	1.81
457.797	1.84
458.154	1.84
458.51	1.65
458.867	1.8
459.223	1.79
459.58	1.77
459.936	1.82
460.292	1.87
460.648	1.83
461.005	1.85
461.361	1.77
461.717	1.85
462.073	1.92
462.429	1.82
462.785	1.92
463.141	1.92
463.496	1.91
463.852	2
464.208	1.96
464.564	1.73
464.919	1.85
465.275	1.71
465.631	2.04
465.986	1.92
466.342	1.76
466.697	1.82
467.052	1.97
467.408	1.94
467.763	1.91
468.118	1.81
468.473	1.91
468.829	1.79
469.184	2.01
469.539	1.77
469.894	2.05
470.249	1.88
470.603	2.05
470.958	1.97
471.313	1.91
471.668	1.93
472.023	1.97
472.377	1.82
472.732	2.05
473.086	1.85
473.441	1.89
473.795	2
474.15	1.96
474.504	1.93
474.859	1.75
475.213	1.9
475.567	1.72
475.921	1.78
476.275	1.93
476.63	1.91
476.984	1.85
477.338	2.09
477.692	1.84
478.045	1.95
478.399	1.84
478.753	1.92
479.107	1.85
479.461	1.82
479.814	1.99
480.168	1.87
480.521	1.99
480.875	1.91
481.228	1.93
481.582	1.78
481.935	2.07
482.289	1.88
482.642	2.03
482.995	1.91
483.348	1.79
483.701	1.82
484.055	1.84
484.408	1.88
484.761	1.84
485.114	1.78
485.466	1.75
485.819	1.76
486.172	1.83
486.525	1.83
486.878	1.86
487.23	1.83
487.583	1.88
487.936	1.83
488.288	1.78
488.641	1.79
488.993	1.78
489.345	1.82
489.698	1.83
490.05	1.83
490.402	1.84
490.754	1.84
491.107	1.75
491.459	1.89
491.811	1.89
492.163	1.88
492.515	1.82
492.866	1.76
493.218	1.84
493.57	1.89
493.922	1.84
494.274	1.92
494.625	1.97
494.977	1.97
495.328	1.97
495.68	1.93
496.031	1.96
496.383	1.9
496.734	1.81
497.086	1.94
497.437	1.94
497.788	2.09
498.139	1.8
498.49	1.88
498.842	2.03
499.193	1.88
499.544	1.95
499.894	1.83
500.245	1.92
500.596	1.91
500.947	1.93
501.298	1.86
501.648	1.92
501.999	1.98
502.35	1.73
502.7	2.04
503.051	1.84
503.401	1.92
503.752	1.8
504.102	1.9
504.452	1.83
504.803	1.83
505.153	1.87
505.503	1.75
505.853	1.94
506.203	2.09
506.553	2
506.903	1.92
507.253	1.84
507.603	1.93
507.953	1.9
508.303	1.99
508.652	1.75
509.002	2.11
509.352	1.96
509.701	1.89
510.051	2.01
510.4	2.02
510.75	1.97
511.099	1.85
511.449	1.97
511.798	1.94
512.147	2.03
512.496	2
512.846	1.97
513.195	1.91
513.544	1.98
513.893	2
514.242	1.9
514.591	1.97
514.939	1.97
515.288	1.92
515.637	2.01
515.986	2.05
516.334	2.01
516.683	1.93
517.032	1.84
517.38	1.84
517.729	1.8
518.077	1.95
518.426	1.98
518.774	1.79
519.122	1.96
519.47	1.9
519.819	1.96
520.167	1.87
520.515	1.88
520.863	1.87
521.211	1.92
521.559	1.91
521.907	1.99
522.255	1.85
522.602	1.95
522.95	2.05
523.298	1.88
523.645	2.03
523.993	1.94
524.341	1.9
524.688	1.85
525.036	1.91
525.383	1.89
525.73	1.93
526.078	2.02
526.425	1.85
526.772	1.89
527.119	1.91
527.466	1.98
527.814	1.87
528.161	1.97
528.508	1.96
528.854	1.86
529.201	1.92
529.548	1.87
529.895	1.83
530.242	1.84
530.588	1.8
530.935	1.86
531.282	1.84
531.628	1.91
531.975	1.89
532.321	1.95
532.667	1.96
533.014	1.94
533.36	1.89
533.706	1.89
534.052	1.95
534.399	1.94
534.745	1.88
535.091	1.87
535.437	1.88
535.783	1.86
536.129	1.9
536.474	1.99
536.82	1.97
537.166	1.78
537.512	1.95
537.857	1.96
538.203	1.97
538.549	1.81
538.894	1.84
539.239	1.94
539.585	2.03
539.93	1.93
540.276	1.98
540.621	1.97
540.966	1.92
541.311	2.01
541.656	1.93
542.001	1.86
542.346	1.81
542.691	1.82
543.036	1.85
543.381	1.85
543.726	1.9
544.071	1.93
544.415	1.96
544.76	1.92
545.105	1.91
545.449	1.89
545.794	1.91
546.138	1.88
546.483	1.97
546.827	1.93
547.171	1.96
547.516	2
547.86	1.88
548.204	1.96
548.548	1.89
548.892	1.95
549.236	1.86
549.58	1.97
549.924	2.09
550.268	2.08
550.612	2.01
550.956	2.1
551.3	2.23
551.643	1.91
551.987	2.13
552.33	2.09
552.674	1.92
553.017	2.08
553.361	2.13
553.704	2.1
554.048	2
554.391	2.1
554.734	1.97
555.077	2.02
555.42	1.94
555.764	1.87
556.107	2.13
556.45	2
556.793	2.14
557.135	2.15
557.478	2.02
557.821	2.03
558.164	2.11
558.507	1.76
558.849	2.13
559.192	2.05
559.534	2.09
559.877	2.04
560.219	1.96
560.562	1.82
560.904	2.17
561.246	1.97
561.589	2.08
561.931	1.98
562.273	1.98
562.615	2.06
562.957	1.93
563.299	1.9
563.641	2.13
563.983	1.78
564.325	2.05
564.667	1.92
565.008	1.91
565.35	1.85
565.692	1.99
566.033	2.05
566.375	2.01
566.716	1.96
567.058	1.98
567.399	2.08
567.741	2.03
568.082	2.04
568.423	2.05
568.764	2.09
569.105	2.06
569.447	1.88
569.788	1.94
570.129	1.94
570.47	2
570.811	1.85
571.151	2.03
571.492	2.09
571.833	1.98
572.174	2.07
572.514	1.95
572.855	1.99
573.195	1.88
573.536	2.11
573.876	2.16
574.217	1.91
574.557	2.07
574.898	2.02
575.238	2.09
575.578	2.12
575.918	2.08
576.258	2.25
576.598	1.98
576.938	1.93
577.278	1.91
577.618	2.09
577.958	2.13
578.298	1.98
578.638	1.88
578.977	2.14
579.317	1.98
579.657	2.01
579.996	1.98
580.336	2.04
580.675	2.19
581.014	1.97
581.354	2
581.693	2.12
582.032	2.07
582.372	1.95
582.711	2.24
583.05	2.2
583.389	2.1
583.728	2.35
584.067	2.14
584.406	2.16
584.745	2.06
585.083	1.94
585.422	2.36
585.761	1.98
586.1	2.16
586.438	1.83
586.777	1.8
587.115	1.95
587.454	2
587.792	2.02
588.13	2.16
588.469	2.02
588.807	2.12
589.145	2.07
589.483	1.88
589.821	2.02
590.159	2.07
590.497	2.21
590.835	2.2
591.173	2.06
591.511	2.09
591.849	2.17
592.187	1.89
592.524	2.11
592.862	2.15
593.2	2.13
593.537	2.1
593.875	2.16
594.212	2.14
594.55	2.12
594.887	2.23
595.224	2.11
595.561	2.23
595.899	2.07
596.236	2.26
596.573	1.93
596.91	2.06
597.247	2.12
597.584	2.11
597.921	1.99
598.258	2.12
598.594	1.94
598.931	1.98
599.268	1.91
599.604	2.09
599.941	2.13
600.277	2.09
600.614	1.92
600.95	1.81
601.287	1.81
601.623	1.75
601.959	2.22
602.296	2.2
602.632	2.19
602.968	2.11
603.304	2.13
603.64	2.04
603.976	2.04
604.312	1.98
604.648	2.25
604.984	1.96
605.319	1.95
605.655	2.02
605.991	2.11
606.326	2.1
606.662	1.82
606.998	2.14
607.333	2.03
607.668	2.08
608.004	2.18
608.339	1.96
608.674	2.02
609.01	2.26
609.345	2.09
609.68	1.94
610.015	2.24
610.35	2.03
610.685	1.73
611.02	1.96
611.355	1.96
611.689	2.07
612.024	1.89
612.359	2.11
612.694	2.23
613.028	2.04
613.363	2.1
613.697	1.94
614.032	1.9
614.366	1.86
614.7	1.93
615.035	1.86
615.369	2.18
615.703	2.37
616.037	2.02
616.371	2.1
616.705	2
617.039	2.14
617.373	2.18
617.707	2.22
618.041	1.73
618.375	1.49
618.709	2.23
619.042	2.34
619.376	2.21
619.71	2.13
620.043	2.18
620.377	2.1
620.71	2.18
621.043	2.28
621.377	2.23
621.71	2.53
622.043	2.09
622.376	1.98
622.709	2.74
623.043	2.02
623.376	2.09
623.709	2.63
624.041	2.07
624.374	2.2
624.707	2.23
625.04	2.17
625.373	2.14
625.705	2.55
626.038	2.25
626.37	2.07
626.703	2.25
627.035	2.22
627.368	2.33
627.7	2.41
628.032	1.97
628.365	2.42
628.697	2.45
629.029	2.15
629.361	2.49
629.693	1.91
630.025	2.09
630.357	2.09
630.689	2.1
631.021	2.18
631.353	2.1
631.684	1.79
632.016	1.96
632.348	2.1
632.679	2.23
633.011	1.75
633.342	2.31
633.674	2.16
634.005	2.19
634.336	2.44
634.668	1.97
634.999	2.09
635.33	2.08
635.661	1.96
635.992	2.07
636.323	2.25
636.654	1.99
636.985	2.05
637.316	2.17
637.647	2.35
637.977	1.99
638.308	2.27
638.639	2.13
638.969	1.97
639.3	1.76
639.63	2.04
639.961	2.24
640.291	1.91
640.622	2.41
640.952	2.12
641.282	1.98
641.612	1.98
641.943	1.77
642.273	1.94
642.603	2.42
642.933	2.16
643.263	2.28
643.592	2.34
643.922	2.69
644.252	1.56
644.582	2.36
644.911	2.46
645.241	2.05
645.571	2.23
645.9	2.4
646.23	2.26
646.559	1.74
646.888	2.45
647.218	1.72
647.547	1.91
647.876	2.1
648.205	1.97
648.534	2.16
648.863	1.87
649.192	2.29
649.521	2.15
649.85	2.48
650.179	2.42
650.508	2.26
650.837	2.47
651.165	1.81
651.494	2.21
651.822	2.27
652.151	2.25
652.479	2.52
652.808	2.1
653.136	1.68
653.465	1.77
653.793	2.25
654.121	1.95
654.449	2.04
654.777	1.66
655.105	1.63
655.433	2.74
655.761	2.12
656.089	2.23
656.417	2.49
656.745	2.22
657.073	1.86
657.4	1.79
657.728	1.76
658.056	1.98
658.383	1.98
658.711	2.42
659.038	2.36
659.365	2.21
659.693	2.42
660.02	2.04
660.347	2.04
660.674	2.13
661.001	1.91
661.329	2.13
661.656	1.93
661.982	1.97
662.309	2.03
662.636	2.05
662.963	1.85
663.29	2.48
663.616	1.85
663.943	2.23
664.27	2.24
664.596	2.18
664.923	2.65
665.249	2.47
665.576	2.08
665.902	1.42
666.228	2.13
666.554	2.67
666.881	1.9
667.207	2.11
667.533	2.24
667.859	2.07
668.185	2.13
668.511	2.27
668.837	2.55
669.162	1.81
669.488	1.69
669.814	2.25
670.139	1.78
670.465	2.7
670.791	1.87
671.116	1.72
671.442	1.81
671.767	2.41
672.092	2.01
672.418	1.91
672.743	1.99
673.068	1.89
673.393	3.04
673.718	1.27
674.043	2.17
674.368	2.48
674.693	2.34
675.018	2.14
675.343	2.52
675.667	2.05
675.992	2.09
676.317	1.15
676.641	2.57
676.966	2.39
677.29	1.56
677.615	1.91
677.939	2.42
678.264	1.8
678.588	2.41
678.912	2.67
679.236	1.87
679.56	1.53
679.885	2.12
680.209	2.63
680.532	2.97
680.856	2.17
681.18	2.87
681.504	2.33
681.828	1.39
682.152	1.63
682.475	1.82
682.799	1.83
683.122	2.42
683.446	1.55
683.769	2.53
684.093	2.37
684.416	1.54
684.739	1.69
685.062	2.42
685.386	2.19
685.709	2.22
686.032	2.77
686.355	2.21
686.678	2.76
687.001	2.25
687.324	1.91
687.646	2.46
687.969	2.04
688.292	2.45
688.614	2.89
688.937	2.26
689.26	2.75
689.582	2.3
689.904	2.75
690.227	2.59
690.549	2.73
690.871	1.92
691.194	2.08
691.516	2.35
691.838	2.86
