Data from 22-1_chest_Reflection__0__211.txt Node

Date: Thu Dec 15 18:09:25 CST 2022
User: ToomeyLab
Spectrometer: FLMS14357
Trigger mode: 0
Integration Time (sec): 1.000000E-2
Scans to average: 100
Electric dark correction enabled: true
Nonlinearity correction enabled: false
Boxcar width: 0
XAxis mode: Wavelengths
Number of Pixels in Spectrum: 2048
>>>>>Begin Spectral Data<<<<<
189.047	64.26
189.435	64.26
189.823	64.26
190.211	-133.48
190.599	62.73
190.987	289.83
191.375	73.05
191.763	-202.12
192.151	34.13
192.538	53.43
192.926	342.15
193.314	302.59
193.702	1370.55
194.089	-62.91
194.477	80.66
194.864	129.16
195.252	-49.46
195.639	169.66
196.027	35.49
196.414	116.8
196.801	-65.38
197.189	99.5
197.576	28.94
197.963	387.67
198.351	34.38
198.738	-31.3
199.125	-121.75
199.512	27.43
199.899	7.25
200.286	-55.81
200.673	37.64
201.06	-17.09
201.447	33.73
201.833	18.5
202.22	10.43
202.607	10.87
202.994	-26.57
203.38	20.37
203.767	-29.13
204.154	37.89
204.54	13.72
204.927	26.06
205.313	32.94
205.699	8.23
206.086	25.21
206.472	36.06
206.858	-2.53
207.245	-7.48
207.631	-25.22
208.017	38.96
208.403	-74.73
208.789	26.51
209.175	2.76
209.561	-104.4
209.947	17.4
210.333	3.38
210.719	23.83
211.105	40.05
211.491	53.65
211.876	25.84
212.262	23.89
212.648	9.91
213.034	-23.62
213.419	20.02
213.805	3.52
214.19	-23.66
214.576	9.78
214.961	16.65
215.346	-35.74
215.732	-14.88
216.117	14.9
216.502	14.79
216.888	3.39
217.273	13.39
217.658	12.44
218.043	-10.43
218.428	-36.24
218.813	5.5
219.198	-33.4
219.583	-2.22
219.968	6.56
220.353	-32.29
220.738	9.47
221.122	-21.56
221.507	-16.49
221.892	-18.27
222.276	-50.44
222.661	-16.02
223.046	-12.68
223.43	9.71
223.815	-0.05
224.199	-2.67
224.583	-4.15
224.968	-3.39
225.352	-7.47
225.736	16.39
226.121	0.76
226.505	-8.06
226.889	0.24
227.273	1.08
227.657	3.53
228.041	4
228.425	2.8
228.809	0.94
229.193	6.67
229.577	3.99
229.961	4.31
230.344	5.78
230.728	6.51
231.112	5.89
231.495	4.38
231.879	5.88
232.263	5.37
232.646	6.42
233.03	6.31
233.413	6.18
233.797	6.41
234.18	3.45
234.563	3.04
234.946	3.6
235.33	4.92
235.713	6.75
236.096	6.48
236.479	6.9
236.862	5.24
237.245	3.28
237.628	6.39
238.011	6.63
238.394	3.45
238.777	5.7
239.16	6.16
239.543	7.4
239.925	2.91
240.308	4.01
240.691	4.83
241.073	5.71
241.456	5.33
241.838	7.07
242.221	5.87
242.603	5.75
242.986	6.4
243.368	5.48
243.75	5.8
244.133	5.69
244.515	5.62
244.897	5.06
245.279	5.31
245.661	5.01
246.043	6.04
246.425	5.92
246.807	5.21
247.189	4.69
247.571	5.79
247.953	5.48
248.335	5.55
248.717	5.85
249.098	5.59
249.48	5.56
249.862	5.53
250.243	5.99
250.625	5.87
251.006	6.46
251.388	6.21
251.769	5.34
252.151	6.33
252.532	4.36
252.913	4.64
253.295	5.47
253.676	5.73
254.057	5.33
254.438	5.4
254.819	5.16
255.2	5.91
255.581	7.39
255.962	6.27
256.343	4.82
256.724	4.92
257.105	4.57
257.486	3.61
257.867	4.93
258.247	5.23
258.628	5.18
259.009	5.33
259.389	5.37
259.77	5.73
260.15	5.79
260.531	5.61
260.911	5.05
261.292	5.42
261.672	5.33
262.052	5.31
262.432	5.33
262.813	5.52
263.193	5.39
263.573	4.88
263.953	5.47
264.333	5.87
264.713	5.15
265.093	5.04
265.473	4.73
265.853	5.07
266.233	5.58
266.612	4.78
266.992	4.62
267.372	5.77
267.752	5.67
268.131	4.54
268.511	5.19
268.89	5.55
269.27	4.47
269.649	4.95
270.029	5.04
270.408	4.92
270.787	4.86
271.167	5.46
271.546	5.54
271.925	5.38
272.304	5.47
272.683	5.14
273.062	4.87
273.441	4.66
273.82	5.17
274.199	4.83
274.578	5.01
274.957	5.21
275.336	5.44
275.715	5.18
276.093	4
276.472	4.67
276.851	5.21
277.229	5.09
277.608	4.61
277.986	5.22
278.365	5.46
278.743	5.03
279.122	4.72
279.5	5.08
279.878	4.94
280.257	5.02
280.635	4.76
281.013	4.7
281.391	5.21
281.769	5.42
282.147	5.24
282.525	4.74
282.903	4.46
283.281	5.46
283.659	5.42
284.037	4.85
284.415	5.04
284.792	5.5
285.17	5.03
285.548	5.31
285.925	4.73
286.303	5.31
286.68	5.15
287.058	4.95
287.435	4.88
287.813	5.13
288.19	4.82
288.567	5.01
288.945	4.58
289.322	5.17
289.699	5.16
290.076	4.84
290.453	4.41
290.83	5.15
291.207	5.05
291.584	5.35
291.961	5.28
292.338	5.2
292.715	5.41
293.092	6.01
293.469	5.35
293.845	5.43
294.222	5.9
294.599	4.91
294.975	4.92
295.352	5.62
295.728	5.62
296.105	5.53
296.481	5.64
296.858	5.77
297.234	4.73
297.61	5.64
297.986	5.87
298.363	5.88
298.739	5.68
299.115	5.7
299.491	6.11
299.867	5.12
300.243	5.04
300.619	4.88
300.995	5.57
301.371	6.29
301.746	6.02
302.122	5.18
302.498	5.37
302.874	5.83
303.249	6.12
303.625	5.72
304	5.78
304.376	6.06
304.751	5.88
305.127	5.43
305.502	5.99
305.878	6.15
306.253	5.33
306.628	6.34
307.003	6.17
307.378	6.28
307.754	6.32
308.129	5.89
308.504	6.11
308.879	5.75
309.254	5.85
309.629	5.72
310.003	5.92
310.378	6.2
310.753	5.96
311.128	5.78
311.502	6.43
311.877	5.66
312.252	6.4
312.626	6.44
313.001	6.24
313.375	6.37
313.75	6.47
314.124	6.14
314.498	6.46
314.873	5.77
315.247	6.18
315.621	5.83
315.995	6.17
316.369	5.98
316.743	5.92
317.117	6.4
317.491	6.41
317.865	5.89
318.239	6.24
318.613	6.06
318.987	5.47
319.361	6.46
319.734	6.46
320.108	6.03
320.482	6.86
320.855	6.01
321.229	6.61
321.602	6.24
321.976	5.39
322.349	6.49
322.723	6
323.096	5.97
323.469	5.86
323.843	5.96
324.216	5.93
324.589	6.52
324.962	6.2
325.335	6.42
325.708	6.31
326.081	6.13
326.454	6.47
326.827	6.4
327.2	6.12
327.573	6.57
327.945	5.84
328.318	6.46
328.691	6.52
329.063	5.72
329.436	5.77
329.809	6.75
330.181	6.86
330.553	6.21
330.926	6.28
331.298	6.24
331.671	6.64
332.043	6.2
332.415	6.3
332.787	6.47
333.159	5.85
333.532	6.52
333.904	6.65
334.276	6.25
334.648	6.64
335.02	6.52
335.391	6.18
335.763	5.99
336.135	6.62
336.507	6.28
336.879	6.39
337.25	6.56
337.622	6.8
337.993	6.05
338.365	6.46
338.736	6.78
339.108	6.82
339.479	6.47
339.851	6.63
340.222	6.43
340.593	6.46
340.964	6.45
341.336	6.24
341.707	6.47
342.078	6.24
342.449	6.49
342.82	6.69
343.191	6.5
343.562	6.57
343.933	6.29
344.303	6.57
344.674	6.4
345.045	6.56
345.416	6.75
345.786	6.68
346.157	6.68
346.527	6.21
346.898	6.02
347.268	6.54
347.639	6.28
348.009	6.28
348.38	6.21
348.75	6.97
349.12	6.87
349.49	6.63
349.861	6.71
350.231	6.33
350.601	6.45
350.971	6.43
351.341	6.77
351.711	6.69
352.081	6.77
352.45	6.66
352.82	6.5
353.19	6.47
353.56	6.42
353.929	6.51
354.299	6.82
354.669	6.68
355.038	6.34
355.408	6.89
355.777	6.85
356.147	6.43
356.516	6.47
356.885	6.78
357.254	6.35
357.624	6.24
357.993	6.55
358.362	6.49
358.731	6.79
359.1	6.66
359.469	6.79
359.838	6.59
360.207	6.5
360.576	6.74
360.945	6.63
361.314	6.61
361.682	6.72
362.051	6.77
362.42	6.6
362.788	6.71
363.157	6.5
363.525	6.7
363.894	6.57
364.262	6.61
364.631	6.8
364.999	6.84
365.367	6.64
365.735	6.62
366.104	6.6
366.472	6.76
366.84	6.78
367.208	7.04
367.576	6.66
367.944	6.64
368.312	6.67
368.68	7
369.048	6.67
369.416	6.94
369.783	6.78
370.151	6.89
370.519	7.15
370.886	6.67
371.254	6.94
371.621	6.77
371.989	7.01
372.356	6.85
372.724	6.67
373.091	6.72
373.458	6.76
373.826	6.86
374.193	7.09
374.56	6.68
374.927	6.68
375.294	6.8
375.661	7.03
376.028	6.61
376.395	6.67
376.762	6.56
377.129	6.66
377.496	7.03
377.863	6.82
378.229	7.07
378.596	6.97
378.963	6.96
379.329	7.13
379.696	6.62
380.062	6.98
380.429	6.82
380.795	7.27
381.161	6.62
381.528	6.43
381.894	6.69
382.26	7.2
382.626	7.05
382.993	7.45
383.359	7.1
383.725	7.08
384.091	7.05
384.457	6.87
384.823	7.06
385.188	6.91
385.554	7
385.92	6.83
386.286	6.87
386.651	6.84
387.017	6.87
387.383	6.93
387.748	7.25
388.114	7.01
388.479	6.8
388.845	7.05
389.21	7.13
389.575	7.36
389.94	7.36
390.306	7.24
390.671	7.02
391.036	6.87
391.401	7.03
391.766	7.04
392.131	7.39
392.496	7.09
392.861	7.05
393.226	7.06
393.591	7.14
393.956	6.93
394.32	7.15
394.685	7.05
395.05	7.08
395.414	6.94
395.779	7.26
396.143	7.14
396.508	7.01
396.872	7.08
397.236	7.12
397.601	7.22
397.965	7.01
398.329	7.1
398.694	6.98
399.058	7.1
399.422	7.08
399.786	7.08
400.15	7.01
400.514	7.23
400.878	7.05
401.242	7.18
401.605	7.16
401.969	6.97
402.333	6.99
402.697	7.29
403.06	7.3
403.424	7.19
403.787	7.41
404.151	7.22
404.514	7.11
404.878	6.91
405.241	7.2
405.604	7.12
405.968	7.31
406.331	7.35
406.694	7.16
407.057	7.05
407.42	6.97
407.783	7.24
408.146	7.33
408.509	7.3
408.872	7.28
409.235	7.49
409.598	7.32
409.961	7.45
410.323	7.37
410.686	7.04
411.049	7.27
411.411	7.35
411.774	7.38
412.136	7.31
412.499	7.45
412.861	7.06
413.223	7.11
413.586	7.39
413.948	7.31
414.31	7.36
414.672	7.49
415.035	7.58
415.397	7.24
415.759	6.96
416.121	7.25
416.483	7.3
416.845	7.24
417.206	7.24
417.568	7.15
417.93	7.38
418.292	7.32
418.653	7.14
419.015	7.2
419.377	7.14
419.738	7.47
420.1	7.26
420.461	7.07
420.822	7.45
421.184	7.28
421.545	7.37
421.906	7.28
422.267	7.23
422.629	7.21
422.99	7.25
423.351	7.24
423.712	7.37
424.073	7.34
424.434	7.36
424.795	7.14
425.155	7.22
425.516	7.21
425.877	7.33
426.238	7.33
426.598	7.22
426.959	7.38
427.32	7.21
427.68	7.23
428.041	7.49
428.401	7.38
428.761	7.5
429.122	7.45
429.482	7.35
429.842	7.46
430.202	7.63
430.563	7.48
430.923	7.6
431.283	7.59
431.643	7.73
432.003	7.48
432.363	7.58
432.722	7.4
433.082	7.55
433.442	7.51
433.802	7.59
434.161	7.62
434.521	7.54
434.881	7.57
435.24	7.59
435.6	7.64
435.959	7.54
436.319	7.58
436.678	7.62
437.037	7.67
437.396	7.72
437.756	7.41
438.115	7.74
438.474	7.61
438.833	7.66
439.192	7.5
439.551	7.47
439.91	7.56
440.269	7.62
440.628	7.65
440.987	7.69
441.345	7.75
441.704	7.53
442.063	7.57
442.421	7.61
442.78	7.55
443.138	7.63
443.497	7.67
443.855	7.76
444.214	7.49
444.572	7.85
444.93	7.66
445.288	7.67
445.647	7.6
446.005	7.8
446.363	7.67
446.721	7.58
447.079	7.58
447.437	7.71
447.795	7.72
448.153	7.63
448.51	7.67
448.868	7.51
449.226	7.67
449.584	7.72
449.941	7.72
450.299	7.68
450.656	7.75
451.014	7.73
451.371	7.93
451.729	7.83
452.086	7.87
452.443	7.98
452.801	7.72
453.158	8.08
453.515	7.74
453.872	7.87
454.229	7.58
454.586	7.76
454.943	7.87
455.3	8.01
455.657	7.91
456.014	7.93
456.371	8.06
456.727	7.93
457.084	7.95
457.441	7.94
457.797	8.11
458.154	8.02
458.51	7.98
458.867	7.98
459.223	8.01
459.58	8.03
459.936	7.97
460.292	7.91
460.648	7.79
461.005	7.94
461.361	7.82
461.717	7.85
462.073	7.91
462.429	8.11
462.785	8
463.141	8.02
463.496	8.08
463.852	8
464.208	8.07
464.564	7.96
464.919	8.06
465.275	8.02
465.631	8.14
465.986	7.93
466.342	8.04
466.697	8.1
467.052	8.28
467.408	8.01
467.763	8.04
468.118	7.95
468.473	8.24
468.829	8.07
469.184	8.2
469.539	8.05
469.894	8.07
470.249	8.19
470.603	8.22
470.958	8.15
471.313	8.32
471.668	8.19
472.023	8.35
472.377	8.19
472.732	8.23
473.086	8.25
473.441	8.23
473.795	8.59
474.15	8.16
474.504	8.16
474.859	8.19
475.213	8.42
475.567	8.11
475.921	8.42
476.275	8.33
476.63	8.31
476.984	8.13
477.338	8.35
477.692	8.21
478.045	8.25
478.399	8.31
478.753	8.2
479.107	8.29
479.461	8.27
479.814	8.3
480.168	8.22
480.521	8.36
480.875	8.34
481.228	8.35
481.582	8.3
481.935	8.36
482.289	8.47
482.642	8.46
482.995	8.33
483.348	8.35
483.701	8.34
484.055	8.18
484.408	8.27
484.761	8.14
485.114	7.99
485.466	7.97
485.819	8.03
486.172	8.01
486.525	8.08
486.878	8.16
487.23	8.26
487.583	8.28
487.936	8.29
488.288	8.24
488.641	8.21
488.993	8.19
489.345	8.12
489.698	8.12
490.05	8.26
490.402	8.28
490.754	8.31
491.107	8.25
491.459	8.52
491.811	8.47
492.163	8.44
492.515	8.36
492.866	8.24
493.218	8.33
493.57	8.35
493.922	8.44
494.274	8.47
494.625	8.63
494.977	8.6
495.328	8.68
495.68	8.69
496.031	8.64
496.383	8.68
496.734	8.77
497.086	8.78
497.437	8.78
497.788	8.82
498.139	8.77
498.49	8.83
498.842	8.7
499.193	8.72
499.544	8.71
499.894	8.77
500.245	8.9
500.596	8.93
500.947	8.86
501.298	8.8
501.648	8.88
501.999	9
502.35	8.83
502.7	9.1
503.051	8.95
503.401	9.05
503.752	8.93
504.102	8.98
504.452	8.93
504.803	8.89
505.153	9.15
505.503	9.03
505.853	8.96
506.203	9.08
506.553	8.89
506.903	9.14
507.253	9.01
507.603	8.99
507.953	9.08
508.303	9.08
508.652	9.16
509.002	9.1
509.352	9.21
509.701	9.18
510.051	9.24
510.4	9.22
510.75	9.11
511.099	9.01
511.449	9.23
511.798	9.1
512.147	9.18
512.496	9.23
512.846	9.21
513.195	9.17
513.544	9.32
513.893	9.22
514.242	9.27
514.591	9.3
514.939	9.34
515.288	9.38
515.637	9.48
515.986	9.31
516.334	9.38
516.683	9.43
517.032	9.44
517.38	9.42
517.729	9.4
518.077	9.52
518.426	9.53
518.774	9.47
519.122	9.38
519.47	9.4
519.819	9.45
520.167	9.36
520.515	9.38
520.863	9.37
521.211	9.41
521.559	9.51
521.907	9.59
522.255	9.51
522.602	9.66
522.95	9.64
523.298	9.64
523.645	9.69
523.993	9.68
524.341	9.68
524.688	9.67
525.036	9.78
525.383	9.79
525.73	9.56
526.078	9.81
526.425	9.85
526.772	9.79
527.119	9.72
527.466	9.7
527.814	9.77
528.161	9.8
528.508	9.81
528.854	9.87
529.201	9.78
529.548	9.64
529.895	9.59
530.242	9.58
530.588	9.6
530.935	9.56
531.282	9.6
531.628	9.77
531.975	9.7
532.321	9.82
532.667	9.9
533.014	9.92
533.36	9.99
533.706	10
534.052	10.04
534.399	9.94
534.745	9.89
535.091	9.87
535.437	9.93
535.783	10.02
536.129	10.13
536.474	10.19
536.82	10.22
537.166	10.17
537.512	10.28
537.857	10.28
538.203	10.28
538.549	10.25
538.894	10.27
539.239	10.27
539.585	10.39
539.93	10.63
540.276	10.42
540.621	10.47
540.966	10.51
541.311	10.6
541.656	10.35
542.001	10.48
542.346	10.31
542.691	10.33
543.036	10.34
543.381	10.39
543.726	10.42
544.071	10.41
544.415	10.5
544.76	10.43
545.105	10.55
545.449	10.7
545.794	10.69
546.138	10.66
546.483	10.76
546.827	10.77
547.171	10.96
547.516	10.76
547.86	10.96
548.204	10.83
548.548	10.85
548.892	11.03
549.236	10.97
549.58	11.12
549.924	11.04
550.268	11.08
550.612	11.22
550.956	11.21
551.3	11.41
551.643	10.93
551.987	11.43
552.33	11.37
552.674	11.33
553.017	11.24
553.361	11.41
553.704	11.53
554.048	11.29
554.391	11.53
554.734	11.29
555.077	11.4
555.42	11.37
555.764	11.54
556.107	11.81
556.45	11.77
556.793	11.74
557.135	11.8
557.478	11.73
557.821	11.63
558.164	11.72
558.507	11.62
558.849	11.98
559.192	11.81
559.534	11.74
559.877	12
560.219	11.86
560.562	11.99
560.904	11.88
561.246	12.07
561.589	12
561.931	12.09
562.273	12.02
562.615	12.17
562.957	12.13
563.299	12.21
563.641	12.22
563.983	11.91
564.325	12.25
564.667	12.14
565.008	12.18
565.35	12.19
565.692	12.35
566.033	12.23
566.375	12.39
566.716	12.41
567.058	12.58
567.399	12.53
567.741	12.48
568.082	12.38
568.423	12.39
568.764	12.69
569.105	12.45
569.447	12.66
569.788	12.48
570.129	12.58
570.47	12.64
570.811	12.64
571.151	12.57
571.492	12.8
571.833	12.63
572.174	12.95
572.514	12.98
572.855	13.01
573.195	12.81
573.536	13.17
573.876	12.98
574.217	12.99
574.557	12.82
574.898	13.06
575.238	13.19
575.578	13.03
575.918	13.06
576.258	13.27
576.598	13.13
576.938	13.25
577.278	13.2
577.618	13.28
577.958	13.44
578.298	13.4
578.638	13.43
578.977	13.39
579.317	13.52
579.657	13.58
579.996	13.73
580.336	13.76
580.675	13.8
581.014	13.83
581.354	13.55
581.693	13.9
582.032	14.04
582.372	13.89
582.711	14.11
583.05	14.01
583.389	13.99
583.728	14.26
584.067	13.89
584.406	13.97
584.745	13.93
585.083	13.92
585.422	14.06
585.761	14.39
586.1	14.13
586.438	14.14
586.777	14.3
587.115	14.32
587.454	14.13
587.792	14.29
588.13	14.51
588.469	14.43
588.807	14.68
589.145	14.63
589.483	14.38
589.821	14.69
590.159	14.51
590.497	14.64
590.835	14.96
591.173	14.85
591.511	14.92
591.849	14.78
592.187	14.54
592.524	14.73
592.862	14.97
593.2	14.88
593.537	14.72
593.875	14.84
594.212	15.06
594.55	15
594.887	15.24
595.224	15.32
595.561	15.09
595.899	15.26
596.236	15.23
596.573	15.03
596.91	15.2
597.247	15.4
597.584	15.52
597.921	15.4
598.258	15.52
598.594	15.31
598.931	15.15
599.268	15.29
599.604	15.44
599.941	15.43
600.277	15.41
600.614	15.64
600.95	15.67
601.287	15.49
601.623	15.37
601.959	16.05
602.296	16.16
602.632	15.93
602.968	15.98
603.304	15.73
603.64	16.06
603.976	15.91
604.312	16.06
604.648	16.32
604.984	16.32
605.319	16.13
605.655	16.19
605.991	16.05
606.326	16.37
606.662	16.06
606.998	16.24
607.333	16.16
607.668	16.12
608.004	16.27
608.339	16.44
608.674	16.47
609.01	16.85
609.345	16.47
609.68	16.3
610.015	16.58
610.35	16.85
610.685	16.68
611.02	16.85
611.355	16.54
611.689	16.59
612.024	17.03
612.359	16.76
612.694	16.86
613.028	16.95
613.363	17.11
613.697	17.07
614.032	17.37
614.366	16.98
614.7	17.38
615.035	17.27
615.369	17.56
615.703	17.25
616.037	16.99
616.371	17.25
616.705	17.14
617.039	17.49
617.373	17.63
617.707	17.32
618.041	17.38
618.375	16.99
618.709	17.91
619.042	17.6
619.376	17.62
619.71	17.72
620.043	17.85
620.377	17.67
620.71	17.67
621.043	18.18
621.377	18.08
621.71	18.12
622.043	18.19
622.376	17.83
622.709	18.4
623.043	18.15
623.376	17.78
623.709	18.41
624.041	17.97
624.374	18.24
624.707	18.26
625.04	18.45
625.373	18.67
625.705	18.35
626.038	18.75
626.37	17.97
626.703	18.35
627.035	18.47
627.368	18.86
627.7	18.6
628.032	18.61
628.365	19.08
628.697	19.1
629.029	18.78
629.361	18.97
629.693	19
630.025	18.92
630.357	19.06
630.689	19.46
631.021	19.08
631.353	19.05
631.684	18.88
632.016	18.77
632.348	18.98
632.679	19.22
633.011	19.16
633.342	18.93
633.674	19.09
634.005	19.46
634.336	19.74
634.668	19.84
634.999	19.21
635.33	19.57
635.661	19.66
635.992	19.38
636.323	19.57
636.654	19.71
636.985	19.31
637.316	19.57
637.647	19.67
637.977	19.83
638.308	20.04
638.639	19.59
638.969	20.05
639.3	20.13
639.63	20.13
639.961	20.47
640.291	20.16
640.622	20.09
640.952	20.04
641.282	20.04
641.612	20.37
641.943	19.88
642.273	19.9
642.603	20.64
642.933	20.38
643.263	20.5
643.592	21.24
643.922	20.76
644.252	20.72
644.582	20.64
644.911	20.53
645.241	20.42
645.571	20.8
645.9	20.74
646.23	21.09
646.559	20.42
646.888	21.35
647.218	20.63
647.547	20.88
647.876	20.98
648.205	20.86
648.534	20.86
648.863	21.05
649.192	21.23
649.521	21.54
649.85	21.24
650.179	21.11
650.508	20.7
650.837	21.46
651.165	21.47
651.494	21.73
651.822	21.62
652.151	21.26
652.479	21.46
652.808	22.12
653.136	21.4
653.465	21.8
653.793	21.67
654.121	21.44
654.449	21.59
654.777	21.77
655.105	21.99
655.433	21.88
655.761	21.79
656.089	22.29
656.417	22.3
656.745	21.91
657.073	22.2
657.4	21.83
657.728	21.56
658.056	22
658.383	21.86
658.711	22.35
659.038	22.38
659.365	22.42
659.693	22.43
660.02	22.22
660.347	22.21
660.674	22.29
661.001	22.53
661.329	22.62
661.656	22.33
661.982	22.02
662.309	22.44
662.636	22.8
662.963	22.74
663.29	22.84
663.616	22.8
663.943	22.98
664.27	23.27
664.596	22.77
664.923	22.97
665.249	23.36
665.576	22.56
665.902	22.89
666.228	22.63
666.554	23.9
666.881	22.58
667.207	23.3
667.533	23.78
667.859	23.26
668.185	23.19
668.511	23.78
668.837	23.32
669.162	23.55
669.488	23.11
669.814	23.06
670.139	22.75
670.465	23.23
670.791	23.07
671.116	22.95
671.442	23.46
671.767	23.89
672.092	23.23
672.418	23.58
672.743	23.33
673.068	23.33
673.393	23.6
673.718	23.19
674.043	24.26
674.368	23.81
674.693	23.72
675.018	24.44
675.343	24.62
675.667	25.26
675.992	24.15
676.317	23.28
676.641	24.8
676.966	24.26
677.29	24.11
677.615	23.86
677.939	24.28
678.264	24.2
678.588	24.28
678.912	23.7
679.236	23.75
679.56	24.99
679.885	24.47
680.209	25.03
680.532	25.06
680.856	24.98
681.18	25.18
681.504	25.16
681.828	24.38
682.152	24.78
