Data from 22-1_crown_Reflection__4__220.txt Node

Date: Thu Dec 15 18:12:00 CST 2022
User: ToomeyLab
Spectrometer: FLMS14357
Trigger mode: 0
Integration Time (sec): 1.000000E-2
Scans to average: 100
Electric dark correction enabled: true
Nonlinearity correction enabled: false
Boxcar width: 0
XAxis mode: Wavelengths
Number of Pixels in Spectrum: 2048
>>>>>Begin Spectral Data<<<<<
189.047	64.03
189.435	64.03
189.823	64.03
190.211	-156.18
190.599	52.49
190.987	92.3
191.375	-30.89
191.763	-202.56
192.151	2.74
192.538	115.32
192.926	301.65
193.314	221.04
193.702	-250.92
194.089	-48.37
194.477	96.79
194.864	23.77
195.252	251.99
195.639	75.63
196.027	32.4
196.414	41.92
196.801	158.03
197.189	197.38
197.576	-0.57
197.963	319.87
198.351	25.04
198.738	5.76
199.125	-102.39
199.512	28.25
199.899	-35.13
200.286	-66.92
200.673	36.97
201.06	-71.22
201.447	33.4
201.833	-54.51
202.22	12.23
202.607	-51.78
202.994	-10.82
203.38	13.76
203.767	-62.41
204.154	29.68
204.54	34.44
204.927	-5.43
205.313	-4.66
205.699	39.23
206.086	15.81
206.472	2.3
206.858	-23.26
207.245	0.41
207.631	-1.3
208.017	33.91
208.403	-91.3
208.789	-23.53
209.175	29.31
209.561	-115.44
209.947	6.54
210.333	-22.86
210.719	5.54
211.105	23.51
211.491	-5.17
211.876	-34.38
212.262	-4.01
212.648	15.09
213.034	-34.31
213.419	-0.71
213.805	-44.3
214.19	-35.5
214.576	-42.21
214.961	0.1
215.346	-38.48
215.732	-22.44
216.117	17.18
216.502	-23.19
216.888	9.53
217.273	1.52
217.658	6.6
218.043	-7.11
218.428	-40.33
218.813	8.61
219.198	-25.21
219.583	7.73
219.968	0.99
220.353	-26.19
220.738	-5.39
221.122	-29.58
221.507	-16.81
221.892	-36.23
222.276	-41.56
222.661	-31.66
223.046	-25.76
223.43	8.09
223.815	8.76
224.199	-4.32
224.583	-7.28
224.968	-3.84
225.352	-1.96
225.736	6.39
226.121	-0.16
226.505	-14.08
226.889	-3.16
227.273	-7.6
227.657	2.92
228.041	-1.57
228.425	1.45
228.809	-3.29
229.193	2.89
229.577	1.43
229.961	0.93
230.344	2.57
230.728	2.31
231.112	2.85
231.495	1.64
231.879	0.05
232.263	4.3
232.646	3.12
233.03	2.16
233.413	4.07
233.797	0.04
234.18	1.24
234.563	0.08
234.946	0.76
235.33	1.38
235.713	3.09
236.096	3.33
236.479	3.76
236.862	1.46
237.245	1.19
237.628	0.57
238.011	1.82
238.394	1.66
238.777	1.71
239.16	2.79
239.543	3.24
239.925	1.71
240.308	1.88
240.691	-0.26
241.073	1.46
241.456	2.94
241.838	2.2
242.221	1.84
242.603	3.02
242.986	2.21
243.368	2.76
243.75	2.75
244.133	2.43
244.515	2.2
244.897	1.7
245.279	1.7
245.661	2.1
246.043	0.82
246.425	1.63
246.807	1.82
247.189	1.66
247.571	2.03
247.953	2.4
248.335	2.82
248.717	2.53
249.098	2.51
249.48	2.5
249.862	2.53
250.243	2.39
250.625	2.44
251.006	3.64
251.388	2.34
251.769	1.75
252.151	2.74
252.532	1.85
252.913	1.63
253.295	2.29
253.676	2.6
254.057	2.45
254.438	2.61
254.819	1.55
255.2	2.34
255.581	2.28
255.962	3.27
256.343	2.27
256.724	2.78
257.105	1.79
257.486	1.24
257.867	2.06
258.247	2.04
258.628	2.07
259.009	2.09
259.389	1.15
259.77	1.99
260.15	3.49
260.531	2.62
260.911	2.31
261.292	2.33
261.672	2.4
262.052	2.38
262.432	1.98
262.813	2.71
263.193	2.64
263.573	2
263.953	1.87
264.333	2.15
264.713	2.3
265.093	1.96
265.473	1.61
265.853	2.16
266.233	2
266.612	2.06
266.992	1.83
267.372	2.41
267.752	2.61
268.131	2.01
268.511	2.06
268.89	3.16
269.27	1.89
269.649	1.85
270.029	2.01
270.408	1.87
270.787	2.12
271.167	2.61
271.546	2.87
271.925	2.42
272.304	2.39
272.683	1.76
273.062	2.23
273.441	1.79
273.82	2.35
274.199	1.7
274.578	2.37
274.957	1.79
275.336	1.88
275.715	2.84
276.093	1.81
276.472	1.31
276.851	2.08
277.229	1.82
277.608	1.26
277.986	2.21
278.365	2.48
278.743	2.28
279.122	1.61
279.5	2.14
279.878	2.01
280.257	2.08
280.635	2.07
281.013	1.7
281.391	1.61
281.769	2.23
282.147	1.89
282.525	1.62
282.903	1.55
283.281	2.96
283.659	2.45
284.037	2.05
284.415	2
284.792	2.11
285.17	2.24
285.548	2.21
285.925	1.68
286.303	2.66
286.68	2.28
287.058	2
287.435	2.01
287.813	1.84
288.19	1.81
288.567	1.83
288.945	1.84
289.322	2.26
289.699	2.4
290.076	1.78
290.453	1.58
290.83	1.94
291.207	1.86
291.584	2.36
291.961	2.28
292.338	2.07
292.715	2.26
293.092	2.81
293.469	2.22
293.845	1.98
294.222	2.55
294.599	1.54
294.975	0.82
295.352	2.17
295.728	2.4
296.105	2.28
296.481	2.05
296.858	1.68
297.234	1.66
297.61	1.84
297.986	2.43
298.363	2.4
298.739	2.3
299.115	2.32
299.491	2.59
299.867	2.23
300.243	1.74
300.619	1.53
300.995	1.72
301.371	2.67
301.746	2.34
302.122	1.61
302.498	1.94
302.874	2.31
303.249	2.12
303.625	1.76
304	2.06
304.376	2.39
304.751	2.42
305.127	1.73
305.502	2.31
305.878	2.53
306.253	2.02
306.628	1.85
307.003	2.02
307.378	2.1
307.754	2.18
308.129	1.78
308.504	2.42
308.879	2
309.254	2.24
309.629	1.92
310.003	1.94
310.378	2.46
310.753	2.45
311.128	2.16
311.502	1.77
311.877	2.06
312.252	2.02
312.626	2.14
313.001	2.17
313.375	2.3
313.75	2.45
314.124	2.55
314.498	2.75
314.873	2.28
315.247	2.13
315.621	1.92
315.995	1.92
316.369	1.66
316.743	2.25
317.117	1.48
317.491	2.05
317.865	1.3
318.239	2.69
318.613	2.46
318.987	1.56
319.361	1.77
319.734	1.95
320.108	1.73
320.482	2.23
320.855	1.62
321.229	1.96
321.602	2.27
321.976	1.67
322.349	2.29
322.723	2.41
323.096	2.55
323.469	2.11
323.843	1.96
324.216	2.28
324.589	1.84
324.962	1.87
325.335	1.73
325.708	2.27
326.081	1.99
326.454	2.51
326.827	2.11
327.2	2.35
327.573	2.72
327.945	2.13
328.318	2.36
328.691	1.93
329.063	1.5
329.436	1.54
329.809	2.08
330.181	2.99
330.553	2.29
330.926	2.75
331.298	2.15
331.671	2.25
332.043	2.18
332.415	2.53
332.787	2.55
333.159	1.7
333.532	1.87
333.904	2.55
334.276	2.7
334.648	2.45
335.02	2.28
335.391	2
335.763	2.37
336.135	2.48
336.507	2.2
336.879	2.09
337.25	2.19
337.622	1.84
337.993	2.36
338.365	2.31
338.736	2.29
339.108	2.39
339.479	2.11
339.851	2.17
340.222	2.58
340.593	2.1
340.964	2.55
341.336	2.07
341.707	2.16
342.078	2.36
342.449	2.31
342.82	2.44
343.191	2.39
343.562	2.67
343.933	1.98
344.303	2.46
344.674	2.37
345.045	2.18
345.416	2.43
345.786	2.03
346.157	2.54
346.527	2.26
346.898	1.87
347.268	2.17
347.639	2.24
348.009	2.69
348.38	2.04
348.75	2.39
349.12	2.55
349.49	2.3
349.861	2.43
350.231	2.22
350.601	2.33
350.971	2.28
351.341	2.23
351.711	2.62
352.081	1.98
352.45	2.24
352.82	1.91
353.19	2.2
353.56	2.27
353.929	2.24
354.299	2.24
354.669	2.43
355.038	2.3
355.408	2.22
355.777	2.51
356.147	2.3
356.516	2.37
356.885	2.16
357.254	2.06
357.624	1.94
357.993	2.38
358.362	2.03
358.731	2.66
359.1	2.4
359.469	2.28
359.838	2.32
360.207	2.1
360.576	2.53
360.945	2.31
361.314	2.32
361.682	2.02
362.051	2.43
362.42	2.3
362.788	2.29
363.157	2.24
363.525	2.47
363.894	2.2
364.262	2.44
364.631	2.74
364.999	2.41
365.367	2.53
365.735	2.13
366.104	2.42
366.472	2.26
366.84	2.45
367.208	2.52
367.576	2.34
367.944	2.43
368.312	2.4
368.68	2.66
369.048	2.06
369.416	2.05
369.783	2.39
370.151	2.77
370.519	2.3
370.886	2.15
371.254	2.77
371.621	2.49
371.989	2.67
372.356	2.44
372.724	2.19
373.091	2.11
373.458	2.29
373.826	2.41
374.193	2.7
374.56	2.46
374.927	2.54
375.294	2.55
375.661	2.53
376.028	2.09
376.395	2.22
376.762	2.21
377.129	2.2
377.496	2.46
377.863	2.6
378.229	2.57
378.596	2.33
378.963	2.54
379.329	2.52
379.696	2.55
380.062	2.59
380.429	2.23
380.795	2.77
381.161	2.3
381.528	2.14
381.894	2.19
382.26	2.56
382.626	2.41
382.993	2.52
383.359	2.54
383.725	2.19
384.091	2.44
384.457	2.12
384.823	2.46
385.188	2.52
385.554	2.35
385.92	2.11
386.286	2.45
386.651	2.59
387.017	2.89
387.383	2.49
387.748	2.46
388.114	2.48
388.479	2.22
388.845	2.3
389.21	2.46
389.575	2.82
389.94	2.69
390.306	2.58
390.671	2.68
391.036	2.56
391.401	2.7
391.766	2.43
392.131	2.71
392.496	2.79
392.861	2.31
393.226	2.51
393.591	2.45
393.956	2.56
394.32	2.64
394.685	2.46
395.05	2.46
395.414	2.51
395.779	2.68
396.143	2.48
396.508	2.27
396.872	2.49
397.236	2.83
397.601	2.48
397.965	2.56
398.329	2.58
398.694	2.39
399.058	2.59
399.422	2.44
399.786	2.62
400.15	2.42
400.514	2.58
400.878	2.67
401.242	2.53
401.605	2.77
401.969	2.42
402.333	2.37
402.697	2.69
403.06	2.46
403.424	2.59
403.787	2.48
404.151	2.53
404.514	2.41
404.878	2.66
405.241	2.65
405.604	2.41
405.968	2.61
406.331	2.8
406.694	2.54
407.057	2.39
407.42	2.47
407.783	2.63
408.146	2.57
408.509	2.77
408.872	2.75
409.235	2.74
409.598	2.68
409.961	2.75
410.323	2.61
410.686	2.52
411.049	2.58
411.411	2.59
411.774	2.69
412.136	2.54
412.499	2.69
412.861	2.48
413.223	2.61
413.586	2.76
413.948	2.62
414.31	2.7
414.672	2.74
415.035	2.74
415.397	2.65
415.759	2.12
416.121	2.62
416.483	2.61
416.845	2.53
417.206	2.8
417.568	2.56
417.93	2.71
418.292	2.47
418.653	2.51
419.015	2.67
419.377	2.57
419.738	2.64
420.1	2.57
420.461	2.54
420.822	2.57
421.184	2.61
421.545	2.61
421.906	2.62
422.267	2.67
422.629	2.68
422.99	2.52
423.351	2.63
423.712	2.62
424.073	2.63
424.434	2.72
424.795	2.51
425.155	2.56
425.516	2.55
425.877	2.67
426.238	2.64
426.598	2.67
426.959	2.71
427.32	2.64
427.68	2.63
428.041	2.74
428.401	2.6
428.761	2.66
429.122	2.69
429.482	2.56
429.842	2.51
430.202	2.72
430.563	2.74
430.923	2.55
431.283	2.61
431.643	2.76
432.003	2.65
432.363	2.88
432.722	2.71
433.082	2.7
433.442	2.66
433.802	2.65
434.161	2.68
434.521	2.68
434.881	2.87
435.24	2.72
435.6	2.73
435.959	2.66
436.319	2.71
436.678	2.85
437.037	2.73
437.396	2.83
437.756	2.43
438.115	2.57
438.474	2.8
438.833	2.53
439.192	2.67
439.551	2.7
439.91	2.72
440.269	2.79
440.628	2.74
440.987	2.71
441.345	2.69
441.704	2.68
442.063	2.69
442.421	2.65
442.78	2.72
443.138	2.68
443.497	2.71
443.855	2.87
444.214	2.62
444.572	2.92
444.93	2.64
445.288	2.74
445.647	2.65
446.005	2.83
446.363	2.61
446.721	2.82
447.079	2.64
447.437	2.71
447.795	2.71
448.153	2.67
448.51	2.81
448.868	2.67
449.226	2.7
449.584	2.77
449.941	2.75
450.299	2.7
450.656	2.72
451.014	2.76
451.371	2.86
451.729	2.77
452.086	2.8
452.443	2.77
452.801	2.72
453.158	3.02
453.515	2.73
453.872	2.73
454.229	2.6
454.586	2.64
454.943	2.94
455.3	2.71
455.657	2.82
456.014	2.74
456.371	2.8
456.727	2.88
457.084	2.98
457.441	2.81
457.797	2.9
458.154	2.84
458.51	2.71
458.867	2.73
459.223	2.75
459.58	2.84
459.936	2.68
460.292	2.75
460.648	2.65
461.005	2.66
461.361	2.75
461.717	2.77
462.073	2.81
462.429	2.89
462.785	2.96
463.141	2.82
463.496	2.84
463.852	2.83
464.208	2.96
464.564	2.87
464.919	2.98
465.275	2.89
465.631	2.89
465.986	2.95
466.342	2.8
466.697	2.78
467.052	2.85
467.408	2.89
467.763	2.77
468.118	2.62
468.473	2.85
468.829	2.71
469.184	2.81
469.539	2.78
469.894	2.86
470.249	2.93
470.603	2.9
470.958	3.07
471.313	2.88
471.668	2.83
472.023	2.92
472.377	2.86
472.732	2.83
473.086	2.92
473.441	2.85
473.795	3.12
474.15	2.85
474.504	2.79
474.859	2.68
475.213	2.88
475.567	2.79
475.921	2.8
476.275	2.91
476.63	2.92
476.984	2.86
477.338	2.92
477.692	2.8
478.045	2.85
478.399	2.87
478.753	2.92
479.107	2.87
479.461	2.82
479.814	2.81
480.168	2.91
480.521	2.91
480.875	2.9
481.228	2.9
481.582	2.87
481.935	2.93
482.289	2.9
482.642	2.96
482.995	2.88
483.348	2.79
483.701	2.92
484.055	2.82
484.408	2.83
484.761	2.77
485.114	2.65
485.466	2.65
485.819	2.68
486.172	2.72
486.525	2.73
486.878	2.82
487.23	2.81
487.583	2.83
487.936	2.83
488.288	2.78
488.641	2.8
488.993	2.74
489.345	2.76
489.698	2.76
490.05	2.77
490.402	2.78
490.754	2.78
491.107	2.73
491.459	2.91
491.811	2.87
492.163	2.79
492.515	2.77
492.866	2.77
493.218	2.77
493.57	2.83
493.922	2.85
494.274	2.9
494.625	2.97
494.977	2.9
495.328	2.94
495.68	2.88
496.031	2.85
496.383	2.87
496.734	2.86
497.086	3.03
497.437	3.02
497.788	2.96
498.139	2.91
498.49	2.99
498.842	2.96
499.193	2.88
499.544	2.94
499.894	2.9
500.245	3.08
500.596	2.95
500.947	2.89
501.298	2.93
501.648	2.91
501.999	2.99
502.35	2.97
502.7	3.11
503.051	2.89
503.401	2.93
503.752	2.99
504.102	2.87
504.452	2.73
504.803	2.78
505.153	3.01
505.503	2.94
505.853	3.09
506.203	3
506.553	2.89
506.903	2.95
507.253	2.88
507.603	2.99
507.953	2.84
508.303	2.86
508.652	2.71
509.002	2.99
509.352	2.98
509.701	2.82
510.051	3.04
510.4	3.04
510.75	2.84
511.099	2.83
511.449	3.02
511.798	3
512.147	2.89
512.496	2.86
512.846	2.9
513.195	2.86
513.544	2.95
513.893	2.91
514.242	2.86
514.591	2.95
514.939	2.87
515.288	2.98
515.637	2.98
515.986	2.89
516.334	2.92
516.683	2.9
517.032	3.01
517.38	2.85
517.729	2.84
518.077	2.93
518.426	3.02
518.774	2.93
519.122	2.97
519.47	2.87
519.819	2.93
520.167	2.88
520.515	2.95
520.863	2.91
521.211	2.89
521.559	2.93
521.907	2.97
522.255	2.88
522.602	2.98
522.95	3.01
523.298	2.99
523.645	2.99
523.993	2.9
524.341	3.05
524.688	2.83
525.036	2.91
525.383	2.94
525.73	2.9
526.078	3.11
526.425	2.99
526.772	2.98
527.119	2.92
527.466	2.93
527.814	2.88
528.161	3.01
528.508	2.97
528.854	2.93
529.201	2.92
529.548	2.82
529.895	2.75
530.242	2.79
530.588	2.77
530.935	2.85
531.282	2.89
531.628	2.87
531.975	2.84
532.321	2.93
532.667	2.92
533.014	3
533.36	2.97
533.706	2.93
534.052	2.97
534.399	2.91
534.745	2.81
535.091	2.84
535.437	2.97
535.783	2.89
536.129	2.92
536.474	3.02
536.82	2.98
537.166	2.87
537.512	2.93
537.857	2.95
538.203	2.89
538.549	2.86
538.894	2.96
539.239	2.98
539.585	2.92
539.93	3.08
540.276	2.97
540.621	2.92
540.966	2.94
541.311	2.91
541.656	2.89
542.001	2.94
542.346	2.84
542.691	2.79
543.036	2.84
543.381	2.85
543.726	2.9
544.071	2.93
544.415	2.93
544.76	2.83
545.105	2.95
545.449	2.95
545.794	2.92
546.138	2.87
546.483	3.04
546.827	2.92
547.171	2.93
547.516	2.99
547.86	2.98
548.204	2.98
548.548	2.89
548.892	2.95
549.236	2.92
549.58	3.04
549.924	3.07
550.268	3.18
550.612	3.02
550.956	3.05
551.3	3.1
551.643	2.97
551.987	3.2
552.33	3.16
552.674	2.96
553.017	3.17
553.361	3.01
553.704	3.07
554.048	3.01
554.391	3.2
554.734	2.91
555.077	3.05
555.42	2.94
555.764	2.99
556.107	3.14
556.45	3.09
556.793	3.17
557.135	3.06
557.478	2.98
557.821	3.05
558.164	3.17
558.507	3
558.849	3.29
559.192	3.01
559.534	2.92
559.877	2.88
560.219	3.07
560.562	2.87
560.904	3.32
561.246	2.99
561.589	3.16
561.931	3.06
562.273	2.96
562.615	2.96
562.957	3.02
563.299	2.99
563.641	3.07
563.983	2.9
564.325	3.1
564.667	3.06
565.008	3.03
565.35	3.11
565.692	3.14
566.033	3.01
566.375	2.95
566.716	3.06
567.058	2.98
567.399	3.08
567.741	3.1
568.082	3.04
568.423	2.92
568.764	3.09
569.105	3.01
569.447	2.97
569.788	2.97
570.129	3.14
570.47	3.03
570.811	3.15
571.151	3.05
571.492	2.98
571.833	2.97
572.174	3.16
572.514	3.12
572.855	3.22
573.195	3.06
573.536	3.18
573.876	2.97
574.217	2.95
574.557	3.1
574.898	2.95
575.238	3.13
575.578	3.15
575.918	3.04
576.258	3.12
576.598	3.01
576.938	2.94
577.278	2.99
577.618	3.06
577.958	3.14
578.298	3.12
578.638	2.95
578.977	3.27
579.317	3.18
579.657	3.11
579.996	3.21
580.336	3.18
580.675	3.07
581.014	3.26
581.354	3.08
581.693	3.23
582.032	3.4
582.372	3.27
582.711	2.97
583.05	2.97
583.389	3.22
583.728	3.45
584.067	2.93
584.406	3.09
584.745	2.88
585.083	3.12
585.422	3.08
585.761	3.13
586.1	3.1
586.438	2.97
586.777	2.96
587.115	3
587.454	2.92
587.792	3.07
588.13	2.92
588.469	3.01
588.807	3.17
589.145	3.17
589.483	2.91
589.821	3.05
590.159	3.17
590.497	2.96
590.835	3.17
591.173	3.26
591.511	3.41
591.849	3.35
592.187	3.2
592.524	3.31
592.862	3.05
593.2	3.15
593.537	2.97
593.875	3.1
594.212	3.31
594.55	3.22
594.887	3.27
595.224	3.5
595.561	3.11
595.899	3.04
596.236	3.07
596.573	3.05
596.91	3.06
597.247	3.13
597.584	3.1
597.921	3.22
598.258	3.33
598.594	3.07
598.931	2.94
599.268	3
599.604	3.19
599.941	3.07
600.277	3.05
600.614	2.98
600.95	3.05
601.287	2.89
601.623	2.89
601.959	3.3
602.296	3.14
602.632	3.11
602.968	3.04
603.304	3.3
603.64	2.97
603.976	2.81
604.312	3.11
604.648	3.16
604.984	3.07
605.319	3.06
605.655	2.92
605.991	3.02
606.326	3.12
606.662	2.82
606.998	3.06
607.333	3.04
607.668	2.87
608.004	3.07
608.339	2.9
608.674	3.2
609.01	3.3
609.345	3.07
609.68	2.68
610.015	3.14
610.35	3.23
610.685	2.88
611.02	3.15
611.355	3.09
611.689	3.02
612.024	3.13
612.359	3.16
612.694	3.21
613.028	2.99
613.363	3
613.697	3.09
614.032	3.05
614.366	3.06
614.7	2.94
615.035	2.93
615.369	3.1
615.703	3.23
616.037	2.92
616.371	2.97
616.705	3.19
617.039	2.96
617.373	2.85
617.707	3.55
618.041	2.74
618.375	2.69
618.709	3
619.042	3.06
619.376	3.3
619.71	3.07
620.043	3.55
620.377	3.07
620.71	2.94
621.043	3.25
621.377	3.26
621.71	3.55
622.043	3.14
622.376	3.11
622.709	3.28
623.043	3.17
623.376	2.82
623.709	3.19
624.041	3.11
624.374	3.4
624.707	3.12
625.04	3.24
625.373	3.27
625.705	3.39
626.038	3.31
626.37	2.99
626.703	3.16
627.035	3.29
627.368	3.52
627.7	3.22
628.032	3.09
628.365	3.39
628.697	3.36
629.029	3.06
629.361	3.44
629.693	3.23
630.025	3.03
630.357	3.24
630.689	2.94
631.021	3.2
631.353	3.24
631.684	2.99
632.016	2.48
632.348	2.91
632.679	3.38
633.011	3.17
633.342	3.24
633.674	3.2
634.005	3.28
634.336	3.28
634.668	3.18
634.999	3
635.33	2.99
635.661	3.1
635.992	3.11
636.323	3.14
636.654	3.04
636.985	2.99
637.316	2.94
637.647	3.25
637.977	3.06
638.308	3.32
638.639	2.89
638.969	3.3
639.3	3.17
639.63	2.96
639.961	3.42
640.291	3.09
640.622	2.86
640.952	3.59
641.282	3.07
641.612	3.2
641.943	2.69
642.273	2.69
642.603	3.17
642.933	3.67
643.263	3.31
643.592	3.33
643.922	3.24
644.252	3.16
644.582	3.3
644.911	2.89
645.241	2.79
645.571	3.14
645.9	2.97
646.23	3.64
646.559	2.62
646.888	3.49
647.218	3.09
647.547	3.32
647.876	2.81
648.205	2.98
648.534	3.01
648.863	2.88
649.192	3.39
649.521	3.14
649.85	3.14
650.179	3.19
650.508	2.89
650.837	3.43
651.165	2.63
651.494	3.27
651.822	3.4
652.151	2.84
652.479	2.89
652.808	3.04
653.136	2.55
653.465	2.79
653.793	3.27
654.121	2.77
654.449	2.81
654.777	2.95
655.105	3.14
655.433	3.02
655.761	3.28
656.089	2.95
656.417	3.71
656.745	3.84
657.073	3.05
657.4	2.99
657.728	2.37
658.056	3.37
658.383	3.08
658.711	3.59
659.038	3.71
659.365	3.7
659.693	3.14
660.02	3.03
660.347	2.98
660.674	3.06
661.001	3.42
661.329	3.02
661.656	2.91
661.982	2.88
662.309	3.07
662.636	3.24
662.963	3.26
663.29	3.56
663.616	2.69
663.943	3.01
664.27	2.97
664.596	2.94
664.923	3.32
665.249	3.26
665.576	2.74
665.902	2.64
666.228	3.75
666.554	3.75
666.881	3.06
667.207	3.52
667.533	3.52
667.859	3.07
668.185	2.8
668.511	3.19
668.837	3.32
669.162	3.17
669.488	2.67
669.814	3.32
670.139	3.21
670.465	3.46
670.791	2.27
671.116	2.82
671.442	2.8
671.767	2.75
672.092	3.07
672.418	2.95
672.743	3.08
673.068	2.69
673.393	3.32
673.718	3.1
674.043	2.79
674.368	3.31
674.693	3.13
675.018	4.06
675.343	3.76
675.667	3.21
675.992	2.95
676.317	2.18
676.641	3.16
676.966	3.64
677.29	2.77
677.615	3.25
677.939	3.33
678.264	3.55
678.588	3.26
678.912	3.01
679.236	2.97
679.56	2.57
679.885	2.54
680.209	3.78
680.532	3.35
680.856	3.15
681.18	3.87
681.504	2.94
681.828	3.08
682.152	2.89
682.475	3.8
682.799	2.72
683.122	3.02
683.446	2.87
683.769	3.19
684.093	3.16
684.416	3.23
684.739	3.32
685.062	3.08
685.386	3.22
685.709	3.08
686.032	3.01
686.355	3.5
686.678	3.3
687.001	3.09
687.324	2.79
687.646	3.55
687.969	3.4
688.292	3.29
688.614	3.23
688.937	3.07
689.26	3.17
689.582	3.61
689.904	3.41
690.227	3.91
690.549	3.38
690.871	2.53
691.194	3.23
691.516	3.66
691.838	3.44
692.16	2.48
