Data from 22-1_crown_Reflection__0__216.txt Node

Date: Thu Dec 15 18:11:20 CST 2022
User: ToomeyLab
Spectrometer: FLMS14357
Trigger mode: 0
Integration Time (sec): 1.000000E-2
Scans to average: 100
Electric dark correction enabled: true
Nonlinearity correction enabled: false
Boxcar width: 0
XAxis mode: Wavelengths
Number of Pixels in Spectrum: 2048
>>>>>Begin Spectral Data<<<<<
189.047	15.61
189.435	15.61
189.823	15.61
190.211	-292.7
190.599	0.88
190.987	103.25
191.375	116.08
191.763	-96.6
192.151	-28.43
192.538	53.26
192.926	345.37
193.314	366.14
193.702	700.92
194.089	-56.26
194.477	219.31
194.864	49.12
195.252	212.48
195.639	57.42
196.027	72.11
196.414	88.92
196.801	-19.83
197.189	36.46
197.576	168.27
197.963	40.06
198.351	2.29
198.738	-42.68
199.125	-26.92
199.512	17.9
199.899	-27.82
200.286	-9.33
200.673	32.57
201.06	-4.27
201.447	24.57
201.833	-13
202.22	-25.02
202.607	-213.43
202.994	-14.8
203.38	-6.31
203.767	-66
204.154	58.63
204.54	29.43
204.927	24.34
205.313	22.81
205.699	42.27
206.086	27.83
206.472	35.21
206.858	-20.94
207.245	-7.55
207.631	-5.23
208.017	31.58
208.403	-114.48
208.789	17.07
209.175	-17.22
209.561	-129.72
209.947	-8.62
210.333	9.41
210.719	55.61
211.105	24.37
211.491	13.05
211.876	-42.75
212.262	28.52
212.648	25.5
213.034	-16.67
213.419	21.71
213.805	-28.88
214.19	-22.39
214.576	-29.39
214.961	-0.42
215.346	-10.77
215.732	10.72
216.117	0.34
216.502	-3.44
216.888	-3.03
217.273	-24.99
217.658	-28.49
218.043	-25.81
218.428	-52.83
218.813	-5.51
219.198	-21.95
219.583	10.35
219.968	-19.38
220.353	-3.6
220.738	6.27
221.122	1.36
221.507	-5.55
221.892	-32.2
222.276	-23.06
222.661	-28.01
223.046	-31.36
223.43	11.74
223.815	6.53
224.199	-11.96
224.583	-2.83
224.968	-9.7
225.352	-8.64
225.736	0.07
226.121	-2.24
226.505	-7.4
226.889	-3.43
227.273	-9.07
227.657	0.66
228.041	-1.85
228.425	-3.53
228.809	-2.47
229.193	-0.86
229.577	0.9
229.961	-0.56
230.344	1.8
230.728	0.9
231.112	1.19
231.495	-1.45
231.879	1.01
232.263	2.15
232.646	-0.71
233.03	3.22
233.413	0.73
233.797	-4.5
234.18	2.15
234.563	-0.51
234.946	-2.55
235.33	0.58
235.713	3.43
236.096	1.67
236.479	2.67
236.862	0.23
237.245	-0.48
237.628	1.15
238.011	-0.11
238.394	-0.92
238.777	0.38
239.16	0.59
239.543	1.65
239.925	2.19
240.308	1.78
240.691	-0.03
241.073	-1.32
241.456	1.52
241.838	1.54
242.221	1.05
242.603	1.21
242.986	1.51
243.368	1.48
243.75	1.16
244.133	1.51
244.515	1.46
244.897	1.05
245.279	0.57
245.661	1.49
246.043	1.36
246.425	1.86
246.807	1.65
247.189	1.01
247.571	0.54
247.953	1.39
248.335	1.2
248.717	1.58
249.098	1.58
249.48	1.18
249.862	1.43
250.243	1.29
250.625	1.83
251.006	1.78
251.388	1.01
251.769	0.1
252.151	1.2
252.532	0.42
252.913	1.5
253.295	0.98
253.676	1.16
254.057	1.35
254.438	1.26
254.819	0.95
255.2	1.09
255.581	2.16
255.962	1.61
256.343	1.58
256.724	1.17
257.105	0.8
257.486	-0.15
257.867	1.05
258.247	1.7
258.628	1.5
259.009	1.26
259.389	1.23
259.77	0.86
260.15	1.89
260.531	1.4
260.911	1.12
261.292	1.33
261.672	1.38
262.052	1.38
262.432	0.78
262.813	1.82
263.193	1.04
263.573	1.18
263.953	0.81
264.333	1.51
264.713	1.96
265.093	0.97
265.473	0.61
265.853	1.13
266.233	0.76
266.612	0.61
266.992	1.89
267.372	1.61
267.752	1.22
268.131	1.03
268.511	1.3
268.89	2.01
269.27	0.91
269.649	0.61
270.029	0.86
270.408	0.77
270.787	1.06
271.167	1.13
271.546	1.44
271.925	1.41
272.304	0.91
272.683	0.95
273.062	1.19
273.441	0.91
273.82	1.25
274.199	1.25
274.578	1.31
274.957	1.26
275.336	2.07
275.715	1.39
276.093	0.76
276.472	0.57
276.851	1.04
277.229	1.23
277.608	0.8
277.986	1.26
278.365	1.9
278.743	1.6
279.122	0.94
279.5	1.47
279.878	0.97
280.257	1.15
280.635	1.01
281.013	0.76
281.391	0.54
281.769	1.6
282.147	1.42
282.525	1.17
282.903	1.38
283.281	1.59
283.659	1.16
284.037	1.07
284.415	1.04
284.792	1.15
285.17	0.87
285.548	1.7
285.925	0.97
286.303	1.77
286.68	1.55
287.058	1.37
287.435	1.1
287.813	1.1
288.19	1.15
288.567	1.06
288.945	1.06
289.322	1.51
289.699	1.28
290.076	0.75
290.453	0.66
290.83	1.63
291.207	1.27
291.584	1.69
291.961	1.35
292.338	0.9
292.715	1.47
293.092	1.36
293.469	1.37
293.845	1.04
294.222	1.6
294.599	1.01
294.975	0.95
295.352	1.65
295.728	1.21
296.105	1.35
296.481	1.12
296.858	1.32
297.234	0.82
297.61	1.11
297.986	1.69
298.363	1.32
298.739	1.62
299.115	1.3
299.491	1.9
299.867	1.19
300.243	1.12
300.619	1.19
300.995	1.04
301.371	1.32
301.746	1.72
302.122	0.92
302.498	0.99
302.874	1.28
303.249	1.17
303.625	1.27
304	1.39
304.376	1.86
304.751	1.17
305.127	1.05
305.502	1.46
305.878	1.68
306.253	1.15
306.628	1.46
307.003	0.89
307.378	1.34
307.754	1.78
308.129	1.53
308.504	1.36
308.879	0.57
309.254	1.14
309.629	1.35
310.003	1.53
310.378	1.32
310.753	1.48
311.128	0.95
311.502	1.5
311.877	1.56
312.252	1.36
312.626	1.84
313.001	1.54
313.375	1.66
313.75	1.37
314.124	1.7
314.498	1.64
314.873	1.25
315.247	1.52
315.621	1.45
315.995	1.3
316.369	1.14
316.743	1.09
317.117	1.29
317.491	1.34
317.865	1.27
318.239	1.64
318.613	1.8
318.987	1.09
319.361	1.66
319.734	1.01
320.108	1.39
320.482	1.9
320.855	1.85
321.229	1.94
321.602	1.87
321.976	1.17
322.349	2.02
322.723	1.62
323.096	0.94
323.469	0.9
323.843	0.97
324.216	1.29
324.589	1.5
324.962	1.28
325.335	1.31
325.708	1.38
326.081	1.61
326.454	1.97
326.827	1.33
327.2	1.09
327.573	2.27
327.945	1.5
328.318	1.74
328.691	1.58
329.063	1.28
329.436	1.36
329.809	2.05
330.181	2.48
330.553	1.89
330.926	1.64
331.298	1.58
331.671	1.68
332.043	1.43
332.415	1.68
332.787	1.8
333.159	1.48
333.532	1.13
333.904	1.49
334.276	2.11
334.648	1.34
335.02	1.32
335.391	1.38
335.763	1.73
336.135	1.62
336.507	1.33
336.879	1.43
337.25	1.17
337.622	1.41
337.993	1.41
338.365	1.51
338.736	1.67
339.108	1.29
339.479	1.58
339.851	1.7
340.222	1.9
340.593	1.5
340.964	1.8
341.336	1.23
341.707	1.33
342.078	1.35
342.449	1.7
342.82	1.52
343.191	1.76
343.562	1.51
343.933	1.54
344.303	1.51
344.674	1.6
345.045	1.63
345.416	2
345.786	1.62
346.157	1.8
346.527	1.65
346.898	1.54
347.268	1.5
347.639	1.39
348.009	1.8
348.38	1.61
348.75	1.36
349.12	1.8
349.49	1.64
349.861	1.59
350.231	1.36
350.601	1.41
350.971	1.46
351.341	1.86
351.711	1.61
352.081	1.31
352.45	1.64
352.82	1.36
353.19	1.31
353.56	1.46
353.929	1.48
354.299	1.95
354.669	1.67
355.038	1.81
355.408	1.39
355.777	1.64
356.147	1.57
356.516	1.42
356.885	1.53
357.254	1.24
357.624	1.13
357.993	1.45
358.362	1.6
358.731	2.01
359.1	1.7
359.469	1.95
359.838	1.56
360.207	1.52
360.576	1.56
360.945	1.63
361.314	1.45
361.682	1.63
362.051	1.55
362.42	1.55
362.788	1.79
363.157	1.72
363.525	1.71
363.894	1.61
364.262	1.78
364.631	2.06
364.999	1.75
365.367	1.45
365.735	1.42
366.104	1.48
366.472	1.65
366.84	1.67
367.208	2.07
367.576	1.49
367.944	1.45
368.312	1.82
368.68	1.71
369.048	1.48
369.416	1.37
369.783	1.54
370.151	2.05
370.519	1.99
370.886	1.63
371.254	1.84
371.621	1.7
371.989	1.98
372.356	1.64
372.724	1.54
373.091	1.7
373.458	1.46
373.826	1.99
374.193	1.58
374.56	1.62
374.927	1.82
375.294	1.68
375.661	1.69
376.028	1.4
376.395	1.71
376.762	1.35
377.129	1.47
377.496	1.91
377.863	1.47
378.229	1.97
378.596	1.86
378.963	1.79
379.329	1.85
379.696	1.26
380.062	1.55
380.429	1.38
380.795	2.03
381.161	1.48
381.528	1.44
381.894	1.52
382.26	1.84
382.626	1.83
382.993	1.93
383.359	1.72
383.725	1.43
384.091	1.79
384.457	2.09
384.823	1.73
385.188	1.79
385.554	1.88
385.92	1.45
386.286	1.75
386.651	1.76
387.017	1.8
387.383	1.6
387.748	1.87
388.114	1.74
388.479	1.76
388.845	1.65
389.21	1.94
389.575	1.91
389.94	1.87
390.306	1.74
390.671	1.94
391.036	1.42
391.401	1.96
391.766	1.55
392.131	1.91
392.496	1.58
392.861	1.75
393.226	1.61
393.591	1.69
393.956	1.8
394.32	1.77
394.685	1.69
395.05	1.78
395.414	1.92
395.779	2
396.143	1.7
396.508	1.69
396.872	1.69
397.236	1.95
397.601	1.78
397.965	1.71
398.329	1.63
398.694	1.61
399.058	1.85
399.422	1.77
399.786	1.66
400.15	1.62
400.514	1.9
400.878	1.86
401.242	1.76
401.605	1.61
401.969	1.63
402.333	1.82
402.697	1.89
403.06	1.78
403.424	2.04
403.787	1.96
404.151	1.8
404.514	1.87
404.878	1.58
405.241	1.78
405.604	1.71
405.968	1.77
406.331	1.96
406.694	1.65
407.057	1.67
407.42	1.87
407.783	1.8
408.146	1.91
408.509	1.92
408.872	1.91
409.235	1.67
409.598	1.86
409.961	2.09
410.323	1.84
410.686	1.7
411.049	1.79
411.411	1.9
411.774	1.88
412.136	1.84
412.499	1.82
412.861	1.58
413.223	1.75
413.586	1.86
413.948	1.8
414.31	1.92
414.672	1.7
415.035	1.9
415.397	1.82
415.759	1.62
416.121	1.93
416.483	1.94
416.845	1.84
417.206	1.82
417.568	1.67
417.93	2.02
418.292	1.76
418.653	1.65
419.015	1.77
419.377	1.77
419.738	1.88
420.1	1.66
420.461	1.67
420.822	1.89
421.184	1.89
421.545	1.91
421.906	1.82
422.267	1.76
422.629	1.79
422.99	1.8
423.351	1.85
423.712	1.84
424.073	1.95
424.434	1.84
424.795	1.79
425.155	1.79
425.516	1.84
425.877	1.85
426.238	1.76
426.598	1.83
426.959	1.94
427.32	1.72
427.68	1.78
428.041	1.82
428.401	1.79
428.761	2.01
429.122	1.85
429.482	1.9
429.842	1.59
430.202	2
430.563	1.9
430.923	1.87
431.283	1.86
431.643	1.94
432.003	1.91
432.363	1.96
432.722	1.83
433.082	1.86
433.442	1.96
433.802	1.87
434.161	1.89
434.521	1.96
434.881	1.88
435.24	1.83
435.6	1.9
435.959	1.97
436.319	1.91
436.678	1.98
437.037	1.84
437.396	1.75
437.756	1.81
438.115	1.73
438.474	1.99
438.833	1.85
439.192	1.84
439.551	1.66
439.91	1.9
440.269	1.85
440.628	1.91
440.987	2.01
441.345	1.87
441.704	1.87
442.063	1.83
442.421	2.01
442.78	1.91
443.138	1.84
443.497	1.78
443.855	2.06
444.214	1.84
444.572	2.04
444.93	1.95
445.288	1.89
445.647	1.83
446.005	1.95
446.363	1.97
446.721	1.91
447.079	1.79
447.437	1.96
447.795	1.91
448.153	1.85
448.51	1.97
448.868	1.94
449.226	1.91
449.584	1.94
449.941	1.93
450.299	1.87
450.656	1.9
451.014	1.94
451.371	2.19
451.729	1.91
452.086	1.79
452.443	2
452.801	1.9
453.158	2.03
453.515	1.9
453.872	1.92
454.229	1.78
454.586	1.81
454.943	2.06
455.3	1.99
455.657	1.96
456.014	1.88
456.371	1.98
456.727	2.11
457.084	2.16
457.441	1.92
457.797	1.94
458.154	2.07
458.51	1.89
458.867	1.98
459.223	1.73
459.58	1.91
459.936	1.91
460.292	1.9
460.648	1.92
461.005	1.78
461.361	1.85
461.717	1.82
462.073	1.94
462.429	1.97
462.785	2.15
463.141	1.97
463.496	1.88
463.852	2.04
464.208	2.02
464.564	1.87
464.919	1.9
465.275	1.97
465.631	2.12
465.986	1.96
466.342	1.84
466.697	2.06
467.052	2.17
467.408	1.98
467.763	2.06
468.118	1.77
468.473	1.93
468.829	2
469.184	2.03
469.539	1.97
469.894	1.91
470.249	2
470.603	2.09
470.958	1.92
471.313	1.9
471.668	2.02
472.023	1.98
472.377	1.85
472.732	1.96
473.086	1.86
473.441	2.02
473.795	2.19
474.15	1.98
474.504	1.99
474.859	1.74
475.213	2.11
475.567	1.93
475.921	2.12
476.275	2.03
476.63	2.01
476.984	1.9
477.338	2.07
477.692	1.96
478.045	2.12
478.399	2.05
478.753	2.05
479.107	2.09
479.461	1.91
479.814	2.11
480.168	1.94
480.521	2.09
480.875	1.92
481.228	2.03
481.582	1.96
481.935	2.09
482.289	1.96
482.642	2.1
482.995	1.96
483.348	1.93
483.701	2.04
484.055	1.97
484.408	2.03
484.761	1.96
485.114	1.83
485.466	1.85
485.819	1.84
486.172	1.91
486.525	1.92
486.878	1.99
487.23	1.97
487.583	1.97
487.936	1.98
488.288	1.94
488.641	1.91
488.993	1.93
489.345	1.88
489.698	1.9
490.05	1.88
490.402	1.92
490.754	1.94
491.107	1.94
491.459	2
491.811	2.04
492.163	1.97
492.515	1.9
492.866	1.89
493.218	1.9
493.57	1.97
493.922	2
494.274	2.03
494.625	2.04
494.977	1.99
495.328	2.04
495.68	2.02
496.031	2.04
496.383	1.95
496.734	1.93
497.086	2.05
497.437	2.08
497.788	2.08
498.139	1.98
498.49	2.05
498.842	2
499.193	1.99
499.544	2.02
499.894	1.96
500.245	2.14
500.596	2.09
500.947	2
501.298	2.02
501.648	2.06
501.999	2.14
502.35	1.95
502.7	2.15
503.051	2.1
503.401	2.16
503.752	2
504.102	1.95
504.452	1.98
504.803	1.93
505.153	2.17
505.503	1.96
505.853	2.19
506.203	2.08
506.553	2.06
506.903	2.01
507.253	2.13
507.603	2.11
507.953	1.98
508.303	2.08
508.652	1.95
509.002	2.15
509.352	2.14
509.701	1.95
510.051	2.07
510.4	2.18
510.75	2.1
511.099	1.98
511.449	2.16
511.798	1.94
512.147	1.97
512.496	2.06
512.846	2.03
513.195	2.05
513.544	2.06
513.893	2.09
514.242	1.98
514.591	2.07
514.939	2.03
515.288	2.11
515.637	2.08
515.986	2.11
516.334	2.21
516.683	2.13
517.032	2.12
517.38	1.98
517.729	2.18
518.077	2.08
518.426	2.12
518.774	2.11
519.122	2.16
519.47	2.03
519.819	2.07
520.167	1.99
520.515	2.04
520.863	2.05
521.211	2.1
521.559	2.04
521.907	2.07
522.255	2.02
522.602	2.13
522.95	2.1
523.298	2.2
523.645	1.99
523.993	2.13
524.341	2.15
524.688	2.06
525.036	2
525.383	2.12
525.73	2.04
526.078	2.16
526.425	2
526.772	2.06
527.119	2.05
527.466	2.18
527.814	2
528.161	2.08
528.508	2.14
528.854	2.11
529.201	1.99
529.548	2
529.895	1.96
530.242	1.98
530.588	1.98
530.935	2
531.282	1.99
531.628	2.04
531.975	2.01
532.321	2.06
532.667	2.09
533.014	2.13
533.36	2.03
533.706	2.05
534.052	2.09
534.399	2.09
534.745	2
535.091	1.95
535.437	1.97
535.783	2.02
536.129	2.06
536.474	2.08
536.82	2.08
537.166	2.01
537.512	2.07
537.857	2.05
538.203	2.06
538.549	2.1
538.894	2.1
539.239	2.09
539.585	2.17
539.93	2.25
540.276	2.08
540.621	2.08
540.966	2.1
541.311	2.18
541.656	2.04
542.001	2.05
542.346	2.02
542.691	1.99
543.036	2.04
543.381	2.05
543.726	2.11
544.071	2.02
544.415	2.08
544.76	2.08
545.105	2.06
545.449	2.09
545.794	2.08
546.138	2.08
546.483	2.07
546.827	2
547.171	2.16
547.516	2.17
547.86	2.11
548.204	2.1
548.548	1.98
548.892	2.08
549.236	2.14
549.58	2.2
549.924	2.2
550.268	2.31
550.612	2.26
550.956	2.21
551.3	2.36
551.643	2.17
551.987	2.3
552.33	2.32
552.674	2.17
553.017	2.31
553.361	2.07
553.704	2.19
554.048	2.1
554.391	2.19
554.734	2.15
555.077	2.17
555.42	2.02
555.764	2.12
556.107	2.26
556.45	2.15
556.793	2.31
557.135	2.36
557.478	2.15
557.821	2.17
558.164	2.28
558.507	2.13
558.849	2.35
559.192	2.17
559.534	2.14
559.877	2.13
560.219	2.16
560.562	2.12
560.904	2.23
561.246	2.23
561.589	2.28
561.931	2.06
562.273	2.3
562.615	2.14
562.957	2.03
563.299	2.25
563.641	2.12
563.983	2.1
564.325	2.11
564.667	2.06
565.008	2.14
565.35	1.99
565.692	2.2
566.033	2.19
566.375	2.22
566.716	2.13
567.058	2.16
567.399	2.14
567.741	2.16
568.082	2.14
568.423	2.01
568.764	2.27
569.105	2.06
569.447	2.12
569.788	2.1
570.129	2.26
570.47	2.05
570.811	2.07
571.151	2.13
571.492	2.22
571.833	2.17
572.174	2.21
572.514	2.16
572.855	2.23
573.195	2.09
573.536	2.2
573.876	2.21
574.217	2.13
574.557	2.1
574.898	2.13
575.238	2.23
575.578	2.24
575.918	2.26
576.258	2.31
576.598	2.17
576.938	2.18
577.278	2.16
577.618	2.25
577.958	2.3
578.298	2.25
578.638	2.1
578.977	2.24
579.317	2.28
579.657	2.22
579.996	2.33
580.336	2.15
580.675	2
581.014	2.26
581.354	2.25
581.693	2.47
582.032	2.28
582.372	2.32
582.711	2.23
583.05	2.08
583.389	2.36
583.728	2.47
584.067	2.25
584.406	2.45
584.745	2.37
585.083	2.31
585.422	2.36
585.761	2.18
586.1	2.32
586.438	2.06
586.777	2.14
587.115	2.35
587.454	1.97
587.792	2.36
588.13	2.16
588.469	2.06
588.807	2.35
589.145	2.3
589.483	1.72
589.821	2.28
590.159	2.42
590.497	2.29
590.835	2.12
591.173	2.36
591.511	2.26
591.849	2.3
592.187	1.95
592.524	2.34
592.862	2.17
593.2	2.2
593.537	2.28
593.875	2.19
594.212	2.27
594.55	2.3
594.887	2.27
595.224	2.3
595.561	2.12
595.899	2.31
596.236	2.31
596.573	2.3
596.91	2.2
597.247	2.29
597.584	2.33
597.921	2.35
598.258	2.38
598.594	2.2
598.931	2.14
599.268	2.21
599.604	2.34
599.941	2.26
600.277	2.21
600.614	2.21
600.95	2.16
601.287	2.23
601.623	2.15
601.959	2.36
602.296	2.23
602.632	2.14
602.968	2.4
603.304	2.32
603.64	2.3
603.976	2.25
604.312	2.09
604.648	2.18
604.984	2.46
605.319	2.14
605.655	2.22
605.991	2.16
606.326	2.33
606.662	2.17
606.998	2.36
607.333	2.21
607.668	2.18
608.004	2.24
608.339	2.16
608.674	2.36
609.01	2.39
609.345	2.12
609.68	2.2
610.015	2.37
610.35	2.59
610.685	2
611.02	2.04
611.355	2.16
611.689	2.25
612.024	2.39
612.359	2.31
612.694	2.5
613.028	2.25
613.363	2.21
613.697	2.25
614.032	2.5
614.366	2.27
614.7	2.44
615.035	2.25
615.369	2.45
615.703	2.64
616.037	2.44
616.371	2.33
616.705	2.24
617.039	2.46
617.373	2.36
617.707	2.36
618.041	2.24
618.375	1.85
618.709	2.36
619.042	2.25
619.376	2.38
619.71	2.38
620.043	2.61
620.377	2.46
620.71	2.18
621.043	2.46
621.377	2.43
621.71	2.46
622.043	2.4
622.376	2.28
622.709	2.71
623.043	2.44
623.376	2.38
623.709	2.45
624.041	2.21
624.374	2.6
624.707	2.43
625.04	2.42
625.373	2.54
625.705	2.33
626.038	2.29
626.37	1.88
626.703	2.59
627.035	2.39
627.368	2.37
627.7	2.11
628.032	2.2
628.365	2.67
628.697	2.69
629.029	2.42
629.361	2.52
629.693	2.36
630.025	2.38
630.357	2.61
630.689	2.11
631.021	2.39
631.353	2.22
631.684	2.38
632.016	2.22
632.348	2.02
632.679	2.51
633.011	2.04
633.342	2.03
633.674	1.94
634.005	2.36
634.336	2.3
634.668	2.16
634.999	2.38
635.33	2.27
635.661	2.35
635.992	2.28
636.323	2.27
636.654	2.71
636.985	2.5
637.316	2.2
637.647	2.9
637.977	2.3
638.308	2.62
638.639	2.34
638.969	2.44
639.3	2.4
639.63	2.28
639.961	2.48
640.291	1.96
640.622	2.57
640.952	2.37
641.282	2.22
641.612	2.35
641.943	2.12
642.273	2.26
642.603	2.67
642.933	2.14
643.263	2.79
643.592	2.46
643.922	2.68
644.252	2.46
644.582	2.58
644.911	2.28
645.241	2.1
645.571	2.39
645.9	2.08
646.23	2.37
646.559	2.29
646.888	2.36
647.218	2.56
647.547	2.44
647.876	2.41
648.205	2.26
648.534	2.49
648.863	2.48
649.192	2.29
649.521	2.53
649.85	2.41
650.179	2.53
650.508	2.07
650.837	2.84
651.165	2.55
651.494	2.59
651.822	2.69
652.151	2.22
652.479	2.42
652.808	2.79
653.136	2.44
653.465	2.11
653.793	2.26
654.121	2.8
654.449	2.73
654.777	2.16
655.105	1.95
655.433	3.1
655.761	2.6
656.089	2.44
656.417	2.71
656.745	2.69
657.073	1.86
657.4	2.37
657.728	2.34
658.056	2.35
658.383	2.16
658.711	2.46
659.038	2.5
659.365	2.43
659.693	2.27
660.02	2.06
660.347	2.36
660.674	2.1
661.001	2.47
661.329	2.55
661.656	2.22
661.982	2.18
662.309	2.29
662.636	2.53
662.963	2.19
663.29	2.51
663.616	2.35
663.943	2.55
664.27	1.95
664.596	2.51
664.923	2.97
665.249	2.79
665.576	2.13
665.902	1.87
666.228	2.69
666.554	3.13
666.881	2.27
667.207	2.56
667.533	2.45
667.859	2
668.185	2.15
668.511	2.64
668.837	2.51
669.162	2.34
669.488	1.71
669.814	2.38
670.139	1.8
670.465	2.96
670.791	2.33
671.116	1.8
671.442	1.99
671.767	2.24
672.092	2.3
672.418	2.63
672.743	2.07
673.068	2.04
673.393	2.4
673.718	1.67
674.043	2.27
674.368	2.28
674.693	2.58
675.018	2.38
675.343	2.65
675.667	2.43
675.992	2.63
676.317	1.75
676.641	2.81
676.966	2.72
677.29	1.94
677.615	2.32
677.939	2.62
678.264	1.97
678.588	2.6
678.912	2.21
679.236	1.97
679.56	1.43
679.885	2.45
680.209	2.81
680.532	2.84
680.856	2.55
681.18	3.05
681.504	2.72
681.828	2.12
682.152	2.34
682.475	2.61
682.799	2.2
683.122	2.72
683.446	1.86
683.769	2.86
684.093	2.59
684.416	2.1
684.739	1.87
685.062	2.63
685.386	2.44
685.709	2.48
686.032	2.5
686.355	2.63
686.678	3.08
687.001	2.62
687.324	2.16
687.646	2.63
687.969	2.16
688.292	2.68
688.614	3.07
688.937	3.03
689.26	3.17
689.582	2.58
689.904	2.18
690.227	2.86
690.549	2.91
690.871	2.13
691.194	1.95
691.516	3.09
691.838	2.58
692.16	2.34
692.482	2.34
692.804	2.25
