Data from 22-1_chest_Reflection__3__214.txt Node

Date: Thu Dec 15 18:10:06 CST 2022
User: ToomeyLab
Spectrometer: FLMS14357
Trigger mode: 0
Integration Time (sec): 1.000000E-2
Scans to average: 100
Electric dark correction enabled: true
Nonlinearity correction enabled: false
Boxcar width: 0
XAxis mode: Wavelengths
Number of Pixels in Spectrum: 2048
>>>>>Begin Spectral Data<<<<<
189.047	-148.08
189.435	-148.08
189.823	-148.08
190.211	-619.55
190.599	11.04
190.987	-101.47
191.375	-33.57
191.763	-222.86
192.151	161.01
192.538	32.01
192.926	171.07
193.314	-337.46
193.702	557.67
194.089	-13.02
194.477	124.53
194.864	105.79
195.252	177.93
195.639	155.95
196.027	81.71
196.414	31.09
196.801	-195.94
197.189	160.72
197.576	17.06
197.963	39.87
198.351	13.05
198.738	-43.44
199.125	-213.16
199.512	23.48
199.899	-15.68
200.286	-78.75
200.673	28.17
201.06	-53.55
201.447	-5.85
201.833	33.67
202.22	-31.66
202.607	5.44
202.994	8.27
203.38	-29.52
203.767	49.45
204.154	25.7
204.54	-27.69
204.927	-14.39
205.313	27.09
205.699	14.27
206.086	7.19
206.472	-0.25
206.858	-33.53
207.245	-36.65
207.631	-3.54
208.017	33.35
208.403	-153.45
208.789	2.33
209.175	-14.66
209.561	-224.2
209.947	-23.19
210.333	-23.4
210.719	26.61
211.105	31.24
211.491	0.32
211.876	-61.56
212.262	-36.85
212.648	11.85
213.034	-25.13
213.419	-28.54
213.805	-83.1
214.19	-61.43
214.576	-58
214.961	2.59
215.346	-69.63
215.732	7.41
216.117	6.55
216.502	-43.41
216.888	-11.51
217.273	-7.9
217.658	-17.65
218.043	-44.72
218.428	-42.37
218.813	3.19
219.198	-33.05
219.583	-10.81
219.968	-14.21
220.353	-41.03
220.738	-7.88
221.122	-21.29
221.507	-24.93
221.892	-31.14
222.276	-23.05
222.661	-7.09
223.046	-9.39
223.43	7.36
223.815	-5.99
224.199	-3.55
224.583	-8.93
224.968	0.59
225.352	-12.29
225.736	6.1
226.121	-1.85
226.505	-4.78
226.889	0.68
227.273	-2.46
227.657	4.53
228.041	0.06
228.425	-2.75
228.809	0.06
229.193	1.34
229.577	2.72
229.961	2.7
230.344	2.21
230.728	3.21
231.112	3.85
231.495	1.34
231.879	3.84
232.263	3.42
232.646	1.69
233.03	4.41
233.413	2.1
233.797	-1.49
234.18	1.41
234.563	2.92
234.946	1.02
235.33	1.46
235.713	3.56
236.096	5.09
236.479	3.24
236.862	0.78
237.245	0.06
237.628	2.15
238.011	1.84
238.394	0.63
238.777	1.33
239.16	3.37
239.543	4.19
239.925	1.22
240.308	1.01
240.691	0.98
241.073	0.66
241.456	3.33
241.838	2.35
242.221	3.5
242.603	3.38
242.986	3.63
243.368	3.7
243.75	3.03
244.133	3.56
244.515	3.65
244.897	2.56
245.279	2.44
245.661	2.93
246.043	3.65
246.425	2.97
246.807	3.23
247.189	2.7
247.571	2.87
247.953	3.22
248.335	3.38
248.717	3.42
249.098	3.44
249.48	3.22
249.862	3.41
250.243	3.48
250.625	3.18
251.006	4.19
251.388	3.22
251.769	2.1
252.151	3.06
252.532	2.11
252.913	3.35
253.295	2.71
253.676	3.63
254.057	3.06
254.438	2.99
254.819	3.48
255.2	3.59
255.581	3.92
255.962	4.11
256.343	2.71
256.724	2.14
257.105	3.11
257.486	2.93
257.867	3.21
258.247	2.56
258.628	3.11
259.009	2.66
259.389	2.61
259.77	3.1
260.15	3.7
260.531	3.14
260.911	3.22
261.292	3.27
261.672	3.24
262.052	3.13
262.432	3.09
262.813	3.01
263.193	3.3
263.573	2.63
263.953	2.25
264.333	3.11
264.713	3.36
265.093	3.06
265.473	2.35
265.853	2.3
266.233	2.72
266.612	2.46
266.992	2.44
267.372	3.7
267.752	3.11
268.131	2.8
268.511	2.75
268.89	3.32
269.27	2.72
269.649	2.45
270.029	2.98
270.408	2.95
270.787	2.93
271.167	3.21
271.546	3.43
271.925	3.36
272.304	2.92
272.683	2.95
273.062	2.57
273.441	2.55
273.82	3.29
274.199	2.78
274.578	2.73
274.957	2.75
275.336	3.43
275.715	2.8
276.093	1.9
276.472	2.04
276.851	2.54
277.229	2.75
277.608	2.46
277.986	3.19
278.365	3.1
278.743	2.72
279.122	3.17
279.5	2.33
279.878	2.36
280.257	2.91
280.635	2.65
281.013	2.16
281.391	2.57
281.769	2.91
282.147	2.53
282.525	2.49
282.903	2.73
283.281	2.94
283.659	2.84
284.037	2.71
284.415	2.43
284.792	3.15
285.17	2.49
285.548	2.58
285.925	2.58
286.303	3.16
286.68	2.96
287.058	2.93
287.435	2.94
287.813	3.11
288.19	2.59
288.567	2.98
288.945	2.54
289.322	2.97
289.699	3.1
290.076	2.7
290.453	2.58
290.83	3.3
291.207	3.45
291.584	3.41
291.961	3.14
292.338	2.62
292.715	3.01
293.092	3.36
293.469	3.69
293.845	3.48
294.222	3.8
294.599	2.49
294.975	2.52
295.352	3.06
295.728	3.13
296.105	2.91
296.481	3.44
296.858	2.8
297.234	3.02
297.61	3.36
297.986	3.56
298.363	3.4
298.739	3.18
299.115	3.51
299.491	3.66
299.867	3.11
300.243	2.82
300.619	2.8
300.995	3.56
301.371	3.64
301.746	3.76
302.122	2.87
302.498	2.97
302.874	3.66
303.249	2.73
303.625	2.57
304	3.79
304.376	3.68
304.751	3.55
305.127	3.03
305.502	3.15
305.878	3.46
306.253	3.44
306.628	3.32
307.003	3.16
307.378	2.94
307.754	3.65
308.129	3.48
308.504	3.24
308.879	3.54
309.254	3.92
309.629	3.49
310.003	3.16
310.378	3.77
310.753	3.55
311.128	3.01
311.502	3.49
311.877	3.43
312.252	3.52
312.626	3.75
313.001	3.76
313.375	3.85
313.75	3.55
314.124	3.57
314.498	3.92
314.873	3.17
315.247	3.22
315.621	3.57
315.995	3.37
316.369	3.66
316.743	3.92
317.117	3.47
317.491	3.4
317.865	2.9
318.239	4.02
318.613	3.81
318.987	3.02
319.361	3.65
319.734	3.85
320.108	3.77
320.482	4.29
320.855	3.86
321.229	3.55
321.602	3.87
321.976	2.77
322.349	4.59
322.723	3.64
323.096	3.81
323.469	3.57
323.843	3.27
324.216	3.66
324.589	3.83
324.962	3.23
325.335	3.6
325.708	3.29
326.081	3.55
326.454	3.85
326.827	3.75
327.2	3.37
327.573	4.01
327.945	3.48
328.318	3.37
328.691	3.66
329.063	3.37
329.436	3.75
329.809	4.15
330.181	4.08
330.553	3.63
330.926	3.81
331.298	3.5
331.671	3.98
332.043	3.51
332.415	4.1
332.787	3.63
333.159	3.45
333.532	3.67
333.904	4.1
334.276	4.07
334.648	3.75
335.02	3.6
335.391	4.05
335.763	3.96
336.135	4.25
336.507	3.61
336.879	3.05
337.25	3.82
337.622	3.88
337.993	3.66
338.365	3.76
338.736	3.81
339.108	4.02
339.479	3.99
339.851	3.99
340.222	4.35
340.593	3.99
340.964	4
341.336	3.36
341.707	3.74
342.078	3.77
342.449	3.79
342.82	3.88
343.191	3.6
343.562	3.92
343.933	3.64
344.303	3.76
344.674	3.85
345.045	3.97
345.416	4.32
345.786	3.96
346.157	3.76
346.527	3.81
346.898	3.4
347.268	4
347.639	3.55
348.009	3.98
348.38	3.62
348.75	4.11
349.12	4.16
349.49	4
349.861	4.04
350.231	3.43
350.601	4.08
350.971	3.8
351.341	3.91
351.711	3.87
352.081	3.3
352.45	3.69
352.82	3.65
353.19	3.89
353.56	3.9
353.929	4.18
354.299	3.93
354.669	4.44
355.038	4
355.408	3.89
355.777	4.14
356.147	3.97
356.516	3.83
356.885	3.86
357.254	3.86
357.624	3.62
357.993	3.75
358.362	3.77
358.731	4.2
359.1	3.93
359.469	4
359.838	4.11
360.207	3.7
360.576	4.26
360.945	4.41
361.314	3.89
361.682	3.82
362.051	4.18
362.42	4.1
362.788	4.12
363.157	3.93
363.525	4.14
363.894	3.97
364.262	4.28
364.631	4.59
364.999	4.16
365.367	4.05
365.735	3.77
366.104	3.69
366.472	4.23
366.84	4.01
367.208	4.33
367.576	4.05
367.944	4.1
368.312	4.36
368.68	4.17
369.048	4.07
369.416	4.04
369.783	4.1
370.151	4.54
370.519	4.57
370.886	4.07
371.254	4.2
371.621	4.26
371.989	4.24
372.356	4.07
372.724	4.14
373.091	4.13
373.458	4.08
373.826	4.67
374.193	4.28
374.56	4.17
374.927	4.15
375.294	4.39
375.661	4.07
376.028	4.01
376.395	4.3
376.762	3.92
377.129	3.79
377.496	4.33
377.863	4.45
378.229	4.54
378.596	4.27
378.963	4.15
379.329	4.28
379.696	4.21
380.062	4.48
380.429	3.92
380.795	4.61
381.161	4.04
381.528	4.12
381.894	4.02
382.26	4.44
382.626	4.33
382.993	4.57
383.359	4.32
383.725	3.87
384.091	4.53
384.457	4.18
384.823	4.36
385.188	4.29
385.554	4.3
385.92	3.99
386.286	4.24
386.651	4.22
387.017	4.41
387.383	4.44
387.748	4.46
388.114	4.43
388.479	4.39
388.845	4.14
389.21	4.64
389.575	4.61
389.94	4.47
390.306	4.48
390.671	4.22
391.036	4.6
391.401	4.14
391.766	4.52
392.131	4.46
392.496	4.43
392.861	4.17
393.226	4.17
393.591	4.36
393.956	4.51
394.32	4.48
394.685	4.59
395.05	4.38
395.414	4.29
395.779	4.51
396.143	4.22
396.508	4.18
396.872	4.45
397.236	4.95
397.601	4.62
397.965	4.37
398.329	4.4
398.694	4.29
399.058	4.5
399.422	4.3
399.786	4.44
400.15	4.32
400.514	4.47
400.878	4.33
401.242	4.53
401.605	4.65
401.969	4.3
402.333	4.49
402.697	4.78
403.06	4.35
403.424	4.74
403.787	4.45
404.151	4.66
404.514	4.4
404.878	4.29
405.241	4.39
405.604	4.49
405.968	4.49
406.331	4.53
406.694	4.56
407.057	4.42
407.42	4.51
407.783	4.55
408.146	4.73
408.509	4.8
408.872	4.53
409.235	4.33
409.598	4.49
409.961	4.59
410.323	4.4
410.686	4.47
411.049	4.75
411.411	4.41
411.774	4.45
412.136	4.42
412.499	4.62
412.861	4.2
413.223	4.28
413.586	4.49
413.948	4.65
414.31	4.64
414.672	4.41
415.035	4.75
415.397	4.6
415.759	4.33
416.121	4.7
416.483	4.66
416.845	4.57
417.206	4.63
417.568	4.63
417.93	4.68
418.292	4.51
418.653	4.3
419.015	4.46
419.377	4.41
419.738	4.69
420.1	4.6
420.461	4.51
420.822	4.54
421.184	4.59
421.545	4.61
421.906	4.7
422.267	4.63
422.629	4.54
422.99	4.6
423.351	4.45
423.712	4.63
424.073	4.57
424.434	4.69
424.795	4.55
425.155	4.47
425.516	4.53
425.877	4.61
426.238	4.65
426.598	4.63
426.959	4.72
427.32	4.5
427.68	4.7
428.041	4.8
428.401	4.62
428.761	4.61
429.122	4.7
429.482	4.61
429.842	4.6
430.202	4.64
430.563	4.63
430.923	4.73
431.283	4.98
431.643	4.88
432.003	4.77
432.363	4.8
432.722	4.8
433.082	4.83
433.442	4.86
433.802	4.72
434.161	4.76
434.521	4.75
434.881	4.66
435.24	4.76
435.6	4.7
435.959	4.68
436.319	4.67
436.678	4.87
437.037	4.75
437.396	4.85
437.756	4.66
438.115	4.72
438.474	4.81
438.833	4.71
439.192	4.69
439.551	4.73
439.91	4.93
440.269	4.78
440.628	4.8
440.987	4.81
441.345	4.77
441.704	4.84
442.063	4.77
442.421	4.8
442.78	4.93
443.138	4.8
443.497	4.72
443.855	4.73
444.214	4.7
444.572	4.87
444.93	4.71
445.288	4.8
445.647	4.63
446.005	4.79
446.363	4.89
446.721	4.82
447.079	4.75
447.437	4.84
447.795	4.84
448.153	4.85
448.51	4.89
448.868	4.84
449.226	4.97
449.584	4.83
449.941	4.93
450.299	4.88
450.656	4.87
451.014	5
451.371	4.9
451.729	5.01
452.086	4.91
452.443	4.97
452.801	4.94
453.158	5.05
453.515	4.92
453.872	4.92
454.229	4.96
454.586	4.88
454.943	4.93
455.3	4.96
455.657	4.88
456.014	5.13
456.371	5.1
456.727	5.06
457.084	5.23
457.441	4.86
457.797	4.99
458.154	4.91
458.51	5.03
458.867	4.93
459.223	4.98
459.58	5.05
459.936	4.98
460.292	5.05
460.648	4.9
461.005	4.92
461.361	5.01
461.717	4.9
462.073	5.07
462.429	4.98
462.785	5.15
463.141	5.06
463.496	5.1
463.852	5.07
464.208	5.07
464.564	4.98
464.919	5.08
465.275	5.04
465.631	5.3
465.986	5.2
466.342	5.06
466.697	4.99
467.052	5.22
467.408	5.35
467.763	5.02
468.118	5.09
468.473	5.17
468.829	5.16
469.184	5.15
469.539	5
469.894	5.15
470.249	5.22
470.603	5.32
470.958	5.22
471.313	5.27
471.668	5.27
472.023	5.24
472.377	5.3
472.732	5.29
473.086	5.09
473.441	5.21
473.795	5.29
474.15	4.99
474.504	5.21
474.859	5.02
475.213	5.35
475.567	5.07
475.921	5.33
476.275	5.27
476.63	5.25
476.984	5.03
477.338	5.21
477.692	5.26
478.045	5.32
478.399	5.35
478.753	5.27
479.107	5.28
479.461	5.18
479.814	5.28
480.168	5.29
480.521	5.45
480.875	5.38
481.228	5.36
481.582	5.35
481.935	5.48
482.289	5.33
482.642	5.44
482.995	5.28
483.348	5.34
483.701	5.34
484.055	5.23
484.408	5.23
484.761	5.11
485.114	5.06
485.466	5.07
485.819	5.07
486.172	5.13
486.525	5.13
486.878	5.24
487.23	5.24
487.583	5.25
487.936	5.29
488.288	5.2
488.641	5.19
488.993	5.19
489.345	5.24
489.698	5.2
490.05	5.22
490.402	5.23
490.754	5.25
491.107	5.2
491.459	5.42
491.811	5.32
492.163	5.44
492.515	5.38
492.866	5.28
493.218	5.26
493.57	5.32
493.922	5.28
494.274	5.42
494.625	5.47
494.977	5.45
495.328	5.58
495.68	5.47
496.031	5.4
496.383	5.52
496.734	5.43
497.086	5.58
497.437	5.58
497.788	5.66
498.139	5.49
498.49	5.57
498.842	5.51
499.193	5.42
499.544	5.61
499.894	5.56
500.245	5.61
500.596	5.54
500.947	5.59
501.298	5.61
501.648	5.65
501.999	5.63
502.35	5.53
502.7	5.75
503.051	5.75
503.401	5.8
503.752	5.49
504.102	5.56
504.452	5.6
504.803	5.58
505.153	5.77
505.503	5.71
505.853	5.73
506.203	5.83
506.553	5.67
506.903	5.75
507.253	5.73
507.603	5.72
507.953	5.78
508.303	5.76
508.652	5.65
509.002	5.89
509.352	5.73
509.701	5.69
510.051	5.88
510.4	5.81
510.75	5.79
511.099	5.76
511.449	5.83
511.798	5.74
512.147	5.81
512.496	5.85
512.846	5.83
513.195	5.81
513.544	5.87
513.893	5.82
514.242	5.87
514.591	5.92
514.939	5.94
515.288	5.84
515.637	5.86
515.986	5.84
516.334	5.91
516.683	5.88
517.032	5.76
517.38	5.88
517.729	5.95
518.077	5.85
518.426	5.92
518.774	5.95
519.122	5.92
519.47	5.91
519.819	5.92
520.167	5.91
520.515	5.87
520.863	5.91
521.211	5.89
521.559	6
521.907	6.03
522.255	5.95
522.602	6.17
522.95	6.06
523.298	6.04
523.645	6.16
523.993	6.07
524.341	6.04
524.688	6.07
525.036	6.01
525.383	6.2
525.73	5.96
526.078	6.25
526.425	6.1
526.772	6.05
527.119	6.12
527.466	6.08
527.814	6.01
528.161	6.13
528.508	6.14
528.854	6.11
529.201	6.03
529.548	5.99
529.895	6
530.242	5.93
530.588	5.97
530.935	6.06
531.282	6
531.628	6.07
531.975	6.07
532.321	6.19
532.667	6.24
533.014	6.28
533.36	6.21
533.706	6.28
534.052	6.26
534.399	6.27
534.745	6.23
535.091	6.11
535.437	6.28
535.783	6.24
536.129	6.3
536.474	6.34
536.82	6.41
537.166	6.33
537.512	6.36
537.857	6.33
538.203	6.43
538.549	6.29
538.894	6.38
539.239	6.43
539.585	6.55
539.93	6.58
540.276	6.56
540.621	6.62
540.966	6.57
541.311	6.51
541.656	6.47
542.001	6.57
542.346	6.45
542.691	6.35
543.036	6.42
543.381	6.43
543.726	6.52
544.071	6.54
544.415	6.55
544.76	6.59
545.105	6.61
545.449	6.57
545.794	6.6
546.138	6.69
546.483	6.82
546.827	6.66
547.171	6.74
547.516	6.8
547.86	6.78
548.204	6.74
548.548	6.81
548.892	6.81
549.236	6.82
549.58	6.82
549.924	7.02
550.268	6.92
550.612	6.91
550.956	7.14
551.3	7.01
551.643	7
551.987	7.17
552.33	7.2
552.674	7.02
553.017	7.06
553.361	7.11
553.704	7.03
554.048	7.06
554.391	7.12
554.734	6.97
555.077	7.13
555.42	7.06
555.764	7.15
556.107	7.17
556.45	7.18
556.793	7.23
557.135	7.35
557.478	7.13
557.821	7.14
558.164	7.42
558.507	7.28
558.849	7.33
559.192	7.2
559.534	7.27
559.877	7.17
560.219	7.31
560.562	7.2
560.904	7.55
561.246	7.33
561.589	7.49
561.931	7.52
562.273	7.45
562.615	7.41
562.957	7.47
563.299	7.52
563.641	7.36
563.983	7.33
564.325	7.56
564.667	7.44
565.008	7.58
565.35	7.5
565.692	7.61
566.033	7.55
566.375	7.51
566.716	7.52
567.058	7.62
567.399	7.58
567.741	7.64
568.082	7.62
568.423	7.71
568.764	7.96
569.105	7.67
569.447	7.7
569.788	7.82
570.129	7.86
570.47	7.74
570.811	7.86
571.151	7.84
571.492	7.82
571.833	7.84
572.174	7.99
572.514	7.96
572.855	8.06
573.195	7.8
573.536	7.96
573.876	7.83
574.217	7.78
574.557	8.02
574.898	7.82
575.238	8
575.578	8.06
575.918	8.14
576.258	8.19
576.598	8.08
576.938	8.2
577.278	8.18
577.618	8.12
577.958	8.29
578.298	8.16
578.638	8.27
578.977	8.24
579.317	8.36
579.657	8.54
579.996	8.4
580.336	8.49
580.675	8.32
581.014	8.5
581.354	8.19
581.693	8.52
582.032	8.75
582.372	8.46
582.711	8.58
583.05	8.42
583.389	8.54
583.728	8.65
584.067	8.36
584.406	8.64
584.745	8.53
585.083	8.54
585.422	8.64
585.761	8.86
586.1	8.73
586.438	8.72
586.777	8.87
587.115	8.69
587.454	8.46
587.792	8.87
588.13	8.98
588.469	8.78
588.807	9.12
589.145	9.03
589.483	8.82
589.821	8.97
590.159	9.02
590.497	9.25
590.835	8.87
591.173	9.05
591.511	9.19
591.849	9.04
592.187	8.89
592.524	9.17
592.862	8.94
593.2	9.05
593.537	9.08
593.875	8.97
594.212	9.12
594.55	9.37
594.887	9.32
595.224	9.29
595.561	9.14
595.899	9.39
596.236	9.35
596.573	9.32
596.91	9.24
597.247	9.58
597.584	9.36
597.921	9.26
598.258	9.62
598.594	9.56
598.931	9.2
599.268	9.15
599.604	9.57
599.941	9.54
600.277	9.58
600.614	9.5
600.95	9.33
601.287	9.27
601.623	9.3
601.959	10.03
602.296	9.64
602.632	9.37
602.968	9.66
603.304	9.78
603.64	9.81
603.976	9.84
604.312	9.71
604.648	9.97
604.984	9.91
605.319	9.78
605.655	9.77
605.991	9.82
606.326	9.94
606.662	9.76
606.998	9.95
607.333	9.93
607.668	10.04
608.004	9.88
608.339	9.8
608.674	10.18
609.01	10.63
609.345	10.13
609.68	10.15
610.015	10.14
610.35	10.28
610.685	10.05
611.02	10.01
611.355	10.27
611.689	10.12
612.024	10.38
612.359	10.49
612.694	10.44
613.028	10.26
613.363	10.33
613.697	10.4
614.032	10.37
614.366	10.76
614.7	10.39
615.035	10.46
615.369	10.47
615.703	10.6
616.037	10.82
616.371	10.52
616.705	10.62
617.039	10.78
617.373	10.86
617.707	10.51
618.041	10.62
618.375	10.07
618.709	10.96
619.042	10.76
619.376	11.05
619.71	10.6
620.043	10.94
620.377	10.64
620.71	10.81
621.043	10.93
621.377	11.05
621.71	11.26
622.043	11.35
622.376	11.05
622.709	11.19
623.043	11.14
623.376	11.06
623.709	11.52
624.041	10.75
624.374	11.33
624.707	10.96
625.04	10.89
625.373	11.52
625.705	11.16
626.038	11.29
626.37	11.04
626.703	11.35
627.035	11.49
627.368	11.34
627.7	11.4
628.032	11.46
628.365	11.6
628.697	11.59
629.029	11.43
629.361	11.76
629.693	11.38
630.025	11.36
630.357	11.71
630.689	11.64
631.021	11.86
631.353	11.8
631.684	11.75
632.016	11.36
632.348	11.46
632.679	11.88
633.011	11.7
633.342	11.75
633.674	11.45
634.005	11.98
634.336	11.94
634.668	12.02
634.999	11.87
635.33	12.12
635.661	11.66
635.992	12.01
636.323	12.2
636.654	11.83
636.985	11.74
637.316	12.27
637.647	12.5
637.977	11.84
638.308	12.66
638.639	12.12
638.969	12.02
639.3	12.4
639.63	12.16
639.961	12.18
640.291	12.12
640.622	12.47
640.952	12.84
641.282	12.37
641.612	12.16
641.943	11.4
642.273	12.3
642.603	12.46
642.933	12.93
643.263	12.53
643.592	13.07
643.922	12.81
644.252	12.72
644.582	12.91
644.911	12.71
645.241	12.37
645.571	12.4
645.9	12.57
646.23	12.88
646.559	12.23
646.888	12.95
647.218	13.13
647.547	13.12
647.876	12.7
648.205	12.46
648.534	12.79
648.863	12.73
649.192	12.92
649.521	13.07
649.85	13.06
650.179	13.15
650.508	12.57
650.837	13.02
651.165	13.07
651.494	13.19
651.822	12.7
652.151	12.97
652.479	13.27
652.808	13.42
653.136	12.67
653.465	13.19
653.793	13.33
654.121	13.18
654.449	13.45
654.777	12.85
655.105	12.97
655.433	13.55
655.761	13.91
656.089	13.54
656.417	13.87
656.745	13.76
657.073	13.3
657.4	13.2
657.728	12.85
658.056	13.54
658.383	13.33
658.711	13.72
659.038	13.69
659.365	13.77
659.693	13.81
660.02	13.59
660.347	13.74
660.674	13.75
661.001	13.8
661.329	13.69
661.656	13.52
661.982	13.66
662.309	13.8
662.636	13.86
662.963	13.79
663.29	13.83
663.616	13.85
663.943	13.97
664.27	14.11
664.596	14.04
664.923	14.13
665.249	13.98
665.576	13.87
665.902	13.82
666.228	14.43
666.554	14.98
666.881	13.63
667.207	13.95
667.533	13.96
667.859	14.16
668.185	13.57
668.511	14.62
668.837	14.26
669.162	14.73
669.488	13.88
669.814	14.17
670.139	14.34
670.465	14.82
670.791	13.99
671.116	14.28
671.442	14.08
671.767	13.94
672.092	14.31
672.418	14.46
672.743	14.42
673.068	14
673.393	14.89
673.718	13.83
674.043	14.46
674.368	14.54
674.693	14.79
675.018	15.05
675.343	14.68
675.667	14.13
675.992	15.01
676.317	13.66
676.641	14.79
676.966	14.92
677.29	14.94
677.615	14.46
677.939	15.61
678.264	14.2
678.588	15.91
678.912	15.04
679.236	14.54
679.56	14.28
679.885	14.37
680.209	15.49
680.532	15.56
680.856	15.47
681.18	15.61
681.504	15.67
681.828	15.07
682.152	15.06
682.475	15.49
682.799	15.08
683.122	15.9
683.446	14.8
683.769	15.5
684.093	15.27
684.416	15.49
684.739	15.4
685.062	14.89
685.386	15.62
685.709	15.47
686.032	15.83
686.355	15.09
