Data from 22-1_forehead_Reflection__2__223.txt Node

Date: Thu Dec 15 18:12:53 CST 2022
User: ToomeyLab
Spectrometer: FLMS14357
Trigger mode: 0
Integration Time (sec): 1.000000E-2
Scans to average: 100
Electric dark correction enabled: true
Nonlinearity correction enabled: false
Boxcar width: 0
XAxis mode: Wavelengths
Number of Pixels in Spectrum: 2048
>>>>>Begin Spectral Data<<<<<
189.047	25.64
189.435	25.64
189.823	25.64
190.211	-39.66
190.599	49.5
190.987	-19.75
191.375	180.12
191.763	-139.14
192.151	2.17
192.538	-53.69
192.926	456.12
193.314	357.49
193.702	-161.66
194.089	-3.2
194.477	39.45
194.864	79.16
195.252	-124.55
195.639	5.62
196.027	79.01
196.414	-10.58
196.801	-419.44
197.189	90.5
197.576	-80.88
197.963	-96.54
198.351	12.78
198.738	-66.27
199.125	-76.04
199.512	41.71
199.899	-10
200.286	5.01
200.673	18.34
201.06	-57.72
201.447	45.9
201.833	16.15
202.22	4.59
202.607	-152.03
202.994	-2.62
203.38	7.19
203.767	-15.79
204.154	37.22
204.54	14.81
204.927	7.84
205.313	19.02
205.699	29.76
206.086	34.96
206.472	66.54
206.858	21.85
207.245	-8.11
207.631	-19.71
208.017	45.89
208.403	-97.01
208.789	24.23
209.175	31.31
209.561	18.12
209.947	-15.31
210.333	18.75
210.719	37.81
211.105	42.23
211.491	30.95
211.876	12.7
212.262	26.15
212.648	33.89
213.034	13.77
213.419	37.62
213.805	-9.05
214.19	-7.6
214.576	17.82
214.961	17.9
215.346	-20.12
215.732	-31.38
216.117	7.46
216.502	-10.67
216.888	28.72
217.273	38.85
217.658	21.93
218.043	46.16
218.428	17.28
218.813	4.81
219.198	-30.79
219.583	8.76
219.968	2.75
220.353	-17.61
220.738	10.67
221.122	20.94
221.507	-1.74
221.892	-20.13
222.276	-20.19
222.661	-1.62
223.046	-3.69
223.43	9.02
223.815	13.08
224.199	-2.54
224.583	4.53
224.968	9.95
225.352	-0.89
225.736	15.03
226.121	2.5
226.505	-2.29
226.889	-0.82
227.273	-5.33
227.657	3.92
228.041	3.23
228.425	3.37
228.809	2.23
229.193	0.3
229.577	1.25
229.961	0.25
230.344	2.44
230.728	2
231.112	1.3
231.495	2.07
231.879	1.97
232.263	2.43
232.646	1.88
233.03	4.25
233.413	2.13
233.797	1.2
234.18	3.83
234.563	2.22
234.946	0.44
235.33	2.72
235.713	2.59
236.096	2.35
236.479	3.18
236.862	1.23
237.245	1.66
237.628	2.41
238.011	3.56
238.394	0.84
238.777	3.7
239.16	3.07
239.543	3.71
239.925	2.11
240.308	0.78
240.691	2
241.073	1.05
241.456	2.1
241.838	2.45
242.221	2.34
242.603	2.21
242.986	2.13
243.368	1.89
243.75	2.25
244.133	2.62
244.515	1.8
244.897	2.26
245.279	1.42
245.661	1.47
246.043	2.41
246.425	2.54
246.807	2.21
247.189	1.76
247.571	1.52
247.953	1.83
248.335	2.28
248.717	2.12
249.098	2.07
249.48	2.05
249.862	2
250.243	2.44
250.625	2.35
251.006	3.02
251.388	1.56
251.769	1.94
252.151	2.36
252.532	1.59
252.913	2.86
253.295	2.53
253.676	2.35
254.057	1.97
254.438	2.63
254.819	3.05
255.2	3.74
255.581	3.88
255.962	3.82
256.343	2.23
256.724	3.33
257.105	2.62
257.486	0.96
257.867	2.15
258.247	2
258.628	2.63
259.009	1.66
259.389	1.25
259.77	2.49
260.15	2.68
260.531	2.11
260.911	2.21
261.292	2.2
261.672	2.18
262.052	2.22
262.432	1.86
262.813	2.25
263.193	2.27
263.573	2.6
263.953	1.98
264.333	2.54
264.713	2.11
265.093	1.83
265.473	1.75
265.853	1.97
266.233	1.95
266.612	1.85
266.992	2.89
267.372	2.71
267.752	2.8
268.131	1.87
268.511	2.33
268.89	2.79
269.27	1.76
269.649	1.92
270.029	1.7
270.408	2
270.787	2.31
271.167	2.4
271.546	3.01
271.925	2.23
272.304	2.09
272.683	1.94
273.062	2.12
273.441	1.9
273.82	2.04
274.199	2.3
274.578	2.32
274.957	1.69
275.336	2.01
275.715	2.36
276.093	2.14
276.472	2.2
276.851	2.45
277.229	2.04
277.608	2.28
277.986	2.23
278.365	3.32
278.743	2.16
279.122	2.18
279.5	2.2
279.878	2
280.257	2.64
280.635	2.88
281.013	1.62
281.391	2.45
281.769	2.64
282.147	2.38
282.525	1.72
282.903	1.84
283.281	2.69
283.659	2.49
284.037	1.84
284.415	2.13
284.792	2.46
285.17	2.27
285.548	2.03
285.925	2.31
286.303	2.6
286.68	2.32
287.058	2.27
287.435	1.87
287.813	2.5
288.19	2.26
288.567	2.26
288.945	1.84
289.322	2.59
289.699	2.56
290.076	2.04
290.453	1.82
290.83	2.62
291.207	2.22
291.584	2.88
291.961	2.7
292.338	2.62
292.715	1.8
293.092	2.78
293.469	2.3
293.845	2.98
294.222	3.27
294.599	2.61
294.975	1.82
295.352	3.15
295.728	3
296.105	2.61
296.481	3.35
296.858	3.22
297.234	2.42
297.61	2.54
297.986	3.34
298.363	2.99
298.739	3.31
299.115	2.94
299.491	3.22
299.867	2.92
300.243	3.24
300.619	2.97
300.995	3.33
301.371	2.91
301.746	3.53
302.122	2.58
302.498	3.15
302.874	3.2
303.249	3.21
303.625	3.15
304	3.24
304.376	3.69
304.751	3.74
305.127	3.36
305.502	3.44
305.878	3.74
306.253	3.49
306.628	3.84
307.003	3.72
307.378	3.58
307.754	3.84
308.129	3.53
308.504	3.79
308.879	4.21
309.254	4.54
309.629	3.84
310.003	4.2
310.378	4.24
310.753	4.38
311.128	3.9
311.502	4.81
311.877	4.16
312.252	4.37
312.626	4.8
313.001	4.59
313.375	4.63
313.75	4.76
314.124	4.59
314.498	4.77
314.873	3.94
315.247	4.96
315.621	4.62
315.995	5.18
316.369	4.12
316.743	4.78
317.117	4.89
317.491	5.05
317.865	5.07
318.239	5.54
318.613	5.12
318.987	4.85
319.361	5.61
319.734	5.18
320.108	5.56
320.482	5.62
320.855	4.89
321.229	5.53
321.602	5.36
321.976	5.32
322.349	5.66
322.723	5.42
323.096	5.2
323.469	5.36
323.843	5.43
324.216	5.86
324.589	6.06
324.962	5.58
325.335	5.32
325.708	6.04
326.081	5.8
326.454	6.33
326.827	5.9
327.2	5.5
327.573	6.73
327.945	5.74
328.318	5.97
328.691	5.98
329.063	5.83
329.436	5.64
329.809	6.3
330.181	6.48
330.553	6.74
330.926	6.93
331.298	6.28
331.671	6.35
332.043	6.6
332.415	6.43
332.787	6.79
333.159	6.29
333.532	6.58
333.904	7.1
334.276	7.14
334.648	6.73
335.02	6.71
335.391	6.61
335.763	6.86
336.135	6.8
336.507	6.32
336.879	6.56
337.25	6.85
337.622	7.16
337.993	7.32
338.365	6.82
338.736	6.87
339.108	7.39
339.479	7.18
339.851	7.51
340.222	7.58
340.593	7.47
340.964	7.5
341.336	6.97
341.707	7.4
342.078	7.37
342.449	7.57
342.82	7.54
343.191	7.53
343.562	7.42
343.933	7.47
344.303	7.56
344.674	7.65
345.045	7.81
345.416	8.27
345.786	7.93
346.157	7.53
346.527	8.09
346.898	7.27
347.268	7.91
347.639	7.79
348.009	8.27
348.38	8.02
348.75	8.38
349.12	8.35
349.49	8.68
349.861	8.67
350.231	8.14
350.601	8.2
350.971	8.15
351.341	8.29
351.711	8.67
352.081	8.35
352.45	8.06
352.82	8.02
353.19	8.4
353.56	8.14
353.929	8.79
354.299	8.17
354.669	8.58
355.038	8.81
355.408	8.66
355.777	8.64
356.147	8.55
356.516	8.36
356.885	8.67
357.254	8.67
357.624	8.35
357.993	9.13
358.362	8.96
358.731	9.18
359.1	8.98
359.469	9.14
359.838	9.05
360.207	9.02
360.576	9.19
360.945	9.09
361.314	9.04
361.682	9.15
362.051	9.24
362.42	9.02
362.788	9.45
363.157	9.07
363.525	9.49
363.894	9.14
364.262	9.45
364.631	9.64
364.999	9.52
365.367	9.36
365.735	9.47
366.104	9.69
366.472	9.54
366.84	9.73
367.208	10.12
367.576	9.71
367.944	9.78
368.312	9.71
368.68	10.19
369.048	9.87
369.416	9.99
369.783	9.99
370.151	10.7
370.519	10.56
370.886	10.17
371.254	10.16
371.621	10.51
371.989	10.48
372.356	10.24
372.724	10.43
373.091	10.2
373.458	10.13
373.826	11.01
374.193	10.63
374.56	10.57
374.927	10.54
375.294	10.94
375.661	10.64
376.028	10.44
376.395	11
376.762	10.68
377.129	10.85
377.496	10.96
377.863	11.2
378.229	10.95
378.596	11.07
378.963	10.58
379.329	11.04
379.696	10.9
380.062	10.99
380.429	10.96
380.795	11.34
381.161	11
381.528	10.7
381.894	11.29
382.26	11.26
382.626	11.54
382.993	11.46
383.359	11.53
383.725	11.26
384.091	11.73
384.457	11.44
384.823	11.95
385.188	11.65
385.554	11.78
385.92	11.52
386.286	11.89
386.651	11.75
387.017	12.2
387.383	11.89
387.748	11.86
388.114	12.1
388.479	11.8
388.845	11.9
389.21	12.13
389.575	12.43
389.94	12.19
390.306	12.13
390.671	12.22
391.036	12.26
391.401	12.15
391.766	12.21
392.131	12.29
392.496	12.54
392.861	12.44
393.226	12.38
393.591	12.41
393.956	12.71
394.32	12.6
394.685	12.51
395.05	12.66
395.414	12.84
395.779	12.64
396.143	12.71
396.508	12.63
396.872	12.83
397.236	12.92
397.601	13.32
397.965	12.89
398.329	12.89
398.694	12.79
399.058	13.26
399.422	12.87
399.786	13.02
400.15	13.12
400.514	13.34
400.878	13.38
401.242	12.97
401.605	13.14
401.969	13.18
402.333	12.9
402.697	13.41
403.06	13.41
403.424	13.63
403.787	13.3
404.151	13.36
404.514	13.55
404.878	13.49
405.241	13.74
405.604	13.7
405.968	13.51
406.331	13.59
406.694	13.43
407.057	13.51
407.42	13.7
407.783	13.81
408.146	13.71
408.509	14.08
408.872	13.82
409.235	14.05
409.598	13.96
409.961	14.14
410.323	14.04
410.686	14.03
411.049	14.16
411.411	13.78
411.774	14.03
412.136	14.19
412.499	14.27
412.861	14.25
413.223	14.22
413.586	14.29
413.948	14.35
414.31	14.45
414.672	14.43
415.035	14.68
415.397	14.55
415.759	14.21
416.121	14.71
416.483	14.64
416.845	14.75
417.206	14.67
417.568	14.82
417.93	14.72
418.292	14.62
418.653	14.39
419.015	14.64
419.377	14.64
419.738	14.86
420.1	14.71
420.461	14.61
420.822	14.77
421.184	14.8
421.545	14.82
421.906	14.73
422.267	14.71
422.629	14.71
422.99	14.81
423.351	14.88
423.712	14.85
424.073	15.01
424.434	15.22
424.795	15.06
425.155	15.15
425.516	14.99
425.877	15.09
426.238	15.16
426.598	15.22
426.959	15.41
427.32	15.46
427.68	15.36
428.041	15.65
428.401	15.56
428.761	15.77
429.122	15.78
429.482	15.91
429.842	15.95
430.202	16.21
430.563	16.11
430.923	16.06
431.283	15.89
431.643	16.24
432.003	16.28
432.363	16.42
432.722	16.3
433.082	16.27
433.442	16.31
433.802	16.42
434.161	16.38
434.521	16.39
434.881	16.35
435.24	16.32
435.6	16.46
435.959	16.6
436.319	16.53
436.678	16.59
437.037	16.72
437.396	16.56
437.756	16.98
438.115	16.82
438.474	16.97
438.833	16.98
439.192	16.91
439.551	16.82
439.91	17.03
440.269	16.99
440.628	16.9
440.987	17.1
441.345	17.03
441.704	16.91
442.063	16.95
442.421	17.01
442.78	17.11
443.138	17.11
443.497	17.12
443.855	17.29
444.214	17.3
444.572	17.6
444.93	17.44
445.288	17.44
445.647	17.49
446.005	17.56
446.363	17.63
446.721	17.65
447.079	17.59
447.437	17.62
447.795	17.51
448.153	17.49
448.51	17.6
448.868	17.54
449.226	17.67
449.584	17.74
449.941	17.89
450.299	17.92
450.656	17.94
451.014	18.26
451.371	18.35
451.729	18.25
452.086	18.14
452.443	18.45
452.801	18.4
453.158	18.68
453.515	18.27
453.872	18.41
454.229	18.41
454.586	18.42
454.943	18.54
455.3	18.81
455.657	18.7
456.014	18.92
456.371	18.81
456.727	18.8
457.084	18.85
457.441	18.88
457.797	18.95
458.154	18.84
458.51	19.05
458.867	19.01
459.223	18.92
459.58	19.13
459.936	19.23
460.292	19.09
460.648	18.9
461.005	18.87
461.361	18.87
461.717	18.88
462.073	19.09
462.429	19.29
462.785	19.35
463.141	19.41
463.496	19.68
463.852	19.54
464.208	19.63
464.564	19.71
464.919	19.66
465.275	19.87
465.631	20.02
465.986	19.88
466.342	19.75
466.697	19.83
467.052	20.02
467.408	20.02
467.763	20.04
468.118	20.04
468.473	20.15
468.829	20
469.184	20.33
469.539	20.26
469.894	20.4
470.249	20.46
470.603	20.64
470.958	20.39
471.313	20.84
471.668	20.5
472.023	20.57
472.377	20.58
472.732	20.62
473.086	20.61
473.441	20.75
473.795	21.08
474.15	20.71
474.504	20.8
474.859	20.8
475.213	21.08
475.567	21.04
475.921	20.99
476.275	21.02
476.63	20.99
476.984	20.98
477.338	21.19
477.692	21.23
478.045	21.05
478.399	21.27
478.753	21.07
479.107	21.31
479.461	21.11
479.814	21.17
480.168	21.37
480.521	21.55
480.875	21.46
481.228	21.53
481.582	21.48
481.935	21.7
482.289	21.58
482.642	21.61
482.995	21.46
483.348	21.48
483.701	21.31
484.055	21.22
484.408	21.27
484.761	20.9
485.114	20.66
485.466	20.64
485.819	20.74
486.172	20.89
486.525	21.13
486.878	21.24
487.23	21.35
487.583	21.6
487.936	21.53
488.288	21.47
488.641	21.27
488.993	21.17
489.345	21.18
489.698	21.23
490.05	21.41
490.402	21.56
490.754	21.84
491.107	21.95
491.459	22.15
491.811	22.32
492.163	22.21
492.515	22.08
492.866	21.8
493.218	21.76
493.57	21.93
493.922	22.01
494.274	22.27
494.625	22.62
494.977	22.77
495.328	22.94
495.68	23.06
496.031	23.02
496.383	22.99
496.734	23.07
497.086	23.32
497.437	23.41
497.788	23.34
498.139	23.09
498.49	23.21
498.842	23.24
499.193	23.24
499.544	23.24
499.894	23.4
500.245	23.33
500.596	23.47
500.947	23.53
501.298	23.74
501.648	23.67
501.999	23.85
502.35	23.76
502.7	24.03
503.051	23.85
503.401	24.06
503.752	24
504.102	24.05
504.452	24.08
504.803	24.02
505.153	24.37
505.503	24.25
505.853	24.22
506.203	24.13
506.553	24.26
506.903	24.38
507.253	24.29
507.603	24.6
507.953	24.4
508.303	24.62
508.652	24.38
509.002	24.59
509.352	24.46
509.701	24.48
510.051	24.64
510.4	24.64
510.75	24.59
511.099	24.55
511.449	24.6
511.798	24.66
512.147	24.82
512.496	24.82
512.846	24.73
513.195	24.9
513.544	25.04
513.893	24.91
514.242	25
514.591	25.22
514.939	25.17
515.288	25.18
515.637	25.22
515.986	25.15
516.334	25.43
516.683	25.56
517.032	25.45
517.38	25.48
517.729	25.49
518.077	25.6
518.426	25.62
518.774	25.47
519.122	25.43
519.47	25.43
519.819	25.4
520.167	25.26
520.515	25.28
520.863	25.34
521.211	25.55
521.559	25.62
521.907	25.74
522.255	25.94
522.602	25.92
522.95	26.07
523.298	26.07
523.645	26.23
523.993	26.13
524.341	26.23
524.688	26.27
525.036	26.37
525.383	26.36
525.73	26.29
526.078	26.44
526.425	26.35
526.772	26.04
527.119	25.94
527.466	26.07
527.814	26.04
528.161	26.34
528.508	26.27
528.854	26.17
529.201	25.97
529.548	25.89
529.895	25.72
530.242	25.69
530.588	25.79
530.935	25.89
531.282	26
531.628	26.29
531.975	26.23
532.321	26.44
532.667	26.74
533.014	26.89
533.36	26.94
533.706	26.83
534.052	26.82
534.399	26.69
534.745	26.4
535.091	26.39
535.437	26.66
535.783	26.7
536.129	26.92
536.474	27.21
536.82	27.31
537.166	27.27
537.512	27.39
537.857	27.32
538.203	27.22
538.549	27.04
538.894	27.23
539.239	27.4
539.585	27.71
539.93	27.85
540.276	27.88
540.621	28.06
540.966	28.01
541.311	28.2
541.656	27.93
542.001	27.9
542.346	27.52
542.691	27.3
543.036	27.3
543.381	27.46
543.726	27.46
544.071	27.71
544.415	27.74
544.76	27.85
545.105	27.99
545.449	28.19
545.794	28.26
546.138	28.47
546.483	28.71
546.827	28.38
547.171	28.54
547.516	28.74
547.86	28.66
548.204	28.55
548.548	28.58
548.892	28.76
549.236	28.71
549.58	28.94
549.924	29.2
550.268	29.25
550.612	29.41
550.956	29.48
551.3	29.58
551.643	29.29
551.987	29.57
552.33	29.9
552.674	29.81
553.017	29.68
553.361	29.83
553.704	29.7
554.048	29.53
554.391	29.72
554.734	29.47
555.077	29.9
555.42	29.95
555.764	29.97
556.107	30.17
556.45	30.16
556.793	30.22
557.135	30.3
557.478	30.28
557.821	30.28
558.164	30.4
558.507	30.37
558.849	30.43
559.192	30.3
559.534	30.39
559.877	30.38
560.219	30.49
560.562	30.56
560.904	30.71
561.246	30.78
561.589	30.86
561.931	30.98
562.273	30.88
562.615	30.99
562.957	30.82
563.299	30.77
563.641	31.1
563.983	30.86
564.325	31.39
564.667	31.06
565.008	31.24
565.35	31.03
565.692	31.01
566.033	31.09
566.375	31.34
566.716	31.1
567.058	31.24
567.399	31.28
567.741	31.32
568.082	31.19
568.423	31.03
568.764	31.39
569.105	31.09
569.447	31.28
569.788	31.47
570.129	31.67
570.47	31.65
570.811	31.72
571.151	31.65
571.492	31.59
571.833	31.74
572.174	31.97
572.514	32
572.855	31.92
573.195	31.76
573.536	31.8
573.876	31.72
574.217	31.63
574.557	31.89
574.898	31.88
575.238	32
575.578	32.13
575.918	32.12
576.258	32.31
576.598	31.97
576.938	32.35
577.278	32.34
577.618	32.25
577.958	32.49
578.298	32.29
578.638	32.21
578.977	32.54
579.317	32.77
579.657	32.75
579.996	32.92
580.336	33.14
580.675	33.1
581.014	33.09
581.354	33.22
581.693	33.25
582.032	33.25
582.372	33.01
582.711	33.3
583.05	33.32
583.389	33.3
583.728	33.54
584.067	32.89
584.406	33.46
584.745	33.2
585.083	33.37
585.422	33.54
585.761	33.44
586.1	33.53
586.438	33.59
586.777	33.87
587.115	33.75
587.454	33.51
587.792	33.62
588.13	33.68
588.469	33.96
588.807	33.82
589.145	33.69
589.483	33.96
589.821	33.92
590.159	34.22
590.497	34.44
590.835	34.31
591.173	34.23
591.511	34.29
591.849	34.03
592.187	34.18
592.524	34.45
592.862	34.35
593.2	34.3
593.537	34.5
593.875	34.12
594.212	34.66
594.55	34.47
594.887	34.78
595.224	34.83
595.561	34.71
595.899	34.57
596.236	34.69
596.573	34.67
596.91	34.57
597.247	34.81
597.584	34.78
597.921	34.86
598.258	34.76
598.594	34.4
598.931	34.47
599.268	34.63
599.604	34.73
599.941	34.8
600.277	35.11
600.614	34.95
600.95	35.23
601.287	35.02
601.623	35.28
601.959	35.53
602.296	35.25
602.632	35.27
602.968	35.14
603.304	35.47
603.64	35.55
603.976	35.22
604.312	35.44
604.648	35.69
604.984	35.51
605.319	35.43
605.655	35.33
605.991	35.33
606.326	35.5
606.662	35.25
606.998	35.43
607.333	35.33
607.668	35.67
608.004	35.85
608.339	35.78
608.674	36.11
609.01	36.21
609.345	35.75
609.68	35.92
610.015	36
610.35	36.15
610.685	36.01
611.02	35.84
611.355	35.7
611.689	35.97
612.024	36.19
612.359	36.25
612.694	36.19
613.028	35.98
613.363	36.71
613.697	36.4
614.032	36.52
614.366	36.46
614.7	36.72
615.035	36.87
615.369	37.09
615.703	36.8
616.037	37.03
616.371	36.79
616.705	36.59
617.039	36.94
617.373	37.01
617.707	36.73
618.041	36.92
618.375	36.63
618.709	37.11
619.042	36.93
619.376	37.24
619.71	37.11
620.043	37.43
620.377	37.34
620.71	37
621.043	37.28
621.377	37.35
621.71	37.49
622.043	37.73
622.376	37.61
622.709	37.33
623.043	37.4
623.376	37.56
623.709	37.96
624.041	37.78
624.374	37.84
624.707	37.85
625.04	37.45
625.373	37.93
625.705	38.22
626.038	38.22
626.37	37.48
626.703	38.01
627.035	37.72
627.368	38.05
627.7	38.11
628.032	37.84
628.365	38.1
628.697	37.83
629.029	37.98
629.361	38.01
629.693	38.08
630.025	38.29
630.357	38.25
630.689	38.47
631.021	38.32
631.353	38.31
631.684	38.3
632.016	38.1
632.348	38.41
632.679	38.72
633.011	38.51
633.342	38.72
633.674	38.38
634.005	38.75
634.336	39.12
634.668	38.5
634.999	38.78
635.33	38.72
635.661	38.39
635.992	38.43
636.323	39.18
636.654	39.11
636.985	38.64
637.316	38.95
637.647	39.07
637.977	38.98
638.308	38.95
638.639	38.47
638.969	39.03
639.3	39.26
639.63	39.3
639.961	39.39
640.291	38.83
640.622	39.34
640.952	39.45
641.282	39.06
641.612	39.16
641.943	39.48
642.273	39.28
642.603	39.59
642.933	39.19
643.263	39.4
643.592	40.04
643.922	39.91
644.252	39.62
644.582	39.67
644.911	39.59
645.241	39.83
645.571	39.56
645.9	39.79
646.23	39.45
646.559	40.01
646.888	40.13
647.218	39.93
647.547	39.8
647.876	39.99
648.205	39.59
648.534	39.97
648.863	39.82
649.192	40.56
649.521	39.7
649.85	40.95
650.179	39.64
650.508	40.46
650.837	40.37
651.165	39.7
651.494	40.38
651.822	40.45
652.151	40.22
652.479	40.48
652.808	40.49
653.136	39.95
653.465	40.75
653.793	40.38
654.121	40.35
654.449	39.94
654.777	40.57
655.105	40.16
655.433	40.86
655.761	41.29
656.089	40.95
656.417	40.81
656.745	41.03
657.073	41.05
657.4	40.59
657.728	40.16
658.056	41.02
658.383	40.79
658.711	40.66
659.038	41.04
659.365	41.4
659.693	41.04
660.02	41.21
660.347	40.99
660.674	40.61
661.001	40.46
661.329	41.1
661.656	40.1
661.982	41.1
662.309	41.04
662.636	40.76
662.963	40.88
663.29	40.88
663.616	41.07
663.943	41.74
664.27	41.86
664.596	41.66
664.923	41.77
665.249	41.57
665.576	41.45
665.902	41.76
666.228	41.53
666.554	42.03
666.881	40.5
667.207	41.44
667.533	42.02
667.859	41.16
668.185	41.87
668.511	42.2
668.837	41.69
669.162	42
669.488	41.03
669.814	41.32
670.139	41.48
670.465	41.73
670.791	41.79
671.116	41.85
671.442	41.57
671.767	42.37
672.092	42.3
672.418	41.73
672.743	41.77
