Data from 22-1_forehead_Reflection__3__224.txt Node

Date: Thu Dec 15 18:13:02 CST 2022
User: ToomeyLab
Spectrometer: FLMS14357
Trigger mode: 0
Integration Time (sec): 1.000000E-2
Scans to average: 100
Electric dark correction enabled: true
Nonlinearity correction enabled: false
Boxcar width: 0
XAxis mode: Wavelengths
Number of Pixels in Spectrum: 2048
>>>>>Begin Spectral Data<<<<<
189.047	-7.46
189.435	-7.46
189.823	-7.46
190.211	-103.6
190.599	95.52
190.987	12.92
191.375	40.75
191.763	-121.18
192.151	91.69
192.538	-4.3
192.926	110.25
193.314	803.75
193.702	-477.91
194.089	102.6
194.477	8.41
194.864	342.83
195.252	26.42
195.639	100.91
196.027	4.18
196.414	24.53
196.801	-491.49
197.189	196.82
197.576	121.18
197.963	199.87
198.351	21.89
198.738	-59.06
199.125	-112.39
199.512	17.13
199.899	31.57
200.286	0.31
200.673	22.97
201.06	26.36
201.447	14.16
201.833	-23.62
202.22	13.06
202.607	-17.41
202.994	15.37
203.38	38.33
203.767	-58.97
204.154	69.82
204.54	3.99
204.927	28.92
205.313	31.35
205.699	55.55
206.086	30.83
206.472	78.49
206.858	71.52
207.245	7.62
207.631	-0.07
208.017	56.92
208.403	-18.84
208.789	15.9
209.175	20.46
209.561	-100.7
209.947	-6.18
210.333	-6.34
210.719	49.82
211.105	34.01
211.491	13.34
211.876	19.35
212.262	15.47
212.648	15.12
213.034	22.58
213.419	23.89
213.805	-3.8
214.19	-11.22
214.576	23.21
214.961	22
215.346	-6.48
215.732	30.46
216.117	16.68
216.502	4.09
216.888	18.79
217.273	30.74
217.658	20.65
218.043	-10.01
218.428	11.02
218.813	14.54
219.198	-38.71
219.583	-15.3
219.968	24.33
220.353	-3.87
220.738	4.57
221.122	4.43
221.507	15.25
221.892	1.97
222.276	-14.04
222.661	-8.41
223.046	-3.92
223.43	22.13
223.815	10.01
224.199	-2.52
224.583	3.68
224.968	-2.79
225.352	-2.25
225.736	13.34
226.121	-0.85
226.505	3.69
226.889	4.08
227.273	-5.58
227.657	8.57
228.041	6.87
228.425	-1
228.809	-0.86
229.193	3.01
229.577	3.16
229.961	1.52
230.344	2.93
230.728	2.32
231.112	2.71
231.495	-0.15
231.879	1.26
232.263	2.29
232.646	2.39
233.03	4.61
233.413	1.41
233.797	2.69
234.18	3.01
234.563	2.92
234.946	0.17
235.33	2.99
235.713	4.09
236.096	3.47
236.479	2.84
236.862	-0.68
237.245	1.73
237.628	1.9
238.011	3.8
238.394	2.21
238.777	2.83
239.16	2.62
239.543	3.24
239.925	1.94
240.308	2.56
240.691	1.9
241.073	2.01
241.456	3.34
241.838	2.23
242.221	2.33
242.603	3.18
242.986	3.09
243.368	2.66
243.75	2.57
244.133	2.46
244.515	2.19
244.897	2.1
245.279	2.49
245.661	3.23
246.043	3.24
246.425	2.16
246.807	3.09
247.189	2.57
247.571	2.46
247.953	2.45
248.335	2.65
248.717	2.39
249.098	2.51
249.48	2.71
249.862	2.64
250.243	2.54
250.625	3.06
251.006	3.54
251.388	3.02
251.769	1.23
252.151	2.51
252.532	2.52
252.913	2.25
253.295	2.12
253.676	2.27
254.057	2.89
254.438	1.98
254.819	2.93
255.2	2.92
255.581	3.73
255.962	3.16
256.343	3.68
256.724	2.95
257.105	2.8
257.486	1.76
257.867	2.19
258.247	2.74
258.628	2.94
259.009	2.53
259.389	2.38
259.77	2.55
260.15	3.3
260.531	2.81
260.911	2.24
261.292	2.69
261.672	2.49
262.052	2.54
262.432	2.3
262.813	2.67
263.193	3.35
263.573	2.12
263.953	2.77
264.333	2.74
264.713	3.18
265.093	1.69
265.473	2.26
265.853	2.52
266.233	2.64
266.612	1.33
266.992	2.37
267.372	2.51
267.752	3.1
268.131	2.53
268.511	2.62
268.89	3.01
269.27	2.2
269.649	2.74
270.029	2.66
270.408	2.45
270.787	2.81
271.167	3.3
271.546	3.89
271.925	2.72
272.304	3.11
272.683	2.49
273.062	2.4
273.441	2.14
273.82	2.62
274.199	2.11
274.578	2.43
274.957	2.12
275.336	2.91
275.715	3.03
276.093	1.97
276.472	2.47
276.851	2.54
277.229	2.26
277.608	2.29
277.986	2.95
278.365	3.04
278.743	2.37
279.122	2.08
279.5	2.53
279.878	2.13
280.257	2.78
280.635	2.91
281.013	2.29
281.391	2.6
281.769	2.56
282.147	2.86
282.525	2.21
282.903	2.09
283.281	2.68
283.659	2.92
284.037	1.95
284.415	2.56
284.792	2.59
285.17	2.43
285.548	2.43
285.925	2.54
286.303	3.2
286.68	2.75
287.058	2.58
287.435	2.61
287.813	2.82
288.19	2.64
288.567	2.53
288.945	2.95
289.322	2.69
289.699	2.64
290.076	2.73
290.453	2.08
290.83	2.71
291.207	2.85
291.584	3.27
291.961	3.29
292.338	2.81
292.715	2.94
293.092	2.99
293.469	3.03
293.845	3.21
294.222	3.54
294.599	2.67
294.975	3.35
295.352	3.43
295.728	3.06
296.105	3.33
296.481	3.53
296.858	3.35
297.234	3.13
297.61	3.02
297.986	3.65
298.363	3.41
298.739	3.6
299.115	3.28
299.491	3.9
299.867	3.62
300.243	3.65
300.619	3.58
300.995	3.82
301.371	4.05
301.746	3.78
302.122	3.33
302.498	3.64
302.874	4.03
303.249	3.96
303.625	3.9
304	4.01
304.376	4.27
304.751	4.35
305.127	4.68
305.502	4.37
305.878	3.83
306.253	4.09
306.628	4.11
307.003	4.56
307.378	4.41
307.754	4.7
308.129	3.77
308.504	4.29
308.879	4.44
309.254	4.58
309.629	4.89
310.003	4.75
310.378	5.36
310.753	4.6
311.128	4.58
311.502	5.13
311.877	4.98
312.252	5.2
312.626	5.62
313.001	5.1
313.375	5.27
313.75	5.23
314.124	5.78
314.498	5.49
314.873	5.25
315.247	5.39
315.621	5.18
315.995	5.58
316.369	5.26
316.743	5.71
317.117	5.22
317.491	5.94
317.865	5.52
318.239	6.2
318.613	6.58
318.987	5.85
319.361	5.86
319.734	5.93
320.108	6.13
320.482	6.44
320.855	6.42
321.229	6.51
321.602	6.04
321.976	6.23
322.349	7.18
322.723	6.81
323.096	6.5
323.469	5.98
323.843	6.72
324.216	6.65
324.589	6.96
324.962	6.59
325.335	6.42
325.708	6.9
326.081	7.23
326.454	7.61
326.827	7.07
327.2	6.91
327.573	8.13
327.945	6.76
328.318	6.73
328.691	7.19
329.063	6.81
329.436	7.27
329.809	7.41
330.181	7.8
330.553	7.32
330.926	8.24
331.298	7.06
331.671	8.11
332.043	7.56
332.415	7.53
332.787	7.86
333.159	7.77
333.532	7.95
333.904	7.87
334.276	8.1
334.648	8.27
335.02	8.05
335.391	7.61
335.763	8.3
336.135	7.99
336.507	7.63
336.879	8.33
337.25	8.11
337.622	8.18
337.993	8.69
338.365	8.23
338.736	8.35
339.108	8.64
339.479	8.22
339.851	8.47
340.222	8.74
340.593	8.61
340.964	8.37
341.336	8.19
341.707	8.97
342.078	8.63
342.449	8.86
342.82	9.19
343.191	9.12
343.562	8.92
343.933	8.75
344.303	9.28
344.674	9.06
345.045	9.18
345.416	9.51
345.786	8.91
346.157	9.41
346.527	8.94
346.898	8.99
347.268	9.16
347.639	9.1
348.009	10.02
348.38	9.31
348.75	9.68
349.12	9.61
349.49	9.55
349.861	9.57
350.231	9.41
350.601	9.8
350.971	9.61
351.341	10.18
351.711	9.77
352.081	9.91
352.45	10.04
352.82	9.9
353.19	9.86
353.56	10.15
353.929	10.24
354.299	10.43
354.669	10.17
355.038	10.33
355.408	10.23
355.777	10.57
356.147	10.6
356.516	10.52
356.885	10.59
357.254	10.52
357.624	10.27
357.993	10.62
358.362	10.64
358.731	10.85
359.1	10.53
359.469	11.06
359.838	10.89
360.207	10.84
360.576	11.18
360.945	11.05
361.314	10.77
361.682	10.9
362.051	10.91
362.42	10.87
362.788	10.93
363.157	11.32
363.525	11.14
363.894	11.21
364.262	11.26
364.631	11.55
364.999	11.4
365.367	11.4
365.735	11.15
366.104	11.28
366.472	11.73
366.84	11.54
367.208	12.15
367.576	11.54
367.944	11.6
368.312	12.05
368.68	12.03
369.048	11.62
369.416	11.73
369.783	11.79
370.151	12.51
370.519	12.31
370.886	12.27
371.254	12.52
371.621	12.52
371.989	12.41
372.356	12.12
372.724	12.02
373.091	12.39
373.458	12.55
373.826	12.38
374.193	12.48
374.56	12.97
374.927	12.72
375.294	12.9
375.661	12.83
376.028	12.77
376.395	12.8
376.762	12.83
377.129	13.02
377.496	12.94
377.863	13.08
378.229	13.18
378.596	12.94
378.963	13.29
379.329	13.06
379.696	12.95
380.062	13.13
380.429	13.25
380.795	13.48
381.161	13.09
381.528	13.13
381.894	13.26
382.26	13.62
382.626	13.69
382.993	13.67
383.359	13.71
383.725	13.66
384.091	13.91
384.457	13.62
384.823	14.07
385.188	13.88
385.554	14.11
385.92	13.55
386.286	14.08
386.651	13.66
387.017	14.41
387.383	13.99
387.748	14.34
388.114	14.24
388.479	14.18
388.845	14.24
389.21	14.61
389.575	14.59
389.94	14.53
390.306	14.33
390.671	14.61
391.036	14.45
391.401	14.62
391.766	14.53
392.131	14.84
392.496	14.57
392.861	14.95
393.226	14.56
393.591	14.76
393.956	15.01
394.32	15
394.685	14.78
395.05	14.97
395.414	14.89
395.779	15.23
396.143	15.06
396.508	15.03
396.872	15.11
397.236	15.39
397.601	15.36
397.965	15.45
398.329	15.34
398.694	15.19
399.058	15.54
399.422	15.37
399.786	15.49
400.15	15.8
400.514	15.57
400.878	15.62
401.242	15.82
401.605	15.7
401.969	15.59
402.333	15.68
402.697	15.95
403.06	15.81
403.424	16.22
403.787	15.83
404.151	16.12
404.514	16.17
404.878	16.1
405.241	16.02
405.604	15.91
405.968	16.25
406.331	16.29
406.694	16.31
407.057	16.18
407.42	16.26
407.783	16.3
408.146	16.47
408.509	16.7
408.872	16.43
409.235	16.54
409.598	16.6
409.961	16.52
410.323	16.66
410.686	16.8
411.049	16.9
411.411	16.77
411.774	16.89
412.136	16.84
412.499	17.13
412.861	16.72
413.223	16.89
413.586	17.31
413.948	16.88
414.31	17.22
414.672	17.18
415.035	17.24
415.397	17.05
415.759	17.03
416.121	17.34
416.483	17.38
416.845	17.28
417.206	17.25
417.568	17.19
417.93	17.42
418.292	17.41
418.653	17.27
419.015	17.32
419.377	17.19
419.738	17.46
420.1	17.52
420.461	17.51
420.822	17.48
421.184	17.66
421.545	17.49
421.906	17.62
422.267	17.48
422.629	17.46
422.99	17.46
423.351	17.52
423.712	17.75
424.073	17.76
424.434	18.03
424.795	17.99
425.155	17.95
425.516	17.88
425.877	18.03
426.238	17.79
426.598	18.06
426.959	18.3
427.32	18.11
427.68	18.16
428.041	18.5
428.401	18.49
428.761	18.52
429.122	18.68
429.482	18.79
429.842	18.79
430.202	19.07
430.563	19
430.923	18.9
431.283	18.98
431.643	19.24
432.003	19.04
432.363	19.41
432.722	19.32
433.082	19.25
433.442	19.37
433.802	19.23
434.161	19.22
434.521	19.27
434.881	19.42
435.24	19.36
435.6	19.4
435.959	19.58
436.319	19.54
436.678	19.53
437.037	19.55
437.396	19.66
437.756	19.67
438.115	19.77
438.474	19.8
438.833	19.89
439.192	19.86
439.551	19.87
439.91	19.79
440.269	20.21
440.628	20.02
440.987	20.2
441.345	20.04
441.704	19.99
442.063	19.95
442.421	20.25
442.78	20.08
443.138	20.16
443.497	20.27
443.855	20.42
444.214	20.26
444.572	20.63
444.93	20.68
445.288	20.75
445.647	20.52
446.005	20.71
446.363	20.78
446.721	20.68
447.079	20.72
447.437	20.67
447.795	20.59
448.153	20.62
448.51	20.68
448.868	20.68
449.226	20.86
449.584	20.8
449.941	20.93
450.299	20.96
450.656	21.14
451.014	21.31
451.371	21.47
451.729	21.37
452.086	21.6
452.443	21.6
452.801	21.7
453.158	21.78
453.515	21.44
453.872	21.68
454.229	21.72
454.586	21.64
454.943	21.83
455.3	21.84
455.657	21.89
456.014	22.03
456.371	21.99
456.727	22.13
457.084	22.26
457.441	22.12
457.797	22.4
458.154	22.47
458.51	22.29
458.867	22.34
459.223	22.4
459.58	22.31
459.936	22.48
460.292	22.43
460.648	22.3
461.005	22.15
461.361	22.12
461.717	22.14
462.073	22.37
462.429	22.65
462.785	22.78
463.141	22.76
463.496	22.76
463.852	23.01
464.208	22.96
464.564	23.07
464.919	23.15
465.275	23.27
465.631	23.28
465.986	23.26
466.342	23.12
466.697	23.47
467.052	23.4
467.408	23.48
467.763	23.42
468.118	23.35
468.473	23.53
468.829	23.35
469.184	23.62
469.539	23.52
469.894	23.52
470.249	23.68
470.603	23.77
470.958	23.84
471.313	24.15
471.668	23.9
472.023	24.02
472.377	23.86
472.732	24.19
473.086	23.99
473.441	24.22
473.795	24.48
474.15	24.23
474.504	24.27
474.859	24.28
475.213	24.46
475.567	24.42
475.921	24.33
476.275	24.48
476.63	24.57
476.984	24.55
477.338	24.71
477.692	24.57
478.045	24.51
478.399	24.74
478.753	24.65
479.107	24.69
479.461	24.66
479.814	24.73
480.168	24.82
480.521	24.85
480.875	24.78
481.228	24.95
481.582	24.88
481.935	25.1
482.289	25.01
482.642	25.04
482.995	24.98
483.348	24.89
483.701	24.87
484.055	24.85
484.408	24.73
484.761	24.38
485.114	24.16
485.466	24.14
485.819	24.2
486.172	24.41
486.525	24.59
486.878	24.71
487.23	24.86
487.583	24.96
487.936	24.99
488.288	25.09
488.641	24.69
488.993	24.78
489.345	24.79
489.698	24.91
490.05	25.08
490.402	25.1
490.754	25.24
491.107	25.38
491.459	25.71
491.811	25.7
492.163	25.71
492.515	25.68
492.866	25.36
493.218	25.37
493.57	25.4
493.922	25.62
494.274	25.85
494.625	26.05
494.977	26.2
495.328	26.26
495.68	26.5
496.031	26.59
496.383	26.62
496.734	26.77
497.086	26.84
497.437	26.79
497.788	26.97
498.139	26.79
498.49	26.96
498.842	26.7
499.193	26.8
499.544	27
499.894	27.02
500.245	27.1
500.596	27.18
500.947	27.22
501.298	27.34
501.648	27.45
501.999	27.43
502.35	27.39
502.7	27.76
503.051	27.5
503.401	27.67
503.752	27.58
504.102	27.54
504.452	27.52
504.803	27.79
505.153	27.79
505.503	27.77
505.853	27.85
506.203	27.74
506.553	27.85
506.903	27.95
507.253	27.99
507.603	28.15
507.953	28.23
508.303	28.09
508.652	28.22
509.002	28.11
509.352	28.15
509.701	28
510.051	28.3
510.4	28.22
510.75	28.15
511.099	28.2
511.449	28.4
511.798	28.26
512.147	28.4
512.496	28.37
512.846	28.43
513.195	28.49
513.544	28.74
513.893	28.67
514.242	28.66
514.591	28.61
514.939	28.92
515.288	28.8
515.637	28.87
515.986	28.9
516.334	29.08
516.683	29.07
517.032	29.12
517.38	29.15
517.729	29.11
518.077	29.19
518.426	29.36
518.774	29.03
519.122	29.13
519.47	28.94
519.819	28.99
520.167	28.99
520.515	29.02
520.863	29.16
521.211	29.26
521.559	29.27
521.907	29.26
522.255	29.55
522.602	29.71
522.95	29.69
523.298	29.78
523.645	29.85
523.993	29.89
524.341	29.97
524.688	29.86
525.036	29.98
525.383	29.94
525.73	30.12
526.078	30.19
526.425	29.9
526.772	29.88
527.119	29.83
527.466	29.73
527.814	29.82
528.161	29.84
528.508	30.06
528.854	29.92
529.201	29.81
529.548	29.55
529.895	29.37
530.242	29.39
530.588	29.5
530.935	29.61
531.282	29.76
531.628	29.99
531.975	29.97
532.321	30.11
532.667	30.28
533.014	30.4
533.36	30.58
533.706	30.58
534.052	30.47
534.399	30.3
534.745	30.15
535.091	30.14
535.437	30.31
535.783	30.47
536.129	30.64
536.474	30.95
536.82	30.89
537.166	30.96
537.512	31.1
537.857	31.07
538.203	30.96
538.549	30.89
538.894	31.07
539.239	31.29
539.585	31.44
539.93	31.78
540.276	31.71
540.621	31.86
540.966	31.88
541.311	31.78
541.656	31.61
542.001	31.63
542.346	31.36
542.691	31.11
543.036	31.14
543.381	31.19
543.726	31.28
544.071	31.47
544.415	31.63
544.76	31.77
545.105	31.84
545.449	31.79
545.794	32.13
546.138	32.11
546.483	32.24
546.827	32.2
547.171	32.45
547.516	32.45
547.86	32.5
548.204	32.48
548.548	32.23
548.892	32.45
549.236	32.59
549.58	32.83
549.924	33.08
550.268	33.09
550.612	33.23
550.956	33.3
551.3	33.25
551.643	33.12
551.987	33.46
552.33	33.62
552.674	33.21
553.017	33.44
553.361	33.64
553.704	33.8
554.048	33.44
554.391	33.32
554.734	33.39
555.077	33.61
555.42	33.72
555.764	33.73
556.107	33.75
556.45	33.94
556.793	34.11
557.135	34.21
557.478	34.16
557.821	34.31
558.164	34.18
558.507	34.13
558.849	34.3
559.192	34.27
559.534	34.26
559.877	34.12
560.219	34.31
560.562	34.4
560.904	34.39
561.246	34.41
561.589	34.69
561.931	34.53
562.273	34.63
562.615	34.7
562.957	34.51
563.299	34.69
563.641	34.58
563.983	34.46
564.325	35.06
564.667	34.66
565.008	35.01
565.35	34.98
565.692	34.86
566.033	35
566.375	34.92
566.716	34.97
567.058	34.94
567.399	35.13
567.741	34.93
568.082	35.04
568.423	34.93
568.764	35.14
569.105	35.17
569.447	35.29
569.788	35.12
570.129	35.49
570.47	35.55
570.811	35.53
571.151	35.52
571.492	35.45
571.833	35.34
572.174	35.64
572.514	35.68
572.855	35.72
573.195	35.63
573.536	35.6
573.876	35.7
574.217	35.73
574.557	35.78
574.898	35.9
575.238	36.31
575.578	36.09
575.918	36.14
576.258	36.27
576.598	36.15
576.938	36.09
577.278	36.2
577.618	36.09
577.958	36.28
578.298	36.4
578.638	36.19
578.977	36.63
579.317	36.73
579.657	36.44
579.996	36.8
580.336	37
580.675	36.84
581.014	36.92
581.354	37.07
581.693	36.97
582.032	37.06
582.372	37.06
582.711	37.09
583.05	37.01
583.389	37.12
583.728	37.38
584.067	37.27
584.406	37.58
584.745	37.42
585.083	37.32
585.422	37.56
585.761	37.44
586.1	37.64
586.438	37.3
586.777	37.34
587.115	37.55
587.454	37.54
587.792	37.75
588.13	37.61
588.469	37.67
588.807	37.91
589.145	37.86
589.483	37.78
589.821	37.85
590.159	37.83
590.497	38.12
590.835	38.2
591.173	37.79
591.511	38.12
591.849	38.27
592.187	38.14
592.524	38.12
592.862	38.2
593.2	38.27
593.537	38.28
593.875	38.1
594.212	38.5
594.55	38.19
594.887	38.37
595.224	38.77
595.561	38.78
595.899	38.35
596.236	38.61
596.573	38.45
596.91	38.59
597.247	38.64
597.584	38.66
597.921	38.64
598.258	38.68
598.594	38.36
598.931	38.22
599.268	38.37
599.604	38.6
599.941	38.64
600.277	38.78
600.614	39.05
600.95	39
601.287	38.67
601.623	38.96
601.959	39.38
602.296	39.36
602.632	39.04
602.968	39.38
603.304	38.95
603.64	39.46
603.976	39.57
604.312	39.45
604.648	39.16
604.984	39.43
605.319	39.13
605.655	38.95
605.991	39.3
606.326	39.4
606.662	38.87
606.998	39.21
607.333	39.1
607.668	39.36
608.004	39.76
608.339	39.63
608.674	39.9
609.01	40.2
609.345	39.53
609.68	39.62
610.015	40.14
610.35	40
610.685	39.83
611.02	39.76
611.355	39.75
611.689	39.96
612.024	40.05
612.359	40.17
612.694	40.1
613.028	40.02
613.363	40.16
613.697	40.61
614.032	40.6
614.366	40.11
614.7	40.53
615.035	40.59
615.369	41.07
615.703	40.77
616.037	40.71
616.371	40.71
616.705	40.52
617.039	40.94
617.373	40.94
617.707	40.71
618.041	40.76
618.375	40.69
618.709	41.42
619.042	41.15
619.376	40.67
619.71	41.14
620.043	41.24
620.377	40.98
620.71	40.99
621.043	41.24
621.377	41.44
621.71	41.76
622.043	41.11
622.376	41.26
622.709	41.41
623.043	41.4
623.376	41.56
623.709	41.51
624.041	41.31
624.374	41.59
624.707	41.41
625.04	41.69
625.373	41.91
625.705	41.95
626.038	42.18
626.37	41.69
626.703	41.83
627.035	41.81
627.368	42.07
627.7	41.75
628.032	41.82
628.365	41.95
628.697	42.22
629.029	41.65
629.361	41.75
629.693	42.05
630.025	41.64
630.357	42.29
630.689	42.82
631.021	42.16
631.353	42.48
631.684	42.37
632.016	41.99
632.348	42.16
632.679	42.32
633.011	42.29
633.342	42.55
633.674	42.01
634.005	42.49
634.336	43.05
634.668	42.84
634.999	42.35
635.33	42.73
635.661	42.66
635.992	42.43
636.323	42.17
636.654	42.76
636.985	42.74
637.316	42.8
637.647	42.87
637.977	42.62
638.308	43.14
638.639	42.69
638.969	42.89
639.3	43.08
639.63	42.56
639.961	43.04
640.291	42.98
640.622	43.59
640.952	43.29
641.282	42.84
641.612	43.02
641.943	43.06
642.273	42.89
642.603	43.73
642.933	43.3
643.263	43.18
643.592	43.52
643.922	43.24
644.252	43.13
644.582	43.46
644.911	43.97
645.241	43.4
645.571	43.94
645.9	43.63
646.23	43.46
646.559	43.7
646.888	43.41
647.218	43.65
647.547	43.61
647.876	43.55
648.205	43.45
648.534	44.02
648.863	43.37
649.192	44.02
649.521	44.03
649.85	43.8
650.179	43.02
650.508	44.63
650.837	43.99
651.165	44.28
651.494	44.67
651.822	44.05
652.151	44.22
652.479	43.86
652.808	44.12
653.136	43.99
653.465	44.39
653.793	44.02
654.121	44.24
654.449	43.57
654.777	43.97
655.105	44.25
655.433	44.67
655.761	44.11
656.089	44.33
656.417	45.22
656.745	44.23
657.073	44.56
657.4	43.48
657.728	44.41
658.056	44.97
658.383	44.33
658.711	44.59
659.038	44.74
659.365	44.82
659.693	44.39
660.02	44.92
660.347	44.79
660.674	44.57
661.001	44.54
661.329	44.84
661.656	44.95
661.982	44.43
662.309	45.03
662.636	45.13
662.963	45.18
663.29	44.82
663.616	44.88
663.943	45.25
664.27	45.49
664.596	44.88
664.923	44.86
665.249	45.36
665.576	45.11
665.902	45.22
666.228	45.44
666.554	45.71
666.881	44.39
667.207	45.51
667.533	45.9
667.859	44.94
668.185	45.15
668.511	45.22
668.837	45.68
669.162	45.7
669.488	45.25
669.814	44.97
670.139	45.34
670.465	45.81
670.791	44.81
671.116	45.14
