Data from 22-1_chest_Reflection__2__213.txt Node

Date: Thu Dec 15 18:09:51 CST 2022
User: ToomeyLab
Spectrometer: FLMS14357
Trigger mode: 0
Integration Time (sec): 1.000000E-2
Scans to average: 100
Electric dark correction enabled: true
Nonlinearity correction enabled: false
Boxcar width: 0
XAxis mode: Wavelengths
Number of Pixels in Spectrum: 2048
>>>>>Begin Spectral Data<<<<<
189.047	-19.3
189.435	-19.3
189.823	-19.3
190.211	-392.58
190.599	-5.14
190.987	-92.85
191.375	-17.66
191.763	-126.65
192.151	126.17
192.538	-2.51
192.926	-89.09
193.314	443.52
193.702	-1696.32
194.089	-46.04
194.477	70.01
194.864	184.58
195.252	79.73
195.639	14.79
196.027	84.49
196.414	33
196.801	-280.66
197.189	156.6
197.576	8.16
197.963	143.27
198.351	40.18
198.738	-37.85
199.125	-126.88
199.512	23.02
199.899	-45.98
200.286	2.43
200.673	40.81
201.06	-12.23
201.447	5.11
201.833	-37.16
202.22	-1.17
202.607	-145.14
202.994	-19.11
203.38	13.16
203.767	-16.77
204.154	43.55
204.54	-34.35
204.927	-31.71
205.313	23.58
205.699	-12.1
206.086	39.3
206.472	37.86
206.858	2.95
207.245	-28.52
207.631	-9.48
208.017	9.8
208.403	-198.06
208.789	-9.81
209.175	-19.7
209.561	-190.97
209.947	-9.26
210.333	-2.75
210.719	13.48
211.105	11.22
211.491	6.73
211.876	-37.75
212.262	5.99
212.648	-7.41
213.034	-56.77
213.419	16.21
213.805	-41.26
214.19	-25.76
214.576	-27.67
214.961	-11.59
215.346	-8.04
215.732	-36.4
216.117	-9.64
216.502	-48.92
216.888	-6.32
217.273	-7.88
217.658	6.18
218.043	-28.91
218.428	-39.73
218.813	-14.07
219.198	-39.94
219.583	-23.09
219.968	-6.26
220.353	-38.86
220.738	-16.1
221.122	-18.66
221.507	5.67
221.892	-21.82
222.276	-45.94
222.661	-17.01
223.046	-26.88
223.43	12.82
223.815	3.16
224.199	-9.77
224.583	-18.49
224.968	-12.84
225.352	-13.85
225.736	0.75
226.121	-1.81
226.505	-1.39
226.889	-7.67
227.273	-4.39
227.657	4.59
228.041	-0.14
228.425	2.54
228.809	-2.39
229.193	2.77
229.577	3.77
229.961	4.1
230.344	3.81
230.728	4.61
231.112	5.38
231.495	1.42
231.879	3.76
232.263	4.9
232.646	3.14
233.03	3.88
233.413	4.66
233.797	3.44
234.18	2.71
234.563	3.81
234.946	-0.3
235.33	2.04
235.713	3.99
236.096	5.86
236.479	4.64
236.862	4.24
237.245	1.33
237.628	3.14
238.011	3.18
238.394	1.39
238.777	3.83
239.16	4.08
239.543	3.14
239.925	4.08
240.308	2.36
240.691	2.81
241.073	3.08
241.456	3.97
241.838	3.64
242.221	2.93
242.603	3.27
242.986	3.65
243.368	4.06
243.75	4.05
244.133	4.4
244.515	3.78
244.897	4.09
245.279	4.25
245.661	4.05
246.043	4.17
246.425	4.14
246.807	3.54
247.189	3.61
247.571	3.85
247.953	4.31
248.335	4.43
248.717	4.3
249.098	4.25
249.48	4.06
249.862	4.51
250.243	4.08
250.625	3.91
251.006	4.88
251.388	4.04
251.769	3.21
252.151	4.72
252.532	3.09
252.913	3.33
253.295	4.05
253.676	4.26
254.057	4.23
254.438	3.65
254.819	4.05
255.2	3.05
255.581	4.36
255.962	3.96
256.343	4.15
256.724	4.2
257.105	3.36
257.486	3.33
257.867	3.88
258.247	3.68
258.628	4.02
259.009	3.18
259.389	3.52
259.77	3.5
260.15	4.02
260.531	3.72
260.911	4.01
261.292	4.23
261.672	4.03
262.052	4.02
262.432	3.79
262.813	3.93
263.193	3.76
263.573	3.56
263.953	4.02
264.333	3.97
264.713	3.77
265.093	3.15
265.473	3.03
265.853	3.9
266.233	3.06
266.612	3.98
266.992	4.16
267.372	4.32
267.752	4.29
268.131	4.11
268.511	3.48
268.89	4.4
269.27	2.6
269.649	3.32
270.029	3.96
270.408	3.61
270.787	4.08
271.167	4.04
271.546	4.49
271.925	3.82
272.304	4.36
272.683	3.26
273.062	3.56
273.441	3.43
273.82	4.04
274.199	3.86
274.578	4.29
274.957	3.79
275.336	3.85
275.715	4.12
276.093	3.62
276.472	3.24
276.851	3.67
277.229	3.31
277.608	3.21
277.986	4.05
278.365	4.2
278.743	3.64
279.122	3.12
279.5	3.56
279.878	3.37
280.257	3.54
280.635	2.93
281.013	2.97
281.391	3.43
281.769	3.69
282.147	3.28
282.525	3.26
282.903	3.79
283.281	3.57
283.659	3.79
284.037	3.54
284.415	3.69
284.792	3.91
285.17	3.51
285.548	3.57
285.925	3.74
286.303	4.01
286.68	3.75
287.058	4.17
287.435	3.6
287.813	3.76
288.19	3.38
288.567	3.47
288.945	4.07
289.322	3.75
289.699	3.82
290.076	3.53
290.453	3.48
290.83	3.93
291.207	3.57
291.584	3.79
291.961	3.79
292.338	3.87
292.715	3.65
293.092	4.23
293.469	3.16
293.845	4.01
294.222	3.92
294.599	2.85
294.975	3.33
295.352	4.2
295.728	3.95
296.105	3.8
296.481	4.07
296.858	3.72
297.234	3.58
297.61	3.7
297.986	4.33
298.363	4.09
298.739	4.12
299.115	3.98
299.491	4.22
299.867	3.73
300.243	3.64
300.619	3.62
300.995	3.97
301.371	4.44
301.746	3.9
302.122	3.39
302.498	3.77
302.874	4.2
303.249	4.08
303.625	3.5
304	3.96
304.376	4.19
304.751	3.88
305.127	3.58
305.502	4
305.878	3.88
306.253	3.83
306.628	3.52
307.003	3.69
307.378	3.88
307.754	4.07
308.129	3.85
308.504	4.01
308.879	3.77
309.254	4.29
309.629	4.11
310.003	3.93
310.378	4.2
310.753	4.25
311.128	3.76
311.502	4.16
311.877	3.71
312.252	4.05
312.626	4.56
313.001	4.39
313.375	4.3
313.75	4.08
314.124	4.52
314.498	4.37
314.873	3.88
315.247	3.59
315.621	4.11
315.995	4.15
316.369	3.81
316.743	4.22
317.117	3.88
317.491	4.04
317.865	3.27
318.239	4.68
318.613	4
318.987	3.71
319.361	4.05
319.734	3.95
320.108	3.96
320.482	4.15
320.855	3.95
321.229	4.02
321.602	4.42
321.976	3.93
322.349	5
322.723	3.94
323.096	3.64
323.469	3.73
323.843	3.6
324.216	4.17
324.589	4.3
324.962	3.83
325.335	3.94
325.708	4.18
326.081	4.07
326.454	4.43
326.827	3.92
327.2	3.47
327.573	4.52
327.945	4.2
328.318	4.09
328.691	4.24
329.063	3.68
329.436	3.25
329.809	4.23
330.181	5.21
330.553	4.55
330.926	4.54
331.298	4.01
331.671	4.12
332.043	3.67
332.415	3.99
332.787	4.32
333.159	4.36
333.532	4.09
333.904	3.82
334.276	4.29
334.648	4.01
335.02	4
335.391	4.41
335.763	4.3
336.135	4.17
336.507	3.83
336.879	4.06
337.25	4.4
337.622	4.05
337.993	4.3
338.365	4.32
338.736	4.49
339.108	3.84
339.479	4.04
339.851	4.18
340.222	4.5
340.593	4.01
340.964	3.91
341.336	4.16
341.707	3.88
342.078	3.78
342.449	4.53
342.82	4.21
343.191	4.08
343.562	4.44
343.933	3.59
344.303	4.06
344.674	4.15
345.045	4.29
345.416	4.67
345.786	3.81
346.157	4.41
346.527	4.19
346.898	4.07
347.268	4.2
347.639	4.28
348.009	4.68
348.38	3.9
348.75	4.36
349.12	4.18
349.49	4.16
349.861	4.29
350.231	3.73
350.601	4.61
350.971	3.76
351.341	4.14
351.711	4.39
352.081	3.93
352.45	3.89
352.82	3.59
353.19	3.92
353.56	4.29
353.929	4.18
354.299	4.34
354.669	3.96
355.038	4.66
355.408	4.41
355.777	4.4
356.147	4.21
356.516	4.33
356.885	4.66
357.254	3.96
357.624	3.97
357.993	4.17
358.362	4.29
358.731	4.45
359.1	4.38
359.469	4.51
359.838	4.29
360.207	4.35
360.576	4.5
360.945	4.3
361.314	4.43
361.682	4.04
362.051	4.3
362.42	4.35
362.788	4.42
363.157	4.35
363.525	4.53
363.894	4.23
364.262	4.48
364.631	4.83
364.999	4.54
365.367	4.57
365.735	3.89
366.104	4.36
366.472	4.25
366.84	4.55
367.208	4.81
367.576	4.44
367.944	4.48
368.312	4.16
368.68	4.88
369.048	4.38
369.416	4.07
369.783	4.19
370.151	4.69
370.519	4.58
370.886	4.62
371.254	4.7
371.621	4.75
371.989	4.54
372.356	4.44
372.724	4.39
373.091	4.26
373.458	4.44
373.826	4.42
374.193	4.37
374.56	4.86
374.927	4.11
375.294	4.42
375.661	4.7
376.028	4.2
376.395	4.46
376.762	4.37
377.129	4.47
377.496	4.54
377.863	4.64
378.229	4.64
378.596	4.57
378.963	4.54
379.329	4.57
379.696	4.55
380.062	4.42
380.429	4.35
380.795	4.85
381.161	4.29
381.528	4.76
381.894	4.44
382.26	4.53
382.626	4.59
382.993	4.87
383.359	4.58
383.725	4.25
384.091	4.72
384.457	4.52
384.823	4.59
385.188	4.62
385.554	4.78
385.92	4.5
386.286	4.62
386.651	4.62
387.017	4.72
387.383	4.46
387.748	4.84
388.114	4.63
388.479	4.33
388.845	4.52
389.21	4.87
389.575	4.8
389.94	4.62
390.306	4.56
390.671	4.51
391.036	4.41
391.401	4.48
391.766	4.75
392.131	4.78
392.496	4.36
392.861	4.49
393.226	4.53
393.591	4.56
393.956	4.61
394.32	4.84
394.685	4.68
395.05	4.62
395.414	4.5
395.779	4.93
396.143	4.5
396.508	4.77
396.872	4.47
397.236	4.94
397.601	4.79
397.965	4.65
398.329	4.4
398.694	4.56
399.058	4.76
399.422	4.79
399.786	4.58
400.15	4.75
400.514	4.79
400.878	4.66
401.242	4.67
401.605	4.6
401.969	4.71
402.333	4.71
402.697	4.89
403.06	4.85
403.424	4.58
403.787	4.95
404.151	4.62
404.514	4.63
404.878	4.62
405.241	4.76
405.604	4.57
405.968	4.77
406.331	4.62
406.694	4.82
407.057	4.5
407.42	4.7
407.783	4.76
408.146	4.9
408.509	4.88
408.872	4.77
409.235	4.98
409.598	4.59
409.961	4.73
410.323	4.67
410.686	4.78
411.049	4.89
411.411	4.61
411.774	4.82
412.136	4.66
412.499	4.94
412.861	4.53
413.223	4.52
413.586	4.78
413.948	4.97
414.31	4.72
414.672	4.77
415.035	5.14
415.397	4.88
415.759	4.55
416.121	4.84
416.483	4.72
416.845	4.9
417.206	4.77
417.568	4.75
417.93	4.93
418.292	4.63
418.653	4.62
419.015	4.79
419.377	4.71
419.738	4.96
420.1	4.76
420.461	4.55
420.822	4.76
421.184	4.71
421.545	4.86
421.906	4.71
422.267	4.78
422.629	4.69
422.99	4.77
423.351	4.72
423.712	4.82
424.073	4.83
424.434	4.93
424.795	4.75
425.155	4.67
425.516	4.77
425.877	4.8
426.238	4.74
426.598	4.82
426.959	4.92
427.32	4.68
427.68	4.73
428.041	4.82
428.401	4.86
428.761	4.86
429.122	4.86
429.482	4.98
429.842	4.72
430.202	5.03
430.563	4.84
430.923	5.03
431.283	4.96
431.643	4.92
432.003	4.98
432.363	4.94
432.722	4.81
433.082	4.89
433.442	4.94
433.802	4.94
434.161	4.97
434.521	4.95
434.881	4.95
435.24	4.85
435.6	4.92
435.959	5.05
436.319	4.97
436.678	5.03
437.037	5.01
437.396	5
437.756	4.92
438.115	4.99
438.474	5.03
438.833	4.99
439.192	4.85
439.551	4.87
439.91	4.87
440.269	4.95
440.628	5.07
440.987	5.05
441.345	5.04
441.704	5.01
442.063	4.91
442.421	4.92
442.78	4.85
443.138	4.97
443.497	4.94
443.855	5.03
444.214	4.87
444.572	5.06
444.93	5.1
445.288	5.09
445.647	4.93
446.005	5.1
446.363	5.05
446.721	4.95
447.079	4.89
447.437	5.06
447.795	5.07
448.153	5
448.51	5.11
448.868	4.96
449.226	5.03
449.584	5.05
449.941	5.05
450.299	4.98
450.656	5.01
451.014	5.05
451.371	5.14
451.729	5.25
452.086	5.12
452.443	5.07
452.801	5.08
453.158	5.24
453.515	5.04
453.872	5.18
454.229	4.95
454.586	4.86
454.943	5.08
455.3	5.18
455.657	5.11
456.014	5.13
456.371	5.15
456.727	5.26
457.084	5.31
457.441	5.16
457.797	5.19
458.154	5.05
458.51	5.06
458.867	5.07
459.223	5.11
459.58	5.09
459.936	5.14
460.292	5.15
460.648	5.05
461.005	5.1
461.361	5.09
461.717	5.09
462.073	5.15
462.429	5.18
462.785	5.37
463.141	5.11
463.496	5.16
463.852	5.29
464.208	5.21
464.564	5.19
464.919	5.15
465.275	5.28
465.631	5.48
465.986	5.32
466.342	5.08
466.697	5.28
467.052	5.39
467.408	5.18
467.763	5.19
468.118	5.21
468.473	5.34
468.829	5.1
469.184	5.36
469.539	5.13
469.894	5.31
470.249	5.24
470.603	5.54
470.958	5.38
471.313	5.34
471.668	5.32
472.023	5.25
472.377	5.27
472.732	5.37
473.086	5.31
473.441	5.28
473.795	5.66
474.15	5.2
474.504	5.31
474.859	5.08
475.213	5.42
475.567	5.28
475.921	5.47
476.275	5.51
476.63	5.32
476.984	5.27
477.338	5.54
477.692	5.45
478.045	5.46
478.399	5.45
478.753	5.32
479.107	5.24
479.461	5.34
479.814	5.33
480.168	5.29
480.521	5.46
480.875	5.44
481.228	5.46
481.582	5.44
481.935	5.49
482.289	5.48
482.642	5.5
482.995	5.34
483.348	5.34
483.701	5.34
484.055	5.31
484.408	5.34
484.761	5.27
485.114	5.1
485.466	5.11
485.819	5.12
486.172	5.19
486.525	5.27
486.878	5.25
487.23	5.27
487.583	5.34
487.936	5.37
488.288	5.25
488.641	5.26
488.993	5.29
489.345	5.25
489.698	5.26
490.05	5.28
490.402	5.29
490.754	5.33
491.107	5.32
491.459	5.49
491.811	5.42
492.163	5.45
492.515	5.43
492.866	5.29
493.218	5.34
493.57	5.37
493.922	5.34
494.274	5.5
494.625	5.56
494.977	5.51
495.328	5.57
495.68	5.34
496.031	5.47
496.383	5.34
496.734	5.48
497.086	5.83
497.437	5.63
497.788	5.76
498.139	5.72
498.49	5.73
498.842	5.75
499.193	5.56
499.544	5.68
499.894	5.58
500.245	5.76
500.596	5.76
500.947	5.57
501.298	5.61
501.648	5.66
501.999	5.7
502.35	5.63
502.7	5.87
503.051	5.68
503.401	5.72
503.752	5.6
504.102	5.65
504.452	5.53
504.803	5.66
505.153	5.75
505.503	5.66
505.853	5.89
506.203	5.79
506.553	5.66
506.903	5.74
507.253	5.72
507.603	5.67
507.953	5.87
508.303	5.78
508.652	5.61
509.002	5.82
509.352	5.89
509.701	5.74
510.051	5.84
510.4	5.95
510.75	5.81
511.099	5.82
511.449	5.92
511.798	5.84
512.147	5.74
512.496	5.87
512.846	5.78
513.195	5.79
513.544	6.01
513.893	5.9
514.242	5.9
514.591	5.81
514.939	5.94
515.288	6
515.637	5.89
515.986	5.89
516.334	6.02
516.683	5.91
517.032	5.89
517.38	5.87
517.729	5.89
518.077	5.95
518.426	6.03
518.774	6
519.122	5.99
519.47	5.98
519.819	5.9
520.167	5.91
520.515	5.98
520.863	5.88
521.211	5.97
521.559	5.98
521.907	6.06
522.255	6.02
522.602	6.09
522.95	6.11
523.298	6.06
523.645	6.03
523.993	6.14
524.341	6.09
524.688	6.06
525.036	6.04
525.383	6.08
525.73	6.07
526.078	6.25
526.425	6.23
526.772	6.07
527.119	6.19
527.466	6.16
527.814	6.17
528.161	6.26
528.508	6.18
528.854	6.12
529.201	6.05
529.548	6.09
529.895	6
530.242	5.99
530.588	6.02
530.935	6.02
531.282	6.02
531.628	6.11
531.975	6.09
532.321	6.18
532.667	6.26
533.014	6.37
533.36	6.32
533.706	6.32
534.052	6.39
534.399	6.3
534.745	6.17
535.091	6.25
535.437	6.29
535.783	6.29
536.129	6.24
536.474	6.38
536.82	6.45
537.166	6.39
537.512	6.48
537.857	6.45
538.203	6.35
538.549	6.37
538.894	6.45
539.239	6.51
539.585	6.52
539.93	6.65
540.276	6.68
540.621	6.68
540.966	6.66
541.311	6.58
541.656	6.56
542.001	6.6
542.346	6.46
542.691	6.48
543.036	6.48
543.381	6.55
543.726	6.61
544.071	6.55
544.415	6.61
544.76	6.61
545.105	6.71
545.449	6.71
545.794	6.74
546.138	6.77
546.483	6.86
546.827	6.78
547.171	6.95
547.516	6.93
547.86	6.88
548.204	6.95
548.548	6.92
548.892	6.87
549.236	6.91
549.58	6.92
549.924	7.16
550.268	7.2
550.612	7.19
550.956	7.16
551.3	7.12
551.643	7.19
551.987	7.22
552.33	7.35
552.674	7.08
553.017	7.21
553.361	7.28
553.704	7.25
554.048	7.21
554.391	7.28
554.734	7.14
555.077	7.39
555.42	7.23
555.764	7.34
556.107	7.39
556.45	7.39
556.793	7.47
557.135	7.57
557.478	7.39
557.821	7.37
558.164	7.5
558.507	7.26
558.849	7.63
559.192	7.54
559.534	7.61
559.877	7.53
560.219	7.44
560.562	7.48
560.904	7.75
561.246	7.5
561.589	7.74
561.931	7.75
562.273	7.61
562.615	7.62
562.957	7.58
563.299	7.74
563.641	7.85
563.983	7.68
564.325	7.72
564.667	7.82
565.008	7.69
565.35	7.72
565.692	7.83
566.033	7.82
566.375	7.99
566.716	7.76
567.058	8.03
567.399	7.91
567.741	7.95
568.082	7.99
568.423	7.87
568.764	7.87
569.105	7.99
569.447	7.89
569.788	8.06
570.129	8.09
570.47	8.11
570.811	7.84
571.151	8.24
571.492	8.07
571.833	8.1
572.174	8.15
572.514	8.32
572.855	8.37
573.195	8.18
573.536	8.35
573.876	8.12
574.217	8.13
574.557	8.33
574.898	8.31
575.238	8.5
575.578	8.35
575.918	8.28
576.258	8.54
576.598	8.37
576.938	8.35
577.278	8.69
577.618	8.6
577.958	8.72
578.298	8.63
578.638	8.7
578.977	8.62
579.317	8.69
579.657	8.88
579.996	8.78
580.336	8.84
580.675	8.72
581.014	8.81
581.354	8.71
581.693	9.13
582.032	9.05
582.372	8.88
582.711	9.04
583.05	9.05
583.389	9.14
583.728	9.16
584.067	9.02
584.406	9.09
584.745	9.05
585.083	9.37
585.422	9.28
585.761	9.19
586.1	9.3
586.438	9.2
586.777	9.24
587.115	9.32
587.454	9.2
587.792	9.48
588.13	9.42
588.469	9.57
588.807	9.44
589.145	9.52
589.483	9.11
589.821	9.54
590.159	9.78
590.497	9.4
590.835	9.71
591.173	9.59
591.511	9.69
591.849	9.65
592.187	9.55
592.524	9.93
592.862	9.63
593.2	9.93
593.537	9.64
593.875	9.81
594.212	9.95
594.55	9.8
594.887	9.81
595.224	10.01
595.561	10.05
595.899	9.83
596.236	10.06
596.573	9.82
596.91	9.9
597.247	10.19
597.584	10.17
597.921	10.19
598.258	10.29
598.594	10.07
598.931	10.13
599.268	10.06
599.604	10.32
599.941	10.13
600.277	10.3
600.614	10.34
600.95	10.45
601.287	10.24
601.623	10.2
601.959	10.65
602.296	10.56
602.632	10.53
602.968	10.41
603.304	10.55
603.64	10.39
603.976	10.44
604.312	10.45
604.648	10.75
604.984	10.66
605.319	10.75
605.655	10.7
605.991	10.71
606.326	10.91
606.662	10.76
606.998	10.85
607.333	10.73
607.668	10.8
608.004	10.93
608.339	10.58
608.674	10.97
609.01	11.31
609.345	10.91
609.68	11
610.015	11.18
610.35	11.18
610.685	10.84
611.02	11.13
611.355	11.05
611.689	11.35
612.024	11.36
612.359	11.48
612.694	11.55
613.028	11.21
613.363	11.64
613.697	11.7
614.032	11.39
614.366	11.3
614.7	11.64
615.035	11.61
615.369	11.74
615.703	11.89
616.037	11.79
616.371	11.74
616.705	11.71
617.039	11.64
617.373	11.76
617.707	12.05
618.041	11.79
618.375	11.03
618.709	11.95
619.042	12.04
619.376	11.96
619.71	11.98
620.043	12.21
620.377	12.23
620.71	12.04
621.043	12.23
621.377	12.31
621.71	12.33
622.043	12.49
622.376	12.23
622.709	12.68
623.043	12.2
623.376	12.16
623.709	12.69
624.041	12.64
624.374	12.53
624.707	12.61
625.04	12.14
625.373	12.68
625.705	12.65
626.038	12.89
626.37	12.63
626.703	12.76
627.035	12.77
627.368	13.16
627.7	12.68
628.032	12.82
628.365	13.18
628.697	13.21
629.029	13
629.361	13.21
629.693	13.23
630.025	12.9
630.357	13.14
630.689	13.22
631.021	13.05
631.353	13.21
631.684	12.86
632.016	12.84
632.348	12.77
632.679	13.34
633.011	13.12
633.342	13.21
633.674	13.18
634.005	13.3
634.336	13.43
634.668	13.47
634.999	12.97
635.33	13.51
635.661	13.25
635.992	13.58
636.323	13.65
636.654	13.84
636.985	13.15
637.316	13.5
637.647	13.89
637.977	13.49
638.308	13.95
638.639	13.52
638.969	13.9
639.3	13.82
639.63	13.84
639.961	14.08
640.291	13.64
640.622	14.06
640.952	14.18
641.282	13.9
641.612	13.66
641.943	13.93
642.273	14.04
642.603	14.42
642.933	14.06
643.263	14.51
643.592	14.92
643.922	14.85
644.252	14.11
644.582	14.53
644.911	14.79
645.241	14.18
645.571	14.36
645.9	14.86
646.23	14.8
646.559	14.58
646.888	14.95
647.218	14.59
647.547	14.42
647.876	14.64
648.205	14.59
648.534	14.93
648.863	14.37
649.192	14.66
649.521	15.02
649.85	15.41
650.179	14.62
650.508	15.15
650.837	15.28
651.165	14.74
651.494	15.44
651.822	15.08
652.151	15.01
652.479	15.17
652.808	15.41
653.136	14.72
653.465	15.39
653.793	15.43
654.121	15.52
654.449	15.11
654.777	15.08
655.105	14.94
655.433	15.61
655.761	15.34
656.089	15.58
656.417	15.61
656.745	16.04
657.073	15.26
657.4	15.58
657.728	15.65
658.056	15.58
658.383	15.82
658.711	15.73
659.038	16.04
659.365	16.2
659.693	15.83
660.02	16
660.347	16.33
660.674	15.69
661.001	15.75
661.329	16.03
661.656	16.09
661.982	15.87
662.309	16.12
662.636	15.97
662.963	15.74
663.29	16.42
663.616	15.93
663.943	16.48
664.27	16.17
664.596	16.29
664.923	16.65
665.249	17.01
665.576	16.25
665.902	15.77
666.228	16.52
666.554	17.07
666.881	16.29
667.207	16.64
667.533	16.76
667.859	16.8
668.185	16.78
668.511	16.87
668.837	16.36
669.162	16.46
669.488	16.25
669.814	16.86
670.139	16.67
670.465	17.23
670.791	16.07
671.116	16.68
671.442	15.77
671.767	16.67
672.092	16.59
672.418	17.5
672.743	17.04
673.068	16.95
673.393	16.95
673.718	17.13
674.043	16.92
674.368	17.45
674.693	17.6
675.018	17.16
675.343	18.09
675.667	17.45
675.992	17.72
676.317	17.43
676.641	18.11
676.966	17.39
677.29	17.34
677.615	17.61
677.939	18.08
678.264	17.92
678.588	17.65
678.912	17.75
679.236	17.45
679.56	17.27
679.885	17.83
680.209	18
680.532	17.95
680.856	17.92
681.18	18.55
681.504	18.43
681.828	18.02
682.152	18.21
682.475	18.06
682.799	17.64
683.122	18.06
683.446	17.53
683.769	18
684.093	18.19
684.416	17.97
684.739	18.07
685.062	17.95
