Data from 22-1_chest_Reflection__1__212.txt Node

Date: Thu Dec 15 18:09:38 CST 2022
User: ToomeyLab
Spectrometer: FLMS14357
Trigger mode: 0
Integration Time (sec): 1.000000E-2
Scans to average: 100
Electric dark correction enabled: true
Nonlinearity correction enabled: false
Boxcar width: 0
XAxis mode: Wavelengths
Number of Pixels in Spectrum: 2048
>>>>>Begin Spectral Data<<<<<
189.047	-2.46
189.435	-2.46
189.823	-2.46
190.211	-271.12
190.599	40.07
190.987	116.45
191.375	117.21
191.763	-191.92
192.151	196.51
192.538	30.57
192.926	227.69
193.314	483.72
193.702	-1664.72
194.089	42.89
194.477	33.34
194.864	122.39
195.252	104.4
195.639	105.82
196.027	108.45
196.414	15.73
196.801	4.93
197.189	-36.63
197.576	137.87
197.963	75.28
198.351	43.49
198.738	20.41
199.125	-363.58
199.512	38.8
199.899	10.02
200.286	-15.72
200.673	43.59
201.06	-25.91
201.447	6.04
201.833	49.79
202.22	-13.13
202.607	-127.76
202.994	-26.27
203.38	40.06
203.767	25.06
204.154	11.9
204.54	15.56
204.927	26.37
205.313	7.64
205.699	40.54
206.086	25.35
206.472	46.48
206.858	0.39
207.245	-12.64
207.631	-1.65
208.017	37.75
208.403	-89.87
208.789	6.2
209.175	10.68
209.561	-172.63
209.947	-17.4
210.333	-21.58
210.719	21.6
211.105	16.89
211.491	4.14
211.876	-30.63
212.262	-9.26
212.648	26.2
213.034	-52.72
213.419	8.24
213.805	-15.39
214.19	-24.47
214.576	-32.51
214.961	30.8
215.346	9.88
215.732	-17.92
216.117	7.91
216.502	2.78
216.888	5.19
217.273	-11.04
217.658	-51.27
218.043	-58.65
218.428	-8.68
218.813	9.88
219.198	-14.94
219.583	26.83
219.968	-15.82
220.353	-10.15
220.738	-0.71
221.122	7.91
221.507	-8.47
221.892	-20.39
222.276	-5.53
222.661	-9.99
223.046	-16.34
223.43	-2.54
223.815	-2.95
224.199	-0.23
224.583	-1.57
224.968	1.48
225.352	-8.6
225.736	4.27
226.121	-3.62
226.505	0.39
226.889	-1.23
227.273	-11.28
227.657	0.2
228.041	4.3
228.425	1.85
228.809	0.93
229.193	3.82
229.577	0.97
229.961	1.2
230.344	2.69
230.728	2.3
231.112	2.7
231.495	-0.61
231.879	0.42
232.263	4.67
232.646	1.88
233.03	3.02
233.413	3.48
233.797	-2.56
234.18	-0.06
234.563	0.36
234.946	2.21
235.33	1.91
235.713	1.31
236.096	4.08
236.479	4.35
236.862	1
237.245	1.85
237.628	3.37
238.011	2.26
238.394	-1.01
238.777	0.6
239.16	2.63
239.543	2.53
239.925	0.34
240.308	-0.21
240.691	3.17
241.073	1.74
241.456	1.77
241.838	2.31
242.221	1.36
242.603	2.07
242.986	2.76
243.368	2.3
243.75	2.36
244.133	2.8
244.515	2.33
244.897	2.36
245.279	2.53
245.661	1.83
246.043	2.23
246.425	2.14
246.807	2.06
247.189	1.46
247.571	1.65
247.953	1.89
248.335	2.43
248.717	2.56
249.098	2.4
249.48	2.21
249.862	2.47
250.243	2.53
250.625	2.44
251.006	2.56
251.388	2.16
251.769	1.39
252.151	2.59
252.532	1.78
252.913	2.68
253.295	2.1
253.676	2.59
254.057	2.55
254.438	3.18
254.819	1.58
255.2	2.66
255.581	3.02
255.962	2.84
256.343	3.24
256.724	2.51
257.105	2.82
257.486	1.57
257.867	1.81
258.247	3.12
258.628	2.88
259.009	1.88
259.389	1.49
259.77	2.15
260.15	2.62
260.531	2.49
260.911	2.27
261.292	2.5
261.672	2.45
262.052	2.28
262.432	2.08
262.813	2.51
263.193	2.54
263.573	2.67
263.953	1.73
264.333	2.21
264.713	2.27
265.093	2.16
265.473	1.47
265.853	2.08
266.233	1.96
266.612	1.11
266.992	2.45
267.372	2.86
267.752	2.39
268.131	2.27
268.511	2.32
268.89	2.73
269.27	1.24
269.649	1.84
270.029	2.05
270.408	2.15
270.787	2.94
271.167	2.46
271.546	2.96
271.925	2.62
272.304	2.51
272.683	2.21
273.062	2.05
273.441	1.76
273.82	2.48
274.199	1.92
274.578	2.58
274.957	1.89
275.336	2.34
275.715	2.44
276.093	2.07
276.472	2.38
276.851	2.19
277.229	1.99
277.608	2.07
277.986	2
278.365	2.81
278.743	1.88
279.122	1.66
279.5	2.13
279.878	1.49
280.257	2.22
280.635	2.58
281.013	1.83
281.391	2.23
281.769	2.66
282.147	2.21
282.525	1.72
282.903	2.38
283.281	2.47
283.659	2.61
284.037	2.04
284.415	2.14
284.792	2.68
285.17	2.4
285.548	2.33
285.925	2.09
286.303	2.9
286.68	2.43
287.058	2.47
287.435	2.33
287.813	2.39
288.19	2.15
288.567	2.19
288.945	2.47
289.322	2.26
289.699	2.27
290.076	2.29
290.453	2.32
290.83	2.24
291.207	2.41
291.584	2.24
291.961	2.54
292.338	2.54
292.715	2
293.092	2.8
293.469	2.37
293.845	2.76
294.222	2.95
294.599	2.47
294.975	2.18
295.352	2.92
295.728	2.71
296.105	2.44
296.481	2.89
296.858	2.98
297.234	2.58
297.61	2.9
297.986	3.33
298.363	3.17
298.739	2.8
299.115	2.92
299.491	3.06
299.867	2.76
300.243	2.67
300.619	2.79
300.995	3.05
301.371	3
301.746	2.87
302.122	2.75
302.498	3.07
302.874	3
303.249	2.82
303.625	2.89
304	3.51
304.376	3.64
304.751	3.06
305.127	3.16
305.502	2.97
305.878	3.65
306.253	2.84
306.628	3.11
307.003	2.98
307.378	2.98
307.754	3.65
308.129	2.73
308.504	3.71
308.879	3.87
309.254	3.5
309.629	3.34
310.003	2.92
310.378	3.59
310.753	3.61
311.128	3.01
311.502	3.2
311.877	3.7
312.252	3.5
312.626	3.74
313.001	3.56
313.375	3.87
313.75	3.8
314.124	4.02
314.498	4.24
314.873	3.54
315.247	3.28
315.621	2.93
315.995	3.38
316.369	3.35
316.743	2.89
317.117	3.41
317.491	3.77
317.865	3.49
318.239	3.92
318.613	3.19
318.987	3.09
319.361	3.81
319.734	3.6
320.108	3.84
320.482	3.81
320.855	3.75
321.229	3.42
321.602	3.91
321.976	3.3
322.349	4.53
322.723	3.18
323.096	3.83
323.469	4.02
323.843	3.32
324.216	3.83
324.589	3.98
324.962	3.65
325.335	3.27
325.708	3.66
326.081	3.87
326.454	3.94
326.827	4.26
327.2	3.79
327.573	4.61
327.945	3.32
328.318	3.76
328.691	3.68
329.063	3.75
329.436	3.87
329.809	3.55
330.181	4.2
330.553	4.07
330.926	3.77
331.298	3.55
331.671	4.07
332.043	4.51
332.415	4.57
332.787	3.92
333.159	3.77
333.532	3.81
333.904	4.4
334.276	3.97
334.648	3.72
335.02	3.95
335.391	4.07
335.763	3.8
336.135	4.16
336.507	3.14
336.879	3.78
337.25	4.34
337.622	4.39
337.993	4.44
338.365	3.79
338.736	4.11
339.108	4.48
339.479	3.68
339.851	4.1
340.222	4.41
340.593	4.32
340.964	3.81
341.336	4.05
341.707	4.08
342.078	4.01
342.449	4
342.82	4.38
343.191	3.92
343.562	4.05
343.933	3.85
344.303	4.15
344.674	4.47
345.045	3.91
345.416	4.38
345.786	4.28
346.157	4.21
346.527	4.05
346.898	4.1
347.268	4.47
347.639	4.06
348.009	4.17
348.38	3.97
348.75	4.28
349.12	3.95
349.49	4.38
349.861	4.02
350.231	3.7
350.601	4.35
350.971	4.03
351.341	4.45
351.711	4.36
352.081	3.72
352.45	3.89
352.82	3.53
353.19	4.32
353.56	4.11
353.929	4.15
354.299	4.64
354.669	4.45
355.038	4.39
355.408	4.1
355.777	4.59
356.147	4.37
356.516	4.12
356.885	4.16
357.254	4.07
357.624	3.76
357.993	4.38
358.362	4.29
358.731	4.57
359.1	4.27
359.469	4.47
359.838	4.31
360.207	4.22
360.576	4.59
360.945	4.39
361.314	4.25
361.682	4
362.051	4.04
362.42	4.33
362.788	4.14
363.157	4.09
363.525	4.37
363.894	4.26
364.262	4.35
364.631	4.66
364.999	4.54
365.367	4.1
365.735	3.97
366.104	4.38
366.472	4.46
366.84	4.35
367.208	4.67
367.576	4.26
367.944	4.28
368.312	4.43
368.68	4.6
369.048	4.44
369.416	4.04
369.783	4.25
370.151	5.07
370.519	4.89
370.886	4.47
371.254	4.61
371.621	4.84
371.989	4.68
372.356	4.35
372.724	4.24
373.091	4.04
373.458	4.17
373.826	4.16
374.193	4.27
374.56	4.53
374.927	4.34
375.294	4.48
375.661	4.52
376.028	4.58
376.395	4.63
376.762	4.44
377.129	4.33
377.496	4.61
377.863	4.54
378.229	4.84
378.596	4.74
378.963	4.71
379.329	4.56
379.696	4.3
380.062	4.34
380.429	4.37
380.795	4.71
381.161	4.15
381.528	4.45
381.894	4.41
382.26	4.45
382.626	4.71
382.993	4.83
383.359	4.55
383.725	4.14
384.091	4.88
384.457	4.29
384.823	4.61
385.188	4.63
385.554	4.64
385.92	4.5
386.286	4.79
386.651	4.44
387.017	4.81
387.383	4.59
387.748	4.88
388.114	4.69
388.479	4.39
388.845	4.39
389.21	4.97
389.575	4.93
389.94	4.65
390.306	4.7
390.671	4.87
391.036	4.55
391.401	4.81
391.766	4.83
392.131	4.81
392.496	4.61
392.861	4.55
393.226	4.64
393.591	4.54
393.956	4.94
394.32	4.65
394.685	4.78
395.05	4.67
395.414	4.75
395.779	4.9
396.143	4.52
396.508	4.58
396.872	4.61
397.236	4.89
397.601	4.77
397.965	4.72
398.329	4.79
398.694	4.58
399.058	4.95
399.422	4.66
399.786	4.88
400.15	4.66
400.514	4.9
400.878	4.78
401.242	4.93
401.605	4.91
401.969	4.56
402.333	4.71
402.697	5.03
403.06	4.4
403.424	4.86
403.787	4.86
404.151	4.98
404.514	4.93
404.878	4.84
405.241	4.82
405.604	4.66
405.968	4.73
406.331	4.86
406.694	4.68
407.057	4.64
407.42	4.91
407.783	4.97
408.146	4.98
408.509	4.95
408.872	5.06
409.235	5.12
409.598	4.84
409.961	5.19
410.323	4.92
410.686	5.14
411.049	4.88
411.411	4.89
411.774	4.9
412.136	4.83
412.499	5.1
412.861	4.67
413.223	4.73
413.586	5.13
413.948	5.01
414.31	4.98
414.672	5.04
415.035	5.23
415.397	4.95
415.759	4.9
416.121	5.15
416.483	4.98
416.845	5.17
417.206	4.97
417.568	5.08
417.93	4.8
418.292	4.8
418.653	4.76
419.015	4.94
419.377	4.85
419.738	4.85
420.1	4.91
420.461	4.74
420.822	4.93
421.184	4.83
421.545	4.97
421.906	4.98
422.267	4.88
422.629	4.81
422.99	4.82
423.351	4.93
423.712	4.93
424.073	4.97
424.434	5.06
424.795	4.84
425.155	4.84
425.516	4.9
425.877	4.93
426.238	4.94
426.598	4.86
426.959	5.08
427.32	5
427.68	5.05
428.041	5.04
428.401	4.96
428.761	5.24
429.122	5.06
429.482	5.1
429.842	5.02
430.202	5.16
430.563	5.1
430.923	5.05
431.283	5.16
431.643	5.27
432.003	5.23
432.363	5.31
432.722	5.02
433.082	5.22
433.442	5.28
433.802	5.06
434.161	5.18
434.521	5.11
434.881	5.15
435.24	5.18
435.6	5.26
435.959	5.29
436.319	5.26
436.678	5.25
437.037	5.2
437.396	5.25
437.756	5.06
438.115	5.25
438.474	5.22
438.833	5.31
439.192	5.23
439.551	5.18
439.91	5.2
440.269	5.26
440.628	5.17
440.987	5.2
441.345	5.26
441.704	5.13
442.063	5.11
442.421	5.2
442.78	5.23
443.138	5.14
443.497	5.15
443.855	5.34
444.214	5.07
444.572	5.41
444.93	5.22
445.288	5.23
445.647	5.24
446.005	5.32
446.363	5.29
446.721	5.33
447.079	5.21
447.437	5.26
447.795	5.19
448.153	5.2
448.51	5.22
448.868	5.17
449.226	5.29
449.584	5.18
449.941	5.28
450.299	5.24
450.656	5.38
451.014	5.33
451.371	5.55
451.729	5.48
452.086	5.36
452.443	5.53
452.801	5.33
453.158	5.5
453.515	5.38
453.872	5.33
454.229	5.15
454.586	5.09
454.943	5.47
455.3	5.55
455.657	5.4
456.014	5.42
456.371	5.51
456.727	5.47
457.084	5.64
457.441	5.54
457.797	5.43
458.154	5.52
458.51	5.34
458.867	5.59
459.223	5.47
459.58	5.46
459.936	5.39
460.292	5.42
460.648	5.36
461.005	5.36
461.361	5.37
461.717	5.41
462.073	5.48
462.429	5.51
462.785	5.58
463.141	5.59
463.496	5.48
463.852	5.51
464.208	5.62
464.564	5.67
464.919	5.45
465.275	5.61
465.631	5.69
465.986	5.71
466.342	5.4
466.697	5.56
467.052	5.77
467.408	5.65
467.763	5.78
468.118	5.48
468.473	5.64
468.829	5.57
469.184	5.76
469.539	5.53
469.894	5.67
470.249	5.83
470.603	5.86
470.958	5.81
471.313	5.76
471.668	5.72
472.023	5.83
472.377	5.65
472.732	5.9
473.086	5.66
473.441	5.65
473.795	5.89
474.15	5.68
474.504	5.71
474.859	5.45
475.213	5.66
475.567	5.64
475.921	5.79
476.275	5.87
476.63	5.87
476.984	5.62
477.338	5.85
477.692	5.85
478.045	5.73
478.399	5.85
478.753	5.74
479.107	5.85
479.461	5.76
479.814	5.74
480.168	5.93
480.521	5.97
480.875	5.9
481.228	5.79
481.582	5.85
481.935	6
482.289	5.91
482.642	6.03
482.995	5.76
483.348	5.79
483.701	5.85
484.055	5.74
484.408	5.72
484.761	5.62
485.114	5.47
485.466	5.42
485.819	5.5
486.172	5.57
486.525	5.67
486.878	5.74
487.23	5.83
487.583	5.8
487.936	5.73
488.288	5.71
488.641	5.67
488.993	5.65
489.345	5.61
489.698	5.63
490.05	5.69
490.402	5.76
490.754	5.84
491.107	5.79
491.459	5.93
491.811	5.98
492.163	5.82
492.515	5.88
492.866	5.75
493.218	5.71
493.57	5.8
493.922	5.84
494.274	5.99
494.625	6.16
494.977	6.01
495.328	6.09
495.68	6.16
496.031	6.11
496.383	6.07
496.734	6.23
497.086	6.18
497.437	6.22
497.788	6.26
498.139	6.07
498.49	6.04
498.842	6.18
499.193	6.14
499.544	6.26
499.894	6.13
500.245	6.25
500.596	6.21
500.947	6.2
501.298	6.27
501.648	6.24
501.999	6.33
502.35	6.25
502.7	6.38
503.051	6.18
503.401	6.32
503.752	6.13
504.102	6.2
504.452	6.32
504.803	6.24
505.153	6.35
505.503	6.26
505.853	6.29
506.203	6.35
506.553	6.45
506.903	6.47
507.253	6.34
507.603	6.41
507.953	6.41
508.303	6.43
508.652	6.29
509.002	6.49
509.352	6.45
509.701	6.31
510.051	6.4
510.4	6.62
510.75	6.29
511.099	6.39
511.449	6.45
511.798	6.38
512.147	6.4
512.496	6.4
512.846	6.52
513.195	6.38
513.544	6.53
513.893	6.48
514.242	6.55
514.591	6.54
514.939	6.77
515.288	6.64
515.637	6.55
515.986	6.59
516.334	6.72
516.683	6.59
517.032	6.7
517.38	6.6
517.729	6.67
518.077	6.59
518.426	6.67
518.774	6.67
519.122	6.65
519.47	6.58
519.819	6.59
520.167	6.52
520.515	6.58
520.863	6.69
521.211	6.59
521.559	6.58
521.907	6.72
522.255	6.83
522.602	6.8
522.95	6.9
523.298	6.81
523.645	6.74
523.993	6.72
524.341	6.89
524.688	6.74
525.036	6.75
525.383	6.85
525.73	6.86
526.078	6.93
526.425	6.73
526.772	6.81
527.119	6.7
527.466	6.89
527.814	6.81
528.161	6.93
528.508	6.95
528.854	6.81
529.201	6.81
529.548	6.72
529.895	6.58
530.242	6.57
530.588	6.63
530.935	6.69
531.282	6.75
531.628	6.88
531.975	6.91
532.321	6.95
532.667	7.09
533.014	7.04
533.36	7.04
533.706	7.05
534.052	7.03
534.399	6.96
534.745	6.87
535.091	6.84
535.437	6.95
535.783	6.98
536.129	7.09
536.474	7.17
536.82	7.25
537.166	7.18
537.512	7.13
537.857	7.18
538.203	7.12
538.549	7.18
538.894	7.17
539.239	7.26
539.585	7.35
539.93	7.45
540.276	7.26
540.621	7.46
540.966	7.4
541.311	7.38
541.656	7.35
542.001	7.3
542.346	7.24
542.691	7.12
543.036	7.1
543.381	7.13
543.726	7.27
544.071	7.29
544.415	7.48
544.76	7.31
545.105	7.43
545.449	7.45
545.794	7.53
546.138	7.61
546.483	7.62
546.827	7.48
547.171	7.6
547.516	7.62
547.86	7.64
548.204	7.74
548.548	7.65
548.892	7.63
549.236	7.69
549.58	7.87
549.924	7.96
550.268	8
550.612	7.96
550.956	8.03
551.3	8.13
551.643	8.06
551.987	8.1
552.33	8.11
552.674	7.95
553.017	8.14
553.361	8.04
553.704	8.11
554.048	7.98
554.391	8.08
554.734	8.07
555.077	8.15
555.42	7.93
555.764	8.14
556.107	8.36
556.45	8.25
556.793	8.15
557.135	8.42
557.478	8.13
557.821	8.39
558.164	8.38
558.507	8.28
558.849	8.51
559.192	8.31
559.534	8.32
559.877	8.33
560.219	8.48
560.562	8.61
560.904	8.76
561.246	8.41
561.589	8.92
561.931	8.55
562.273	8.54
562.615	8.61
562.957	8.5
563.299	8.53
563.641	8.61
563.983	8.61
564.325	8.71
564.667	8.73
565.008	8.69
565.35	8.71
565.692	8.85
566.033	8.62
566.375	8.75
566.716	8.71
567.058	8.84
567.399	8.65
567.741	8.87
568.082	8.82
568.423	8.74
568.764	8.8
569.105	8.74
569.447	8.91
569.788	9
570.129	8.97
570.47	8.9
570.811	8.97
571.151	8.95
571.492	8.98
571.833	9.04
572.174	9.17
572.514	9.15
572.855	9.16
573.195	9.05
573.536	9.07
573.876	9.13
574.217	9.11
574.557	9.22
574.898	9.16
575.238	9.35
575.578	9.26
575.918	9.42
576.258	9.52
576.598	9.3
576.938	9.24
577.278	9.42
577.618	9.52
577.958	9.48
578.298	9.44
578.638	9.57
578.977	9.59
579.317	9.49
579.657	9.62
579.996	9.87
580.336	9.74
580.675	9.6
581.014	9.77
581.354	9.61
581.693	9.78
582.032	9.9
582.372	9.95
582.711	9.81
583.05	9.84
583.389	9.96
583.728	9.94
584.067	9.74
584.406	10.09
584.745	10.02
585.083	9.89
585.422	10.15
585.761	10.26
586.1	10.15
586.438	9.95
586.777	10.35
587.115	10.18
587.454	10.12
587.792	10.36
588.13	10.28
588.469	10.22
588.807	10.25
589.145	10.18
589.483	10.11
589.821	10.28
590.159	10.41
590.497	10.38
590.835	10.49
591.173	10.36
591.511	10.65
591.849	10.51
592.187	10.2
592.524	10.46
592.862	10.52
593.2	10.46
593.537	10.49
593.875	10.83
594.212	10.48
594.55	10.79
594.887	10.63
595.224	10.83
595.561	10.74
595.899	10.76
596.236	10.83
596.573	10.76
596.91	10.71
597.247	10.86
597.584	10.83
597.921	10.88
598.258	10.84
598.594	10.65
598.931	10.57
599.268	10.75
599.604	10.96
599.941	11.12
600.277	11.03
600.614	11.02
600.95	11.24
601.287	10.77
601.623	10.77
601.959	11.64
602.296	11.43
602.632	11.34
602.968	11.24
603.304	11.42
603.64	11.31
603.976	11.07
604.312	11.2
604.648	11.36
604.984	11.32
605.319	11.29
605.655	11.41
605.991	11.25
606.326	11.29
606.662	11.27
606.998	11.48
607.333	11.36
607.668	11.54
608.004	11.73
608.339	11.37
608.674	11.8
609.01	12.07
609.345	11.82
609.68	11.52
610.015	11.71
610.35	11.91
610.685	11.49
611.02	11.62
611.355	11.63
611.689	11.65
612.024	11.99
612.359	11.74
612.694	12.15
613.028	11.84
613.363	12.1
613.697	11.96
614.032	11.96
614.366	11.93
614.7	12.22
615.035	11.92
615.369	12.33
615.703	12.12
616.037	11.99
616.371	12.16
616.705	12.34
617.039	12.3
617.373	12.5
617.707	12.07
618.041	12.48
618.375	12.03
618.709	12.56
619.042	12.56
619.376	12.09
619.71	12.4
620.043	13.03
620.377	12.56
620.71	12.42
621.043	12.48
621.377	12.89
621.71	12.81
622.043	12.44
622.376	12.8
622.709	13.22
623.043	12.86
623.376	12.47
623.709	13.13
624.041	12.52
624.374	12.76
624.707	12.59
625.04	12.91
625.373	12.99
625.705	13.04
626.038	13.42
626.37	12.82
626.703	13.2
627.035	12.9
627.368	13.12
627.7	13.07
628.032	13.01
628.365	13.41
628.697	13.28
629.029	12.85
629.361	13.21
629.693	13.2
630.025	13.23
630.357	13.39
630.689	13.34
631.021	13.64
631.353	13.51
631.684	13.23
632.016	12.91
632.348	13.16
632.679	13.71
633.011	13.45
633.342	13.55
633.674	13.29
634.005	13.61
634.336	13.81
634.668	13.67
634.999	13.45
635.33	13.86
635.661	13.65
635.992	13.71
636.323	13.98
636.654	13.86
636.985	13.39
637.316	13.79
637.647	14.08
637.977	13.9
638.308	14.57
638.639	13.83
638.969	13.9
639.3	13.74
639.63	13.84
639.961	13.97
640.291	13.92
640.622	14.12
640.952	14.25
641.282	13.78
641.612	13.82
641.943	13.81
642.273	14.3
642.603	14.3
642.933	14.67
643.263	14.56
643.592	14.46
643.922	14.32
644.252	13.98
644.582	14.03
644.911	14.46
645.241	14.43
645.571	14.52
645.9	14.76
646.23	15.09
646.559	14.33
646.888	14.91
647.218	14.77
647.547	14.32
647.876	14.79
648.205	14.21
648.534	14.7
648.863	14.27
649.192	14.32
649.521	14.56
649.85	14.86
650.179	14.77
650.508	14.73
650.837	15.01
651.165	15.06
651.494	15.2
651.822	14.86
652.151	14.97
652.479	14.88
652.808	15.11
653.136	14.85
653.465	15.4
653.793	15.23
654.121	14.88
654.449	14.85
654.777	14.74
655.105	15.01
655.433	15.7
655.761	15.27
656.089	14.99
656.417	15.45
656.745	15.52
657.073	15.08
657.4	15.13
657.728	14.93
658.056	15.32
658.383	15.17
658.711	15.92
659.038	15.48
659.365	15.79
659.693	15.26
660.02	14.99
660.347	15.23
660.674	15.34
661.001	15.25
661.329	15.18
661.656	15.24
661.982	15.4
662.309	15.27
662.636	15.9
662.963	15.84
663.29	15.51
663.616	15.47
663.943	15.86
664.27	15.76
664.596	15.77
664.923	15.96
665.249	15.72
665.576	15.27
665.902	15.83
666.228	16.57
666.554	16.17
666.881	15.79
667.207	16.09
667.533	16.34
667.859	16
668.185	16.27
668.511	16.68
668.837	15.95
669.162	16.54
669.488	15.26
669.814	16.46
670.139	15.74
670.465	15.99
670.791	15.93
671.116	16.73
671.442	16.1
671.767	16.89
672.092	16.14
672.418	16.64
672.743	16.23
673.068	16.41
673.393	16.22
673.718	15.65
674.043	16.52
674.368	16.19
674.693	16.66
675.018	16.4
675.343	16.83
675.667	16.4
675.992	16.59
676.317	15.45
676.641	16.87
676.966	17.11
677.29	16.46
677.615	16.4
677.939	17.23
678.264	16.22
678.588	16.75
678.912	16.84
679.236	17.02
679.56	16.6
679.885	16.5
680.209	16.52
680.532	17.82
680.856	17.13
681.18	17.24
681.504	17.08
681.828	16.88
682.152	17.05
682.475	17.03
682.799	16.62
683.122	17.43
683.446	16.87
683.769	16.9
684.093	17.11
684.416	17.2
684.739	17.15
685.062	16.98
