Data from 22-1_forehead_Reflection__0__221.txt Node

Date: Thu Dec 15 18:12:31 CST 2022
User: ToomeyLab
Spectrometer: FLMS14357
Trigger mode: 0
Integration Time (sec): 1.000000E-2
Scans to average: 100
Electric dark correction enabled: true
Nonlinearity correction enabled: false
Boxcar width: 0
XAxis mode: Wavelengths
Number of Pixels in Spectrum: 2048
>>>>>Begin Spectral Data<<<<<
189.047	-50.27
189.435	-50.27
189.823	-50.27
190.211	-160.11
190.599	37.7
190.987	29.38
191.375	23.05
191.763	126.35
192.151	185.37
192.538	37.09
192.926	434.96
193.314	694.09
193.702	235.89
194.089	21.86
194.477	-18.83
194.864	40.37
195.252	171.71
195.639	49.38
196.027	157.03
196.414	-5.12
196.801	238.2
197.189	232.23
197.576	-196
197.963	397.55
198.351	1.49
198.738	21.94
199.125	34.31
199.512	27.54
199.899	31.3
200.286	27.18
200.673	27.25
201.06	48.45
201.447	4.53
201.833	23.86
202.22	24.89
202.607	62.8
202.994	22.92
203.38	15.05
203.767	5.85
204.154	69.72
204.54	13.14
204.927	21.9
205.313	55.42
205.699	46.48
206.086	34.17
206.472	44.76
206.858	5.68
207.245	6.39
207.631	-15.41
208.017	50.88
208.403	-44.98
208.789	3.68
209.175	34.23
209.561	-177.26
209.947	6.37
210.333	8.23
210.719	3.08
211.105	19.95
211.491	21.38
211.876	-18.85
212.262	14.3
212.648	-21.16
213.034	-18.96
213.419	6.98
213.805	3.99
214.19	-17.52
214.576	-27.41
214.961	16.31
215.346	-13.73
215.732	19.48
216.117	20.47
216.502	-9.29
216.888	8.58
217.273	11.91
217.658	11.46
218.043	7.01
218.428	7.93
218.813	22.32
219.198	-17.56
219.583	-7.41
219.968	3.02
220.353	20.24
220.738	-8.31
221.122	-9.02
221.507	-3.2
221.892	-16.87
222.276	-20.19
222.661	-7.46
223.046	5.66
223.43	3.81
223.815	4.42
224.199	5.43
224.583	-2.29
224.968	-5.9
225.352	-11.46
225.736	16.06
226.121	-3.63
226.505	1.7
226.889	-2.45
227.273	4.36
227.657	4.68
228.041	0.47
228.425	2.26
228.809	1.59
229.193	2.03
229.577	1.22
229.961	2.36
230.344	2.45
230.728	3.18
231.112	3.49
231.495	0.46
231.879	1.84
232.263	0.78
232.646	2
233.03	3.26
233.413	2.34
233.797	2.69
234.18	0.9
234.563	1.54
234.946	0.49
235.33	2.14
235.713	3.04
236.096	3.34
236.479	3.18
236.862	1.4
237.245	2.07
237.628	3.15
238.011	2.37
238.394	1.38
238.777	1.94
239.16	3.58
239.543	4.16
239.925	1.91
240.308	2.63
240.691	2.83
241.073	1.26
241.456	2.04
241.838	2.95
242.221	2.83
242.603	2.44
242.986	2.35
243.368	1.93
243.75	2.44
244.133	2.99
244.515	2.33
244.897	1.38
245.279	2.18
245.661	3.09
246.043	3.23
246.425	2.87
246.807	2.4
247.189	2.29
247.571	2.1
247.953	2.33
248.335	2.35
248.717	2.26
249.098	2.49
249.48	2.17
249.862	2.48
250.243	2.28
250.625	2.75
251.006	3.1
251.388	1.58
251.769	1.82
252.151	3.35
252.532	2.56
252.913	2.32
253.295	1.73
253.676	2.67
254.057	2.58
254.438	2.36
254.819	4
255.2	3.13
255.581	3.41
255.962	3.79
256.343	4.36
256.724	2.38
257.105	2.93
257.486	1.65
257.867	3.37
258.247	2.53
258.628	2.82
259.009	1.59
259.389	1.85
259.77	2.07
260.15	3.12
260.531	2.67
260.911	2.43
261.292	2.47
261.672	2.36
262.052	2.5
262.432	2.52
262.813	2.67
263.193	2.75
263.573	2.08
263.953	1.99
264.333	2.8
264.713	3.22
265.093	3.02
265.473	2.46
265.853	2.91
266.233	2.57
266.612	2.96
266.992	2.52
267.372	2.49
267.752	3.25
268.131	2.29
268.511	2.27
268.89	3.28
269.27	2.49
269.649	2.34
270.029	2.31
270.408	2.25
270.787	1.91
271.167	2.8
271.546	2.94
271.925	2.32
272.304	2.5
272.683	2.01
273.062	2.22
273.441	2.16
273.82	2.45
274.199	2.69
274.578	2.8
274.957	2.47
275.336	2.86
275.715	2.96
276.093	1.98
276.472	2.2
276.851	2.47
277.229	3.14
277.608	2.39
277.986	2.97
278.365	3.21
278.743	2.66
279.122	2.53
279.5	2.51
279.878	2.5
280.257	2.14
280.635	3.6
281.013	2.29
281.391	2.02
281.769	2.93
282.147	2.53
282.525	2.24
282.903	2.39
283.281	2.21
283.659	2.48
284.037	2.47
284.415	2.34
284.792	2.47
285.17	2.29
285.548	2.18
285.925	2.62
286.303	2.74
286.68	2.29
287.058	2.89
287.435	2.6
287.813	2.56
288.19	2.25
288.567	2.4
288.945	2.61
289.322	2.96
289.699	2.61
290.076	2.41
290.453	2.4
290.83	2.86
291.207	2.89
291.584	3.16
291.961	3.17
292.338	2.57
292.715	2.53
293.092	2.7
293.469	2.76
293.845	3.19
294.222	3.44
294.599	2.9
294.975	2.29
295.352	3.68
295.728	2.95
296.105	2.88
296.481	3.64
296.858	3.49
297.234	2.96
297.61	3.3
297.986	3.95
298.363	3.71
298.739	3.39
299.115	3.5
299.491	3.68
299.867	3.5
300.243	3.73
300.619	3.28
300.995	3.63
301.371	3.64
301.746	3.93
302.122	3.87
302.498	4.2
302.874	4.33
303.249	3.88
303.625	3.86
304	4.14
304.376	4.44
304.751	4.41
305.127	4.01
305.502	4.41
305.878	4.67
306.253	4.55
306.628	4.37
307.003	4.33
307.378	4.84
307.754	4.66
308.129	4.85
308.504	4.89
308.879	4.43
309.254	4.72
309.629	4.93
310.003	5.25
310.378	5.66
310.753	5.1
311.128	4.5
311.502	5.3
311.877	5.75
312.252	5.69
312.626	6.04
313.001	5.6
313.375	5.52
313.75	5.85
314.124	5.94
314.498	6.1
314.873	5.67
315.247	5.94
315.621	6.02
315.995	5.83
316.369	5.88
316.743	6
317.117	6.2
317.491	6.63
317.865	5.94
318.239	7.35
318.613	5.97
318.987	6.11
319.361	6.13
319.734	6.08
320.108	6.66
320.482	6.95
320.855	6.2
321.229	6.85
321.602	6.8
321.976	6.41
322.349	8.16
322.723	7.1
323.096	7.42
323.469	7.1
323.843	7.06
324.216	6.92
324.589	7.5
324.962	7.08
325.335	7.39
325.708	7.56
326.081	7.37
326.454	7.76
326.827	7.8
327.2	7.22
327.573	8.06
327.945	7.55
328.318	7.98
328.691	7.8
329.063	8.06
329.436	7.8
329.809	8.32
330.181	8.73
330.553	8.39
330.926	8.25
331.298	8.15
331.671	8.66
332.043	8.21
332.415	8.93
332.787	8.82
333.159	7.81
333.532	8.81
333.904	8.55
334.276	9.21
334.648	8.97
335.02	8.92
335.391	8.66
335.763	8.85
336.135	9.03
336.507	9.55
336.879	9.16
337.25	9.28
337.622	9.53
337.993	9.27
338.365	9.41
338.736	9.13
339.108	9.28
339.479	9.44
339.851	9.12
340.222	9.91
340.593	9.64
340.964	9.46
341.336	9.6
341.707	9.47
342.078	9.28
342.449	9.44
342.82	9.84
343.191	9.81
343.562	10.1
343.933	9.74
344.303	10.31
344.674	10.17
345.045	9.87
345.416	10.36
345.786	10.38
346.157	10.81
346.527	10.46
346.898	10.3
347.268	10.39
347.639	10.21
348.009	11.09
348.38	10.32
348.75	11
349.12	10.71
349.49	10.75
349.861	11.03
350.231	11.36
350.601	10.83
350.971	11.1
351.341	11.12
351.711	11.16
352.081	10.98
352.45	11.29
352.82	10.88
353.19	11.09
353.56	10.83
353.929	11.63
354.299	11.88
354.669	11.52
355.038	11.51
355.408	11.47
355.777	11.83
356.147	11.57
356.516	11.57
356.885	11.98
357.254	11.53
357.624	11.51
357.993	11.91
358.362	11.86
358.731	12.05
359.1	12.1
359.469	12.07
359.838	12.04
360.207	12.01
360.576	12.14
360.945	12.46
361.314	12.16
361.682	12.14
362.051	12.23
362.42	12.57
362.788	12.72
363.157	12.65
363.525	12.59
363.894	12.4
364.262	12.56
364.631	13.04
364.999	12.99
365.367	12.87
365.735	13.07
366.104	13.06
366.472	13.04
366.84	13.43
367.208	13.56
367.576	13.32
367.944	13.37
368.312	13.34
368.68	13.45
369.048	13.3
369.416	13.36
369.783	13.56
370.151	14.16
370.519	14.12
370.886	13.84
371.254	13.99
371.621	13.63
371.989	14.32
372.356	13.64
372.724	14.03
373.091	13.94
373.458	13.98
373.826	14.19
374.193	14.32
374.56	14.48
374.927	14.37
375.294	14.89
375.661	14.24
376.028	14.53
376.395	14.6
376.762	14.36
377.129	14.87
377.496	14.7
377.863	14.81
378.229	15.18
378.596	14.95
378.963	14.87
379.329	14.98
379.696	15
380.062	15.14
380.429	14.71
380.795	15.29
381.161	14.55
381.528	15.1
381.894	15.38
382.26	15.68
382.626	15.56
382.993	15.68
383.359	15.65
383.725	15.62
384.091	15.75
384.457	15.49
384.823	15.93
385.188	16.24
385.554	15.65
385.92	16.08
386.286	15.94
386.651	16.06
387.017	16.24
387.383	16.02
387.748	16.43
388.114	16.38
388.479	16.35
388.845	16.07
389.21	16.29
389.575	16.51
389.94	16.84
390.306	16.71
390.671	16.72
391.036	16.63
391.401	16.66
391.766	16.79
392.131	16.94
392.496	16.9
392.861	16.74
393.226	16.67
393.591	17.05
393.956	16.93
394.32	16.97
394.685	17.04
395.05	17.27
395.414	17.27
395.779	17.3
396.143	17.04
396.508	17.31
396.872	17.23
397.236	17.64
397.601	17.55
397.965	17.7
398.329	17.82
398.694	17.35
399.058	17.88
399.422	17.76
399.786	17.8
400.15	17.99
400.514	18.15
400.878	18.09
401.242	18.05
401.605	18.16
401.969	18.21
402.333	18.04
402.697	18.48
403.06	18.23
403.424	18.41
403.787	18.49
404.151	18.42
404.514	18.73
404.878	18.42
405.241	18.63
405.604	18.5
405.968	18.72
406.331	18.79
406.694	18.7
407.057	18.7
407.42	18.79
407.783	18.86
408.146	18.93
408.509	18.96
408.872	19.1
409.235	19.35
409.598	19.39
409.961	19.48
410.323	19.25
410.686	19.07
411.049	19.23
411.411	19.26
411.774	19.29
412.136	19.48
412.499	19.7
412.861	19.22
413.223	19.59
413.586	19.66
413.948	19.69
414.31	19.88
414.672	19.83
415.035	20.03
415.397	19.85
415.759	19.81
416.121	19.84
416.483	19.7
416.845	20.05
417.206	20.04
417.568	20.15
417.93	20.38
418.292	20.09
418.653	20.28
419.015	20.34
419.377	20.26
419.738	20.28
420.1	20.23
420.461	20.25
420.822	20.45
421.184	20.36
421.545	20.31
421.906	20.38
422.267	20.42
422.629	20.36
422.99	20.49
423.351	20.43
423.712	20.57
424.073	20.73
424.434	20.9
424.795	20.8
425.155	20.86
425.516	20.75
425.877	20.81
426.238	20.95
426.598	20.98
426.959	21.08
427.32	21.12
427.68	21.27
428.041	21.43
428.401	21.5
428.761	21.69
429.122	21.68
429.482	21.84
429.842	21.83
430.202	22.18
430.563	22
430.923	22.1
431.283	22.02
431.643	22.32
432.003	22.17
432.363	22.17
432.722	22.3
433.082	22.21
433.442	22.5
433.802	22.42
434.161	22.51
434.521	22.45
434.881	22.45
435.24	22.48
435.6	22.59
435.959	22.74
436.319	22.58
436.678	22.8
437.037	22.82
437.396	22.85
437.756	22.73
438.115	23.04
438.474	23.14
438.833	23.2
439.192	23.02
439.551	23.24
439.91	23.25
440.269	23.31
440.628	23.23
440.987	23.33
441.345	23.12
441.704	23.12
442.063	23.41
442.421	23.43
442.78	23.41
443.138	23.37
443.497	23.53
443.855	23.72
444.214	23.58
444.572	23.94
444.93	23.92
445.288	24.1
445.647	23.75
446.005	24.07
446.363	24.09
446.721	23.97
447.079	23.98
447.437	24
447.795	24.03
448.153	23.98
448.51	24.04
448.868	24.12
449.226	24.12
449.584	24.32
449.941	24.46
450.299	24.59
450.656	24.57
451.014	24.91
451.371	25
451.729	24.87
452.086	24.99
452.443	25.21
452.801	25.08
453.158	25.48
453.515	25.12
453.872	25.28
454.229	25.29
454.586	25.24
454.943	25.41
455.3	25.55
455.657	25.63
456.014	25.61
456.371	25.53
456.727	25.76
457.084	25.88
457.441	25.75
457.797	25.87
458.154	26.01
458.51	26.04
458.867	25.93
459.223	26.03
459.58	26.18
459.936	26.19
460.292	26.07
460.648	26.02
461.005	25.81
461.361	25.9
461.717	25.78
462.073	26.15
462.429	26.33
462.785	26.42
463.141	26.54
463.496	26.74
463.852	26.7
464.208	26.74
464.564	26.89
464.919	27.01
465.275	27.12
465.631	27.2
465.986	26.99
466.342	26.96
466.697	26.96
467.052	27.4
467.408	27.42
467.763	27.33
468.118	27.31
468.473	27.5
468.829	27.51
469.184	27.77
469.539	27.47
469.894	27.71
470.249	27.58
470.603	27.95
470.958	27.96
471.313	28.05
471.668	28.11
472.023	27.97
472.377	27.97
472.732	28.23
473.086	28.11
473.441	28.22
473.795	28.33
474.15	28.33
474.504	28.34
474.859	28.2
475.213	28.71
475.567	28.43
475.921	28.67
476.275	28.76
476.63	28.63
476.984	28.9
477.338	28.82
477.692	28.76
478.045	28.72
478.399	28.86
478.753	28.74
479.107	28.95
479.461	28.77
479.814	28.88
480.168	29.12
480.521	29.09
480.875	29.05
481.228	29.06
481.582	29.21
481.935	29.38
482.289	29.17
482.642	29.43
482.995	29.15
483.348	29.29
483.701	29.11
484.055	29.18
484.408	28.92
484.761	28.58
485.114	28.31
485.466	28.35
485.819	28.5
486.172	28.63
486.525	28.88
486.878	29.06
487.23	29.32
487.583	29.25
487.936	29.33
488.288	29.16
488.641	29.09
488.993	29.11
489.345	29.05
489.698	29.13
490.05	29.32
490.402	29.52
490.754	29.64
491.107	29.79
491.459	29.96
491.811	30.24
492.163	30.12
492.515	29.95
492.866	29.78
493.218	29.61
493.57	29.88
493.922	30.01
494.274	30.4
494.625	30.61
494.977	30.77
495.328	30.96
495.68	31.11
496.031	31.2
496.383	31.13
496.734	31.26
497.086	31.49
497.437	31.57
497.788	31.52
498.139	31.23
498.49	31.42
498.842	31.29
499.193	31.49
499.544	31.56
499.894	31.63
500.245	31.79
500.596	31.85
500.947	31.82
501.298	32.08
501.648	31.92
501.999	32.19
502.35	32.2
502.7	32.48
503.051	32.22
503.401	32.55
503.752	32.34
504.102	32.27
504.452	32.5
504.803	32.49
505.153	32.6
505.503	32.58
505.853	32.68
506.203	32.76
506.553	32.65
506.903	32.92
507.253	32.89
507.603	33.16
507.953	32.81
508.303	33.21
508.652	32.98
509.002	33.14
509.352	32.96
509.701	33.03
510.051	33.06
510.4	33.25
510.75	33.12
511.099	33.14
511.449	33.29
511.798	33.13
512.147	33.27
512.496	33.51
512.846	33.51
513.195	33.47
513.544	33.53
513.893	33.64
514.242	33.82
514.591	33.92
514.939	34.06
515.288	33.93
515.637	34.04
515.986	34.03
516.334	34.17
516.683	34.19
517.032	34.14
517.38	34.38
517.729	34.37
518.077	34.47
518.426	34.57
518.774	34.4
519.122	34.35
519.47	34.04
519.819	34.14
520.167	34.07
520.515	34.06
520.863	34.28
521.211	34.37
521.559	34.56
521.907	34.63
522.255	34.91
522.602	35.02
522.95	35.14
523.298	35.27
523.645	35.27
523.993	35.17
524.341	35.27
524.688	35.23
525.036	35.38
525.383	35.33
525.73	35.23
526.078	35.52
526.425	35.42
526.772	35.02
527.119	35.07
527.466	35.12
527.814	35.13
528.161	35.25
528.508	35.36
528.854	35.25
529.201	35.14
529.548	34.97
529.895	34.67
530.242	34.9
530.588	34.93
530.935	35.11
531.282	35.17
531.628	35.48
531.975	35.5
532.321	35.76
532.667	35.89
533.014	35.97
533.36	36.1
533.706	35.84
534.052	36.02
534.399	35.96
534.745	35.71
535.091	35.71
535.437	36
535.783	36.02
536.129	36.28
536.474	36.57
536.82	36.61
537.166	36.51
537.512	36.75
537.857	36.63
538.203	36.44
538.549	36.45
538.894	36.78
539.239	36.91
539.585	37.24
539.93	37.4
540.276	37.37
540.621	37.63
540.966	37.35
541.311	37.35
541.656	37.54
542.001	37.18
542.346	36.82
542.691	36.82
543.036	36.85
543.381	36.87
543.726	37.03
544.071	37.3
544.415	37.4
544.76	37.53
545.105	37.53
545.449	37.75
545.794	37.91
546.138	38.02
546.483	38.32
546.827	38.2
547.171	38.19
547.516	38.15
547.86	38.5
548.204	38.39
548.548	38.29
548.892	38.45
549.236	38.44
549.58	38.85
549.924	39.01
550.268	39.05
550.612	39.28
550.956	39.24
551.3	39.53
551.643	39.32
551.987	39.47
552.33	39.55
552.674	39.62
553.017	39.6
553.361	39.75
553.704	39.64
554.048	39.58
554.391	39.6
554.734	39.61
555.077	39.62
555.42	39.91
555.764	40.17
556.107	39.92
556.45	40.19
556.793	40.18
557.135	40.33
557.478	40.33
557.821	40.23
558.164	40.56
558.507	40.59
558.849	40.53
559.192	40.91
559.534	40.57
559.877	40.44
560.219	40.55
560.562	40.77
560.904	40.87
561.246	40.72
561.589	40.83
561.931	40.87
562.273	41.09
562.615	41.01
562.957	40.97
563.299	41.28
563.641	41.06
563.983	41.16
564.325	41.38
564.667	41.09
565.008	41.57
565.35	41.29
565.692	41.35
566.033	41.5
566.375	41.27
566.716	41.39
567.058	41.41
567.399	41.52
567.741	41.59
568.082	41.48
568.423	41.59
568.764	41.93
569.105	41.74
569.447	41.68
569.788	41.66
570.129	42.31
570.47	41.94
570.811	41.93
571.151	42.14
571.492	42.07
571.833	42.35
572.174	42.5
572.514	42.4
572.855	42.49
573.195	42.49
573.536	42.54
573.876	42.47
574.217	42.23
574.557	42.57
574.898	42.46
575.238	42.84
575.578	42.69
575.918	42.8
576.258	43.04
576.598	42.82
576.938	42.76
577.278	43.05
577.618	43.06
577.958	42.81
578.298	43.25
578.638	42.97
578.977	43.55
579.317	43.22
579.657	43.49
579.996	43.58
580.336	43.73
580.675	43.6
581.014	43.79
581.354	44.1
581.693	44.02
582.032	43.81
582.372	43.84
582.711	44.13
583.05	43.95
583.389	44.21
583.728	44.39
584.067	44.04
584.406	44.53
584.745	44.29
585.083	44.36
585.422	44.29
585.761	44.5
586.1	44.56
586.438	44.5
586.777	44.72
587.115	44.72
587.454	44.45
587.792	44.82
588.13	45.18
588.469	44.92
588.807	44.79
589.145	44.97
589.483	44.91
589.821	44.94
590.159	45.02
590.497	45.34
590.835	45.23
591.173	45.36
591.511	44.97
591.849	45.14
592.187	45.32
592.524	45.42
592.862	45.36
593.2	45.41
593.537	45.31
593.875	45.24
594.212	45.73
594.55	45.48
594.887	45.69
595.224	45.82
595.561	45.6
595.899	45.73
596.236	45.69
596.573	45.7
596.91	45.81
597.247	45.87
597.584	46.18
597.921	45.96
598.258	45.79
598.594	45.82
598.931	45.59
599.268	45.62
599.604	46.02
599.941	45.96
600.277	46.38
600.614	46.23
600.95	46.25
601.287	46.58
601.623	46.3
601.959	46.82
602.296	46.8
602.632	46.68
602.968	47.02
603.304	46.95
603.64	46.54
603.976	46.78
604.312	46.77
604.648	46.97
604.984	46.84
605.319	46.74
605.655	46.51
605.991	46.75
606.326	46.85
606.662	46.74
606.998	46.76
607.333	46.88
607.668	47.07
608.004	47.21
608.339	47.17
608.674	47.55
609.01	47.75
609.345	47.69
609.68	47.41
610.015	47.49
610.35	47.78
610.685	47.37
611.02	47.45
611.355	47.27
611.689	47.58
612.024	47.82
612.359	47.74
612.694	47.79
613.028	47.79
613.363	48.65
613.697	48.17
614.032	48.14
614.366	48.28
614.7	48.24
615.035	48.1
615.369	48.69
615.703	48.29
616.037	48.75
616.371	48.59
616.705	48.42
617.039	48.98
617.373	48.77
617.707	48.19
618.041	48.68
618.375	48.37
618.709	48.86
619.042	48.78
619.376	48.66
619.71	49.06
620.043	49.05
620.377	48.86
620.71	48.93
621.043	48.89
621.377	49.14
621.71	49.08
622.043	49.46
622.376	49.66
622.709	49.78
623.043	49.79
623.376	49.63
623.709	49.54
624.041	49.54
624.374	49.97
624.707	49.49
625.04	49.33
625.373	49.58
625.705	49.91
626.038	49.76
626.37	49.32
626.703	49.67
627.035	49.81
627.368	49.84
627.7	49.72
628.032	49.89
628.365	50.27
628.697	50.1
629.029	49.7
629.361	50.02
629.693	50.32
630.025	50.06
630.357	50.43
630.689	50.12
631.021	50.37
631.353	50.66
631.684	50.29
632.016	50.45
632.348	50.4
632.679	50.75
633.011	50.13
633.342	51.08
633.674	50.54
634.005	50.8
634.336	51.09
634.668	50.7
634.999	50.97
635.33	50.64
635.661	50.37
635.992	51.01
636.323	50.93
636.654	51.33
636.985	50.58
637.316	51.43
637.647	51.23
637.977	51.31
638.308	51.26
638.639	50.77
638.969	50.74
639.3	50.93
639.63	51.58
639.961	51.29
640.291	51.17
640.622	51.49
640.952	51.73
641.282	51.43
641.612	51.58
641.943	51.7
642.273	51.68
642.603	52.3
642.933	51.25
643.263	52.1
643.592	52.05
643.922	52.42
644.252	52
644.582	52.28
644.911	51.88
645.241	52.07
645.571	52.61
645.9	52.18
646.23	52.01
646.559	51.47
646.888	52.37
647.218	52.53
647.547	52.83
647.876	52.34
648.205	52.07
648.534	52.08
648.863	52.76
649.192	52.95
649.521	51.87
649.85	52.7
650.179	52.06
650.508	52.61
650.837	53.04
651.165	52.57
651.494	53.35
651.822	52.39
652.151	52.85
652.479	52.05
652.808	53.59
653.136	53.07
653.465	52.98
653.793	52.5
654.121	52.87
654.449	52.73
654.777	52.41
655.105	52.99
655.433	53.34
655.761	52.96
656.089	53.32
656.417	52.82
656.745	53.71
657.073	53.45
657.4	53.07
657.728	53.23
658.056	53.65
658.383	53.64
658.711	53.48
659.038	53.19
659.365	53.28
659.693	53.29
660.02	54.06
660.347	53.92
660.674	53.7
661.001	53.13
661.329	53.61
661.656	53.14
661.982	53.62
662.309	53.75
662.636	53.81
662.963	53.74
663.29	53.49
663.616	54.24
663.943	54.7
664.27	54.66
664.596	53.89
664.923	54.17
665.249	54.53
665.576	54.53
665.902	54.01
666.228	54.44
666.554	54.46
666.881	53.4
667.207	53.95
667.533	54.08
667.859	54.43
668.185	54.39
668.511	55.08
668.837	54.47
669.162	55.1
669.488	54.82
669.814	54.46
670.139	54.15
670.465	54.64
670.791	53.99
