Data from 0044_chest_Reflection__3__123.txt Node

Date: Fri Nov 04 15:51:15 CDT 2022
User: ToomeyLab
Spectrometer: FLMS14357
Trigger mode: 0
Integration Time (sec): 1.000000E-2
Scans to average: 100
Electric dark correction enabled: true
Nonlinearity correction enabled: false
Boxcar width: 0
XAxis mode: Wavelengths
Number of Pixels in Spectrum: 2048
>>>>>Begin Spectral Data<<<<<
189.047	846.26
189.435	846.26
189.823	846.26
190.211	138.91
190.599	865.12
190.987	-25.58
191.375	-50.13
191.763	467.21
192.151	-126.41
192.538	213.92
192.926	19.11
193.314	62.42
193.702	130.99
194.089	25.44
194.477	414.83
194.864	99.55
195.252	79.27
195.639	-180.47
196.027	33.11
196.414	-280.46
196.801	373.19
197.189	113.94
197.576	-606.04
197.963	-97.82
198.351	-65.35
198.738	-33.71
199.125	31.99
199.512	4.03
199.899	-1.1
200.286	-16.94
200.673	-24.86
201.06	-21.12
201.447	-53.51
201.833	11.11
202.22	-39.55
202.607	-9.62
202.994	30.38
203.38	15.4
203.767	19.91
204.154	22.69
204.54	-23.64
204.927	3.12
205.313	19.58
205.699	49.34
206.086	23.12
206.472	0.4
206.858	-34.2
207.245	-1.5
207.631	-16.97
208.017	6.29
208.403	-11.36
208.789	28.12
209.175	-5.53
209.561	-54.72
209.947	-36.96
210.333	-16.41
210.719	18.51
211.105	-82.97
211.491	0.41
211.876	-5.39
212.262	-60.52
212.648	-40.48
213.034	7.65
213.419	-4.52
213.805	-27.42
214.19	-2.62
214.576	-18.38
214.961	21.16
215.346	-5.12
215.732	15.07
216.117	-0.63
216.502	2.27
216.888	-42.75
217.273	25.12
217.658	8.29
218.043	-1.54
218.428	8.1
218.813	-16.76
219.198	-5.49
219.583	-22.02
219.968	7.82
220.353	-38.48
220.738	-27.63
221.122	2.39
221.507	5.6
221.892	-15.25
222.276	-3.55
222.661	0.9
223.046	0.28
223.43	-3.64
223.815	-11.7
224.199	5.78
224.583	-0.66
224.968	-0.4
225.352	2.56
225.736	-4.34
226.121	-12.41
226.505	4.39
226.889	2.84
227.273	5.13
227.657	-4.62
228.041	5.24
228.425	3.06
228.809	-0.09
229.193	0.31
229.577	-0.37
229.961	1.58
230.344	2.74
230.728	1.58
231.112	1.8
231.495	1.32
231.879	1.57
232.263	0.1
232.646	1.07
233.03	0.93
233.413	0.45
233.797	1.03
234.18	1.57
234.563	1.52
234.946	1.64
235.33	2.8
235.713	0.9
236.096	2.21
236.479	0.92
236.862	0.97
237.245	1.2
237.628	2.94
238.011	0.34
238.394	2.41
238.777	2.42
239.16	0.58
239.543	0.08
239.925	-0.21
240.308	1.36
240.691	0.21
241.073	0.72
241.456	1.62
241.838	1.46
242.221	1.87
242.603	0.91
242.986	2.3
243.368	2.3
243.75	2.06
244.133	2.19
244.515	2.17
244.897	2.01
245.279	2.09
245.661	1.67
246.043	1.62
246.425	1.13
246.807	2.28
247.189	2.35
247.571	1.94
247.953	2.08
248.335	2.17
248.717	2.26
249.098	1.98
249.48	2.06
249.862	2.56
250.243	2.15
250.625	1.87
251.006	1.88
251.388	2.04
251.769	1.72
252.151	3.01
252.532	2.71
252.913	1.2
253.295	1.8
253.676	1.74
254.057	1.79
254.438	2.12
254.819	2.06
255.2	1.73
255.581	2.65
255.962	1.23
256.343	1.27
256.724	2.63
257.105	1.42
257.486	1.69
257.867	4.19
258.247	2.27
258.628	1.51
259.009	1.8
259.389	1.84
259.77	2.22
260.15	2.04
260.531	2.54
260.911	1.71
261.292	1.95
261.672	1.84
262.052	2.07
262.432	2.07
262.813	1.82
263.193	1.27
263.573	1.52
263.953	2.05
264.333	2.21
264.713	2.3
265.093	2.05
265.473	2.38
265.853	1.3
266.233	1.72
266.612	2.66
266.992	2.68
267.372	1.21
267.752	2.26
268.131	1.99
268.511	2.22
268.89	2.03
269.27	1.88
269.649	2.17
270.029	1.71
270.408	1.61
270.787	2.6
271.167	1.89
271.546	2.06
271.925	2.11
272.304	1.92
272.683	2.1
273.062	2.31
273.441	1.95
273.82	1.66
274.199	1.82
274.578	1.9
274.957	1.41
275.336	1.67
275.715	1.87
276.093	1.81
276.472	1.68
276.851	1.66
277.229	1.54
277.608	2.13
277.986	2.23
278.365	2.46
278.743	2.03
279.122	1.59
279.5	1.32
279.878	2.5
280.257	1.78
280.635	1.81
281.013	1.75
281.391	2.39
281.769	1.78
282.147	1.38
282.525	1.81
282.903	2.09
283.281	2.35
283.659	1.78
284.037	1.5
284.415	2.24
284.792	2.14
285.17	1.44
285.548	2.45
285.925	2.16
286.303	1.78
286.68	2.58
287.058	1.96
287.435	1.85
287.813	1.87
288.19	1.95
288.567	1.93
288.945	2.04
289.322	2.02
289.699	2.2
290.076	2.13
290.453	1.64
290.83	1.51
291.207	2.13
291.584	2.32
291.961	2.16
292.338	2.34
292.715	1.94
293.092	2.42
293.469	2.22
293.845	2.31
294.222	2.3
294.599	1.82
294.975	1.96
295.352	2.11
295.728	2.48
296.105	2.03
296.481	2.02
296.858	2.11
297.234	2.61
297.61	2.61
297.986	1.94
298.363	2.08
298.739	1.98
299.115	2.32
299.491	2.19
299.867	2.16
300.243	2.3
300.619	2.57
300.995	2.64
301.371	2.76
301.746	2.3
302.122	2.5
302.498	2.45
302.874	2.53
303.249	2.18
303.625	1.9
304	2.3
304.376	2.39
304.751	2.49
305.127	1.66
305.502	2.29
305.878	2.34
306.253	2.61
306.628	2.39
307.003	2.19
307.378	2.48
307.754	2.35
308.129	1.89
308.504	2.24
308.879	2.37
309.254	2.1
309.629	2.22
310.003	2.25
310.378	2.4
310.753	2.77
311.128	2.32
311.502	2.05
311.877	2.56
312.252	2.14
312.626	2.47
313.001	2.54
313.375	2.37
313.75	2.5
314.124	2.18
314.498	2.45
314.873	2.66
315.247	2.98
315.621	3.12
315.995	2.5
316.369	2.64
316.743	3.12
317.117	2.92
317.491	3.05
317.865	2.2
318.239	2.68
318.613	2.94
318.987	2.71
319.361	2.71
319.734	3.09
320.108	2.14
320.482	1.37
320.855	2.89
321.229	2.7
321.602	2.78
321.976	2.49
322.349	3.4
322.723	3.05
323.096	3.16
323.469	2.73
323.843	2.57
324.216	2.71
324.589	2.91
324.962	3.19
325.335	2.52
325.708	2.49
326.081	2.77
326.454	2.39
326.827	2.65
327.2	2.73
327.573	2.68
327.945	2.68
328.318	2.58
328.691	2.86
329.063	2.64
329.436	2.66
329.809	2.6
330.181	2.6
330.553	2.58
330.926	2.58
331.298	2.96
331.671	2.72
332.043	3.27
332.415	2.96
332.787	2.4
333.159	2.36
333.532	2.45
333.904	2.77
334.276	2.52
334.648	3.03
335.02	2.61
335.391	3.09
335.763	2.68
336.135	2.92
336.507	2.93
336.879	2.86
337.25	2.71
337.622	2.9
337.993	2.91
338.365	2.67
338.736	3.31
339.108	3.09
339.479	3.03
339.851	2.79
340.222	2.69
340.593	2.91
340.964	2.9
341.336	2.67
341.707	2.62
342.078	2.86
342.449	3.02
342.82	3.01
343.191	2.69
343.562	3.21
343.933	2.67
344.303	2.86
344.674	3.22
345.045	2.64
345.416	2.66
345.786	3.15
346.157	3.43
346.527	3.14
346.898	2.67
347.268	2.81
347.639	2.93
348.009	3.37
348.38	2.63
348.75	2.75
349.12	2.66
349.49	3.12
349.861	2.45
350.231	3
350.601	3
350.971	3
351.341	2.72
351.711	2.99
352.081	2.8
352.45	2.87
352.82	3.03
353.19	3.1
353.56	3.05
353.929	2.95
354.299	3.22
354.669	2.94
355.038	3.53
355.408	2.72
355.777	2.98
356.147	2.74
356.516	2.76
356.885	2.9
357.254	3.02
357.624	3.12
357.993	2.84
358.362	2.66
358.731	2.97
359.1	3.37
359.469	3.33
359.838	3.21
360.207	3.09
360.576	2.99
360.945	3.56
361.314	3.29
361.682	3.12
362.051	3.21
362.42	3.24
362.788	3.04
363.157	3.06
363.525	3.21
363.894	2.99
364.262	3.46
364.631	3.38
364.999	3.04
365.367	3.1
365.735	3.65
366.104	3.13
366.472	2.94
366.84	2.83
367.208	3.11
367.576	3.34
367.944	3.03
368.312	2.96
368.68	3.24
369.048	2.95
369.416	3.11
369.783	2.79
370.151	2.91
370.519	3.46
370.886	3.1
371.254	3.23
371.621	2.87
371.989	3.1
372.356	3.1
372.724	3.2
373.091	3.22
373.458	3.34
373.826	3.42
374.193	3.19
374.56	2.85
374.927	3.37
375.294	3.03
375.661	3.28
376.028	2.86
376.395	3.08
376.762	3.43
377.129	3.24
377.496	3.2
377.863	3.23
378.229	3.13
378.596	3.12
378.963	3.2
379.329	3.04
379.696	3.43
380.062	3.52
380.429	3.45
380.795	3.27
381.161	3.37
381.528	3.4
381.894	3.16
382.26	3.47
382.626	3.32
382.993	3.45
383.359	3.23
383.725	3.12
384.091	3.51
384.457	3.44
384.823	3.42
385.188	3.57
385.554	3.46
385.92	3.1
386.286	3.14
386.651	3.47
387.017	3.27
387.383	3.56
387.748	2.95
388.114	3.1
388.479	3.98
388.845	3.28
389.21	3.7
389.575	3.73
389.94	3.16
390.306	3.35
390.671	3.68
391.036	3.24
391.401	3.67
391.766	3
392.131	3.26
392.496	3.2
392.861	3.35
393.226	3.28
393.591	3.47
393.956	3.59
394.32	3.36
394.685	3.41
395.05	3.4
395.414	3.45
395.779	3.4
396.143	3.2
396.508	3.59
396.872	3.41
397.236	3.74
397.601	3.49
397.965	3.65
398.329	3.54
398.694	3.69
399.058	3.66
399.422	3.61
399.786	3.47
400.15	3.53
400.514	3.26
400.878	3.44
401.242	3.52
401.605	3.42
401.969	3.55
402.333	3.67
402.697	3.39
403.06	3.55
403.424	3.35
403.787	3.37
404.151	3.47
404.514	3.62
404.878	3.62
405.241	3.74
405.604	3.64
405.968	3.47
406.331	3.46
406.694	3.45
407.057	3.45
407.42	3.39
407.783	3.41
408.146	3.49
408.509	3.39
408.872	3.64
409.235	3.5
409.598	3.46
409.961	3.46
410.323	3.43
410.686	3.55
411.049	3.44
411.411	3.4
411.774	3.45
412.136	3.74
412.499	3.93
412.861	3.51
413.223	3.55
413.586	3.54
413.948	3.71
414.31	3.44
414.672	3.78
415.035	3.82
415.397	3.39
415.759	3.71
416.121	3.36
416.483	3.62
416.845	3.71
417.206	3.52
417.568	3.67
417.93	3.75
418.292	3.52
418.653	3.72
419.015	3.48
419.377	3.46
419.738	3.41
420.1	3.62
420.461	3.5
420.822	3.61
421.184	3.62
421.545	3.49
421.906	3.56
422.267	3.53
422.629	3.66
422.99	3.53
423.351	3.35
423.712	3.56
424.073	3.65
424.434	3.55
424.795	3.65
425.155	3.68
425.516	3.68
425.877	3.48
426.238	3.54
426.598	3.59
426.959	3.57
427.32	3.55
427.68	3.58
428.041	3.58
428.401	3.71
428.761	3.63
429.122	3.57
429.482	3.85
429.842	3.47
430.202	3.8
430.563	3.8
430.923	3.94
431.283	3.66
431.643	3.85
432.003	3.99
432.363	3.9
432.722	3.86
433.082	3.82
433.442	3.61
433.802	3.75
434.161	3.85
434.521	3.77
434.881	3.75
435.24	3.77
435.6	3.84
435.959	3.81
436.319	3.79
436.678	3.87
437.037	3.91
437.396	4.04
437.756	3.88
438.115	3.7
438.474	3.79
438.833	3.81
439.192	3.69
439.551	3.87
439.91	4.04
440.269	3.84
440.628	3.92
440.987	3.77
441.345	3.9
441.704	3.8
442.063	3.84
442.421	3.89
442.78	3.74
443.138	3.76
443.497	3.87
443.855	3.74
444.214	3.89
444.572	3.77
444.93	3.83
445.288	3.94
445.647	3.77
446.005	3.95
446.363	3.82
446.721	3.89
447.079	3.86
447.437	3.78
447.795	3.91
448.153	3.72
448.51	3.85
448.868	3.78
449.226	3.83
449.584	3.84
449.941	3.76
450.299	4.03
450.656	3.98
451.014	4.07
451.371	4.03
451.729	4.03
452.086	4
452.443	3.95
452.801	3.96
453.158	4.15
453.515	4.03
453.872	3.98
454.229	4.08
454.586	3.96
454.943	4.05
455.3	4.09
455.657	3.79
456.014	3.96
456.371	4.07
456.727	4.06
457.084	4
457.441	3.97
457.797	4
458.154	4.02
458.51	4.16
458.867	3.97
459.223	3.9
459.58	4.16
459.936	3.81
460.292	3.96
460.648	4.03
461.005	3.96
461.361	4.03
461.717	4.01
462.073	4.04
462.429	4.09
462.785	4.11
463.141	4.2
463.496	4.13
463.852	4.24
464.208	4.08
464.564	4.09
464.919	4.21
465.275	4.29
465.631	4.07
465.986	4.29
466.342	4.12
466.697	4.16
467.052	4.2
467.408	4.14
467.763	4.28
468.118	4.33
468.473	4.13
468.829	4.03
469.184	4.06
469.539	4.02
469.894	4.24
470.249	4.16
470.603	4.31
470.958	4.14
471.313	4.03
471.668	4.07
472.023	4.1
472.377	4.19
472.732	4.26
473.086	4.22
473.441	4.32
473.795	4.15
474.15	4.41
474.504	4.15
474.859	4.27
475.213	4.27
475.567	4.27
475.921	4.16
476.275	4.25
476.63	4.25
476.984	4.22
477.338	4.24
477.692	4.36
478.045	4.34
478.399	4.3
478.753	4.31
479.107	4.41
479.461	4.4
479.814	4.45
480.168	4.33
480.521	4.24
480.875	4.43
481.228	4.4
481.582	4.49
481.935	4.24
482.289	4.29
482.642	4.43
482.995	4.43
483.348	4.26
483.701	4.42
484.055	4.18
484.408	4.37
484.761	4.25
485.114	4.15
485.466	4.16
485.819	4.09
486.172	4.09
486.525	4.14
486.878	4.24
487.23	4.25
487.583	4.24
487.936	4.34
488.288	4.31
488.641	4.25
488.993	4.24
489.345	4.25
489.698	4.19
490.05	4.24
490.402	4.2
490.754	4.28
491.107	4.35
491.459	4.34
491.811	4.34
492.163	4.43
492.515	4.44
492.866	4.37
493.218	4.34
493.57	4.24
493.922	4.37
494.274	4.26
494.625	4.42
494.977	4.49
495.328	4.55
495.68	4.52
496.031	4.49
496.383	4.51
496.734	4.58
497.086	4.66
497.437	4.77
497.788	4.53
498.139	4.55
498.49	4.48
498.842	4.6
499.193	4.56
499.544	4.56
499.894	4.53
500.245	4.64
500.596	4.53
500.947	4.56
501.298	4.6
501.648	4.56
501.999	4.76
502.35	4.62
502.7	4.63
503.051	4.78
503.401	4.66
503.752	4.68
504.102	4.74
504.452	4.69
504.803	4.78
505.153	4.68
505.503	4.64
505.853	4.7
506.203	4.74
506.553	4.86
506.903	4.76
507.253	4.79
507.603	4.73
507.953	4.67
508.303	4.76
508.652	4.67
509.002	4.84
509.352	4.83
509.701	4.79
510.051	4.7
510.4	4.66
510.75	4.74
511.099	4.76
511.449	4.6
511.798	4.71
512.147	4.75
512.496	4.76
512.846	4.68
513.195	4.74
513.544	4.73
513.893	4.83
514.242	4.86
514.591	4.75
514.939	4.92
515.288	4.92
515.637	4.98
515.986	4.89
516.334	4.93
516.683	4.91
517.032	4.94
517.38	5.03
517.729	4.88
518.077	4.89
518.426	4.96
518.774	4.98
519.122	4.93
519.47	4.93
519.819	4.92
520.167	4.88
520.515	4.88
520.863	4.76
521.211	4.88
521.559	4.92
521.907	4.91
522.255	5.03
522.602	4.88
522.95	4.91
523.298	5.06
523.645	5.07
523.993	5.06
524.341	5.08
524.688	5.17
525.036	5.07
525.383	5.15
525.73	5.19
526.078	5.14
526.425	5.04
526.772	4.94
527.119	5.07
527.466	5.07
527.814	4.91
528.161	5
528.508	5
528.854	4.97
529.201	5.06
529.548	5.02
529.895	4.94
530.242	4.9
530.588	4.87
530.935	4.85
531.282	4.94
531.628	4.9
531.975	5.1
532.321	5.13
532.667	5.14
533.014	5.15
533.36	5.16
533.706	5.24
534.052	5.28
534.399	5.19
534.745	5.08
535.091	5.06
535.437	5.01
535.783	5.07
536.129	5.24
536.474	5.2
536.82	5.24
537.166	5.27
537.512	5.36
537.857	5.22
538.203	5.22
538.549	5.23
538.894	5.34
539.239	5.37
539.585	5.25
539.93	5.34
540.276	5.31
540.621	5.36
540.966	5.43
541.311	5.28
541.656	5.49
542.001	5.55
542.346	5.41
542.691	5.39
543.036	5.21
543.381	5.32
543.726	5.3
544.071	5.28
544.415	5.35
544.76	5.41
545.105	5.39
545.449	5.46
545.794	5.57
546.138	5.47
546.483	5.47
546.827	5.58
547.171	5.62
547.516	5.62
547.86	5.62
548.204	5.55
548.548	5.55
548.892	5.49
549.236	5.61
549.58	5.53
549.924	5.75
550.268	5.75
550.612	5.65
550.956	5.9
551.3	5.66
551.643	5.63
551.987	5.73
552.33	5.81
552.674	5.73
553.017	5.9
553.361	5.92
553.704	5.85
554.048	5.87
554.391	5.73
554.734	5.91
555.077	5.91
555.42	5.85
555.764	5.99
556.107	6.01
556.45	5.99
556.793	6.08
557.135	6.08
557.478	5.84
557.821	6.07
558.164	6.03
558.507	5.96
558.849	6.05
559.192	6.35
559.534	6.02
559.877	6.22
560.219	6.25
560.562	6.27
560.904	6.33
561.246	6.19
561.589	6.07
561.931	6.13
562.273	6.28
562.615	5.97
562.957	6.34
563.299	6.13
563.641	6.22
563.983	6.14
564.325	6.02
564.667	6.19
565.008	6.21
565.35	6.25
565.692	6.48
566.033	6.41
566.375	6.22
566.716	6.26
567.058	6.32
567.399	6.4
567.741	6.42
568.082	6.26
568.423	6.41
568.764	6.3
569.105	6.43
569.447	6.54
569.788	6.47
570.129	6.45
570.47	6.74
570.811	6.6
571.151	6.35
571.492	6.74
571.833	6.48
572.174	6.72
572.514	6.6
572.855	6.32
573.195	6.73
573.536	6.56
573.876	6.57
574.217	6.59
574.557	6.67
574.898	6.74
575.238	6.4
575.578	6.95
575.918	6.74
576.258	6.79
576.598	6.57
576.938	6.69
577.278	6.66
577.618	6.56
577.958	6.71
578.298	6.79
578.638	6.9
578.977	6.94
579.317	6.79
579.657	6.67
579.996	6.92
580.336	6.84
580.675	6.78
581.014	6.95
581.354	6.88
581.693	7.17
582.032	6.98
582.372	7.11
582.711	6.93
583.05	6.95
583.389	6.83
583.728	7.05
584.067	7.12
584.406	7.13
584.745	7.13
585.083	6.93
585.422	7.25
585.761	7.05
586.1	6.95
586.438	7.03
586.777	7.04
587.115	7.14
587.454	7.44
587.792	7.25
588.13	7.22
588.469	7.14
588.807	7.38
589.145	7.24
589.483	7.08
589.821	7.51
590.159	7.35
590.497	7.56
590.835	7.28
591.173	7.11
591.511	7.67
591.849	7.43
592.187	7.45
592.524	7.47
592.862	7.49
593.2	7.61
593.537	7.5
593.875	7.6
594.212	7.51
594.55	7.54
594.887	7.78
595.224	7.56
595.561	7.23
595.899	7.6
596.236	7.96
596.573	7.55
596.91	7.95
597.247	7.65
597.584	7.4
597.921	7.83
598.258	7.61
598.594	7.38
598.931	7.51
599.268	7.73
599.604	7.75
599.941	7.76
600.277	7.91
600.614	7.95
600.95	7.86
601.287	7.83
601.623	7.7
601.959	7.92
602.296	8.14
602.632	7.89
602.968	7.99
603.304	7.98
603.64	8.13
603.976	7.91
604.312	7.98
604.648	7.94
604.984	7.85
605.319	7.83
605.655	7.84
605.991	8.14
606.326	8.01
606.662	7.87
606.998	7.98
607.333	7.83
607.668	8.17
608.004	8.06
608.339	7.99
608.674	8.43
609.01	8.24
609.345	8.25
609.68	8.2
610.015	8.22
610.35	8.22
610.685	8.29
611.02	8.24
611.355	8.5
611.689	8.36
612.024	8.18
612.359	8.16
612.694	8.44
613.028	8.37
613.363	8.76
613.697	8.29
614.032	8.52
614.366	8.47
614.7	8.63
615.035	8.55
615.369	8.33
615.703	8.81
616.037	8.45
616.371	8.63
616.705	8.74
617.039	8.66
617.373	8.82
617.707	8.63
618.041	8.77
618.375	8.6
618.709	8.74
619.042	8.95
619.376	9.18
619.71	8.83
620.043	9.06
620.377	8.95
620.71	8.85
621.043	8.9
621.377	8.94
621.71	9.21
622.043	9.27
622.376	9.06
622.709	9.04
623.043	9.06
623.376	9.29
623.709	9.08
624.041	8.77
624.374	8.96
624.707	8.57
625.04	8.58
625.373	9.21
625.705	8.73
626.038	9
626.37	9.62
626.703	9.18
627.035	8.93
627.368	9.22
627.7	9.17
628.032	8.93
628.365	9.48
628.697	9.43
629.029	9.24
629.361	9.21
629.693	9.5
630.025	9.31
630.357	9.25
630.689	9.38
631.021	9.36
631.353	9.19
631.684	9.66
632.016	9.65
632.348	9.6
632.679	9.35
633.011	9.49
633.342	9.48
633.674	9.5
634.005	9.65
634.336	9.69
634.668	9.76
634.999	9.8
635.33	9.34
635.661	9.9
635.992	10.08
636.323	9.62
636.654	9.39
636.985	9.55
637.316	9.62
637.647	9.59
637.977	9.81
638.308	9.9
638.639	9.9
638.969	9.68
639.3	10.08
639.63	9.66
639.961	10.33
640.291	10.01
640.622	9.84
640.952	10.42
641.282	10.07
641.612	10.15
641.943	9.73
642.273	9.71
642.603	10.27
642.933	9.91
643.263	9.48
643.592	10.08
643.922	10.3
644.252	10.05
644.582	10.39
644.911	9.91
645.241	9.84
645.571	10.25
645.9	10.26
646.23	10.05
646.559	10.77
646.888	10.41
647.218	10.49
647.547	10.28
647.876	10.36
648.205	9.69
648.534	10.41
648.863	10.41
649.192	10.43
649.521	10.32
649.85	10.48
650.179	10.22
650.508	10.47
650.837	10.64
651.165	10.26
651.494	10.63
651.822	10.71
652.151	10.63
652.479	10.1
652.808	10.53
653.136	10.18
653.465	10.76
653.793	10.91
654.121	10.39
654.449	10.35
654.777	10.71
655.105	10.92
655.433	10.53
655.761	10.27
656.089	10.75
656.417	10.29
656.745	10.37
657.073	10.38
657.4	10.4
657.728	10.46
658.056	10.65
658.383	10.98
658.711	10.64
659.038	10.7
659.365	11.37
659.693	10.94
660.02	11.22
660.347	10.37
660.674	10.98
661.001	11.04
661.329	11.06
661.656	10.64
661.982	10.78
662.309	10.88
662.636	10.74
662.963	10.98
663.29	10.82
663.616	11.03
663.943	11.08
664.27	11.42
664.596	11.03
664.923	11.12
665.249	11.14
665.576	11.07
665.902	10.28
666.228	10.46
666.554	11.93
666.881	11.27
667.207	10.96
667.533	11.12
667.859	11.62
668.185	11.71
668.511	11.36
668.837	11.09
669.162	11.85
669.488	11.01
669.814	11.58
670.139	11.5
670.465	11.65
670.791	11.21
671.116	11.77
671.442	11.74
671.767	11.8
672.092	11.21
672.418	11.79
672.743	11.97
673.068	12.09
673.393	11.37
673.718	12.17
674.043	11.8
674.368	10.73
674.693	11.29
675.018	11.37
675.343	11.68
675.667	11.77
675.992	11.54
676.317	11.6
676.641	12.09
676.966	11.65
677.29	12
677.615	12.3
677.939	11.88
678.264	12.13
678.588	11.58
678.912	12.51
679.236	11.78
679.56	11.88
679.885	11.64
680.209	12.63
680.532	11.8
680.856	11.82
681.18	11.57
681.504	11.32
681.828	11.81
682.152	12.62
682.475	11.92
682.799	12.32
683.122	11.75
683.446	12.13
683.769	11.7
684.093	12.24
684.416	11.93
684.739	12.42
685.062	12.47
685.386	11.87
685.709	12.39
686.032	12.89
686.355	12.91
686.678	11.83
687.001	12.83
687.324	12.75
687.646	12.96
687.969	12
688.292	12.06
688.614	13.27
688.937	12.5
