Data from 0044_chest_Reflection__1__121.txt Node

Date: Fri Nov 04 15:50:48 CDT 2022
User: ToomeyLab
Spectrometer: FLMS14357
Trigger mode: 0
Integration Time (sec): 1.000000E-2
Scans to average: 100
Electric dark correction enabled: true
Nonlinearity correction enabled: false
Boxcar width: 0
XAxis mode: Wavelengths
Number of Pixels in Spectrum: 2048
>>>>>Begin Spectral Data<<<<<
189.047	1191.97
189.435	1191.97
189.823	1191.97
190.211	-55.19
190.599	-188.26
190.987	62.82
191.375	22.34
191.763	-31.38
192.151	143.55
192.538	-266.37
192.926	27.32
193.314	142.47
193.702	145.34
194.089	166.4
194.477	489.97
194.864	39.9
195.252	142.24
195.639	-73.18
196.027	70.93
196.414	126.88
196.801	228.85
197.189	-110.28
197.576	-564.04
197.963	118.9
198.351	-62.29
198.738	15.13
199.125	-5.59
199.512	-55.65
199.899	33.46
200.286	-13.52
200.673	-3.04
201.06	39.5
201.447	-16.02
201.833	-16.2
202.22	-9.06
202.607	15.34
202.994	18.03
203.38	50.89
203.767	-7.47
204.154	12.9
204.54	-24.78
204.927	29.22
205.313	22.04
205.699	34.93
206.086	-6.06
206.472	-20.08
206.858	-27.29
207.245	-6.2
207.631	7.82
208.017	15.51
208.403	15.54
208.789	21.73
209.175	-8.05
209.561	-72.05
209.947	-62.4
210.333	29.94
210.719	-37.95
211.105	-35.34
211.491	4.3
211.876	10.54
212.262	-34.96
212.648	-10.35
213.034	27.44
213.419	-30.73
213.805	-35.67
214.19	-64.34
214.576	-19.54
214.961	5.32
215.346	-15.98
215.732	6.14
216.117	-30.42
216.502	-8.16
216.888	-13.5
217.273	10.72
217.658	-10.71
218.043	-24
218.428	24.63
218.813	-2.86
219.198	-6.12
219.583	-42.68
219.968	30.94
220.353	-44.15
220.738	-21.34
221.122	-18.59
221.507	6.87
221.892	-16.6
222.276	-20.75
222.661	-3.73
223.046	-4.35
223.43	2.36
223.815	-8.45
224.199	0.4
224.583	0
224.968	-4.67
225.352	-7.52
225.736	-7.57
226.121	-11.26
226.505	1.35
226.889	0.77
227.273	3.05
227.657	-1.72
228.041	3.17
228.425	-0.22
228.809	2.96
229.193	3.83
229.577	-0.78
229.961	2.25
230.344	1.62
230.728	1.7
231.112	0.54
231.495	1.08
231.879	1.42
232.263	0.97
232.646	0.81
233.03	0.34
233.413	-0.03
233.797	-0.14
234.18	0.73
234.563	-1.2
234.946	0.55
235.33	2.37
235.713	1.08
236.096	0.58
236.479	0.86
236.862	0.82
237.245	-0.28
237.628	1.55
238.011	-0.14
238.394	1.92
238.777	0.95
239.16	1.06
239.543	0.96
239.925	3.03
240.308	1.03
240.691	1.56
241.073	1.46
241.456	0.89
241.838	-0.33
242.221	0.27
242.603	1.19
242.986	0.89
243.368	1.23
243.75	1.43
244.133	1.22
244.515	0.82
244.897	0.98
245.279	0.72
245.661	1.61
246.043	1.93
246.425	0.22
246.807	2.37
247.189	0.51
247.571	1.69
247.953	0.95
248.335	0.74
248.717	1.47
249.098	1.07
249.48	1.35
249.862	1.64
250.243	1.45
250.625	0.77
251.006	1.18
251.388	1.59
251.769	1.26
252.151	0.98
252.532	1.32
252.913	0.84
253.295	1.59
253.676	1.1
254.057	0.86
254.438	1.12
254.819	1.52
255.2	0.47
255.581	0.89
255.962	1.76
256.343	1.86
256.724	1.29
257.105	1.34
257.486	1.34
257.867	2.59
258.247	0.59
258.628	0.8
259.009	0.01
259.389	0.92
259.77	1.39
260.15	0.84
260.531	1.08
260.911	0.85
261.292	1.07
261.672	1.02
262.052	1.24
262.432	1.36
262.813	0.83
263.193	0.13
263.573	1.13
263.953	0.56
264.333	1.26
264.713	1.38
265.093	1
265.473	0.7
265.853	0.19
266.233	1.1
266.612	1.87
266.992	1.78
267.372	0.13
267.752	1.67
268.131	1.61
268.511	1.83
268.89	1.35
269.27	1.45
269.649	1.14
270.029	0.64
270.408	1.15
270.787	1.1
271.167	1.35
271.546	1.77
271.925	1.3
272.304	0.99
272.683	0.93
273.062	0.98
273.441	1.38
273.82	1.06
274.199	1.27
274.578	1.04
274.957	1.14
275.336	0.63
275.715	1.17
276.093	1.11
276.472	0.89
276.851	0.3
277.229	1.13
277.608	0.92
277.986	1.24
278.365	1.64
278.743	1.03
279.122	1.22
279.5	1.72
279.878	1.44
280.257	0.91
280.635	0.39
281.013	1.17
281.391	0.8
281.769	0.99
282.147	0.36
282.525	1.31
282.903	1.17
283.281	1.37
283.659	0.78
284.037	0.98
284.415	1.25
284.792	1.12
285.17	0.86
285.548	1.51
285.925	1.24
286.303	1.63
286.68	1.26
287.058	1.12
287.435	1.04
287.813	0.93
288.19	1.3
288.567	1.09
288.945	0.93
289.322	1.29
289.699	1.3
290.076	0.99
290.453	0.5
290.83	0.76
291.207	1.07
291.584	1.38
291.961	1.24
292.338	1.31
292.715	1.27
293.092	1.42
293.469	1.5
293.845	0.96
294.222	1.29
294.599	0.9
294.975	1.45
295.352	1.22
295.728	1.47
296.105	1.3
296.481	1.08
296.858	1.19
297.234	1.57
297.61	2.05
297.986	0.99
298.363	1.11
298.739	1.02
299.115	1.45
299.491	1.37
299.867	1.36
300.243	1.17
300.619	1.72
300.995	1.64
301.371	1.56
301.746	1.3
302.122	1.02
302.498	1.44
302.874	1.5
303.249	1.34
303.625	0.81
304	1.54
304.376	1.04
304.751	1.45
305.127	1.42
305.502	1.13
305.878	1.73
306.253	1.72
306.628	1.21
307.003	1.25
307.378	1
307.754	1.28
308.129	1.06
308.504	1.09
308.879	1.37
309.254	1.13
309.629	1.42
310.003	1.76
310.378	1.56
310.753	1.62
311.128	1.12
311.502	1.24
311.877	1.37
312.252	1.16
312.626	1.51
313.001	1.47
313.375	1.28
313.75	1.06
314.124	1.37
314.498	1.43
314.873	1.2
315.247	1.6
315.621	1.23
315.995	1.55
316.369	1.74
316.743	1.99
317.117	1.68
317.491	1.45
317.865	1.26
318.239	1.57
318.613	2.06
318.987	1.65
319.361	1.45
319.734	1.64
320.108	1.82
320.482	1.04
320.855	1.49
321.229	1.42
321.602	1
321.976	1.22
322.349	2.45
322.723	1.65
323.096	1.49
323.469	1.45
323.843	1.37
324.216	1.56
324.589	1.51
324.962	2.04
325.335	1.92
325.708	1.01
326.081	1.56
326.454	1.81
326.827	1.9
327.2	1.48
327.573	1.5
327.945	1.3
328.318	1.09
328.691	1.47
329.063	1.79
329.436	2
329.809	1.7
330.181	2.16
330.553	1.3
330.926	1.49
331.298	2.07
331.671	1.62
332.043	2.05
332.415	1.76
332.787	0.77
333.159	1.4
333.532	1.24
333.904	1.78
334.276	1.35
334.648	1.7
335.02	1.59
335.391	1.53
335.763	1.44
336.135	1.25
336.507	1.23
336.879	1.55
337.25	1.96
337.622	1.59
337.993	1.96
338.365	1.54
338.736	1.52
339.108	2.14
339.479	1.85
339.851	1.49
340.222	1.53
340.593	1.64
340.964	1.48
341.336	1.84
341.707	1.03
342.078	1.52
342.449	1.63
342.82	1.66
343.191	1.64
343.562	1.81
343.933	1.98
344.303	2.01
344.674	2.22
345.045	1.37
345.416	1.4
345.786	1.86
346.157	1.85
346.527	1.8
346.898	1.93
347.268	1.53
347.639	1.55
348.009	1.97
348.38	1.58
348.75	1.72
349.12	1.32
349.49	1.68
349.861	1.47
350.231	2.08
350.601	1.68
350.971	1.72
351.341	1.79
351.711	1.64
352.081	1.52
352.45	1.58
352.82	1.81
353.19	1.79
353.56	1.58
353.929	1.66
354.299	2.1
354.669	2.07
355.038	1.98
355.408	1.4
355.777	1.77
356.147	1.53
356.516	1.5
356.885	1.53
357.254	1.89
357.624	1.97
357.993	1.59
358.362	1.42
358.731	1.66
359.1	1.73
359.469	1.88
359.838	1.98
360.207	1.8
360.576	1.76
360.945	1.91
361.314	1.99
361.682	1.48
362.051	1.7
362.42	1.59
362.788	1.64
363.157	1.62
363.525	1.78
363.894	1.78
364.262	1.96
364.631	1.86
364.999	1.72
365.367	1.55
365.735	1.99
366.104	1.67
366.472	1.76
366.84	1.49
367.208	1.8
367.576	1.47
367.944	1.87
368.312	1.9
368.68	1.56
369.048	1.85
369.416	1.87
369.783	1.64
370.151	1.6
370.519	2.12
370.886	1.83
371.254	2.14
371.621	1.82
371.989	1.89
372.356	2.01
372.724	2.06
373.091	1.76
373.458	1.99
373.826	1.83
374.193	1.73
374.56	1.29
374.927	1.97
375.294	1.54
375.661	1.89
376.028	1.98
376.395	2
376.762	1.87
377.129	1.88
377.496	2
377.863	1.93
378.229	1.77
378.596	1.67
378.963	2.02
379.329	1.65
379.696	1.71
380.062	2.19
380.429	2.02
380.795	2.01
381.161	1.79
381.528	2.12
381.894	1.8
382.26	1.67
382.626	1.78
382.993	1.87
383.359	1.87
383.725	1.77
384.091	1.67
384.457	1.95
384.823	1.79
385.188	1.94
385.554	1.87
385.92	1.62
386.286	1.82
386.651	1.79
387.017	1.94
387.383	1.9
387.748	1.75
388.114	1.7
388.479	2.39
388.845	2.1
389.21	2.28
389.575	2.17
389.94	1.98
390.306	1.75
390.671	2.12
391.036	1.94
391.401	2.13
391.766	1.61
392.131	1.88
392.496	2.02
392.861	1.98
393.226	1.84
393.591	1.99
393.956	2.12
394.32	1.9
394.685	2.07
395.05	1.94
395.414	2.13
395.779	1.87
396.143	1.99
396.508	1.95
396.872	2.08
397.236	1.79
397.601	2.01
397.965	1.8
398.329	1.73
398.694	2.05
399.058	2.12
399.422	2.01
399.786	1.84
400.15	1.94
400.514	1.89
400.878	2.05
401.242	2.04
401.605	1.76
401.969	2.34
402.333	2.05
402.697	2.06
403.06	2.15
403.424	2.09
403.787	1.96
404.151	2.09
404.514	2.22
404.878	2.16
405.241	1.92
405.604	2.25
405.968	1.84
406.331	2.02
406.694	2
407.057	2.09
407.42	2.02
407.783	2.04
408.146	2.15
408.509	2.2
408.872	2.1
409.235	2.08
409.598	2.12
409.961	2.03
410.323	2
410.686	2.17
411.049	2.03
411.411	1.95
411.774	2.2
412.136	2.16
412.499	2.15
412.861	2.2
413.223	1.91
413.586	1.93
413.948	2.18
414.31	1.98
414.672	2.01
415.035	2.2
415.397	1.88
415.759	2.1
416.121	1.84
416.483	2.31
416.845	2.16
417.206	2.06
417.568	2.3
417.93	2.06
418.292	2.1
418.653	2.12
419.015	2.08
419.377	2.12
419.738	2.12
420.1	2.18
420.461	1.95
420.822	2.05
421.184	2.26
421.545	1.92
421.906	2.1
422.267	1.99
422.629	2.1
422.99	2.05
423.351	1.95
423.712	2.04
424.073	2.18
424.434	2.05
424.795	2.22
425.155	2.18
425.516	2.1
425.877	2.07
426.238	2.17
426.598	2.19
426.959	1.99
427.32	2.01
427.68	2.11
428.041	2.14
428.401	2.25
428.761	2.22
429.122	2.17
429.482	2.12
429.842	1.91
430.202	2.08
430.563	2.18
430.923	2.2
431.283	2.09
431.643	2.26
432.003	2.37
432.363	2.21
432.722	2.09
433.082	2.28
433.442	2.25
433.802	1.97
434.161	2.11
434.521	2.12
434.881	2.15
435.24	2.2
435.6	2.21
435.959	2.24
436.319	2.12
436.678	2.23
437.037	2.18
437.396	2.23
437.756	2.22
438.115	2.1
438.474	2.21
438.833	2.22
439.192	2.19
439.551	2.11
439.91	2.33
440.269	2.35
440.628	2.33
440.987	2.3
441.345	2.25
441.704	2.2
442.063	2.19
442.421	2.21
442.78	2.28
443.138	2.26
443.497	2.26
443.855	2.08
444.214	2.37
444.572	2.29
444.93	2.15
445.288	2.29
445.647	2.19
446.005	2.1
446.363	2.17
446.721	2.16
447.079	2.25
447.437	2.18
447.795	2.25
448.153	2.11
448.51	2.22
448.868	2.27
449.226	2.13
449.584	2.28
449.941	2.18
450.299	2.33
450.656	2.25
451.014	2.3
451.371	2.4
451.729	2.38
452.086	2.17
452.443	2.25
452.801	2.37
453.158	2.33
453.515	2.32
453.872	2.06
454.229	2.44
454.586	2.35
454.943	2.41
455.3	2.22
455.657	2.19
456.014	2.33
456.371	2.28
456.727	2.46
457.084	2.49
457.441	2.24
457.797	2.41
458.154	2.32
458.51	2.44
458.867	2.17
459.223	2.23
459.58	2.59
459.936	2.14
460.292	2.28
460.648	2.37
461.005	2.28
461.361	2.37
461.717	2.34
462.073	2.41
462.429	2.39
462.785	2.33
463.141	2.41
463.496	2.28
463.852	2.42
464.208	2.41
464.564	2.46
464.919	2.54
465.275	2.29
465.631	2.45
465.986	2.28
466.342	2.24
466.697	2.42
467.052	2.37
467.408	2.35
467.763	2.42
468.118	2.61
468.473	2.54
468.829	2.17
469.184	2.36
469.539	2.51
469.894	2.64
470.249	2.43
470.603	2.49
470.958	2.38
471.313	2.43
471.668	2.29
472.023	2.16
472.377	2.42
472.732	2.47
473.086	2.45
473.441	2.46
473.795	2.44
474.15	2.38
474.504	2.46
474.859	2.45
475.213	2.47
475.567	2.43
475.921	2.35
476.275	2.56
476.63	2.42
476.984	2.41
477.338	2.55
477.692	2.49
478.045	2.56
478.399	2.32
478.753	2.47
479.107	2.43
479.461	2.58
479.814	2.59
480.168	2.6
480.521	2.42
480.875	2.53
481.228	2.57
481.582	2.62
481.935	2.48
482.289	2.46
482.642	2.45
482.995	2.53
483.348	2.55
483.701	2.61
484.055	2.52
484.408	2.52
484.761	2.51
485.114	2.39
485.466	2.38
485.819	2.35
486.172	2.37
486.525	2.39
486.878	2.41
487.23	2.46
487.583	2.46
487.936	2.51
488.288	2.5
488.641	2.42
488.993	2.45
489.345	2.39
489.698	2.4
490.05	2.47
490.402	2.42
490.754	2.55
491.107	2.51
491.459	2.58
491.811	2.42
492.163	2.64
492.515	2.63
492.866	2.52
493.218	2.53
493.57	2.51
493.922	2.55
494.274	2.51
494.625	2.58
494.977	2.61
495.328	2.63
495.68	2.52
496.031	2.58
496.383	2.63
496.734	2.54
497.086	2.78
497.437	2.8
497.788	2.69
498.139	2.49
498.49	2.61
498.842	2.72
499.193	2.7
499.544	2.72
499.894	2.59
500.245	2.7
500.596	2.56
500.947	2.61
501.298	2.68
501.648	2.8
501.999	2.84
502.35	2.77
502.7	2.66
503.051	2.68
503.401	2.68
503.752	2.81
504.102	2.69
504.452	2.83
504.803	2.72
505.153	2.77
505.503	2.67
505.853	2.87
506.203	2.69
506.553	2.85
506.903	2.82
507.253	2.82
507.603	2.69
507.953	2.8
508.303	2.78
508.652	2.71
509.002	2.85
509.352	2.89
509.701	2.72
510.051	2.82
510.4	2.84
510.75	2.83
511.099	2.87
511.449	2.78
511.798	2.74
512.147	2.87
512.496	2.68
512.846	2.77
513.195	2.91
513.544	2.72
513.893	2.9
514.242	2.8
514.591	2.81
514.939	2.85
515.288	2.81
515.637	2.89
515.986	2.97
516.334	2.86
516.683	2.96
517.032	2.99
517.38	3.1
517.729	3.11
518.077	2.95
518.426	2.86
518.774	2.97
519.122	2.95
519.47	2.88
519.819	2.94
520.167	2.99
520.515	2.96
520.863	2.9
521.211	2.91
521.559	2.96
521.907	2.82
522.255	3.01
522.602	2.99
522.95	2.95
523.298	3.02
523.645	3
523.993	3.03
524.341	3.05
524.688	3.15
525.036	2.97
525.383	3.12
525.73	3.01
526.078	3.12
526.425	3.2
526.772	2.98
527.119	3.03
527.466	2.96
527.814	2.99
528.161	2.97
528.508	2.98
528.854	3.06
529.201	2.99
529.548	2.98
529.895	3
530.242	2.97
530.588	2.92
530.935	2.94
531.282	3.02
531.628	2.92
531.975	3.06
532.321	3.11
532.667	3.03
533.014	3.11
533.36	3.14
533.706	3.23
534.052	3.18
534.399	3.13
534.745	3.16
535.091	3.05
535.437	3.1
535.783	3.11
536.129	3.14
536.474	3.25
536.82	3.15
537.166	3.25
537.512	3.18
537.857	3.22
538.203	3.21
538.549	3.17
538.894	3.31
539.239	3.35
539.585	3.2
539.93	3.22
540.276	3.3
540.621	3.29
540.966	3.37
541.311	3.21
541.656	3.36
542.001	3.43
542.346	3.26
542.691	3.3
543.036	3.21
543.381	3.24
543.726	3.27
544.071	3.26
544.415	3.35
544.76	3.4
545.105	3.36
545.449	3.42
545.794	3.37
546.138	3.4
546.483	3.41
546.827	3.4
547.171	3.52
547.516	3.4
547.86	3.48
548.204	3.51
548.548	3.51
548.892	3.49
549.236	3.53
549.58	3.49
549.924	3.62
550.268	3.63
550.612	3.61
550.956	3.63
551.3	3.42
551.643	3.59
551.987	3.56
552.33	3.52
552.674	3.55
553.017	3.81
553.361	3.93
553.704	3.64
554.048	3.58
554.391	3.73
554.734	3.7
555.077	3.59
555.42	3.72
555.764	3.94
556.107	3.83
556.45	3.68
556.793	3.84
557.135	3.81
557.478	3.68
557.821	3.79
558.164	3.96
558.507	3.83
558.849	4.06
559.192	3.93
559.534	3.72
559.877	3.86
560.219	3.87
560.562	3.91
560.904	4.09
561.246	3.87
561.589	4.15
561.931	3.94
562.273	4.04
562.615	3.79
562.957	4.06
563.299	3.93
563.641	4.12
563.983	4.1
564.325	3.85
564.667	4.1
565.008	4.06
565.35	4.11
565.692	4.28
566.033	4.24
566.375	4.2
566.716	4.12
567.058	4.1
567.399	4.23
567.741	4.17
568.082	4.39
568.423	4.21
568.764	4.11
569.105	4.24
569.447	4.17
569.788	4.27
570.129	4.16
570.47	4.37
570.811	4.43
571.151	4.29
571.492	4.54
571.833	4.39
572.174	4.47
572.514	4.2
572.855	4.29
573.195	4.4
573.536	4.27
573.876	4.29
574.217	4.35
574.557	4.42
574.898	4.35
575.238	4.34
575.578	4.61
575.918	4.5
576.258	4.44
576.598	4.39
576.938	4.64
577.278	4.43
577.618	4.44
577.958	4.63
578.298	4.53
578.638	4.51
578.977	4.65
579.317	4.65
579.657	4.69
579.996	4.66
580.336	4.68
580.675	4.67
581.014	4.89
581.354	4.7
581.693	5.03
582.032	4.58
582.372	4.95
582.711	4.88
583.05	4.88
583.389	4.73
583.728	4.91
584.067	5.01
584.406	4.67
584.745	5.07
585.083	5.01
585.422	4.98
585.761	4.95
586.1	4.94
586.438	5
586.777	5.03
587.115	5.08
587.454	5.14
587.792	5.15
588.13	5.02
588.469	5.03
588.807	5.2
589.145	5.11
589.483	4.96
589.821	5.04
590.159	4.92
590.497	5.11
590.835	5.14
591.173	5.01
591.511	5.27
591.849	5.29
592.187	5.08
592.524	5.29
592.862	5.38
593.2	5.28
593.537	5.1
593.875	5.13
594.212	5.2
594.55	5.41
594.887	5.49
595.224	5.44
595.561	5.15
595.899	5.33
596.236	5.62
596.573	5.55
596.91	5.46
597.247	5.7
597.584	5.46
597.921	5.51
598.258	5.34
598.594	5.16
598.931	5.49
599.268	5.54
599.604	5.61
599.941	5.69
600.277	5.51
600.614	5.58
600.95	5.83
601.287	5.6
601.623	5.45
601.959	5.82
602.296	6.03
602.632	5.73
602.968	6.09
603.304	5.81
603.64	6.01
603.976	5.58
604.312	5.91
604.648	5.8
604.984	5.86
605.319	5.76
605.655	5.93
605.991	5.91
606.326	5.97
606.662	5.93
606.998	5.83
607.333	5.71
607.668	6.06
608.004	6.07
608.339	5.74
608.674	6.11
609.01	6.16
609.345	6.15
609.68	6.2
610.015	6.37
610.35	6.05
610.685	6.38
611.02	6.16
611.355	6.11
611.689	6.3
612.024	6.26
612.359	5.95
612.694	6.11
613.028	6.45
613.363	6.5
613.697	6.27
614.032	6.45
614.366	6.33
614.7	6.3
615.035	6.39
615.369	6.16
615.703	6.74
616.037	6.46
616.371	6.4
616.705	6.44
617.039	6.47
617.373	6.58
617.707	6.95
618.041	6.43
618.375	6.44
618.709	6.67
619.042	6.98
619.376	6.81
619.71	6.43
620.043	6.79
620.377	6.92
620.71	6.67
621.043	6.74
621.377	6.88
621.71	6.64
622.043	6.96
622.376	7.27
622.709	6.88
623.043	6.78
623.376	7.59
623.709	6.9
624.041	6.98
624.374	6.76
624.707	6.82
625.04	7.14
625.373	7.44
625.705	7.02
626.038	6.91
626.37	7.18
626.703	7.11
627.035	6.95
627.368	7.14
627.7	7.05
628.032	6.98
628.365	7.57
628.697	7.39
629.029	7.35
629.361	7.1
629.693	7.31
630.025	7.24
630.357	7.3
630.689	7.14
631.021	7.25
631.353	7.36
631.684	7.51
632.016	7.28
632.348	7.28
632.679	7.27
633.011	7.31
633.342	7.2
633.674	7.26
634.005	7.79
634.336	7.7
634.668	7.85
634.999	8.01
635.33	7.27
635.661	7.67
635.992	7.52
636.323	7.78
636.654	7.45
636.985	7.75
637.316	7.58
637.647	7.58
637.977	7.75
638.308	7.94
638.639	7.52
638.969	7.32
639.3	8.35
639.63	7.7
639.961	7.9
640.291	8.08
640.622	7.9
640.952	8.13
641.282	7.87
641.612	8.05
641.943	7.88
642.273	8
642.603	8.06
642.933	8.18
643.263	7.92
643.592	8.03
643.922	8.21
644.252	8.13
644.582	8.25
644.911	8.28
645.241	8.13
645.571	8.18
645.9	8.03
646.23	7.92
646.559	8.43
646.888	8.22
647.218	8.77
647.547	8.82
647.876	8.62
648.205	8.29
648.534	8.66
648.863	8.72
649.192	8.5
649.521	8.46
649.85	8.93
650.179	8.21
650.508	8.44
650.837	8.77
651.165	8.58
651.494	8.94
651.822	8.77
652.151	8.77
652.479	8.3
652.808	8.38
653.136	8.53
653.465	8.72
653.793	9.11
654.121	8.66
654.449	8.07
654.777	8.45
655.105	8.82
655.433	8.58
655.761	8.31
656.089	8.38
656.417	8.92
656.745	8.38
657.073	8.79
657.4	8.68
657.728	8.47
658.056	8.29
658.383	8.93
658.711	8.57
659.038	9.33
659.365	9.67
659.693	9.49
660.02	9.03
660.347	8.78
660.674	9.2
661.001	8.81
661.329	9.01
661.656	9.31
661.982	9.02
662.309	9.21
662.636	9.38
662.963	8.95
663.29	8.79
663.616	9.15
663.943	9
664.27	9.91
664.596	9.31
664.923	9.15
665.249	9.45
665.576	9.43
665.902	8.39
666.228	9
666.554	9.86
666.881	8.82
667.207	9.66
667.533	9.24
667.859	9.55
668.185	10.01
668.511	9.54
668.837	9.23
669.162	10.06
669.488	9.01
669.814	9.56
670.139	9.59
670.465	10.04
670.791	9.54
671.116	9.55
671.442	9.91
671.767	9.26
672.092	9.9
672.418	9.69
672.743	9.86
673.068	9.96
673.393	9.83
673.718	10.06
674.043	9.95
674.368	9.3
674.693	9.8
675.018	10.22
675.343	10.14
675.667	9.41
675.992	10.52
676.317	10.38
676.641	10.46
676.966	9.34
677.29	10.62
677.615	10.3
677.939	10.1
678.264	10.68
678.588	10.51
678.912	10.59
679.236	10.42
679.56	10.07
679.885	10.37
680.209	10.69
680.532	9.7
680.856	9.97
681.18	10.25
681.504	10.71
681.828	9.8
682.152	10.73
682.475	10.24
682.799	10.77
683.122	10.34
683.446	10.26
683.769	9.96
684.093	10.36
684.416	10.22
684.739	10.41
685.062	11.33
685.386	10.98
685.709	10.31
686.032	11.45
686.355	11.64
686.678	10.76
687.001	11.1
687.324	10.98
687.646	10.98
687.969	10.7
688.292	10.96
688.614	11.53
688.937	10.58
689.26	10.74
689.582	11.89
689.904	11.95
690.227	11.08
690.549	11.02
690.871	10.89
691.194	11.13
