Data from 0044_forehead_Reflection__4__134.txt Node

Date: Fri Nov 04 15:55:39 CDT 2022
User: ToomeyLab
Spectrometer: FLMS14357
Trigger mode: 0
Integration Time (sec): 1.000000E-2
Scans to average: 100
Electric dark correction enabled: true
Nonlinearity correction enabled: false
Boxcar width: 0
XAxis mode: Wavelengths
Number of Pixels in Spectrum: 2048
>>>>>Begin Spectral Data<<<<<
189.047	149.03
189.435	149.03
189.823	149.03
190.211	35.86
190.599	476.16
190.987	26.43
191.375	-39.08
191.763	303.37
192.151	42.88
192.538	-452.44
192.926	390.3
193.314	79.46
193.702	56.99
194.089	24.39
194.477	96.69
194.864	-55.24
195.252	95.64
195.639	2.02
196.027	19.02
196.414	-53.4
196.801	394.04
197.189	128.69
197.576	-434.82
197.963	34.41
198.351	-35.99
198.738	-12.53
199.125	-1.55
199.512	-48.06
199.899	12.35
200.286	-8.25
200.673	7.84
201.06	-10
201.447	-65.15
201.833	7.64
202.22	1.57
202.607	8.79
202.994	38.97
203.38	48.25
203.767	22.24
204.154	39.27
204.54	-83.95
204.927	0.59
205.313	23.33
205.699	46.49
206.086	7.07
206.472	10.75
206.858	33.43
207.245	11.01
207.631	14.78
208.017	24.54
208.403	4.03
208.789	22.98
209.175	0.55
209.561	-48.23
209.947	-45.54
210.333	6.74
210.719	-36.39
211.105	-28.68
211.491	29.7
211.876	5.17
212.262	-2.1
212.648	-21.48
213.034	24.56
213.419	14.34
213.805	22.11
214.19	-26.84
214.576	-16.13
214.961	31.62
215.346	18.84
215.732	29.96
216.117	3
216.502	0.19
216.888	-21.3
217.273	-3.4
217.658	26.77
218.043	13.88
218.428	16.09
218.813	23.65
219.198	8.47
219.583	-23.45
219.968	12.05
220.353	-35.62
220.738	-16
221.122	1.61
221.507	6.83
221.892	-12.96
222.276	-3.08
222.661	24.89
223.046	-1.19
223.43	2.46
223.815	-1.33
224.199	9.82
224.583	-4.88
224.968	2.85
225.352	-4.92
225.736	0.14
226.121	-3.14
226.505	7.95
226.889	-0.13
227.273	4.13
227.657	-3.01
228.041	8.8
228.425	4.7
228.809	0.82
229.193	4.94
229.577	2.02
229.961	3.55
230.344	2.43
230.728	2.34
231.112	1.85
231.495	2.36
231.879	3.31
232.263	3
232.646	2.04
233.03	1.76
233.413	0.48
233.797	1.32
234.18	1.39
234.563	3.27
234.946	2.11
235.33	3.14
235.713	2.96
236.096	3.56
236.479	2.64
236.862	2.47
237.245	2.03
237.628	2.45
238.011	0.49
238.394	3.3
238.777	2.51
239.16	2.12
239.543	1.45
239.925	2.75
240.308	5.08
240.691	2.51
241.073	2.18
241.456	2.19
241.838	1.72
242.221	3.03
242.603	2.19
242.986	2
243.368	3.41
243.75	2.17
244.133	2.54
244.515	2.51
244.897	2.48
245.279	2.07
245.661	2.61
246.043	2.29
246.425	1.68
246.807	3.49
247.189	3.34
247.571	2.89
247.953	2.53
248.335	2.25
248.717	2.61
249.098	2.27
249.48	2.41
249.862	2.61
250.243	2.13
250.625	2.32
251.006	2.29
251.388	3.2
251.769	2.71
252.151	2.53
252.532	2.28
252.913	2.79
253.295	2.74
253.676	2.75
254.057	2.26
254.438	2.36
254.819	2.96
255.2	2.3
255.581	3.3
255.962	3.23
256.343	3.17
256.724	1.3
257.105	2.17
257.486	2.79
257.867	3.92
258.247	3.11
258.628	3.05
259.009	2.2
259.389	2.71
259.77	2.57
260.15	2.45
260.531	2.5
260.911	2.57
261.292	2.26
261.672	2.42
262.052	2.35
262.432	2.42
262.813	2.11
263.193	1.96
263.573	2.46
263.953	2.21
264.333	2.24
264.713	2.87
265.093	1.98
265.473	2.78
265.853	2.21
266.233	2.17
266.612	2.98
266.992	2.86
267.372	1.63
267.752	1.97
268.131	2.58
268.511	2.7
268.89	2.74
269.27	2.02
269.649	2.33
270.029	2.23
270.408	2.51
270.787	3.16
271.167	2.6
271.546	3.17
271.925	2.57
272.304	1.86
272.683	2.28
273.062	2.52
273.441	2.44
273.82	2.18
274.199	2.15
274.578	2.18
274.957	2.26
275.336	1.8
275.715	2.7
276.093	2.51
276.472	2.42
276.851	2.22
277.229	2.22
277.608	2.27
277.986	2.37
278.365	2.41
278.743	2.35
279.122	2.2
279.5	2.5
279.878	3.01
280.257	2.2
280.635	2.09
281.013	2.34
281.391	2.47
281.769	2.46
282.147	2.26
282.525	2.95
282.903	2.6
283.281	2.95
283.659	2.3
284.037	1.99
284.415	2.52
284.792	2.54
285.17	1.97
285.548	2.31
285.925	2.71
286.303	2.85
286.68	2.56
287.058	2.24
287.435	2.38
287.813	2.21
288.19	2.57
288.567	2.26
288.945	2.21
289.322	2.57
289.699	2.74
290.076	2.93
290.453	1.93
290.83	2.62
291.207	2.14
291.584	2.7
291.961	2.87
292.338	2.52
292.715	2.29
293.092	2.78
293.469	2.5
293.845	2.18
294.222	2.49
294.599	2.36
294.975	2.64
295.352	2.63
295.728	2.54
296.105	2.53
296.481	2.74
296.858	2.89
297.234	2.86
297.61	2.92
297.986	2.6
298.363	2.38
298.739	2.98
299.115	2.8
299.491	2.61
299.867	2.94
300.243	2.62
300.619	3.15
300.995	3.51
301.371	3.11
301.746	2.73
302.122	2.95
302.498	2.91
302.874	3.11
303.249	2.5
303.625	2.82
304	2.98
304.376	3.04
304.751	3.2
305.127	3.02
305.502	3.3
305.878	3.49
306.253	3.29
306.628	2.97
307.003	2.82
307.378	3.11
307.754	3.43
308.129	2.29
308.504	3.18
308.879	3.08
309.254	3.17
309.629	3.28
310.003	2.93
310.378	3.23
310.753	3.23
311.128	3.08
311.502	2.88
311.877	3.48
312.252	2.99
312.626	3.59
313.001	3.19
313.375	3.63
313.75	3.5
314.124	3.4
314.498	3.49
314.873	3.73
315.247	3.91
315.621	3.59
315.995	3.57
316.369	3.55
316.743	3.98
317.117	3.5
317.491	4.25
317.865	3.53
318.239	3.48
318.613	3.88
318.987	3.52
319.361	4.04
319.734	4.14
320.108	3.69
320.482	3.42
320.855	3.91
321.229	4.02
321.602	4.06
321.976	3.98
322.349	4.16
322.723	3.75
323.096	4.19
323.469	3.46
323.843	3.74
324.216	4.26
324.589	4.41
324.962	4.01
325.335	4.42
325.708	3.62
326.081	4.24
326.454	4.08
326.827	4.29
327.2	4.04
327.573	4.09
327.945	4.44
328.318	3.95
328.691	4.1
329.063	4.18
329.436	4.53
329.809	4.22
330.181	4.62
330.553	4.4
330.926	4.09
331.298	4.73
331.671	4.5
332.043	4.77
332.415	4.29
332.787	4.06
333.159	4.46
333.532	3.95
333.904	4.6
334.276	4.81
334.648	4.59
335.02	4.43
335.391	4.59
335.763	4.88
336.135	4.7
336.507	4.84
336.879	4.31
337.25	4.98
337.622	5.04
337.993	5.22
338.365	4.96
338.736	5.19
339.108	5.27
339.479	4.68
339.851	4.68
340.222	4.5
340.593	5.15
340.964	5.05
341.336	4.88
341.707	4.97
342.078	5.08
342.449	4.69
342.82	5.42
343.191	4.85
343.562	5.25
343.933	5.2
344.303	5.16
344.674	5.25
345.045	4.77
345.416	4.57
345.786	5.24
346.157	5.04
346.527	5.08
346.898	5.68
347.268	4.84
347.639	4.96
348.009	5.44
348.38	4.78
348.75	5.09
349.12	4.77
349.49	5.73
349.861	5.14
350.231	5.46
350.601	5.4
350.971	5.14
351.341	5.3
351.711	5.03
352.081	5.4
352.45	5.45
352.82	5.45
353.19	5.04
353.56	5.28
353.929	5.58
354.299	5.83
354.669	5.8
355.038	5.81
355.408	5.47
355.777	5.68
356.147	5.32
356.516	5.26
356.885	5.35
357.254	5.89
357.624	5.92
357.993	5.95
358.362	5.72
358.731	5.69
359.1	5.79
359.469	5.61
359.838	5.88
360.207	5.61
360.576	6.08
360.945	6.12
361.314	6.25
361.682	5.91
362.051	6.16
362.42	6.17
362.788	5.91
363.157	6.05
363.525	5.97
363.894	6.22
364.262	6.29
364.631	6.26
364.999	6.38
365.367	5.98
365.735	6.49
366.104	6.2
366.472	6.52
366.84	5.91
367.208	6.2
367.576	6.09
367.944	6.54
368.312	6.87
368.68	5.95
369.048	6.35
369.416	6.5
369.783	6.4
370.151	6.3
370.519	7.04
370.886	6.49
371.254	6.46
371.621	6.83
371.989	6.72
372.356	6.69
372.724	6.75
373.091	6.63
373.458	6.93
373.826	6.76
374.193	6.53
374.56	6.62
374.927	6.9
375.294	6.77
375.661	6.77
376.028	6.72
376.395	7.07
376.762	7.15
377.129	6.91
377.496	7.03
377.863	6.81
378.229	6.92
378.596	6.97
378.963	6.87
379.329	7.14
379.696	7.1
380.062	7.61
380.429	7.09
380.795	7.16
381.161	7.29
381.528	7.33
381.894	6.97
382.26	7.5
382.626	7.08
382.993	7.51
383.359	7.33
383.725	7.37
384.091	7.6
384.457	7.65
384.823	7.5
385.188	7.66
385.554	7.71
385.92	7.27
386.286	7.73
386.651	7.82
387.017	7.51
387.383	7.5
387.748	7.35
388.114	7.33
388.479	8.34
388.845	8
389.21	7.76
389.575	7.9
389.94	7.85
390.306	7.62
390.671	7.82
391.036	7.67
391.401	7.97
391.766	7.88
392.131	7.66
392.496	7.88
392.861	7.95
393.226	7.82
393.591	8.28
393.956	8.2
394.32	8.02
394.685	8.17
395.05	8.26
395.414	8.07
395.779	8.03
396.143	8.06
396.508	8.19
396.872	8.26
397.236	8.52
397.601	8.23
397.965	8.36
398.329	8.32
398.694	8.59
399.058	8.37
399.422	8.43
399.786	8.51
400.15	8.34
400.514	8.46
400.878	8.45
401.242	8.59
401.605	8.24
401.969	8.6
402.333	8.68
402.697	8.77
403.06	8.73
403.424	8.65
403.787	8.51
404.151	8.95
404.514	8.91
404.878	8.62
405.241	8.6
405.604	8.72
405.968	8.92
406.331	8.72
406.694	8.59
407.057	8.7
407.42	8.86
407.783	8.7
408.146	9.11
408.509	8.83
408.872	9.05
409.235	9.04
409.598	9.08
409.961	9.19
410.323	9.28
410.686	9.25
411.049	8.8
411.411	9
411.774	9.26
412.136	9.22
412.499	9.24
412.861	8.98
413.223	9.16
413.586	9.07
413.948	9.39
414.31	9.18
414.672	9.53
415.035	9.48
415.397	9.32
415.759	9.39
416.121	9.24
416.483	9.27
416.845	9.6
417.206	9.5
417.568	9.49
417.93	9.49
418.292	9.57
418.653	9.6
419.015	9.36
419.377	9.47
419.738	9.41
420.1	9.61
420.461	9.44
420.822	9.38
421.184	9.57
421.545	9.47
421.906	9.45
422.267	9.52
422.629	9.53
422.99	9.43
423.351	9.43
423.712	9.6
424.073	9.64
424.434	9.5
424.795	9.72
425.155	9.73
425.516	9.74
425.877	9.76
426.238	9.71
426.598	9.64
426.959	9.76
427.32	9.82
427.68	9.9
428.041	9.94
428.401	10.01
428.761	10.13
429.122	10.17
429.482	10.35
429.842	10.02
430.202	10.34
430.563	10.28
430.923	10.22
431.283	10.3
431.643	10.51
432.003	10.65
432.363	10.6
432.722	10.38
433.082	10.49
433.442	10.61
433.802	10.51
434.161	10.64
434.521	10.58
434.881	10.63
435.24	10.53
435.6	10.64
435.959	10.61
436.319	10.9
436.678	10.72
437.037	10.86
437.396	10.99
437.756	10.81
438.115	10.95
438.474	10.75
438.833	10.91
439.192	10.94
439.551	11.04
439.91	11.05
440.269	11.05
440.628	11.1
440.987	11.05
441.345	10.95
441.704	10.99
442.063	11
442.421	10.98
442.78	11.15
443.138	11.16
443.497	11.1
443.855	11.16
444.214	11.25
444.572	11.36
444.93	11.26
445.288	11.45
445.647	11.5
446.005	11.39
446.363	11.52
446.721	11.38
447.079	11.49
447.437	11.48
447.795	11.46
448.153	11.32
448.51	11.47
448.868	11.4
449.226	11.51
449.584	11.52
449.941	11.57
450.299	11.57
450.656	11.64
451.014	11.74
451.371	11.88
451.729	11.89
452.086	11.88
452.443	11.82
452.801	12.04
453.158	12.05
453.515	12.03
453.872	11.94
454.229	12.07
454.586	12.11
454.943	12.17
455.3	12.22
455.657	12.27
456.014	12.12
456.371	12.13
456.727	12.31
457.084	12.38
457.441	12.5
457.797	12.35
458.154	12.6
458.51	12.56
458.867	12.45
459.223	12.64
459.58	12.6
459.936	12.61
460.292	12.71
460.648	12.5
461.005	12.5
461.361	12.41
461.717	12.39
462.073	12.48
462.429	12.48
462.785	12.57
463.141	12.76
463.496	12.79
463.852	12.86
464.208	12.72
464.564	12.83
464.919	13.12
465.275	13.05
465.631	13.07
465.986	13.12
466.342	13.16
466.697	13.15
467.052	13.23
467.408	13.22
467.763	13.04
468.118	13.3
468.473	13.24
468.829	13.13
469.184	13.21
469.539	13.12
469.894	13.29
470.249	13.33
470.603	13.37
470.958	13.19
471.313	13.47
471.668	13.49
472.023	13.41
472.377	13.49
472.732	13.56
473.086	13.58
473.441	13.66
473.795	13.71
474.15	13.77
474.504	13.87
474.859	13.81
475.213	13.64
475.567	13.67
475.921	13.74
476.275	14.07
476.63	13.97
476.984	13.78
477.338	14.21
477.692	13.97
478.045	13.98
478.399	13.86
478.753	13.97
479.107	14.11
479.461	14.11
479.814	14.25
480.168	14.09
480.521	14.07
480.875	14.26
481.228	14.32
481.582	14.25
481.935	14.31
482.289	14.24
482.642	14.41
482.995	14.31
483.348	14.2
483.701	14.31
484.055	14.21
484.408	14.17
484.761	14.01
485.114	13.94
485.466	13.62
485.819	13.69
486.172	13.68
486.525	13.77
486.878	13.78
487.23	13.87
487.583	14
487.936	14.21
488.288	14.24
488.641	14.23
488.993	14.17
489.345	14.1
489.698	14.14
490.05	14.21
490.402	14.17
490.754	14.21
491.107	14.35
491.459	14.52
491.811	14.6
492.163	14.79
492.515	14.67
492.866	14.68
493.218	14.61
493.57	14.58
493.922	14.67
494.274	14.55
494.625	14.64
494.977	14.89
495.328	14.98
495.68	15.09
496.031	15.25
496.383	15.32
496.734	15.46
497.086	15.49
497.437	15.64
497.788	15.61
498.139	15.44
498.49	15.45
498.842	15.57
499.193	15.5
499.544	15.49
499.894	15.34
500.245	15.5
500.596	15.68
500.947	15.69
501.298	15.74
501.648	15.75
501.999	16.03
502.35	15.9
502.7	15.92
503.051	16.13
503.401	16.12
503.752	16.03
504.102	16.06
504.452	16.25
504.803	16.2
505.153	16.27
505.503	16.17
505.853	16.18
506.203	16.33
506.553	16.4
506.903	16.37
507.253	16.44
507.603	16.42
507.953	16.33
508.303	16.41
508.652	16.56
509.002	16.53
509.352	16.54
509.701	16.51
510.051	16.55
510.4	16.44
510.75	16.52
511.099	16.49
511.449	16.49
511.798	16.57
512.147	16.77
512.496	16.5
512.846	16.49
513.195	16.69
513.544	16.75
513.893	16.77
514.242	16.72
514.591	16.72
514.939	16.98
515.288	16.88
515.637	16.88
515.986	16.89
516.334	17.04
516.683	16.99
517.032	16.99
517.38	17.13
517.729	17.26
518.077	17.21
518.426	17.31
518.774	17.23
519.122	17.1
519.47	17.15
519.819	16.9
520.167	17.02
520.515	16.97
520.863	16.96
521.211	17.01
521.559	17.15
521.907	17.17
522.255	17.25
522.602	17.31
522.95	17.4
523.298	17.5
523.645	17.65
523.993	17.6
524.341	17.6
524.688	17.72
525.036	17.67
525.383	17.69
525.73	17.76
526.078	17.86
526.425	17.84
526.772	17.75
527.119	17.58
527.466	17.64
527.814	17.56
528.161	17.54
528.508	17.52
528.854	17.62
529.201	17.58
529.548	17.46
529.895	17.41
530.242	17.27
530.588	17.3
530.935	17.3
531.282	17.32
531.628	17.2
531.975	17.43
532.321	17.62
532.667	17.73
533.014	17.91
533.36	17.95
533.706	18.09
534.052	18.12
534.399	18.06
534.745	17.83
535.091	17.89
535.437	17.9
535.783	17.9
536.129	18.05
536.474	18.06
536.82	18.16
537.166	18.31
537.512	18.34
537.857	18.35
538.203	18.37
538.549	18.27
538.894	18.51
539.239	18.55
539.585	18.46
539.93	18.48
540.276	18.74
540.621	18.77
540.966	19
541.311	18.77
541.656	18.95
542.001	18.9
542.346	18.89
542.691	18.84
543.036	18.33
543.381	18.47
543.726	18.58
544.071	18.5
544.415	18.51
544.76	18.69
545.105	18.68
545.449	18.84
545.794	19
546.138	19.04
546.483	19.03
546.827	19.19
547.171	19.35
547.516	19.35
547.86	19.41
548.204	19.59
548.548	19.29
548.892	19.47
549.236	19.41
549.58	19.5
549.924	19.62
550.268	19.82
550.612	19.8
550.956	19.74
551.3	20.02
551.643	19.96
551.987	20.03
552.33	20.18
552.674	20.16
553.017	20.32
553.361	20.33
553.704	20.29
554.048	20.25
554.391	20.28
554.734	20.31
555.077	20.25
555.42	20.32
555.764	20.57
556.107	20.4
556.45	20.5
556.793	20.62
557.135	20.58
557.478	20.61
557.821	20.56
558.164	21.03
558.507	20.67
558.849	20.85
559.192	21.12
559.534	21.06
559.877	20.81
560.219	20.87
560.562	21.05
560.904	21.1
561.246	20.88
561.589	21.18
561.931	20.99
562.273	21.25
562.615	20.83
562.957	21.31
563.299	21.16
563.641	21.2
563.983	21.41
564.325	21.07
564.667	21.47
565.008	21.25
565.35	21.25
565.692	21.39
566.033	21.47
566.375	21.43
566.716	21.56
567.058	21.48
567.399	21.49
567.741	21.54
568.082	21.36
568.423	21.44
568.764	21.36
569.105	21.52
569.447	21.3
569.788	21.55
570.129	21.51
570.47	21.54
570.811	21.95
571.151	21.87
571.492	21.85
571.833	21.81
572.174	22.15
572.514	21.94
572.855	21.69
573.195	22.02
573.536	21.93
573.876	21.91
574.217	21.73
574.557	21.94
574.898	21.87
575.238	21.95
575.578	22.17
575.918	22.14
576.258	22.02
576.598	22.17
576.938	22.24
577.278	22.12
577.618	22.18
577.958	22.4
578.298	22.19
578.638	22.55
578.977	22.47
579.317	22.51
579.657	22.6
579.996	22.56
580.336	22.43
580.675	22.35
581.014	22.43
581.354	22.7
581.693	23.06
582.032	22.99
582.372	22.9
582.711	22.79
583.05	22.99
583.389	22.96
583.728	23.34
584.067	23.36
584.406	22.81
584.745	23.17
585.083	23.01
585.422	23.07
585.761	23.19
586.1	23.09
586.438	23.25
586.777	23.35
587.115	23.23
587.454	23.3
587.792	23.44
588.13	23.72
588.469	23.48
588.807	23.5
589.145	23.73
589.483	23.24
589.821	23.67
590.159	23.45
590.497	23.64
590.835	23.48
591.173	23.61
591.511	23.63
591.849	23.66
592.187	23.66
592.524	23.82
592.862	23.75
593.2	23.76
593.537	23.91
593.875	23.81
594.212	23.9
594.55	23.76
594.887	24.09
595.224	24.07
595.561	23.87
595.899	24.16
596.236	24.29
596.573	23.78
596.91	23.9
597.247	23.91
597.584	24.02
597.921	24.39
598.258	23.97
598.594	23.85
598.931	23.98
599.268	24.07
599.604	24.13
599.941	24.33
600.277	24.05
600.614	24.51
600.95	24.49
601.287	24.39
601.623	24.59
601.959	24.7
602.296	24.74
602.632	24.64
602.968	24.83
603.304	24.93
603.64	24.73
603.976	24.49
604.312	24.89
604.648	24.84
604.984	24.71
605.319	24.55
605.655	24.48
605.991	24.72
606.326	24.77
606.662	24.48
606.998	24.68
607.333	24.79
607.668	24.81
608.004	24.39
608.339	24.8
608.674	25.28
609.01	25.05
609.345	25.08
609.68	25.21
610.015	25.12
610.35	25.09
610.685	24.97
611.02	25.37
611.355	25.27
611.689	25.18
612.024	25.38
612.359	25.3
612.694	25.36
613.028	25.36
613.363	25.72
613.697	25.32
614.032	25.51
614.366	25.66
614.7	25.6
615.035	25.68
615.369	25.85
615.703	25.94
616.037	25.88
616.371	25.97
616.705	26.04
617.039	26.19
617.373	25.87
617.707	26.03
618.041	26.15
618.375	26.15
618.709	26.29
619.042	26.06
619.376	26.03
619.71	26.08
620.043	26.33
620.377	25.94
620.71	26.3
621.043	26.22
621.377	26.15
621.71	26.65
622.043	26.61
622.376	26.43
622.709	26.57
623.043	26.06
623.376	26.85
623.709	26.52
624.041	26.25
624.374	26.17
624.707	26.34
625.04	26.14
625.373	26.73
625.705	26.43
626.038	26.25
626.37	27.08
626.703	26.65
627.035	26.68
627.368	26.75
627.7	26.64
628.032	26.65
628.365	27.26
628.697	26.89
629.029	27.03
629.361	26.85
629.693	26.82
630.025	26.96
630.357	27.07
630.689	27.35
631.021	26.74
631.353	26.7
631.684	27
632.016	27.08
632.348	26.96
632.679	27.16
633.011	27.2
633.342	27.15
633.674	27.39
634.005	27.33
634.336	27.34
634.668	27.84
634.999	27.77
635.33	27.46
635.661	27.69
635.992	27.75
636.323	27.77
636.654	27.16
636.985	27.44
637.316	27.43
637.647	27.33
637.977	27.96
638.308	27.59
638.639	27.85
638.969	27.4
639.3	27.95
639.63	27.85
639.961	27.95
640.291	28.06
640.622	27.74
640.952	27.76
641.282	27.8
641.612	27.9
641.943	27.73
642.273	27.77
642.603	28.31
642.933	28
643.263	28.16
643.592	28.06
643.922	28.78
644.252	28.47
644.582	27.74
644.911	28.31
645.241	28.84
645.571	28.01
645.9	28.42
646.23	28.01
646.559	28.91
646.888	27.97
647.218	28.58
647.547	28.72
647.876	28.59
648.205	28.49
648.534	28.98
648.863	28.37
649.192	28.9
649.521	28.37
649.85	28.81
650.179	28.84
650.508	28.84
650.837	28.73
651.165	28.59
651.494	28.78
651.822	28.85
652.151	29.09
652.479	28.57
652.808	28.64
653.136	28.95
653.465	28.78
653.793	29.45
654.121	28.82
654.449	28.67
654.777	28.78
655.105	28.91
655.433	29.21
655.761	28.7
656.089	29.09
656.417	29.07
656.745	29.1
657.073	29.34
657.4	29.28
657.728	29.3
658.056	28.89
658.383	29.34
658.711	29.42
659.038	28.89
659.365	29.71
659.693	30.03
660.02	28.92
660.347	29.18
660.674	29.33
661.001	29.52
661.329	29.49
661.656	29.81
661.982	29.2
662.309	29.78
662.636	29.36
662.963	29.62
663.29	29.55
663.616	30.06
663.943	30.06
664.27	29.97
664.596	29.61
664.923	29.68
665.249	30.11
665.576	29.89
665.902	29.9
666.228	30.05
666.554	30.49
666.881	29.41
667.207	29.32
667.533	30.02
667.859	30.36
668.185	29.76
668.511	30.09
668.837	29.79
669.162	30.19
669.488	29.57
669.814	30.16
670.139	30.35
670.465	29.88
670.791	30.2
671.116	29.61
671.442	30.12
671.767	30.31
672.092	30.43
672.418	31
672.743	31.28
673.068	31.03
673.393	30.83
673.718	30.58
674.043	30.37
674.368	30.06
674.693	30.53
675.018	30.69
675.343	30.64
675.667	31.02
675.992	30.86
676.317	30.9
