Data from 0044_forehead_Reflection__3__133.txt Node

Date: Fri Nov 04 15:55:27 CDT 2022
User: ToomeyLab
Spectrometer: FLMS14357
Trigger mode: 0
Integration Time (sec): 1.000000E-2
Scans to average: 100
Electric dark correction enabled: true
Nonlinearity correction enabled: false
Boxcar width: 0
XAxis mode: Wavelengths
Number of Pixels in Spectrum: 2048
>>>>>Begin Spectral Data<<<<<
189.047	-449.86
189.435	-449.86
189.823	-449.86
190.211	43.75
190.599	572.24
190.987	-40.97
191.375	184.51
191.763	337.89
192.151	97.37
192.538	282.1
192.926	115.46
193.314	25.6
193.702	92.81
194.089	32.25
194.477	687.3
194.864	-37.73
195.252	203.16
195.639	20.86
196.027	45.95
196.414	134.99
196.801	759.15
197.189	86.26
197.576	-746.81
197.963	-67.72
198.351	-34.87
198.738	34.18
199.125	-37.23
199.512	-42.17
199.899	-15.28
200.286	-30.73
200.673	-12.43
201.06	-18.46
201.447	-61.22
201.833	-34.81
202.22	3.83
202.607	-31.73
202.994	17.44
203.38	3.58
203.767	10.18
204.154	18.7
204.54	-68.22
204.927	-2.91
205.313	20.28
205.699	35.19
206.086	9.49
206.472	-3.59
206.858	-1.94
207.245	33.39
207.631	29.87
208.017	6.23
208.403	12.38
208.789	10.22
209.175	6.99
209.561	-55.61
209.947	-5.07
210.333	-8.99
210.719	-9.18
211.105	-27.2
211.491	-6.91
211.876	5.35
212.262	-12.04
212.648	-26.01
213.034	7.45
213.419	-23.49
213.805	9.59
214.19	-13.64
214.576	-16.96
214.961	13.33
215.346	-5.25
215.732	-3.58
216.117	-5.44
216.502	4.25
216.888	-4.43
217.273	-5.96
217.658	-6.24
218.043	-10.11
218.428	1.35
218.813	-2.26
219.198	18.76
219.583	-17.22
219.968	20.39
220.353	-19.28
220.738	-6.7
221.122	5.79
221.507	21.78
221.892	-33.83
222.276	-8.09
222.661	-3.05
223.046	4.15
223.43	5.31
223.815	-3.07
224.199	12.91
224.583	-1.82
224.968	-7.49
225.352	0.21
225.736	-9.79
226.121	-9.55
226.505	3.56
226.889	-4.7
227.273	-4.13
227.657	-1.69
228.041	-3.88
228.425	-1.25
228.809	2.05
229.193	2.13
229.577	-0.92
229.961	2.36
230.344	2.23
230.728	1.01
231.112	1.39
231.495	1.81
231.879	1.12
232.263	-0.23
232.646	0.94
233.03	0.69
233.413	-0.97
233.797	0.27
234.18	-2.04
234.563	2.6
234.946	1.06
235.33	2.87
235.713	0.23
236.096	0.92
236.479	1.03
236.862	1.08
237.245	1.13
237.628	1.64
238.011	0.28
238.394	3.19
238.777	1.19
239.16	1.38
239.543	0.23
239.925	2.22
240.308	2.99
240.691	0.25
241.073	2.53
241.456	0.62
241.838	0.19
242.221	1.74
242.603	1.8
242.986	1.32
243.368	2.14
243.75	1.34
244.133	1.9
244.515	1.66
244.897	1.68
245.279	1.87
245.661	1.71
246.043	2.63
246.425	2
246.807	1.84
247.189	1.49
247.571	1.8
247.953	1.68
248.335	1.5
248.717	1.9
249.098	1.69
249.48	1.78
249.862	2.03
250.243	1.93
250.625	1.71
251.006	1.82
251.388	1.42
251.769	1.69
252.151	1.59
252.532	2.04
252.913	1.67
253.295	2.7
253.676	1.45
254.057	1.5
254.438	1.67
254.819	2.37
255.2	0.38
255.581	2.52
255.962	2.16
256.343	1.66
256.724	1.42
257.105	0.54
257.486	2.38
257.867	2.24
258.247	1.89
258.628	1.88
259.009	1.55
259.389	2.29
259.77	1.74
260.15	2.13
260.531	1.91
260.911	1.6
261.292	1.84
261.672	1.83
262.052	1.6
262.432	1.73
262.813	1.65
263.193	0.92
263.573	1.67
263.953	1.45
264.333	2.12
264.713	2.19
265.093	1.49
265.473	1.95
265.853	1.1
266.233	1.7
266.612	1.8
266.992	2.4
267.372	0.84
267.752	1.42
268.131	2.16
268.511	1.35
268.89	1.83
269.27	2.05
269.649	2.06
270.029	1.32
270.408	1.34
270.787	1.87
271.167	1.7
271.546	2.5
271.925	2
272.304	1.25
272.683	1.13
273.062	1.84
273.441	2.04
273.82	1.43
274.199	1.78
274.578	1.61
274.957	1.04
275.336	1.25
275.715	1.48
276.093	1.67
276.472	1.64
276.851	1.47
277.229	1.96
277.608	1.61
277.986	1.82
278.365	1.89
278.743	1.93
279.122	0.92
279.5	1.28
279.878	1.1
280.257	1.1
280.635	1.44
281.013	1.24
281.391	1.58
281.769	1.31
282.147	0.86
282.525	1.89
282.903	1.55
283.281	2.11
283.659	1.66
284.037	1.39
284.415	1.62
284.792	1.3
285.17	1.58
285.548	1.72
285.925	1.54
286.303	2.1
286.68	1.86
287.058	1.63
287.435	1.49
287.813	1.5
288.19	1.77
288.567	1.58
288.945	1.69
289.322	1.74
289.699	1.96
290.076	1.8
290.453	1.26
290.83	1.59
291.207	1.92
291.584	1.76
291.961	2.01
292.338	2.13
292.715	2.01
293.092	2.13
293.469	1.68
293.845	1.79
294.222	2.28
294.599	1.86
294.975	1.89
295.352	2.16
295.728	2.32
296.105	2.05
296.481	1.85
296.858	1.77
297.234	2.52
297.61	2.27
297.986	1.88
298.363	2.14
298.739	2.35
299.115	2.45
299.491	2.33
299.867	2.37
300.243	2.42
300.619	2.28
300.995	2.5
301.371	2.66
301.746	2.13
302.122	2.28
302.498	2.63
302.874	2.45
303.249	1.91
303.625	2.31
304	2.55
304.376	2.38
304.751	2.38
305.127	2.02
305.502	2.66
305.878	2.71
306.253	2.8
306.628	2.35
307.003	2.36
307.378	2.7
307.754	2.31
308.129	1.85
308.504	2.13
308.879	2.57
309.254	2.8
309.629	2.63
310.003	2.7
310.378	2.86
310.753	2.57
311.128	2.89
311.502	2.71
311.877	2.69
312.252	2.66
312.626	2.7
313.001	2.66
313.375	2.85
313.75	2.87
314.124	2.59
314.498	2.69
314.873	2.96
315.247	3.32
315.621	3.18
315.995	3.18
316.369	2.7
316.743	3.07
317.117	3.1
317.491	3.19
317.865	2.83
318.239	2.74
318.613	3.52
318.987	3.34
319.361	3.03
319.734	2.85
320.108	3.07
320.482	2.91
320.855	3.57
321.229	3.35
321.602	3.03
321.976	3.18
322.349	3.54
322.723	3.34
323.096	3.65
323.469	2.75
323.843	3.51
324.216	2.9
324.589	3.08
324.962	3.4
325.335	3.36
325.708	2.65
326.081	3.01
326.454	2.95
326.827	3.13
327.2	2.86
327.573	2.87
327.945	3.09
328.318	3.12
328.691	3.34
329.063	2.94
329.436	3.23
329.809	3.51
330.181	3.51
330.553	3.35
330.926	3.61
331.298	3.2
331.671	3.25
332.043	3.25
332.415	3.33
332.787	2.95
333.159	2.94
333.532	2.78
333.904	3.17
334.276	3.44
334.648	3.48
335.02	3
335.391	3.56
335.763	3.45
336.135	3.57
336.507	3.45
336.879	3.43
337.25	3.32
337.622	3.07
337.993	3.12
338.365	3.42
338.736	4.03
339.108	3.97
339.479	3.32
339.851	3.09
340.222	3.5
340.593	3.92
340.964	3.53
341.336	3.51
341.707	3.43
342.078	3.51
342.449	3.58
342.82	3.71
343.191	3.1
343.562	3.66
343.933	3.82
344.303	3.95
344.674	3.47
345.045	3.15
345.416	3.19
345.786	3.87
346.157	3.82
346.527	3.83
346.898	4.17
347.268	3.76
347.639	3.5
348.009	3.95
348.38	3.45
348.75	3.5
349.12	3.32
349.49	3.8
349.861	3.44
350.231	3.73
350.601	3.5
350.971	3.67
351.341	3.62
351.711	3.79
352.081	3.36
352.45	3.9
352.82	3.95
353.19	4.05
353.56	3.82
353.929	3.71
354.299	4
354.669	4.01
355.038	4.18
355.408	3.38
355.777	3.74
356.147	3.63
356.516	3.62
356.885	3.82
357.254	3.63
357.624	3.88
357.993	3.94
358.362	3.69
358.731	3.89
359.1	3.84
359.469	3.62
359.838	3.92
360.207	3.57
360.576	3.83
360.945	4.16
361.314	4.1
361.682	3.65
362.051	3.93
362.42	3.94
362.788	3.78
363.157	3.94
363.525	3.73
363.894	4.06
364.262	3.8
364.631	4.2
364.999	3.81
365.367	3.65
365.735	4.14
366.104	3.77
366.472	4.01
366.84	3.87
367.208	4.02
367.576	3.52
367.944	3.92
368.312	3.73
368.68	4.04
369.048	3.77
369.416	3.84
369.783	3.49
370.151	3.9
370.519	4.42
370.886	4.17
371.254	4.21
371.621	4.03
371.989	3.99
372.356	3.9
372.724	3.85
373.091	4.02
373.458	4.02
373.826	4.18
374.193	3.94
374.56	3.84
374.927	4.09
375.294	3.87
375.661	4.23
376.028	4.01
376.395	4.2
376.762	4.39
377.129	4.11
377.496	4.03
377.863	4.01
378.229	3.68
378.596	3.74
378.963	3.95
379.329	4.05
379.696	4.29
380.062	4.48
380.429	4.43
380.795	4.19
381.161	4.28
381.528	4.59
381.894	4
382.26	4.23
382.626	4
382.993	4.13
383.359	4.2
383.725	4.08
384.091	4.35
384.457	4.23
384.823	4.39
385.188	4.23
385.554	4.22
385.92	4.05
386.286	4.22
386.651	4.39
387.017	4.14
387.383	4.28
387.748	4.07
388.114	3.84
388.479	4.79
388.845	4.32
389.21	4.71
389.575	4.61
389.94	4.38
390.306	4.32
390.671	4.46
391.036	4.16
391.401	4.67
391.766	4.2
392.131	4.29
392.496	4.26
392.861	4.43
393.226	4.24
393.591	4.45
393.956	4.61
394.32	4.31
394.685	4.38
395.05	4.51
395.414	4.41
395.779	4.56
396.143	4.49
396.508	4.44
396.872	4.6
397.236	4.59
397.601	4.51
397.965	4.41
398.329	4.63
398.694	4.85
399.058	4.55
399.422	4.56
399.786	4.54
400.15	4.46
400.514	4.39
400.878	4.49
401.242	4.83
401.605	4.47
401.969	4.68
402.333	4.64
402.697	4.84
403.06	4.92
403.424	4.78
403.787	4.57
404.151	4.61
404.514	4.83
404.878	4.66
405.241	4.7
405.604	4.77
405.968	4.69
406.331	4.53
406.694	4.49
407.057	4.61
407.42	4.62
407.783	4.51
408.146	4.66
408.509	4.85
408.872	4.76
409.235	4.79
409.598	4.83
409.961	4.83
410.323	4.71
410.686	4.75
411.049	4.64
411.411	4.55
411.774	4.81
412.136	4.87
412.499	5.02
412.861	4.68
413.223	5
413.586	4.86
413.948	4.92
414.31	4.81
414.672	4.71
415.035	4.93
415.397	4.85
415.759	5.02
416.121	4.71
416.483	4.72
416.845	5.06
417.206	4.89
417.568	4.98
417.93	4.99
418.292	4.88
418.653	4.96
419.015	4.68
419.377	4.8
419.738	4.79
420.1	4.97
420.461	4.81
420.822	4.83
421.184	4.85
421.545	4.71
421.906	4.92
422.267	4.86
422.629	4.92
422.99	4.76
423.351	4.73
423.712	4.84
424.073	5
424.434	4.84
424.795	4.96
425.155	4.97
425.516	4.89
425.877	4.9
426.238	4.98
426.598	4.92
426.959	4.89
427.32	5.06
427.68	5.02
428.041	4.95
428.401	5
428.761	5.07
429.122	5
429.482	5.25
429.842	4.95
430.202	5.23
430.563	5.1
430.923	5.33
431.283	5.11
431.643	5.29
432.003	5.38
432.363	5.16
432.722	5.25
433.082	5.4
433.442	5.28
433.802	5.04
434.161	5.26
434.521	5.23
434.881	5.2
435.24	5.2
435.6	5.33
435.959	5.27
436.319	5.21
436.678	5.24
437.037	5.27
437.396	5.49
437.756	5.42
438.115	5.18
438.474	5.37
438.833	5.29
439.192	5.33
439.551	5.39
439.91	5.39
440.269	5.51
440.628	5.48
440.987	5.25
441.345	5.38
441.704	5.37
442.063	5.31
442.421	5.36
442.78	5.31
443.138	5.28
443.497	5.38
443.855	5.34
444.214	5.57
444.572	5.36
444.93	5.41
445.288	5.45
445.647	5.25
446.005	5.42
446.363	5.39
446.721	5.49
447.079	5.44
447.437	5.37
447.795	5.46
448.153	5.33
448.51	5.41
448.868	5.39
449.226	5.38
449.584	5.46
449.941	5.52
450.299	5.46
450.656	5.43
451.014	5.64
451.371	5.52
451.729	5.7
452.086	5.54
452.443	5.69
452.801	5.58
453.158	5.88
453.515	5.75
453.872	5.7
454.229	5.7
454.586	5.71
454.943	5.67
455.3	5.72
455.657	5.62
456.014	5.63
456.371	5.79
456.727	5.76
457.084	5.94
457.441	5.78
457.797	5.77
458.154	5.9
458.51	5.91
458.867	5.58
459.223	5.86
459.58	6.05
459.936	5.7
460.292	5.79
460.648	5.8
461.005	5.72
461.361	5.76
461.717	5.73
462.073	5.83
462.429	5.84
462.785	5.78
463.141	5.94
463.496	5.87
463.852	5.9
464.208	5.94
464.564	5.82
464.919	5.98
465.275	6.15
465.631	6.18
465.986	5.97
466.342	5.96
466.697	6.04
467.052	6.03
467.408	6
467.763	5.94
468.118	6.19
468.473	6.16
468.829	6.02
469.184	6.12
469.539	5.95
469.894	6.2
470.249	6.15
470.603	6.18
470.958	5.99
471.313	6.05
471.668	6.13
472.023	6.09
472.377	6.27
472.732	6.14
473.086	6.1
473.441	6.25
473.795	6.23
474.15	6.31
474.504	6.28
474.859	6.28
475.213	6.33
475.567	6.17
475.921	6.18
476.275	6.48
476.63	6.27
476.984	6.23
477.338	6.39
477.692	6.41
478.045	6.25
478.399	6.16
478.753	6.29
479.107	6.26
479.461	6.4
479.814	6.23
480.168	6.33
480.521	6.25
480.875	6.54
481.228	6.42
481.582	6.47
481.935	6.31
482.289	6.41
482.642	6.4
482.995	6.37
483.348	6.27
483.701	6.34
484.055	6.25
484.408	6.31
484.761	6.26
485.114	6.17
485.466	6.04
485.819	5.98
486.172	6
486.525	6.1
486.878	6.24
487.23	6.33
487.583	6.33
487.936	6.41
488.288	6.44
488.641	6.32
488.993	6.19
489.345	6.24
489.698	6.21
490.05	6.26
490.402	6.28
490.754	6.4
491.107	6.53
491.459	6.56
491.811	6.48
492.163	6.6
492.515	6.68
492.866	6.53
493.218	6.32
493.57	6.34
493.922	6.38
494.274	6.41
494.625	6.59
494.977	6.74
495.328	6.8
495.68	6.67
496.031	6.78
496.383	6.83
496.734	6.79
497.086	6.97
497.437	6.99
497.788	6.98
498.139	6.87
498.49	6.8
498.842	6.86
499.193	6.92
499.544	6.88
499.894	6.79
500.245	6.95
500.596	6.94
500.947	6.95
501.298	6.97
501.648	7.05
501.999	7.13
502.35	7.04
502.7	7.1
503.051	7.14
503.401	7.08
503.752	7.2
504.102	7.22
504.452	7.18
504.803	7.24
505.153	7.29
505.503	7.18
505.853	7.35
506.203	7.2
506.553	7.38
506.903	7.23
507.253	7.22
507.603	7.16
507.953	7.24
508.303	7.24
508.652	7.23
509.002	7.36
509.352	7.32
509.701	7.34
510.051	7.26
510.4	7.31
510.75	7.29
511.099	7.31
511.449	7.24
511.798	7.16
512.147	7.46
512.496	7.33
512.846	7.33
513.195	7.37
513.544	7.29
513.893	7.31
514.242	7.45
514.591	7.36
514.939	7.43
515.288	7.5
515.637	7.6
515.986	7.55
516.334	7.59
516.683	7.54
517.032	7.55
517.38	7.76
517.729	7.65
518.077	7.66
518.426	7.69
518.774	7.64
519.122	7.59
519.47	7.61
519.819	7.57
520.167	7.55
520.515	7.39
520.863	7.37
521.211	7.52
521.559	7.68
521.907	7.66
522.255	7.71
522.602	7.76
522.95	7.78
523.298	7.91
523.645	7.86
523.993	7.86
524.341	7.8
524.688	7.9
525.036	7.87
525.383	7.94
525.73	7.93
526.078	7.91
526.425	7.93
526.772	7.69
527.119	7.71
527.466	7.72
527.814	7.64
528.161	7.7
528.508	7.79
528.854	7.8
529.201	7.81
529.548	7.74
529.895	7.58
530.242	7.52
530.588	7.44
530.935	7.52
531.282	7.68
531.628	7.67
531.975	7.84
532.321	7.92
532.667	8.01
533.014	7.94
533.36	8.01
533.706	8.18
534.052	8.13
534.399	8.01
534.745	7.94
535.091	7.84
535.437	7.79
535.783	7.88
536.129	8.05
536.474	8.17
536.82	8.12
537.166	8.24
537.512	8.26
537.857	8.23
538.203	8.08
538.549	8.06
538.894	8.22
539.239	8.31
539.585	8.23
539.93	8.3
540.276	8.47
540.621	8.45
540.966	8.57
541.311	8.49
541.656	8.45
542.001	8.54
542.346	8.37
542.691	8.32
543.036	8.08
543.381	8.16
543.726	8.2
544.071	8.3
544.415	8.34
544.76	8.45
545.105	8.45
545.449	8.55
545.794	8.59
546.138	8.61
546.483	8.63
546.827	8.81
547.171	8.75
547.516	8.76
547.86	8.78
548.204	8.79
548.548	8.66
548.892	8.67
549.236	8.78
549.58	8.86
549.924	8.8
550.268	9.18
550.612	8.95
550.956	8.98
551.3	9.05
551.643	9.12
551.987	9.07
552.33	9.19
552.674	9.04
553.017	9.05
553.361	9.15
553.704	9.21
554.048	9.1
554.391	9.23
554.734	9.26
555.077	9.22
555.42	9.22
555.764	9.48
556.107	9.41
556.45	9.46
556.793	9.31
557.135	9.4
557.478	9.4
557.821	9.44
558.164	9.41
558.507	9.39
558.849	9.62
559.192	9.67
559.534	9.62
559.877	9.63
560.219	9.58
560.562	9.62
560.904	9.61
561.246	9.58
561.589	9.74
561.931	9.67
562.273	9.57
562.615	9.5
562.957	9.73
563.299	9.62
563.641	9.7
563.983	9.72
564.325	9.55
564.667	9.75
565.008	9.78
565.35	9.73
565.692	9.89
566.033	9.98
566.375	9.88
566.716	9.92
567.058	9.66
567.399	9.82
567.741	9.94
568.082	10.04
568.423	9.83
568.764	9.84
569.105	9.87
569.447	9.97
569.788	9.95
570.129	10.21
570.47	10.18
570.811	10.14
571.151	10.1
571.492	10.15
571.833	10.02
572.174	10.22
572.514	10.11
572.855	9.82
573.195	10.05
573.536	10.18
573.876	10.07
574.217	10.13
574.557	10.08
574.898	10.26
575.238	10.13
575.578	10.47
575.918	10.15
576.258	10.26
576.598	10.37
576.938	10.34
577.278	10.27
577.618	10.2
577.958	10.37
578.298	10.53
578.638	10.4
578.977	10.5
579.317	10.61
579.657	10.63
579.996	10.7
580.336	10.52
580.675	10.5
581.014	10.49
581.354	10.68
581.693	10.84
582.032	10.45
582.372	10.79
582.711	10.69
583.05	10.8
583.389	10.7
583.728	10.87
584.067	11.05
584.406	10.6
584.745	11
585.083	10.83
585.422	11.11
585.761	10.96
586.1	10.91
586.438	10.73
586.777	10.95
587.115	10.93
587.454	11.05
587.792	11.14
588.13	11.09
588.469	11.31
588.807	11.15
589.145	11.19
589.483	10.86
589.821	10.94
590.159	11.09
590.497	11.26
590.835	11.26
591.173	11.08
591.511	11.31
591.849	11.4
592.187	11.36
592.524	11.46
592.862	11.23
593.2	11.29
593.537	11.14
593.875	11.31
594.212	11.38
594.55	11.33
594.887	11.48
595.224	11.45
595.561	11.24
595.899	11.33
596.236	11.65
596.573	11.37
596.91	11.61
597.247	11.27
597.584	11.36
597.921	11.64
598.258	11.48
598.594	10.98
598.931	11.51
599.268	11.37
599.604	11.28
599.941	11.54
600.277	11.45
600.614	11.83
600.95	12
601.287	11.51
601.623	11.54
601.959	11.9
602.296	12.06
602.632	11.81
602.968	11.93
603.304	11.83
603.64	12.08
603.976	11.78
604.312	11.97
604.648	11.67
604.984	11.8
605.319	11.74
605.655	11.51
605.991	11.8
606.326	11.65
606.662	11.66
606.998	11.64
607.333	11.66
607.668	11.89
608.004	11.75
608.339	11.87
608.674	12.25
609.01	12.19
609.345	12.22
609.68	12.02
610.015	12.16
610.35	12.26
610.685	12.2
611.02	11.95
611.355	12.03
611.689	12.09
612.024	12.03
612.359	12
612.694	12.06
613.028	12.26
613.363	12.3
613.697	12.19
614.032	12.23
614.366	12.31
614.7	12.07
615.035	12.38
615.369	12.64
615.703	12.57
616.037	12.31
616.371	12.94
616.705	12.57
617.039	12.48
617.373	12.74
617.707	12.55
618.041	12.59
618.375	12.73
618.709	12.91
619.042	12.61
619.376	12.67
619.71	12.5
620.043	12.95
620.377	12.82
620.71	12.74
621.043	12.73
621.377	12.67
621.71	12.76
622.043	13.11
622.376	13.14
622.709	12.97
623.043	12.87
623.376	13.21
623.709	13.01
624.041	12.6
624.374	13.11
624.707	12.72
625.04	13.12
625.373	13.55
625.705	12.86
626.038	12.95
626.37	13.15
626.703	13.25
627.035	13.19
627.368	13.05
627.7	13.38
628.032	13.07
628.365	13.29
628.697	13.05
629.029	13.11
629.361	13.09
629.693	13.11
630.025	13.06
630.357	13.02
630.689	13.17
631.021	13.06
631.353	13.18
631.684	13.15
632.016	13.33
632.348	13.26
632.679	13.5
633.011	13.02
633.342	13.43
633.674	12.99
634.005	13.4
634.336	13.63
634.668	13.59
634.999	13.62
635.33	13.15
635.661	13.55
635.992	13.66
636.323	13.36
636.654	13.21
636.985	13.29
637.316	13.55
637.647	13.42
637.977	13.91
638.308	13.64
638.639	13.59
638.969	13.55
639.3	13.57
639.63	13.54
639.961	13.86
640.291	14.01
640.622	13.8
640.952	13.66
641.282	13.56
641.612	13.82
641.943	13.77
642.273	13.64
642.603	14.01
642.933	13.81
643.263	13.5
643.592	13.94
643.922	14.61
644.252	14.13
644.582	14.28
644.911	14.27
645.241	14.09
645.571	14.08
645.9	14.11
646.23	14.18
646.559	14.4
646.888	14.13
647.218	14.27
647.547	14.38
647.876	14.5
648.205	13.89
648.534	14.41
648.863	14.78
649.192	14.27
649.521	14.04
649.85	14.23
650.179	14.24
650.508	13.97
650.837	14.56
651.165	15.04
651.494	14.26
651.822	13.75
652.151	14.67
652.479	14.01
652.808	13.96
653.136	14.38
653.465	14.27
653.793	14.19
654.121	14.03
654.449	13.67
654.777	14.15
655.105	14.77
655.433	14.59
655.761	14.22
656.089	14.35
656.417	14.22
656.745	14.24
657.073	14.24
657.4	14.78
657.728	14.52
658.056	14.14
658.383	14.45
658.711	14.43
659.038	14.81
659.365	15.07
659.693	15.02
660.02	14.73
660.347	14.66
660.674	14.75
661.001	14.55
661.329	14.4
661.656	14.61
661.982	14.29
662.309	14.67
662.636	14.98
662.963	14.86
663.29	14.76
663.616	15.26
663.943	15.17
664.27	15.13
664.596	15.04
664.923	15.14
665.249	14.96
665.576	15.17
665.902	14.8
666.228	14.73
666.554	16.53
666.881	14.58
667.207	15.29
667.533	15.78
667.859	15.13
668.185	15.58
668.511	15.82
668.837	14.58
669.162	15.5
669.488	14.74
669.814	15.04
670.139	15.29
670.465	15.43
670.791	14.98
671.116	15.45
671.442	15.17
671.767	14.62
672.092	15.52
672.418	15.03
672.743	15.22
673.068	15.66
673.393	15.39
673.718	15.34
674.043	15.32
674.368	15.03
674.693	15.24
675.018	15.02
675.343	15.89
675.667	15.58
675.992	15.54
676.317	15.57
676.641	15.4
676.966	15.11
677.29	15.86
677.615	16.28
677.939	16.06
678.264	15.99
678.588	15.58
678.912	15.92
679.236	15.4
679.56	15.04
679.885	15.78
680.209	15.9
680.532	16.05
680.856	15.73
681.18	15.62
681.504	15.77
681.828	15.55
682.152	15.87
682.475	16.16
682.799	16.17
683.122	15.99
683.446	15.94
683.769	15.54
684.093	16.23
684.416	15.65
