Data from 0044_forehead_Reflection__0__130.txt Node

Date: Fri Nov 04 15:54:52 CDT 2022
User: ToomeyLab
Spectrometer: FLMS14357
Trigger mode: 0
Integration Time (sec): 1.000000E-2
Scans to average: 100
Electric dark correction enabled: true
Nonlinearity correction enabled: false
Boxcar width: 0
XAxis mode: Wavelengths
Number of Pixels in Spectrum: 2048
>>>>>Begin Spectral Data<<<<<
189.047	-15.24
189.435	-15.24
189.823	-15.24
190.211	-127.51
190.599	-275.8
190.987	-44.54
191.375	161.28
191.763	388.38
192.151	122.94
192.538	366.18
192.926	61.67
193.314	-154.1
193.702	28.84
194.089	104.78
194.477	388.58
194.864	109.56
195.252	86.43
195.639	-93.29
196.027	-23.51
196.414	-157.67
196.801	493.53
197.189	-70.03
197.576	-534.12
197.963	87.77
198.351	-39.91
198.738	11.83
199.125	57.52
199.512	-21.56
199.899	-4.36
200.286	15.23
200.673	17.31
201.06	29.51
201.447	-46.07
201.833	54.18
202.22	23.71
202.607	6.26
202.994	35.46
203.38	34.26
203.767	18.57
204.154	38.18
204.54	-61.04
204.927	32.65
205.313	32.56
205.699	40.09
206.086	12.08
206.472	-51.22
206.858	24.34
207.245	26.6
207.631	14.01
208.017	13.6
208.403	17.71
208.789	17.24
209.175	8.49
209.561	-52.5
209.947	-65.96
210.333	26.29
210.719	-7.26
211.105	-51.43
211.491	24.61
211.876	15.28
212.262	-4.38
212.648	-6.58
213.034	26.78
213.419	-2.27
213.805	-31.56
214.19	-81.02
214.576	-8.3
214.961	18.44
215.346	-16.21
215.732	22.59
216.117	-25
216.502	30.12
216.888	-32.22
217.273	13.07
217.658	-3.82
218.043	14.83
218.428	19.52
218.813	-10.43
219.198	-5.74
219.583	-26.04
219.968	26.69
220.353	-24.12
220.738	-23.26
221.122	11.08
221.507	4.16
221.892	-11.28
222.276	-16.72
222.661	0.78
223.046	2.57
223.43	10.54
223.815	-5.06
224.199	0.05
224.583	5.44
224.968	-12.23
225.352	8.02
225.736	-12.13
226.121	-9.49
226.505	-0.13
226.889	2.24
227.273	-0.14
227.657	-1.07
228.041	-0.74
228.425	1.87
228.809	1.78
229.193	4.38
229.577	-1.53
229.961	0.84
230.344	0.72
230.728	1.17
231.112	0.38
231.495	0.45
231.879	1.56
232.263	-0.23
232.646	1.35
233.03	-0.3
233.413	-0.87
233.797	0.84
234.18	0.82
234.563	1.17
234.946	1.48
235.33	1.7
235.713	-0.37
236.096	1.04
236.479	1.25
236.862	-1.13
237.245	-0.72
237.628	1.59
238.011	-2.08
238.394	2.52
238.777	0.64
239.16	0.1
239.543	0.2
239.925	1.03
240.308	2.27
240.691	0.65
241.073	0.72
241.456	1.38
241.838	1.04
242.221	0.59
242.603	1.39
242.986	0.3
243.368	0.31
243.75	0.95
244.133	1.16
244.515	1.04
244.897	0.85
245.279	0.76
245.661	1.38
246.043	0.8
246.425	0.68
246.807	1.39
247.189	0.31
247.571	1.38
247.953	0.91
248.335	0.71
248.717	0.94
249.098	0.78
249.48	0.81
249.862	1.11
250.243	0.65
250.625	0.72
251.006	0.62
251.388	1.14
251.769	1.57
252.151	1.09
252.532	0.72
252.913	0.59
253.295	1.08
253.676	0.78
254.057	0.62
254.438	1.04
254.819	0.47
255.2	0.65
255.581	1.19
255.962	1.26
256.343	0.58
256.724	0.98
257.105	0.5
257.486	1.56
257.867	1.87
258.247	1.39
258.628	0.6
259.009	0.88
259.389	0.93
259.77	0.88
260.15	0.65
260.531	1.18
260.911	0.75
261.292	0.63
261.672	0.74
262.052	1.06
262.432	0.92
262.813	0.38
263.193	0.53
263.573	1.22
263.953	0.6
264.333	1.12
264.713	1.58
265.093	0.87
265.473	0.94
265.853	0.63
266.233	1.24
266.612	1.35
266.992	1.39
267.372	-0.35
267.752	1.17
268.131	1.11
268.511	1.11
268.89	0.85
269.27	0.93
269.649	0.75
270.029	0.76
270.408	1.27
270.787	0.72
271.167	1.13
271.546	1.94
271.925	0.91
272.304	0.83
272.683	0.88
273.062	0.67
273.441	0.88
273.82	0.57
274.199	0.97
274.578	0.65
274.957	0.67
275.336	0.96
275.715	1.09
276.093	1.12
276.472	0.55
276.851	0.47
277.229	0.72
277.608	0.77
277.986	1.21
278.365	1.16
278.743	0.89
279.122	0.58
279.5	0.93
279.878	0.67
280.257	0.73
280.635	0.74
281.013	0.8
281.391	1.32
281.769	0.78
282.147	0.25
282.525	1.61
282.903	0.87
283.281	1.31
283.659	0.75
284.037	0.78
284.415	0.92
284.792	0.92
285.17	0.81
285.548	1.25
285.925	0.86
286.303	1.34
286.68	1.29
287.058	0.8
287.435	0.93
287.813	1.04
288.19	0.92
288.567	0.66
288.945	1.07
289.322	1.17
289.699	1.05
290.076	1.36
290.453	0.68
290.83	1.07
291.207	0.49
291.584	1.04
291.961	1.24
292.338	1.06
292.715	1.03
293.092	1.26
293.469	1.06
293.845	1.01
294.222	1.44
294.599	0.65
294.975	0.81
295.352	0.99
295.728	1.02
296.105	1.01
296.481	1.29
296.858	1.05
297.234	1.33
297.61	1.34
297.986	1.14
298.363	0.78
298.739	1.3
299.115	1.52
299.491	1.07
299.867	1.11
300.243	1.21
300.619	1.2
300.995	1.49
301.371	1.67
301.746	1.16
302.122	1.46
302.498	1.52
302.874	1.58
303.249	1.25
303.625	1.21
304	1.39
304.376	1.14
304.751	1.28
305.127	1.1
305.502	1.17
305.878	1.15
306.253	1.69
306.628	1.37
307.003	1.24
307.378	1.77
307.754	1.13
308.129	1.1
308.504	1.47
308.879	1.67
309.254	1.77
309.629	1.4
310.003	1.34
310.378	1.52
310.753	1.5
311.128	1.36
311.502	1.19
311.877	1.6
312.252	1.21
312.626	1.75
313.001	1.63
313.375	1.48
313.75	1.67
314.124	1.24
314.498	1.55
314.873	1.74
315.247	1.92
315.621	1.55
315.995	2.01
316.369	1.48
316.743	1.89
317.117	1.85
317.491	1.8
317.865	1.72
318.239	1.87
318.613	2.26
318.987	1.91
319.361	2.08
319.734	2.06
320.108	1.47
320.482	1.21
320.855	2.07
321.229	1.58
321.602	1.79
321.976	1.68
322.349	2.05
322.723	1.84
323.096	2.09
323.469	1.94
323.843	2.3
324.216	1.99
324.589	1.88
324.962	1.96
325.335	1.79
325.708	1.73
326.081	1.66
326.454	1.99
326.827	1.75
327.2	1.97
327.573	1.93
327.945	2.16
328.318	1.37
328.691	2.01
329.063	2.05
329.436	2.36
329.809	1.74
330.181	2.06
330.553	2.21
330.926	2.05
331.298	2.21
331.671	2.18
332.043	2.16
332.415	1.88
332.787	1.75
333.159	2.15
333.532	1.8
333.904	2.4
334.276	2.3
334.648	2.5
335.02	1.72
335.391	2.17
335.763	2.04
336.135	1.75
336.507	2.25
336.879	2.1
337.25	2.21
337.622	2.56
337.993	2.22
338.365	2.11
338.736	2.52
339.108	2.47
339.479	2.25
339.851	1.82
340.222	2.4
340.593	2.53
340.964	2.36
341.336	1.71
341.707	1.7
342.078	2.47
342.449	2.69
342.82	2.38
343.191	2.17
343.562	2.49
343.933	2.12
344.303	2
344.674	2.46
345.045	2.16
345.416	2.18
345.786	2.7
346.157	2.59
346.527	2.73
346.898	2.86
347.268	2.09
347.639	2.34
348.009	2.63
348.38	2.62
348.75	2.3
349.12	2.19
349.49	2.4
349.861	2.21
350.231	2.73
350.601	2.68
350.971	2.58
351.341	2.76
351.711	2.49
352.081	2.65
352.45	2.56
352.82	2.79
353.19	2.88
353.56	2.9
353.929	2.98
354.299	2.96
354.669	2.85
355.038	3
355.408	2.71
355.777	2.83
356.147	2.36
356.516	2.57
356.885	2.74
357.254	2.92
357.624	2.96
357.993	2.64
358.362	2.55
358.731	3.03
359.1	3.03
359.469	2.87
359.838	2.81
360.207	2.47
360.576	3.12
360.945	3.11
361.314	3.45
361.682	3.04
362.051	2.79
362.42	3.03
362.788	3.08
363.157	2.9
363.525	2.84
363.894	2.97
364.262	3.16
364.631	3.2
364.999	3.13
365.367	3
365.735	3.24
366.104	2.9
366.472	3.32
366.84	2.87
367.208	3.07
367.576	3.07
367.944	3.49
368.312	3.27
368.68	2.92
369.048	2.81
369.416	3.13
369.783	2.96
370.151	3
370.519	3.76
370.886	3.26
371.254	3.46
371.621	3.09
371.989	3.1
372.356	3.36
372.724	3.21
373.091	3.33
373.458	3.31
373.826	3.41
374.193	3.09
374.56	3.09
374.927	3.74
375.294	3.4
375.661	3.68
376.028	3.27
376.395	3.85
376.762	3.54
377.129	3.38
377.496	3.5
377.863	3.45
378.229	3.48
378.596	3.49
378.963	3.64
379.329	3.45
379.696	3.41
380.062	3.91
380.429	3.46
380.795	3.67
381.161	3.58
381.528	3.95
381.894	3.41
382.26	3.46
382.626	3.62
382.993	3.8
383.359	3.62
383.725	3.45
384.091	3.9
384.457	3.75
384.823	3.85
385.188	3.74
385.554	3.67
385.92	3.71
386.286	4.01
386.651	3.73
387.017	3.75
387.383	3.89
387.748	3.86
388.114	3.52
388.479	4.36
388.845	4.22
389.21	4.16
389.575	4.1
389.94	4.11
390.306	4.03
390.671	3.92
391.036	3.83
391.401	4.26
391.766	3.93
392.131	3.99
392.496	4.08
392.861	4.19
393.226	3.87
393.591	4.22
393.956	4.3
394.32	4.12
394.685	4.25
395.05	4.42
395.414	4.32
395.779	4.14
396.143	4.12
396.508	4.34
396.872	4.26
397.236	4.23
397.601	4.08
397.965	4.49
398.329	4.58
398.694	4.24
399.058	4.43
399.422	4.33
399.786	4.27
400.15	4.37
400.514	4.24
400.878	4.59
401.242	4.67
401.605	4.47
401.969	4.64
402.333	4.46
402.697	4.66
403.06	4.65
403.424	4.46
403.787	4.59
404.151	4.68
404.514	4.61
404.878	4.79
405.241	4.6
405.604	4.66
405.968	4.65
406.331	4.52
406.694	4.51
407.057	4.79
407.42	4.69
407.783	4.5
408.146	4.83
408.509	4.8
408.872	4.84
409.235	4.69
409.598	4.83
409.961	4.91
410.323	4.75
410.686	4.78
411.049	4.83
411.411	4.7
411.774	4.93
412.136	5.01
412.499	5.11
412.861	4.89
413.223	4.86
413.586	4.86
413.948	5.12
414.31	4.86
414.672	5.09
415.035	5.21
415.397	4.87
415.759	5.27
416.121	4.88
416.483	4.86
416.845	5.02
417.206	4.96
417.568	5.13
417.93	4.98
418.292	5.07
418.653	5.05
419.015	4.96
419.377	5.06
419.738	5.05
420.1	5.12
420.461	5.21
420.822	5.09
421.184	5.15
421.545	5.01
421.906	5.19
422.267	4.95
422.629	5.17
422.99	4.94
423.351	4.99
423.712	5.13
424.073	5.31
424.434	5.13
424.795	5.35
425.155	5.36
425.516	5.32
425.877	5.26
426.238	5.23
426.598	5.16
426.959	5.19
427.32	5.18
427.68	5.3
428.041	5.27
428.401	5.48
428.761	5.51
429.122	5.42
429.482	5.53
429.842	5.29
430.202	5.7
430.563	5.53
430.923	5.7
431.283	5.44
431.643	5.81
432.003	5.95
432.363	5.75
432.722	5.68
433.082	5.68
433.442	5.74
433.802	5.61
434.161	5.73
434.521	5.75
434.881	5.78
435.24	5.68
435.6	5.72
435.959	5.73
436.319	5.83
436.678	5.8
437.037	5.92
437.396	5.95
437.756	5.98
438.115	5.67
438.474	5.96
438.833	6.03
439.192	6.01
439.551	5.86
439.91	6.06
440.269	5.99
440.628	6.08
440.987	6.03
441.345	6.04
441.704	5.93
442.063	6
442.421	5.99
442.78	5.99
443.138	5.98
443.497	6.06
443.855	6.07
444.214	6.24
444.572	6.2
444.93	6.17
445.288	6.19
445.647	6.11
446.005	6.32
446.363	6.15
446.721	6.11
447.079	6.15
447.437	6.19
447.795	6.07
448.153	6.11
448.51	6.16
448.868	6.22
449.226	6.13
449.584	6.28
449.941	6.24
450.299	6.21
450.656	6.27
451.014	6.42
451.371	6.55
451.729	6.48
452.086	6.39
452.443	6.5
452.801	6.72
453.158	6.7
453.515	6.77
453.872	6.62
454.229	6.67
454.586	6.51
454.943	6.72
455.3	6.55
455.657	6.52
456.014	6.68
456.371	6.63
456.727	6.79
457.084	6.81
457.441	6.82
457.797	6.86
458.154	6.86
458.51	6.89
458.867	6.71
459.223	6.96
459.58	6.97
459.936	6.84
460.292	6.83
460.648	6.93
461.005	6.77
461.361	6.7
461.717	6.77
462.073	6.85
462.429	6.85
462.785	6.92
463.141	6.94
463.496	6.9
463.852	7.08
464.208	7.19
464.564	7.02
464.919	7.34
465.275	7.07
465.631	7.32
465.986	7.38
466.342	7.05
466.697	7.29
467.052	7.16
467.408	7.08
467.763	7.2
468.118	7.46
468.473	7.34
468.829	7.19
469.184	7.25
469.539	7.36
469.894	7.33
470.249	7.45
470.603	7.44
470.958	7.45
471.313	7.27
471.668	7.36
472.023	7.41
472.377	7.56
472.732	7.46
473.086	7.54
473.441	7.46
473.795	7.59
474.15	7.73
474.504	7.43
474.859	7.52
475.213	7.55
475.567	7.63
475.921	7.56
476.275	7.86
476.63	7.68
476.984	7.68
477.338	7.92
477.692	7.75
478.045	7.78
478.399	7.79
478.753	7.84
479.107	7.85
479.461	7.9
479.814	7.96
480.168	7.92
480.521	7.79
480.875	7.87
481.228	8.08
481.582	8.06
481.935	7.97
482.289	7.83
482.642	8.01
482.995	8.03
483.348	7.97
483.701	7.89
484.055	7.83
484.408	7.88
484.761	7.85
485.114	7.65
485.466	7.48
485.819	7.44
486.172	7.47
486.525	7.56
486.878	7.72
487.23	7.78
487.583	7.84
487.936	7.96
488.288	8
488.641	7.9
488.993	7.85
489.345	7.78
489.698	7.77
490.05	7.81
490.402	7.83
490.754	8.02
491.107	8.03
491.459	8.18
491.811	8.28
492.163	8.3
492.515	8.24
492.866	8.23
493.218	8.05
493.57	7.92
493.922	8.1
494.274	8.1
494.625	8.32
494.977	8.33
495.328	8.46
495.68	8.49
496.031	8.68
496.383	8.69
496.734	8.69
497.086	8.82
497.437	8.85
497.788	8.77
498.139	8.73
498.49	8.67
498.842	8.7
499.193	8.61
499.544	8.72
499.894	8.77
500.245	8.87
500.596	8.76
500.947	8.81
501.298	8.95
501.648	8.9
501.999	9.02
502.35	9.01
502.7	9.07
503.051	9.08
503.401	9.13
503.752	9.21
504.102	9.11
504.452	9.26
504.803	9.22
505.153	9.12
505.503	9.16
505.853	9.21
506.203	9.21
506.553	9.37
506.903	9.4
507.253	9.23
507.603	9.29
507.953	9.32
508.303	9.45
508.652	9.37
509.002	9.47
509.352	9.49
509.701	9.4
510.051	9.42
510.4	9.42
510.75	9.37
511.099	9.43
511.449	9.35
511.798	9.5
512.147	9.5
512.496	9.47
512.846	9.32
513.195	9.49
513.544	9.43
513.893	9.68
514.242	9.63
514.591	9.61
514.939	9.75
515.288	9.67
515.637	9.64
515.986	9.68
516.334	9.81
516.683	9.87
517.032	9.91
517.38	9.88
517.729	9.98
518.077	9.99
518.426	9.86
518.774	9.97
519.122	9.92
519.47	9.84
519.819	9.85
520.167	9.88
520.515	9.69
520.863	9.75
521.211	9.88
521.559	9.92
521.907	9.93
522.255	10.11
522.602	10.12
522.95	10.02
523.298	10.12
523.645	10.2
523.993	10.16
524.341	10.24
524.688	10.24
525.036	10.38
525.383	10.3
525.73	10.29
526.078	10.29
526.425	10.33
526.772	10.24
527.119	10.22
527.466	10.21
527.814	10.11
528.161	10.13
528.508	10.13
528.854	10.2
529.201	10.27
529.548	10.19
529.895	10.03
530.242	9.9
530.588	9.83
530.935	9.94
531.282	9.96
531.628	10.02
531.975	10.26
532.321	10.41
532.667	10.33
533.014	10.53
533.36	10.53
533.706	10.71
534.052	10.65
534.399	10.55
534.745	10.5
535.091	10.29
535.437	10.33
535.783	10.4
536.129	10.6
536.474	10.66
536.82	10.71
537.166	10.87
537.512	10.88
537.857	10.83
538.203	10.75
538.549	10.71
538.894	10.82
539.239	10.91
539.585	10.96
539.93	10.93
540.276	11.13
540.621	10.99
540.966	11.32
541.311	11.11
541.656	11.33
542.001	11.25
542.346	10.99
542.691	10.96
543.036	10.73
543.381	10.77
543.726	10.79
544.071	10.88
544.415	10.97
544.76	10.99
545.105	11.09
545.449	11.26
545.794	11.25
546.138	11.33
546.483	11.41
546.827	11.48
547.171	11.6
547.516	11.45
547.86	11.57
548.204	11.54
548.548	11.49
548.892	11.47
549.236	11.51
549.58	11.53
549.924	11.79
550.268	11.83
550.612	11.94
550.956	11.88
551.3	11.97
551.643	11.92
551.987	11.95
552.33	12.07
552.674	12.06
553.017	12.2
553.361	12.29
553.704	12.15
554.048	12.12
554.391	11.94
554.734	12.07
555.077	12.2
555.42	12.14
555.764	12.39
556.107	12.31
556.45	12.46
556.793	12.41
557.135	12.39
557.478	12.25
557.821	12.4
558.164	12.28
558.507	12.52
558.849	12.55
559.192	12.65
559.534	12.54
559.877	12.52
560.219	12.73
560.562	12.78
560.904	12.7
561.246	12.87
561.589	12.85
561.931	12.57
562.273	12.81
562.615	12.52
562.957	12.83
563.299	12.81
563.641	12.93
563.983	12.87
564.325	12.83
564.667	12.89
565.008	12.91
565.35	12.86
565.692	13.22
566.033	13.12
566.375	13.04
566.716	13.01
567.058	13
567.399	12.92
567.741	13.09
568.082	13.18
568.423	13.06
568.764	13.04
569.105	13.08
569.447	13.14
569.788	13.25
570.129	13.25
570.47	13.39
570.811	13.38
571.151	13.31
571.492	13.53
571.833	13.26
572.174	13.48
572.514	13.49
572.855	13.12
573.195	13.32
573.536	13.19
573.876	13.42
574.217	13.31
574.557	13.19
574.898	13.4
575.238	13.41
575.578	13.72
575.918	13.47
576.258	13.61
576.598	13.54
576.938	13.68
577.278	13.58
577.618	13.5
577.958	13.64
578.298	13.9
578.638	13.84
578.977	13.76
579.317	13.74
579.657	13.93
579.996	13.98
580.336	13.86
580.675	13.98
581.014	14.01
581.354	14.08
581.693	14.31
582.032	14.13
582.372	14.21
582.711	14.25
583.05	14.2
583.389	14.22
583.728	14.43
584.067	14.49
584.406	14.23
584.745	14.44
585.083	14.31
585.422	14.53
585.761	14.57
586.1	14.43
586.438	14.4
586.777	14.45
587.115	14.31
587.454	14.62
587.792	14.49
588.13	14.57
588.469	14.6
588.807	15.02
589.145	14.75
589.483	14.66
589.821	14.43
590.159	14.52
590.497	15.17
590.835	14.79
591.173	14.55
591.511	14.83
591.849	14.95
592.187	14.91
592.524	14.75
592.862	14.92
593.2	14.88
593.537	14.78
593.875	14.94
594.212	15.15
594.55	14.95
594.887	15.08
595.224	15.05
595.561	14.97
595.899	15.3
596.236	15.17
596.573	14.97
596.91	15.23
597.247	15.09
597.584	15.1
597.921	15.29
598.258	14.98
598.594	14.71
598.931	15.05
599.268	15.09
599.604	15.17
599.941	15.11
600.277	15.03
600.614	15.46
600.95	15.32
601.287	15.41
601.623	15.48
601.959	15.78
602.296	15.83
602.632	15.63
602.968	15.44
603.304	15.56
603.64	15.74
603.976	15.13
604.312	15.58
604.648	15.43
604.984	15.76
605.319	15.51
605.655	15.47
605.991	15.51
606.326	15.73
606.662	15.32
606.998	15.28
607.333	15.43
607.668	15.74
608.004	15.64
608.339	15.93
608.674	15.95
609.01	16.06
609.345	16.18
609.68	15.92
610.015	16.29
610.35	15.82
610.685	16.11
611.02	15.82
611.355	15.89
611.689	16.06
612.024	15.96
612.359	15.83
612.694	16.2
613.028	16.26
613.363	16.51
613.697	16.06
614.032	16.07
614.366	16.56
614.7	16.09
615.035	16.49
615.369	16.4
615.703	16.79
616.037	16.43
616.371	16.42
616.705	16.56
617.039	16.61
617.373	16.59
617.707	16.81
618.041	16.59
618.375	16.48
618.709	17.01
619.042	16.6
619.376	16.8
619.71	16.82
620.043	16.72
620.377	17.11
620.71	17
621.043	16.68
621.377	17
621.71	16.91
622.043	16.97
622.376	16.88
622.709	17.14
623.043	16.89
623.376	17.34
623.709	16.85
624.041	17.07
624.374	17.17
624.707	16.99
625.04	17.15
625.373	17.55
625.705	17.03
626.038	17.17
626.37	17.23
626.703	17.35
627.035	16.99
627.368	17.26
627.7	17.35
628.032	17.22
628.365	17.57
628.697	17.04
629.029	17.13
629.361	17.3
629.693	17.2
630.025	17.38
630.357	17.38
630.689	17.42
631.021	17.54
631.353	17.32
631.684	17.64
632.016	17.45
632.348	17.42
632.679	17.34
633.011	17.78
633.342	17.71
633.674	17.43
634.005	17.99
634.336	17.81
634.668	17.87
634.999	17.35
635.33	17.29
635.661	17.48
635.992	17.79
636.323	17.64
636.654	17.22
636.985	18.12
637.316	17.66
637.647	17.72
637.977	18.11
638.308	17.83
638.639	18.19
638.969	18.09
639.3	18.2
639.63	18.27
639.961	18.39
640.291	18.39
640.622	18.1
640.952	18.41
641.282	18.12
641.612	18.56
641.943	17.92
642.273	18.42
642.603	18.22
642.933	18.39
643.263	17.73
643.592	18.18
643.922	18.92
644.252	18.81
644.582	18.49
644.911	18.13
645.241	19.02
645.571	18.3
645.9	19.14
646.23	18.69
646.559	19.05
646.888	18.47
647.218	19.1
647.547	18.49
647.876	18.4
648.205	18.31
648.534	19.16
648.863	19.1
649.192	18.68
649.521	18.41
649.85	19.19
650.179	18.99
650.508	18.49
650.837	18.72
651.165	19.03
651.494	19.12
651.822	18.65
652.151	19.02
652.479	18.9
652.808	18.45
653.136	19
653.465	18.94
653.793	19.42
654.121	19.23
654.449	18.26
654.777	18.67
655.105	19.08
655.433	19.28
655.761	19.02
656.089	19.09
656.417	19.34
656.745	19.26
657.073	18.92
657.4	19.1
657.728	19.26
658.056	19.01
658.383	19.13
658.711	19.68
659.038	19.41
659.365	19.61
659.693	19.87
660.02	19.34
660.347	19.26
660.674	19.17
661.001	18.72
661.329	19.11
661.656	19.45
661.982	18.74
662.309	19.06
662.636	19.56
662.963	19.55
663.29	18.93
663.616	19.42
663.943	19.73
664.27	19.22
664.596	19.18
664.923	19.82
665.249	19.2
665.576	19.51
665.902	19.18
666.228	19.21
666.554	20.35
666.881	19.85
667.207	19.97
667.533	19.98
667.859	20.55
668.185	19.92
668.511	19.66
668.837	19.67
669.162	20.48
669.488	19.87
669.814	19.62
670.139	19.36
670.465	19.89
670.791	19.92
671.116	19.54
671.442	19.95
671.767	20.04
672.092	19.98
672.418	19.86
672.743	20.59
673.068	20.63
673.393	20.32
673.718	20.16
674.043	20.27
674.368	19.43
674.693	19.47
675.018	20.04
675.343	20.42
675.667	20.18
675.992	20.82
676.317	20.61
676.641	20.69
676.966	20.28
677.29	20.14
677.615	20.95
677.939	20.34
678.264	20.35
678.588	20.74
678.912	21.34
679.236	19.99
679.56	20.38
679.885	20.43
680.209	20.98
680.532	20.31
