Data from 0044_crown_Reflection__0__125.txt Node

Date: Fri Nov 04 15:52:28 CDT 2022
User: ToomeyLab
Spectrometer: FLMS14357
Trigger mode: 0
Integration Time (sec): 1.000000E-2
Scans to average: 100
Electric dark correction enabled: true
Nonlinearity correction enabled: false
Boxcar width: 0
XAxis mode: Wavelengths
Number of Pixels in Spectrum: 2048
>>>>>Begin Spectral Data<<<<<
189.047	352.91
189.435	352.91
189.823	352.91
190.211	94.73
190.599	-321
190.987	20.7
191.375	-12.69
191.763	233.88
192.151	92.5
192.538	-900.9
192.926	-53.28
193.314	155.79
193.702	149.66
194.089	245.79
194.477	6.19
194.864	32.75
195.252	76.64
195.639	-149.55
196.027	67.18
196.414	232.68
196.801	203.4
197.189	-101.13
197.576	-292.04
197.963	22.17
198.351	-6.48
198.738	26.27
199.125	-17.42
199.512	-59.46
199.899	19.71
200.286	-57.97
200.673	2.35
201.06	-30.33
201.447	-39.36
201.833	-13.15
202.22	-14.44
202.607	22.85
202.994	21.13
203.38	36.49
203.767	-11.92
204.154	20.43
204.54	-21.31
204.927	-3.6
205.313	10
205.699	33.36
206.086	27.58
206.472	-35.57
206.858	-25.38
207.245	-5.5
207.631	33.43
208.017	-2.34
208.403	26.93
208.789	16.09
209.175	-18.71
209.561	9.62
209.947	-11.48
210.333	4.4
210.719	-19.27
211.105	-67.26
211.491	24.47
211.876	5.43
212.262	-34.79
212.648	-30.91
213.034	-3.1
213.419	-8.64
213.805	-31.88
214.19	-70.3
214.576	-11.79
214.961	35.45
215.346	-8.27
215.732	13.65
216.117	-22.25
216.502	1
216.888	-6.68
217.273	-5.28
217.658	-1.06
218.043	-2.63
218.428	17.94
218.813	-9.12
219.198	7.07
219.583	-67.16
219.968	36.69
220.353	-40.29
220.738	-14.72
221.122	7.37
221.507	-3.47
221.892	-8.64
222.276	-9.96
222.661	17.71
223.046	6.27
223.43	1.22
223.815	-0.66
224.199	3.95
224.583	9.34
224.968	-0.02
225.352	1.05
225.736	-6.76
226.121	-2.26
226.505	5.08
226.889	1.72
227.273	1.32
227.657	0.04
228.041	2.92
228.425	2.96
228.809	5.92
229.193	2.96
229.577	1.28
229.961	3.11
230.344	3.77
230.728	3.24
231.112	3
231.495	3.15
231.879	3.67
232.263	3.04
232.646	2.25
233.03	0.8
233.413	1.31
233.797	2.58
234.18	3
234.563	2.71
234.946	0.88
235.33	3.75
235.713	1.85
236.096	3.08
236.479	2.02
236.862	1.78
237.245	2.73
237.628	3.28
238.011	1.72
238.394	2.95
238.777	4.78
239.16	2.4
239.543	1.91
239.925	3.02
240.308	2.96
240.691	1.77
241.073	2.18
241.456	3.09
241.838	2.27
242.221	1.9
242.603	2.68
242.986	1.94
243.368	2.75
243.75	3.42
244.133	3.03
244.515	3.06
244.897	3.02
245.279	2.51
245.661	3.35
246.043	3.09
246.425	2.38
246.807	3
247.189	2.22
247.571	3.52
247.953	2.83
248.335	2.48
248.717	2.7
249.098	2.85
249.48	2.62
249.862	2.74
250.243	2.81
250.625	2.6
251.006	2.67
251.388	2.86
251.769	3.32
252.151	3.08
252.532	2.77
252.913	2.51
253.295	2.62
253.676	2.7
254.057	2.61
254.438	2.48
254.819	2.54
255.2	1.55
255.581	2.35
255.962	2.77
256.343	2.72
256.724	3
257.105	1.23
257.486	3.7
257.867	4.05
258.247	2.63
258.628	2.39
259.009	1.98
259.389	2.41
259.77	2.72
260.15	2.66
260.531	2.42
260.911	2.13
261.292	2.41
261.672	2.38
262.052	2.42
262.432	2.41
262.813	2.6
263.193	1.96
263.573	2.37
263.953	2.22
264.333	2.52
264.713	2.61
265.093	2.33
265.473	3.02
265.853	1.49
266.233	2.35
266.612	2.91
266.992	3.76
267.372	1.63
267.752	2.66
268.131	2.22
268.511	2.99
268.89	2.88
269.27	2.76
269.649	2.45
270.029	2.67
270.408	2.35
270.787	2.89
271.167	2.49
271.546	2.82
271.925	2.17
272.304	2.41
272.683	2.2
273.062	2.39
273.441	2.44
273.82	2.24
274.199	2.56
274.578	2.07
274.957	2.24
275.336	1.98
275.715	1.99
276.093	2.42
276.472	1.96
276.851	1.52
277.229	2.2
277.608	2.3
277.986	2.39
278.365	2.14
278.743	2.69
279.122	2.31
279.5	2.3
279.878	2.57
280.257	2.18
280.635	1.77
281.013	2.14
281.391	2.21
281.769	2.1
282.147	2.08
282.525	2.63
282.903	2.65
283.281	2.81
283.659	2.05
284.037	1.76
284.415	2.3
284.792	2.41
285.17	1.78
285.548	2.49
285.925	2.13
286.303	2.61
286.68	2.54
287.058	2.2
287.435	2.33
287.813	2.11
288.19	2.38
288.567	1.98
288.945	2.26
289.322	2.36
289.699	2.48
290.076	2.56
290.453	2.14
290.83	2.05
291.207	1.94
291.584	2.18
291.961	2.29
292.338	2.33
292.715	2.36
293.092	2.43
293.469	2.3
293.845	1.95
294.222	1.78
294.599	1.77
294.975	1.88
295.352	1.9
295.728	2.25
296.105	1.93
296.481	2.01
296.858	2.18
297.234	2.52
297.61	2.58
297.986	2.2
298.363	1.96
298.739	2.1
299.115	2.2
299.491	2.14
299.867	2.24
300.243	2.11
300.619	2.27
300.995	2.41
301.371	2.12
301.746	2.17
302.122	2
302.498	1.98
302.874	2.67
303.249	1.9
303.625	1.82
304	2.51
304.376	2.02
304.751	2.07
305.127	1.9
305.502	2.43
305.878	2.53
306.253	2.41
306.628	1.75
307.003	2.03
307.378	2.27
307.754	1.61
308.129	1.76
308.504	1.83
308.879	2.61
309.254	2.13
309.629	2.19
310.003	1.79
310.378	2.43
310.753	2.45
311.128	2.05
311.502	1.89
311.877	1.72
312.252	1.82
312.626	1.96
313.001	2.03
313.375	2.05
313.75	2.17
314.124	2.06
314.498	1.9
314.873	2.07
315.247	2.57
315.621	2.12
315.995	2.32
316.369	2.2
316.743	2.43
317.117	2.36
317.491	2.48
317.865	1.89
318.239	2.09
318.613	2.44
318.987	2.24
319.361	2.21
319.734	2.23
320.108	2.42
320.482	1.14
320.855	2.03
321.229	2.05
321.602	1.84
321.976	2.02
322.349	2.82
322.723	2.16
323.096	2.09
323.469	1.88
323.843	2.15
324.216	1.87
324.589	2.46
324.962	2.12
325.335	2.67
325.708	1.95
326.081	2.03
326.454	1.87
326.827	1.79
327.2	1.98
327.573	1.66
327.945	2.36
328.318	2.23
328.691	2.23
329.063	2.46
329.436	2.33
329.809	1.83
330.181	1.82
330.553	1.86
330.926	2.39
331.298	2.54
331.671	2.22
332.043	2.22
332.415	2.05
332.787	1.99
333.159	1.88
333.532	1.61
333.904	2.26
334.276	2.01
334.648	2.49
335.02	1.68
335.391	2.19
335.763	1.97
336.135	2.18
336.507	2.36
336.879	1.99
337.25	2.75
337.622	2.31
337.993	2.02
338.365	1.99
338.736	2.59
339.108	2.55
339.479	2.07
339.851	1.55
340.222	2
340.593	2.35
340.964	2.34
341.336	1.65
341.707	1.82
342.078	2.36
342.449	2.78
342.82	2.29
343.191	2.01
343.562	2.03
343.933	2.38
344.303	2.95
344.674	2.42
345.045	1.66
345.416	1.95
345.786	2.39
346.157	2.16
346.527	2.2
346.898	2.63
347.268	1.99
347.639	2.06
348.009	2.34
348.38	2.48
348.75	2.22
349.12	1.86
349.49	2.38
349.861	2.03
350.231	2.55
350.601	2.49
350.971	2.08
351.341	2.24
351.711	2.04
352.081	2.35
352.45	2.49
352.82	1.99
353.19	1.92
353.56	2.4
353.929	2.17
354.299	2.53
354.669	2.62
355.038	2.5
355.408	2.01
355.777	2.58
356.147	2.08
356.516	1.93
356.885	2.05
357.254	2.28
357.624	2.25
357.993	2.55
358.362	2.11
358.731	2.27
359.1	2.36
359.469	2.43
359.838	2.44
360.207	2.16
360.576	2.33
360.945	2.76
361.314	2.73
361.682	2.27
362.051	2.29
362.42	2.4
362.788	2.33
363.157	2.3
363.525	2.38
363.894	2.27
364.262	2.31
364.631	2.5
364.999	2.18
365.367	2.32
365.735	2.46
366.104	2.18
366.472	2.58
366.84	1.89
367.208	2.38
367.576	1.77
367.944	2.42
368.312	2.34
368.68	2.18
369.048	2.33
369.416	2.42
369.783	2.13
370.151	2
370.519	2.82
370.886	2.34
371.254	2.55
371.621	2.16
371.989	2.22
372.356	2.81
372.724	2.67
373.091	2.41
373.458	2.48
373.826	2.54
374.193	2.21
374.56	2.23
374.927	2.8
375.294	2.57
375.661	2.3
376.028	2.14
376.395	2.57
376.762	2.61
377.129	2.6
377.496	2.68
377.863	2.51
378.229	2.49
378.596	2.12
378.963	2.47
379.329	2.14
379.696	2.65
380.062	2.71
380.429	2.51
380.795	2.23
381.161	2.33
381.528	2.54
381.894	2.38
382.26	2.4
382.626	2.54
382.993	2.65
383.359	2.58
383.725	2.6
384.091	2.76
384.457	2.59
384.823	2.62
385.188	2.61
385.554	2.56
385.92	2.4
386.286	2.44
386.651	2.51
387.017	2.43
387.383	2.47
387.748	2.37
388.114	2.49
388.479	2.98
388.845	2.46
389.21	2.78
389.575	2.93
389.94	2.41
390.306	2.42
390.671	2.53
391.036	2.44
391.401	2.65
391.766	2.45
392.131	2.42
392.496	2.54
392.861	2.59
393.226	2.5
393.591	2.54
393.956	2.7
394.32	2.52
394.685	2.55
395.05	2.46
395.414	2.57
395.779	2.46
396.143	2.59
396.508	2.65
396.872	2.63
397.236	2.55
397.601	2.47
397.965	2.47
398.329	2.39
398.694	2.72
399.058	2.71
399.422	2.8
399.786	2.4
400.15	2.5
400.514	2.4
400.878	2.67
401.242	2.51
401.605	2.42
401.969	2.87
402.333	2.43
402.697	2.47
403.06	2.83
403.424	2.74
403.787	2.52
404.151	2.5
404.514	2.83
404.878	2.47
405.241	2.71
405.604	2.63
405.968	2.68
406.331	2.42
406.694	2.65
407.057	2.7
407.42	2.68
407.783	2.34
408.146	2.7
408.509	2.64
408.872	2.57
409.235	2.48
409.598	2.55
409.961	2.48
410.323	2.55
410.686	2.6
411.049	2.58
411.411	2.46
411.774	2.78
412.136	2.68
412.499	2.86
412.861	2.89
413.223	2.57
413.586	2.6
413.948	2.87
414.31	2.71
414.672	2.82
415.035	2.86
415.397	2.52
415.759	2.79
416.121	2.41
416.483	2.46
416.845	2.65
417.206	2.65
417.568	2.88
417.93	2.6
418.292	2.6
418.653	2.68
419.015	2.6
419.377	2.61
419.738	2.58
420.1	2.83
420.461	2.76
420.822	2.6
421.184	2.66
421.545	2.57
421.906	2.68
422.267	2.62
422.629	2.74
422.99	2.55
423.351	2.49
423.712	2.57
424.073	2.75
424.434	2.57
424.795	2.78
425.155	2.77
425.516	2.76
425.877	2.68
426.238	2.61
426.598	2.74
426.959	2.62
427.32	2.65
427.68	2.66
428.041	2.61
428.401	2.65
428.761	2.76
429.122	2.75
429.482	2.85
429.842	2.54
430.202	2.85
430.563	2.71
430.923	2.81
431.283	2.59
431.643	2.79
432.003	2.96
432.363	2.67
432.722	2.72
433.082	2.81
433.442	2.62
433.802	2.66
434.161	2.71
434.521	2.66
434.881	2.8
435.24	2.58
435.6	2.86
435.959	2.65
436.319	2.82
436.678	2.71
437.037	2.78
437.396	2.76
437.756	2.86
438.115	2.69
438.474	2.68
438.833	2.84
439.192	2.77
439.551	2.86
439.91	2.94
440.269	2.72
440.628	2.95
440.987	2.72
441.345	2.78
441.704	2.74
442.063	2.66
442.421	2.69
442.78	2.7
443.138	2.75
443.497	2.81
443.855	2.7
444.214	2.87
444.572	2.73
444.93	2.83
445.288	2.79
445.647	2.57
446.005	2.79
446.363	2.83
446.721	2.68
447.079	2.71
447.437	2.73
447.795	2.85
448.153	2.66
448.51	2.73
448.868	2.7
449.226	2.66
449.584	2.78
449.941	2.65
450.299	2.65
450.656	2.71
451.014	2.89
451.371	2.89
451.729	2.95
452.086	2.78
452.443	2.77
452.801	2.86
453.158	2.95
453.515	2.9
453.872	2.74
454.229	2.82
454.586	2.84
454.943	2.89
455.3	2.82
455.657	2.69
456.014	2.84
456.371	2.74
456.727	2.9
457.084	2.85
457.441	2.72
457.797	2.89
458.154	2.83
458.51	2.8
458.867	2.77
459.223	2.9
459.58	3.04
459.936	2.68
460.292	2.8
460.648	2.83
461.005	2.81
461.361	2.87
461.717	2.79
462.073	2.86
462.429	2.82
462.785	2.84
463.141	2.83
463.496	2.88
463.852	2.84
464.208	2.81
464.564	2.81
464.919	2.97
465.275	3.03
465.631	3.01
465.986	3
466.342	2.87
466.697	2.81
467.052	2.89
467.408	2.84
467.763	2.85
468.118	2.98
468.473	2.84
468.829	2.76
469.184	2.89
469.539	2.95
469.894	2.98
470.249	2.85
470.603	2.9
470.958	2.73
471.313	2.66
471.668	2.73
472.023	2.76
472.377	2.94
472.732	2.95
473.086	2.89
473.441	2.89
473.795	2.82
474.15	2.86
474.504	2.91
474.859	2.89
475.213	2.88
475.567	2.71
475.921	2.8
476.275	2.94
476.63	2.86
476.984	2.87
477.338	2.95
477.692	2.87
478.045	2.87
478.399	2.74
478.753	2.98
479.107	2.96
479.461	2.88
479.814	2.89
480.168	2.82
480.521	2.81
480.875	2.95
481.228	2.87
481.582	2.92
481.935	2.75
482.289	2.81
482.642	2.91
482.995	2.94
483.348	2.85
483.701	2.96
484.055	2.82
484.408	2.93
484.761	2.79
485.114	2.77
485.466	2.68
485.819	2.66
486.172	2.63
486.525	2.72
486.878	2.78
487.23	2.78
487.583	2.82
487.936	2.82
488.288	2.85
488.641	2.78
488.993	2.72
489.345	2.7
489.698	2.71
490.05	2.75
490.402	2.77
490.754	2.82
491.107	2.79
491.459	2.86
491.811	2.81
492.163	2.95
492.515	2.98
492.866	2.81
493.218	2.79
493.57	2.75
493.922	2.81
494.274	2.75
494.625	2.79
494.977	2.93
495.328	2.98
495.68	2.81
496.031	2.9
496.383	3
496.734	2.88
497.086	3.05
497.437	3.14
497.788	2.95
498.139	2.98
498.49	2.87
498.842	2.85
499.193	2.89
499.544	3.01
499.894	2.92
500.245	3
500.596	2.92
500.947	2.89
501.298	2.88
501.648	2.97
501.999	3.04
502.35	2.88
502.7	2.93
503.051	2.94
503.401	2.91
503.752	3.04
504.102	2.96
504.452	2.81
504.803	3.06
505.153	2.93
505.503	2.95
505.853	3
506.203	2.87
506.553	2.99
506.903	2.93
507.253	2.94
507.603	2.79
507.953	2.91
508.303	3.04
508.652	2.97
509.002	3.06
509.352	3.08
509.701	2.89
510.051	2.81
510.4	2.93
510.75	2.83
511.099	2.92
511.449	2.86
511.798	2.89
512.147	3
512.496	2.94
512.846	2.7
513.195	2.9
513.544	2.95
513.893	2.97
514.242	2.94
514.591	2.87
514.939	2.96
515.288	2.97
515.637	2.9
515.986	3
516.334	2.98
516.683	2.98
517.032	3.05
517.38	3.04
517.729	2.91
518.077	2.92
518.426	2.93
518.774	2.95
519.122	2.97
519.47	2.91
519.819	2.86
520.167	2.91
520.515	2.77
520.863	2.8
521.211	2.84
521.559	2.98
521.907	2.88
522.255	2.85
522.602	2.92
522.95	2.82
523.298	3.08
523.645	2.94
523.993	2.94
524.341	2.96
524.688	3.03
525.036	2.98
525.383	2.93
525.73	3.02
526.078	3.04
526.425	3.05
526.772	2.91
527.119	2.87
527.466	2.87
527.814	2.87
528.161	2.83
528.508	2.82
528.854	2.86
529.201	2.78
529.548	2.89
529.895	2.82
530.242	2.74
530.588	2.73
530.935	2.75
531.282	2.75
531.628	2.74
531.975	2.84
532.321	2.9
532.667	2.89
533.014	2.89
533.36	2.88
533.706	2.93
534.052	2.84
534.399	2.9
534.745	2.86
535.091	2.77
535.437	2.75
535.783	2.8
536.129	2.95
536.474	2.89
536.82	2.77
537.166	2.93
537.512	2.9
537.857	2.94
538.203	2.87
538.549	2.79
538.894	2.91
539.239	2.9
539.585	2.82
539.93	2.86
540.276	2.92
540.621	2.94
540.966	3.02
541.311	2.85
541.656	2.89
542.001	3.01
542.346	2.89
542.691	2.87
543.036	2.73
543.381	2.78
543.726	2.78
544.071	2.8
544.415	2.87
544.76	2.89
545.105	2.9
545.449	2.89
545.794	2.8
546.138	2.79
546.483	2.84
546.827	2.91
547.171	2.94
547.516	2.91
547.86	2.87
548.204	2.92
548.548	2.84
548.892	2.78
549.236	2.79
549.58	2.86
549.924	2.99
550.268	2.95
550.612	2.86
550.956	2.91
551.3	3.04
551.643	2.91
551.987	2.94
552.33	2.93
552.674	2.99
553.017	3.11
553.361	3.11
553.704	2.74
554.048	2.91
554.391	2.79
554.734	2.91
555.077	2.81
555.42	2.97
555.764	3.15
556.107	3.08
556.45	3.01
556.793	3.06
557.135	2.93
557.478	2.75
557.821	3.07
558.164	3.13
558.507	2.91
558.849	3.01
559.192	3.14
559.534	2.82
559.877	3.01
560.219	2.92
560.562	2.97
560.904	3.15
561.246	2.94
561.589	3.1
561.931	2.83
562.273	2.91
562.615	2.78
562.957	3.07
563.299	3.08
563.641	2.97
563.983	3.04
564.325	2.75
564.667	2.87
565.008	2.85
565.35	2.99
565.692	3.15
566.033	3.11
566.375	2.82
566.716	2.86
567.058	2.88
567.399	3.17
567.741	3
568.082	3
568.423	2.97
568.764	2.88
569.105	3.04
569.447	3.13
569.788	2.93
570.129	2.96
570.47	3.04
570.811	3.07
571.151	2.99
571.492	3.08
571.833	2.92
572.174	3.11
572.514	3.07
572.855	3
573.195	3
573.536	2.9
573.876	2.88
574.217	2.91
574.557	2.89
574.898	3
575.238	2.85
575.578	3.06
575.918	2.92
576.258	3.02
576.598	3.08
576.938	3.08
577.278	2.82
577.618	2.64
577.958	2.94
578.298	3.02
578.638	3.01
578.977	2.98
579.317	2.85
579.657	2.97
579.996	3.03
580.336	2.98
580.675	2.64
581.014	3.22
581.354	2.76
581.693	3.22
582.032	2.83
582.372	3.19
582.711	2.86
583.05	3.02
583.389	2.86
583.728	3.12
584.067	2.9
584.406	2.7
584.745	3.33
585.083	2.74
585.422	3.13
585.761	3
586.1	2.78
586.438	2.73
586.777	3.13
587.115	2.86
587.454	3.18
587.792	3.41
588.13	3.07
588.469	3.01
588.807	3.14
589.145	3.03
589.483	2.78
589.821	2.96
590.159	2.9
590.497	3.03
590.835	2.95
591.173	2.64
591.511	3.05
591.849	3.11
592.187	2.97
592.524	3.05
592.862	3.08
593.2	3.18
593.537	2.82
593.875	2.91
594.212	3.05
594.55	2.84
594.887	3.04
595.224	2.9
595.561	2.78
595.899	3.07
596.236	2.99
596.573	3.09
596.91	2.81
597.247	3.05
597.584	2.64
597.921	2.98
598.258	3.05
598.594	2.66
598.931	2.92
599.268	3
599.604	2.98
599.941	2.95
600.277	2.91
600.614	2.8
600.95	3.02
601.287	2.92
601.623	2.96
601.959	3.09
602.296	3.16
602.632	3.05
602.968	2.83
603.304	3.02
603.64	2.89
603.976	2.67
604.312	2.98
604.648	2.9
604.984	2.94
605.319	2.92
605.655	2.81
605.991	3.02
606.326	2.79
606.662	2.89
606.998	2.84
607.333	2.8
607.668	2.79
608.004	3.11
608.339	2.9
608.674	3.15
609.01	2.82
609.345	3.25
609.68	2.97
610.015	2.96
610.35	2.94
610.685	2.85
611.02	3.16
611.355	3.06
611.689	2.92
612.024	3.1
612.359	2.7
612.694	3.01
613.028	3.33
613.363	3.21
613.697	2.92
614.032	3.06
614.366	2.89
614.7	2.74
615.035	3
615.369	2.64
615.703	3.17
616.037	2.89
616.371	3.13
616.705	3.15
617.039	3.07
617.373	3.04
617.707	3.08
618.041	3.15
618.375	3
618.709	2.96
619.042	2.97
619.376	3.17
619.71	3.04
620.043	3.15
620.377	3.21
620.71	3.25
621.043	2.8
621.377	3
621.71	3.01
622.043	3.33
622.376	3.19
622.709	3.23
623.043	3.1
623.376	3.18
623.709	2.86
624.041	2.96
624.374	2.89
624.707	2.8
625.04	3.13
625.373	3.29
625.705	2.77
626.038	2.66
626.37	3.01
626.703	3.38
627.035	2.8
627.368	2.91
627.7	2.96
628.032	2.67
628.365	3.35
628.697	2.84
629.029	2.72
629.361	2.84
629.693	3
630.025	3.14
630.357	2.69
630.689	3.11
631.021	2.86
631.353	2.95
631.684	3.07
632.016	3.2
632.348	3.13
632.679	3.01
633.011	2.91
633.342	3.18
633.674	2.93
634.005	2.97
634.336	3.13
634.668	3.27
634.999	3.2
635.33	2.73
635.661	3.19
635.992	3.01
636.323	3.04
636.654	2.71
636.985	2.91
637.316	2.94
637.647	3.01
637.977	3.27
638.308	3.16
638.639	2.97
638.969	2.67
639.3	3.24
639.63	3.25
639.961	3.03
640.291	3.47
640.622	3.02
640.952	3.43
641.282	2.74
641.612	3.26
641.943	2.99
642.273	3.05
642.603	3.23
642.933	2.69
643.263	2.78
643.592	2.96
643.922	3.54
644.252	3.08
644.582	2.95
644.911	3.11
645.241	3.09
645.571	2.71
645.9	3.11
646.23	3.03
646.559	3.53
646.888	3.16
647.218	3.16
647.547	2.64
647.876	3.2
648.205	2.94
648.534	3.71
648.863	2.89
649.192	3.3
649.521	3.13
649.85	3.47
650.179	3.14
650.508	2.84
650.837	3.18
651.165	2.78
651.494	3.04
651.822	3.17
652.151	3.49
652.479	2.75
652.808	2.87
653.136	3.11
653.465	2.99
653.793	3.26
654.121	3.16
654.449	2.93
654.777	3.04
655.105	2.97
655.433	2.82
655.761	3.02
656.089	2.98
656.417	2.91
656.745	2.66
657.073	3.05
657.4	3.23
657.728	3.04
658.056	2.73
658.383	3.16
658.711	3.22
659.038	2.79
659.365	3.78
659.693	3.4
660.02	3.14
660.347	2.7
660.674	2.84
661.001	2.9
661.329	2.82
661.656	2.9
661.982	2.58
662.309	3.11
662.636	2.96
662.963	2.5
663.29	2.43
663.616	3.71
663.943	2.97
664.27	3.29
664.596	2.66
664.923	2.93
665.249	3.74
665.576	3.18
665.902	2.37
666.228	2.65
666.554	3.31
666.881	2.77
667.207	3.21
667.533	3.27
667.859	3.63
668.185	3.04
668.511	3.53
668.837	2.55
669.162	3.13
669.488	2.3
669.814	2.58
670.139	2.47
670.465	3.21
670.791	3.16
671.116	2.99
671.442	3
671.767	2.71
672.092	2.78
672.418	3.36
672.743	3.82
673.068	2.63
673.393	3.52
673.718	3.59
674.043	3.16
674.368	2.31
674.693	3.64
675.018	3.28
675.343	3.45
675.667	3.1
675.992	2.81
676.317	3.27
676.641	3.29
676.966	2.99
677.29	3.29
677.615	3.15
677.939	2.16
678.264	3.13
678.588	3.18
678.912	3.59
679.236	3.22
679.56	2.95
679.885	3.46
680.209	3.66
680.532	3.28
680.856	2.88
681.18	2.09
681.504	3.56
681.828	3.01
682.152	3.79
682.475	3.26
682.799	3.43
683.122	3.41
683.446	2.91
683.769	2.57
684.093	3.37
684.416	2.33
684.739	3.17
685.062	3.79
685.386	2.97
685.709	2.81
686.032	3.13
686.355	3.79
686.678	3.29
687.001	3.46
687.324	3.29
687.646	3.24
687.969	3.06
688.292	3.12
688.614	3.53
688.937	3.66
689.26	2.81
689.582	3.28
689.904	3.3
690.227	3.21
690.549	3.66
690.871	2.73
691.194	3.33
691.516	3.52
691.838	3.53
692.16	4.11
692.482	2.6
692.804	2.82
693.126	3.26
