Data from 0044_chest_Reflection__2__122.txt Node

Date: Fri Nov 04 15:51:03 CDT 2022
User: ToomeyLab
Spectrometer: FLMS14357
Trigger mode: 0
Integration Time (sec): 1.000000E-2
Scans to average: 100
Electric dark correction enabled: true
Nonlinearity correction enabled: false
Boxcar width: 0
XAxis mode: Wavelengths
Number of Pixels in Spectrum: 2048
>>>>>Begin Spectral Data<<<<<
189.047	395.84
189.435	395.84
189.823	395.84
190.211	10.24
190.599	1077.94
190.987	14.65
191.375	-35.64
191.763	448.75
192.151	-98.33
192.538	-360.76
192.926	-14.32
193.314	117.92
193.702	91.1
194.089	220.06
194.477	120.06
194.864	-0.1
195.252	120.15
195.639	-181.64
196.027	53.98
196.414	-127.59
196.801	391.74
197.189	91.75
197.576	-698.95
197.963	0.6
198.351	-80.95
198.738	5.44
199.125	0.39
199.512	-54.21
199.899	-35.75
200.286	-42.76
200.673	-7.37
201.06	-29.68
201.447	-44.49
201.833	29.2
202.22	1.61
202.607	26.18
202.994	38.01
203.38	27.44
203.767	-1.19
204.154	44.24
204.54	-37.15
204.927	8.21
205.313	-9.7
205.699	27.84
206.086	11.81
206.472	-1.35
206.858	8.37
207.245	-17.54
207.631	35.03
208.017	35.96
208.403	12.58
208.789	28.3
209.175	-13.63
209.561	-64.14
209.947	-37.29
210.333	13.03
210.719	20.8
211.105	-0.86
211.491	22.9
211.876	39.89
212.262	-25.6
212.648	9.39
213.034	11.29
213.419	-10.18
213.805	-11.71
214.19	-7.21
214.576	20.15
214.961	45.52
215.346	2.62
215.732	36.65
216.117	-27.19
216.502	-4.15
216.888	-13.1
217.273	-4.14
217.658	-32.17
218.043	-3.81
218.428	8.67
218.813	9.67
219.198	13.14
219.583	3.13
219.968	8.47
220.353	-14.69
220.738	-23.09
221.122	0.97
221.507	9.46
221.892	1.34
222.276	-10.34
222.661	-3.47
223.046	-8.82
223.43	0.83
223.815	6.38
224.199	3.7
224.583	1.86
224.968	0.99
225.352	4.21
225.736	-6.91
226.121	-7.73
226.505	1.08
226.889	3.3
227.273	3.46
227.657	2.26
228.041	2.35
228.425	6.41
228.809	2
229.193	3.19
229.577	2.38
229.961	3.58
230.344	2.12
230.728	2.49
231.112	1.92
231.495	2.29
231.879	2.7
232.263	0.48
232.646	2.55
233.03	0.29
233.413	1.06
233.797	2.35
234.18	3.16
234.563	3.9
234.946	3.1
235.33	2.83
235.713	2.79
236.096	1.9
236.479	2.15
236.862	1.76
237.245	2.32
237.628	1.54
238.011	0.5
238.394	2.59
238.777	3.06
239.16	1.92
239.543	1.16
239.925	2.16
240.308	3.34
240.691	1.79
241.073	2.85
241.456	2.03
241.838	2.18
242.221	2.67
242.603	2.05
242.986	1.74
243.368	2.67
243.75	2.47
244.133	2.57
244.515	2.78
244.897	2.52
245.279	2.72
245.661	2.82
246.043	3.19
246.425	3.16
246.807	2.87
247.189	2.73
247.571	2.57
247.953	2.23
248.335	2.19
248.717	2.45
249.098	2.26
249.48	2.47
249.862	2.71
250.243	2.18
250.625	2.18
251.006	2.35
251.388	2.56
251.769	2.88
252.151	2.59
252.532	2.38
252.913	1.97
253.295	2.83
253.676	2.03
254.057	1.66
254.438	2.71
254.819	2.39
255.2	1.85
255.581	2.22
255.962	2.93
256.343	1.48
256.724	2.31
257.105	1.63
257.486	2.4
257.867	2.82
258.247	2.84
258.628	2.11
259.009	1.5
259.389	2.06
259.77	2.73
260.15	1.99
260.531	2.17
260.911	2.26
261.292	1.83
261.672	2.31
262.052	2.21
262.432	2.21
262.813	1.96
263.193	1.61
263.573	2.36
263.953	2.25
264.333	1.84
264.713	2.8
265.093	1.86
265.473	2.77
265.853	1.46
266.233	2.07
266.612	2.44
266.992	2.43
267.372	1.99
267.752	1.72
268.131	2.76
268.511	2.3
268.89	2.8
269.27	2.04
269.649	2.29
270.029	1.83
270.408	2.11
270.787	2.41
271.167	2.07
271.546	3.11
271.925	1.65
272.304	1.72
272.683	1.76
273.062	2.42
273.441	2.51
273.82	1.74
274.199	2.21
274.578	2.22
274.957	2.11
275.336	1.74
275.715	2.03
276.093	2.06
276.472	2.12
276.851	1.93
277.229	2
277.608	2.16
277.986	2.81
278.365	2.96
278.743	2.17
279.122	2.18
279.5	2.25
279.878	2.09
280.257	2.13
280.635	1.48
281.013	2.05
281.391	2.95
281.769	1.91
282.147	2.35
282.525	2.26
282.903	2.36
283.281	2.28
283.659	2.22
284.037	2.2
284.415	1.85
284.792	2.45
285.17	2.08
285.548	2.45
285.925	2.4
286.303	2.47
286.68	2.36
287.058	2.49
287.435	2.37
287.813	1.99
288.19	2
288.567	1.99
288.945	2.38
289.322	2.66
289.699	2.81
290.076	2.44
290.453	1.65
290.83	2.2
291.207	2.09
291.584	2.28
291.961	2.61
292.338	2.21
292.715	2.46
293.092	1.95
293.469	2.12
293.845	1.93
294.222	2.09
294.599	1.62
294.975	2.51
295.352	2.44
295.728	2.06
296.105	2.25
296.481	2.18
296.858	2.08
297.234	2.82
297.61	2.58
297.986	2.16
298.363	2.02
298.739	2.34
299.115	2.69
299.491	2.36
299.867	2.27
300.243	2.26
300.619	2.54
300.995	2.65
301.371	2.57
301.746	2.58
302.122	2.19
302.498	2.33
302.874	2.36
303.249	2.31
303.625	2.35
304	2.58
304.376	2.19
304.751	2.48
305.127	2.02
305.502	2.63
305.878	2.32
306.253	2.4
306.628	2.4
307.003	1.81
307.378	2.17
307.754	2.68
308.129	1.76
308.504	2.63
308.879	2.31
309.254	2.6
309.629	2.57
310.003	2.66
310.378	2.57
310.753	2.72
311.128	2.17
311.502	2.12
311.877	2.44
312.252	2.4
312.626	1.95
313.001	2.61
313.375	2.44
313.75	2.33
314.124	2.34
314.498	2.44
314.873	2.96
315.247	2.89
315.621	2.36
315.995	2.82
316.369	3
316.743	2.98
317.117	2.51
317.491	2.62
317.865	2.69
318.239	2.52
318.613	3.26
318.987	2.71
319.361	2.85
319.734	2.2
320.108	2.68
320.482	2.07
320.855	2.4
321.229	2.8
321.602	2.66
321.976	2.07
322.349	3.21
322.723	2.68
323.096	2.44
323.469	2.8
323.843	2.37
324.216	2.55
324.589	3.14
324.962	3.32
325.335	2.85
325.708	2.15
326.081	2.62
326.454	2.87
326.827	3.11
327.2	2.23
327.573	2.53
327.945	2.7
328.318	2.03
328.691	2.65
329.063	2.35
329.436	2.9
329.809	2.49
330.181	2.79
330.553	2.34
330.926	2.48
331.298	3.05
331.671	3.05
332.043	2.2
332.415	2.8
332.787	2.65
333.159	2.11
333.532	2.24
333.904	2.69
334.276	2.31
334.648	3.03
335.02	2.15
335.391	2.76
335.763	2.68
336.135	2.38
336.507	2.71
336.879	2.97
337.25	2.84
337.622	3.06
337.993	2.74
338.365	3.08
338.736	2.74
339.108	2.95
339.479	2.33
339.851	2.47
340.222	2.65
340.593	2.53
340.964	2.29
341.336	2.51
341.707	2.45
342.078	2.71
342.449	2.68
342.82	2.81
343.191	2.64
343.562	2.58
343.933	2.96
344.303	2.88
344.674	3.13
345.045	2.51
345.416	2.45
345.786	2.9
346.157	3.13
346.527	2.56
346.898	2.71
347.268	2.6
347.639	2.79
348.009	2.85
348.38	2.41
348.75	2.82
349.12	2.57
349.49	2.66
349.861	2.96
350.231	3.21
350.601	2.61
350.971	2.51
351.341	2.95
351.711	2.66
352.081	2.71
352.45	2.53
352.82	2.64
353.19	3.01
353.56	2.91
353.929	2.81
354.299	3.23
354.669	3.07
355.038	3.14
355.408	2.51
355.777	3.02
356.147	2.46
356.516	2.81
356.885	3.06
357.254	3.09
357.624	2.97
357.993	2.67
358.362	2.59
358.731	2.64
359.1	3.22
359.469	2.86
359.838	2.96
360.207	2.82
360.576	3.08
360.945	2.97
361.314	3.17
361.682	2.75
362.051	2.66
362.42	2.77
362.788	2.86
363.157	2.76
363.525	2.99
363.894	2.86
364.262	3.01
364.631	3.2
364.999	2.85
365.367	2.89
365.735	3.1
366.104	2.74
366.472	2.99
366.84	2.48
367.208	2.96
367.576	2.67
367.944	3.21
368.312	3.08
368.68	2.73
369.048	2.8
369.416	2.85
369.783	3.04
370.151	2.4
370.519	3.1
370.886	2.97
371.254	2.98
371.621	3.3
371.989	3.1
372.356	3.07
372.724	2.81
373.091	2.8
373.458	3.05
373.826	2.94
374.193	2.97
374.56	2.47
374.927	3.42
375.294	2.92
375.661	3.23
376.028	2.8
376.395	2.98
376.762	3.32
377.129	3.06
377.496	2.94
377.863	3.35
378.229	2.83
378.596	2.95
378.963	3.26
379.329	2.94
379.696	2.91
380.062	3.13
380.429	3.08
380.795	3.02
381.161	2.95
381.528	3.28
381.894	2.77
382.26	3.16
382.626	2.74
382.993	3.05
383.359	2.99
383.725	3.3
384.091	2.86
384.457	2.97
384.823	3.05
385.188	3.27
385.554	2.94
385.92	3.1
386.286	2.86
386.651	3.25
387.017	2.99
387.383	2.97
387.748	2.84
388.114	2.81
388.479	3.49
388.845	3.03
389.21	3.49
389.575	3.32
389.94	3.38
390.306	3.02
390.671	3.46
391.036	2.92
391.401	3.3
391.766	2.81
392.131	3.11
392.496	3
392.861	3.26
393.226	3.07
393.591	3.12
393.956	3.35
394.32	3.29
394.685	3.29
395.05	3.17
395.414	3.19
395.779	3.1
396.143	3.06
396.508	3.27
396.872	3.18
397.236	3.31
397.601	3.14
397.965	3.23
398.329	3.43
398.694	3.48
399.058	3.52
399.422	2.75
399.786	3.16
400.15	3.15
400.514	3.16
400.878	3.08
401.242	3.34
401.605	3.12
401.969	3.4
402.333	3.25
402.697	3.34
403.06	3.52
403.424	3.32
403.787	3.17
404.151	3.32
404.514	3.34
404.878	3.46
405.241	3.36
405.604	3.11
405.968	3.16
406.331	3.24
406.694	3.09
407.057	3.23
407.42	3.15
407.783	3.25
408.146	3.46
408.509	3.29
408.872	3.4
409.235	3.34
409.598	3.44
409.961	3.44
410.323	3.26
410.686	3.36
411.049	3.3
411.411	3.26
411.774	3.48
412.136	3.38
412.499	3.45
412.861	3.31
413.223	3.58
413.586	3.07
413.948	3.45
414.31	3.18
414.672	3.38
415.035	3.61
415.397	3.31
415.759	3.54
416.121	3.19
416.483	3.36
416.845	3.41
417.206	3.47
417.568	3.37
417.93	3.31
418.292	3.45
418.653	3.42
419.015	3.33
419.377	3.25
419.738	3.33
420.1	3.46
420.461	3.38
420.822	3.27
421.184	3.42
421.545	3.23
421.906	3.51
422.267	3.41
422.629	3.41
422.99	3.24
423.351	3.29
423.712	3.32
424.073	3.38
424.434	3.29
424.795	3.32
425.155	3.53
425.516	3.4
425.877	3.21
426.238	3.34
426.598	3.36
426.959	3.38
427.32	3.28
427.68	3.41
428.041	3.36
428.401	3.47
428.761	3.57
429.122	3.47
429.482	3.46
429.842	3.32
430.202	3.46
430.563	3.44
430.923	3.52
431.283	3.29
431.643	3.57
432.003	3.75
432.363	3.52
432.722	3.46
433.082	3.66
433.442	3.6
433.802	3.45
434.161	3.61
434.521	3.56
434.881	3.56
435.24	3.43
435.6	3.56
435.959	3.55
436.319	3.46
436.678	3.48
437.037	3.6
437.396	3.62
437.756	3.58
438.115	3.52
438.474	3.65
438.833	3.71
439.192	3.59
439.551	3.75
439.91	3.54
440.269	3.55
440.628	3.69
440.987	3.67
441.345	3.59
441.704	3.61
442.063	3.54
442.421	3.54
442.78	3.61
443.138	3.55
443.497	3.51
443.855	3.48
444.214	3.74
444.572	3.6
444.93	3.63
445.288	3.71
445.647	3.56
446.005	3.61
446.363	3.64
446.721	3.54
447.079	3.59
447.437	3.55
447.795	3.6
448.153	3.53
448.51	3.6
448.868	3.58
449.226	3.54
449.584	3.56
449.941	3.58
450.299	3.7
450.656	3.56
451.014	3.67
451.371	3.64
451.729	3.71
452.086	3.76
452.443	3.67
452.801	3.68
453.158	3.64
453.515	3.7
453.872	3.63
454.229	3.86
454.586	3.74
454.943	3.78
455.3	3.82
455.657	3.68
456.014	3.7
456.371	3.68
456.727	3.79
457.084	3.89
457.441	3.8
457.797	3.78
458.154	3.79
458.51	3.78
458.867	3.6
459.223	3.8
459.58	3.93
459.936	3.7
460.292	3.77
460.648	3.86
461.005	3.7
461.361	3.67
461.717	3.78
462.073	3.76
462.429	3.76
462.785	3.75
463.141	3.75
463.496	3.71
463.852	3.88
464.208	3.92
464.564	3.68
464.919	4.03
465.275	3.89
465.631	3.93
465.986	3.92
466.342	3.8
466.697	3.8
467.052	3.68
467.408	3.85
467.763	3.97
468.118	4.12
468.473	3.88
468.829	3.58
469.184	3.8
469.539	3.78
469.894	3.92
470.249	3.89
470.603	4.03
470.958	3.81
471.313	3.84
471.668	3.71
472.023	3.74
472.377	3.97
472.732	4
473.086	3.84
473.441	3.79
473.795	3.83
474.15	3.94
474.504	4.02
474.859	3.92
475.213	4.03
475.567	3.93
475.921	3.78
476.275	3.95
476.63	4
476.984	3.83
477.338	3.95
477.692	3.98
478.045	3.98
478.399	3.85
478.753	4.05
479.107	3.9
479.461	4.08
479.814	4.08
480.168	4.01
480.521	3.87
480.875	3.98
481.228	4.25
481.582	4.16
481.935	4.11
482.289	3.98
482.642	4.04
482.995	4.03
483.348	4.03
483.701	4.03
484.055	3.99
484.408	4
484.761	3.93
485.114	3.81
485.466	3.85
485.819	3.82
486.172	3.83
486.525	3.82
486.878	3.91
487.23	3.91
487.583	3.92
487.936	3.97
488.288	3.94
488.641	4.02
488.993	3.94
489.345	3.89
489.698	3.91
490.05	3.96
490.402	3.94
490.754	3.98
491.107	4.05
491.459	4.1
491.811	4.03
492.163	4.12
492.515	4.19
492.866	4.02
493.218	4
493.57	4
493.922	4.08
494.274	4.02
494.625	4.01
494.977	4.16
495.328	4.18
495.68	4.18
496.031	4.11
496.383	4.3
496.734	4.27
497.086	4.41
497.437	4.36
497.788	4.3
498.139	4.13
498.49	4.27
498.842	4.24
499.193	4.17
499.544	4.24
499.894	4.21
500.245	4.23
500.596	4.16
500.947	4.21
501.298	4.22
501.648	4.32
501.999	4.41
502.35	4.42
502.7	4.32
503.051	4.43
503.401	4.43
503.752	4.32
504.102	4.33
504.452	4.3
504.803	4.31
505.153	4.42
505.503	4.27
505.853	4.48
506.203	4.38
506.553	4.5
506.903	4.39
507.253	4.54
507.603	4.35
507.953	4.42
508.303	4.46
508.652	4.44
509.002	4.62
509.352	4.59
509.701	4.47
510.051	4.39
510.4	4.6
510.75	4.47
511.099	4.49
511.449	4.37
511.798	4.4
512.147	4.48
512.496	4.47
512.846	4.35
513.195	4.58
513.544	4.47
513.893	4.51
514.242	4.48
514.591	4.49
514.939	4.63
515.288	4.51
515.637	4.61
515.986	4.64
516.334	4.56
516.683	4.62
517.032	4.59
517.38	4.64
517.729	4.71
518.077	4.64
518.426	4.6
518.774	4.63
519.122	4.73
519.47	4.66
519.819	4.63
520.167	4.61
520.515	4.6
520.863	4.52
521.211	4.62
521.559	4.62
521.907	4.61
522.255	4.69
522.602	4.73
522.95	4.64
523.298	4.75
523.645	4.85
523.993	4.76
524.341	4.81
524.688	4.74
525.036	4.7
525.383	4.82
525.73	4.81
526.078	4.76
526.425	4.82
526.772	4.69
527.119	4.85
527.466	4.79
527.814	4.75
528.161	4.69
528.508	4.73
528.854	4.76
529.201	4.65
529.548	4.71
529.895	4.69
530.242	4.73
530.588	4.66
530.935	4.68
531.282	4.65
531.628	4.58
531.975	4.74
532.321	4.78
532.667	4.83
533.014	4.9
533.36	4.89
533.706	4.94
534.052	4.95
534.399	4.84
534.745	4.86
535.091	4.81
535.437	4.91
535.783	4.84
536.129	4.96
536.474	4.87
536.82	4.85
537.166	5.02
537.512	5.02
537.857	4.99
538.203	5.05
538.549	4.98
538.894	5.09
539.239	5.12
539.585	4.96
539.93	5.11
540.276	5.04
540.621	5.06
540.966	5.19
541.311	5.03
541.656	5.2
542.001	5.21
542.346	5.09
542.691	5.17
543.036	5.01
543.381	5.08
543.726	5.04
544.071	5.06
544.415	5.09
544.76	5.1
545.105	5.14
545.449	5.28
545.794	5.33
546.138	5.18
546.483	5.31
546.827	5.29
547.171	5.34
547.516	5.46
547.86	5.35
548.204	5.3
548.548	5.45
548.892	5.34
549.236	5.26
549.58	5.37
549.924	5.4
550.268	5.49
550.612	5.33
550.956	5.4
551.3	5.55
551.643	5.46
551.987	5.53
552.33	5.49
552.674	5.58
553.017	5.62
553.361	5.74
553.704	5.49
554.048	5.63
554.391	5.46
554.734	5.64
555.077	5.77
555.42	5.54
555.764	5.95
556.107	5.63
556.45	5.78
556.793	5.72
557.135	5.93
557.478	5.55
557.821	5.77
558.164	5.79
558.507	5.75
558.849	5.87
559.192	6.01
559.534	5.77
559.877	5.75
560.219	6.03
560.562	5.94
560.904	6
561.246	5.74
561.589	5.99
561.931	5.9
562.273	6.07
562.615	5.8
562.957	5.88
563.299	5.84
563.641	5.95
563.983	5.94
564.325	5.84
564.667	5.94
565.008	5.93
565.35	6.04
565.692	6.16
566.033	6.13
566.375	6.12
566.716	6.11
567.058	6.11
567.399	6.16
567.741	6.16
568.082	6.4
568.423	6.1
568.764	6.21
569.105	6.12
569.447	6.2
569.788	6.19
570.129	6.3
570.47	6.22
570.811	6.19
571.151	6.29
571.492	6.45
571.833	6.41
572.174	6.59
572.514	6.3
572.855	6.21
573.195	6.36
573.536	6.46
573.876	6.26
574.217	6.29
574.557	6.42
574.898	6.43
575.238	6.36
575.578	6.55
575.918	6.55
576.258	6.56
576.598	6.52
576.938	6.6
577.278	6.42
577.618	6.5
577.958	6.51
578.298	6.68
578.638	6.66
578.977	6.67
579.317	6.5
579.657	6.68
579.996	6.7
580.336	6.62
580.675	6.51
581.014	6.77
581.354	6.75
581.693	7.03
582.032	6.88
582.372	6.92
582.711	6.78
583.05	6.98
583.389	6.86
583.728	6.91
584.067	7.1
584.406	6.67
584.745	7.1
585.083	6.8
585.422	7.2
585.761	6.78
586.1	6.91
586.438	6.75
586.777	6.92
587.115	6.85
587.454	7.26
587.792	7.22
588.13	7.19
588.469	7.13
588.807	7.31
589.145	7.06
589.483	6.94
589.821	7.3
590.159	7.11
590.497	7.51
590.835	7
591.173	7.04
591.511	7.22
591.849	7.52
592.187	7.26
592.524	7.34
592.862	7.18
593.2	7.6
593.537	7.13
593.875	7.54
594.212	7.34
594.55	7.35
594.887	7.63
595.224	7.46
595.561	7.35
595.899	7.47
596.236	7.62
596.573	7.55
596.91	7.71
597.247	7.6
597.584	7.39
597.921	7.58
598.258	7.57
598.594	7.45
598.931	7.55
599.268	7.64
599.604	7.63
599.941	7.57
600.277	7.54
600.614	7.82
600.95	7.71
601.287	7.87
601.623	7.61
601.959	7.57
602.296	8.02
602.632	8.01
602.968	7.99
603.304	7.9
603.64	7.87
603.976	7.68
604.312	7.93
604.648	7.72
604.984	7.85
605.319	7.74
605.655	7.74
605.991	8.23
606.326	8
606.662	7.89
606.998	7.92
607.333	7.98
607.668	8.13
608.004	7.93
608.339	7.96
608.674	8.17
609.01	8.17
609.345	8.44
609.68	8.33
610.015	8.22
610.35	8.16
610.685	8.55
611.02	8.37
611.355	8.43
611.689	8.56
612.024	8.28
612.359	8.27
612.694	8.37
613.028	8.54
613.363	8.62
613.697	8.25
614.032	8.25
614.366	8.34
614.7	8.44
615.035	8.35
615.369	8.46
615.703	8.81
616.037	8.38
616.371	8.37
616.705	8.53
617.039	9.03
617.373	8.81
617.707	9.07
618.041	8.83
618.375	8.6
618.709	8.73
619.042	8.76
619.376	8.97
619.71	8.94
620.043	8.82
620.377	9.14
620.71	9.14
621.043	8.96
621.377	9.03
621.71	8.99
622.043	9.2
622.376	9.07
622.709	8.89
623.043	9.13
623.376	9.29
623.709	9.02
624.041	8.85
624.374	8.85
624.707	8.89
625.04	9.51
625.373	9.34
625.705	9.27
626.038	9.31
626.37	9.65
626.703	9.23
627.035	9.04
627.368	9.08
627.7	9.34
628.032	9.05
628.365	9.52
628.697	9.41
629.029	9.2
629.361	9.37
629.693	9.58
630.025	9.61
630.357	9.25
630.689	9.76
631.021	9.38
631.353	9.61
631.684	9.75
632.016	9.68
632.348	9.58
632.679	9.34
633.011	9.96
633.342	9.46
633.674	9.75
634.005	9.98
634.336	9.82
634.668	10.06
634.999	9.82
635.33	9.81
635.661	9.76
635.992	9.91
636.323	10.04
636.654	9.72
636.985	9.94
637.316	9.95
637.647	9.64
637.977	10.33
638.308	10.15
638.639	10.25
638.969	9.77
639.3	10.01
639.63	9.93
639.961	10.35
640.291	10.02
640.622	10.34
640.952	10.25
641.282	10.33
641.612	10.26
641.943	9.95
642.273	10.45
642.603	10.47
642.933	9.86
643.263	9.74
643.592	10.05
643.922	10.47
644.252	10.43
644.582	10.24
644.911	10.72
645.241	10.01
645.571	10.49
645.9	10.64
646.23	10.56
646.559	10.56
646.888	10.49
647.218	10.85
647.547	10.48
647.876	11.23
648.205	10.32
648.534	11.25
648.863	10.66
649.192	10.76
649.521	10.61
649.85	11.05
650.179	10.71
650.508	10.32
650.837	11.23
651.165	10.55
651.494	10.77
651.822	10.92
652.151	11.42
652.479	10.74
652.808	10.71
653.136	11.3
653.465	10.81
653.793	11.35
654.121	11.08
654.449	10.8
654.777	11.04
655.105	11.19
655.433	10.9
655.761	10.9
656.089	11.28
656.417	10.6
656.745	10.79
657.073	10.89
657.4	11.18
657.728	11.47
658.056	10.97
658.383	11.24
658.711	10.98
659.038	11.55
659.365	11.7
659.693	12.12
660.02	11.91
660.347	11.31
660.674	11.05
661.001	11.55
661.329	11.26
661.656	11.79
661.982	11.12
662.309	11.53
662.636	11.25
662.963	11.16
663.29	11.35
663.616	11.48
663.943	11.72
664.27	11.76
664.596	11.44
664.923	11.82
665.249	12.13
665.576	11.42
665.902	11.13
666.228	11.51
666.554	12.54
666.881	11.63
667.207	11.78
667.533	11.84
667.859	11.89
668.185	12.16
668.511	12.2
668.837	11.66
669.162	12.46
669.488	11.35
669.814	12.11
670.139	12.1
670.465	12.26
670.791	12.05
671.116	12.03
671.442	12.24
671.767	12.4
672.092	12.52
672.418	12.29
672.743	13.03
673.068	12.18
673.393	12.57
673.718	12.69
674.043	12.83
674.368	11.96
674.693	12.12
675.018	12.9
675.343	12.71
675.667	12.63
675.992	13.03
676.317	12.4
676.641	12.53
676.966	12.07
677.29	13.03
677.615	12.44
677.939	12.82
678.264	12.56
678.588	12.38
678.912	13.23
679.236	13.1
679.56	12.6
679.885	13.23
680.209	12.44
680.532	12.49
680.856	12.04
681.18	12.6
681.504	13.34
681.828	12.61
682.152	13.66
682.475	12.69
682.799	13.02
683.122	12.87
683.446	12.89
683.769	12.55
684.093	13.33
684.416	12.95
684.739	13.08
685.062	13.33
685.386	13.19
685.709	13.65
686.032	13.35
686.355	14.28
686.678	13.99
687.001	13.59
687.324	13.61
687.646	14.06
687.969	13.46
688.292	13.88
688.614	13.97
688.937	13.84
689.26	12.99
