Data from 0044_crown_Reflection__3__128.txt Node

Date: Fri Nov 04 15:53:06 CDT 2022
User: ToomeyLab
Spectrometer: FLMS14357
Trigger mode: 0
Integration Time (sec): 1.000000E-2
Scans to average: 100
Electric dark correction enabled: true
Nonlinearity correction enabled: false
Boxcar width: 0
XAxis mode: Wavelengths
Number of Pixels in Spectrum: 2048
>>>>>Begin Spectral Data<<<<<
189.047	-131.58
189.435	-131.58
189.823	-131.58
190.211	-183.33
190.599	-869.4
190.987	-23.58
191.375	2.38
191.763	589.47
192.151	29.18
192.538	215.01
192.926	149.06
193.314	40.66
193.702	46.15
194.089	57.59
194.477	-503.2
194.864	49
195.252	12.4
195.639	-245.5
196.027	-9.84
196.414	-139.91
196.801	421.7
197.189	-90.74
197.576	-397.99
197.963	127.31
198.351	19.61
198.738	31.93
199.125	59.21
199.512	-34.93
199.899	24.91
200.286	7.61
200.673	-32.85
201.06	6.26
201.447	-39.29
201.833	32.02
202.22	-5.69
202.607	37.46
202.994	25.93
203.38	71.91
203.767	24.46
204.154	40.03
204.54	-17.28
204.927	13.89
205.313	21.49
205.699	19.4
206.086	25.87
206.472	-12.17
206.858	-40.33
207.245	7.68
207.631	16.38
208.017	53.63
208.403	-0.56
208.789	35.4
209.175	-12.88
209.561	-54.4
209.947	-2.13
210.333	23.86
210.719	-2.11
211.105	-23.94
211.491	6.53
211.876	-8.08
212.262	-4.88
212.648	-32.73
213.034	9.38
213.419	-3.26
213.805	-26.17
214.19	-96.02
214.576	-8.38
214.961	40.8
215.346	10.57
215.732	17.22
216.117	17.4
216.502	6.2
216.888	-23.68
217.273	15.92
217.658	0.19
218.043	5.99
218.428	33.7
218.813	30.97
219.198	13.71
219.583	-10.43
219.968	24.35
220.353	-23.68
220.738	-23.91
221.122	6.66
221.507	20.71
221.892	-11.65
222.276	0.66
222.661	6.04
223.046	0.12
223.43	8.6
223.815	-6.24
224.199	8.59
224.583	2.98
224.968	6.47
225.352	6.61
225.736	5.93
226.121	-4.85
226.505	11.24
226.889	8.35
227.273	7.4
227.657	1.02
228.041	9.24
228.425	7.79
228.809	7.56
229.193	7.25
229.577	5.09
229.961	6.89
230.344	6.31
230.728	5.59
231.112	4.69
231.495	5.34
231.879	7.14
232.263	5.46
232.646	5.75
233.03	4.01
233.413	3.46
233.797	5.13
234.18	5.34
234.563	7.76
234.946	4.61
235.33	5.18
235.713	6.04
236.096	6.16
236.479	5.01
236.862	5.67
237.245	3.86
237.628	6.77
238.011	4.4
238.394	4.38
238.777	5.57
239.16	5.31
239.543	5.07
239.925	4.21
240.308	7.38
240.691	5.02
241.073	4.74
241.456	5.29
241.838	4.71
242.221	5.78
242.603	5.6
242.986	5.47
243.368	5.69
243.75	5.67
244.133	5.23
244.515	5.77
244.897	5.49
245.279	5.37
245.661	6.25
246.043	5.44
246.425	5.54
246.807	6.16
247.189	5.54
247.571	6.21
247.953	5.58
248.335	5
248.717	5.57
249.098	5.29
249.48	5.45
249.862	5.83
250.243	5.64
250.625	5.22
251.006	5.36
251.388	5.72
251.769	6.05
252.151	6.57
252.532	5.97
252.913	5.05
253.295	5.83
253.676	5.02
254.057	5.36
254.438	5.12
254.819	5.2
255.2	5.27
255.581	6.26
255.962	5.62
256.343	5.33
256.724	5.34
257.105	3.54
257.486	5.62
257.867	6.97
258.247	6.59
258.628	5.19
259.009	4.28
259.389	5.18
259.77	4.98
260.15	5.1
260.531	4.99
260.911	5.11
261.292	4.98
261.672	5.11
262.052	5.12
262.432	5.04
262.813	4.99
263.193	4.3
263.573	5.3
263.953	4.86
264.333	5.03
264.713	5.92
265.093	5.21
265.473	5.08
265.853	4.34
266.233	5.02
266.612	5.14
266.992	5.14
267.372	3.98
267.752	5.13
268.131	5.14
268.511	5.09
268.89	5.46
269.27	4.72
269.649	4.88
270.029	4.75
270.408	5.28
270.787	5.09
271.167	4.76
271.546	5.37
271.925	4.63
272.304	4.84
272.683	4.54
273.062	5.24
273.441	5.23
273.82	4.77
274.199	4.98
274.578	4.54
274.957	4.96
275.336	4.61
275.715	4.86
276.093	4.89
276.472	4.23
276.851	4.61
277.229	4.6
277.608	4.54
277.986	5.53
278.365	5.2
278.743	4.77
279.122	4.48
279.5	4.79
279.878	4.61
280.257	4.51
280.635	4.43
281.013	4.38
281.391	5
281.769	5.16
282.147	4.38
282.525	4.55
282.903	4.86
283.281	5.15
283.659	4.46
284.037	4.88
284.415	4.99
284.792	5.17
285.17	4.38
285.548	4.92
285.925	4.94
286.303	4.78
286.68	4.64
287.058	4.9
287.435	4.52
287.813	4.73
288.19	4.5
288.567	4.44
288.945	4.35
289.322	4.95
289.699	4.75
290.076	4.9
290.453	4.5
290.83	4.3
291.207	4.8
291.584	4.62
291.961	4.96
292.338	4.94
292.715	4.39
293.092	4.66
293.469	4.48
293.845	4.77
294.222	4.7
294.599	4.39
294.975	4.5
295.352	4.49
295.728	5.03
296.105	4.65
296.481	4.79
296.858	4.78
297.234	4.94
297.61	4.95
297.986	4.58
298.363	4.68
298.739	4.67
299.115	4.85
299.491	4.75
299.867	4.52
300.243	4.86
300.619	5.01
300.995	5.09
301.371	5.27
301.746	4.85
302.122	4.76
302.498	4.94
302.874	4.94
303.249	4.53
303.625	4.43
304	4.71
304.376	4.38
304.751	4.38
305.127	4.2
305.502	4.75
305.878	4.8
306.253	5.05
306.628	4.31
307.003	4.25
307.378	4.79
307.754	4.39
308.129	4.39
308.504	4.51
308.879	4.51
309.254	4.91
309.629	4.92
310.003	4.47
310.378	4.79
310.753	4.82
311.128	4.76
311.502	4.45
311.877	5.03
312.252	4.53
312.626	4.82
313.001	4.63
313.375	4.57
313.75	4.56
314.124	4.46
314.498	4.61
314.873	4.72
315.247	4.81
315.621	4.62
315.995	5.05
316.369	4.47
316.743	4.9
317.117	5.3
317.491	4.53
317.865	4.81
318.239	4.69
318.613	4.49
318.987	4.42
319.361	5.11
319.734	4.86
320.108	4.92
320.482	4.78
320.855	4.47
321.229	4.79
321.602	4.1
321.976	4.3
322.349	5.19
322.723	4.55
323.096	4.81
323.469	4.46
323.843	4.82
324.216	4.95
324.589	4.9
324.962	4.91
325.335	4.91
325.708	4.01
326.081	4.63
326.454	4.68
326.827	4.9
327.2	4.41
327.573	4.88
327.945	4.57
328.318	4.64
328.691	4.83
329.063	4.53
329.436	4.75
329.809	4.43
330.181	4.84
330.553	4.53
330.926	4.76
331.298	4.74
331.671	4.79
332.043	4.48
332.415	4.61
332.787	4.5
333.159	4.71
333.532	4.69
333.904	4.81
334.276	4.6
334.648	5.5
335.02	4.4
335.391	4.56
335.763	4.62
336.135	4.58
336.507	4.23
336.879	4.33
337.25	4.92
337.622	4.7
337.993	4.62
338.365	4.65
338.736	4.81
339.108	5.19
339.479	5.21
339.851	4.47
340.222	4.72
340.593	4.73
340.964	4.92
341.336	4.32
341.707	4.23
342.078	4.91
342.449	5.23
342.82	4.71
343.191	4.26
343.562	4.49
343.933	4.71
344.303	4.5
344.674	4.75
345.045	4.49
345.416	4.57
345.786	4.76
346.157	4.72
346.527	5.02
346.898	4.96
347.268	4.42
347.639	4.74
348.009	4.83
348.38	4.65
348.75	4.74
349.12	4.51
349.49	4.87
349.861	4.43
350.231	4.75
350.601	4.84
350.971	4.38
351.341	4.8
351.711	4.8
352.081	4.88
352.45	4.79
352.82	4.64
353.19	4.75
353.56	4.78
353.929	4.32
354.299	4.79
354.669	4.91
355.038	5.1
355.408	4.52
355.777	4.49
356.147	4.82
356.516	4.41
356.885	4.86
357.254	4.56
357.624	4.36
357.993	4.58
358.362	4.55
358.731	4.92
359.1	4.66
359.469	4.7
359.838	4.78
360.207	4.51
360.576	4.93
360.945	4.68
361.314	4.76
361.682	4.75
362.051	4.79
362.42	5.02
362.788	4.96
363.157	4.81
363.525	4.78
363.894	4.76
364.262	5.06
364.631	4.86
364.999	4.95
365.367	4.67
365.735	4.9
366.104	4.74
366.472	5.01
366.84	4.43
367.208	4.85
367.576	4.65
367.944	4.96
368.312	4.89
368.68	4.41
369.048	4.71
369.416	4.67
369.783	4.91
370.151	4.5
370.519	5.22
370.886	4.82
371.254	4.81
371.621	5.01
371.989	4.65
372.356	4.83
372.724	4.91
373.091	4.82
373.458	4.69
373.826	4.94
374.193	4.84
374.56	4.68
374.927	5.1
375.294	4.77
375.661	5.08
376.028	4.5
376.395	4.94
376.762	5.17
377.129	4.71
377.496	5.09
377.863	5.05
378.229	4.75
378.596	4.45
378.963	4.92
379.329	4.6
379.696	4.83
380.062	5.08
380.429	4.92
380.795	4.64
381.161	4.9
381.528	5.13
381.894	4.58
382.26	4.85
382.626	4.73
382.993	4.99
383.359	5.01
383.725	4.94
384.091	4.93
384.457	5.01
384.823	5.15
385.188	4.72
385.554	4.87
385.92	4.7
386.286	4.7
386.651	5.09
387.017	4.97
387.383	4.82
387.748	4.59
388.114	4.81
388.479	5.52
388.845	5.19
389.21	5.26
389.575	5.12
389.94	5.07
390.306	4.91
390.671	5
391.036	4.68
391.401	5.23
391.766	4.73
392.131	4.72
392.496	4.88
392.861	4.9
393.226	5.03
393.591	5.13
393.956	5.16
394.32	4.83
394.685	5.01
395.05	4.94
395.414	4.88
395.779	5.01
396.143	4.87
396.508	5.09
396.872	5.01
397.236	5.07
397.601	4.91
397.965	5.05
398.329	4.88
398.694	5.05
399.058	5.13
399.422	5.04
399.786	4.81
400.15	5.1
400.514	4.9
400.878	5.06
401.242	5
401.605	5.02
401.969	5.21
402.333	4.97
402.697	4.89
403.06	5.15
403.424	5.19
403.787	5.06
404.151	5.09
404.514	5.21
404.878	5.31
405.241	5.19
405.604	5.26
405.968	4.88
406.331	4.95
406.694	4.86
407.057	5.35
407.42	5.17
407.783	4.95
408.146	5.18
408.509	5.22
408.872	5.37
409.235	5.15
409.598	5.12
409.961	5.19
410.323	5.11
410.686	5.11
411.049	5.1
411.411	4.96
411.774	5.09
412.136	5.3
412.499	5.52
412.861	5.14
413.223	5.2
413.586	5.17
413.948	5.35
414.31	5.04
414.672	5.33
415.035	5.23
415.397	5.01
415.759	5.25
416.121	5
416.483	4.95
416.845	5.24
417.206	5.06
417.568	5.26
417.93	5.33
418.292	5.14
418.653	5.26
419.015	5.13
419.377	5.27
419.738	5.02
420.1	5.24
420.461	5.22
420.822	5
421.184	5.14
421.545	5.12
421.906	5.04
422.267	4.97
422.629	5.13
422.99	5.16
423.351	4.91
423.712	5.12
424.073	5.18
424.434	5.11
424.795	5.1
425.155	5.16
425.516	5.2
425.877	5.13
426.238	5.21
426.598	5.09
426.959	5.03
427.32	5.07
427.68	5.16
428.041	5.15
428.401	5.21
428.761	5.39
429.122	5.21
429.482	5.38
429.842	4.93
430.202	5.4
430.563	5.3
430.923	5.45
431.283	5.18
431.643	5.32
432.003	5.53
432.363	5.45
432.722	5.17
433.082	5.34
433.442	5.24
433.802	5.19
434.161	5.38
434.521	5.19
434.881	5.3
435.24	5.24
435.6	5.28
435.959	5.25
436.319	5.27
436.678	5.35
437.037	5.42
437.396	5.43
437.756	5.6
438.115	5.31
438.474	5.31
438.833	5.55
439.192	5.38
439.551	5.45
439.91	5.32
440.269	5.29
440.628	5.44
440.987	5.26
441.345	5.38
441.704	5.45
442.063	5.36
442.421	5.34
442.78	5.31
443.138	5.37
443.497	5.42
443.855	5.29
444.214	5.44
444.572	5.44
444.93	5.41
445.288	5.43
445.647	5.3
446.005	5.36
446.363	5.41
446.721	5.41
447.079	5.41
447.437	5.3
447.795	5.36
448.153	5.24
448.51	5.42
448.868	5.33
449.226	5.34
449.584	5.39
449.941	5.37
450.299	5.45
450.656	5.4
451.014	5.55
451.371	5.59
451.729	5.64
452.086	5.37
452.443	5.52
452.801	5.5
453.158	5.58
453.515	5.56
453.872	5.35
454.229	5.61
454.586	5.58
454.943	5.64
455.3	5.56
455.657	5.48
456.014	5.55
456.371	5.51
456.727	5.41
457.084	5.63
457.441	5.59
457.797	5.59
458.154	5.56
458.51	5.7
458.867	5.53
459.223	5.73
459.58	5.75
459.936	5.5
460.292	5.67
460.648	5.63
461.005	5.45
461.361	5.53
461.717	5.58
462.073	5.5
462.429	5.67
462.785	5.65
463.141	5.62
463.496	5.52
463.852	5.69
464.208	5.69
464.564	5.76
464.919	5.76
465.275	5.75
465.631	5.78
465.986	5.82
466.342	5.65
466.697	5.62
467.052	5.76
467.408	5.67
467.763	5.67
468.118	5.86
468.473	5.75
468.829	5.67
469.184	5.8
469.539	5.64
469.894	5.83
470.249	5.66
470.603	5.83
470.958	5.68
471.313	5.6
471.668	5.57
472.023	5.64
472.377	5.87
472.732	5.69
473.086	5.61
473.441	5.75
473.795	5.78
474.15	5.68
474.504	5.84
474.859	5.67
475.213	5.79
475.567	5.73
475.921	5.76
476.275	5.9
476.63	5.79
476.984	5.76
477.338	5.88
477.692	5.91
478.045	5.81
478.399	5.78
478.753	5.94
479.107	5.79
479.461	5.96
479.814	5.89
480.168	5.92
480.521	5.69
480.875	5.78
481.228	5.95
481.582	5.82
481.935	5.75
482.289	5.79
482.642	5.88
482.995	5.89
483.348	5.89
483.701	5.83
484.055	5.77
484.408	5.78
484.761	5.83
485.114	5.66
485.466	5.62
485.819	5.56
486.172	5.56
486.525	5.56
486.878	5.59
487.23	5.62
487.583	5.65
487.936	5.66
488.288	5.73
488.641	5.7
488.993	5.72
489.345	5.69
489.698	5.66
490.05	5.69
490.402	5.62
490.754	5.71
491.107	5.77
491.459	5.79
491.811	5.79
492.163	5.85
492.515	5.94
492.866	5.82
493.218	5.76
493.57	5.74
493.922	5.8
494.274	5.77
494.625	5.76
494.977	5.83
495.328	5.88
495.68	5.85
496.031	5.95
496.383	6.03
496.734	5.93
497.086	6.13
497.437	6.06
497.788	6.11
498.139	6.05
498.49	6.03
498.842	6.04
499.193	5.98
499.544	6.08
499.894	5.94
500.245	6.01
500.596	6.03
500.947	6.13
501.298	6.01
501.648	6.08
501.999	6.3
502.35	6.06
502.7	6.14
503.051	6.13
503.401	6.1
503.752	6.17
504.102	6.04
504.452	6.11
504.803	6.19
505.153	6.14
505.503	6.09
505.853	6.08
506.203	6.07
506.553	6.18
506.903	6.09
507.253	6.06
507.603	6.2
507.953	6.21
508.303	6.23
508.652	6.15
509.002	6.31
509.352	6.27
509.701	6.22
510.051	6.23
510.4	6.23
510.75	6.22
511.099	6.19
511.449	6.14
511.798	6.24
512.147	6.22
512.496	6.15
512.846	6.06
513.195	6.22
513.544	6.09
513.893	6.39
514.242	6.13
514.591	6.12
514.939	6.35
515.288	6.15
515.637	6.22
515.986	6.28
516.334	6.25
516.683	6.31
517.032	6.31
517.38	6.34
517.729	6.24
518.077	6.37
518.426	6.27
518.774	6.31
519.122	6.39
519.47	6.33
519.819	6.21
520.167	6.25
520.515	6.2
520.863	6.19
521.211	6.24
521.559	6.3
521.907	6.2
522.255	6.28
522.602	6.3
522.95	6.32
523.298	6.39
523.645	6.4
523.993	6.35
524.341	6.44
524.688	6.34
525.036	6.32
525.383	6.49
525.73	6.48
526.078	6.41
526.425	6.4
526.772	6.41
527.119	6.24
527.466	6.4
527.814	6.3
528.161	6.3
528.508	6.33
528.854	6.35
529.201	6.29
529.548	6.25
529.895	6.25
530.242	6.17
530.588	6.17
530.935	6.2
531.282	6.24
531.628	6.13
531.975	6.26
532.321	6.31
532.667	6.32
533.014	6.37
533.36	6.41
533.706	6.46
534.052	6.48
534.399	6.43
534.745	6.39
535.091	6.31
535.437	6.36
535.783	6.35
536.129	6.44
536.474	6.36
536.82	6.45
537.166	6.4
537.512	6.5
537.857	6.53
538.203	6.5
538.549	6.44
538.894	6.55
539.239	6.55
539.585	6.55
539.93	6.49
540.276	6.52
540.621	6.57
540.966	6.65
541.311	6.41
541.656	6.6
542.001	6.69
542.346	6.59
542.691	6.57
543.036	6.41
543.381	6.49
543.726	6.5
544.071	6.43
544.415	6.46
544.76	6.53
545.105	6.52
545.449	6.55
545.794	6.51
546.138	6.6
546.483	6.63
546.827	6.76
547.171	6.75
547.516	6.64
547.86	6.73
548.204	6.7
548.548	6.56
548.892	6.68
549.236	6.76
549.58	6.64
549.924	6.75
550.268	6.71
550.612	6.55
550.956	6.78
551.3	6.74
551.643	6.77
551.987	6.66
552.33	6.8
552.674	6.95
553.017	6.99
553.361	6.94
553.704	6.86
554.048	6.83
554.391	6.77
554.734	7.02
555.077	6.83
555.42	6.94
555.764	6.99
556.107	7.02
556.45	7.17
556.793	7
557.135	6.77
557.478	6.84
557.821	7.12
558.164	7.01
558.507	6.96
558.849	7.17
559.192	7.2
559.534	6.95
559.877	7.17
560.219	6.98
560.562	7.02
560.904	7.02
561.246	6.95
561.589	7.09
561.931	6.88
562.273	6.96
562.615	6.95
562.957	6.95
563.299	6.98
563.641	7.11
563.983	6.93
564.325	6.88
564.667	7.05
565.008	7.11
565.35	6.99
565.692	7.2
566.033	7.13
566.375	7.14
566.716	7.17
567.058	7.04
567.399	7.15
567.741	7.22
568.082	7.07
568.423	7.08
568.764	7.07
569.105	7.07
569.447	7.18
569.788	7.06
570.129	7.15
570.47	7.16
570.811	7.23
571.151	7.18
571.492	7.28
571.833	7.35
572.174	7.34
572.514	7.06
572.855	6.99
573.195	7.11
573.536	7.08
573.876	7.2
574.217	7.19
574.557	7.18
574.898	7.16
575.238	7.03
575.578	7.35
575.918	7.26
576.258	7.06
576.598	7.3
576.938	7.18
577.278	7.07
577.618	7.23
577.958	7.25
578.298	7.27
578.638	7.25
578.977	7.3
579.317	7.2
579.657	7.34
579.996	7.4
580.336	7.41
580.675	7.28
581.014	7.35
581.354	7.37
581.693	7.63
582.032	7.14
582.372	7.27
582.711	7.45
583.05	7.37
583.389	7.1
583.728	7.37
584.067	7.54
584.406	7.35
584.745	7.63
585.083	7.49
585.422	7.65
585.761	7.5
586.1	7.37
586.438	7.26
586.777	7.45
587.115	7.33
587.454	7.71
587.792	7.68
588.13	7.54
588.469	7.53
588.807	7.66
589.145	7.58
589.483	7.07
589.821	7.37
590.159	7.33
590.497	7.79
590.835	7.68
591.173	7.34
591.511	7.64
591.849	7.59
592.187	7.44
592.524	7.45
592.862	7.5
593.2	7.56
593.537	7.64
593.875	7.74
594.212	7.55
594.55	7.43
594.887	7.58
595.224	7.75
595.561	7.46
595.899	7.48
596.236	7.95
596.573	7.65
596.91	7.74
597.247	7.53
597.584	7.46
597.921	7.83
598.258	7.37
598.594	7.31
598.931	7.7
599.268	7.55
599.604	7.57
599.941	7.6
600.277	7.43
600.614	7.59
600.95	7.65
601.287	7.63
601.623	7.86
601.959	7.73
602.296	7.78
602.632	7.87
602.968	7.7
603.304	7.64
603.64	7.64
603.976	7.33
604.312	7.94
604.648	7.58
604.984	7.74
605.319	7.83
605.655	7.6
605.991	7.79
606.326	7.68
606.662	7.79
606.998	7.69
607.333	7.69
607.668	7.84
608.004	7.69
608.339	7.7
608.674	7.93
609.01	7.69
609.345	8.04
609.68	7.8
610.015	7.86
610.35	7.75
610.685	7.94
611.02	7.82
611.355	8.07
611.689	7.99
612.024	7.89
612.359	7.8
612.694	7.86
613.028	8.01
613.363	8.17
613.697	7.79
614.032	7.82
614.366	7.9
614.7	8.03
615.035	8.02
615.369	7.87
615.703	8.3
616.037	7.95
616.371	7.92
616.705	7.96
617.039	7.94
617.373	8.16
617.707	8.22
618.041	8.25
618.375	8.31
618.709	7.96
619.042	7.92
619.376	7.92
619.71	8
620.043	8.68
620.377	8.27
620.71	8.26
621.043	7.7
621.377	8.1
621.71	8.15
622.043	8.41
622.376	8.18
622.709	8.23
623.043	8.08
623.376	8.4
623.709	8.15
624.041	8.18
624.374	8.2
624.707	7.69
625.04	8.23
625.373	8.7
625.705	8.1
626.038	8.14
626.37	8.42
626.703	8.37
627.035	8.42
627.368	8.29
627.7	8.35
628.032	8.4
628.365	8.39
628.697	8.35
629.029	8.31
629.361	8.12
629.693	8.09
630.025	8.49
630.357	8.32
630.689	8.38
631.021	8.19
631.353	8.32
631.684	8.43
632.016	8.54
632.348	8.19
632.679	8.03
633.011	8.35
633.342	8.64
633.674	7.89
634.005	8.31
634.336	8.39
634.668	8.29
634.999	8.36
635.33	8.17
635.661	8.44
635.992	8.73
636.323	8.26
636.654	8.33
636.985	8.5
637.316	8.27
637.647	8.39
637.977	8.77
638.308	8.69
638.639	8.58
638.969	8.23
639.3	8.77
639.63	8.38
639.961	8.5
640.291	8.56
640.622	8.44
640.952	8.55
641.282	8.53
641.612	8.97
641.943	8.56
642.273	8.34
642.603	8.84
642.933	8.63
643.263	8.2
643.592	8.51
643.922	9.07
644.252	8.84
644.582	8.78
644.911	8.43
645.241	8.49
645.571	8.79
645.9	8.68
646.23	8.55
646.559	8.87
646.888	8.44
647.218	8.79
647.547	8.82
647.876	9.04
648.205	8.74
648.534	8.51
648.863	8.87
649.192	9.08
649.521	8.51
649.85	9
650.179	8.99
650.508	8.38
650.837	8.99
651.165	8.85
651.494	8.82
651.822	8.9
652.151	8.83
652.479	8.3
652.808	8.46
653.136	8.81
653.465	8.77
653.793	8.81
654.121	8.39
654.449	8.32
654.777	8.36
655.105	9.15
655.433	8.88
655.761	8.74
656.089	8.25
656.417	9.19
656.745	8.36
657.073	9.05
657.4	8.74
657.728	8.71
658.056	8.2
658.383	8.77
658.711	8.55
659.038	8.74
659.365	9.44
659.693	9.26
660.02	9.08
660.347	8.79
660.674	8.73
661.001	9.04
661.329	8.83
661.656	9.06
661.982	8.59
662.309	8.76
662.636	9.11
662.963	8.84
663.29	8.42
663.616	9.24
663.943	9
664.27	9.76
664.596	8.68
664.923	9.24
665.249	9.14
665.576	9.09
665.902	8.54
666.228	8.79
666.554	10.03
666.881	8.16
667.207	9.06
667.533	8.82
667.859	9.24
668.185	9.29
668.511	9.61
668.837	9.08
669.162	9.12
669.488	8.86
669.814	8.86
670.139	8.61
670.465	8.91
670.791	9.36
671.116	9.13
671.442	9.3
671.767	9.09
672.092	8.89
672.418	9.38
672.743	10.1
673.068	8.93
673.393	9.79
673.718	9.57
674.043	8.94
674.368	8.59
674.693	8.96
675.018	9.54
675.343	9.23
675.667	9.55
675.992	9
676.317	9.24
676.641	9.23
676.966	8.7
677.29	9.49
677.615	9.98
677.939	8.6
678.264	9.71
678.588	9.48
678.912	10
679.236	9.61
679.56	9.18
679.885	9.56
680.209	9.41
680.532	9.66
680.856	8.63
681.18	9.04
681.504	9.5
681.828	9.84
682.152	9.78
682.475	9.2
682.799	10.01
683.122	9.58
683.446	9.26
683.769	8.91
684.093	9.69
684.416	9.43
684.739	9.45
685.062	10
685.386	9.45
685.709	10.06
686.032	10.05
686.355	10.42
686.678	10.08
687.001	9.41
687.324	9.84
687.646	10.1
687.969	9.24
688.292	9.8
688.614	10.06
688.937	9.94
689.26	9.31
689.582	9.58
689.904	10.28
690.227	9.86
690.549	10.06
690.871	9.48
691.194	9.64
691.516	9.76
691.838	9.64
692.16	10.1
692.482	9.26
692.804	10.17
