Data from 0044_chest_Reflection__4__124.txt Node

Date: Fri Nov 04 15:51:31 CDT 2022
User: ToomeyLab
Spectrometer: FLMS14357
Trigger mode: 0
Integration Time (sec): 1.000000E-2
Scans to average: 100
Electric dark correction enabled: true
Nonlinearity correction enabled: false
Boxcar width: 0
XAxis mode: Wavelengths
Number of Pixels in Spectrum: 2048
>>>>>Begin Spectral Data<<<<<
189.047	492.52
189.435	492.52
189.823	492.52
190.211	-24.86
190.599	1691.81
190.987	14.84
191.375	64.91
191.763	432.79
192.151	-15.01
192.538	-115.37
192.926	76.78
193.314	-11.29
193.702	115.6
194.089	101.24
194.477	-455.71
194.864	84.33
195.252	101.2
195.639	-76.74
196.027	39.56
196.414	-14.09
196.801	180.94
197.189	1.32
197.576	-161.15
197.963	-62.15
198.351	-2.43
198.738	23.8
199.125	60.66
199.512	-18.46
199.899	-20.54
200.286	-57.73
200.673	-5.51
201.06	-17.2
201.447	-21.92
201.833	15.84
202.22	-7.2
202.607	23.17
202.994	36.49
203.38	26.18
203.767	16.32
204.154	45.26
204.54	-71.18
204.927	21.35
205.313	13.76
205.699	46.97
206.086	-10.8
206.472	-0.54
206.858	-22.1
207.245	0.58
207.631	9.93
208.017	-2.07
208.403	9.22
208.789	20.5
209.175	-16.63
209.561	-29.43
209.947	-57.98
210.333	39.07
210.719	4.12
211.105	-36.5
211.491	0.92
211.876	-2.92
212.262	-22.21
212.648	16.28
213.034	46.84
213.419	-25.3
213.805	-29.15
214.19	-37.66
214.576	-3.18
214.961	20.16
215.346	-13.35
215.732	14.85
216.117	12.77
216.502	-0.5
216.888	-36.74
217.273	-8.67
217.658	4.96
218.043	-9.39
218.428	15.07
218.813	4.18
219.198	-0.64
219.583	-28.81
219.968	4.45
220.353	-8.17
220.738	-29.14
221.122	-8.54
221.507	3.62
221.892	-28.12
222.276	-7.56
222.661	12.72
223.046	7.87
223.43	-4.31
223.815	-4.81
224.199	10.92
224.583	6.11
224.968	-5.52
225.352	6.87
225.736	-0.26
226.121	-5.97
226.505	10.09
226.889	1.31
227.273	4.58
227.657	-0.11
228.041	3.65
228.425	5.7
228.809	7.99
229.193	1.93
229.577	1.14
229.961	5.86
230.344	4.88
230.728	5.01
231.112	4.17
231.495	5.16
231.879	5.22
232.263	3.65
232.646	2.97
233.03	3.85
233.413	3.76
233.797	4.32
234.18	1.32
234.563	5.98
234.946	6.31
235.33	5.83
235.713	5.15
236.096	4.49
236.479	3.77
236.862	3.11
237.245	3.47
237.628	3
238.011	3.42
238.394	6.57
238.777	4.63
239.16	5.99
239.543	3.54
239.925	6.61
240.308	6.1
240.691	4.42
241.073	4.02
241.456	4.75
241.838	2.7
242.221	4.58
242.603	4.56
242.986	3.25
243.368	4.62
243.75	4.25
244.133	4.5
244.515	4.39
244.897	4.5
245.279	4.42
245.661	5.12
246.043	4.89
246.425	3.51
246.807	4.95
247.189	4.59
247.571	4.28
247.953	3.99
248.335	4.27
248.717	4.44
249.098	4.09
249.48	4.27
249.862	4.35
250.243	4.22
250.625	3.93
251.006	4.2
251.388	3.59
251.769	3.93
252.151	3.94
252.532	3.54
252.913	4.19
253.295	5.22
253.676	3.99
254.057	3.82
254.438	3.91
254.819	4.19
255.2	3.09
255.581	4.47
255.962	4.2
256.343	3.88
256.724	3.06
257.105	4.41
257.486	4.82
257.867	5.92
258.247	5.02
258.628	2.54
259.009	3.38
259.389	3.98
259.77	4.19
260.15	4.05
260.531	4.09
260.911	3.63
261.292	3.81
261.672	3.92
262.052	3.9
262.432	4.09
262.813	4.02
263.193	3.5
263.573	3.67
263.953	3.63
264.333	4.41
264.713	4.32
265.093	3.71
265.473	4.69
265.853	2.89
266.233	4.06
266.612	4.62
266.992	4.09
267.372	3.25
267.752	3.86
268.131	4.05
268.511	4.2
268.89	4.08
269.27	3.62
269.649	3.54
270.029	3.84
270.408	4.12
270.787	4.01
271.167	3.87
271.546	4.25
271.925	3.94
272.304	3.59
272.683	3.5
273.062	4.15
273.441	3.98
273.82	3.37
274.199	4.19
274.578	3.37
274.957	3.85
275.336	3.63
275.715	3.26
276.093	3.96
276.472	3.79
276.851	3.66
277.229	3.57
277.608	3.61
277.986	4.37
278.365	3.99
278.743	3.94
279.122	3.81
279.5	4.17
279.878	3.88
280.257	3.83
280.635	3.79
281.013	3.42
281.391	3.92
281.769	3.87
282.147	3.42
282.525	3.56
282.903	4.01
283.281	4.35
283.659	3.4
284.037	3.48
284.415	3.32
284.792	3.84
285.17	3.47
285.548	4.03
285.925	3.5
286.303	3.5
286.68	4.15
287.058	3.63
287.435	3.42
287.813	3.53
288.19	3.54
288.567	3.36
288.945	3.61
289.322	4.05
289.699	3.79
290.076	4
290.453	3.49
290.83	3.37
291.207	3.34
291.584	4.01
291.961	3.79
292.338	3.89
292.715	3.64
293.092	3.56
293.469	3.67
293.845	3.21
294.222	3.74
294.599	3.59
294.975	4.01
295.352	3.45
295.728	3.58
296.105	3.88
296.481	3.47
296.858	3.65
297.234	3.91
297.61	3.82
297.986	3.48
298.363	3.81
298.739	3.71
299.115	4.04
299.491	3.59
299.867	3.52
300.243	3.51
300.619	3.88
300.995	4.08
301.371	3.91
301.746	3.72
302.122	3.95
302.498	3.93
302.874	3.99
303.249	3.61
303.625	3.63
304	4.02
304.376	3.36
304.751	3.92
305.127	3.28
305.502	3.66
305.878	3.75
306.253	3.77
306.628	3.2
307.003	3.64
307.378	3.69
307.754	3.32
308.129	3.1
308.504	3.26
308.879	3.92
309.254	3.61
309.629	3.59
310.003	3.66
310.378	3.76
310.753	3.86
311.128	3.43
311.502	3.46
311.877	3.46
312.252	3.59
312.626	3.47
313.001	3.5
313.375	3.77
313.75	3.4
314.124	3.59
314.498	3.85
314.873	3.85
315.247	3.91
315.621	4.02
315.995	3.64
316.369	3.72
316.743	4.13
317.117	3.96
317.491	3.87
317.865	3.58
318.239	3.87
318.613	4
318.987	3.04
319.361	3.98
319.734	4.31
320.108	3.43
320.482	3.17
320.855	3.73
321.229	3.34
321.602	3.5
321.976	3.31
322.349	4.69
322.723	3.29
323.096	3.48
323.469	3.64
323.843	3.85
324.216	3.87
324.589	4.32
324.962	4.22
325.335	3.88
325.708	3.2
326.081	4
326.454	3.83
326.827	4.04
327.2	3.64
327.573	3.14
327.945	3.84
328.318	3.42
328.691	3.6
329.063	3.58
329.436	3.75
329.809	3.46
330.181	3.99
330.553	3.48
330.926	4.08
331.298	4
331.671	3.7
332.043	3.74
332.415	3.42
332.787	3.75
333.159	3.41
333.532	3.23
333.904	3.7
334.276	3.54
334.648	3.89
335.02	3.13
335.391	3.95
335.763	3.69
336.135	3.74
336.507	3.64
336.879	3.9
337.25	4.15
337.622	3.68
337.993	3.77
338.365	3.52
338.736	4.18
339.108	4.16
339.479	4.28
339.851	3.94
340.222	3.39
340.593	4
340.964	3.91
341.336	3.83
341.707	3.47
342.078	3.88
342.449	3.57
342.82	3.8
343.191	3.82
343.562	4.05
343.933	3.92
344.303	3.74
344.674	3.9
345.045	3.86
345.416	3.4
345.786	3.96
346.157	3.9
346.527	4.01
346.898	4.08
347.268	3.94
347.639	3.73
348.009	4.28
348.38	3.85
348.75	3.54
349.12	3.22
349.49	3.87
349.861	3.64
350.231	3.68
350.601	3.79
350.971	3.92
351.341	3.99
351.711	3.95
352.081	3.81
352.45	3.78
352.82	3.87
353.19	3.89
353.56	3.66
353.929	3.4
354.299	3.92
354.669	3.75
355.038	3.92
355.408	3.86
355.777	4.09
356.147	3.51
356.516	3.65
356.885	3.86
357.254	4.16
357.624	3.71
357.993	3.9
358.362	3.46
358.731	3.97
359.1	4.15
359.469	3.94
359.838	3.79
360.207	4.02
360.576	4.11
360.945	4.13
361.314	4.13
361.682	3.85
362.051	4.07
362.42	3.96
362.788	3.79
363.157	3.82
363.525	3.92
363.894	3.88
364.262	4.12
364.631	3.91
364.999	3.92
365.367	3.78
365.735	4.09
366.104	3.65
366.472	3.94
366.84	3.35
367.208	4.07
367.576	3.92
367.944	3.94
368.312	3.7
368.68	3.89
369.048	3.98
369.416	3.84
369.783	3.79
370.151	3.92
370.519	4.57
370.886	3.93
371.254	3.97
371.621	3.89
371.989	3.75
372.356	4.09
372.724	3.75
373.091	4.08
373.458	3.79
373.826	3.97
374.193	3.97
374.56	3.56
374.927	4.25
375.294	3.83
375.661	4.07
376.028	3.95
376.395	4.46
376.762	4
377.129	3.85
377.496	4.04
377.863	4.08
378.229	3.73
378.596	3.85
378.963	4.02
379.329	3.82
379.696	3.9
380.062	4.12
380.429	3.93
380.795	3.72
381.161	3.93
381.528	4.1
381.894	3.66
382.26	3.78
382.626	3.86
382.993	4.22
383.359	3.91
383.725	3.81
384.091	4.11
384.457	4.22
384.823	4.1
385.188	4.63
385.554	3.99
385.92	3.66
386.286	4.17
386.651	3.8
387.017	3.9
387.383	4.01
387.748	4
388.114	3.86
388.479	4.32
388.845	3.93
389.21	4.13
389.575	4.22
389.94	4.08
390.306	3.8
390.671	3.93
391.036	3.96
391.401	4.37
391.766	3.86
392.131	4.05
392.496	4.13
392.861	3.95
393.226	4.04
393.591	4.08
393.956	4.17
394.32	3.92
394.685	4.11
395.05	4.09
395.414	4.03
395.779	4.09
396.143	3.83
396.508	4.26
396.872	4.33
397.236	4.05
397.601	3.95
397.965	4.07
398.329	4.13
398.694	3.95
399.058	4.09
399.422	3.97
399.786	3.93
400.15	4.14
400.514	3.97
400.878	4.08
401.242	4.1
401.605	3.91
401.969	4.04
402.333	4.05
402.697	4.05
403.06	4.21
403.424	3.98
403.787	4.15
404.151	4.07
404.514	4.27
404.878	4.2
405.241	4.18
405.604	4.21
405.968	3.95
406.331	4.19
406.694	3.94
407.057	4.1
407.42	4.19
407.783	4.03
408.146	4.19
408.509	4.29
408.872	4.04
409.235	3.98
409.598	4.18
409.961	4.31
410.323	4.03
410.686	3.9
411.049	4.02
411.411	3.9
411.774	4.39
412.136	4.25
412.499	4.18
412.861	4.17
413.223	3.98
413.586	3.83
413.948	4.29
414.31	4.22
414.672	4.29
415.035	4.24
415.397	4.24
415.759	4.13
416.121	4.06
416.483	4.23
416.845	4.07
417.206	4.12
417.568	4.26
417.93	4.28
418.292	4.14
418.653	4.12
419.015	4.15
419.377	4.12
419.738	4.1
420.1	4.11
420.461	4.24
420.822	4.02
421.184	4.16
421.545	4.18
421.906	4.11
422.267	4.01
422.629	4.18
422.99	4.13
423.351	3.96
423.712	4.01
424.073	4.18
424.434	4.05
424.795	4.04
425.155	4.22
425.516	4.09
425.877	4.03
426.238	4.02
426.598	4.03
426.959	4.08
427.32	4.13
427.68	4.11
428.041	4.09
428.401	4.18
428.761	4.2
429.122	4.16
429.482	4.38
429.842	3.93
430.202	4.41
430.563	4.37
430.923	4.35
431.283	4.14
431.643	4.27
432.003	4.38
432.363	4.31
432.722	4.19
433.082	4.3
433.442	4.11
433.802	4.24
434.161	4.23
434.521	4.3
434.881	4.18
435.24	4.05
435.6	4.23
435.959	4.19
436.319	4.23
436.678	4.3
437.037	4.18
437.396	4.34
437.756	4.3
438.115	4.21
438.474	4.31
438.833	4.35
439.192	4.31
439.551	4.35
439.91	4.3
440.269	4.26
440.628	4.29
440.987	4.27
441.345	4.23
441.704	4.18
442.063	4.03
442.421	4.12
442.78	4.27
443.138	4.26
443.497	4.16
443.855	4.15
444.214	4.34
444.572	4.24
444.93	4.14
445.288	4.17
445.647	4.15
446.005	4.25
446.363	4.29
446.721	4.21
447.079	4.22
447.437	4.18
447.795	4.28
448.153	4.1
448.51	4.27
448.868	4.1
449.226	4.16
449.584	4.16
449.941	4.16
450.299	4.16
450.656	4.2
451.014	4.38
451.371	4.43
451.729	4.19
452.086	4.31
452.443	4.25
452.801	4.36
453.158	4.4
453.515	4.38
453.872	4.26
454.229	4.38
454.586	4.36
454.943	4.35
455.3	4.29
455.657	4.12
456.014	4.28
456.371	4.34
456.727	4.29
457.084	4.34
457.441	4.32
457.797	4.17
458.154	4.25
458.51	4.24
458.867	4.32
459.223	4.39
459.58	4.59
459.936	4.19
460.292	4.24
460.648	4.27
461.005	4.33
461.361	4.27
461.717	4.25
462.073	4.33
462.429	4.31
462.785	4.28
463.141	4.22
463.496	4.21
463.852	4.41
464.208	4.32
464.564	4.28
464.919	4.41
465.275	4.4
465.631	4.44
465.986	4.39
466.342	4.28
466.697	4.34
467.052	4.28
467.408	4.26
467.763	4.38
468.118	4.62
468.473	4.42
468.829	4.3
469.184	4.35
469.539	4.35
469.894	4.53
470.249	4.25
470.603	4.34
470.958	4.35
471.313	4.35
471.668	4.26
472.023	4.17
472.377	4.47
472.732	4.33
473.086	4.26
473.441	4.37
473.795	4.45
474.15	4.39
474.504	4.37
474.859	4.37
475.213	4.36
475.567	4.32
475.921	4.2
476.275	4.6
476.63	4.27
476.984	4.35
477.338	4.41
477.692	4.51
478.045	4.37
478.399	4.37
478.753	4.5
479.107	4.37
479.461	4.42
479.814	4.41
480.168	4.42
480.521	4.32
480.875	4.37
481.228	4.45
481.582	4.39
481.935	4.32
482.289	4.35
482.642	4.45
482.995	4.44
483.348	4.39
483.701	4.47
484.055	4.32
484.408	4.4
484.761	4.34
485.114	4.22
485.466	4.18
485.819	4.13
486.172	4.18
486.525	4.16
486.878	4.21
487.23	4.25
487.583	4.28
487.936	4.34
488.288	4.25
488.641	4.27
488.993	4.23
489.345	4.22
489.698	4.23
490.05	4.24
490.402	4.24
490.754	4.36
491.107	4.34
491.459	4.33
491.811	4.32
492.163	4.39
492.515	4.35
492.866	4.39
493.218	4.31
493.57	4.28
493.922	4.28
494.274	4.24
494.625	4.29
494.977	4.4
495.328	4.4
495.68	4.37
496.031	4.51
496.383	4.45
496.734	4.54
497.086	4.54
497.437	4.57
497.788	4.61
498.139	4.44
498.49	4.42
498.842	4.54
499.193	4.47
499.544	4.43
499.894	4.41
500.245	4.41
500.596	4.4
500.947	4.39
501.298	4.5
501.648	4.6
501.999	4.6
502.35	4.54
502.7	4.42
503.051	4.54
503.401	4.51
503.752	4.59
504.102	4.62
504.452	4.54
504.803	4.61
505.153	4.48
505.503	4.51
505.853	4.62
506.203	4.54
506.553	4.53
506.903	4.58
507.253	4.6
507.603	4.48
507.953	4.57
508.303	4.59
508.652	4.43
509.002	4.57
509.352	4.6
509.701	4.45
510.051	4.53
510.4	4.59
510.75	4.6
511.099	4.57
511.449	4.53
511.798	4.53
512.147	4.45
512.496	4.45
512.846	4.45
513.195	4.62
513.544	4.58
513.893	4.56
514.242	4.64
514.591	4.48
514.939	4.63
515.288	4.53
515.637	4.61
515.986	4.63
516.334	4.6
516.683	4.67
517.032	4.74
517.38	4.72
517.729	4.67
518.077	4.67
518.426	4.7
518.774	4.71
519.122	4.65
519.47	4.7
519.819	4.52
520.167	4.61
520.515	4.65
520.863	4.55
521.211	4.64
521.559	4.62
521.907	4.53
522.255	4.56
522.602	4.69
522.95	4.66
523.298	4.8
523.645	4.84
523.993	4.71
524.341	4.82
524.688	4.72
525.036	4.68
525.383	4.72
525.73	4.71
526.078	4.78
526.425	4.67
526.772	4.67
527.119	4.73
527.466	4.67
527.814	4.6
528.161	4.67
528.508	4.67
528.854	4.69
529.201	4.59
529.548	4.58
529.895	4.59
530.242	4.59
530.588	4.52
530.935	4.53
531.282	4.57
531.628	4.48
531.975	4.63
532.321	4.66
532.667	4.71
533.014	4.73
533.36	4.75
533.706	4.85
534.052	4.84
534.399	4.8
534.745	4.66
535.091	4.68
535.437	4.7
535.783	4.65
536.129	4.74
536.474	4.8
536.82	4.74
537.166	4.83
537.512	4.91
537.857	4.83
538.203	4.73
538.549	4.78
538.894	4.8
539.239	4.84
539.585	4.73
539.93	4.82
540.276	4.81
540.621	4.8
540.966	4.92
541.311	4.82
541.656	4.94
542.001	4.98
542.346	4.93
542.691	4.95
543.036	4.73
543.381	4.77
543.726	4.84
544.071	4.78
544.415	4.85
544.76	4.81
545.105	4.88
545.449	4.95
545.794	4.94
546.138	4.92
546.483	4.96
546.827	4.92
547.171	5.09
547.516	5
547.86	5.02
548.204	5.02
548.548	4.94
548.892	4.93
549.236	5.1
549.58	5.18
549.924	5.12
550.268	5.24
550.612	5.07
550.956	5.2
551.3	5.11
551.643	5.18
551.987	5.06
552.33	5.34
552.674	5.16
553.017	5.32
553.361	5.36
553.704	5.08
554.048	5.16
554.391	5
554.734	5.28
555.077	5.2
555.42	5.24
555.764	5.48
556.107	5.44
556.45	5.37
556.793	5.36
557.135	5.24
557.478	5.31
557.821	5.49
558.164	5.4
558.507	5.36
558.849	5.5
559.192	5.73
559.534	5.54
559.877	5.51
560.219	5.4
560.562	5.55
560.904	5.49
561.246	5.5
561.589	5.45
561.931	5.56
562.273	5.52
562.615	5.4
562.957	5.49
563.299	5.44
563.641	5.32
563.983	5.58
564.325	5.46
564.667	5.57
565.008	5.49
565.35	5.5
565.692	5.79
566.033	5.71
566.375	5.84
566.716	5.68
567.058	5.77
567.399	5.68
567.741	5.59
568.082	5.67
568.423	5.59
568.764	5.58
569.105	5.64
569.447	5.75
569.788	5.56
570.129	5.88
570.47	5.84
570.811	5.95
571.151	5.72
571.492	6.09
571.833	5.8
572.174	5.94
572.514	5.73
572.855	5.81
573.195	5.75
573.536	5.81
573.876	5.72
574.217	5.7
574.557	5.76
574.898	5.96
575.238	5.89
575.578	6.04
575.918	5.89
576.258	5.87
576.598	5.98
576.938	6.06
577.278	5.8
577.618	5.86
577.958	5.84
578.298	6.01
578.638	6.02
578.977	6.26
579.317	6.19
579.657	6.01
579.996	6.03
580.336	6.19
580.675	5.97
581.014	6.18
581.354	6.11
581.693	6.33
582.032	6.09
582.372	6.3
582.711	6.27
583.05	6.03
583.389	6.2
583.728	6.11
584.067	6.41
584.406	6.12
584.745	6.5
585.083	6.19
585.422	6.29
585.761	6.44
586.1	6.2
586.438	6.44
586.777	6.39
587.115	6.3
587.454	6.54
587.792	6.62
588.13	6.53
588.469	6.52
588.807	6.63
589.145	6.43
589.483	6.45
589.821	6.65
590.159	6.51
590.497	6.54
590.835	6.44
591.173	6.62
591.511	6.69
591.849	6.7
592.187	6.81
592.524	6.81
592.862	6.75
593.2	6.63
593.537	6.58
593.875	7.01
594.212	6.59
594.55	6.77
594.887	6.89
595.224	6.87
595.561	6.6
595.899	6.81
596.236	6.91
596.573	7.01
596.91	6.91
597.247	6.84
597.584	6.6
597.921	7.16
598.258	6.71
598.594	6.66
598.931	6.98
599.268	6.86
599.604	7.06
599.941	7.08
600.277	6.82
600.614	6.96
600.95	7.2
601.287	6.86
601.623	7.2
601.959	7.34
602.296	7.4
602.632	7.14
602.968	7.2
603.304	7.04
603.64	7.35
603.976	7.06
604.312	7.15
604.648	7.17
604.984	7.35
605.319	7.09
605.655	7.07
605.991	7.21
606.326	7.31
606.662	7.34
606.998	7.38
607.333	7.31
607.668	7.44
608.004	7.37
608.339	7.28
608.674	7.57
609.01	7.38
609.345	7.42
609.68	7.44
610.015	7.81
610.35	7.68
610.685	7.73
611.02	7.77
611.355	7.73
611.689	7.7
612.024	7.56
612.359	7.62
612.694	7.69
613.028	7.8
613.363	8.02
613.697	7.69
614.032	7.91
614.366	7.75
614.7	7.58
615.035	8.02
615.369	7.83
615.703	8.21
616.037	7.74
616.371	8.22
616.705	7.92
617.039	8.07
617.373	7.99
617.707	8.24
618.041	8.22
618.375	7.79
618.709	8.39
619.042	8.36
619.376	7.92
619.71	8.34
620.043	8.37
620.377	8.1
620.71	8.57
621.043	8.05
621.377	8.18
621.71	8.41
622.043	8.55
622.376	8.35
622.709	8.44
623.043	8.27
623.376	8.88
623.709	7.99
624.041	8.32
624.374	8.18
624.707	8.12
625.04	8.56
625.373	8.55
625.705	8.07
626.038	8.58
626.37	8.6
626.703	8.71
627.035	8.45
627.368	8.52
627.7	8.31
628.032	8.46
628.365	9.08
628.697	8.71
629.029	8.59
629.361	8.83
629.693	8.93
630.025	8.93
630.357	8.59
630.689	8.99
631.021	8.5
631.353	8.77
631.684	8.98
632.016	9.1
632.348	8.77
632.679	8.9
633.011	9.19
633.342	9.02
633.674	8.99
634.005	9.16
634.336	9.4
634.668	8.8
634.999	9.17
635.33	8.65
635.661	9.15
635.992	9.38
636.323	9.19
636.654	8.7
636.985	9.05
637.316	8.86
637.647	9.03
637.977	9.42
638.308	9.77
638.639	9.4
638.969	9.22
639.3	9.85
639.63	9.48
639.961	9.54
640.291	9.87
640.622	9.65
640.952	9.57
641.282	9.53
641.612	10.03
641.943	9.67
642.273	9.01
642.603	9.8
642.933	9.61
643.263	9.25
643.592	9.69
643.922	9.88
644.252	9.89
644.582	9.56
644.911	9.97
645.241	9.72
645.571	9.54
645.9	9.92
646.23	10.07
646.559	9.89
646.888	9.58
647.218	10.1
647.547	9.82
647.876	10.18
648.205	9.69
648.534	10.11
648.863	10.17
649.192	10.4
649.521	9.86
649.85	10.6
650.179	10.19
650.508	10.2
650.837	10.37
651.165	10.31
651.494	10.07
651.822	10.11
652.151	10.11
652.479	10.02
652.808	10.11
653.136	10.63
653.465	10.26
653.793	11
654.121	10.32
654.449	10.08
654.777	10.21
655.105	10.15
655.433	10.46
655.761	10.36
656.089	10.81
656.417	10.04
656.745	10.25
657.073	10.1
657.4	10.25
657.728	10.07
658.056	10.23
658.383	10.35
658.711	10.83
659.038	10.92
659.365	11.31
659.693	10.86
660.02	10.99
660.347	10.6
660.674	10.58
661.001	10.86
661.329	10.85
661.656	11.05
661.982	10.66
662.309	11.05
662.636	11.06
662.963	10.52
663.29	10.59
663.616	11.29
663.943	10.89
664.27	11.26
664.596	10.89
664.923	11.02
665.249	11.45
665.576	11.26
665.902	10.76
666.228	11.4
666.554	11.28
666.881	11.22
667.207	11.34
667.533	11.53
667.859	11.48
668.185	11.34
668.511	11.27
668.837	11.17
669.162	11.32
669.488	11.51
669.814	11.51
670.139	11.29
670.465	12.2
670.791	11.4
671.116	12.06
671.442	11.48
671.767	11.66
672.092	11.34
672.418	11.37
672.743	11.73
673.068	12.11
673.393	12.26
673.718	11.69
674.043	11.74
674.368	11.3
674.693	12.05
675.018	11.72
675.343	12.32
675.667	11.86
675.992	11.62
676.317	11.86
676.641	12.1
676.966	11.82
677.29	12.33
677.615	13.05
677.939	12.18
678.264	12.55
678.588	12.22
678.912	12.65
679.236	12.38
679.56	12.48
679.885	12.51
680.209	13.18
680.532	12.47
680.856	12.33
681.18	11.83
681.504	12.55
681.828	12.62
682.152	13.03
682.475	12.15
682.799	12.41
683.122	12.28
683.446	12.48
683.769	12.24
684.093	12.67
684.416	12.3
684.739	12.53
685.062	13.09
685.386	12.52
685.709	13.56
686.032	12.98
686.355	13.99
686.678	13.01
687.001	13.36
687.324	12.74
687.646	13.08
687.969	13.33
688.292	12.93
688.614	13.71
688.937	13.1
689.26	12.61
689.582	13.48
