Data from 0044_crown_Reflection__4__129.txt Node

Date: Fri Nov 04 15:53:18 CDT 2022
User: ToomeyLab
Spectrometer: FLMS14357
Trigger mode: 0
Integration Time (sec): 1.000000E-2
Scans to average: 100
Electric dark correction enabled: true
Nonlinearity correction enabled: false
Boxcar width: 0
XAxis mode: Wavelengths
Number of Pixels in Spectrum: 2048
>>>>>Begin Spectral Data<<<<<
189.047	780.33
189.435	780.33
189.823	780.33
190.211	32.91
190.599	433.1
190.987	-9.3
191.375	73.39
191.763	323.24
192.151	100.27
192.538	37.79
192.926	237.36
193.314	-0.99
193.702	48.56
194.089	-5.53
194.477	466.28
194.864	58.97
195.252	94.16
195.639	-5.16
196.027	78.58
196.414	168.68
196.801	315.83
197.189	62.94
197.576	-450.83
197.963	-73.46
198.351	-14
198.738	51.5
199.125	4.42
199.512	-43.1
199.899	-60
200.286	-4.41
200.673	-9.77
201.06	-3.57
201.447	-66.98
201.833	-13.05
202.22	-2.6
202.607	6.58
202.994	20.09
203.38	30.35
203.767	-4.49
204.154	18.83
204.54	-15.53
204.927	7.56
205.313	2.9
205.699	36.73
206.086	-10.7
206.472	-46.59
206.858	-62.7
207.245	-2.02
207.631	-21.45
208.017	-36.22
208.403	0.44
208.789	10.54
209.175	-21.41
209.561	-58.83
209.947	-102.73
210.333	14.4
210.719	-26.37
211.105	-65.88
211.491	16.63
211.876	6.42
212.262	-42.51
212.648	-14.44
213.034	2.67
213.419	-22.71
213.805	-13.51
214.19	-76.22
214.576	-35.51
214.961	4.42
215.346	-16.87
215.732	34.07
216.117	-8.88
216.502	-9.79
216.888	17.03
217.273	-17.15
217.658	18
218.043	4.98
218.428	7.96
218.813	-3.98
219.198	0.42
219.583	-34.34
219.968	1
220.353	-30.74
220.738	-14.16
221.122	-6.42
221.507	5.27
221.892	-20.36
222.276	-4.68
222.661	10.83
223.046	-13.39
223.43	-16.16
223.815	-14.64
224.199	-6.79
224.583	3.09
224.968	5.89
225.352	-4.9
225.736	-5.66
226.121	-5.12
226.505	7.6
226.889	0.75
227.273	0.7
227.657	4.81
228.041	0.68
228.425	2.57
228.809	5.87
229.193	5.49
229.577	0.85
229.961	6.08
230.344	4.02
230.728	4.02
231.112	3.7
231.495	3.96
231.879	4.5
232.263	3.89
232.646	4
233.03	2.93
233.413	3.57
233.797	2.6
234.18	4.02
234.563	2.01
234.946	2.71
235.33	5.24
235.713	5.96
236.096	3.67
236.479	2.85
236.862	3.87
237.245	2.8
237.628	3.88
238.011	2.64
238.394	4.17
238.777	4.63
239.16	1.89
239.543	1.8
239.925	3.57
240.308	4.07
240.691	4.22
241.073	4.39
241.456	4.18
241.838	2.84
242.221	3.39
242.603	3.34
242.986	3.44
243.368	3.64
243.75	3.93
244.133	3.92
244.515	4.22
244.897	4
245.279	3.38
245.661	4.52
246.043	4.05
246.425	3.11
246.807	4.18
247.189	3.77
247.571	5.16
247.953	3.91
248.335	3.68
248.717	3.72
249.098	3.79
249.48	3.93
249.862	4.24
250.243	3.93
250.625	3.36
251.006	4.1
251.388	4.24
251.769	4.58
252.151	4.18
252.532	3.14
252.913	3.24
253.295	4.13
253.676	3.42
254.057	3.3
254.438	3.47
254.819	3.61
255.2	3.1
255.581	3.81
255.962	2.9
256.343	3.01
256.724	3.84
257.105	2.89
257.486	3.58
257.867	5.89
258.247	4.56
258.628	3.12
259.009	3.67
259.389	3.14
259.77	3.44
260.15	3.55
260.531	3.43
260.911	3.53
261.292	3.58
261.672	3.81
262.052	3.83
262.432	3.66
262.813	3.51
263.193	3.02
263.573	3.62
263.953	3.34
264.333	3.52
264.713	3.34
265.093	3.18
265.473	3.53
265.853	2.85
266.233	3.72
266.612	3.64
266.992	4.5
267.372	2.39
267.752	3.26
268.131	3.19
268.511	3.18
268.89	3.45
269.27	3.62
269.649	3.54
270.029	3.23
270.408	3.34
270.787	4.18
271.167	3.49
271.546	4.46
271.925	3.48
272.304	3.76
272.683	3.43
273.062	3.34
273.441	3.4
273.82	3.34
274.199	3.11
274.578	3.12
274.957	3.52
275.336	3.04
275.715	3.06
276.093	3.39
276.472	3.1
276.851	2.88
277.229	3.1
277.608	3.23
277.986	3.64
278.365	3.86
278.743	3.65
279.122	2.96
279.5	3.36
279.878	3.38
280.257	2.97
280.635	2.99
281.013	3.43
281.391	3.66
281.769	3.76
282.147	2.44
282.525	3.21
282.903	2.94
283.281	3.82
283.659	3.08
284.037	3.18
284.415	3.13
284.792	3.69
285.17	3.24
285.548	3.64
285.925	3.2
286.303	3.3
286.68	3.75
287.058	3.06
287.435	3.3
287.813	3.13
288.19	3.32
288.567	3.13
288.945	3.25
289.322	3.17
289.699	3.47
290.076	3.45
290.453	2.76
290.83	2.94
291.207	2.89
291.584	3.26
291.961	3.36
292.338	3.36
292.715	3.22
293.092	3.33
293.469	3.17
293.845	3.14
294.222	3.2
294.599	2.85
294.975	2.84
295.352	3.2
295.728	3.12
296.105	3.29
296.481	3.36
296.858	3.23
297.234	3.89
297.61	3.45
297.986	3.09
298.363	3.14
298.739	3.03
299.115	3.26
299.491	3.14
299.867	2.92
300.243	3.03
300.619	3.15
300.995	3.28
301.371	3.86
301.746	3.04
302.122	3.19
302.498	3.26
302.874	3.02
303.249	2.58
303.625	3.07
304	3.23
304.376	2.53
304.751	3.44
305.127	2.66
305.502	3.08
305.878	3.26
306.253	3.12
306.628	2.78
307.003	2.86
307.378	3.28
307.754	3.28
308.129	2.69
308.504	2.72
308.879	3.03
309.254	3.58
309.629	3.39
310.003	3.24
310.378	3.1
310.753	3.29
311.128	2.9
311.502	2.94
311.877	3.22
312.252	3.13
312.626	3.23
313.001	3.15
313.375	3.23
313.75	3.16
314.124	3.13
314.498	3.2
314.873	3.15
315.247	3.12
315.621	2.95
315.995	3.01
316.369	2.65
316.743	3.31
317.117	3.09
317.491	3.54
317.865	2.96
318.239	3.2
318.613	3.34
318.987	2.87
319.361	3.16
319.734	2.62
320.108	3.46
320.482	2.39
320.855	3.08
321.229	3.01
321.602	3.19
321.976	2.38
322.349	3.66
322.723	2.95
323.096	3.34
323.469	3.28
323.843	3.17
324.216	3.42
324.589	3.35
324.962	3.29
325.335	3.16
325.708	2.47
326.081	2.95
326.454	2.88
326.827	3.18
327.2	2.59
327.573	2.97
327.945	3.46
328.318	2.51
328.691	2.91
329.063	2.92
329.436	3.58
329.809	2.79
330.181	3.17
330.553	2.91
330.926	3.13
331.298	3.38
331.671	2.74
332.043	2.79
332.415	2.99
332.787	2.68
333.159	2.65
333.532	2.64
333.904	2.88
334.276	3.09
334.648	3.29
335.02	2.66
335.391	3.19
335.763	2.85
336.135	3.36
336.507	3.41
336.879	3.03
337.25	3.12
337.622	2.86
337.993	3.41
338.365	2.82
338.736	3.31
339.108	3.42
339.479	3.32
339.851	2.95
340.222	2.83
340.593	2.78
340.964	3.32
341.336	2.99
341.707	2.36
342.078	3.09
342.449	2.84
342.82	3.26
343.191	2.58
343.562	3.32
343.933	3.3
344.303	3.13
344.674	3.4
345.045	2.72
345.416	2.43
345.786	3.03
346.157	3.18
346.527	3.09
346.898	3.61
347.268	3.08
347.639	3.31
348.009	3.45
348.38	2.9
348.75	2.95
349.12	2.39
349.49	2.81
349.861	2.88
350.231	3.18
350.601	2.64
350.971	2.96
351.341	3.23
351.711	2.92
352.081	3.26
352.45	3.42
352.82	3.04
353.19	3.23
353.56	3.13
353.929	3.16
354.299	3.7
354.669	3.23
355.038	3.37
355.408	2.86
355.777	3.21
356.147	3.1
356.516	3.11
356.885	3.15
357.254	3.47
357.624	3.32
357.993	3.26
358.362	3.28
358.731	3.42
359.1	3.26
359.469	3.14
359.838	3.29
360.207	2.93
360.576	3.31
360.945	3.49
361.314	3.27
361.682	3.12
362.051	3.38
362.42	3.38
362.788	3.09
363.157	3.24
363.525	3.47
363.894	3.23
364.262	3.43
364.631	3.5
364.999	3.19
365.367	2.93
365.735	3.49
366.104	3.1
366.472	3.63
366.84	3.05
367.208	3.36
367.576	3.25
367.944	3.45
368.312	3.45
368.68	3.34
369.048	3.23
369.416	3.1
369.783	3.08
370.151	2.99
370.519	3.99
370.886	3.29
371.254	3.28
371.621	3.2
371.989	3.17
372.356	3.25
372.724	3.61
373.091	3.2
373.458	3.23
373.826	3.47
374.193	3.2
374.56	2.88
374.927	3.65
375.294	3.43
375.661	3.55
376.028	3.31
376.395	3.42
376.762	3.38
377.129	3.42
377.496	3.45
377.863	3.3
378.229	3.32
378.596	2.96
378.963	3.36
379.329	3.07
379.696	3.2
380.062	3.63
380.429	3.43
380.795	3.22
381.161	3.21
381.528	3.54
381.894	3.32
382.26	3.22
382.626	3.29
382.993	3.58
383.359	3.21
383.725	3.43
384.091	3.25
384.457	3.37
384.823	3.19
385.188	3.56
385.554	3.43
385.92	2.9
386.286	3.3
386.651	3.36
387.017	3.39
387.383	3.15
387.748	2.93
388.114	3.24
388.479	3.86
388.845	3.29
389.21	3.64
389.575	3.68
389.94	3.67
390.306	3.36
390.671	3.67
391.036	3.24
391.401	3.74
391.766	3.18
392.131	3.15
392.496	3.14
392.861	3.56
393.226	3.14
393.591	3.59
393.956	3.55
394.32	3.6
394.685	3.62
395.05	3.67
395.414	3.4
395.779	3.64
396.143	3.5
396.508	3.56
396.872	3.37
397.236	3.49
397.601	3.3
397.965	3.43
398.329	3.72
398.694	3.44
399.058	3.61
399.422	3.46
399.786	3.32
400.15	3.38
400.514	3.47
400.878	3.36
401.242	3.71
401.605	3.36
401.969	3.57
402.333	3.64
402.697	3.49
403.06	3.77
403.424	3.41
403.787	3.67
404.151	3.84
404.514	3.43
404.878	3.56
405.241	3.65
405.604	3.58
405.968	3.4
406.331	3.44
406.694	3.39
407.057	3.64
407.42	3.54
407.783	3.37
408.146	3.69
408.509	3.5
408.872	3.62
409.235	3.67
409.598	3.66
409.961	3.7
410.323	3.52
410.686	3.5
411.049	3.52
411.411	3.41
411.774	3.6
412.136	3.7
412.499	3.86
412.861	3.74
413.223	3.59
413.586	3.61
413.948	3.69
414.31	3.46
414.672	3.48
415.035	3.75
415.397	3.45
415.759	3.92
416.121	3.43
416.483	3.84
416.845	3.6
417.206	3.49
417.568	3.72
417.93	3.62
418.292	3.48
418.653	3.64
419.015	3.47
419.377	3.57
419.738	3.62
420.1	3.72
420.461	3.58
420.822	3.52
421.184	3.66
421.545	3.49
421.906	3.61
422.267	3.48
422.629	3.6
422.99	3.49
423.351	3.42
423.712	3.53
424.073	3.67
424.434	3.55
424.795	3.58
425.155	3.64
425.516	3.65
425.877	3.52
426.238	3.44
426.598	3.55
426.959	3.47
427.32	3.57
427.68	3.65
428.041	3.52
428.401	3.77
428.761	3.59
429.122	3.63
429.482	3.67
429.842	3.4
430.202	3.69
430.563	3.62
430.923	3.77
431.283	3.52
431.643	3.98
432.003	3.8
432.363	3.71
432.722	3.73
433.082	3.65
433.442	3.78
433.802	3.53
434.161	3.69
434.521	3.54
434.881	3.74
435.24	3.53
435.6	3.73
435.959	3.5
436.319	3.85
436.678	3.75
437.037	3.6
437.396	3.66
437.756	3.62
438.115	3.59
438.474	3.7
438.833	3.86
439.192	3.69
439.551	3.71
439.91	3.62
440.269	3.76
440.628	3.81
440.987	3.72
441.345	3.63
441.704	3.56
442.063	3.64
442.421	3.74
442.78	3.68
443.138	3.75
443.497	3.68
443.855	3.72
444.214	3.76
444.572	3.72
444.93	3.64
445.288	3.67
445.647	3.66
446.005	3.62
446.363	3.82
446.721	3.67
447.079	3.65
447.437	3.59
447.795	3.7
448.153	3.61
448.51	3.82
448.868	3.67
449.226	3.62
449.584	3.66
449.941	3.6
450.299	3.78
450.656	3.68
451.014	3.74
451.371	3.86
451.729	3.81
452.086	3.75
452.443	3.73
452.801	3.83
453.158	3.76
453.515	3.88
453.872	3.6
454.229	3.91
454.586	3.79
454.943	3.87
455.3	3.83
455.657	3.71
456.014	3.61
456.371	3.67
456.727	3.92
457.084	3.84
457.441	3.75
457.797	3.68
458.154	3.82
458.51	3.88
458.867	3.69
459.223	3.89
459.58	3.95
459.936	3.67
460.292	3.74
460.648	3.75
461.005	3.75
461.361	3.71
461.717	3.82
462.073	3.72
462.429	3.8
462.785	3.75
463.141	3.7
463.496	3.7
463.852	3.8
464.208	3.88
464.564	3.79
464.919	3.94
465.275	3.97
465.631	3.85
465.986	3.87
466.342	3.73
466.697	3.72
467.052	3.81
467.408	3.74
467.763	3.72
468.118	3.83
468.473	3.88
468.829	3.62
469.184	3.83
469.539	3.85
469.894	3.93
470.249	3.82
470.603	3.8
470.958	3.77
471.313	3.8
471.668	3.7
472.023	3.58
472.377	3.88
472.732	3.89
473.086	3.79
473.441	3.93
473.795	3.83
474.15	3.99
474.504	3.82
474.859	3.75
475.213	3.83
475.567	3.79
475.921	3.71
476.275	3.68
476.63	3.91
476.984	3.74
477.338	3.93
477.692	3.85
478.045	3.98
478.399	3.9
478.753	3.88
479.107	3.82
479.461	3.96
479.814	4.01
480.168	3.9
480.521	3.72
480.875	3.98
481.228	3.87
481.582	4.02
481.935	3.83
482.289	3.9
482.642	3.76
482.995	3.84
483.348	3.84
483.701	3.85
484.055	3.75
484.408	3.84
484.761	3.79
485.114	3.67
485.466	3.59
485.819	3.62
486.172	3.63
486.525	3.64
486.878	3.72
487.23	3.72
487.583	3.67
487.936	3.74
488.288	3.79
488.641	3.76
488.993	3.72
489.345	3.71
489.698	3.69
490.05	3.68
490.402	3.67
490.754	3.73
491.107	3.76
491.459	3.77
491.811	3.74
492.163	3.82
492.515	3.85
492.866	3.69
493.218	3.74
493.57	3.7
493.922	3.77
494.274	3.71
494.625	3.81
494.977	3.83
495.328	3.84
495.68	3.87
496.031	3.89
496.383	3.87
496.734	3.86
497.086	4.01
497.437	3.88
497.788	3.95
498.139	3.91
498.49	3.88
498.842	3.96
499.193	3.85
499.544	3.98
499.894	3.71
500.245	3.85
500.596	3.79
500.947	3.85
501.298	3.85
501.648	3.84
501.999	3.93
502.35	3.92
502.7	3.86
503.051	3.97
503.401	3.86
503.752	4
504.102	3.94
504.452	4.02
504.803	3.96
505.153	3.83
505.503	3.87
505.853	3.97
506.203	3.88
506.553	4.02
506.903	4.01
507.253	3.98
507.603	3.99
507.953	3.93
508.303	4.06
508.652	3.92
509.002	4.07
509.352	3.91
509.701	3.92
510.051	3.93
510.4	3.9
510.75	3.91
511.099	3.9
511.449	3.91
511.798	3.83
512.147	3.92
512.496	3.96
512.846	3.86
513.195	3.94
513.544	3.89
513.893	3.99
514.242	3.91
514.591	3.89
514.939	4.02
515.288	3.89
515.637	3.81
515.986	3.84
516.334	4.01
516.683	3.98
517.032	3.98
517.38	4.02
517.729	3.99
518.077	4.04
518.426	3.92
518.774	4.02
519.122	3.93
519.47	3.86
519.819	3.88
520.167	3.97
520.515	3.93
520.863	3.92
521.211	3.83
521.559	3.92
521.907	3.84
522.255	3.99
522.602	4
522.95	3.92
523.298	4.01
523.645	4.02
523.993	3.86
524.341	4.1
524.688	4
525.036	3.92
525.383	3.96
525.73	4.08
526.078	3.95
526.425	3.95
526.772	3.86
527.119	3.9
527.466	3.97
527.814	3.87
528.161	3.95
528.508	3.86
528.854	3.82
529.201	3.89
529.548	3.88
529.895	3.83
530.242	3.75
530.588	3.73
530.935	3.8
531.282	3.81
531.628	3.72
531.975	3.89
532.321	3.92
532.667	3.85
533.014	3.9
533.36	3.98
533.706	3.98
534.052	3.99
534.399	3.97
534.745	3.89
535.091	3.85
535.437	3.84
535.783	3.83
536.129	3.92
536.474	3.93
536.82	3.91
537.166	3.93
537.512	4.06
537.857	3.97
538.203	3.81
538.549	3.92
538.894	3.92
539.239	3.98
539.585	3.84
539.93	3.9
540.276	3.91
540.621	4.1
540.966	4.04
541.311	4
541.656	4.02
542.001	4.04
542.346	3.93
542.691	3.93
543.036	3.86
543.381	3.87
543.726	3.88
544.071	3.9
544.415	3.88
544.76	3.89
545.105	3.9
545.449	4
545.794	3.97
546.138	3.9
546.483	4.09
546.827	4
547.171	3.95
547.516	3.88
547.86	4.02
548.204	4.03
548.548	3.88
548.892	3.92
549.236	4
549.58	3.94
549.924	4.06
550.268	4.12
550.612	3.94
550.956	4.01
551.3	3.98
551.643	3.99
551.987	3.81
552.33	4.12
552.674	4
553.017	4.18
553.361	4.2
553.704	3.87
554.048	3.99
554.391	4.08
554.734	4.06
555.077	4.06
555.42	3.95
555.764	4.35
556.107	4.25
556.45	4.04
556.793	4.08
557.135	4.06
557.478	4.01
557.821	4.15
558.164	4.05
558.507	4
558.849	4.21
559.192	4.27
559.534	3.97
559.877	4.11
560.219	4.02
560.562	4.14
560.904	4.2
561.246	3.99
561.589	4.18
561.931	3.87
562.273	4.12
562.615	3.88
562.957	4.16
563.299	4.1
563.641	4.06
563.983	4.11
564.325	4.12
564.667	4.05
565.008	4.02
565.35	3.94
565.692	4.21
566.033	4.14
566.375	4.18
566.716	4.1
567.058	4.09
567.399	4.15
567.741	4.34
568.082	4.2
568.423	3.94
568.764	4.03
569.105	4.08
569.447	4.2
569.788	4.05
570.129	4.14
570.47	4.13
570.811	4.23
571.151	4.19
571.492	4.25
571.833	4.03
572.174	4.18
572.514	3.92
572.855	3.94
573.195	4.02
573.536	3.95
573.876	4.03
574.217	4.05
574.557	3.97
574.898	4.02
575.238	4.09
575.578	4.21
575.918	3.98
576.258	4.11
576.598	4.15
576.938	4.09
577.278	3.97
577.618	4.04
577.958	4.07
578.298	4.17
578.638	4.17
578.977	4.13
579.317	4.13
579.657	4.08
579.996	4.07
580.336	4.17
580.675	3.96
581.014	4.17
581.354	4.03
581.693	4.25
582.032	4.04
582.372	4.33
582.711	4.11
583.05	4.13
583.389	3.96
583.728	4.09
584.067	4.19
584.406	4.19
584.745	4.39
585.083	4.01
585.422	4.17
585.761	4.21
586.1	4.02
586.438	3.84
586.777	4.11
587.115	4.12
587.454	4.31
587.792	4.25
588.13	4.09
588.469	4.03
588.807	4.43
589.145	4.34
589.483	3.83
589.821	4.12
590.159	3.92
590.497	4.22
590.835	4.05
591.173	4.02
591.511	4.17
591.849	4.16
592.187	4.3
592.524	4.19
592.862	4.17
593.2	4.21
593.537	4.18
593.875	4.33
594.212	4
594.55	4.08
594.887	4
595.224	4.33
595.561	3.93
595.899	4.2
596.236	4.38
596.573	4.12
596.91	4.32
597.247	4.08
597.584	4.12
597.921	4.25
598.258	4.25
598.594	3.84
598.931	4.21
599.268	4.16
599.604	4
599.941	4.22
600.277	4.08
600.614	4.24
600.95	4.18
601.287	4.18
601.623	4.09
601.959	4.05
602.296	4.31
602.632	4.19
602.968	4.32
603.304	4.24
603.64	4.12
603.976	3.86
604.312	4.24
604.648	4.04
604.984	3.95
605.319	3.97
605.655	4.11
605.991	4.4
606.326	4.18
606.662	4.19
606.998	4.04
607.333	4.03
607.668	4.17
608.004	4.13
608.339	4.06
608.674	4.36
609.01	4.31
609.345	4.33
609.68	4.14
610.015	4.24
610.35	4.1
610.685	4.08
611.02	4.16
611.355	4.22
611.689	4.19
612.024	4.16
612.359	4.07
612.694	4.27
613.028	4.32
613.363	4.53
613.697	4.08
614.032	4.09
614.366	3.99
614.7	4.14
615.035	4.25
615.369	4.27
615.703	4.51
616.037	4.38
616.371	4.55
616.705	4.27
617.039	4.54
617.373	4.46
617.707	4.45
618.041	4.2
618.375	4.01
618.709	4.29
619.042	4.4
619.376	4.14
619.71	4.22
620.043	4.29
620.377	4.66
620.71	4.55
621.043	4.27
621.377	4.11
621.71	4.49
622.043	4.38
622.376	4.3
622.709	4.54
623.043	4.26
623.376	4.71
623.709	4.01
624.041	4.34
624.374	4.19
624.707	3.81
625.04	4.17
625.373	4.52
625.705	4.09
626.038	4.19
626.37	4.42
626.703	4.48
627.035	4
627.368	4.24
627.7	4.04
628.032	4.13
628.365	4.49
628.697	4.33
629.029	4.3
629.361	4.22
629.693	4.29
630.025	4.49
630.357	4.36
630.689	4.23
631.021	4.04
631.353	4.26
631.684	4.3
632.016	4.16
632.348	4.31
632.679	4.2
633.011	4.35
633.342	4.41
633.674	4.04
634.005	4.1
634.336	4.49
634.668	4.44
634.999	4.54
635.33	4.04
635.661	4.29
635.992	4.43
636.323	4.57
636.654	4
636.985	4.61
637.316	4.54
637.647	4.43
637.977	4.6
638.308	4.65
638.639	4.17
638.969	4.33
639.3	4.82
639.63	4.06
639.961	4.67
640.291	4.43
640.622	4.47
640.952	4.43
641.282	4.43
641.612	4.61
641.943	4.16
642.273	4.12
642.603	4.57
642.933	4.26
643.263	3.99
643.592	4.04
643.922	5
644.252	4.54
644.582	4.61
644.911	3.92
645.241	4.21
645.571	4.3
645.9	4.45
646.23	4.51
646.559	4.49
646.888	4.45
647.218	4.6
647.547	4.23
647.876	4.46
648.205	4.29
648.534	4.46
648.863	4.57
649.192	4.24
649.521	3.98
649.85	5.1
650.179	4.21
650.508	3.93
650.837	4.56
651.165	4.34
651.494	4.26
651.822	4.54
652.151	4.26
652.479	4.58
652.808	4.22
653.136	4.37
653.465	4.7
653.793	4.45
654.121	4.28
654.449	4.18
654.777	4.13
655.105	4.43
655.433	4.32
655.761	4.35
656.089	3.98
656.417	3.98
656.745	3.94
657.073	4
657.4	4.08
657.728	4.22
658.056	4.12
658.383	4.51
658.711	4.34
659.038	4.33
659.365	5.1
659.693	4.69
660.02	4.46
660.347	4.25
660.674	4.4
661.001	4.07
661.329	4.55
661.656	4.47
661.982	4.37
662.309	4.69
662.636	4.48
662.963	4.06
663.29	3.82
663.616	4.39
663.943	4.03
664.27	4.58
664.596	4.18
664.923	4.48
665.249	4.6
665.576	4.67
665.902	3.96
666.228	3.71
666.554	4.93
666.881	4.76
667.207	4.64
667.533	4.09
667.859	4.42
668.185	4.73
668.511	4.25
668.837	4.05
669.162	4.74
669.488	4.28
669.814	4.11
670.139	4.36
670.465	3.96
670.791	4.24
671.116	4.41
671.442	4.18
671.767	4.38
672.092	4.56
672.418	4.37
672.743	4.56
673.068	4.46
673.393	4.06
673.718	4.3
674.043	4.45
674.368	3.41
674.693	4.62
675.018	4.56
675.343	4.7
675.667	4.67
675.992	4.21
676.317	4.3
676.641	4.17
676.966	4.16
677.29	4.94
677.615	4.99
677.939	4.72
678.264	5.04
678.588	4.51
678.912	5.03
679.236	4.68
679.56	4.77
679.885	4.21
680.209	4.39
680.532	4.23
680.856	4.94
681.18	4.16
681.504	4.56
681.828	4.52
682.152	4.79
682.475	4.66
682.799	5.07
683.122	4.75
683.446	4.62
683.769	4.36
684.093	4.82
684.416	4.13
684.739	4.66
685.062	5.56
685.386	4.62
685.709	4.82
686.032	4.75
686.355	5.84
686.678	4.91
687.001	4.84
687.324	4.7
687.646	5.04
687.969	4.63
688.292	4.45
688.614	5.25
688.937	5.23
689.26	5.01
689.582	5.13
689.904	5.26
690.227	3.99
690.549	4.84
690.871	4.68
691.194	5
691.516	4.76
691.838	4.43
692.16	5.11
692.482	4.81
692.804	4.78
693.126	4.79
