Data from 0044_crown_Reflection__1__126.txt Node

Date: Fri Nov 04 15:52:39 CDT 2022
User: ToomeyLab
Spectrometer: FLMS14357
Trigger mode: 0
Integration Time (sec): 1.000000E-2
Scans to average: 100
Electric dark correction enabled: true
Nonlinearity correction enabled: false
Boxcar width: 0
XAxis mode: Wavelengths
Number of Pixels in Spectrum: 2048
>>>>>Begin Spectral Data<<<<<
189.047	921.88
189.435	921.88
189.823	921.88
190.211	-50.38
190.599	341.64
190.987	5.02
191.375	24.6
191.763	-170.25
192.151	107.24
192.538	66.55
192.926	104.96
193.314	211.29
193.702	140.67
194.089	15.93
194.477	225.4
194.864	74.81
195.252	65.68
195.639	-149.87
196.027	35.75
196.414	59.68
196.801	-1.36
197.189	69.75
197.576	-79.79
197.963	117.09
198.351	3.72
198.738	-23.15
199.125	-70.26
199.512	-24.98
199.899	-10.7
200.286	-42.06
200.673	6.1
201.06	-56.87
201.447	-69.57
201.833	-51.46
202.22	1.53
202.607	-23.69
202.994	5.14
203.38	21.49
203.767	-34.05
204.154	43.72
204.54	-56.39
204.927	-14.74
205.313	32.38
205.699	40.9
206.086	-9.24
206.472	15.79
206.858	-21.06
207.245	-10.73
207.631	-3.69
208.017	8.89
208.403	0.62
208.789	22.16
209.175	-11.96
209.561	-149.58
209.947	-75.75
210.333	13.85
210.719	0.41
211.105	-48.43
211.491	-5.77
211.876	-16.62
212.262	-60.93
212.648	-21.53
213.034	17.2
213.419	-1.75
213.805	-14.03
214.19	-109.33
214.576	-7.92
214.961	-8.85
215.346	-27.2
215.732	8.1
216.117	-10.57
216.502	-2.02
216.888	-28.13
217.273	-12.17
217.658	-16.24
218.043	-18.5
218.428	-15.94
218.813	-11.36
219.198	3.73
219.583	-25.64
219.968	-4.29
220.353	-41.57
220.738	-24.64
221.122	7.41
221.507	-4.9
221.892	-13.96
222.276	-21.09
222.661	-1.7
223.046	-8.34
223.43	-9.9
223.815	-3.77
224.199	4.3
224.583	-1.05
224.968	-2.71
225.352	-1.85
225.736	-9.01
226.121	-15.93
226.505	2.37
226.889	-2.81
227.273	2.06
227.657	0.66
228.041	3.01
228.425	3.83
228.809	4.86
229.193	2.9
229.577	0.77
229.961	4.1
230.344	3.84
230.728	3.21
231.112	3
231.495	3.21
231.879	3.22
232.263	3.1
232.646	2.72
233.03	2.04
233.413	2.32
233.797	2.11
234.18	1.27
234.563	2.42
234.946	2.09
235.33	2.91
235.713	1.97
236.096	3.89
236.479	2.53
236.862	2.83
237.245	2.27
237.628	3.9
238.011	1.46
238.394	2.91
238.777	3.04
239.16	3.26
239.543	1.41
239.925	4.06
240.308	3.25
240.691	3.3
241.073	1.97
241.456	2.81
241.838	3.73
242.221	3.45
242.603	3.63
242.986	2.67
243.368	3.69
243.75	3.36
244.133	3.33
244.515	3.55
244.897	3.27
245.279	3.11
245.661	3.31
246.043	3.78
246.425	3.22
246.807	3.98
247.189	2.95
247.571	4.01
247.953	3.7
248.335	3.19
248.717	3.49
249.098	3.31
249.48	3.54
249.862	3.52
250.243	3.14
250.625	3.27
251.006	2.92
251.388	3.59
251.769	3.63
252.151	3.85
252.532	2.95
252.913	2.56
253.295	2.83
253.676	3.06
254.057	2.68
254.438	3.36
254.819	3.48
255.2	3.1
255.581	3.92
255.962	2.42
256.343	2.8
256.724	2.89
257.105	2.65
257.486	3.46
257.867	3.88
258.247	3.43
258.628	2.68
259.009	2.91
259.389	3.18
259.77	3.28
260.15	2.86
260.531	3.11
260.911	3.17
261.292	3.44
261.672	3.16
262.052	3.11
262.432	3.07
262.813	2.95
263.193	2.72
263.573	3.55
263.953	2.56
264.333	3.33
264.713	3.25
265.093	2.78
265.473	2.93
265.853	2.27
266.233	3.17
266.612	3.15
266.992	3.35
267.372	2.08
267.752	2.7
268.131	2.94
268.511	3.25
268.89	2.99
269.27	3.1
269.649	3.23
270.029	2.86
270.408	2.92
270.787	3.02
271.167	2.86
271.546	3.75
271.925	2.97
272.304	2.64
272.683	2.76
273.062	2.6
273.441	3.57
273.82	3.05
274.199	2.81
274.578	2.77
274.957	2.75
275.336	2.64
275.715	2.75
276.093	2.64
276.472	2.75
276.851	2.36
277.229	2.99
277.608	2.8
277.986	2.96
278.365	2.93
278.743	2.85
279.122	2.91
279.5	3.06
279.878	3.36
280.257	2.58
280.635	2.97
281.013	2.18
281.391	2.8
281.769	2.55
282.147	2.31
282.525	2.51
282.903	3.14
283.281	2.89
283.659	2.76
284.037	2.7
284.415	2.69
284.792	3.04
285.17	2.61
285.548	3.03
285.925	3.12
286.303	2.83
286.68	3.21
287.058	3.01
287.435	2.98
287.813	2.57
288.19	2.79
288.567	2.68
288.945	3.05
289.322	2.49
289.699	3.08
290.076	2.54
290.453	2.39
290.83	2.47
291.207	2.78
291.584	2.55
291.961	3.25
292.338	2.95
292.715	3.17
293.092	2.89
293.469	2.51
293.845	2.81
294.222	2.41
294.599	2.22
294.975	2.66
295.352	2.79
295.728	3.19
296.105	2.75
296.481	2.75
296.858	2.53
297.234	2.68
297.61	2.56
297.986	2.3
298.363	2.42
298.739	2.7
299.115	2.91
299.491	2.66
299.867	2.63
300.243	2.59
300.619	2.89
300.995	3.08
301.371	2.5
301.746	2.61
302.122	2.78
302.498	2.92
302.874	2.78
303.249	2.35
303.625	2.33
304	2.63
304.376	2.71
304.751	2.69
305.127	2.02
305.502	2.98
305.878	2.56
306.253	2.65
306.628	2.35
307.003	2.87
307.378	2.59
307.754	2.75
308.129	2.51
308.504	2.54
308.879	2.75
309.254	2.75
309.629	2.88
310.003	2.6
310.378	2.66
310.753	2.7
311.128	2.2
311.502	2.15
311.877	2.94
312.252	2.43
312.626	2.55
313.001	2.53
313.375	2.71
313.75	2.59
314.124	2.43
314.498	2.59
314.873	2.14
315.247	3.01
315.621	2.92
315.995	2.92
316.369	2.3
316.743	2.91
317.117	2.86
317.491	2.89
317.865	2.15
318.239	2.36
318.613	2.95
318.987	2.6
319.361	2.55
319.734	2.84
320.108	2.36
320.482	1.87
320.855	2.82
321.229	2.48
321.602	2.46
321.976	2.33
322.349	3.21
322.723	2.06
323.096	2.64
323.469	2.56
323.843	2.47
324.216	3.18
324.589	2.35
324.962	3.14
325.335	2.89
325.708	2.3
326.081	2.77
326.454	2.2
326.827	2.68
327.2	2.41
327.573	2.54
327.945	2.46
328.318	2.2
328.691	2.36
329.063	2.62
329.436	2.75
329.809	2.7
330.181	2.49
330.553	2.31
330.926	2.56
331.298	2.72
331.671	2.81
332.043	2.5
332.415	2.84
332.787	2.08
333.159	2.18
333.532	2.04
333.904	2.66
334.276	2.53
334.648	2.84
335.02	2.17
335.391	2.79
335.763	2.87
336.135	2.6
336.507	2.6
336.879	2.5
337.25	2.89
337.622	2.24
337.993	2.82
338.365	2.63
338.736	2.64
339.108	2.6
339.479	2.59
339.851	2.33
340.222	2.29
340.593	2.74
340.964	2.33
341.336	2.16
341.707	2.05
342.078	2.53
342.449	2.18
342.82	2.73
343.191	2.26
343.562	2.71
343.933	2.84
344.303	2.66
344.674	2.3
345.045	2.17
345.416	2.39
345.786	2.74
346.157	2.53
346.527	2.73
346.898	2.7
347.268	2.45
347.639	2.43
348.009	2.63
348.38	2.44
348.75	2.59
349.12	2.5
349.49	2.72
349.861	2.24
350.231	3.1
350.601	2.77
350.971	2.28
351.341	2.47
351.711	2.32
352.081	2.58
352.45	2.91
352.82	2.43
353.19	2.64
353.56	2.72
353.929	2.48
354.299	2.86
354.669	2.93
355.038	2.76
355.408	2.51
355.777	2.78
356.147	2.07
356.516	2.48
356.885	2.32
357.254	2.74
357.624	2.41
357.993	2.56
358.362	2.46
358.731	2.43
359.1	2.71
359.469	2.52
359.838	2.65
360.207	2.39
360.576	2.92
360.945	2.53
361.314	3.02
361.682	2.72
362.051	2.82
362.42	2.82
362.788	2.88
363.157	2.58
363.525	2.73
363.894	2.69
364.262	2.93
364.631	2.82
364.999	2.96
365.367	2.64
365.735	3.13
366.104	2.58
366.472	2.73
366.84	2.47
367.208	3.01
367.576	2.83
367.944	2.96
368.312	2.69
368.68	2.85
369.048	2.63
369.416	2.82
369.783	2.61
370.151	2.72
370.519	3.11
370.886	2.65
371.254	2.58
371.621	2.77
371.989	2.67
372.356	3
372.724	2.81
373.091	2.6
373.458	2.82
373.826	3.18
374.193	2.58
374.56	2.39
374.927	2.98
375.294	2.74
375.661	2.66
376.028	2.75
376.395	2.99
376.762	3.07
377.129	3.1
377.496	2.78
377.863	2.9
378.229	2.76
378.596	2.86
378.963	2.88
379.329	2.71
379.696	2.85
380.062	3.07
380.429	2.8
380.795	2.82
381.161	3.16
381.528	3.14
381.894	2.55
382.26	2.96
382.626	2.88
382.993	2.73
383.359	2.94
383.725	2.99
384.091	2.76
384.457	2.79
384.823	2.99
385.188	2.82
385.554	2.67
385.92	2.79
386.286	3.03
386.651	2.75
387.017	2.53
387.383	2.86
387.748	2.69
388.114	2.59
388.479	3.41
388.845	3.14
389.21	3.28
389.575	2.94
389.94	3.18
390.306	3.11
390.671	2.92
391.036	2.9
391.401	3.05
391.766	2.83
392.131	3.01
392.496	3.02
392.861	3.01
393.226	2.87
393.591	2.84
393.956	3.18
394.32	3.05
394.685	3.05
395.05	3.03
395.414	2.94
395.779	3.05
396.143	3.01
396.508	3.13
396.872	3.15
397.236	3.09
397.601	2.89
397.965	2.9
398.329	2.72
398.694	3.18
399.058	3.23
399.422	3.08
399.786	2.88
400.15	3.01
400.514	2.92
400.878	2.93
401.242	3.23
401.605	3.08
401.969	3.3
402.333	2.96
402.697	3.12
403.06	3.18
403.424	3.01
403.787	3.06
404.151	3.28
404.514	3.14
404.878	3.1
405.241	3.14
405.604	2.99
405.968	2.98
406.331	3.02
406.694	2.96
407.057	3.03
407.42	2.94
407.783	2.85
408.146	3.12
408.509	3.08
408.872	3.04
409.235	3.08
409.598	3.08
409.961	3.3
410.323	3.05
410.686	3
411.049	3
411.411	3.02
411.774	3.12
412.136	3.23
412.499	3.18
412.861	3.12
413.223	3.18
413.586	2.94
413.948	3.3
414.31	3.04
414.672	3.32
415.035	3.27
415.397	3.31
415.759	3.54
416.121	3.19
416.483	3.33
416.845	3.03
417.206	3.01
417.568	3.23
417.93	3.21
418.292	3.2
418.653	3.24
419.015	3.05
419.377	3.08
419.738	3.01
420.1	3.22
420.461	3.25
420.822	3.01
421.184	3.18
421.545	3
421.906	3.13
422.267	2.98
422.629	3.17
422.99	3.09
423.351	2.93
423.712	3.07
424.073	3.17
424.434	3.19
424.795	3.15
425.155	3.26
425.516	3.2
425.877	3.11
426.238	3.05
426.598	3.16
426.959	3.12
427.32	3.13
427.68	3.24
428.041	3.1
428.401	3.22
428.761	3.28
429.122	3.25
429.482	3.22
429.842	2.99
430.202	3.41
430.563	3.13
430.923	3.18
431.283	2.97
431.643	3.31
432.003	3.51
432.363	3.32
432.722	3.25
433.082	3.25
433.442	3.2
433.802	3.06
434.161	3.21
434.521	3.1
434.881	3.27
435.24	3.1
435.6	3.15
435.959	3.28
436.319	3.29
436.678	3.37
437.037	3.16
437.396	3.31
437.756	3.39
438.115	3.06
438.474	3.27
438.833	3.32
439.192	3.27
439.551	3.25
439.91	3.25
440.269	3.3
440.628	3.35
440.987	3.3
441.345	3.19
441.704	3.28
442.063	3.16
442.421	3.27
442.78	3.23
443.138	3.29
443.497	3.31
443.855	3.16
444.214	3.27
444.572	3.45
444.93	3.22
445.288	3.23
445.647	3.24
446.005	3.26
446.363	3.28
446.721	3.19
447.079	3.2
447.437	3.23
447.795	3.26
448.153	3.16
448.51	3.29
448.868	3.17
449.226	3.12
449.584	3.26
449.941	3.19
450.299	3.38
450.656	3.26
451.014	3.27
451.371	3.46
451.729	3.44
452.086	3.36
452.443	3.25
452.801	3.35
453.158	3.41
453.515	3.4
453.872	3.17
454.229	3.47
454.586	3.27
454.943	3.36
455.3	3.4
455.657	3.3
456.014	3.27
456.371	3.29
456.727	3.48
457.084	3.4
457.441	3.39
457.797	3.37
458.154	3.3
458.51	3.36
458.867	3.28
459.223	3.37
459.58	3.46
459.936	3.22
460.292	3.33
460.648	3.31
461.005	3.4
461.361	3.36
461.717	3.3
462.073	3.36
462.429	3.39
462.785	3.36
463.141	3.37
463.496	3.3
463.852	3.46
464.208	3.4
464.564	3.41
464.919	3.49
465.275	3.48
465.631	3.53
465.986	3.44
466.342	3.49
466.697	3.44
467.052	3.42
467.408	3.43
467.763	3.38
468.118	3.52
468.473	3.46
468.829	3.34
469.184	3.36
469.539	3.33
469.894	3.31
470.249	3.43
470.603	3.4
470.958	3.3
471.313	3.29
471.668	3.29
472.023	3.34
472.377	3.42
472.732	3.43
473.086	3.41
473.441	3.48
473.795	3.5
474.15	3.46
474.504	3.47
474.859	3.27
475.213	3.41
475.567	3.37
475.921	3.33
476.275	3.5
476.63	3.58
476.984	3.44
477.338	3.51
477.692	3.4
478.045	3.53
478.399	3.37
478.753	3.55
479.107	3.29
479.461	3.5
479.814	3.48
480.168	3.53
480.521	3.35
480.875	3.4
481.228	3.61
481.582	3.53
481.935	3.47
482.289	3.49
482.642	3.52
482.995	3.58
483.348	3.48
483.701	3.46
484.055	3.42
484.408	3.45
484.761	3.33
485.114	3.33
485.466	3.29
485.819	3.24
486.172	3.25
486.525	3.24
486.878	3.35
487.23	3.38
487.583	3.39
487.936	3.43
488.288	3.46
488.641	3.33
488.993	3.36
489.345	3.29
489.698	3.32
490.05	3.35
490.402	3.37
490.754	3.42
491.107	3.37
491.459	3.45
491.811	3.46
492.163	3.46
492.515	3.52
492.866	3.38
493.218	3.32
493.57	3.34
493.922	3.38
494.274	3.39
494.625	3.45
494.977	3.47
495.328	3.48
495.68	3.48
496.031	3.5
496.383	3.58
496.734	3.51
497.086	3.69
497.437	3.52
497.788	3.66
498.139	3.45
498.49	3.45
498.842	3.51
499.193	3.51
499.544	3.5
499.894	3.61
500.245	3.57
500.596	3.53
500.947	3.54
501.298	3.55
501.648	3.63
501.999	3.67
502.35	3.6
502.7	3.46
503.051	3.57
503.401	3.63
503.752	3.53
504.102	3.61
504.452	3.73
504.803	3.56
505.153	3.52
505.503	3.62
505.853	3.71
506.203	3.65
506.553	3.7
506.903	3.67
507.253	3.55
507.603	3.46
507.953	3.53
508.303	3.52
508.652	3.56
509.002	3.68
509.352	3.73
509.701	3.55
510.051	3.59
510.4	3.61
510.75	3.64
511.099	3.6
511.449	3.52
511.798	3.55
512.147	3.58
512.496	3.47
512.846	3.61
513.195	3.71
513.544	3.54
513.893	3.67
514.242	3.58
514.591	3.58
514.939	3.62
515.288	3.64
515.637	3.68
515.986	3.54
516.334	3.58
516.683	3.68
517.032	3.73
517.38	3.65
517.729	3.66
518.077	3.71
518.426	3.65
518.774	3.71
519.122	3.57
519.47	3.58
519.819	3.57
520.167	3.67
520.515	3.55
520.863	3.57
521.211	3.5
521.559	3.68
521.907	3.54
522.255	3.67
522.602	3.69
522.95	3.55
523.298	3.78
523.645	3.75
523.993	3.68
524.341	3.7
524.688	3.74
525.036	3.64
525.383	3.71
525.73	3.66
526.078	3.61
526.425	3.7
526.772	3.57
527.119	3.56
527.466	3.54
527.814	3.5
528.161	3.49
528.508	3.56
528.854	3.53
529.201	3.63
529.548	3.6
529.895	3.51
530.242	3.5
530.588	3.39
530.935	3.47
531.282	3.47
531.628	3.45
531.975	3.58
532.321	3.64
532.667	3.56
533.014	3.59
533.36	3.61
533.706	3.68
534.052	3.65
534.399	3.58
534.745	3.59
535.091	3.48
535.437	3.49
535.783	3.55
536.129	3.63
536.474	3.67
536.82	3.64
537.166	3.61
537.512	3.73
537.857	3.65
538.203	3.54
538.549	3.55
538.894	3.6
539.239	3.67
539.585	3.61
539.93	3.6
540.276	3.64
540.621	3.68
540.966	3.75
541.311	3.7
541.656	3.66
542.001	3.66
542.346	3.66
542.691	3.64
543.036	3.49
543.381	3.53
543.726	3.55
544.071	3.57
544.415	3.68
544.76	3.65
545.105	3.6
545.449	3.63
545.794	3.68
546.138	3.65
546.483	3.58
546.827	3.67
547.171	3.76
547.516	3.69
547.86	3.69
548.204	3.72
548.548	3.64
548.892	3.61
549.236	3.61
549.58	3.63
549.924	3.75
550.268	3.84
550.612	3.59
550.956	3.85
551.3	3.81
551.643	3.58
551.987	3.69
552.33	3.76
552.674	3.65
553.017	3.77
553.361	3.84
553.704	3.77
554.048	3.81
554.391	3.69
554.734	3.8
555.077	3.81
555.42	3.75
555.764	3.97
556.107	3.8
556.45	3.74
556.793	3.8
557.135	3.76
557.478	3.76
557.821	3.87
558.164	3.88
558.507	3.79
558.849	3.81
559.192	3.81
559.534	3.74
559.877	3.69
560.219	3.86
560.562	3.86
560.904	3.98
561.246	3.81
561.589	3.76
561.931	3.62
562.273	3.81
562.615	3.65
562.957	3.82
563.299	3.86
563.641	3.73
563.983	3.79
564.325	3.66
564.667	3.72
565.008	3.84
565.35	3.62
565.692	4
566.033	3.75
566.375	3.89
566.716	3.88
567.058	3.86
567.399	3.76
567.741	3.75
568.082	3.8
568.423	3.88
568.764	3.64
569.105	3.71
569.447	3.86
569.788	3.7
570.129	3.85
570.47	3.77
570.811	3.86
571.151	3.77
571.492	3.99
571.833	3.71
572.174	3.95
572.514	3.77
572.855	3.71
573.195	3.87
573.536	3.72
573.876	3.75
574.217	3.79
574.557	3.61
574.898	3.74
575.238	3.68
575.578	3.95
575.918	3.87
576.258	3.87
576.598	3.92
576.938	3.84
577.278	3.68
577.618	3.65
577.958	3.7
578.298	3.7
578.638	3.8
578.977	3.87
579.317	3.91
579.657	3.61
579.996	3.81
580.336	3.67
580.675	3.7
581.014	3.91
581.354	3.85
581.693	4.01
582.032	3.94
582.372	3.96
582.711	3.97
583.05	3.88
583.389	3.74
583.728	3.98
584.067	3.73
584.406	3.51
584.745	3.85
585.083	3.66
585.422	4.03
585.761	3.8
586.1	3.67
586.438	3.61
586.777	3.82
587.115	3.67
587.454	4.19
587.792	4.11
588.13	3.86
588.469	3.92
588.807	4.21
589.145	3.79
589.483	3.57
589.821	3.89
590.159	3.77
590.497	4.04
590.835	3.78
591.173	3.72
591.511	3.81
591.849	4
592.187	3.94
592.524	3.93
592.862	3.77
593.2	3.94
593.537	3.72
593.875	3.77
594.212	3.79
594.55	3.74
594.887	3.89
595.224	3.6
595.561	3.46
595.899	3.9
596.236	3.92
596.573	3.79
596.91	3.79
597.247	3.79
597.584	3.73
597.921	4.06
598.258	3.75
598.594	3.62
598.931	3.77
599.268	4
599.604	3.79
599.941	3.65
600.277	3.95
600.614	3.88
600.95	3.99
601.287	3.79
601.623	4.05
601.959	3.72
602.296	3.92
602.632	3.99
602.968	3.93
603.304	3.78
603.64	3.8
603.976	3.48
604.312	4.04
604.648	3.74
604.984	3.81
605.319	3.82
605.655	3.77
605.991	4.09
606.326	3.78
606.662	3.84
606.998	3.8
607.333	3.65
607.668	3.79
608.004	3.9
608.339	3.77
608.674	3.9
609.01	3.92
609.345	3.56
609.68	3.77
610.015	4
610.35	3.73
610.685	3.9
611.02	3.91
611.355	3.89
611.689	3.85
612.024	3.95
612.359	3.81
612.694	3.8
613.028	4.17
613.363	4.13
613.697	3.89
614.032	3.68
614.366	3.85
614.7	3.91
615.035	4.09
615.369	3.77
615.703	4.14
616.037	3.94
616.371	4.04
616.705	3.9
617.039	4.14
617.373	3.83
617.707	4.29
618.041	3.71
618.375	3.81
618.709	4.02
619.042	3.88
619.376	4
619.71	4.23
620.043	4.1
620.377	4.03
620.71	3.97
621.043	3.64
621.377	4.03
621.71	4.1
622.043	4.02
622.376	3.83
622.709	4.32
623.043	4.13
623.376	4.12
623.709	3.58
624.041	3.8
624.374	3.98
624.707	3.74
625.04	3.63
625.373	4.18
625.705	3.53
626.038	3.57
626.37	4.08
626.703	4.22
627.035	3.86
627.368	3.8
627.7	3.68
628.032	3.94
628.365	4.17
628.697	3.67
629.029	3.88
629.361	3.94
629.693	3.97
630.025	4.17
630.357	4.12
630.689	3.91
631.021	3.92
631.353	3.87
631.684	3.89
632.016	3.79
632.348	4.06
632.679	3.47
633.011	3.99
633.342	3.9
633.674	3.85
634.005	4.25
634.336	4.03
634.668	4.16
634.999	4.31
635.33	3.66
635.661	3.98
635.992	4.01
636.323	3.79
636.654	3.98
636.985	4.01
637.316	3.94
637.647	3.65
637.977	4.27
638.308	4.19
638.639	3.87
638.969	3.66
639.3	4.26
639.63	4.1
639.961	3.91
640.291	4.22
640.622	4.28
640.952	4.15
641.282	3.85
641.612	4.18
641.943	3.8
642.273	3.58
642.603	4.33
642.933	3.82
643.263	3.38
643.592	4.08
643.922	4.29
644.252	3.61
644.582	3.86
644.911	4.07
645.241	3.79
645.571	3.92
645.9	4.08
646.23	4.05
646.559	4.48
646.888	3.82
647.218	4.7
647.547	3.87
647.876	4.26
648.205	3.64
648.534	4.52
648.863	3.96
649.192	3.92
649.521	3.86
649.85	4.37
650.179	3.84
650.508	3.68
650.837	3.98
651.165	3.85
651.494	4.19
651.822	4.26
652.151	4.11
652.479	3.79
652.808	3.45
653.136	3.9
653.465	3.59
653.793	4.34
654.121	3.9
654.449	3.62
654.777	4
655.105	4.08
655.433	3.8
655.761	4.47
656.089	4.32
656.417	3.58
656.745	3.38
657.073	3.69
657.4	3.59
657.728	3.99
658.056	3.6
658.383	4.33
658.711	3.76
659.038	4.12
659.365	4.58
659.693	4.31
660.02	4.28
660.347	3.86
660.674	4.47
661.001	4.33
661.329	4.18
661.656	3.96
661.982	3.76
662.309	4.23
662.636	4.14
662.963	3.57
663.29	3.62
663.616	4.17
663.943	4.37
664.27	4.09
664.596	3.73
664.923	4.11
665.249	4.3
665.576	3.68
665.902	3.23
666.228	3.4
666.554	4.75
666.881	4
667.207	4.12
667.533	3.88
667.859	4.26
668.185	4.11
668.511	4.53
668.837	3.76
669.162	4.27
669.488	3.65
669.814	3.99
670.139	3.9
670.465	3.96
670.791	4.16
671.116	4.07
671.442	4.06
671.767	4.15
672.092	3.73
672.418	4.19
672.743	4.81
673.068	4.21
673.393	3.84
673.718	4.21
674.043	3.99
674.368	3.76
674.693	4.46
675.018	3.7
675.343	4.23
675.667	4.34
675.992	4.46
676.317	4.09
676.641	3.61
676.966	3.39
677.29	4.27
677.615	4.05
677.939	4.16
678.264	4.48
678.588	4.33
678.912	4.46
679.236	4.03
679.56	4.2
679.885	4.32
680.209	4.46
680.532	4.03
680.856	3.72
681.18	3.85
681.504	4.34
681.828	3.34
682.152	4.62
682.475	4.33
682.799	4.23
683.122	4.02
683.446	3.86
683.769	3.52
684.093	4.25
684.416	3.52
684.739	3.78
685.062	4.75
685.386	3.7
685.709	4.34
686.032	4.35
686.355	4.69
686.678	4.07
687.001	4.48
687.324	4.67
687.646	4.24
687.969	4.31
688.292	4.9
688.614	4.15
688.937	4.97
689.26	3.96
689.582	4.62
689.904	4.5
690.227	3.76
690.549	4.06
690.871	4.47
691.194	4.53
691.516	4.2
691.838	3.94
692.16	4.64
692.482	3.77
