Data from 0044_chest_Reflection__0__120.txt Node

Date: Fri Nov 04 15:50:33 CDT 2022
User: ToomeyLab
Spectrometer: FLMS14357
Trigger mode: 0
Integration Time (sec): 1.000000E-2
Scans to average: 100
Electric dark correction enabled: true
Nonlinearity correction enabled: false
Boxcar width: 0
XAxis mode: Wavelengths
Number of Pixels in Spectrum: 2048
>>>>>Begin Spectral Data<<<<<
189.047	850.97
189.435	850.97
189.823	850.97
190.211	1.06
190.599	1309.61
190.987	30.1
191.375	-3.13
191.763	229.32
192.151	-20.81
192.538	225.68
192.926	183.46
193.314	373.24
193.702	69.78
194.089	111.5
194.477	109.28
194.864	45.81
195.252	65.41
195.639	-137.09
196.027	22.16
196.414	-36
196.801	398.98
197.189	40.48
197.576	-209.97
197.963	7.86
198.351	-49.84
198.738	11.64
199.125	-1.87
199.512	45.94
199.899	33
200.286	-21.36
200.673	20.75
201.06	1.58
201.447	-71.52
201.833	-8.64
202.22	52.51
202.607	-13.43
202.994	44.17
203.38	21.91
203.767	5.75
204.154	19.94
204.54	-63.39
204.927	-6.22
205.313	42.06
205.699	44.32
206.086	9.92
206.472	28.05
206.858	8.43
207.245	-22.46
207.631	-20.77
208.017	3.36
208.403	16.69
208.789	28.4
209.175	7.93
209.561	-68.36
209.947	3.61
210.333	4.02
210.719	11.46
211.105	-67.96
211.491	67.07
211.876	43.34
212.262	-7.94
212.648	-43.17
213.034	22.39
213.419	-5.08
213.805	-19.93
214.19	-48.36
214.576	-24.72
214.961	-5.02
215.346	-6.71
215.732	2.91
216.117	4.23
216.502	11
216.888	-15.05
217.273	-17.92
217.658	-30.59
218.043	-10.15
218.428	7.18
218.813	4.41
219.198	-7.81
219.583	-39.08
219.968	10.85
220.353	-42.48
220.738	-33.02
221.122	3.18
221.507	1.91
221.892	-22.68
222.276	-7.67
222.661	7.05
223.046	1.67
223.43	-10.66
223.815	-10.47
224.199	4.04
224.583	-7.29
224.968	-6.33
225.352	-0.84
225.736	-8.63
226.121	-11.02
226.505	3.28
226.889	-0.73
227.273	-0.92
227.657	0.66
228.041	2.66
228.425	2.18
228.809	1.64
229.193	3.24
229.577	-2.24
229.961	3.72
230.344	2.8
230.728	3.21
231.112	2.05
231.495	2.14
231.879	3.76
232.263	2.77
232.646	1.84
233.03	0.36
233.413	1.53
233.797	1.59
234.18	0.75
234.563	4.05
234.946	1.57
235.33	2.18
235.713	1.36
236.096	4.48
236.479	1.48
236.862	1.31
237.245	2.63
237.628	2.32
238.011	-0.46
238.394	2.93
238.777	3.24
239.16	2.05
239.543	2.78
239.925	3.24
240.308	3.42
240.691	3.4
241.073	3.41
241.456	2.99
241.838	2.33
242.221	2.63
242.603	1.84
242.986	1.77
243.368	2.28
243.75	3.04
244.133	2.71
244.515	2.71
244.897	2.65
245.279	2.67
245.661	3.17
246.043	2.73
246.425	2.08
246.807	3.88
247.189	3.26
247.571	3.93
247.953	3.07
248.335	3.12
248.717	2.93
249.098	2.7
249.48	2.65
249.862	3.15
250.243	2.97
250.625	2.37
251.006	2.8
251.388	2.76
251.769	3.23
252.151	4.11
252.532	3.11
252.913	2.4
253.295	2.64
253.676	2.61
254.057	2.69
254.438	2.71
254.819	3.38
255.2	1.76
255.581	2.69
255.962	2.13
256.343	2.22
256.724	3.02
257.105	2.46
257.486	2.89
257.867	4.2
258.247	2.57
258.628	2.3
259.009	2.49
259.389	2.04
259.77	2.8
260.15	2.56
260.531	2.66
260.911	2.52
261.292	2.62
261.672	2.53
262.052	2.77
262.432	2.83
262.813	2.24
263.193	2.43
263.573	2.53
263.953	2.79
264.333	2.93
264.713	3.11
265.093	2.28
265.473	3.15
265.853	1.57
266.233	2.11
266.612	3.45
266.992	3.23
267.372	1.99
267.752	2.14
268.131	3.06
268.511	2.79
268.89	3.12
269.27	2.42
269.649	2.67
270.029	2.67
270.408	2.7
270.787	2.78
271.167	2.61
271.546	2.81
271.925	2.51
272.304	2.46
272.683	2.54
273.062	2.57
273.441	3.08
273.82	2.35
274.199	2.82
274.578	2.24
274.957	2.59
275.336	1.88
275.715	2.42
276.093	2.85
276.472	2.36
276.851	2.46
277.229	2.78
277.608	2.53
277.986	3
278.365	2.85
278.743	3.13
279.122	2.42
279.5	2.74
279.878	2.59
280.257	2.47
280.635	2.1
281.013	2.11
281.391	2.76
281.769	2.36
282.147	2.26
282.525	2.93
282.903	2.62
283.281	3
283.659	2.67
284.037	2.67
284.415	2.88
284.792	2.61
285.17	2.6
285.548	2.6
285.925	2.5
286.303	3.13
286.68	2.76
287.058	3.06
287.435	2.74
287.813	2.54
288.19	2.66
288.567	2.24
288.945	2.75
289.322	2.53
289.699	3.02
290.076	2.53
290.453	2.7
290.83	2.56
291.207	2.77
291.584	2.88
291.961	2.97
292.338	3.05
292.715	2.58
293.092	2.96
293.469	2.96
293.845	3.16
294.222	2.53
294.599	2.13
294.975	2.51
295.352	2.83
295.728	3.35
296.105	2.88
296.481	3.12
296.858	3.1
297.234	3.25
297.61	2.75
297.986	2.59
298.363	2.93
298.739	2.89
299.115	3.25
299.491	3.04
299.867	3
300.243	3.11
300.619	3.33
300.995	3.21
301.371	3.32
301.746	3.02
302.122	3.25
302.498	3.3
302.874	2.88
303.249	2.83
303.625	2.95
304	3.47
304.376	3.35
304.751	2.82
305.127	2.86
305.502	2.95
305.878	3.31
306.253	3.15
306.628	3.44
307.003	3.33
307.378	3.47
307.754	3.15
308.129	2.88
308.504	2.98
308.879	3.25
309.254	3.29
309.629	3.23
310.003	3.59
310.378	3.92
310.753	3.7
311.128	3
311.502	3.22
311.877	3.2
312.252	3.25
312.626	3.4
313.001	3.14
313.375	3.29
313.75	3.19
314.124	3.06
314.498	3.28
314.873	3.5
315.247	3.6
315.621	3.68
315.995	3.67
316.369	3.37
316.743	3.79
317.117	3.95
317.491	3.39
317.865	3.4
318.239	4.05
318.613	3.81
318.987	3.76
319.361	3.33
319.734	4.16
320.108	3.12
320.482	2.92
320.855	3.55
321.229	3.15
321.602	3.32
321.976	3.45
322.349	4.36
322.723	3.58
323.096	3.41
323.469	3.82
323.843	3.6
324.216	3.74
324.589	3.43
324.962	3.75
325.335	3.96
325.708	3.35
326.081	3.87
326.454	3.45
326.827	3.97
327.2	3.92
327.573	3.55
327.945	4.07
328.318	3.3
328.691	3.82
329.063	3.42
329.436	4.17
329.809	4.24
330.181	4.24
330.553	3.61
330.926	4.31
331.298	3.95
331.671	4.05
332.043	4.2
332.415	3.76
332.787	3.76
333.159	3.47
333.532	3.68
333.904	4.18
334.276	3.61
334.648	3.97
335.02	3.56
335.391	3.75
335.763	3.95
336.135	3.95
336.507	3.82
336.879	3.48
337.25	4.41
337.622	4.11
337.993	3.93
338.365	3.99
338.736	4.67
339.108	4.4
339.479	4.25
339.851	3.46
340.222	3.91
340.593	3.95
340.964	3.97
341.336	4.19
341.707	3.9
342.078	3.83
342.449	4.14
342.82	3.95
343.191	3.67
343.562	4.39
343.933	4.02
344.303	4.48
344.674	4.65
345.045	3.67
345.416	3.62
345.786	4.61
346.157	4.37
346.527	4.18
346.898	4.47
347.268	3.6
347.639	4.04
348.009	4.57
348.38	3.96
348.75	4.16
349.12	3.55
349.49	4.6
349.861	3.81
350.231	4.05
350.601	4.43
350.971	4.19
351.341	3.95
351.711	4.16
352.081	4.05
352.45	4.21
352.82	4.38
353.19	3.97
353.56	4.03
353.929	4.13
354.299	4.36
354.669	4.4
355.038	4.83
355.408	4.01
355.777	4.12
356.147	4.13
356.516	3.87
356.885	4.28
357.254	4.35
357.624	4.36
357.993	4.45
358.362	4.22
358.731	4.26
359.1	4.39
359.469	4.36
359.838	4.47
360.207	4.35
360.576	4.23
360.945	4.7
361.314	4.69
361.682	4.49
362.051	4.34
362.42	4.44
362.788	4.07
363.157	4.21
363.525	4.35
363.894	4.34
364.262	4.31
364.631	4.56
364.999	4.37
365.367	4.21
365.735	4.27
366.104	4.26
366.472	4.54
366.84	4.2
367.208	4.81
367.576	4.14
367.944	4.39
368.312	4.45
368.68	4.36
369.048	4.3
369.416	4.38
369.783	4.1
370.151	4.7
370.519	4.92
370.886	4.45
371.254	4.51
371.621	4.6
371.989	4.67
372.356	4.44
372.724	4.73
373.091	4.7
373.458	4.51
373.826	4.99
374.193	4.16
374.56	4.39
374.927	4.8
375.294	4.3
375.661	4.9
376.028	4.62
376.395	4.73
376.762	4.99
377.129	4.49
377.496	4.84
377.863	4.89
378.229	4.37
378.596	4.58
378.963	4.64
379.329	4.46
379.696	4.75
380.062	4.92
380.429	4.73
380.795	4.66
381.161	4.7
381.528	4.58
381.894	4.59
382.26	4.81
382.626	4.69
382.993	5.15
383.359	4.63
383.725	4.86
384.091	4.84
384.457	4.64
384.823	4.77
385.188	5.08
385.554	4.48
385.92	4.38
386.286	4.75
386.651	5.17
387.017	4.84
387.383	4.85
387.748	4.66
388.114	4.72
388.479	5.28
388.845	4.75
389.21	5.21
389.575	5.17
389.94	4.77
390.306	4.83
390.671	5.03
391.036	4.87
391.401	5.19
391.766	4.74
392.131	4.75
392.496	4.92
392.861	4.96
393.226	4.73
393.591	5.13
393.956	5.1
394.32	4.89
394.685	4.94
395.05	5.09
395.414	5.04
395.779	5.01
396.143	4.88
396.508	5.2
396.872	5.11
397.236	4.98
397.601	4.89
397.965	5.1
398.329	5.01
398.694	5.36
399.058	5.18
399.422	4.88
399.786	4.89
400.15	5.03
400.514	4.94
400.878	5.04
401.242	5.24
401.605	4.99
401.969	5.26
402.333	5.34
402.697	4.98
403.06	5.2
403.424	5.16
403.787	5.21
404.151	5.16
404.514	5.22
404.878	5.13
405.241	5.04
405.604	5.09
405.968	5.12
406.331	5
406.694	4.95
407.057	4.99
407.42	5.14
407.783	5.31
408.146	5.16
408.509	5.17
408.872	5.27
409.235	5.35
409.598	5.17
409.961	5.48
410.323	5.19
410.686	5.21
411.049	5.03
411.411	5.19
411.774	5.27
412.136	5.18
412.499	5.37
412.861	5.15
413.223	5.21
413.586	5.13
413.948	5.39
414.31	5.26
414.672	5.34
415.035	5.14
415.397	4.99
415.759	5.52
416.121	5.27
416.483	5.28
416.845	5.34
417.206	5.15
417.568	5.35
417.93	5.26
418.292	5.21
418.653	5.37
419.015	5.19
419.377	5.32
419.738	5.27
420.1	5.36
420.461	5.21
420.822	5.13
421.184	5.24
421.545	5.13
421.906	5.19
422.267	5.04
422.629	5.19
422.99	5.05
423.351	5.07
423.712	5.25
424.073	5.34
424.434	5.3
424.795	5.3
425.155	5.33
425.516	5.29
425.877	5.25
426.238	5.33
426.598	5.26
426.959	5.21
427.32	5.35
427.68	5.4
428.041	5.31
428.401	5.41
428.761	5.4
429.122	5.48
429.482	5.55
429.842	5.41
430.202	5.57
430.563	5.52
430.923	5.5
431.283	5.36
431.643	5.61
432.003	5.66
432.363	5.7
432.722	5.58
433.082	5.61
433.442	5.51
433.802	5.52
434.161	5.48
434.521	5.52
434.881	5.54
435.24	5.51
435.6	5.62
435.959	5.47
436.319	5.51
436.678	5.66
437.037	5.68
437.396	5.72
437.756	5.66
438.115	5.57
438.474	5.84
438.833	5.81
439.192	5.7
439.551	5.74
439.91	5.78
440.269	5.6
440.628	5.81
440.987	5.78
441.345	5.76
441.704	5.73
442.063	5.61
442.421	5.57
442.78	5.79
443.138	5.68
443.497	5.66
443.855	5.7
444.214	6.01
444.572	5.68
444.93	5.84
445.288	5.97
445.647	5.77
446.005	5.83
446.363	5.72
446.721	5.69
447.079	5.77
447.437	5.77
447.795	5.78
448.153	5.68
448.51	5.75
448.868	5.74
449.226	5.7
449.584	5.69
449.941	5.73
450.299	5.94
450.656	5.84
451.014	5.97
451.371	6.02
451.729	5.93
452.086	6
452.443	5.96
452.801	6.07
453.158	6.08
453.515	6.04
453.872	5.79
454.229	5.99
454.586	5.97
454.943	6.01
455.3	6.07
455.657	5.93
456.014	5.94
456.371	6.03
456.727	6.03
457.084	6.2
457.441	6.07
457.797	6.19
458.154	6.14
458.51	6.02
458.867	6.07
459.223	6.07
459.58	6.41
459.936	6.04
460.292	6.02
460.648	6.16
461.005	6.05
461.361	6.08
461.717	6.06
462.073	6.08
462.429	6.1
462.785	6.03
463.141	6.13
463.496	6.05
463.852	6.19
464.208	6.26
464.564	6.22
464.919	6.37
465.275	6.21
465.631	6.3
465.986	6.43
466.342	6.17
466.697	6.25
467.052	6.2
467.408	6.39
467.763	6.41
468.118	6.49
468.473	6.49
468.829	6.12
469.184	6.37
469.539	6.25
469.894	6.44
470.249	6.29
470.603	6.41
470.958	6.24
471.313	6.4
471.668	6.36
472.023	6.29
472.377	6.36
472.732	6.34
473.086	6.55
473.441	6.5
473.795	6.38
474.15	6.46
474.504	6.51
474.859	6.37
475.213	6.5
475.567	6.42
475.921	6.48
476.275	6.5
476.63	6.66
476.984	6.47
477.338	6.6
477.692	6.66
478.045	6.51
478.399	6.69
478.753	6.64
479.107	6.66
479.461	6.69
479.814	6.63
480.168	6.69
480.521	6.49
480.875	6.61
481.228	6.68
481.582	6.78
481.935	6.53
482.289	6.55
482.642	6.71
482.995	6.64
483.348	6.51
483.701	6.6
484.055	6.59
484.408	6.57
484.761	6.45
485.114	6.36
485.466	6.24
485.819	6.2
486.172	6.17
486.525	6.27
486.878	6.39
487.23	6.49
487.583	6.54
487.936	6.55
488.288	6.6
488.641	6.51
488.993	6.43
489.345	6.35
489.698	6.41
490.05	6.48
490.402	6.39
490.754	6.58
491.107	6.67
491.459	6.68
491.811	6.69
492.163	6.8
492.515	6.85
492.866	6.66
493.218	6.58
493.57	6.52
493.922	6.56
494.274	6.58
494.625	6.74
494.977	6.83
495.328	6.89
495.68	6.88
496.031	6.94
496.383	7.07
496.734	6.96
497.086	7.15
497.437	7.08
497.788	7.06
498.139	6.96
498.49	6.87
498.842	7.01
499.193	6.86
499.544	7.03
499.894	6.94
500.245	7.13
500.596	7.08
500.947	6.96
501.298	6.94
501.648	7.22
501.999	7.25
502.35	7.09
502.7	7.13
503.051	7.19
503.401	7.1
503.752	7.09
504.102	7.16
504.452	7.3
504.803	7.43
505.153	7.11
505.503	7.22
505.853	7.22
506.203	7.22
506.553	7.36
506.903	7.42
507.253	7.36
507.603	7.27
507.953	7.39
508.303	7.33
508.652	7.35
509.002	7.47
509.352	7.47
509.701	7.26
510.051	7.39
510.4	7.31
510.75	7.29
511.099	7.2
511.449	7.24
511.798	7.33
512.147	7.28
512.496	7.42
512.846	7.28
513.195	7.48
513.544	7.39
513.893	7.49
514.242	7.4
514.591	7.38
514.939	7.51
515.288	7.45
515.637	7.48
515.986	7.53
516.334	7.51
516.683	7.62
517.032	7.68
517.38	7.66
517.729	7.58
518.077	7.57
518.426	7.73
518.774	7.64
519.122	7.58
519.47	7.62
519.819	7.48
520.167	7.59
520.515	7.45
520.863	7.37
521.211	7.47
521.559	7.58
521.907	7.5
522.255	7.72
522.602	7.68
522.95	7.68
523.298	7.81
523.645	7.86
523.993	7.74
524.341	7.79
524.688	7.93
525.036	7.7
525.383	7.92
525.73	7.91
526.078	7.75
526.425	7.96
526.772	7.75
527.119	7.67
527.466	7.61
527.814	7.66
528.161	7.65
528.508	7.63
528.854	7.72
529.201	7.66
529.548	7.65
529.895	7.53
530.242	7.44
530.588	7.4
530.935	7.44
531.282	7.53
531.628	7.51
531.975	7.69
532.321	7.86
532.667	7.81
533.014	7.85
533.36	8
533.706	8.01
534.052	7.93
534.399	7.89
534.745	7.78
535.091	7.72
535.437	7.77
535.783	7.77
536.129	7.98
536.474	8.1
536.82	7.94
537.166	8.05
537.512	8.09
537.857	8.21
538.203	8.14
538.549	7.97
538.894	8.08
539.239	8.12
539.585	8.08
539.93	8.15
540.276	8.27
540.621	8.32
540.966	8.36
541.311	8.25
541.656	8.53
542.001	8.43
542.346	8.21
542.691	8.1
543.036	8.02
543.381	7.99
543.726	8.09
544.071	8.07
544.415	8.18
544.76	8.24
545.105	8.35
545.449	8.37
545.794	8.37
546.138	8.4
546.483	8.45
546.827	8.51
547.171	8.58
547.516	8.62
547.86	8.56
548.204	8.52
548.548	8.44
548.892	8.41
549.236	8.5
549.58	8.55
549.924	8.65
550.268	8.78
550.612	8.67
550.956	8.71
551.3	8.71
551.643	8.72
551.987	8.86
552.33	8.87
552.674	9.02
553.017	8.97
553.361	8.91
553.704	8.8
554.048	9.07
554.391	8.84
554.734	8.91
555.077	8.87
555.42	9.03
555.764	9.2
556.107	9.15
556.45	9.2
556.793	9.23
557.135	9.1
557.478	8.97
557.821	9.04
558.164	9.22
558.507	9.14
558.849	9.23
559.192	9.29
559.534	9.22
559.877	9.11
560.219	9.23
560.562	9.36
560.904	9.53
561.246	9.28
561.589	9.52
561.931	9.25
562.273	9.31
562.615	9.15
562.957	9.51
563.299	9.52
563.641	9.42
563.983	9.43
564.325	9.48
564.667	9.6
565.008	9.51
565.35	9.52
565.692	9.72
566.033	9.67
566.375	9.55
566.716	9.66
567.058	9.72
567.399	9.57
567.741	9.68
568.082	9.75
568.423	9.62
568.764	9.51
569.105	9.74
569.447	9.8
569.788	9.69
570.129	9.85
570.47	9.77
570.811	10
571.151	10.05
571.492	10.02
571.833	10.02
572.174	10.09
572.514	9.77
572.855	9.77
573.195	10.02
573.536	9.79
573.876	9.86
574.217	9.94
574.557	9.86
574.898	9.92
575.238	9.96
575.578	10.29
575.918	10.11
576.258	10.06
576.598	10.12
576.938	10.09
577.278	10.06
577.618	10.02
577.958	10.15
578.298	10.16
578.638	10.17
578.977	10.39
579.317	10.35
579.657	10.17
579.996	10.39
580.336	10.33
580.675	10.23
581.014	10.53
581.354	10.44
581.693	10.42
582.032	10.14
582.372	10.57
582.711	10.64
583.05	10.52
583.389	10.66
583.728	10.49
584.067	10.87
584.406	10.56
584.745	10.79
585.083	10.77
585.422	11.02
585.761	10.71
586.1	10.9
586.438	10.61
586.777	10.89
587.115	10.94
587.454	10.96
587.792	11.04
588.13	11.01
588.469	11.08
588.807	11
589.145	11.38
589.483	10.72
589.821	10.97
590.159	11.04
590.497	11.22
590.835	10.89
591.173	10.81
591.511	11.36
591.849	11.06
592.187	11.14
592.524	11.28
592.862	11.34
593.2	11.29
593.537	11.13
593.875	11.21
594.212	11.32
594.55	11.15
594.887	11.47
595.224	11.17
595.561	11.1
595.899	11.31
596.236	11.33
596.573	11.23
596.91	11.2
597.247	11.6
597.584	11.41
597.921	11.47
598.258	11.39
598.594	11.17
598.931	11.53
599.268	11.59
599.604	11.44
599.941	11.56
600.277	11.56
600.614	11.64
600.95	11.71
601.287	11.35
601.623	11.58
601.959	11.77
602.296	11.61
602.632	11.74
602.968	11.86
603.304	11.52
603.64	11.71
603.976	11.56
604.312	12.01
604.648	11.91
604.984	11.97
605.319	11.6
605.655	11.64
605.991	11.87
606.326	11.75
606.662	11.66
606.998	11.75
607.333	11.65
607.668	11.93
608.004	12.07
608.339	12.09
608.674	12.1
609.01	12.03
609.345	12.18
609.68	12.37
610.015	12.12
610.35	12.32
610.685	12.17
611.02	12.01
611.355	12.21
611.689	12.33
612.024	12.17
612.359	12.22
612.694	12.37
613.028	12.58
613.363	12.61
613.697	12.42
614.032	12.24
614.366	12.13
614.7	12.53
615.035	12.49
615.369	12.31
615.703	12.88
616.037	12.46
616.371	12.43
616.705	12.62
617.039	12.96
617.373	12.66
617.707	12.87
618.041	12.79
618.375	12.8
618.709	12.84
619.042	12.63
619.376	12.95
619.71	12.56
620.043	13.05
620.377	13.27
620.71	13.05
621.043	12.85
621.377	13.37
621.71	13.28
622.043	12.98
622.376	13.28
622.709	13.21
623.043	12.96
623.376	13.51
623.709	12.98
624.041	13.37
624.374	13.15
624.707	12.8
625.04	13.17
625.373	13.56
625.705	13.35
626.038	13.35
626.37	13.26
626.703	13.41
627.035	13.41
627.368	13.19
627.7	13.34
628.032	13.39
628.365	13.71
628.697	13.35
629.029	13.35
629.361	13.35
629.693	13.06
630.025	13.37
630.357	13.33
630.689	13.66
631.021	13.63
631.353	13.48
631.684	13.91
632.016	13.98
632.348	13.61
632.679	13.64
633.011	13.36
633.342	13.91
633.674	13.69
634.005	13.94
634.336	13.9
634.668	14.24
634.999	13.98
635.33	13.91
635.661	14.28
635.992	13.93
636.323	14.1
636.654	13.8
636.985	14
637.316	13.74
637.647	14.24
637.977	14.17
638.308	14.51
638.639	14.66
638.969	14.12
639.3	14.57
639.63	14.34
639.961	14.09
640.291	14.36
640.622	14.58
640.952	14.54
641.282	14.62
641.612	14.54
641.943	14.3
642.273	14.18
642.603	14.51
642.933	14.47
643.263	13.93
643.592	14.14
643.922	14.65
644.252	14.75
644.582	14.64
644.911	14.5
645.241	14.48
645.571	14.39
645.9	14.67
646.23	14.65
646.559	15.1
646.888	14.15
647.218	14.94
647.547	14.85
647.876	15.3
648.205	14.84
648.534	15.31
648.863	14.85
649.192	15.25
649.521	14.74
649.85	15.38
650.179	15.23
650.508	14.89
650.837	15.02
651.165	15.04
651.494	15.64
651.822	15.09
652.151	15.22
652.479	14.88
652.808	14.95
653.136	15.49
653.465	15.18
653.793	15.23
654.121	15.16
654.449	15.07
654.777	15.32
655.105	15.53
655.433	15.44
655.761	15.3
656.089	14.86
656.417	14.91
656.745	15.16
657.073	15.25
657.4	15.37
657.728	15.39
658.056	15.16
658.383	15.56
658.711	15.5
659.038	15.96
659.365	16.23
659.693	15.62
660.02	15.9
660.347	15.95
660.674	15.64
661.001	15.53
661.329	15.39
661.656	15.71
661.982	15.19
662.309	15.86
662.636	15.81
662.963	15.44
663.29	15.68
663.616	16.11
663.943	16.19
664.27	16.28
664.596	15.8
664.923	15.9
665.249	16.32
665.576	16.42
665.902	15.7
666.228	15.91
666.554	16.66
666.881	15.4
667.207	16.29
667.533	15.34
667.859	16.27
668.185	16.63
668.511	16.21
668.837	16.11
669.162	16.77
669.488	15.7
669.814	16.33
670.139	16.59
670.465	16.52
670.791	15.87
671.116	16.19
671.442	16.26
671.767	16.57
672.092	16.1
672.418	16.37
672.743	16.44
673.068	16.76
673.393	16.68
673.718	17.04
674.043	16.57
674.368	16.04
674.693	15.99
675.018	16.99
675.343	16.8
675.667	17.22
675.992	16.94
676.317	16.91
676.641	17.02
676.966	16.72
677.29	17.1
677.615	16.85
677.939	16.78
678.264	17.13
678.588	17.37
678.912	16.79
679.236	17.51
679.56	17.19
679.885	17.29
680.209	17.39
680.532	16.75
680.856	17.14
681.18	16.39
681.504	16.88
681.828	16.84
682.152	16.92
682.475	16.94
682.799	17.52
683.122	17.09
683.446	17.09
683.769	16.87
684.093	17.46
684.416	16.98
