Data from 21-12_crown_Reflection__2__82.txt Node

Date: Thu Dec 15 17:04:57 CST 2022
User: ToomeyLab
Spectrometer: FLMS14357
Trigger mode: 0
Integration Time (sec): 1.000000E-2
Scans to average: 100
Electric dark correction enabled: true
Nonlinearity correction enabled: false
Boxcar width: 0
XAxis mode: Wavelengths
Number of Pixels in Spectrum: 2048
>>>>>Begin Spectral Data<<<<<
189.047	10
189.435	10
189.823	10
190.211	1098.2
190.599	14.31
190.987	84.35
191.375	90.94
191.763	89.71
192.151	199.39
192.538	-203.75
192.926	68.84
193.314	36.07
193.702	111.86
194.089	-22.18
194.477	296.02
194.864	58.78
195.252	273.65
195.639	-11.24
196.027	-5.75
196.414	197.28
196.801	-27.28
197.189	499.4
197.576	13.16
197.963	3253.68
198.351	-10.77
198.738	-3.71
199.125	-21.52
199.512	26.33
199.899	-95.51
200.286	0.13
200.673	29.19
201.06	-24.22
201.447	-4.5
201.833	-2.88
202.22	23.08
202.607	-135.22
202.994	26.67
203.38	13.28
203.767	22.36
204.154	17.79
204.54	27.34
204.927	38.64
205.313	37.71
205.699	23.5
206.086	22.9
206.472	2.92
206.858	44.73
207.245	21.16
207.631	-29.75
208.017	29.33
208.403	-68.47
208.789	18.95
209.175	-4.84
209.561	-77.17
209.947	-4.64
210.333	-39.11
210.719	24.09
211.105	25.61
211.491	19.3
211.876	-4.4
212.262	29.15
212.648	32.31
213.034	-35.53
213.419	-3.98
213.805	2.86
214.19	-16.49
214.576	20.14
214.961	11.02
215.346	10.81
215.732	21.9
216.117	-2.54
216.502	11.82
216.888	29.45
217.273	7.54
217.658	7.77
218.043	-43.04
218.428	-16.58
218.813	18.45
219.198	17.57
219.583	-5.6
219.968	1.69
220.353	-18.95
220.738	-2.33
221.122	-3.56
221.507	-23.51
221.892	-29.59
222.276	-27.59
222.661	-1.2
223.046	-4.12
223.43	13.58
223.815	8.64
224.199	0.98
224.583	-5.83
224.968	-0.66
225.352	-6.05
225.736	8.88
226.121	-2.66
226.505	0.27
226.889	2.11
227.273	-3.21
227.657	2.38
228.041	7.09
228.425	1.18
228.809	1
229.193	2.05
229.577	2.08
229.961	2.42
230.344	3.44
230.728	4.35
231.112	3.84
231.495	2.62
231.879	3.34
232.263	3.54
232.646	3.26
233.03	3.95
233.413	4.01
233.797	1.28
234.18	4.45
234.563	5.76
234.946	2.92
235.33	3.67
235.713	3.92
236.096	4.2
236.479	4.63
236.862	3.01
237.245	1.75
237.628	2.15
238.011	3.35
238.394	2.98
238.777	3.83
239.16	3.79
239.543	4.91
239.925	3.42
240.308	1.83
240.691	1.98
241.073	1.45
241.456	4.11
241.838	3.3
242.221	4.23
242.603	3.2
242.986	4.1
243.368	3.56
243.75	3.8
244.133	3.7
244.515	3.56
244.897	3.55
245.279	3.06
245.661	3.61
246.043	4.12
246.425	2.59
246.807	4.48
247.189	3.12
247.571	3.15
247.953	3.25
248.335	3.35
248.717	3.75
249.098	3.49
249.48	3.29
249.862	3.49
250.243	3.57
250.625	3.84
251.006	4.66
251.388	3.58
251.769	3.33
252.151	4.02
252.532	3.2
252.913	3.62
253.295	3.87
253.676	3.56
254.057	3.1
254.438	3.63
254.819	3.13
255.2	4.41
255.581	3.36
255.962	4.31
256.343	4.26
256.724	2.86
257.105	2.52
257.486	1.79
257.867	1.96
258.247	3.59
258.628	3.55
259.009	2.66
259.389	2.51
259.77	3.22
260.15	3.94
260.531	3.52
260.911	3.21
261.292	3.32
261.672	3.24
262.052	3.48
262.432	3.13
262.813	3.68
263.193	3.1
263.573	3.36
263.953	2.48
264.333	3.54
264.713	2.85
265.093	3.09
265.473	2.46
265.853	2.87
266.233	3.09
266.612	2.88
266.992	2.94
267.372	3.5
267.752	3.4
268.131	2.74
268.511	3.16
268.89	3.9
269.27	2.46
269.649	2.99
270.029	2.51
270.408	2.74
270.787	3.51
271.167	3.39
271.546	3.69
271.925	3.13
272.304	3.13
272.683	2.74
273.062	2.94
273.441	2.9
273.82	3.53
274.199	3.08
274.578	3.31
274.957	3.23
275.336	3.26
275.715	3.32
276.093	3.19
276.472	2.33
276.851	3.24
277.229	2.97
277.608	2.54
277.986	3.25
278.365	3.33
278.743	2.98
279.122	3.07
279.5	2.97
279.878	3.09
280.257	3.03
280.635	2.83
281.013	2.3
281.391	3.4
281.769	3.26
282.147	3.16
282.525	2.76
282.903	2.53
283.281	3.1
283.659	2.94
284.037	2.7
284.415	3
284.792	3.03
285.17	2.71
285.548	2.54
285.925	2.84
286.303	3.24
286.68	2.99
287.058	2.97
287.435	2.89
287.813	2.76
288.19	3.11
288.567	2.88
288.945	3.16
289.322	3.68
289.699	2.96
290.076	2.81
290.453	2.55
290.83	2.87
291.207	3.23
291.584	3.16
291.961	3.15
292.338	2.86
292.715	2.85
293.092	3.2
293.469	2.99
293.845	2.82
294.222	3.47
294.599	2.14
294.975	2.52
295.352	3.31
295.728	3.1
296.105	3.28
296.481	3.13
296.858	2.91
297.234	2.5
297.61	3.15
297.986	3.32
298.363	3.21
298.739	3.58
299.115	2.99
299.491	3.31
299.867	2.88
300.243	2.95
300.619	3.12
300.995	3
301.371	2.94
301.746	2.75
302.122	2.69
302.498	3.3
302.874	3.18
303.249	3.44
303.625	2.63
304	3.21
304.376	3.31
304.751	3.1
305.127	2.83
305.502	3.38
305.878	3.21
306.253	2.83
306.628	3.28
307.003	2.86
307.378	2.93
307.754	3.22
308.129	2.64
308.504	3.62
308.879	2.85
309.254	3.29
309.629	3.3
310.003	3.11
310.378	3.43
310.753	3.26
311.128	2.89
311.502	3.1
311.877	3.21
312.252	3.31
312.626	3.25
313.001	3.21
313.375	3.41
313.75	3.15
314.124	3.52
314.498	3.28
314.873	2.66
315.247	3.02
315.621	2.68
315.995	2.51
316.369	2.86
316.743	3.24
317.117	3.04
317.491	3.08
317.865	2.24
318.239	3.33
318.613	2.94
318.987	2.89
319.361	3.14
319.734	3.27
320.108	3.11
320.482	3.63
320.855	2.75
321.229	3.51
321.602	3.03
321.976	2.58
322.349	3.7
322.723	2.9
323.096	3.36
323.469	3.22
323.843	3.1
324.216	3.68
324.589	3.28
324.962	2.77
325.335	2.97
325.708	2.99
326.081	3.06
326.454	3.13
326.827	3.57
327.2	2.65
327.573	3.34
327.945	2.93
328.318	2.96
328.691	3.04
329.063	3.06
329.436	3.07
329.809	3.45
330.181	4.29
330.553	3.71
330.926	3.77
331.298	3.11
331.671	3.95
332.043	3.05
332.415	3.58
332.787	3.37
333.159	3.2
333.532	3.26
333.904	2.91
334.276	3.32
334.648	3
335.02	3.33
335.391	3.34
335.763	3.47
336.135	3.18
336.507	3.01
336.879	3.25
337.25	3.2
337.622	3
337.993	3.54
338.365	2.74
338.736	2.75
339.108	3.16
339.479	2.98
339.851	3.18
340.222	3.71
340.593	2.83
340.964	2.89
341.336	3.08
341.707	3.19
342.078	3.06
342.449	3.15
342.82	3.19
343.191	3.26
343.562	3.09
343.933	3.22
344.303	3.05
344.674	3.26
345.045	3.13
345.416	3.7
345.786	2.92
346.157	3.19
346.527	3.28
346.898	2.64
347.268	3.17
347.639	3.37
348.009	3.64
348.38	3.14
348.75	3.27
349.12	3.32
349.49	3.18
349.861	3
350.231	3.25
350.601	3.09
350.971	3.1
351.341	2.98
351.711	3.15
352.081	2.97
352.45	2.49
352.82	3.3
353.19	3.12
353.56	3.29
353.929	3.48
354.299	3.61
354.669	3.67
355.038	3.46
355.408	3.12
355.777	3.49
356.147	3.17
356.516	3.01
356.885	3.11
357.254	2.87
357.624	2.94
357.993	2.99
358.362	3.46
358.731	3.11
359.1	3.15
359.469	3.24
359.838	3.41
360.207	3.13
360.576	3.4
360.945	3.28
361.314	2.89
361.682	3.02
362.051	3.05
362.42	3.19
362.788	3.34
363.157	3.1
363.525	3.11
363.894	3.05
364.262	3.42
364.631	3.57
364.999	2.9
365.367	3.13
365.735	3.23
366.104	3.03
366.472	2.98
366.84	3.51
367.208	3.29
367.576	3.08
367.944	3.55
368.312	3.06
368.68	3.05
369.048	3.14
369.416	3.01
369.783	3.02
370.151	3.66
370.519	3.55
370.886	3.25
371.254	3.38
371.621	3.51
371.989	3.25
372.356	3.5
372.724	3.13
373.091	3.02
373.458	2.79
373.826	3.47
374.193	3.23
374.56	3.26
374.927	3.21
375.294	3.6
375.661	3.42
376.028	3.3
376.395	3.25
376.762	3.03
377.129	3.17
377.496	3.31
377.863	3.53
378.229	3.57
378.596	3.29
378.963	3.39
379.329	3.49
379.696	3.12
380.062	3.46
380.429	3.09
380.795	3.24
381.161	2.99
381.528	2.85
381.894	3.04
382.26	3.16
382.626	3.22
382.993	3.59
383.359	3.2
383.725	3.13
384.091	3.32
384.457	2.9
384.823	3.33
385.188	3.08
385.554	3.23
385.92	3.3
386.286	3.28
386.651	3.11
387.017	3.43
387.383	3.22
387.748	3.54
388.114	3.45
388.479	3.47
388.845	3.16
389.21	3.7
389.575	3.58
389.94	3.63
390.306	3.33
390.671	3.3
391.036	3.18
391.401	3.14
391.766	3.22
392.131	3.53
392.496	3.43
392.861	3.28
393.226	3.01
393.591	3.52
393.956	3.34
394.32	3.23
394.685	3.31
395.05	3.53
395.414	3.46
395.779	3.47
396.143	3.12
396.508	3.19
396.872	3.42
397.236	3.44
397.601	3.42
397.965	3.32
398.329	3.4
398.694	3.15
399.058	3.12
399.422	3.22
399.786	3.3
400.15	3.21
400.514	3.32
400.878	3.28
401.242	3.41
401.605	3.35
401.969	3.33
402.333	3.13
402.697	3.62
403.06	3.42
403.424	3.48
403.787	3.43
404.151	3.26
404.514	3.39
404.878	3.19
405.241	3.25
405.604	3.15
405.968	3.28
406.331	3.21
406.694	3.25
407.057	3.3
407.42	3.27
407.783	3.37
408.146	3.22
408.509	3.51
408.872	3.3
409.235	3.15
409.598	3.3
409.961	3.36
410.323	3.3
410.686	3.22
411.049	3.34
411.411	3.37
411.774	3.23
412.136	3.15
412.499	3.41
412.861	2.9
413.223	3.19
413.586	3.34
413.948	3.49
414.31	3.16
414.672	3.21
415.035	3.32
415.397	3.15
415.759	3.24
416.121	3.44
416.483	3.37
416.845	3.1
417.206	3.27
417.568	3.46
417.93	3.25
418.292	3.28
418.653	3.14
419.015	3.4
419.377	3.31
419.738	3.27
420.1	3.19
420.461	3.14
420.822	3.24
421.184	3.26
421.545	3.3
421.906	3.32
422.267	3.21
422.629	3.2
422.99	3.24
423.351	3.26
423.712	3.27
424.073	3.36
424.434	3.36
424.795	3.2
425.155	3.11
425.516	3.23
425.877	3.23
426.238	3.16
426.598	3.25
426.959	3.33
427.32	3.21
427.68	3.44
428.041	3.44
428.401	3.24
428.761	3.36
429.122	3.48
429.482	3.25
429.842	3.25
430.202	3.49
430.563	3.27
430.923	3.47
431.283	3.35
431.643	3.52
432.003	3.42
432.363	3.53
432.722	3.38
433.082	3.24
433.442	3.34
433.802	3.34
434.161	3.35
434.521	3.39
434.881	3.29
435.24	3.34
435.6	3.41
435.959	3.44
436.319	3.34
436.678	3.45
437.037	3.37
437.396	3.46
437.756	3.34
438.115	3.47
438.474	3.42
438.833	3.37
439.192	3.33
439.551	3.4
439.91	3.54
440.269	3.34
440.628	3.32
440.987	3.45
441.345	3.37
441.704	3.42
442.063	3.29
442.421	3.43
442.78	3.42
443.138	3.34
443.497	3.39
443.855	3.48
444.214	3.34
444.572	3.48
444.93	3.34
445.288	3.42
445.647	3.26
446.005	3.4
446.363	3.46
446.721	3.4
447.079	3.38
447.437	3.37
447.795	3.45
448.153	3.35
448.51	3.41
448.868	3.47
449.226	3.42
449.584	3.35
449.941	3.43
450.299	3.39
450.656	3.39
451.014	3.53
451.371	3.68
451.729	3.61
452.086	3.44
452.443	3.49
452.801	3.41
453.158	3.71
453.515	3.43
453.872	3.46
454.229	3.45
454.586	3.3
454.943	3.46
455.3	3.43
455.657	3.48
456.014	3.36
456.371	3.57
456.727	3.61
457.084	3.56
457.441	3.57
457.797	3.39
458.154	3.55
458.51	3.39
458.867	3.37
459.223	3.33
459.58	3.57
459.936	3.34
460.292	3.35
460.648	3.41
461.005	3.39
461.361	3.42
461.717	3.42
462.073	3.56
462.429	3.53
462.785	3.61
463.141	3.57
463.496	3.5
463.852	3.63
464.208	3.35
464.564	3.52
464.919	3.5
465.275	3.51
465.631	3.67
465.986	3.55
466.342	3.38
466.697	3.63
467.052	3.64
467.408	3.56
467.763	3.33
468.118	3.36
468.473	3.52
468.829	3.54
469.184	3.52
469.539	3.27
469.894	3.54
470.249	3.65
470.603	3.71
470.958	3.77
471.313	3.55
471.668	3.65
472.023	3.56
472.377	3.56
472.732	3.73
473.086	3.63
473.441	3.57
473.795	3.67
474.15	3.43
474.504	3.5
474.859	3.25
475.213	3.57
475.567	3.49
475.921	3.69
476.275	3.67
476.63	3.62
476.984	3.54
477.338	3.44
477.692	3.47
478.045	3.62
478.399	3.54
478.753	3.64
479.107	3.53
479.461	3.57
479.814	3.52
480.168	3.53
480.521	3.59
480.875	3.56
481.228	3.54
481.582	3.59
481.935	3.64
482.289	3.62
482.642	3.61
482.995	3.53
483.348	3.52
483.701	3.48
484.055	3.48
484.408	3.45
484.761	3.41
485.114	3.29
485.466	3.33
485.819	3.33
486.172	3.34
486.525	3.36
486.878	3.44
487.23	3.46
487.583	3.48
487.936	3.47
488.288	3.42
488.641	3.39
488.993	3.37
489.345	3.41
489.698	3.38
490.05	3.41
490.402	3.41
490.754	3.45
491.107	3.47
491.459	3.51
491.811	3.57
492.163	3.47
492.515	3.49
492.866	3.46
493.218	3.44
493.57	3.5
493.922	3.48
494.274	3.55
494.625	3.63
494.977	3.52
495.328	3.63
495.68	3.49
496.031	3.61
496.383	3.59
496.734	3.68
497.086	3.63
497.437	3.62
497.788	3.65
498.139	3.54
498.49	3.64
498.842	3.57
499.193	3.47
499.544	3.6
499.894	3.52
500.245	3.62
500.596	3.69
500.947	3.65
501.298	3.66
501.648	3.6
501.999	3.66
502.35	3.41
502.7	3.65
503.051	3.61
503.401	3.68
503.752	3.51
504.102	3.54
504.452	3.52
504.803	3.62
505.153	3.64
505.503	3.57
505.853	3.67
506.203	3.74
506.553	3.65
506.903	3.61
507.253	3.53
507.603	3.66
507.953	3.67
508.303	3.66
508.652	3.5
509.002	3.73
509.352	3.68
509.701	3.5
510.051	3.73
510.4	3.67
510.75	3.49
511.099	3.53
511.449	3.65
511.798	3.56
512.147	3.61
512.496	3.6
512.846	3.64
513.195	3.64
513.544	3.64
513.893	3.59
514.242	3.61
514.591	3.57
514.939	3.65
515.288	3.72
515.637	3.63
515.986	3.58
516.334	3.72
516.683	3.55
517.032	3.65
517.38	3.48
517.729	3.72
518.077	3.64
518.426	3.71
518.774	3.59
519.122	3.63
519.47	3.57
519.819	3.56
520.167	3.54
520.515	3.65
520.863	3.58
521.211	3.57
521.559	3.56
521.907	3.62
522.255	3.48
522.602	3.64
522.95	3.81
523.298	3.56
523.645	3.61
523.993	3.68
524.341	3.62
524.688	3.65
525.036	3.59
525.383	3.6
525.73	3.66
526.078	3.69
526.425	3.51
526.772	3.59
527.119	3.65
527.466	3.61
527.814	3.56
528.161	3.58
528.508	3.64
528.854	3.61
529.201	3.5
529.548	3.5
529.895	3.46
530.242	3.46
530.588	3.39
530.935	3.5
531.282	3.44
531.628	3.5
531.975	3.5
532.321	3.53
532.667	3.63
533.014	3.7
533.36	3.62
533.706	3.58
534.052	3.56
534.399	3.52
534.745	3.51
535.091	3.51
535.437	3.52
535.783	3.57
536.129	3.52
536.474	3.66
536.82	3.63
537.166	3.6
537.512	3.52
537.857	3.58
538.203	3.63
538.549	3.53
538.894	3.58
539.239	3.66
539.585	3.65
539.93	3.69
540.276	3.69
540.621	3.72
540.966	3.73
541.311	3.75
541.656	3.58
542.001	3.63
542.346	3.59
542.691	3.49
543.036	3.52
543.381	3.56
543.726	3.55
544.071	3.53
544.415	3.61
544.76	3.55
545.105	3.71
545.449	3.62
545.794	3.69
546.138	3.59
546.483	3.67
546.827	3.68
547.171	3.7
547.516	3.61
547.86	3.79
548.204	3.68
548.548	3.64
548.892	3.75
549.236	3.68
549.58	3.67
549.924	3.73
550.268	3.71
550.612	3.85
550.956	3.91
551.3	3.81
551.643	3.75
551.987	3.75
552.33	3.99
552.674	3.74
553.017	3.83
553.361	3.78
553.704	3.8
554.048	3.81
554.391	3.91
554.734	3.73
555.077	3.8
555.42	3.78
555.764	3.8
556.107	3.79
556.45	3.87
556.793	3.95
557.135	3.86
557.478	3.87
557.821	3.85
558.164	3.75
558.507	3.61
558.849	3.83
559.192	3.75
559.534	3.87
559.877	3.74
560.219	3.73
560.562	3.71
560.904	3.94
561.246	3.88
561.589	3.86
561.931	3.79
562.273	3.71
562.615	3.79
562.957	3.65
563.299	3.84
563.641	3.74
563.983	3.66
564.325	3.81
564.667	3.85
565.008	3.83
565.35	3.73
565.692	3.85
566.033	3.77
566.375	3.83
566.716	3.77
567.058	3.74
567.399	3.84
567.741	3.81
568.082	3.86
568.423	3.78
568.764	3.94
569.105	3.78
569.447	3.96
569.788	3.71
570.129	3.8
570.47	3.8
570.811	3.89
571.151	3.72
571.492	3.78
571.833	3.68
572.174	3.91
572.514	3.99
572.855	3.9
573.195	3.74
573.536	3.86
573.876	3.63
574.217	3.76
574.557	3.87
574.898	3.7
575.238	3.98
575.578	3.92
575.918	3.8
576.258	3.93
576.598	3.61
576.938	3.78
577.278	3.82
577.618	3.88
577.958	3.75
578.298	3.89
578.638	3.96
578.977	3.93
579.317	4.06
579.657	3.86
579.996	3.96
580.336	3.9
580.675	3.91
581.014	3.87
581.354	3.76
581.693	4.01
582.032	3.91
582.372	3.92
582.711	3.97
583.05	3.8
583.389	3.99
583.728	4.01
584.067	3.8
584.406	3.93
584.745	3.86
585.083	4.05
585.422	3.85
585.761	3.86
586.1	4.05
586.438	3.93
586.777	3.93
587.115	3.78
587.454	3.69
587.792	4.04
588.13	3.8
588.469	3.75
588.807	3.89
589.145	3.84
589.483	3.76
589.821	3.92
590.159	4.11
590.497	3.75
590.835	4.01
591.173	4.15
591.511	4.09
591.849	4.03
592.187	3.72
592.524	4.24
592.862	3.79
593.2	4.03
593.537	3.9
593.875	3.78
594.212	3.9
594.55	4
594.887	4.23
595.224	4.15
595.561	4.18
595.899	4
596.236	3.89
596.573	3.95
596.91	3.96
597.247	4.11
597.584	4.11
597.921	3.8
598.258	4.03
598.594	3.88
598.931	3.74
599.268	3.82
599.604	4.13
599.941	4.05
600.277	3.95
600.614	4.02
600.95	3.91
601.287	3.56
601.623	3.88
601.959	4.19
602.296	4.07
602.632	4.04
602.968	4.24
603.304	4.15
603.64	4.03
603.976	3.78
604.312	3.87
604.648	4.08
604.984	4.12
605.319	3.98
605.655	3.73
605.991	4.09
606.326	3.86
606.662	3.77
606.998	4.18
607.333	4.06
607.668	3.85
608.004	4.07
608.339	3.92
608.674	3.96
609.01	4.38
609.345	3.99
609.68	3.74
610.015	4.07
610.35	4.1
610.685	3.87
611.02	3.76
611.355	4.1
611.689	3.88
612.024	4.11
612.359	4.04
612.694	4.11
613.028	3.95
613.363	4.03
613.697	3.84
614.032	3.75
614.366	3.83
614.7	4.22
615.035	3.82
615.369	4.38
615.703	4.31
616.037	3.98
616.371	3.87
616.705	4.12
617.039	4.25
617.373	4.29
617.707	4.08
618.041	4.14
618.375	4.02
618.709	3.92
619.042	3.8
619.376	4.08
619.71	4.31
620.043	4.33
620.377	4.09
620.71	4.14
621.043	4.12
621.377	4.4
621.71	4.47
622.043	4.12
622.376	4.19
622.709	4.43
623.043	4.17
623.376	4.08
623.709	4.12
624.041	3.8
624.374	4.15
624.707	3.97
625.04	4.27
625.373	4.56
625.705	4.33
626.038	4.48
626.37	4.01
626.703	4.22
627.035	4.15
627.368	4.16
627.7	4.22
628.032	4.08
628.365	4.39
628.697	4.36
629.029	3.96
629.361	4.28
629.693	4.15
630.025	4.3
630.357	4.5
630.689	4
631.021	4.42
631.353	4.14
631.684	3.94
632.016	3.92
632.348	4
632.679	4.28
633.011	4.28
633.342	4.66
633.674	3.95
634.005	4.29
634.336	4.11
634.668	4.22
634.999	3.8
635.33	4.42
635.661	4.03
635.992	3.97
636.323	4.1
636.654	4.34
636.985	4.22
637.316	3.91
637.647	4.44
637.977	4.01
638.308	4.57
638.639	4.06
638.969	4.07
639.3	4.28
639.63	4.13
639.961	4.39
640.291	3.97
640.622	4.1
640.952	4.66
641.282	3.73
641.612	4.17
641.943	3.91
642.273	4.33
642.603	4.4
642.933	4.47
643.263	4.35
643.592	4.82
643.922	4.6
644.252	3.91
644.582	4.26
644.911	3.92
645.241	4.4
645.571	4.48
645.9	4.17
646.23	4.32
646.559	4.34
646.888	4.26
647.218	4.58
647.547	4.12
647.876	4.16
648.205	4.2
648.534	4.46
648.863	4.13
649.192	4.59
649.521	4.41
649.85	4.33
650.179	4.18
650.508	4.57
650.837	4.56
651.165	4.27
651.494	4.59
651.822	4.39
652.151	4.2
652.479	4.16
652.808	4.86
653.136	3.85
653.465	3.94
653.793	4.05
654.121	4.32
654.449	3.86
654.777	4.07
655.105	4.27
655.433	4.75
655.761	4.48
656.089	4.31
656.417	4.62
656.745	4.71
657.073	4.22
657.4	4.06
657.728	3.69
658.056	4.52
658.383	4.14
658.711	4.08
659.038	4.75
659.365	4.51
659.693	4.19
660.02	4.03
660.347	4.26
660.674	4.24
661.001	4.48
661.329	4.23
661.656	4.31
661.982	4.18
662.309	4.12
662.636	4.46
662.963	4.16
663.29	4.29
663.616	4.03
663.943	4.33
664.27	4.41
664.596	4.13
664.923	4.63
665.249	4.79
665.576	4.39
665.902	4.01
666.228	4.69
666.554	4.6
666.881	3.92
667.207	4.17
667.533	4.49
667.859	4.4
668.185	4.42
668.511	4.8
668.837	4.41
669.162	4.49
669.488	4.17
669.814	4.82
670.139	4.05
670.465	5.06
670.791	4.28
671.116	4.3
671.442	3.6
671.767	4.19
672.092	4.07
672.418	4.83
672.743	4.25
673.068	4.13
673.393	4.03
673.718	3.93
674.043	4.74
674.368	4.38
674.693	4.39
675.018	4.4
675.343	4.78
675.667	4.25
675.992	4.21
676.317	4.65
676.641	4.74
676.966	4.54
677.29	3.93
677.615	4.02
677.939	5.03
678.264	4.28
678.588	4.67
678.912	4.33
679.236	4.37
679.56	3.48
679.885	4.22
680.209	4.93
680.532	4.61
680.856	4.53
681.18	5.14
681.504	4.42
681.828	4.27
682.152	4.33
682.475	4.57
682.799	3.92
683.122	4.75
683.446	4.24
683.769	4.8
684.093	4.75
684.416	3.98
684.739	4.58
685.062	4.58
685.386	4.63
685.709	4.49
686.032	4.16
686.355	4.11
686.678	4.45
687.001	4.99
687.324	4.49
687.646	4.47
687.969	5.24
688.292	4.29
688.614	4.63
688.937	4.46
689.26	4.94
689.582	4.61
689.904	5.22
690.227	4.83
690.549	4.7
690.871	4.74
691.194	4.33
691.516	4.36
691.838	4.17
692.16	4.33
692.482	4.1
