Data from 21-12_forehead_Reflection__2__87.txt Node

Date: Thu Dec 15 17:06:25 CST 2022
User: ToomeyLab
Spectrometer: FLMS14357
Trigger mode: 0
Integration Time (sec): 1.000000E-2
Scans to average: 100
Electric dark correction enabled: true
Nonlinearity correction enabled: false
Boxcar width: 0
XAxis mode: Wavelengths
Number of Pixels in Spectrum: 2048
>>>>>Begin Spectral Data<<<<<
189.047	-18.35
189.435	-18.35
189.823	-18.35
190.211	1447.75
190.599	10.02
190.987	-178.9
191.375	390.46
191.763	124.61
192.151	159.41
192.538	-422.13
192.926	-184.18
193.314	51.66
193.702	-39.07
194.089	-47.84
194.477	-52.42
194.864	164.3
195.252	-195.22
195.639	50.65
196.027	40.46
196.414	-56.94
196.801	49.16
197.189	-95.98
197.576	-65.98
197.963	681.05
198.351	20.28
198.738	-33.18
199.125	-23.02
199.512	-11.25
199.899	-68.69
200.286	-2.82
200.673	45.27
201.06	-34.05
201.447	-10.76
201.833	22.54
202.22	9.46
202.607	-50.56
202.994	11.33
203.38	23.01
203.767	-29.33
204.154	6.72
204.54	10.1
204.927	5.32
205.313	34.84
205.699	13.57
206.086	24.82
206.472	35.92
206.858	-4.47
207.245	6.31
207.631	5.71
208.017	46.61
208.403	-61.23
208.789	-22.79
209.175	8.1
209.561	-26.56
209.947	21.76
210.333	-10.66
210.719	23.5
211.105	20
211.491	-3.46
211.876	-16.56
212.262	2.91
212.648	38.15
213.034	23.51
213.419	-8.86
213.805	-16.74
214.19	-34.05
214.576	-9.82
214.961	-5.24
215.346	-18.69
215.732	-13.88
216.117	-4.29
216.502	-8.56
216.888	0.53
217.273	-32.6
217.658	-23.48
218.043	-30.52
218.428	7.58
218.813	14.39
219.198	-7.62
219.583	-9.82
219.968	8.65
220.353	-33.76
220.738	20.18
221.122	-0.79
221.507	-7.95
221.892	3.6
222.276	-15.35
222.661	-3.42
223.046	-16.46
223.43	16.82
223.815	-2.67
224.199	-4.9
224.583	-6.91
224.968	1.99
225.352	-9.9
225.736	8.27
226.121	6.75
226.505	-0.69
226.889	-3.57
227.273	0.84
227.657	4.13
228.041	-0.21
228.425	-0.35
228.809	1.19
229.193	-0.4
229.577	1.63
229.961	0.18
230.344	1.99
230.728	2.08
231.112	1.39
231.495	1.1
231.879	-0.25
232.263	0.06
232.646	0.59
233.03	1.42
233.413	1.64
233.797	-0.02
234.18	2.26
234.563	4.45
234.946	1.74
235.33	1.22
235.713	1.89
236.096	2.13
236.479	2.86
236.862	0.65
237.245	-0.24
237.628	1.54
238.011	1.58
238.394	1.3
238.777	1.46
239.16	2.47
239.543	3.77
239.925	0.92
240.308	0.95
240.691	1.73
241.073	-0.16
241.456	1.54
241.838	0.41
242.221	1.64
242.603	2.24
242.986	1.71
243.368	1.86
243.75	1.81
244.133	1.64
244.515	1.31
244.897	1.11
245.279	1.3
245.661	0.72
246.043	1.91
246.425	2.41
246.807	1.47
247.189	1.3
247.571	0.96
247.953	1.27
248.335	1.54
248.717	1.74
249.098	1.64
249.48	1.76
249.862	1.33
250.243	1.56
250.625	1.26
251.006	1.86
251.388	1.57
251.769	1.79
252.151	1.98
252.532	0.39
252.913	1.83
253.295	1.42
253.676	1.92
254.057	1.4
254.438	1.04
254.819	1.82
255.2	2.17
255.581	2.36
255.962	1.88
256.343	2.64
256.724	1.77
257.105	1.99
257.486	0.66
257.867	1.96
258.247	2.1
258.628	2.25
259.009	1.23
259.389	0.8
259.77	1.21
260.15	2.53
260.531	1.59
260.911	1.47
261.292	1.63
261.672	1.42
262.052	1.66
262.432	1.29
262.813	1.27
263.193	1.34
263.573	1.65
263.953	1.52
264.333	1.68
264.713	2.26
265.093	1.2
265.473	0.84
265.853	1.32
266.233	1.41
266.612	1.43
266.992	1.55
267.372	1.98
267.752	1.93
268.131	1.82
268.511	1.58
268.89	1.78
269.27	1.13
269.649	1.06
270.029	1.2
270.408	0.99
270.787	0.9
271.167	1.22
271.546	2.1
271.925	1.66
272.304	1.46
272.683	0.9
273.062	1.15
273.441	0.84
273.82	1.89
274.199	1.49
274.578	1.76
274.957	1.38
275.336	1.8
275.715	1.67
276.093	0.89
276.472	1.14
276.851	1.43
277.229	1.4
277.608	1.39
277.986	1.95
278.365	1.49
278.743	1.72
279.122	0.81
279.5	1.44
279.878	1.25
280.257	1.59
280.635	1.7
281.013	0.79
281.391	1.64
281.769	1.91
282.147	1.86
282.525	1.13
282.903	0.73
283.281	1.49
283.659	1.98
284.037	1.09
284.415	1.24
284.792	1.97
285.17	1.49
285.548	1.38
285.925	1.14
286.303	2.02
286.68	1.65
287.058	1.68
287.435	1.21
287.813	1.48
288.19	1.33
288.567	1.38
288.945	1.02
289.322	1.58
289.699	1.69
290.076	1.74
290.453	1.14
290.83	1.73
291.207	1.47
291.584	2.08
291.961	1.29
292.338	1.4
292.715	1.48
293.092	2.07
293.469	1.74
293.845	1.35
294.222	2.23
294.599	1.58
294.975	1.57
295.352	2.37
295.728	1.4
296.105	1.73
296.481	1.73
296.858	1.72
297.234	1.25
297.61	1.57
297.986	2.14
298.363	1.76
298.739	1.97
299.115	1.87
299.491	2.14
299.867	1.73
300.243	1.8
300.619	1.9
300.995	1.73
301.371	2.08
301.746	2.15
302.122	1.63
302.498	1.63
302.874	1.9
303.249	2.05
303.625	1.11
304	2.07
304.376	2.22
304.751	2.04
305.127	1.84
305.502	2.48
305.878	2.27
306.253	1.69
306.628	2.22
307.003	2.12
307.378	2.32
307.754	2.17
308.129	2.12
308.504	2.58
308.879	2.38
309.254	2.08
309.629	2.04
310.003	2.08
310.378	2.63
310.753	2.29
311.128	2.04
311.502	2.51
311.877	2.45
312.252	2.48
312.626	2.51
313.001	2.57
313.375	2.66
313.75	2.62
314.124	2.54
314.498	2.85
314.873	1.97
315.247	2.16
315.621	2.55
315.995	2.62
316.369	2.25
316.743	2.09
317.117	2.8
317.491	2.47
317.865	2.54
318.239	3.06
318.613	2.71
318.987	2.57
319.361	2.74
319.734	2.76
320.108	2.92
320.482	2.91
320.855	2.91
321.229	2.61
321.602	2.73
321.976	2.31
322.349	3.22
322.723	3.16
323.096	2.7
323.469	3.1
323.843	2.54
324.216	2.9
324.589	2.69
324.962	2.53
325.335	2.54
325.708	3.35
326.081	2.73
326.454	3.06
326.827	3.02
327.2	2.92
327.573	2.97
327.945	3.24
328.318	2.9
328.691	3.19
329.063	2.57
329.436	2.91
329.809	3.13
330.181	3.59
330.553	3.22
330.926	3.43
331.298	2.45
331.671	3.4
332.043	3.36
332.415	3.6
332.787	3.65
333.159	3.53
333.532	3.04
333.904	3.13
334.276	3.2
334.648	3.27
335.02	3.15
335.391	2.95
335.763	3.38
336.135	3.49
336.507	3.04
336.879	2.87
337.25	3.25
337.622	3.21
337.993	3.05
338.365	2.92
338.736	3.18
339.108	3.61
339.479	3.33
339.851	3.35
340.222	3.67
340.593	3.22
340.964	2.73
341.336	3.56
341.707	3.24
342.078	3.38
342.449	2.96
342.82	3.63
343.191	3.39
343.562	3.41
343.933	3.36
344.303	3.7
344.674	3.48
345.045	3.57
345.416	3.53
345.786	3.27
346.157	3.5
346.527	3.48
346.898	3.27
347.268	3.72
347.639	3.31
348.009	3.4
348.38	3.42
348.75	3.91
349.12	3.57
349.49	3.97
349.861	3.55
350.231	3.61
350.601	3.49
350.971	3.48
351.341	3.6
351.711	3.9
352.081	3.51
352.45	3.51
352.82	3.16
353.19	3.58
353.56	3.44
353.929	3.76
354.299	3.56
354.669	3.7
355.038	3.78
355.408	3.37
355.777	3.93
356.147	3.85
356.516	3.66
356.885	3.82
357.254	3.76
357.624	3.51
357.993	3.73
358.362	3.99
358.731	3.88
359.1	3.89
359.469	4
359.838	4.19
360.207	3.98
360.576	3.82
360.945	3.83
361.314	3.75
361.682	3.79
362.051	3.84
362.42	3.92
362.788	3.83
363.157	3.79
363.525	3.89
363.894	3.67
364.262	4.01
364.631	4.12
364.999	3.68
365.367	3.95
365.735	3.84
366.104	3.91
366.472	3.73
366.84	4.2
367.208	4.05
367.576	3.87
367.944	4.08
368.312	3.93
368.68	4.33
369.048	4.02
369.416	3.8
369.783	3.88
370.151	4.38
370.519	4.74
370.886	3.99
371.254	4.43
371.621	4.34
371.989	4.49
372.356	4.25
372.724	4.14
373.091	3.86
373.458	3.88
373.826	4.39
374.193	4.32
374.56	4.2
374.927	3.96
375.294	4.31
375.661	4.52
376.028	4.53
376.395	4.17
376.762	3.83
377.129	4.29
377.496	4.39
377.863	4.33
378.229	4.47
378.596	4.35
378.963	4.55
379.329	4.24
379.696	4.32
380.062	4.4
380.429	4.17
380.795	4.71
381.161	4.08
381.528	3.8
381.894	4.13
382.26	4.38
382.626	4.4
382.993	4.75
383.359	4.41
383.725	4.21
384.091	4.56
384.457	4.05
384.823	4.27
385.188	4.38
385.554	4.43
385.92	4.5
386.286	4.39
386.651	4.52
387.017	4.63
387.383	4.43
387.748	4.64
388.114	4.47
388.479	4.45
388.845	4.37
389.21	4.86
389.575	4.89
389.94	4.55
390.306	4.64
390.671	4.39
391.036	4.53
391.401	4.34
391.766	4.63
392.131	4.35
392.496	4.56
392.861	4.59
393.226	4.56
393.591	4.52
393.956	4.66
394.32	4.7
394.685	4.63
395.05	4.39
395.414	4.47
395.779	4.71
396.143	4.35
396.508	4.66
396.872	4.33
397.236	4.82
397.601	4.76
397.965	4.43
398.329	4.61
398.694	4.48
399.058	4.36
399.422	4.57
399.786	4.38
400.15	4.66
400.514	4.72
400.878	4.64
401.242	4.81
401.605	4.65
401.969	4.34
402.333	4.26
402.697	4.85
403.06	4.81
403.424	4.83
403.787	4.52
404.151	4.67
404.514	4.6
404.878	4.44
405.241	4.28
405.604	4.56
405.968	4.52
406.331	4.55
406.694	4.64
407.057	4.35
407.42	4.63
407.783	4.5
408.146	4.39
408.509	4.69
408.872	4.61
409.235	4.71
409.598	4.67
409.961	4.9
410.323	4.39
410.686	4.48
411.049	4.46
411.411	4.44
411.774	4.48
412.136	4.49
412.499	4.53
412.861	4.1
413.223	4.29
413.586	4.57
413.948	4.73
414.31	4.62
414.672	4.79
415.035	4.6
415.397	4.53
415.759	4.27
416.121	4.49
416.483	4.56
416.845	4.59
417.206	4.49
417.568	4.66
417.93	4.59
418.292	4.6
418.653	4.45
419.015	4.59
419.377	4.57
419.738	4.69
420.1	4.58
420.461	4.5
420.822	4.57
421.184	4.68
421.545	4.75
421.906	4.64
422.267	4.56
422.629	4.68
422.99	4.64
423.351	4.7
423.712	4.66
424.073	4.76
424.434	4.85
424.795	4.69
425.155	4.73
425.516	4.81
425.877	4.93
426.238	4.79
426.598	4.91
426.959	4.93
427.32	4.8
427.68	4.93
428.041	4.98
428.401	4.89
428.761	5.16
429.122	5.1
429.482	5.12
429.842	5.04
430.202	5.21
430.563	5.26
430.923	5.19
431.283	5.37
431.643	5.28
432.003	5.38
432.363	5.35
432.722	5.3
433.082	5.38
433.442	5.33
433.802	5.32
434.161	5.37
434.521	5.27
434.881	5.36
435.24	5.42
435.6	5.53
435.959	5.5
436.319	5.54
436.678	5.68
437.037	5.35
437.396	5.73
437.756	5.47
438.115	5.63
438.474	5.66
438.833	5.63
439.192	5.64
439.551	5.51
439.91	5.72
440.269	5.73
440.628	5.74
440.987	5.72
441.345	5.72
441.704	5.61
442.063	5.73
442.421	5.77
442.78	5.86
443.138	5.87
443.497	5.74
443.855	5.87
444.214	5.69
444.572	6
444.93	5.94
445.288	5.98
445.647	5.85
446.005	5.94
446.363	5.97
446.721	5.94
447.079	5.82
447.437	5.96
447.795	6.02
448.153	5.92
448.51	6.01
448.868	5.88
449.226	6.06
449.584	6.08
449.941	6.17
450.299	6.13
450.656	6.09
451.014	6.43
451.371	6.32
451.729	6.23
452.086	6.3
452.443	6.33
452.801	6.37
453.158	6.48
453.515	6.39
453.872	6.35
454.229	6.38
454.586	6.36
454.943	6.45
455.3	6.5
455.657	6.56
456.014	6.48
456.371	6.56
456.727	6.68
457.084	6.73
457.441	6.68
457.797	6.5
458.154	6.63
458.51	6.53
458.867	6.61
459.223	6.54
459.58	6.67
459.936	6.68
460.292	6.71
460.648	6.53
461.005	6.6
461.361	6.49
461.717	6.56
462.073	6.64
462.429	6.69
462.785	6.91
463.141	6.81
463.496	6.97
463.852	6.93
464.208	6.84
464.564	6.97
464.919	6.97
465.275	6.83
465.631	7.11
465.986	7.12
466.342	6.78
466.697	7.06
467.052	7.15
467.408	7.09
467.763	7.15
468.118	7.07
468.473	7.21
468.829	6.9
469.184	7.11
469.539	6.95
469.894	7.31
470.249	7.17
470.603	7.27
470.958	7.28
471.313	7.14
471.668	7.21
472.023	7.33
472.377	7.25
472.732	7.52
473.086	7.21
473.441	7.54
473.795	7.63
474.15	7.2
474.504	7.25
474.859	7.11
475.213	7.52
475.567	7.26
475.921	7.48
476.275	7.41
476.63	7.39
476.984	7.37
477.338	7.53
477.692	7.57
478.045	7.54
478.399	7.49
478.753	7.35
479.107	7.47
479.461	7.51
479.814	7.55
480.168	7.57
480.521	7.58
480.875	7.68
481.228	7.6
481.582	7.57
481.935	7.69
482.289	7.58
482.642	7.66
482.995	7.62
483.348	7.52
483.701	7.62
484.055	7.45
484.408	7.49
484.761	7.32
485.114	7.18
485.466	7.17
485.819	7.23
486.172	7.3
486.525	7.39
486.878	7.46
487.23	7.51
487.583	7.6
487.936	7.52
488.288	7.5
488.641	7.47
488.993	7.48
489.345	7.5
489.698	7.52
490.05	7.55
490.402	7.58
490.754	7.76
491.107	7.75
491.459	7.84
491.811	7.88
492.163	7.77
492.515	7.67
492.866	7.62
493.218	7.66
493.57	7.73
493.922	7.72
494.274	7.88
494.625	8.11
494.977	8.01
495.328	8.14
495.68	8.12
496.031	8.18
496.383	8.24
496.734	8.2
497.086	8.21
497.437	8.33
497.788	8.3
498.139	8.23
498.49	8.3
498.842	8.26
499.193	8.15
499.544	8.29
499.894	8.24
500.245	8.41
500.596	8.44
500.947	8.48
501.298	8.47
501.648	8.38
501.999	8.5
502.35	8.35
502.7	8.62
503.051	8.38
503.401	8.5
503.752	8.47
504.102	8.59
504.452	8.45
504.803	8.54
505.153	8.65
505.503	8.53
505.853	8.64
506.203	8.84
506.553	8.56
506.903	8.68
507.253	8.67
507.603	8.67
507.953	8.71
508.303	8.66
508.652	8.54
509.002	8.75
509.352	8.73
509.701	8.52
510.051	8.68
510.4	8.71
510.75	8.66
511.099	8.61
511.449	8.72
511.798	8.68
512.147	8.62
512.496	8.71
512.846	8.76
513.195	8.8
513.544	8.82
513.893	8.75
514.242	8.81
514.591	8.76
514.939	8.91
515.288	8.95
515.637	8.97
515.986	8.87
516.334	9
516.683	8.93
517.032	8.82
517.38	8.94
517.729	9.05
518.077	9.02
518.426	9.01
518.774	9.03
519.122	8.98
519.47	8.89
519.819	8.87
520.167	8.88
520.515	8.85
520.863	8.8
521.211	8.98
521.559	8.94
521.907	9.1
522.255	8.99
522.602	9.15
522.95	9.25
523.298	9.14
523.645	9.21
523.993	9.19
524.341	9.21
524.688	9.09
525.036	9.18
525.383	9.31
525.73	9.14
526.078	9.21
526.425	9.16
526.772	9.12
527.119	9.11
527.466	9.2
527.814	9.17
528.161	9.16
528.508	9.14
528.854	9.23
529.201	9.07
529.548	8.96
529.895	8.84
530.242	8.79
530.588	8.87
530.935	8.9
531.282	8.91
531.628	9.07
531.975	9.09
532.321	9.25
532.667	9.33
533.014	9.31
533.36	9.26
533.706	9.38
534.052	9.35
534.399	9.28
534.745	9.17
535.091	9.17
535.437	9.22
535.783	9.3
536.129	9.37
536.474	9.5
536.82	9.57
537.166	9.47
537.512	9.54
537.857	9.51
538.203	9.37
538.549	9.38
538.894	9.39
539.239	9.57
539.585	9.66
539.93	9.69
540.276	9.7
540.621	9.84
540.966	9.68
541.311	9.68
541.656	9.53
542.001	9.56
542.346	9.57
542.691	9.41
543.036	9.4
543.381	9.5
543.726	9.62
544.071	9.57
544.415	9.66
544.76	9.66
545.105	9.69
545.449	9.77
545.794	9.86
546.138	9.88
546.483	9.97
546.827	10.04
547.171	10
547.516	9.98
547.86	10.01
548.204	10.01
548.548	9.98
548.892	10.01
549.236	10.17
549.58	10.07
549.924	10.15
550.268	10.31
550.612	10.33
550.956	10.23
551.3	10.52
551.643	10.45
551.987	10.44
552.33	10.63
552.674	10.39
553.017	10.51
553.361	10.59
553.704	10.46
554.048	10.38
554.391	10.57
554.734	10.36
555.077	10.57
555.42	10.3
555.764	10.41
556.107	10.58
556.45	10.71
556.793	10.74
557.135	10.61
557.478	10.57
557.821	10.8
558.164	10.69
558.507	10.63
558.849	10.79
559.192	10.69
559.534	10.88
559.877	10.82
560.219	10.83
560.562	10.79
560.904	11.02
561.246	10.57
561.589	10.95
561.931	10.92
562.273	10.75
562.615	10.75
562.957	10.75
563.299	10.8
563.641	10.84
563.983	10.8
564.325	11.06
564.667	11.1
565.008	10.92
565.35	10.92
565.692	10.98
566.033	11.16
566.375	11.13
566.716	10.89
567.058	11.03
567.399	11.03
567.741	11.16
568.082	11.1
568.423	10.94
568.764	11.07
569.105	11.1
569.447	11.06
569.788	11.05
570.129	11.27
570.47	11.06
570.811	11.15
571.151	11.15
571.492	11.35
571.833	11.17
572.174	11.47
572.514	11.27
572.855	11.42
573.195	11.25
573.536	11.31
573.876	11.14
574.217	11.21
574.557	11.2
574.898	11.16
575.238	11.46
575.578	11.39
575.918	11.43
576.258	11.56
576.598	11.28
576.938	11.53
577.278	11.52
577.618	11.56
577.958	11.75
578.298	11.57
578.638	11.49
578.977	11.68
579.317	11.76
579.657	11.64
579.996	11.94
580.336	11.65
580.675	11.77
581.014	11.6
581.354	11.75
581.693	11.8
582.032	11.79
582.372	11.97
582.711	11.84
583.05	11.89
583.389	12.12
583.728	12.02
584.067	12.11
584.406	11.87
584.745	12.11
585.083	12.14
585.422	12.05
585.761	12.11
586.1	11.97
586.438	12.09
586.777	12.06
587.115	12.2
587.454	11.95
587.792	12.06
588.13	12.16
588.469	12.06
588.807	12.29
589.145	12.35
589.483	12.03
589.821	12.32
590.159	12.45
590.497	12.38
590.835	12.51
591.173	12.41
591.511	12.51
591.849	12.39
592.187	12.32
592.524	12.62
592.862	12.51
593.2	12.62
593.537	12.55
593.875	12.55
594.212	12.56
594.55	12.55
594.887	12.67
595.224	12.91
595.561	12.68
595.899	12.69
596.236	12.81
596.573	12.49
596.91	12.46
597.247	12.84
597.584	12.65
597.921	12.79
598.258	12.88
598.594	12.5
598.931	12.43
599.268	12.57
599.604	12.86
599.941	12.8
600.277	12.88
600.614	12.96
600.95	12.85
601.287	12.68
601.623	12.89
601.959	13.11
602.296	12.88
602.632	13.01
602.968	12.96
603.304	13.13
603.64	12.89
603.976	12.95
604.312	13
604.648	13.14
604.984	12.97
605.319	13.15
605.655	12.95
605.991	13.04
606.326	12.98
606.662	12.75
606.998	13.01
607.333	13.08
607.668	12.99
608.004	13.05
608.339	13.15
608.674	13.23
609.01	13.63
609.345	13.16
609.68	13.23
610.015	13.2
610.35	13.39
610.685	13
611.02	13.19
611.355	13.25
611.689	13.26
612.024	13.37
612.359	13.62
612.694	13.67
613.028	13.29
613.363	13.45
613.697	13.56
614.032	13.69
614.366	13.49
614.7	13.66
615.035	13.68
615.369	13.71
615.703	13.53
616.037	13.65
616.371	13.88
616.705	14.18
617.039	13.97
617.373	14.12
617.707	14.1
618.041	13.63
618.375	13.37
618.709	13.74
619.042	13.61
619.376	13.51
619.71	13.52
620.043	14.15
620.377	13.89
620.71	13.93
621.043	13.99
621.377	14.15
621.71	14.07
622.043	13.93
622.376	13.83
622.709	14.26
623.043	14.15
623.376	14.42
623.709	14.28
624.041	14.28
624.374	14.48
624.707	14.26
625.04	14.11
625.373	14.39
625.705	14.49
626.038	14.5
626.37	14.29
626.703	14.38
627.035	14.58
627.368	14.64
627.7	14.5
628.032	14.24
628.365	14.4
628.697	14.53
629.029	14.32
629.361	14.54
629.693	14.31
630.025	14.54
630.357	14.52
630.689	14.28
631.021	14.46
631.353	14.43
631.684	14.58
632.016	14.21
632.348	14.69
632.679	14.97
633.011	14.46
633.342	14.52
633.674	14.25
634.005	14.46
634.336	14.87
634.668	14.55
634.999	14.48
635.33	14.59
635.661	14.87
635.992	14.62
636.323	14.6
636.654	14.48
636.985	14.81
637.316	14.49
637.647	14.87
637.977	14.78
638.308	14.89
638.639	15.15
638.969	14.8
639.3	15.09
639.63	14.69
639.961	14.9
640.291	15.11
640.622	14.96
640.952	15.57
641.282	14.61
641.612	15.11
641.943	15.12
642.273	14.98
642.603	15.11
642.933	15.56
643.263	15.4
643.592	15.16
643.922	15.71
644.252	15.15
644.582	15.36
644.911	15.68
645.241	15.16
645.571	15.41
645.9	15.07
646.23	15.77
646.559	15.19
646.888	15.88
647.218	15.62
647.547	15.51
647.876	15.45
648.205	15.71
648.534	15.57
648.863	15.16
649.192	15.5
649.521	15.52
649.85	15.92
650.179	15.82
650.508	15.44
650.837	15.6
651.165	15.36
651.494	15.51
651.822	15.89
652.151	15.49
652.479	15.86
652.808	15.41
653.136	15.04
653.465	15.47
653.793	15.82
654.121	15.68
654.449	15.53
654.777	15.64
655.105	15.61
655.433	16.27
655.761	15.81
656.089	15.95
656.417	16.17
656.745	16.5
657.073	15.99
657.4	15.84
657.728	15.97
658.056	15.94
658.383	15.84
658.711	15.76
659.038	15.95
659.365	16.34
659.693	16.42
660.02	15.88
660.347	15.71
660.674	15.83
661.001	16.14
661.329	15.96
661.656	15.61
661.982	16.19
662.309	16.26
662.636	16.09
662.963	15.99
663.29	16.41
663.616	15.96
663.943	15.98
664.27	16.17
664.596	16.2
664.923	16.33
665.249	16.48
665.576	16.4
665.902	15.92
666.228	16.61
666.554	16.77
666.881	16.41
667.207	16.77
667.533	16.53
667.859	16.04
668.185	16.41
668.511	16.88
668.837	16.86
669.162	16.68
669.488	16.2
669.814	16.36
670.139	16.01
670.465	16.91
670.791	15.97
671.116	16.59
671.442	16.21
671.767	16.91
672.092	17.07
672.418	16.61
672.743	16.45
673.068	16.86
673.393	16.85
673.718	16.35
674.043	16.77
674.368	16.64
674.693	17.4
675.018	17.26
675.343	17.52
675.667	17.11
675.992	16.82
676.317	16.77
676.641	17.61
676.966	16.89
677.29	16.67
677.615	16.93
677.939	17.78
678.264	16.93
678.588	17.56
678.912	17.23
679.236	17.09
679.56	16.79
679.885	16.4
680.209	17.22
680.532	17.36
680.856	17.14
681.18	17.88
681.504	17.26
681.828	17.09
682.152	16.71
