Data from 21-12_crown_Reflection__0__80.txt Node

Date: Thu Dec 15 17:04:34 CST 2022
User: ToomeyLab
Spectrometer: FLMS14357
Trigger mode: 0
Integration Time (sec): 1.000000E-2
Scans to average: 100
Electric dark correction enabled: true
Nonlinearity correction enabled: false
Boxcar width: 0
XAxis mode: Wavelengths
Number of Pixels in Spectrum: 2048
>>>>>Begin Spectral Data<<<<<
189.047	-32.5
189.435	-32.5
189.823	-32.5
190.211	-827.03
190.599	49.67
190.987	134.32
191.375	-114.89
191.763	69.89
192.151	130.99
192.538	125.99
192.926	-21.45
193.314	54.25
193.702	46.3
194.089	-13.5
194.477	178.39
194.864	14.66
195.252	199.37
195.639	167.18
196.027	82.51
196.414	175.61
196.801	13.88
197.189	218.76
197.576	123.63
197.963	4709.47
198.351	-7.47
198.738	-57.62
199.125	-72.64
199.512	36.14
199.899	-21.21
200.286	-25.83
200.673	69.16
201.06	1.03
201.447	10.35
201.833	-7.48
202.22	-0.79
202.607	42.92
202.994	-4.53
203.38	-2.61
203.767	-5
204.154	26.91
204.54	7.57
204.927	-0.51
205.313	42.63
205.699	34.83
206.086	20.83
206.472	27.26
206.858	20.39
207.245	13.08
207.631	-44.53
208.017	40.58
208.403	-46.05
208.789	19.69
209.175	-6.6
209.561	-27.16
209.947	-7.16
210.333	1.47
210.719	13.23
211.105	15.97
211.491	17.33
211.876	6.56
212.262	15.1
212.648	18.87
213.034	9.91
213.419	16.86
213.805	4.97
214.19	0.12
214.576	-18.41
214.961	24.71
215.346	-9.54
215.732	-5.59
216.117	34.7
216.502	-2.35
216.888	36.44
217.273	2.59
217.658	2.15
218.043	4.65
218.428	-5.77
218.813	17.18
219.198	-15.32
219.583	1.02
219.968	-2.89
220.353	1.86
220.738	-10.66
221.122	-11.31
221.507	-3.59
221.892	-22.36
222.276	-2.91
222.661	9.38
223.046	-8.43
223.43	18.58
223.815	6.26
224.199	3.7
224.583	0.47
224.968	2.41
225.352	-6.41
225.736	12.2
226.121	0.16
226.505	2.09
226.889	-6.25
227.273	-1.63
227.657	3.44
228.041	1.7
228.425	-1.62
228.809	-0.11
229.193	2.93
229.577	3.01
229.961	2.46
230.344	3.33
230.728	4.5
231.112	3.83
231.495	3.07
231.879	4.3
232.263	3.7
232.646	2.45
233.03	5.9
233.413	2.97
233.797	3.62
234.18	2.82
234.563	6.25
234.946	1.32
235.33	3.58
235.713	4.51
236.096	3.58
236.479	4.36
236.862	2.4
237.245	4.31
237.628	3.4
238.011	4.34
238.394	2.89
238.777	4.33
239.16	4.88
239.543	6.1
239.925	2.76
240.308	2.26
240.691	3.98
241.073	3.16
241.456	3.2
241.838	2.6
242.221	3.76
242.603	4.27
242.986	3.72
243.368	3.44
243.75	3.06
244.133	3.75
244.515	3.44
244.897	2.92
245.279	3.2
245.661	3.2
246.043	3.04
246.425	4.64
246.807	3.8
247.189	3.41
247.571	3.29
247.953	3.32
248.335	3.54
248.717	3.47
249.098	3.45
249.48	3.11
249.862	3.77
250.243	3.64
250.625	3.71
251.006	4.25
251.388	2.63
251.769	2.74
252.151	3.79
252.532	3.47
252.913	3.96
253.295	3.08
253.676	3.27
254.057	3.36
254.438	3.81
254.819	3.06
255.2	3.18
255.581	4.52
255.962	4.26
256.343	3.72
256.724	3.38
257.105	2.85
257.486	2.22
257.867	3.3
258.247	2.91
258.628	3.96
259.009	2.99
259.389	2.57
259.77	2.34
260.15	3.9
260.531	3.7
260.911	3.2
261.292	3.33
261.672	3.31
262.052	3.43
262.432	3.08
262.813	3.57
263.193	3.4
263.573	3.21
263.953	2.61
264.333	3.81
264.713	3.6
265.093	3.31
265.473	3.39
265.853	2.88
266.233	3.25
266.612	2.84
266.992	3.37
267.372	3.58
267.752	3.65
268.131	2.84
268.511	3.13
268.89	3.53
269.27	2.7
269.649	3.25
270.029	3.09
270.408	2.89
270.787	3.28
271.167	3.6
271.546	3.58
271.925	2.88
272.304	2.64
272.683	3.08
273.062	3.19
273.441	3.25
273.82	3.09
274.199	2.99
274.578	3.3
274.957	2.51
275.336	3.14
275.715	3.55
276.093	3.21
276.472	2.58
276.851	3.03
277.229	2.97
277.608	2.93
277.986	3.05
278.365	3.57
278.743	3.52
279.122	3.29
279.5	3.13
279.878	2.27
280.257	2.82
280.635	3.5
281.013	2.46
281.391	2.81
281.769	3.1
282.147	3.21
282.525	2.54
282.903	2.96
283.281	3.42
283.659	3.24
284.037	3.29
284.415	2.69
284.792	2.99
285.17	2.88
285.548	3.34
285.925	2.9
286.303	3.52
286.68	3.25
287.058	3.28
287.435	2.92
287.813	3.02
288.19	2.9
288.567	3.01
288.945	3.34
289.322	2.83
289.699	3.26
290.076	3.03
290.453	2.79
290.83	3.21
291.207	3.15
291.584	3.37
291.961	3.1
292.338	3.34
292.715	3.01
293.092	3.09
293.469	2.95
293.845	3.57
294.222	3.55
294.599	3.04
294.975	2.66
295.352	3.11
295.728	2.97
296.105	3.04
296.481	3.61
296.858	3.07
297.234	3.04
297.61	2.97
297.986	3.41
298.363	3.65
298.739	3.48
299.115	3.4
299.491	3.85
299.867	3.02
300.243	3.35
300.619	3.41
300.995	3.63
301.371	3.55
301.746	3.55
302.122	2.66
302.498	3.46
302.874	3.42
303.249	3.56
303.625	3.14
304	3.85
304.376	3.7
304.751	3.72
305.127	3.05
305.502	3.79
305.878	3.83
306.253	3.55
306.628	3.79
307.003	3.26
307.378	3.45
307.754	3.2
308.129	3.74
308.504	3.28
308.879	3.68
309.254	3.94
309.629	3.44
310.003	3.59
310.378	3.72
310.753	3.72
311.128	3.08
311.502	3.64
311.877	3.34
312.252	3.71
312.626	3.89
313.001	3.71
313.375	3.8
313.75	3.71
314.124	3.49
314.498	3.44
314.873	3.52
315.247	3.5
315.621	3.78
315.995	3.81
316.369	3.39
316.743	3.5
317.117	3.16
317.491	3.87
317.865	3.68
318.239	3.91
318.613	3.56
318.987	3.12
319.361	3.49
319.734	3.71
320.108	3.52
320.482	3.68
320.855	3.77
321.229	3.61
321.602	3.42
321.976	3.18
322.349	4.11
322.723	4.03
323.096	3.71
323.469	3.61
323.843	3.54
324.216	3.62
324.589	4.07
324.962	3.57
325.335	3.69
325.708	4.06
326.081	3.94
326.454	4.07
326.827	3.65
327.2	3.41
327.573	3.88
327.945	3.44
328.318	3.63
328.691	3.73
329.063	3.3
329.436	3.33
329.809	3.78
330.181	4.27
330.553	4.15
330.926	3.52
331.298	3.43
331.671	3.85
332.043	3.82
332.415	3.7
332.787	4.09
333.159	3.63
333.532	3.87
333.904	3.88
334.276	3.69
334.648	4.32
335.02	3.6
335.391	3.65
335.763	4
336.135	3.86
336.507	3.72
336.879	3.8
337.25	3.99
337.622	3.88
337.993	3.79
338.365	3.75
338.736	3.98
339.108	4.04
339.479	3.66
339.851	3.97
340.222	4.24
340.593	3.82
340.964	3.73
341.336	3.88
341.707	4
342.078	3.6
342.449	3.94
342.82	4.02
343.191	3.61
343.562	4.37
343.933	3.79
344.303	3.9
344.674	3.59
345.045	3.78
345.416	3.92
345.786	3.68
346.157	3.79
346.527	3.51
346.898	3.41
347.268	3.8
347.639	3.68
348.009	3.87
348.38	3.59
348.75	4.03
349.12	3.99
349.49	3.63
349.861	3.92
350.231	4.07
350.601	3.96
350.971	3.45
351.341	3.82
351.711	3.92
352.081	3.55
352.45	3.59
352.82	3.54
353.19	3.8
353.56	3.56
353.929	3.84
354.299	4.25
354.669	3.79
355.038	4.34
355.408	3.55
355.777	4.11
356.147	3.83
356.516	3.74
356.885	3.48
357.254	3.44
357.624	3.38
357.993	3.8
358.362	4.19
358.731	4.26
359.1	4.16
359.469	4.01
359.838	4.23
360.207	3.73
360.576	4.18
360.945	4.09
361.314	4.06
361.682	3.82
362.051	3.8
362.42	3.96
362.788	3.81
363.157	3.74
363.525	3.64
363.894	3.68
364.262	3.95
364.631	4.05
364.999	3.85
365.367	3.73
365.735	3.47
366.104	3.99
366.472	3.87
366.84	3.92
367.208	4.19
367.576	3.95
367.944	4.29
368.312	3.89
368.68	4.06
369.048	3.96
369.416	3.79
369.783	4.01
370.151	4.2
370.519	4.06
370.886	3.79
371.254	3.99
371.621	3.98
371.989	3.93
372.356	3.99
372.724	3.98
373.091	3.91
373.458	3.72
373.826	3.91
374.193	3.85
374.56	3.87
374.927	3.53
375.294	4.16
375.661	4.04
376.028	3.78
376.395	4.25
376.762	3.63
377.129	3.74
377.496	3.8
377.863	4.03
378.229	4.34
378.596	4.03
378.963	3.92
379.329	3.96
379.696	3.83
380.062	3.91
380.429	3.7
380.795	4.39
381.161	3.69
381.528	3.45
381.894	3.93
382.26	3.93
382.626	3.75
382.993	4.04
383.359	4.1
383.725	3.69
384.091	3.76
384.457	3.85
384.823	3.99
385.188	3.69
385.554	4.01
385.92	3.92
386.286	3.87
386.651	3.82
387.017	4.14
387.383	3.69
387.748	4.11
388.114	3.92
388.479	3.76
388.845	3.73
389.21	4.11
389.575	4.21
389.94	4.22
390.306	3.93
390.671	3.88
391.036	3.74
391.401	3.99
391.766	3.87
392.131	4.15
392.496	3.94
392.861	3.68
393.226	3.73
393.591	3.83
393.956	3.95
394.32	4.22
394.685	4.04
395.05	4
395.414	3.83
395.779	3.97
396.143	3.87
396.508	3.62
396.872	3.76
397.236	4.02
397.601	4.13
397.965	3.82
398.329	4.02
398.694	3.69
399.058	3.88
399.422	3.73
399.786	3.79
400.15	3.69
400.514	3.79
400.878	3.77
401.242	3.92
401.605	3.66
401.969	3.67
402.333	3.81
402.697	4.27
403.06	3.73
403.424	3.84
403.787	4
404.151	3.87
404.514	3.77
404.878	3.43
405.241	3.79
405.604	3.71
405.968	3.68
406.331	3.81
406.694	3.72
407.057	3.64
407.42	3.81
407.783	3.9
408.146	3.87
408.509	3.89
408.872	3.79
409.235	3.92
409.598	3.59
409.961	3.99
410.323	3.95
410.686	3.57
411.049	3.7
411.411	3.63
411.774	3.84
412.136	3.68
412.499	3.64
412.861	3.39
413.223	3.67
413.586	3.79
413.948	3.69
414.31	3.66
414.672	3.66
415.035	3.72
415.397	3.77
415.759	3.46
416.121	3.57
416.483	3.75
416.845	3.66
417.206	3.6
417.568	3.61
417.93	3.76
418.292	3.54
418.653	3.49
419.015	3.69
419.377	3.56
419.738	3.62
420.1	3.63
420.461	3.49
420.822	3.66
421.184	3.63
421.545	3.68
421.906	3.64
422.267	3.55
422.629	3.53
422.99	3.59
423.351	3.64
423.712	3.67
424.073	3.7
424.434	3.79
424.795	3.67
425.155	3.57
425.516	3.59
425.877	3.79
426.238	3.64
426.598	3.71
426.959	3.74
427.32	3.77
427.68	3.73
428.041	3.83
428.401	3.76
428.761	3.87
429.122	3.87
429.482	3.95
429.842	3.9
430.202	3.96
430.563	3.74
430.923	3.83
431.283	3.99
431.643	4.14
432.003	3.76
432.363	4.09
432.722	3.82
433.082	3.97
433.442	4.04
433.802	3.89
434.161	3.93
434.521	3.87
434.881	3.9
435.24	3.98
435.6	3.81
435.959	4.02
436.319	4.06
436.678	3.95
437.037	3.86
437.396	3.94
437.756	3.82
438.115	3.98
438.474	4.16
438.833	4.08
439.192	3.98
439.551	4.03
439.91	4.14
440.269	4.05
440.628	3.99
440.987	4.05
441.345	4.05
441.704	4.02
442.063	3.95
442.421	3.99
442.78	3.94
443.138	3.94
443.497	3.98
443.855	4.13
444.214	3.89
444.572	4.11
444.93	4.08
445.288	4.02
445.647	3.84
446.005	4.17
446.363	4.12
446.721	4.04
447.079	3.99
447.437	4.04
447.795	4.02
448.153	4.07
448.51	4.05
448.868	3.96
449.226	4.06
449.584	3.98
449.941	4.12
450.299	4.02
450.656	4.13
451.014	4.21
451.371	4.12
451.729	4
452.086	4.07
452.443	4.31
452.801	4.18
453.158	4.24
453.515	4.06
453.872	4.23
454.229	4.14
454.586	4.09
454.943	4.14
455.3	4.31
455.657	4.12
456.014	4.18
456.371	4.26
456.727	4.2
457.084	4.29
457.441	4.22
457.797	4.11
458.154	4.25
458.51	4.12
458.867	4.29
459.223	4.19
459.58	4.28
459.936	4.28
460.292	4.15
460.648	4.15
461.005	4.13
461.361	4.14
461.717	4.17
462.073	4.17
462.429	4.32
462.785	4.28
463.141	4.26
463.496	4.35
463.852	4.33
464.208	4.21
464.564	4.28
464.919	4.22
465.275	4.4
465.631	4.39
465.986	4.48
466.342	4.15
466.697	4.28
467.052	4.51
467.408	4.35
467.763	4.32
468.118	4.24
468.473	4.29
468.829	4.3
469.184	4.3
469.539	4.23
469.894	4.47
470.249	4.45
470.603	4.57
470.958	4.51
471.313	4.5
471.668	4.4
472.023	4.5
472.377	4.42
472.732	4.39
473.086	4.3
473.441	4.42
473.795	4.63
474.15	4.38
474.504	4.46
474.859	4.16
475.213	4.47
475.567	4.37
475.921	4.52
476.275	4.48
476.63	4.42
476.984	4.27
477.338	4.49
477.692	4.35
478.045	4.51
478.399	4.52
478.753	4.51
479.107	4.36
479.461	4.46
479.814	4.38
480.168	4.3
480.521	4.44
480.875	4.43
481.228	4.43
481.582	4.46
481.935	4.64
482.289	4.42
482.642	4.54
482.995	4.39
483.348	4.39
483.701	4.4
484.055	4.35
484.408	4.35
484.761	4.17
485.114	4.07
485.466	4.09
485.819	4.13
486.172	4.11
486.525	4.11
486.878	4.18
487.23	4.25
487.583	4.25
487.936	4.27
488.288	4.23
488.641	4.2
488.993	4.15
489.345	4.17
489.698	4.17
490.05	4.16
490.402	4.18
490.754	4.26
491.107	4.19
491.459	4.27
491.811	4.26
492.163	4.32
492.515	4.24
492.866	4.25
493.218	4.17
493.57	4.26
493.922	4.26
494.274	4.31
494.625	4.35
494.977	4.36
495.328	4.44
495.68	4.37
496.031	4.45
496.383	4.41
496.734	4.33
497.086	4.55
497.437	4.61
497.788	4.54
498.139	4.4
498.49	4.5
498.842	4.47
499.193	4.29
499.544	4.42
499.894	4.41
500.245	4.53
500.596	4.47
500.947	4.43
501.298	4.43
501.648	4.51
501.999	4.52
502.35	4.34
502.7	4.54
503.051	4.53
503.401	4.47
503.752	4.4
504.102	4.42
504.452	4.31
504.803	4.44
505.153	4.53
505.503	4.5
505.853	4.53
506.203	4.55
506.553	4.39
506.903	4.58
507.253	4.47
507.603	4.54
507.953	4.54
508.303	4.54
508.652	4.34
509.002	4.49
509.352	4.4
509.701	4.41
510.051	4.53
510.4	4.41
510.75	4.4
511.099	4.38
511.449	4.5
511.798	4.47
512.147	4.51
512.496	4.5
512.846	4.4
513.195	4.44
513.544	4.51
513.893	4.46
514.242	4.43
514.591	4.48
514.939	4.55
515.288	4.45
515.637	4.32
515.986	4.47
516.334	4.65
516.683	4.52
517.032	4.53
517.38	4.38
517.729	4.43
518.077	4.47
518.426	4.43
518.774	4.45
519.122	4.47
519.47	4.39
519.819	4.39
520.167	4.43
520.515	4.45
520.863	4.32
521.211	4.32
521.559	4.35
521.907	4.44
522.255	4.42
522.602	4.57
522.95	4.55
523.298	4.54
523.645	4.42
523.993	4.44
524.341	4.46
524.688	4.42
525.036	4.44
525.383	4.49
525.73	4.48
526.078	4.53
526.425	4.34
526.772	4.41
527.119	4.4
527.466	4.45
527.814	4.4
528.161	4.48
528.508	4.38
528.854	4.4
529.201	4.32
529.548	4.26
529.895	4.16
530.242	4.2
530.588	4.22
530.935	4.21
531.282	4.15
531.628	4.26
531.975	4.32
532.321	4.3
532.667	4.47
533.014	4.41
533.36	4.35
533.706	4.39
534.052	4.36
534.399	4.37
534.745	4.31
535.091	4.25
535.437	4.31
535.783	4.38
536.129	4.32
536.474	4.34
536.82	4.4
537.166	4.31
537.512	4.32
537.857	4.33
538.203	4.3
538.549	4.29
538.894	4.33
539.239	4.33
539.585	4.4
539.93	4.51
540.276	4.39
540.621	4.52
540.966	4.47
541.311	4.42
541.656	4.42
542.001	4.4
542.346	4.29
542.691	4.26
543.036	4.31
543.381	4.27
543.726	4.33
544.071	4.37
544.415	4.37
544.76	4.36
545.105	4.35
545.449	4.41
545.794	4.4
546.138	4.33
546.483	4.39
546.827	4.44
547.171	4.38
547.516	4.49
547.86	4.53
548.204	4.36
548.548	4.43
548.892	4.36
549.236	4.45
549.58	4.5
549.924	4.57
550.268	4.62
550.612	4.54
550.956	4.66
551.3	4.7
551.643	4.61
551.987	4.68
552.33	4.69
552.674	4.48
553.017	4.68
553.361	4.78
553.704	4.56
554.048	4.55
554.391	4.62
554.734	4.45
555.077	4.59
555.42	4.59
555.764	4.46
556.107	4.57
556.45	4.67
556.793	4.69
557.135	4.63
557.478	4.7
557.821	4.57
558.164	4.72
558.507	4.47
558.849	4.66
559.192	4.62
559.534	4.71
559.877	4.55
560.219	4.58
560.562	4.49
560.904	4.77
561.246	4.55
561.589	4.76
561.931	4.65
562.273	4.5
562.615	4.46
562.957	4.53
563.299	4.6
563.641	4.73
563.983	4.5
564.325	4.71
564.667	4.54
565.008	4.47
565.35	4.61
565.692	4.6
566.033	4.59
566.375	4.62
566.716	4.57
567.058	4.68
567.399	4.68
567.741	4.75
568.082	4.61
568.423	4.4
568.764	4.54
569.105	4.69
569.447	4.53
569.788	4.5
570.129	4.56
570.47	4.56
570.811	4.57
571.151	4.64
571.492	4.57
571.833	4.51
572.174	4.56
572.514	4.65
572.855	4.58
573.195	4.5
573.536	4.64
573.876	4.48
574.217	4.52
574.557	4.47
574.898	4.52
575.238	4.75
575.578	4.64
575.918	4.58
576.258	4.89
576.598	4.6
576.938	4.54
577.278	4.52
577.618	4.45
577.958	4.64
578.298	4.64
578.638	4.52
578.977	4.65
579.317	4.73
579.657	4.69
579.996	4.72
580.336	4.75
580.675	4.69
581.014	4.8
581.354	4.57
581.693	4.62
582.032	4.7
582.372	4.75
582.711	4.75
583.05	4.46
583.389	4.98
583.728	4.69
584.067	4.63
584.406	4.76
584.745	4.44
585.083	4.66
585.422	4.72
585.761	4.83
586.1	5.02
586.438	4.72
586.777	4.76
587.115	4.97
587.454	4.38
587.792	4.73
588.13	4.71
588.469	4.67
588.807	4.78
589.145	4.97
589.483	4.53
589.821	4.71
590.159	4.74
590.497	4.85
590.835	4.86
591.173	4.69
591.511	4.85
591.849	4.78
592.187	4.57
592.524	4.8
592.862	4.71
593.2	4.68
593.537	4.69
593.875	4.73
594.212	5
594.55	4.83
594.887	4.75
595.224	4.9
595.561	4.64
595.899	4.71
596.236	4.83
596.573	4.76
596.91	4.6
597.247	4.85
597.584	4.78
597.921	4.73
598.258	4.82
598.594	4.5
598.931	4.44
599.268	4.59
599.604	4.63
599.941	4.61
600.277	4.7
600.614	4.93
600.95	4.69
601.287	4.71
601.623	4.52
601.959	4.97
602.296	4.77
602.632	4.55
602.968	4.65
603.304	4.63
603.64	4.89
603.976	4.63
604.312	4.59
604.648	4.92
604.984	4.76
605.319	4.83
605.655	4.55
605.991	4.56
606.326	4.75
606.662	4.61
606.998	4.84
607.333	4.72
607.668	4.55
608.004	4.83
608.339	4.62
608.674	5.03
609.01	5.16
609.345	4.8
609.68	4.62
610.015	4.86
610.35	4.9
610.685	4.56
611.02	4.77
611.355	4.89
611.689	4.78
612.024	4.85
612.359	4.74
612.694	4.86
613.028	4.58
613.363	4.68
613.697	5
614.032	4.89
614.366	4.69
614.7	4.79
615.035	4.86
615.369	4.91
615.703	4.76
616.037	4.78
616.371	4.74
616.705	4.99
617.039	4.81
617.373	5.06
617.707	4.93
618.041	4.47
618.375	4.3
618.709	4.97
619.042	4.77
619.376	4.5
619.71	4.57
620.043	4.79
620.377	4.73
620.71	4.64
621.043	4.94
621.377	5.19
621.71	5.11
622.043	4.79
622.376	4.82
622.709	5.22
623.043	4.82
623.376	4.66
623.709	4.94
624.041	5.06
624.374	4.95
624.707	4.98
625.04	4.68
625.373	4.69
625.705	4.98
626.038	4.93
626.37	4.5
626.703	5.02
627.035	4.83
627.368	4.93
627.7	4.92
628.032	4.79
628.365	4.85
628.697	4.98
629.029	4.78
629.361	5.05
629.693	4.82
630.025	4.99
630.357	4.96
630.689	5.04
631.021	5.08
631.353	5.12
631.684	4.71
632.016	4.82
632.348	4.78
632.679	4.95
633.011	5.04
633.342	5.2
633.674	4.73
634.005	4.85
634.336	5.23
634.668	5.01
634.999	4.8
635.33	4.94
635.661	5.11
635.992	4.77
636.323	4.74
636.654	5.09
636.985	4.82
637.316	4.96
637.647	5.3
637.977	4.75
638.308	5.22
638.639	4.92
638.969	4.93
639.3	5.25
639.63	5.22
639.961	4.99
640.291	4.87
640.622	4.89
640.952	5.18
641.282	4.71
641.612	4.92
641.943	4.94
642.273	4.87
642.603	5.2
642.933	5.16
643.263	5.21
643.592	5.41
643.922	5.41
644.252	5.09
644.582	5.43
644.911	5.05
645.241	4.5
645.571	4.8
645.9	5.24
646.23	5.2
646.559	4.32
646.888	4.9
647.218	5.47
647.547	4.83
647.876	5.23
648.205	5.03
648.534	5.14
648.863	5.58
649.192	5.21
649.521	5.06
649.85	5.13
650.179	5.24
650.508	4.92
650.837	5.29
651.165	5.27
651.494	5.17
651.822	5.44
652.151	5.05
652.479	5.49
652.808	4.89
653.136	4.98
653.465	5.08
653.793	5.07
654.121	4.84
654.449	5.03
654.777	4.66
655.105	4.81
655.433	5.12
655.761	4.93
656.089	5.1
656.417	5.72
656.745	5.58
657.073	5.25
657.4	4.67
657.728	4.95
658.056	4.94
658.383	4.91
658.711	5.33
659.038	5.82
659.365	5.31
659.693	5.08
660.02	5.08
660.347	5.02
660.674	4.67
661.001	5.09
661.329	4.93
661.656	4.88
661.982	4.71
662.309	5.03
662.636	5.29
662.963	4.73
663.29	5.52
663.616	5.29
663.943	5.21
664.27	5.06
664.596	4.99
664.923	5.78
665.249	5.52
665.576	4.82
665.902	4.94
666.228	5.54
666.554	5.49
666.881	4.63
667.207	5.27
667.533	5.54
667.859	5.31
668.185	4.85
668.511	5.4
668.837	4.92
669.162	5.37
669.488	4.72
669.814	5.24
670.139	4.72
670.465	5.44
670.791	5
671.116	5.26
671.442	4.41
671.767	5.18
672.092	5.12
672.418	5.11
672.743	4.65
673.068	4.8
673.393	5.36
673.718	4.75
674.043	4.63
674.368	4.82
674.693	5.11
675.018	5.7
675.343	5.69
675.667	5.2
675.992	5.37
676.317	4.69
676.641	5.2
676.966	5.11
677.29	4.95
677.615	5.13
677.939	5.02
678.264	5.11
678.588	4.58
678.912	5.77
679.236	4.93
679.56	5.39
679.885	4.93
680.209	5.46
680.532	5.94
680.856	5.21
681.18	6.17
681.504	5.24
681.828	4.93
682.152	4.88
682.475	5.48
682.799	4.88
683.122	5.38
683.446	4.74
683.769	5.57
684.093	5.67
684.416	5.28
684.739	4.82
685.062	4.88
685.386	5.48
685.709	5.35
686.032	5.55
686.355	5.26
686.678	6.21
687.001	5.38
687.324	5.37
687.646	5.46
687.969	5.24
688.292	5.39
688.614	5.41
688.937	5.7
689.26	5.82
689.582	5.5
689.904	5.52
690.227	5.66
690.549	5.72
690.871	4.5
691.194	5.31
691.516	5.45
691.838	5.83
692.16	4.38
692.482	4.96
692.804	5.15
