Data from 21-12_chest_Reflection__1__76.txt Node

Date: Thu Dec 15 17:01:51 CST 2022
User: ToomeyLab
Spectrometer: FLMS14357
Trigger mode: 0
Integration Time (sec): 1.000000E-2
Scans to average: 100
Electric dark correction enabled: true
Nonlinearity correction enabled: false
Boxcar width: 0
XAxis mode: Wavelengths
Number of Pixels in Spectrum: 2048
>>>>>Begin Spectral Data<<<<<
189.047	-105.55
189.435	-105.55
189.823	-105.55
190.211	1804.5
190.599	7.83
190.987	116.01
191.375	372.07
191.763	213.16
192.151	224.4
192.538	-301.82
192.926	-188.79
193.314	39.42
193.702	58.45
194.089	-33.64
194.477	311.18
194.864	109.17
195.252	35.12
195.639	55.2
196.027	88.46
196.414	301.91
196.801	-10.94
197.189	451.75
197.576	17.01
197.963	3085.26
198.351	4.46
198.738	10.34
199.125	-46.52
199.512	52.57
199.899	-27.13
200.286	-31.74
200.673	25.34
201.06	1.31
201.447	25.99
201.833	0.37
202.22	16.36
202.607	-0.64
202.994	24.45
203.38	16.7
203.767	1.45
204.154	28.94
204.54	-9.71
204.927	-3.2
205.313	16.42
205.699	17.64
206.086	46.84
206.472	45.27
206.858	-5.95
207.245	17.59
207.631	2.57
208.017	42.27
208.403	-22.68
208.789	21.37
209.175	-26.85
209.561	-59.27
209.947	-25.58
210.333	7.25
210.719	27.82
211.105	40.05
211.491	7.02
211.876	-16.09
212.262	16.95
212.648	16.7
213.034	12.8
213.419	17.17
213.805	-21.63
214.19	1.58
214.576	-29.86
214.961	13.9
215.346	0.62
215.732	12.56
216.117	4.33
216.502	15.35
216.888	16.33
217.273	2.69
217.658	-7.41
218.043	-34.03
218.428	-22.14
218.813	1.68
219.198	-49.35
219.583	12.37
219.968	-3.5
220.353	5
220.738	6.38
221.122	8.79
221.507	-13.95
221.892	-14.71
222.276	-2.16
222.661	5.6
223.046	-4.12
223.43	6.78
223.815	-0.2
224.199	5.72
224.583	2.4
224.968	-1.65
225.352	-7.39
225.736	6.74
226.121	0.7
226.505	1.38
226.889	-0.66
227.273	-1.35
227.657	1.48
228.041	0.52
228.425	-1.8
228.809	-0.14
229.193	1.68
229.577	0.74
229.961	0.81
230.344	1.16
230.728	2.59
231.112	2.82
231.495	1.32
231.879	1.64
232.263	3.2
232.646	1.12
233.03	3.18
233.413	1.68
233.797	0.08
234.18	3.05
234.563	2.53
234.946	0.46
235.33	-0.21
235.713	2.56
236.096	1.95
236.479	3.59
236.862	2.04
237.245	-0.11
237.628	0.76
238.011	1.83
238.394	0.93
238.777	1.92
239.16	2.46
239.543	2.5
239.925	2.59
240.308	-0.87
240.691	1.51
241.073	1.35
241.456	2.66
241.838	0.57
242.221	1.41
242.603	1.78
242.986	1.98
243.368	2.17
243.75	2.09
244.133	2.4
244.515	1.82
244.897	0.47
245.279	0.61
245.661	1.75
246.043	1.87
246.425	1.29
246.807	2.45
247.189	1.26
247.571	1.13
247.953	1.48
248.335	1.71
248.717	1.85
249.098	1.84
249.48	1.6
249.862	1.61
250.243	1.8
250.625	1.98
251.006	2.47
251.388	1.44
251.769	1.96
252.151	1.53
252.532	0.87
252.913	1.71
253.295	1.24
253.676	1.61
254.057	1.71
254.438	1.56
254.819	1.92
255.2	2.21
255.581	2.64
255.962	3.54
256.343	2.25
256.724	1.35
257.105	1.64
257.486	1.53
257.867	1.66
258.247	1.66
258.628	2.02
259.009	0.84
259.389	0.91
259.77	1.04
260.15	2.45
260.531	1.65
260.911	1.52
261.292	1.61
261.672	1.59
262.052	1.8
262.432	1.5
262.813	1.82
263.193	1.19
263.573	1.65
263.953	1.53
264.333	2.1
264.713	1.42
265.093	1.94
265.473	1.53
265.853	1.54
266.233	2.16
266.612	1.15
266.992	1.22
267.372	1.82
267.752	2.38
268.131	1.73
268.511	1.96
268.89	1.77
269.27	1.22
269.649	1.56
270.029	1.45
270.408	1.11
270.787	1.45
271.167	1.63
271.546	2.51
271.925	2.04
272.304	1.41
272.683	1.23
273.062	1.18
273.441	1.19
273.82	1.71
274.199	1.9
274.578	1.4
274.957	1.79
275.336	1.68
275.715	1.62
276.093	1.51
276.472	1.51
276.851	1.49
277.229	1.46
277.608	0.9
277.986	2.1
278.365	2.16
278.743	1.28
279.122	1.54
279.5	1.6
279.878	1.92
280.257	1.84
280.635	2.02
281.013	1.45
281.391	1.48
281.769	1.98
282.147	1.8
282.525	1.2
282.903	1.04
283.281	1.9
283.659	2.16
284.037	1.16
284.415	1.14
284.792	1.23
285.17	1.46
285.548	1.64
285.925	1.25
286.303	2.13
286.68	1.92
287.058	1.58
287.435	1.65
287.813	1.49
288.19	1.25
288.567	1.38
288.945	1.72
289.322	1.95
289.699	1.7
290.076	1.33
290.453	0.91
290.83	1.89
291.207	1
291.584	1.76
291.961	1.79
292.338	1.66
292.715	1.48
293.092	1.86
293.469	1.56
293.845	1.45
294.222	2
294.599	1.09
294.975	1.35
295.352	1.43
295.728	1.8
296.105	1.61
296.481	1.71
296.858	1.79
297.234	1.12
297.61	1.42
297.986	1.98
298.363	1.91
298.739	1.93
299.115	1.88
299.491	1.99
299.867	1.63
300.243	1.12
300.619	1.28
300.995	2.06
301.371	1.95
301.746	2.35
302.122	1.62
302.498	1.29
302.874	1.48
303.249	1.86
303.625	1.37
304	2.2
304.376	1.89
304.751	1.89
305.127	1.42
305.502	1.83
305.878	1.9
306.253	1.59
306.628	1.89
307.003	1.5
307.378	1.2
307.754	1.81
308.129	2.11
308.504	2.35
308.879	1.89
309.254	2.17
309.629	1.64
310.003	1.58
310.378	2.24
310.753	1.86
311.128	1.77
311.502	1.74
311.877	1.87
312.252	2.11
312.626	2.11
313.001	1.96
313.375	2.33
313.75	2.17
314.124	2.01
314.498	2.09
314.873	1.87
315.247	2
315.621	1.73
315.995	1.93
316.369	1.59
316.743	1.73
317.117	1.9
317.491	2.16
317.865	1.23
318.239	1.74
318.613	2.16
318.987	1.42
319.361	1.84
319.734	1.87
320.108	2.32
320.482	1.76
320.855	1.66
321.229	1.76
321.602	2.35
321.976	1.43
322.349	2.46
322.723	2.1
323.096	2.08
323.469	2
323.843	1.71
324.216	2.46
324.589	2.23
324.962	1.66
325.335	1.72
325.708	2.23
326.081	2.39
326.454	2.21
326.827	2.38
327.2	1.92
327.573	2.24
327.945	1.71
328.318	1.88
328.691	2.04
329.063	1.29
329.436	1.35
329.809	2.6
330.181	2.92
330.553	2.53
330.926	2.72
331.298	2.18
331.671	2.46
332.043	1.99
332.415	1.94
332.787	2.38
333.159	1.68
333.532	1.9
333.904	2.16
334.276	2.18
334.648	2.41
335.02	2.03
335.391	2.29
335.763	2.2
336.135	2.26
336.507	1.62
336.879	2.04
337.25	2.52
337.622	2.07
337.993	2.23
338.365	2.12
338.736	2.45
339.108	2.14
339.479	2.09
339.851	2.41
340.222	2.45
340.593	2.13
340.964	2.12
341.336	2.44
341.707	2.24
342.078	2.3
342.449	2.02
342.82	2.27
343.191	2.21
343.562	2.24
343.933	2.29
344.303	2.62
344.674	2.02
345.045	2.31
345.416	2.56
345.786	1.98
346.157	2.56
346.527	2.16
346.898	1.85
347.268	2.43
347.639	1.9
348.009	2.21
348.38	2.11
348.75	2.21
349.12	2.58
349.49	2.3
349.861	2.41
350.231	2.31
350.601	2.08
350.971	2.26
351.341	2.41
351.711	2.26
352.081	2.26
352.45	1.8
352.82	1.39
353.19	2.1
353.56	2.1
353.929	1.91
354.299	2.18
354.669	2.37
355.038	2.43
355.408	2.21
355.777	2.19
356.147	2.38
356.516	1.99
356.885	2.2
357.254	2.1
357.624	1.84
357.993	2.36
358.362	2.24
358.731	2.69
359.1	2.18
359.469	2.34
359.838	2.05
360.207	2.17
360.576	2.75
360.945	2.5
361.314	2.18
361.682	2.28
362.051	2.29
362.42	2.32
362.788	2.49
363.157	2.14
363.525	2.44
363.894	2.18
364.262	2.31
364.631	2.71
364.999	2.44
365.367	2.14
365.735	2.05
366.104	2.35
366.472	2.13
366.84	2.27
367.208	2.82
367.576	2.05
367.944	2.44
368.312	2.13
368.68	2.62
369.048	2.25
369.416	2.14
369.783	2.25
370.151	2.75
370.519	2.64
370.886	2.65
371.254	2.49
371.621	2.54
371.989	2.55
372.356	1.9
372.724	2.46
373.091	2.48
373.458	2.19
373.826	2.57
374.193	2.28
374.56	2.46
374.927	2.54
375.294	2.63
375.661	2.54
376.028	2.11
376.395	2.58
376.762	2.33
377.129	2.26
377.496	2.32
377.863	2.36
378.229	2.45
378.596	2.52
378.963	2.52
379.329	2.67
379.696	2.38
380.062	2.36
380.429	2.37
380.795	2.57
381.161	1.97
381.528	2.29
381.894	2.46
382.26	2.39
382.626	2.42
382.993	2.67
383.359	2.66
383.725	2.14
384.091	2.64
384.457	2.46
384.823	2.73
385.188	2.48
385.554	2.36
385.92	2.47
386.286	2.37
386.651	2.22
387.017	2.69
387.383	2.37
387.748	2.45
388.114	2.43
388.479	2.37
388.845	2.27
389.21	2.64
389.575	2.6
389.94	2.65
390.306	2.24
390.671	2.43
391.036	2.33
391.401	2.53
391.766	2.38
392.131	2.56
392.496	2.34
392.861	2.51
393.226	2.33
393.591	2.5
393.956	2.59
394.32	2.57
394.685	2.42
395.05	2.6
395.414	2.59
395.779	2.68
396.143	2.45
396.508	2.62
396.872	2.38
397.236	2.72
397.601	2.51
397.965	2.54
398.329	2.52
398.694	2.52
399.058	2.29
399.422	2.59
399.786	2.43
400.15	2.46
400.514	2.57
400.878	2.64
401.242	2.66
401.605	2.62
401.969	2.27
402.333	2.45
402.697	2.77
403.06	2.61
403.424	2.61
403.787	2.44
404.151	2.53
404.514	2.67
404.878	2.4
405.241	2.41
405.604	2.42
405.968	2.51
406.331	2.51
406.694	2.68
407.057	2.47
407.42	2.41
407.783	2.7
408.146	2.66
408.509	2.71
408.872	2.61
409.235	2.61
409.598	2.61
409.961	2.78
410.323	2.36
410.686	2.49
411.049	2.72
411.411	2.38
411.774	2.58
412.136	2.57
412.499	2.67
412.861	2.46
413.223	2.66
413.586	2.55
413.948	2.73
414.31	2.69
414.672	2.54
415.035	2.63
415.397	2.54
415.759	2.29
416.121	2.78
416.483	2.61
416.845	2.59
417.206	2.42
417.568	2.55
417.93	2.68
418.292	2.48
418.653	2.58
419.015	2.69
419.377	2.47
419.738	2.69
420.1	2.54
420.461	2.46
420.822	2.64
421.184	2.47
421.545	2.59
421.906	2.62
422.267	2.5
422.629	2.46
422.99	2.46
423.351	2.53
423.712	2.62
424.073	2.59
424.434	2.63
424.795	2.53
425.155	2.56
425.516	2.54
425.877	2.59
426.238	2.53
426.598	2.65
426.959	2.6
427.32	2.58
427.68	2.55
428.041	2.72
428.401	2.49
428.761	2.64
429.122	2.56
429.482	2.68
429.842	2.49
430.202	2.67
430.563	2.65
430.923	2.62
431.283	2.81
431.643	2.86
432.003	2.7
432.363	2.88
432.722	2.71
433.082	2.68
433.442	2.65
433.802	2.56
434.161	2.65
434.521	2.62
434.881	2.87
435.24	2.67
435.6	2.71
435.959	2.76
436.319	2.75
436.678	2.76
437.037	2.76
437.396	2.78
437.756	2.67
438.115	2.74
438.474	2.78
438.833	2.75
439.192	2.74
439.551	2.6
439.91	2.94
440.269	2.7
440.628	2.75
440.987	2.76
441.345	2.84
441.704	2.73
442.063	2.63
442.421	2.75
442.78	2.86
443.138	2.7
443.497	2.69
443.855	2.81
444.214	2.63
444.572	2.84
444.93	2.75
445.288	2.82
445.647	2.69
446.005	2.81
446.363	2.73
446.721	2.83
447.079	2.78
447.437	2.84
447.795	2.81
448.153	2.81
448.51	2.79
448.868	2.71
449.226	2.81
449.584	2.76
449.941	2.82
450.299	2.79
450.656	2.86
451.014	2.86
451.371	2.86
451.729	2.79
452.086	2.85
452.443	2.87
452.801	2.8
453.158	2.88
453.515	2.67
453.872	2.81
454.229	2.71
454.586	2.66
454.943	2.83
455.3	2.96
455.657	2.79
456.014	2.78
456.371	2.95
456.727	2.95
457.084	2.99
457.441	2.88
457.797	2.95
458.154	2.93
458.51	2.86
458.867	2.72
459.223	2.88
459.58	3.02
459.936	2.9
460.292	2.82
460.648	2.72
461.005	2.87
461.361	2.9
461.717	2.84
462.073	2.92
462.429	3
462.785	3.07
463.141	2.85
463.496	2.98
463.852	3.07
464.208	2.89
464.564	2.99
464.919	2.95
465.275	2.92
465.631	3.09
465.986	3
466.342	2.88
466.697	2.86
467.052	3.13
467.408	3.02
467.763	2.95
468.118	2.73
468.473	3.04
468.829	2.91
469.184	3
469.539	2.79
469.894	3.04
470.249	2.98
470.603	3.18
470.958	3.05
471.313	3
471.668	3.06
472.023	2.98
472.377	2.91
472.732	3.11
473.086	3.05
473.441	2.94
473.795	3.18
474.15	2.93
474.504	3.09
474.859	2.84
475.213	3.15
475.567	3.03
475.921	3.01
476.275	3.2
476.63	2.94
476.984	2.88
477.338	3.11
477.692	3.06
478.045	3.1
478.399	3.08
478.753	2.91
479.107	3.06
479.461	3.02
479.814	2.98
480.168	3.01
480.521	3.15
480.875	3.03
481.228	3.04
481.582	3.02
481.935	3.17
482.289	3.08
482.642	3.18
482.995	3.11
483.348	2.92
483.701	3.05
484.055	3.04
484.408	2.97
484.761	2.96
485.114	2.84
485.466	2.83
485.819	2.84
486.172	2.92
486.525	2.94
486.878	2.98
487.23	3
487.583	3.04
487.936	3
488.288	2.98
488.641	2.93
488.993	2.94
489.345	2.95
489.698	2.96
490.05	2.96
490.402	2.99
490.754	3
491.107	2.97
491.459	3.13
491.811	3.14
492.163	3.1
492.515	3.04
492.866	2.94
493.218	3.01
493.57	3.04
493.922	3.06
494.274	3.07
494.625	3.22
494.977	3.13
495.328	3.2
495.68	3.11
496.031	3.17
496.383	3.16
496.734	3.14
497.086	3.25
497.437	3.29
497.788	3.16
498.139	3.15
498.49	3.23
498.842	3.21
499.193	3.14
499.544	3.21
499.894	3.12
500.245	3.29
500.596	3.34
500.947	3.25
501.298	3.23
501.648	3.26
501.999	3.34
502.35	3.22
502.7	3.45
503.051	3.19
503.401	3.33
503.752	3.2
504.102	3.22
504.452	3.1
504.803	3.27
505.153	3.31
505.503	3.28
505.853	3.35
506.203	3.36
506.553	3.39
506.903	3.4
507.253	3.25
507.603	3.34
507.953	3.32
508.303	3.41
508.652	3.2
509.002	3.37
509.352	3.38
509.701	3.34
510.051	3.4
510.4	3.44
510.75	3.33
511.099	3.28
511.449	3.36
511.798	3.31
512.147	3.36
512.496	3.35
512.846	3.4
513.195	3.41
513.544	3.53
513.893	3.38
514.242	3.36
514.591	3.37
514.939	3.37
515.288	3.47
515.637	3.39
515.986	3.48
516.334	3.52
516.683	3.52
517.032	3.42
517.38	3.43
517.729	3.5
518.077	3.49
518.426	3.49
518.774	3.44
519.122	3.51
519.47	3.51
519.819	3.45
520.167	3.39
520.515	3.41
520.863	3.44
521.211	3.39
521.559	3.42
521.907	3.48
522.255	3.44
522.602	3.59
522.95	3.51
523.298	3.51
523.645	3.5
523.993	3.5
524.341	3.56
524.688	3.51
525.036	3.45
525.383	3.48
525.73	3.45
526.078	3.56
526.425	3.53
526.772	3.38
527.119	3.48
527.466	3.57
527.814	3.55
528.161	3.56
528.508	3.6
528.854	3.51
529.201	3.46
529.548	3.49
529.895	3.38
530.242	3.39
530.588	3.42
530.935	3.47
531.282	3.46
531.628	3.51
531.975	3.51
532.321	3.62
532.667	3.66
533.014	3.67
533.36	3.63
533.706	3.68
534.052	3.65
534.399	3.58
534.745	3.53
535.091	3.49
535.437	3.55
535.783	3.63
536.129	3.65
536.474	3.75
536.82	3.77
537.166	3.66
537.512	3.6
537.857	3.66
538.203	3.69
538.549	3.68
538.894	3.65
539.239	3.7
539.585	3.8
539.93	3.88
540.276	3.76
540.621	3.86
540.966	3.7
541.311	3.92
541.656	3.69
542.001	3.81
542.346	3.74
542.691	3.63
543.036	3.68
543.381	3.71
543.726	3.79
544.071	3.76
544.415	3.8
544.76	3.78
545.105	3.8
545.449	3.85
545.794	3.86
546.138	3.91
546.483	3.93
546.827	3.94
547.171	3.95
547.516	3.99
547.86	3.99
548.204	3.96
548.548	3.9
548.892	3.97
549.236	3.98
549.58	3.98
549.924	4.04
550.268	4.17
550.612	4.05
550.956	3.98
551.3	4.19
551.643	4.14
551.987	4.1
552.33	4.36
552.674	4.14
553.017	4.11
553.361	4.38
553.704	4.23
554.048	4.12
554.391	4.2
554.734	4.1
555.077	4.12
555.42	4.18
555.764	4.13
556.107	4.42
556.45	4.27
556.793	4.33
557.135	4.24
557.478	4.29
557.821	4.2
558.164	4.44
558.507	4.22
558.849	4.51
559.192	4.4
559.534	4.29
559.877	4.38
560.219	4.37
560.562	4.33
560.904	4.58
561.246	4.17
561.589	4.58
561.931	4.46
562.273	4.31
562.615	4.4
562.957	4.28
563.299	4.35
563.641	4.46
563.983	4.47
564.325	4.49
564.667	4.39
565.008	4.41
565.35	4.35
565.692	4.59
566.033	4.47
566.375	4.64
566.716	4.33
567.058	4.42
567.399	4.47
567.741	4.62
568.082	4.54
568.423	4.42
568.764	4.48
569.105	4.6
569.447	4.49
569.788	4.6
570.129	4.67
570.47	4.44
570.811	4.52
571.151	4.63
571.492	4.75
571.833	4.63
572.174	4.59
572.514	4.73
572.855	4.87
573.195	4.61
573.536	4.8
573.876	4.69
574.217	4.65
574.557	4.79
574.898	4.8
575.238	4.84
575.578	4.85
575.918	4.72
576.258	5.07
576.598	4.76
576.938	4.8
577.278	4.81
577.618	4.94
577.958	5.05
578.298	4.86
578.638	4.89
578.977	4.97
579.317	5.06
579.657	4.99
579.996	5.16
580.336	5.12
580.675	5.06
581.014	5.1
581.354	4.74
581.693	5.3
582.032	5.16
582.372	5.24
582.711	5.19
583.05	5.16
583.389	5.37
583.728	5.4
584.067	4.95
584.406	5.25
584.745	5.01
585.083	5.23
585.422	5.24
585.761	5.4
586.1	5.33
586.438	5.23
586.777	5.4
587.115	5.48
587.454	5.15
587.792	5.32
588.13	5.33
588.469	5.39
588.807	5.62
589.145	5.14
589.483	5.21
589.821	5.32
590.159	5.36
590.497	5.57
590.835	5.54
591.173	5.59
591.511	5.54
591.849	5.6
592.187	5.46
592.524	5.62
592.862	5.41
593.2	5.59
593.537	5.54
593.875	5.74
594.212	5.59
594.55	5.47
594.887	5.98
595.224	5.73
595.561	5.47
595.899	5.65
596.236	5.8
596.573	5.47
596.91	5.64
597.247	5.78
597.584	5.91
597.921	5.64
598.258	5.88
598.594	5.72
598.931	5.56
599.268	5.59
599.604	5.86
599.941	5.79
600.277	5.59
600.614	5.77
600.95	5.87
601.287	5.79
601.623	5.61
601.959	6.22
602.296	5.93
602.632	6.01
602.968	6.1
603.304	6.03
603.64	5.78
603.976	5.92
604.312	5.74
604.648	6.14
604.984	6
605.319	5.82
605.655	6.09
605.991	5.93
606.326	6.11
606.662	5.84
606.998	6.21
607.333	6.1
607.668	6.19
608.004	6.17
608.339	6.15
608.674	6.49
609.01	6.5
609.345	6.37
609.68	6.27
610.015	6.36
610.35	6.28
610.685	6.15
611.02	6.24
611.355	6.41
611.689	6.18
612.024	6.37
612.359	6.3
612.694	6.49
613.028	6.37
613.363	6.3
613.697	6.72
614.032	6.55
614.366	6.45
614.7	6.47
615.035	6.43
615.369	6.91
615.703	6.88
616.037	6.56
616.371	6.62
616.705	6.47
617.039	6.7
617.373	6.97
617.707	6.5
618.041	6.61
618.375	6.29
618.709	6.79
619.042	6.44
619.376	6.69
619.71	6.76
620.043	7.03
620.377	6.86
620.71	7.05
621.043	7.27
621.377	6.99
621.71	7.05
622.043	7.14
622.376	7.1
622.709	7.1
623.043	6.97
623.376	7.14
623.709	7.07
624.041	7.08
624.374	6.87
624.707	7.07
625.04	7.02
625.373	7.32
625.705	7.15
626.038	7.17
626.37	7.22
626.703	7.02
627.035	7.14
627.368	7.63
627.7	7.32
628.032	7.17
628.365	7.27
628.697	7.48
629.029	7.04
629.361	7.42
629.693	7.51
630.025	7.33
630.357	7.52
630.689	7.54
631.021	7.45
631.353	7.53
631.684	7.71
632.016	7.04
632.348	7.65
632.679	7.81
633.011	7.71
633.342	7.64
633.674	7.58
634.005	7.52
634.336	7.76
634.668	7.93
634.999	7.58
635.33	7.92
635.661	7.86
635.992	7.74
636.323	7.42
636.654	7.56
636.985	7.75
637.316	7.44
637.647	8.25
637.977	7.67
638.308	8.13
638.639	7.9
638.969	7.99
639.3	8.09
639.63	7.98
639.961	8.05
640.291	8.07
640.622	8.22
640.952	8.52
641.282	7.69
641.612	8.04
641.943	7.87
642.273	8.21
642.603	8.48
642.933	8.5
643.263	8.5
643.592	8.57
643.922	8.4
644.252	8.32
644.582	8.56
644.911	8.36
645.241	8.14
645.571	8.06
645.9	8.71
646.23	8.77
646.559	8.08
646.888	8.85
647.218	8.26
647.547	8.46
647.876	8.83
648.205	8.51
648.534	8.45
648.863	8.26
649.192	8.35
649.521	8.7
649.85	8.69
650.179	8.81
650.508	8.52
650.837	9.16
651.165	8.7
651.494	8.78
651.822	8.84
652.151	8.44
652.479	8.86
652.808	8.96
653.136	8.33
653.465	8.42
653.793	8.83
654.121	8.98
654.449	8.95
654.777	8.89
655.105	8.7
655.433	9.08
655.761	8.77
656.089	8.95
656.417	8.79
656.745	9.33
657.073	9.15
657.4	9.07
657.728	8.67
658.056	9.3
658.383	9.16
658.711	9.33
659.038	9.67
659.365	9.1
659.693	9.24
660.02	9.02
660.347	9.24
660.674	9.09
661.001	9.28
661.329	9.17
661.656	9.15
661.982	9.02
662.309	9.18
662.636	9.55
662.963	9.5
663.29	9.85
663.616	9.47
663.943	9.44
664.27	9.26
664.596	9.33
664.923	9.89
665.249	9.6
665.576	9.52
665.902	9.22
666.228	9.89
666.554	10.32
666.881	8.95
667.207	9.77
667.533	9.42
667.859	9.83
668.185	10.58
668.511	10.02
668.837	10.15
669.162	10.11
669.488	9.79
669.814	9.44
670.139	9.1
670.465	10.28
670.791	9.72
671.116	9.75
671.442	9.75
671.767	10.25
672.092	9.72
672.418	10.31
672.743	10.03
673.068	10.44
673.393	10.32
673.718	10.06
674.043	9.66
674.368	10.2
674.693	10.05
675.018	10.54
675.343	10.73
675.667	10.58
675.992	10.23
676.317	10.19
676.641	10.68
676.966	10.14
677.29	10.37
677.615	10.49
677.939	10.54
678.264	10.76
678.588	11.11
678.912	10.49
679.236	10.5
679.56	10.66
679.885	10.37
680.209	10.7
680.532	11.08
680.856	11.14
681.18	11.04
681.504	10.76
681.828	10.44
682.152	10.46
682.475	11.28
682.799	10.86
683.122	10.75
683.446	10.1
683.769	10.81
684.093	10.78
684.416	10.75
684.739	11.12
685.062	10.41
685.386	10.91
685.709	10.76
686.032	10.62
686.355	10.92
686.678	11.8
687.001	10.99
687.324	10.91
687.646	11.3
687.969	11.49
688.292	12.01
688.614	11.35
688.937	11.78
689.26	11.47
689.582	11.83
689.904	11.15
690.227	11.4
690.549	11.61
690.871	10.97
691.194	11.27
