Data from 21-12_crown_Reflection__4__84.txt Node

Date: Thu Dec 15 17:05:22 CST 2022
User: ToomeyLab
Spectrometer: FLMS14357
Trigger mode: 0
Integration Time (sec): 1.000000E-2
Scans to average: 100
Electric dark correction enabled: true
Nonlinearity correction enabled: false
Boxcar width: 0
XAxis mode: Wavelengths
Number of Pixels in Spectrum: 2048
>>>>>Begin Spectral Data<<<<<
189.047	-147.45
189.435	-147.45
189.823	-147.45
190.211	836.04
190.599	116.88
190.987	156.19
191.375	-16.47
191.763	213.82
192.151	-12.51
192.538	-234.28
192.926	-179.39
193.314	54.83
193.702	-42.72
194.089	-96.25
194.477	56.11
194.864	149.56
195.252	30.24
195.639	129.37
196.027	71.56
196.414	333.87
196.801	-27.67
197.189	111.99
197.576	104.67
197.963	5136.84
198.351	64.58
198.738	-7.19
199.125	-58.26
199.512	13.8
199.899	31.82
200.286	14.4
200.673	49.89
201.06	33.2
201.447	20.19
201.833	13.25
202.22	5.6
202.607	-87.67
202.994	8.77
203.38	48.16
203.767	-15.5
204.154	50.73
204.54	12.88
204.927	50.71
205.313	48.38
205.699	23.6
206.086	5.18
206.472	24.46
206.858	31.26
207.245	8.58
207.631	11.54
208.017	39.38
208.403	-44.66
208.789	23.81
209.175	9.65
209.561	-39.61
209.947	39.42
210.333	40.16
210.719	24.39
211.105	6.09
211.491	5.12
211.876	3.48
212.262	13.73
212.648	28.46
213.034	16.71
213.419	-7.92
213.805	-23.41
214.19	-11.34
214.576	7.06
214.961	26.99
215.346	8.77
215.732	3.32
216.117	28.32
216.502	13.71
216.888	24.33
217.273	-7.41
217.658	-5.35
218.043	7.62
218.428	-7.76
218.813	18
219.198	-3.9
219.583	0.23
219.968	4.27
220.353	-15.11
220.738	-1.16
221.122	-17.35
221.507	-11.88
221.892	-29.96
222.276	-14.91
222.661	-2.17
223.046	-2.35
223.43	10.95
223.815	2.62
224.199	-0.95
224.583	-3.51
224.968	-3.95
225.352	-4.09
225.736	2.26
226.121	1.15
226.505	4.93
226.889	1.49
227.273	1.13
227.657	-0.51
228.041	2.96
228.425	3.32
228.809	2.69
229.193	1.68
229.577	2.88
229.961	2.46
230.344	2.99
230.728	4.02
231.112	4.05
231.495	2.72
231.879	1.67
232.263	2.95
232.646	2.37
233.03	3.44
233.413	1.77
233.797	-1.29
234.18	3.02
234.563	1.9
234.946	-0.18
235.33	3.76
235.713	3.4
236.096	4.95
236.479	2.23
236.862	1.5
237.245	1.48
237.628	2.86
238.011	3.07
238.394	2.47
238.777	2.86
239.16	4.11
239.543	4.12
239.925	3.37
240.308	1.37
240.691	1.04
241.073	3.66
241.456	3.2
241.838	2.85
242.221	2.55
242.603	3.15
242.986	2.7
243.368	2.7
243.75	3.04
244.133	3.08
244.515	2.55
244.897	2.7
245.279	2.54
245.661	2.03
246.043	2.95
246.425	3.28
246.807	2.36
247.189	2.16
247.571	2.91
247.953	2.68
248.335	2.65
248.717	2.84
249.098	2.85
249.48	2.78
249.862	2.82
250.243	2.86
250.625	2.54
251.006	3.41
251.388	2.25
251.769	2.66
252.151	3.67
252.532	3.01
252.913	3.12
253.295	3.33
253.676	2.92
254.057	2.62
254.438	3.18
254.819	3.1
255.2	3.02
255.581	2.46
255.962	3.95
256.343	3.79
256.724	3.52
257.105	2.38
257.486	2.31
257.867	1.77
258.247	2.41
258.628	3.24
259.009	2
259.389	2.59
259.77	2.91
260.15	3.68
260.531	2.93
260.911	2.84
261.292	2.76
261.672	2.58
262.052	2.74
262.432	2.53
262.813	2.72
263.193	3.01
263.573	3.05
263.953	2.66
264.333	3.1
264.713	3.42
265.093	2.6
265.473	2.54
265.853	3.76
266.233	2.64
266.612	2.62
266.992	3.06
267.372	3.58
267.752	3.19
268.131	2.99
268.511	2.74
268.89	3.15
269.27	2.24
269.649	2.12
270.029	2.78
270.408	2.47
270.787	2.97
271.167	2.66
271.546	3.06
271.925	2.98
272.304	2.42
272.683	2.48
273.062	2.39
273.441	2.51
273.82	2.83
274.199	2.26
274.578	2.99
274.957	2.43
275.336	3.28
275.715	2.79
276.093	2.3
276.472	2.11
276.851	2.69
277.229	2.35
277.608	2.33
277.986	2.91
278.365	2.85
278.743	3.13
279.122	2.64
279.5	2.68
279.878	2.38
280.257	2.9
280.635	3.01
281.013	2.34
281.391	2.93
281.769	3.2
282.147	3.02
282.525	2.61
282.903	2.14
283.281	2.74
283.659	3.16
284.037	2.62
284.415	2.78
284.792	2.7
285.17	2.63
285.548	2.77
285.925	2.39
286.303	2.7
286.68	2.5
287.058	2.62
287.435	2.57
287.813	2.71
288.19	2.28
288.567	2.95
288.945	2.23
289.322	3.24
289.699	2.96
290.076	2.69
290.453	2.25
290.83	2.96
291.207	2.82
291.584	2.72
291.961	3.11
292.338	2.66
292.715	2.71
293.092	3.47
293.469	2.68
293.845	2.58
294.222	2.9
294.599	2.65
294.975	2.46
295.352	3.57
295.728	3.09
296.105	2.95
296.481	3.2
296.858	2.98
297.234	2.17
297.61	2.73
297.986	3.36
298.363	2.99
298.739	2.89
299.115	2.79
299.491	3.17
299.867	2.51
300.243	3.02
300.619	3.3
300.995	3.23
301.371	3.27
301.746	2.89
302.122	3.06
302.498	3.02
302.874	3.36
303.249	3.06
303.625	2.81
304	3
304.376	3.64
304.751	3.06
305.127	3.11
305.502	3.17
305.878	3.02
306.253	2.98
306.628	3.43
307.003	2.92
307.378	2.72
307.754	3.46
308.129	2.76
308.504	3.1
308.879	3.5
309.254	3.73
309.629	3.71
310.003	3.39
310.378	3.73
310.753	3.67
311.128	3.07
311.502	3.3
311.877	3.2
312.252	3.31
312.626	4.04
313.001	3.3
313.375	3.35
313.75	3.52
314.124	3.53
314.498	3.53
314.873	3.07
315.247	3.8
315.621	2.93
315.995	3.05
316.369	3.23
316.743	3.4
317.117	3.41
317.491	3.47
317.865	2.91
318.239	4.07
318.613	3.68
318.987	3.34
319.361	3.74
319.734	2.98
320.108	3.7
320.482	3.46
320.855	2.98
321.229	3.28
321.602	3.51
321.976	3.38
322.349	4.15
322.723	3.41
323.096	3.63
323.469	3.23
323.843	3.41
324.216	3.75
324.589	4.06
324.962	3.41
325.335	3.59
325.708	3.27
326.081	3.38
326.454	3.82
326.827	3.83
327.2	3.74
327.573	4.21
327.945	3.22
328.318	3.39
328.691	3.57
329.063	3.26
329.436	3.15
329.809	3.82
330.181	3.94
330.553	4.11
330.926	4.32
331.298	3.48
331.671	3.42
332.043	3.82
332.415	3.83
332.787	4.01
333.159	3.34
333.532	3.71
333.904	4.01
334.276	4.17
334.648	3.41
335.02	3.47
335.391	3.28
335.763	3.38
336.135	3.95
336.507	3.55
336.879	3.84
337.25	4.04
337.622	3.67
337.993	3.55
338.365	3.4
338.736	3.79
339.108	3.75
339.479	3.73
339.851	3.58
340.222	4.28
340.593	3.47
340.964	3.77
341.336	3.7
341.707	3.96
342.078	3.39
342.449	3.71
342.82	3.81
343.191	3.78
343.562	3.65
343.933	3.52
344.303	3.7
344.674	3.7
345.045	4.07
345.416	4.04
345.786	3.56
346.157	3.36
346.527	3.56
346.898	3.59
347.268	3.97
347.639	3.47
348.009	3.59
348.38	3.33
348.75	3.79
349.12	4.06
349.49	3.57
349.861	4.32
350.231	3.36
350.601	3.83
350.971	3.8
351.341	3.79
351.711	3.75
352.081	3.64
352.45	3.36
352.82	3.22
353.19	3.62
353.56	3.72
353.929	3.6
354.299	4.07
354.669	3.41
355.038	4.02
355.408	3.56
355.777	4.17
356.147	3.65
356.516	3.75
356.885	3.57
357.254	3.73
357.624	3.57
357.993	3.84
358.362	3.82
358.731	3.9
359.1	3.58
359.469	3.88
359.838	3.77
360.207	3.86
360.576	3.78
360.945	3.8
361.314	3.88
361.682	3.44
362.051	3.5
362.42	3.86
362.788	3.79
363.157	3.59
363.525	3.69
363.894	3.35
364.262	3.51
364.631	3.89
364.999	3.79
365.367	3.74
365.735	3.52
366.104	3.88
366.472	3.95
366.84	3.85
367.208	4.14
367.576	3.5
367.944	3.86
368.312	3.82
368.68	3.85
369.048	3.78
369.416	3.72
369.783	3.61
370.151	4.11
370.519	3.8
370.886	3.89
371.254	3.84
371.621	3.83
371.989	3.98
372.356	3.68
372.724	3.58
373.091	3.82
373.458	3.7
373.826	4.2
374.193	3.67
374.56	4.16
374.927	3.75
375.294	3.73
375.661	3.76
376.028	3.68
376.395	3.96
376.762	3.28
377.129	3.91
377.496	3.69
377.863	3.91
378.229	3.94
378.596	3.96
378.963	3.88
379.329	3.92
379.696	3.69
380.062	3.79
380.429	3.74
380.795	3.91
381.161	3.57
381.528	3.49
381.894	3.89
382.26	3.94
382.626	4.09
382.993	3.95
383.359	3.9
383.725	3.66
384.091	4
384.457	3.63
384.823	4.07
385.188	3.57
385.554	3.95
385.92	3.85
386.286	3.97
386.651	3.61
387.017	3.95
387.383	3.87
387.748	3.99
388.114	3.89
388.479	4.08
388.845	3.78
389.21	4.02
389.575	4.28
389.94	4
390.306	4.08
390.671	3.79
391.036	3.75
391.401	3.84
391.766	3.8
392.131	4.12
392.496	3.84
392.861	3.82
393.226	3.61
393.591	3.72
393.956	3.92
394.32	3.73
394.685	3.78
395.05	3.98
395.414	3.91
395.779	4.11
396.143	3.66
396.508	3.79
396.872	3.56
397.236	4.07
397.601	4.06
397.965	3.89
398.329	3.96
398.694	3.7
399.058	3.9
399.422	3.87
399.786	3.56
400.15	3.8
400.514	3.92
400.878	3.79
401.242	3.93
401.605	3.75
401.969	3.74
402.333	3.73
402.697	4.1
403.06	3.66
403.424	3.95
403.787	3.76
404.151	3.75
404.514	3.87
404.878	3.58
405.241	3.72
405.604	3.71
405.968	3.69
406.331	3.95
406.694	3.78
407.057	3.56
407.42	3.88
407.783	3.88
408.146	3.78
408.509	3.91
408.872	3.82
409.235	3.89
409.598	3.78
409.961	3.83
410.323	3.67
410.686	3.91
411.049	4
411.411	3.72
411.774	3.79
412.136	3.77
412.499	4.04
412.861	3.39
413.223	3.73
413.586	3.65
413.948	3.78
414.31	3.59
414.672	3.67
415.035	3.98
415.397	3.56
415.759	3.51
416.121	3.95
416.483	3.67
416.845	3.59
417.206	3.97
417.568	3.61
417.93	3.64
418.292	3.41
418.653	3.63
419.015	3.69
419.377	3.53
419.738	3.73
420.1	3.67
420.461	3.59
420.822	3.69
421.184	3.59
421.545	3.68
421.906	3.65
422.267	3.57
422.629	3.64
422.99	3.58
423.351	3.61
423.712	3.67
424.073	3.69
424.434	3.89
424.795	3.65
425.155	3.65
425.516	3.64
425.877	3.68
426.238	3.6
426.598	3.65
426.959	3.68
427.32	3.65
427.68	3.74
428.041	3.75
428.401	3.72
428.761	3.83
429.122	3.91
429.482	3.69
429.842	3.81
430.202	3.99
430.563	3.72
430.923	3.86
431.283	3.91
431.643	3.95
432.003	3.87
432.363	4.04
432.722	3.74
433.082	3.83
433.442	4
433.802	3.77
434.161	3.75
434.521	3.99
434.881	3.87
435.24	3.8
435.6	3.87
435.959	3.89
436.319	3.86
436.678	4.02
437.037	3.72
437.396	3.77
437.756	3.85
438.115	3.86
438.474	3.92
438.833	3.98
439.192	3.95
439.551	3.75
439.91	3.88
440.269	3.87
440.628	3.77
440.987	3.81
441.345	3.94
441.704	3.76
442.063	3.8
442.421	3.7
442.78	3.86
443.138	3.88
443.497	3.85
443.855	3.92
444.214	3.76
444.572	4.08
444.93	3.81
445.288	3.97
445.647	3.74
446.005	3.76
446.363	3.87
446.721	3.84
447.079	3.78
447.437	3.88
447.795	3.79
448.153	3.82
448.51	3.87
448.868	3.71
449.226	3.91
449.584	3.9
449.941	3.86
450.299	3.81
450.656	4.1
451.014	3.99
451.371	4.09
451.729	4.12
452.086	3.97
452.443	4.01
452.801	3.94
453.158	4.13
453.515	3.86
453.872	3.88
454.229	3.94
454.586	3.92
454.943	3.98
455.3	3.95
455.657	4.01
456.014	3.84
456.371	3.95
456.727	4.04
457.084	4.02
457.441	4.04
457.797	4.07
458.154	4.11
458.51	4.04
458.867	4.03
459.223	3.88
459.58	4.03
459.936	3.94
460.292	3.89
460.648	3.96
461.005	3.82
461.361	3.94
461.717	3.9
462.073	3.98
462.429	4.03
462.785	4.09
463.141	4.01
463.496	4.05
463.852	4.19
464.208	4.18
464.564	4.11
464.919	4.07
465.275	4.05
465.631	4.19
465.986	4.33
466.342	4.01
466.697	4.08
467.052	4.17
467.408	4.28
467.763	4.07
468.118	3.95
468.473	4.22
468.829	4.06
469.184	4.08
469.539	3.84
469.894	4.07
470.249	3.98
470.603	4.22
470.958	4.18
471.313	4.12
471.668	4.2
472.023	4.08
472.377	4.05
472.732	4.32
473.086	4.07
473.441	4.12
473.795	4.18
474.15	4.09
474.504	4.17
474.859	3.98
475.213	4.25
475.567	4.08
475.921	4.24
476.275	4.17
476.63	4.08
476.984	3.91
477.338	4.27
477.692	4.05
478.045	4.07
478.399	4.13
478.753	4.06
479.107	4.11
479.461	4.07
479.814	4.2
480.168	4.09
480.521	4.2
480.875	4.2
481.228	4.15
481.582	4.15
481.935	4.12
482.289	4.13
482.642	4.1
482.995	4.06
483.348	4
483.701	4.08
484.055	4.02
484.408	3.92
484.761	3.87
485.114	3.76
485.466	3.73
485.819	3.76
486.172	3.82
486.525	3.84
486.878	3.89
487.23	3.94
487.583	3.96
487.936	3.98
488.288	3.97
488.641	3.83
488.993	3.84
489.345	3.77
489.698	3.81
490.05	3.87
490.402	3.93
490.754	4
491.107	3.94
491.459	4.05
491.811	4.05
492.163	4.07
492.515	3.86
492.866	3.86
493.218	3.85
493.57	3.95
493.922	3.95
494.274	4.02
494.625	4.15
494.977	4.07
495.328	4.15
495.68	4.07
496.031	4.01
496.383	4.09
496.734	4.08
497.086	4.27
497.437	4.19
497.788	4.27
498.139	4.06
498.49	4.16
498.842	4.16
499.193	4.01
499.544	4.12
499.894	4.01
500.245	4.2
500.596	4.22
500.947	4.22
501.298	4.1
501.648	4.19
501.999	4.21
502.35	4.13
502.7	4.29
503.051	4.15
503.401	4.26
503.752	4.03
504.102	4.15
504.452	4.08
504.803	4.06
505.153	4.25
505.503	4.19
505.853	4.2
506.203	4.15
506.553	4.26
506.903	4.27
507.253	4.07
507.603	4.25
507.953	4.15
508.303	4.29
508.652	4.06
509.002	4.21
509.352	4.17
509.701	4.13
510.051	4.23
510.4	4.24
510.75	4.16
511.099	4.08
511.449	4.21
511.798	4.11
512.147	4.05
512.496	4.15
512.846	4.07
513.195	4.07
513.544	4.19
513.893	4.14
514.242	4.08
514.591	4.14
514.939	4.11
515.288	4.13
515.637	4.15
515.986	4.22
516.334	4.14
516.683	4.16
517.032	4.16
517.38	4.11
517.729	4.07
518.077	4.14
518.426	4.15
518.774	4.09
519.122	4.14
519.47	4.08
519.819	4.07
520.167	3.99
520.515	4.04
520.863	4.01
521.211	4.1
521.559	4.05
521.907	4.11
522.255	4.14
522.602	4.23
522.95	4.11
523.298	4.21
523.645	4.24
523.993	4.11
524.341	4.18
524.688	4.16
525.036	4.17
525.383	4.15
525.73	4.11
526.078	4.37
526.425	4.1
526.772	4.1
527.119	4.02
527.466	4.15
527.814	3.99
528.161	4.05
528.508	4.1
528.854	4
529.201	3.92
529.548	3.96
529.895	3.87
530.242	3.86
530.588	3.84
530.935	3.91
531.282	3.89
531.628	3.97
531.975	3.99
532.321	4.06
532.667	4.09
533.014	4.1
533.36	4.05
533.706	4.13
534.052	4.1
534.399	4
534.745	4
535.091	3.89
535.437	3.92
535.783	3.95
536.129	3.95
536.474	4.05
536.82	4.19
537.166	3.97
537.512	3.98
537.857	4.02
538.203	4.05
538.549	4.03
538.894	4.11
539.239	4.15
539.585	4.16
539.93	4.18
540.276	4.15
540.621	4.18
540.966	4.19
541.311	4.19
541.656	4.1
542.001	4.03
542.346	3.99
542.691	3.9
543.036	3.97
543.381	3.91
543.726	4
544.071	3.98
544.415	4
544.76	4.04
545.105	4.01
545.449	4.03
545.794	4.06
546.138	4.1
546.483	4.15
546.827	4.05
547.171	4.13
547.516	4.2
547.86	4.08
548.204	4.16
548.548	4.02
548.892	4.18
549.236	4.12
549.58	4.22
549.924	4.29
550.268	4.17
550.612	4.27
550.956	4.28
551.3	4.26
551.643	4.36
551.987	4.29
552.33	4.44
552.674	4.14
553.017	4.29
553.361	4.23
553.704	4.13
554.048	4.16
554.391	4.21
554.734	4.09
555.077	4.24
555.42	4.22
555.764	4.15
556.107	4.21
556.45	4.17
556.793	4.45
557.135	4.2
557.478	4.3
557.821	4.42
558.164	4.56
558.507	4.26
558.849	4.41
559.192	4.24
559.534	4.37
559.877	4.24
560.219	4.22
560.562	4.26
560.904	4.51
561.246	4.16
561.589	4.54
561.931	4.44
562.273	4.27
562.615	4.38
562.957	4.21
563.299	4.39
563.641	4.2
563.983	4.21
564.325	4.27
564.667	4.25
565.008	4.14
565.35	4.12
565.692	4.22
566.033	4.19
566.375	4.23
566.716	4.06
567.058	4.19
567.399	4.29
567.741	4.17
568.082	4.22
568.423	4.09
568.764	4.2
569.105	4.18
569.447	4.27
569.788	4.22
570.129	4.23
570.47	4.24
570.811	4.28
571.151	4.11
571.492	4.23
571.833	4.14
572.174	4.41
572.514	4.34
572.855	4.34
573.195	4.23
573.536	4.31
573.876	4.08
574.217	4.21
574.557	4.16
574.898	4.08
575.238	4.38
575.578	4.2
575.918	4.2
576.258	4.36
576.598	4.21
576.938	4.14
577.278	4.4
577.618	4.34
577.958	4.36
578.298	4.45
578.638	4.19
578.977	4.34
579.317	4.39
579.657	4.25
579.996	4.41
580.336	4.39
580.675	4.18
581.014	4.38
581.354	4.2
581.693	4.56
582.032	4.61
582.372	4.48
582.711	4.37
583.05	4.48
583.389	4.57
583.728	4.56
584.067	4.21
584.406	4.32
584.745	4.29
585.083	4.33
585.422	4.47
585.761	4.53
586.1	4.56
586.438	4.36
586.777	4.5
587.115	4.4
587.454	4.32
587.792	4.63
588.13	4.37
588.469	4.27
588.807	4.7
589.145	4.28
589.483	4.31
589.821	4.3
590.159	4.56
590.497	4.36
590.835	4.64
591.173	4.58
591.511	4.52
591.849	4.58
592.187	4.31
592.524	4.38
592.862	4.41
593.2	4.48
593.537	4.25
593.875	4.52
594.212	4.58
594.55	4.4
594.887	4.48
595.224	4.53
595.561	4.42
595.899	4.42
596.236	4.57
596.573	4.29
596.91	4.25
597.247	4.67
597.584	4.49
597.921	4.5
598.258	4.46
598.594	4.25
598.931	4.1
599.268	4.13
599.604	4.44
599.941	4.32
600.277	4.41
600.614	4.41
600.95	4.42
601.287	4.25
601.623	4.3
601.959	4.7
602.296	4.44
602.632	4.5
602.968	4.37
603.304	4.65
603.64	4.58
603.976	4.17
604.312	4.23
604.648	4.24
604.984	4.48
605.319	4.2
605.655	4.5
605.991	4.26
606.326	4.29
606.662	4.03
606.998	4.39
607.333	4.26
607.668	4.28
608.004	4.4
608.339	4.38
608.674	4.35
609.01	4.41
609.345	4.54
609.68	4.22
610.015	4.66
610.35	4.36
610.685	4.08
611.02	4.12
611.355	4.28
611.689	4.27
612.024	4.29
612.359	4.47
612.694	4.41
613.028	4.18
613.363	4.35
613.697	4.43
614.032	4.5
614.366	4.35
614.7	4.06
615.035	4.53
615.369	4.68
615.703	4.53
616.037	4.72
616.371	4.47
616.705	4.53
617.039	4.43
617.373	4.53
617.707	4.67
618.041	4.39
618.375	4.02
618.709	4.5
619.042	4.55
619.376	4.31
619.71	4.23
620.043	4.81
620.377	4.54
620.71	4.25
621.043	4.49
621.377	4.49
621.71	4.66
622.043	4.55
622.376	4.48
622.709	4.8
623.043	4.44
623.376	4.25
623.709	4.99
624.041	4.35
624.374	4.56
624.707	4.39
625.04	4.59
625.373	4.58
625.705	4.54
626.038	4.67
626.37	4.6
626.703	4.67
627.035	4.39
627.368	4.77
627.7	4.39
628.032	4.54
628.365	4.54
628.697	4.7
629.029	4.58
629.361	4.75
629.693	4.48
630.025	4.33
630.357	4.57
630.689	4.71
631.021	4.54
631.353	4.83
631.684	4.48
632.016	4.15
632.348	4.32
632.679	4.86
633.011	4.74
633.342	4.61
633.674	4.43
634.005	4.79
634.336	4.58
634.668	4.54
634.999	4.43
635.33	4.78
635.661	4.45
635.992	4.64
636.323	4.52
636.654	4.61
636.985	4.33
637.316	4.48
637.647	4.74
637.977	4.43
638.308	4.73
638.639	4.27
638.969	4.38
639.3	4.61
639.63	4.89
639.961	4.68
640.291	4.23
640.622	4.48
640.952	4.81
641.282	4.47
641.612	4.44
641.943	4.52
642.273	4.1
642.603	4.66
642.933	4.63
643.263	4.76
643.592	5.13
643.922	4.92
644.252	4.64
644.582	4.84
644.911	4.34
645.241	4.51
645.571	4.95
645.9	4.81
646.23	4.91
646.559	4.45
646.888	4.73
647.218	5
647.547	4.81
647.876	4.51
648.205	4.41
648.534	4.74
648.863	4.51
649.192	4.81
649.521	4.62
649.85	4.73
650.179	4.94
650.508	4.39
650.837	5.04
651.165	4.5
651.494	4.94
651.822	4.49
652.151	4.62
652.479	4.86
652.808	5.08
653.136	4.3
653.465	4.57
653.793	4.9
654.121	4.78
654.449	4.46
654.777	4.8
655.105	4.54
655.433	5.23
655.761	4.61
656.089	4.84
656.417	4.7
656.745	5.06
657.073	5.02
657.4	4.66
657.728	4.22
658.056	5.09
658.383	4.83
658.711	5.01
659.038	4.62
659.365	4.84
659.693	4.49
660.02	4.67
660.347	4.73
660.674	4.62
661.001	4.42
661.329	4.33
661.656	4.25
661.982	4.46
662.309	4.65
662.636	4.19
662.963	4.22
663.29	4.93
663.616	4.61
663.943	4.32
664.27	4.97
664.596	4.39
664.923	4.91
665.249	4.94
665.576	4.54
665.902	4.65
666.228	4.72
666.554	5.28
666.881	4.81
667.207	4.81
667.533	5.04
667.859	4.5
668.185	4.62
668.511	5.43
668.837	4.92
669.162	5.07
669.488	4.68
669.814	5.1
670.139	4.49
670.465	5.3
670.791	4.76
671.116	4.14
671.442	4.07
671.767	4.89
672.092	4.66
672.418	4.73
672.743	4.48
673.068	4.08
673.393	5.07
673.718	3.87
674.043	4.17
674.368	4.48
674.693	4.88
675.018	4.71
675.343	5.07
675.667	4.88
675.992	4.9
676.317	4.41
676.641	5.27
676.966	4.58
677.29	4.06
677.615	4.44
677.939	4.55
678.264	4.01
678.588	4.77
678.912	3.98
679.236	4.68
679.56	4.29
679.885	4.44
680.209	4.93
680.532	5.12
680.856	5.22
681.18	5.36
681.504	5.1
681.828	4.69
682.152	4.53
682.475	5.13
682.799	4.05
683.122	4.48
683.446	4.21
683.769	5.58
684.093	4.93
684.416	4.2
684.739	4.77
685.062	4.66
685.386	4.89
685.709	5.39
686.032	4.89
686.355	5.13
686.678	5.71
687.001	4.97
687.324	4.65
687.646	4.94
687.969	4.7
688.292	5
688.614	5.19
688.937	4.95
689.26	5.35
689.582	4.74
689.904	5.68
690.227	5.21
690.549	4.73
690.871	4.18
691.194	4.44
691.516	4.81
691.838	5.41
692.16	4.38
692.482	4.83
692.804	4.4
