Data from 21-12_chest_Reflection__2__77.txt Node

Date: Thu Dec 15 17:03:09 CST 2022
User: ToomeyLab
Spectrometer: FLMS14357
Trigger mode: 0
Integration Time (sec): 1.000000E-2
Scans to average: 100
Electric dark correction enabled: true
Nonlinearity correction enabled: false
Boxcar width: 0
XAxis mode: Wavelengths
Number of Pixels in Spectrum: 2048
>>>>>Begin Spectral Data<<<<<
189.047	-39.77
189.435	-39.77
189.823	-39.77
190.211	717.12
190.599	70.76
190.987	-24.65
191.375	-172.13
191.763	-15.53
192.151	141.82
192.538	67.65
192.926	-86.2
193.314	24.17
193.702	-22.96
194.089	-17.53
194.477	524.36
194.864	36.38
195.252	210.18
195.639	151.81
196.027	69.56
196.414	209.55
196.801	49.59
197.189	497.69
197.576	-10.57
197.963	2555.79
198.351	5.33
198.738	-36.74
199.125	-36.1
199.512	-13.15
199.899	15.75
200.286	-17.11
200.673	48.36
201.06	-17.22
201.447	21.85
201.833	12.89
202.22	34.91
202.607	-50.94
202.994	15.21
203.38	28.67
203.767	30.29
204.154	25.75
204.54	23.97
204.927	32.23
205.313	43.43
205.699	42.22
206.086	26.73
206.472	34.85
206.858	-34.4
207.245	32.02
207.631	62.8
208.017	45
208.403	-11.12
208.789	50.84
209.175	-7.01
209.561	-72.13
209.947	-19.2
210.333	-21.9
210.719	35.24
211.105	23.31
211.491	28.09
211.876	-2.78
212.262	42.92
212.648	44.65
213.034	17.88
213.419	16.4
213.805	-41.14
214.19	-14.5
214.576	-29.31
214.961	13.66
215.346	-0.53
215.732	-9.47
216.117	25.56
216.502	-4.02
216.888	-9.48
217.273	9.44
217.658	-5.33
218.043	-22.5
218.428	-13.68
218.813	24.15
219.198	-25.36
219.583	-2.27
219.968	-1.9
220.353	-27.19
220.738	23.53
221.122	5.84
221.507	-23.55
221.892	-19.25
222.276	-19.98
222.661	-13.25
223.046	-3.64
223.43	3.55
223.815	0.76
224.199	5.31
224.583	4.79
224.968	-0.58
225.352	-3.49
225.736	13.15
226.121	-2.44
226.505	-0.91
226.889	4.88
227.273	-1.19
227.657	5.46
228.041	4.48
228.425	-0.24
228.809	0.95
229.193	2.76
229.577	1.72
229.961	0.76
230.344	1.6
230.728	2.63
231.112	1.97
231.495	1
231.879	0.53
232.263	0.73
232.646	0.91
233.03	4.18
233.413	3.06
233.797	0.34
234.18	1.82
234.563	0.77
234.946	1.06
235.33	1.85
235.713	4.03
236.096	2.29
236.479	3.47
236.862	0.04
237.245	2.14
237.628	2.3
238.011	2.18
238.394	1.11
238.777	0.67
239.16	3.91
239.543	3.34
239.925	0.63
240.308	1.1
240.691	1.89
241.073	2.45
241.456	1.24
241.838	2.1
242.221	2.5
242.603	1.61
242.986	1.76
243.368	1.62
243.75	2
244.133	2.16
244.515	1.52
244.897	1.59
245.279	1.22
245.661	2.1
246.043	2.6
246.425	2.6
246.807	1.68
247.189	1.65
247.571	1.83
247.953	1.55
248.335	1.84
248.717	1.85
249.098	1.77
249.48	1.64
249.862	1.91
250.243	1.72
250.625	2
251.006	2.21
251.388	2.39
251.769	1.61
252.151	2.6
252.532	1.29
252.913	1.44
253.295	1.98
253.676	2.48
254.057	2
254.438	2.13
254.819	2.2
255.2	2.24
255.581	3.06
255.962	2.34
256.343	2.28
256.724	2.36
257.105	1.53
257.486	1.07
257.867	1.93
258.247	2.55
258.628	1.38
259.009	1.58
259.389	1.48
259.77	1.09
260.15	2.64
260.531	1.54
260.911	1.56
261.292	1.66
261.672	1.72
262.052	1.77
262.432	1.63
262.813	2.04
263.193	1.33
263.573	2.22
263.953	1.25
264.333	1.8
264.713	1.27
265.093	1.25
265.473	1.85
265.853	1.8
266.233	1.37
266.612	1.31
266.992	1.79
267.372	2.15
267.752	2.33
268.131	1.79
268.511	1.84
268.89	2.07
269.27	1.31
269.649	1.29
270.029	1.96
270.408	1.52
270.787	1.81
271.167	2.09
271.546	2.64
271.925	2.04
272.304	1.51
272.683	1.59
273.062	1.72
273.441	1.43
273.82	1.78
274.199	1.39
274.578	2.05
274.957	1.81
275.336	1.7
275.715	1.8
276.093	1.77
276.472	0.92
276.851	1.91
277.229	1.52
277.608	1.46
277.986	2
278.365	1.69
278.743	1.43
279.122	1.3
279.5	2.14
279.878	1.3
280.257	1.84
280.635	2.01
281.013	1.87
281.391	1.68
281.769	2.24
282.147	1.55
282.525	1.47
282.903	1.32
283.281	1.92
283.659	2.07
284.037	1.55
284.415	1.79
284.792	1.48
285.17	1.12
285.548	1.66
285.925	1.59
286.303	2.09
286.68	1.62
287.058	1.7
287.435	1.56
287.813	1.73
288.19	1.44
288.567	1.48
288.945	1.76
289.322	1.66
289.699	2.13
290.076	1.47
290.453	1.69
290.83	1.69
291.207	1.7
291.584	2.09
291.961	1.68
292.338	1.65
292.715	1.17
293.092	2
293.469	1.96
293.845	2.06
294.222	2.22
294.599	1.66
294.975	1.24
295.352	2.19
295.728	1.62
296.105	1.87
296.481	1.82
296.858	1.7
297.234	1.18
297.61	1.85
297.986	2.16
298.363	2.08
298.739	2.15
299.115	1.75
299.491	2.19
299.867	1.4
300.243	1.87
300.619	1.76
300.995	2.03
301.371	2.1
301.746	2.26
302.122	1.78
302.498	1.5
302.874	1.87
303.249	1.74
303.625	1.76
304	2.14
304.376	2.44
304.751	1.74
305.127	1.98
305.502	2.14
305.878	2.52
306.253	1.51
306.628	2.15
307.003	1.86
307.378	2.14
307.754	1.7
308.129	1.53
308.504	2.02
308.879	2.13
309.254	2.15
309.629	2.29
310.003	1.93
310.378	2.38
310.753	2.22
311.128	1.84
311.502	2.17
311.877	1.71
312.252	2.06
312.626	2.22
313.001	1.75
313.375	2.18
313.75	2.27
314.124	2.05
314.498	2.12
314.873	2.07
315.247	1.98
315.621	1.92
315.995	1.97
316.369	1.36
316.743	1.76
317.117	2.05
317.491	2.06
317.865	1.8
318.239	2.65
318.613	2.23
318.987	2.05
319.361	2.29
319.734	2.21
320.108	2.41
320.482	2.24
320.855	2.19
321.229	2.07
321.602	2.52
321.976	1.94
322.349	2.44
322.723	2.45
323.096	2.01
323.469	1.61
323.843	1.85
324.216	1.83
324.589	2.49
324.962	1.92
325.335	1.89
325.708	2.13
326.081	2.15
326.454	2.67
326.827	2.91
327.2	1.61
327.573	2.66
327.945	1.86
328.318	1.95
328.691	2.29
329.063	1.72
329.436	1.93
329.809	2.69
330.181	2.99
330.553	2.48
330.926	2.61
331.298	2.18
331.671	2.54
332.043	2.25
332.415	2.7
332.787	2.41
333.159	1.9
333.532	2.21
333.904	2.53
334.276	1.97
334.648	2.23
335.02	2.07
335.391	1.78
335.763	2.56
336.135	2.35
336.507	2.17
336.879	2.17
337.25	2.23
337.622	3.01
337.993	2.03
338.365	2.7
338.736	2.04
339.108	2.51
339.479	2.02
339.851	2.63
340.222	2.6
340.593	2.29
340.964	2.3
341.336	2.38
341.707	2.41
342.078	2.32
342.449	2.47
342.82	2.29
343.191	2.18
343.562	2.38
343.933	1.91
344.303	2.39
344.674	2.12
345.045	2.22
345.416	2.65
345.786	2.65
346.157	2.81
346.527	2.16
346.898	1.96
347.268	2.55
347.639	2.1
348.009	2.48
348.38	2.24
348.75	2.68
349.12	2.54
349.49	2.71
349.861	2.31
350.231	2.13
350.601	2.43
350.971	2.1
351.341	2.31
351.711	2.41
352.081	2.2
352.45	1.86
352.82	1.86
353.19	2.35
353.56	2.3
353.929	2.36
354.299	2.64
354.669	2.8
355.038	2.62
355.408	2.68
355.777	2.8
356.147	2.11
356.516	2.09
356.885	2.69
357.254	2.11
357.624	2.22
357.993	2.48
358.362	2.32
358.731	2.6
359.1	2.39
359.469	2.6
359.838	2.49
360.207	2.54
360.576	2.53
360.945	2.51
361.314	2.5
361.682	2.43
362.051	2.4
362.42	2.53
362.788	2.43
363.157	2.35
363.525	2.39
363.894	2.14
364.262	2.48
364.631	2.43
364.999	2.42
365.367	2.51
365.735	2.18
366.104	2.24
366.472	2.46
366.84	2.55
367.208	2.48
367.576	2.29
367.944	2.3
368.312	2.42
368.68	2.65
369.048	2.39
369.416	2.51
369.783	2.38
370.151	2.84
370.519	2.95
370.886	2.7
371.254	2.75
371.621	2.72
371.989	2.84
372.356	2.54
372.724	2.56
373.091	2.57
373.458	2.23
373.826	2.63
374.193	2.44
374.56	2.53
374.927	2.32
375.294	2.59
375.661	2.77
376.028	2.36
376.395	2.65
376.762	2.11
377.129	2.24
377.496	2.35
377.863	2.54
378.229	2.93
378.596	2.89
378.963	2.61
379.329	2.47
379.696	2.51
380.062	2.69
380.429	2.32
380.795	2.8
381.161	2.11
381.528	2.46
381.894	2.66
382.26	2.5
382.626	2.88
382.993	2.74
383.359	2.62
383.725	2.4
384.091	2.85
384.457	2.33
384.823	2.73
385.188	2.37
385.554	2.6
385.92	2.4
386.286	2.61
386.651	2.29
387.017	2.79
387.383	2.55
387.748	2.85
388.114	3.01
388.479	2.74
388.845	2.42
389.21	2.9
389.575	2.76
389.94	3
390.306	2.58
390.671	2.52
391.036	2.71
391.401	2.65
391.766	2.66
392.131	2.77
392.496	2.62
392.861	2.65
393.226	2.58
393.591	2.72
393.956	2.63
394.32	2.8
394.685	2.63
395.05	2.5
395.414	2.82
395.779	2.91
396.143	2.53
396.508	2.63
396.872	2.71
397.236	2.89
397.601	2.79
397.965	2.71
398.329	2.8
398.694	2.5
399.058	2.7
399.422	2.54
399.786	2.31
400.15	2.48
400.514	2.69
400.878	2.72
401.242	2.71
401.605	2.8
401.969	2.67
402.333	2.55
402.697	2.79
403.06	2.58
403.424	2.74
403.787	2.72
404.151	2.71
404.514	2.58
404.878	2.55
405.241	2.73
405.604	2.63
405.968	2.75
406.331	2.75
406.694	2.68
407.057	2.82
407.42	2.7
407.783	2.87
408.146	2.63
408.509	2.74
408.872	2.71
409.235	2.8
409.598	2.76
409.961	2.84
410.323	2.71
410.686	2.8
411.049	2.74
411.411	2.65
411.774	2.6
412.136	2.65
412.499	2.73
412.861	2.45
413.223	2.4
413.586	2.81
413.948	2.92
414.31	2.9
414.672	2.76
415.035	2.92
415.397	2.61
415.759	2.56
416.121	2.82
416.483	2.7
416.845	2.69
417.206	2.79
417.568	2.71
417.93	2.69
418.292	2.69
418.653	2.54
419.015	2.49
419.377	2.55
419.738	2.74
420.1	2.83
420.461	2.6
420.822	2.7
421.184	2.64
421.545	2.78
421.906	2.7
422.267	2.69
422.629	2.69
422.99	2.6
423.351	2.62
423.712	2.71
424.073	2.75
424.434	2.69
424.795	2.77
425.155	2.65
425.516	2.73
425.877	2.71
426.238	2.75
426.598	2.79
426.959	2.74
427.32	2.74
427.68	2.67
428.041	2.87
428.401	2.8
428.761	2.65
429.122	2.78
429.482	2.85
429.842	2.77
430.202	3.08
430.563	2.88
430.923	2.84
431.283	2.84
431.643	2.93
432.003	2.96
432.363	3.1
432.722	2.81
433.082	2.85
433.442	3
433.802	2.87
434.161	2.87
434.521	2.77
434.881	2.8
435.24	2.89
435.6	2.97
435.959	2.83
436.319	2.94
436.678	2.97
437.037	2.89
437.396	2.82
437.756	2.84
438.115	2.71
438.474	2.98
438.833	2.95
439.192	2.96
439.551	2.81
439.91	2.91
440.269	2.99
440.628	2.87
440.987	2.99
441.345	2.86
441.704	2.85
442.063	2.85
442.421	2.97
442.78	2.9
443.138	2.84
443.497	2.97
443.855	3.02
444.214	2.77
444.572	3.08
444.93	2.96
445.288	3
445.647	2.77
446.005	2.98
446.363	2.91
446.721	2.96
447.079	2.9
447.437	2.99
447.795	2.89
448.153	2.93
448.51	2.98
448.868	2.82
449.226	2.91
449.584	2.96
449.941	3.07
450.299	3.02
450.656	2.99
451.014	3.05
451.371	3.18
451.729	3.01
452.086	3.09
452.443	3.09
452.801	3.07
453.158	3.2
453.515	3.02
453.872	3.01
454.229	2.9
454.586	2.86
454.943	3.07
455.3	3.19
455.657	3.01
456.014	3.14
456.371	3.1
456.727	3.08
457.084	3.23
457.441	3.08
457.797	3
458.154	3.16
458.51	3.01
458.867	3.11
459.223	2.98
459.58	3.14
459.936	3.06
460.292	3
460.648	2.85
461.005	3.05
461.361	3.01
461.717	2.94
462.073	3.18
462.429	3.17
462.785	3.09
463.141	3.03
463.496	3.16
463.852	3.23
464.208	3.06
464.564	3.12
464.919	3.11
465.275	3.03
465.631	3.32
465.986	3.29
466.342	3.04
466.697	3.03
467.052	3.17
467.408	3.17
467.763	3.25
468.118	2.96
468.473	3.16
468.829	3.21
469.184	3.17
469.539	3.09
469.894	3.32
470.249	3.21
470.603	3.09
470.958	3.39
471.313	3.26
471.668	3.31
472.023	3.18
472.377	3.12
472.732	3.28
473.086	3.26
473.441	3.31
473.795	3.33
474.15	3.2
474.504	3.24
474.859	3.05
475.213	3.22
475.567	2.96
475.921	3.15
476.275	3.23
476.63	3.31
476.984	3.15
477.338	3.38
477.692	3.19
478.045	3.36
478.399	3.24
478.753	3.21
479.107	3.34
479.461	3.27
479.814	3.3
480.168	3.34
480.521	3.32
480.875	3.25
481.228	3.39
481.582	3.29
481.935	3.38
482.289	3.26
482.642	3.36
482.995	3.32
483.348	3.21
483.701	3.37
484.055	3.22
484.408	3.17
484.761	3.15
485.114	3.06
485.466	3.05
485.819	3.07
486.172	3.11
486.525	3.14
486.878	3.18
487.23	3.19
487.583	3.26
487.936	3.25
488.288	3.15
488.641	3.15
488.993	3.2
489.345	3.14
489.698	3.15
490.05	3.19
490.402	3.22
490.754	3.23
491.107	3.18
491.459	3.29
491.811	3.21
492.163	3.28
492.515	3.21
492.866	3.2
493.218	3.22
493.57	3.29
493.922	3.26
494.274	3.39
494.625	3.43
494.977	3.36
495.328	3.47
495.68	3.39
496.031	3.4
496.383	3.39
496.734	3.38
497.086	3.48
497.437	3.58
497.788	3.55
498.139	3.37
498.49	3.53
498.842	3.39
499.193	3.4
499.544	3.5
499.894	3.43
500.245	3.51
500.596	3.47
500.947	3.58
501.298	3.39
501.648	3.54
501.999	3.54
502.35	3.45
502.7	3.71
503.051	3.53
503.401	3.52
503.752	3.6
504.102	3.44
504.452	3.55
504.803	3.5
505.153	3.56
505.503	3.58
505.853	3.6
506.203	3.67
506.553	3.61
506.903	3.58
507.253	3.52
507.603	3.63
507.953	3.67
508.303	3.59
508.652	3.58
509.002	3.67
509.352	3.66
509.701	3.54
510.051	3.65
510.4	3.67
510.75	3.57
511.099	3.61
511.449	3.78
511.798	3.49
512.147	3.63
512.496	3.64
512.846	3.63
513.195	3.63
513.544	3.78
513.893	3.73
514.242	3.65
514.591	3.55
514.939	3.73
515.288	3.83
515.637	3.69
515.986	3.74
516.334	3.73
516.683	3.71
517.032	3.65
517.38	3.61
517.729	3.76
518.077	3.82
518.426	3.73
518.774	3.8
519.122	3.68
519.47	3.73
519.819	3.76
520.167	3.67
520.515	3.72
520.863	3.73
521.211	3.76
521.559	3.76
521.907	3.91
522.255	3.66
522.602	3.88
522.95	3.91
523.298	3.91
523.645	3.93
523.993	3.96
524.341	3.89
524.688	3.82
525.036	3.86
525.383	3.96
525.73	3.82
526.078	3.91
526.425	3.79
526.772	3.88
527.119	3.85
527.466	3.96
527.814	3.84
528.161	3.91
528.508	3.94
528.854	3.83
529.201	3.8
529.548	3.84
529.895	3.71
530.242	3.73
530.588	3.72
530.935	3.76
531.282	3.81
531.628	3.87
531.975	3.86
532.321	3.91
532.667	3.96
533.014	4.01
533.36	4.02
533.706	4.03
534.052	4.01
534.399	3.97
534.745	3.89
535.091	3.92
535.437	3.94
535.783	3.97
536.129	3.99
536.474	4.1
536.82	4.19
537.166	3.97
537.512	4.07
537.857	4.1
538.203	4.09
538.549	4.05
538.894	4.1
539.239	4.12
539.585	4.18
539.93	4.21
540.276	4.16
540.621	4.23
540.966	4.34
541.311	4.19
541.656	4.18
542.001	4.09
542.346	4.16
542.691	4.03
543.036	4.1
543.381	4.1
543.726	4.18
544.071	4.2
544.415	4.24
544.76	4.22
545.105	4.25
545.449	4.3
545.794	4.37
546.138	4.29
546.483	4.51
546.827	4.34
547.171	4.43
547.516	4.4
547.86	4.34
548.204	4.34
548.548	4.36
548.892	4.41
549.236	4.47
549.58	4.46
549.924	4.54
550.268	4.58
550.612	4.54
550.956	4.75
551.3	4.61
551.643	4.29
551.987	4.73
552.33	4.66
552.674	4.48
553.017	4.6
553.361	4.78
553.704	4.8
554.048	4.72
554.391	4.66
554.734	4.54
555.077	4.64
555.42	4.66
555.764	4.77
556.107	4.79
556.45	4.78
556.793	4.78
557.135	4.77
557.478	4.79
557.821	4.73
558.164	4.84
558.507	4.83
558.849	4.95
559.192	4.83
559.534	4.86
559.877	4.78
560.219	4.85
560.562	4.82
560.904	5.17
561.246	4.68
561.589	5.14
561.931	5
562.273	4.83
562.615	4.9
562.957	4.87
563.299	5.04
563.641	4.85
563.983	4.79
564.325	5.08
564.667	5.19
565.008	5.01
565.35	5.03
565.692	5.07
566.033	4.92
566.375	5.13
566.716	5.01
567.058	5.08
567.399	5.02
567.741	5.11
568.082	5.2
568.423	5.05
568.764	5.2
569.105	5.15
569.447	5.11
569.788	5.19
570.129	5.36
570.47	5.36
570.811	5.05
571.151	5.19
571.492	5.18
571.833	5.2
572.174	5.43
572.514	5.45
572.855	5.44
573.195	5.31
573.536	5.35
573.876	5.34
574.217	5.33
574.557	5.47
574.898	5.34
575.238	5.48
575.578	5.53
575.918	5.44
576.258	5.62
576.598	5.45
576.938	5.42
577.278	5.47
577.618	5.41
577.958	5.48
578.298	5.67
578.638	5.57
578.977	5.62
579.317	5.84
579.657	5.53
579.996	5.86
580.336	5.68
580.675	5.52
581.014	5.84
581.354	5.72
581.693	6.03
582.032	6.07
582.372	5.75
582.711	5.83
583.05	5.85
583.389	5.8
583.728	6.2
584.067	5.78
584.406	6.13
584.745	5.72
585.083	5.93
585.422	5.88
585.761	6.04
586.1	6.12
586.438	5.8
586.777	5.98
587.115	6.1
587.454	6.05
587.792	6.05
588.13	6.2
588.469	6.23
588.807	6.31
589.145	6.08
589.483	6.12
589.821	6.3
590.159	6.35
590.497	6.26
590.835	6.37
591.173	6.44
591.511	6.45
591.849	6.42
592.187	6.09
592.524	6.66
592.862	6.2
593.2	6.51
593.537	6.43
593.875	6.37
594.212	6.34
594.55	6.53
594.887	6.45
595.224	6.73
595.561	6.37
595.899	6.38
596.236	6.41
596.573	6.42
596.91	6.49
597.247	6.83
597.584	6.47
597.921	6.37
598.258	6.57
598.594	6.58
598.931	6.47
599.268	6.39
599.604	6.75
599.941	6.76
600.277	6.64
600.614	6.7
600.95	6.52
601.287	6.54
601.623	6.47
601.959	6.82
602.296	6.75
602.632	6.86
602.968	6.66
603.304	6.83
603.64	6.86
603.976	6.88
604.312	6.93
604.648	6.88
604.984	7
605.319	6.91
605.655	7.01
605.991	6.76
606.326	6.92
606.662	6.76
606.998	7.23
607.333	6.98
607.668	6.9
608.004	6.96
608.339	6.88
608.674	7.12
609.01	7.46
609.345	7.23
609.68	7.03
610.015	7.32
610.35	7.3
610.685	6.95
611.02	7.07
611.355	7.16
611.689	7.04
612.024	7.38
612.359	7.51
612.694	7.52
613.028	7.36
613.363	7.41
613.697	7.62
614.032	7.23
614.366	7.33
614.7	7.47
615.035	7.49
615.369	7.75
615.703	7.61
616.037	7.46
616.371	7.67
616.705	7.76
617.039	7.82
617.373	7.84
617.707	7.67
618.041	7.34
618.375	7.24
618.709	7.72
619.042	7.6
619.376	7.82
619.71	7.97
620.043	7.96
620.377	7.89
620.71	7.54
621.043	7.99
621.377	8
621.71	8.1
622.043	7.93
622.376	7.97
622.709	8.38
623.043	8.03
623.376	7.82
623.709	8.63
624.041	8.16
624.374	8.38
624.707	7.76
625.04	8.03
625.373	8.56
625.705	8.53
626.038	8.73
626.37	8.27
626.703	8.38
627.035	7.82
627.368	8.42
627.7	8.49
628.032	8.32
628.365	8.34
628.697	8.6
629.029	8.27
629.361	8.48
629.693	8.39
630.025	8.61
630.357	8.94
630.689	8.53
631.021	8.53
631.353	8.67
631.684	8.47
632.016	8.38
632.348	8.48
632.679	8.74
633.011	8.7
633.342	8.65
633.674	8.93
634.005	9.04
634.336	8.92
634.668	8.81
634.999	8.73
635.33	8.77
635.661	8.52
635.992	9.04
636.323	9
636.654	8.89
636.985	9.07
637.316	8.89
637.647	8.82
637.977	9.27
638.308	9.6
638.639	8.96
638.969	9.09
639.3	9.06
639.63	9.07
639.961	9.2
640.291	8.91
640.622	9.34
640.952	9.13
641.282	9.05
641.612	9.25
641.943	9.1
642.273	8.98
642.603	9.51
642.933	9.29
643.263	9.26
643.592	9.6
643.922	9.64
644.252	9.66
644.582	9.77
644.911	9.65
645.241	9.48
645.571	9.59
645.9	9.85
646.23	10
646.559	9.4
646.888	9.82
647.218	10.06
647.547	10.02
647.876	9.95
648.205	9.71
648.534	9.87
648.863	9.34
649.192	9.83
649.521	9.68
649.85	9.95
650.179	9.83
650.508	9.97
650.837	10.16
651.165	10.06
651.494	10.25
651.822	10.26
652.151	9.45
652.479	10.12
652.808	10.02
653.136	9.9
653.465	10.23
653.793	9.83
654.121	10.56
654.449	10.31
654.777	9.76
655.105	9.86
655.433	10.51
655.761	10.04
656.089	10.31
656.417	10.5
656.745	10.87
657.073	10.48
657.4	10.27
657.728	9.87
658.056	10.23
658.383	10.63
658.711	10.71
659.038	11.19
659.365	10.97
659.693	10.94
660.02	10.31
660.347	10.74
660.674	10.57
661.001	10.41
661.329	10.61
661.656	10.51
661.982	10.58
662.309	10.28
662.636	10.73
662.963	10.48
663.29	11.03
663.616	10.62
663.943	10.8
664.27	11.02
664.596	10.76
664.923	11.03
665.249	10.81
665.576	11.08
665.902	10.66
666.228	11.35
666.554	12.11
666.881	10.96
667.207	11.16
667.533	11.56
667.859	10.96
668.185	11.19
668.511	11.93
668.837	11.89
669.162	11.3
669.488	11.12
669.814	11.46
670.139	10.46
670.465	12.08
670.791	11.5
671.116	11.22
671.442	11.24
671.767	12.02
672.092	11.32
672.418	11.28
672.743	11.69
673.068	11.55
673.393	11.82
673.718	11.39
674.043	11.16
674.368	11.47
674.693	12.2
675.018	12.03
675.343	12.05
675.667	11.86
675.992	11.85
676.317	11.23
676.641	12.45
676.966	11.7
677.29	11.65
677.615	11.53
677.939	12.02
678.264	11.5
678.588	12.26
678.912	12.17
679.236	11.76
679.56	11.75
679.885	11.68
680.209	12.46
680.532	12.21
680.856	12.53
681.18	12.78
681.504	11.9
681.828	12.33
682.152	12.28
682.475	12.57
682.799	12.28
683.122	12.1
683.446	12.03
683.769	12.37
684.093	12.54
684.416	12.4
684.739	12.22
685.062	12.72
685.386	12.51
685.709	12.54
686.032	13.41
686.355	13.07
686.678	13.02
687.001	13.09
687.324	12.59
687.646	12.64
687.969	12.98
688.292	13.52
688.614	13.04
688.937	12.62
689.26	12.98
689.582	13.16
689.904	13.98
690.227	13.61
