Data from 21-12_crown_Reflection__3__83.txt Node

Date: Thu Dec 15 17:05:10 CST 2022
User: ToomeyLab
Spectrometer: FLMS14357
Trigger mode: 0
Integration Time (sec): 1.000000E-2
Scans to average: 100
Electric dark correction enabled: true
Nonlinearity correction enabled: false
Boxcar width: 0
XAxis mode: Wavelengths
Number of Pixels in Spectrum: 2048
>>>>>Begin Spectral Data<<<<<
189.047	-108.73
189.435	-108.73
189.823	-108.73
190.211	1020.72
190.599	11.32
190.987	-18.85
191.375	68.29
191.763	150.73
192.151	110.61
192.538	-366.52
192.926	-102.38
193.314	-3.01
193.702	-52.47
194.089	5.65
194.477	84.64
194.864	34.74
195.252	102.62
195.639	137.09
196.027	68.74
196.414	182.44
196.801	50.95
197.189	267.83
197.576	14.18
197.963	1310.53
198.351	43.94
198.738	-0.47
199.125	-46.03
199.512	3.44
199.899	4.99
200.286	-37.99
200.673	30.37
201.06	7.33
201.447	27.39
201.833	3.79
202.22	10.53
202.607	-99.05
202.994	39.16
203.38	31.58
203.767	-15.35
204.154	37.83
204.54	20.66
204.927	37.81
205.313	74.95
205.699	16.38
206.086	31.44
206.472	23.61
206.858	10.5
207.245	7.38
207.631	38.84
208.017	34.41
208.403	-17.77
208.789	14.93
209.175	-10.94
209.561	-51.58
209.947	31.7
210.333	23.5
210.719	15.15
211.105	29.56
211.491	21.15
211.876	-6.05
212.262	47.77
212.648	41.88
213.034	-16.51
213.419	13.52
213.805	-57.96
214.19	-8.75
214.576	-24.88
214.961	20.89
215.346	-4.81
215.732	9.03
216.117	9.92
216.502	6.66
216.888	8.57
217.273	26.69
217.658	-5.18
218.043	-14.68
218.428	-14.33
218.813	-5.34
219.198	-27.82
219.583	0.86
219.968	7.63
220.353	-3.88
220.738	11.45
221.122	9.13
221.507	-2.17
221.892	-15.56
222.276	-16.26
222.661	-6.49
223.046	-2.62
223.43	11.21
223.815	-2.61
224.199	3.2
224.583	0.23
224.968	-1.41
225.352	-8.99
225.736	10.97
226.121	9.05
226.505	1.39
226.889	2.33
227.273	0.04
227.657	0.7
228.041	1.6
228.425	0.89
228.809	3.72
229.193	2.46
229.577	0.26
229.961	0.72
230.344	2.49
230.728	2.18
231.112	2.25
231.495	0.62
231.879	1.49
232.263	4.72
232.646	1.34
233.03	4.05
233.413	1.92
233.797	-1.31
234.18	5.38
234.563	3.98
234.946	1.75
235.33	2.55
235.713	2.75
236.096	2.7
236.479	3.2
236.862	1.6
237.245	1.48
237.628	3.17
238.011	2.16
238.394	1.09
238.777	1.86
239.16	4.19
239.543	4.08
239.925	-0.2
240.308	0.34
240.691	2.21
241.073	1.19
241.456	2.08
241.838	2.1
242.221	2.63
242.603	2.28
242.986	3.16
243.368	2.42
243.75	2.2
244.133	2.72
244.515	2.48
244.897	1.91
245.279	2.05
245.661	2.91
246.043	2.71
246.425	2.6
246.807	1.91
247.189	3.22
247.571	1.93
247.953	1.75
248.335	2.2
248.717	2.23
249.098	2.27
249.48	1.86
249.862	2.68
250.243	2.77
250.625	2.35
251.006	3.18
251.388	3.01
251.769	2.4
252.151	2.62
252.532	1.38
252.913	2.43
253.295	2.09
253.676	2.08
254.057	2.03
254.438	1.86
254.819	2.11
255.2	2.25
255.581	3.23
255.962	1.82
256.343	3.12
256.724	2.49
257.105	2.74
257.486	1.08
257.867	1.43
258.247	2.93
258.628	2.48
259.009	2.17
259.389	1.75
259.77	1.82
260.15	2.57
260.531	1.95
260.911	1.99
261.292	2.27
261.672	2.09
262.052	2.26
262.432	1.85
262.813	2.53
263.193	1.9
263.573	1.74
263.953	1.36
264.333	2.23
264.713	2.33
265.093	1.57
265.473	2.08
265.853	1.62
266.233	2.18
266.612	1.65
266.992	2.5
267.372	2.54
267.752	1.96
268.131	1.87
268.511	1.67
268.89	2.65
269.27	1.62
269.649	1.26
270.029	2
270.408	1.79
270.787	2.09
271.167	2.29
271.546	2.64
271.925	2.31
272.304	1.92
272.683	1.8
273.062	1.76
273.441	1.79
273.82	2.01
274.199	2.12
274.578	2.33
274.957	1.8
275.336	1.72
275.715	2.3
276.093	2.33
276.472	1.36
276.851	1.82
277.229	2.14
277.608	1.53
277.986	2.41
278.365	2.4
278.743	1.79
279.122	1.86
279.5	1.99
279.878	2.07
280.257	1.64
280.635	2.09
281.013	1.47
281.391	1.95
281.769	2.52
282.147	2.11
282.525	1.71
282.903	2.15
283.281	2.52
283.659	2.23
284.037	1.87
284.415	2.06
284.792	2.11
285.17	1.71
285.548	2.04
285.925	1.83
286.303	2.7
286.68	2.09
287.058	2.4
287.435	2.04
287.813	1.84
288.19	1.79
288.567	1.82
288.945	2.16
289.322	2.23
289.699	2.37
290.076	2.02
290.453	1.94
290.83	2.15
291.207	2.04
291.584	2.3
291.961	2.14
292.338	1.83
292.715	1.96
293.092	2.58
293.469	1.9
293.845	2.17
294.222	2.41
294.599	1.84
294.975	1.77
295.352	2.03
295.728	1.89
296.105	2.4
296.481	2.36
296.858	2.42
297.234	1.92
297.61	2.15
297.986	2.48
298.363	2.47
298.739	2.54
299.115	2.05
299.491	2.54
299.867	2.02
300.243	2.05
300.619	2.09
300.995	2
301.371	2.7
301.746	2.43
302.122	2.5
302.498	2.25
302.874	2.27
303.249	2.57
303.625	1.77
304	2.67
304.376	2.42
304.751	2.3
305.127	2.26
305.502	2.22
305.878	2.56
306.253	2
306.628	2.45
307.003	2.48
307.378	2.6
307.754	2.81
308.129	1.72
308.504	2.35
308.879	2.67
309.254	2.56
309.629	2.83
310.003	2.13
310.378	2.6
310.753	2.7
311.128	2.6
311.502	2.36
311.877	2.31
312.252	2.71
312.626	3.02
313.001	2.51
313.375	2.89
313.75	2.58
314.124	2.89
314.498	2.52
314.873	2.24
315.247	2.47
315.621	2.29
315.995	2.66
316.369	2
316.743	2.27
317.117	2.48
317.491	2.88
317.865	2.31
318.239	3.04
318.613	2.37
318.987	2.65
319.361	2.73
319.734	3.25
320.108	2.7
320.482	2.64
320.855	2.21
321.229	2.88
321.602	2.66
321.976	2.03
322.349	3.24
322.723	2.6
323.096	2.63
323.469	2.56
323.843	2.38
324.216	2.48
324.589	2.95
324.962	1.99
325.335	2.79
325.708	2.65
326.081	2.6
326.454	3.01
326.827	2.77
327.2	2.32
327.573	3.11
327.945	2.62
328.318	2.65
328.691	3.12
329.063	2.09
329.436	2.33
329.809	2.89
330.181	3.21
330.553	3.05
330.926	2.5
331.298	2.43
331.671	2.68
332.043	2.75
332.415	3.15
332.787	2.87
333.159	2.34
333.532	2.83
333.904	2.97
334.276	3.19
334.648	2.39
335.02	2.71
335.391	2.46
335.763	2.73
336.135	3.12
336.507	2.71
336.879	2.75
337.25	2.69
337.622	2.95
337.993	3.08
338.365	2.74
338.736	2.97
339.108	2.95
339.479	3.08
339.851	3.01
340.222	3.37
340.593	2.52
340.964	2.35
341.336	2.61
341.707	2.69
342.078	2.68
342.449	3.01
342.82	2.93
343.191	2.68
343.562	2.94
343.933	2.66
344.303	3
344.674	2.99
345.045	3.16
345.416	3.31
345.786	2.76
346.157	3
346.527	2.95
346.898	2.52
347.268	2.6
347.639	2.78
348.009	2.94
348.38	2.19
348.75	3.06
349.12	3.06
349.49	2.8
349.861	3.08
350.231	2.81
350.601	2.45
350.971	2.7
351.341	2.87
351.711	3.02
352.081	2.94
352.45	2.48
352.82	2.58
353.19	2.53
353.56	2.74
353.929	2.85
354.299	2.72
354.669	2.9
355.038	3.1
355.408	2.87
355.777	3.21
356.147	2.89
356.516	2.89
356.885	2.93
357.254	2.91
357.624	2.42
357.993	2.99
358.362	2.78
358.731	3.12
359.1	2.82
359.469	2.99
359.838	2.65
360.207	2.55
360.576	2.9
360.945	2.85
361.314	2.62
361.682	2.51
362.051	2.74
362.42	3.02
362.788	2.98
363.157	2.79
363.525	2.97
363.894	2.75
364.262	2.67
364.631	3.11
364.999	3.11
365.367	2.83
365.735	2.77
366.104	2.9
366.472	2.84
366.84	2.59
367.208	3.13
367.576	2.89
367.944	2.8
368.312	2.95
368.68	3.3
369.048	2.89
369.416	2.86
369.783	2.78
370.151	3.15
370.519	3.39
370.886	2.95
371.254	3.37
371.621	2.94
371.989	3.33
372.356	3.01
372.724	2.84
373.091	2.91
373.458	2.75
373.826	3
374.193	2.9
374.56	3.03
374.927	2.87
375.294	3.04
375.661	3.03
376.028	3.16
376.395	2.98
376.762	2.86
377.129	2.86
377.496	3.07
377.863	3.03
378.229	3.06
378.596	3.11
378.963	3.02
379.329	3.25
379.696	2.98
380.062	3.15
380.429	2.75
380.795	3.36
381.161	2.69
381.528	2.76
381.894	2.89
382.26	3.03
382.626	2.97
382.993	3.19
383.359	3
383.725	2.86
384.091	2.84
384.457	2.87
384.823	2.98
385.188	2.97
385.554	3.21
385.92	2.72
386.286	3.13
386.651	2.66
387.017	3.08
387.383	2.79
387.748	3.26
388.114	2.96
388.479	2.93
388.845	2.76
389.21	3.35
389.575	3.05
389.94	3.22
390.306	3.18
390.671	3.18
391.036	2.78
391.401	2.91
391.766	2.89
392.131	3.18
392.496	3.09
392.861	3.08
393.226	2.7
393.591	2.99
393.956	3.07
394.32	2.8
394.685	2.82
395.05	2.91
395.414	2.83
395.779	3.02
396.143	2.77
396.508	2.92
396.872	3.02
397.236	3.15
397.601	3.12
397.965	2.96
398.329	2.95
398.694	2.72
399.058	2.91
399.422	2.99
399.786	2.55
400.15	2.67
400.514	3.02
400.878	3.08
401.242	2.96
401.605	2.97
401.969	2.87
402.333	2.87
402.697	3.06
403.06	3
403.424	3.03
403.787	2.92
404.151	2.95
404.514	3
404.878	2.69
405.241	2.78
405.604	2.95
405.968	2.78
406.331	2.91
406.694	2.85
407.057	2.67
407.42	2.96
407.783	3.11
408.146	2.7
408.509	3.12
408.872	2.91
409.235	3.01
409.598	2.7
409.961	2.83
410.323	2.92
410.686	2.85
411.049	2.77
411.411	2.76
411.774	2.77
412.136	2.65
412.499	2.96
412.861	2.67
413.223	2.6
413.586	2.88
413.948	2.9
414.31	2.89
414.672	2.72
415.035	2.72
415.397	2.67
415.759	2.7
416.121	2.84
416.483	2.62
416.845	2.81
417.206	2.8
417.568	2.73
417.93	2.84
418.292	2.71
418.653	2.49
419.015	2.69
419.377	2.76
419.738	2.88
420.1	2.74
420.461	2.69
420.822	2.89
421.184	2.74
421.545	2.85
421.906	2.71
422.267	2.84
422.629	2.79
422.99	2.73
423.351	2.82
423.712	2.74
424.073	2.86
424.434	2.9
424.795	2.67
425.155	2.7
425.516	2.75
425.877	2.87
426.238	2.77
426.598	2.89
426.959	2.94
427.32	2.8
427.68	2.79
428.041	2.93
428.401	2.86
428.761	2.94
429.122	2.88
429.482	3.02
429.842	2.81
430.202	2.98
430.563	2.82
430.923	3.02
431.283	3.15
431.643	3
432.003	3
432.363	3.13
432.722	3.09
433.082	3.03
433.442	3.19
433.802	3.02
434.161	3.07
434.521	3
434.881	2.92
435.24	2.96
435.6	3.12
435.959	3.03
436.319	3.24
436.678	3.23
437.037	3.02
437.396	3.05
437.756	3.01
438.115	3.03
438.474	3.18
438.833	3.05
439.192	2.99
439.551	3.02
439.91	3.13
440.269	3.04
440.628	2.95
440.987	3.09
441.345	3.06
441.704	3.04
442.063	3.07
442.421	3.12
442.78	3.06
443.138	3.05
443.497	3.07
443.855	3.24
444.214	2.94
444.572	3.24
444.93	3.06
445.288	3.16
445.647	3.04
446.005	3.15
446.363	3.17
446.721	3.05
447.079	3.05
447.437	3.2
447.795	3.19
448.153	3.13
448.51	3.12
448.868	3.07
449.226	3.16
449.584	3.01
449.941	3.18
450.299	3.31
450.656	3.11
451.014	3.34
451.371	3.24
451.729	3.09
452.086	3.09
452.443	3.3
452.801	3.25
453.158	3.37
453.515	3.09
453.872	3.16
454.229	3.12
454.586	3.11
454.943	3.29
455.3	3.21
455.657	3.13
456.014	3.29
456.371	3.31
456.727	3.21
457.084	3.36
457.441	3.21
457.797	3.22
458.154	3.25
458.51	3.07
458.867	3.24
459.223	3.13
459.58	3.24
459.936	3.37
460.292	3.21
460.648	3.14
461.005	3.2
461.361	3.21
461.717	3.14
462.073	3.28
462.429	3.39
462.785	3.43
463.141	3.34
463.496	3.32
463.852	3.26
464.208	3.29
464.564	3.26
464.919	3.23
465.275	3.37
465.631	3.49
465.986	3.46
466.342	3.35
466.697	3.33
467.052	3.52
467.408	3.39
467.763	3.31
468.118	3.23
468.473	3.39
468.829	3.37
469.184	3.55
469.539	3.34
469.894	3.51
470.249	3.35
470.603	3.51
470.958	3.48
471.313	3.52
471.668	3.47
472.023	3.3
472.377	3.3
472.732	3.41
473.086	3.32
473.441	3.45
473.795	3.6
474.15	3.25
474.504	3.37
474.859	3.29
475.213	3.47
475.567	3.41
475.921	3.47
476.275	3.39
476.63	3.56
476.984	3.31
477.338	3.56
477.692	3.58
478.045	3.38
478.399	3.41
478.753	3.47
479.107	3.46
479.461	3.48
479.814	3.5
480.168	3.44
480.521	3.47
480.875	3.31
481.228	3.35
481.582	3.29
481.935	3.48
482.289	3.49
482.642	3.56
482.995	3.41
483.348	3.35
483.701	3.43
484.055	3.36
484.408	3.33
484.761	3.18
485.114	3.16
485.466	3.15
485.819	3.15
486.172	3.22
486.525	3.24
486.878	3.3
487.23	3.24
487.583	3.34
487.936	3.3
488.288	3.29
488.641	3.3
488.993	3.2
489.345	3.21
489.698	3.27
490.05	3.26
490.402	3.27
490.754	3.33
491.107	3.32
491.459	3.4
491.811	3.45
492.163	3.39
492.515	3.34
492.866	3.22
493.218	3.28
493.57	3.35
493.922	3.3
494.274	3.4
494.625	3.5
494.977	3.45
495.328	3.51
495.68	3.44
496.031	3.5
496.383	3.38
496.734	3.48
497.086	3.5
497.437	3.55
497.788	3.59
498.139	3.55
498.49	3.57
498.842	3.63
499.193	3.4
499.544	3.47
499.894	3.42
500.245	3.62
500.596	3.57
500.947	3.46
501.298	3.5
501.648	3.62
501.999	3.47
502.35	3.41
502.7	3.71
503.051	3.44
503.401	3.52
503.752	3.44
504.102	3.52
504.452	3.35
504.803	3.39
505.153	3.59
505.503	3.57
505.853	3.61
506.203	3.6
506.553	3.45
506.903	3.59
507.253	3.47
507.603	3.45
507.953	3.48
508.303	3.47
508.652	3.37
509.002	3.6
509.352	3.52
509.701	3.36
510.051	3.53
510.4	3.54
510.75	3.46
511.099	3.41
511.449	3.56
511.798	3.48
512.147	3.5
512.496	3.71
512.846	3.43
513.195	3.49
513.544	3.58
513.893	3.55
514.242	3.5
514.591	3.51
514.939	3.58
515.288	3.55
515.637	3.54
515.986	3.45
516.334	3.56
516.683	3.67
517.032	3.56
517.38	3.43
517.729	3.41
518.077	3.55
518.426	3.54
518.774	3.38
519.122	3.49
519.47	3.48
519.819	3.44
520.167	3.43
520.515	3.42
520.863	3.47
521.211	3.4
521.559	3.36
521.907	3.57
522.255	3.52
522.602	3.51
522.95	3.58
523.298	3.52
523.645	3.52
523.993	3.52
524.341	3.55
524.688	3.5
525.036	3.5
525.383	3.52
525.73	3.46
526.078	3.57
526.425	3.45
526.772	3.38
527.119	3.44
527.466	3.45
527.814	3.41
528.161	3.54
528.508	3.56
528.854	3.49
529.201	3.36
529.548	3.32
529.895	3.26
530.242	3.25
530.588	3.26
530.935	3.36
531.282	3.34
531.628	3.39
531.975	3.37
532.321	3.45
532.667	3.49
533.014	3.6
533.36	3.55
533.706	3.45
534.052	3.41
534.399	3.42
534.745	3.38
535.091	3.37
535.437	3.42
535.783	3.38
536.129	3.47
536.474	3.5
536.82	3.54
537.166	3.37
537.512	3.42
537.857	3.47
538.203	3.45
538.549	3.42
538.894	3.47
539.239	3.51
539.585	3.52
539.93	3.55
540.276	3.46
540.621	3.63
540.966	3.55
541.311	3.48
541.656	3.4
542.001	3.37
542.346	3.43
542.691	3.29
543.036	3.36
543.381	3.33
543.726	3.4
544.071	3.39
544.415	3.41
544.76	3.41
545.105	3.4
545.449	3.4
545.794	3.55
546.138	3.47
546.483	3.53
546.827	3.5
547.171	3.62
547.516	3.46
547.86	3.48
548.204	3.48
548.548	3.43
548.892	3.51
549.236	3.52
549.58	3.53
549.924	3.67
550.268	3.64
550.612	3.68
550.956	3.66
551.3	3.64
551.643	3.49
551.987	3.63
552.33	3.74
552.674	3.66
553.017	3.73
553.361	3.66
553.704	3.57
554.048	3.64
554.391	3.61
554.734	3.5
555.077	3.47
555.42	3.57
555.764	3.7
556.107	3.8
556.45	3.8
556.793	3.72
557.135	3.7
557.478	3.76
557.821	3.61
558.164	3.75
558.507	3.48
558.849	3.76
559.192	3.48
559.534	3.52
559.877	3.72
560.219	3.77
560.562	3.64
560.904	3.93
561.246	3.57
561.589	3.82
561.931	3.59
562.273	3.55
562.615	3.61
562.957	3.66
563.299	3.63
563.641	3.69
563.983	3.54
564.325	3.77
564.667	3.65
565.008	3.69
565.35	3.57
565.692	3.61
566.033	3.64
566.375	3.59
566.716	3.52
567.058	3.6
567.399	3.63
567.741	3.58
568.082	3.64
568.423	3.62
568.764	3.55
569.105	3.72
569.447	3.5
569.788	3.79
570.129	3.61
570.47	3.71
570.811	3.6
571.151	3.67
571.492	3.61
571.833	3.54
572.174	3.72
572.514	3.59
572.855	3.68
573.195	3.49
573.536	3.67
573.876	3.53
574.217	3.58
574.557	3.47
574.898	3.48
575.238	3.75
575.578	3.66
575.918	3.59
576.258	3.8
576.598	3.7
576.938	3.63
577.278	3.59
577.618	3.62
577.958	3.57
578.298	3.59
578.638	3.66
578.977	3.74
579.317	3.73
579.657	3.72
579.996	3.9
580.336	3.65
580.675	3.64
581.014	3.73
581.354	3.54
581.693	3.8
582.032	3.78
582.372	3.88
582.711	3.87
583.05	3.79
583.389	3.79
583.728	3.93
584.067	3.52
584.406	3.77
584.745	3.6
585.083	3.76
585.422	3.83
585.761	3.92
586.1	3.67
586.438	3.73
586.777	3.79
587.115	3.82
587.454	3.8
587.792	3.66
588.13	3.71
588.469	3.64
588.807	3.93
589.145	3.83
589.483	3.62
589.821	3.9
590.159	3.7
590.497	3.73
590.835	3.9
591.173	3.82
591.511	3.85
591.849	3.71
592.187	3.58
592.524	3.88
592.862	3.68
593.2	3.66
593.537	3.74
593.875	3.83
594.212	3.9
594.55	3.72
594.887	3.87
595.224	4.06
595.561	3.61
595.899	3.73
596.236	3.82
596.573	3.7
596.91	3.75
597.247	3.75
597.584	3.93
597.921	3.86
598.258	3.84
598.594	3.61
598.931	3.55
599.268	3.63
599.604	3.68
599.941	3.81
600.277	3.58
600.614	3.55
600.95	3.67
601.287	3.67
601.623	3.63
601.959	4.06
602.296	3.75
602.632	3.59
602.968	3.71
603.304	3.61
603.64	3.74
603.976	3.67
604.312	3.59
604.648	3.57
604.984	3.76
605.319	3.89
605.655	3.67
605.991	3.67
606.326	3.61
606.662	3.45
606.998	3.83
607.333	3.75
607.668	3.74
608.004	3.72
608.339	3.83
608.674	3.99
609.01	4.14
609.345	3.91
609.68	3.63
610.015	3.97
610.35	3.81
610.685	3.68
611.02	3.75
611.355	3.89
611.689	3.59
612.024	3.73
612.359	3.89
612.694	3.78
613.028	3.62
613.363	3.92
613.697	3.77
614.032	3.88
614.366	3.74
614.7	4.05
615.035	3.74
615.369	3.87
615.703	4.1
616.037	4
616.371	3.55
616.705	4.09
617.039	3.75
617.373	4.2
617.707	3.96
618.041	3.62
618.375	3.35
618.709	3.84
619.042	4.03
619.376	4.07
619.71	3.91
620.043	4.24
620.377	3.51
620.71	3.82
621.043	3.64
621.377	3.77
621.71	4.12
622.043	3.97
622.376	3.65
622.709	4.36
623.043	4.1
623.376	3.68
623.709	4.13
624.041	4.06
624.374	3.77
624.707	3.81
625.04	3.74
625.373	4.08
625.705	4.08
626.038	4.15
626.37	3.68
626.703	3.72
627.035	3.77
627.368	4.13
627.7	4.1
628.032	3.79
628.365	4.04
628.697	4.07
629.029	3.73
629.361	3.99
629.693	4.03
630.025	3.93
630.357	3.95
630.689	4.09
631.021	3.94
631.353	3.73
631.684	3.82
632.016	3.63
632.348	3.77
632.679	3.89
633.011	3.67
633.342	3.81
633.674	3.93
634.005	4.06
634.336	4.01
634.668	4.16
634.999	3.75
635.33	4.12
635.661	3.79
635.992	3.85
636.323	3.96
636.654	3.89
636.985	3.71
637.316	3.77
637.647	3.9
637.977	3.95
638.308	3.92
638.639	3.95
638.969	3.61
639.3	4.15
639.63	3.76
639.961	4.07
640.291	4.02
640.622	4.11
640.952	4.22
641.282	3.7
641.612	3.95
641.943	4.12
642.273	3.59
642.603	4.16
642.933	4.42
643.263	4.26
643.592	3.94
643.922	4.52
644.252	4.07
644.582	4.13
644.911	3.96
645.241	3.61
645.571	4.21
645.9	4.25
646.23	4.52
646.559	3.7
646.888	4.01
647.218	4.01
647.547	3.74
647.876	3.9
648.205	4.06
648.534	3.88
648.863	3.87
649.192	4.03
649.521	4.19
649.85	4.35
650.179	4.36
650.508	3.62
650.837	4.37
651.165	3.87
651.494	3.73
651.822	4.01
652.151	4.27
652.479	4.08
652.808	4.09
653.136	3.54
653.465	4.01
653.793	3.9
654.121	4.15
654.449	3.55
654.777	3.56
655.105	3.44
655.433	4.21
655.761	4.09
656.089	3.87
656.417	4.71
656.745	4.1
657.073	3.98
657.4	3.96
657.728	3.88
658.056	3.63
658.383	3.69
658.711	3.89
659.038	4.2
659.365	4.09
659.693	3.96
660.02	3.9
660.347	3.89
660.674	3.56
661.001	4.02
661.329	4.04
661.656	3.88
661.982	3.72
662.309	3.88
662.636	4.03
662.963	3.85
663.29	3.92
663.616	3.5
663.943	4.22
664.27	4.07
664.596	3.47
664.923	4.41
665.249	4.29
665.576	3.9
665.902	3.65
666.228	4.44
666.554	4.57
666.881	3.84
667.207	4.36
667.533	4.13
667.859	4.08
668.185	4.04
668.511	4.12
668.837	3.92
669.162	4.15
669.488	3.49
669.814	3.77
670.139	3.67
670.465	4.3
670.791	3.75
671.116	4.01
671.442	3.92
671.767	3.97
672.092	4.3
672.418	3.92
672.743	4.02
673.068	3.93
673.393	4.31
673.718	3.68
674.043	3.52
674.368	4.14
674.693	3.72
675.018	4.76
675.343	4.65
675.667	3.75
675.992	3.93
676.317	3.83
676.641	4.18
676.966	4.7
677.29	3.03
677.615	3.6
677.939	4.75
678.264	4.01
678.588	4.13
678.912	3.74
679.236	4.06
679.56	3.38
679.885	3.63
680.209	4.52
680.532	4.42
680.856	4.99
681.18	4.38
681.504	4.2
681.828	3.76
682.152	3.93
682.475	3.79
682.799	3.78
683.122	4.11
683.446	2.92
683.769	4.83
684.093	3.97
684.416	3.55
684.739	3.9
685.062	4.31
685.386	4.23
685.709	4.04
686.032	4.3
686.355	4.23
686.678	4.74
687.001	3.74
687.324	4.03
687.646	4.27
687.969	4.56
688.292	4.1
688.614	3.91
688.937	4.28
689.26	3.92
689.582	4.13
689.904	4.55
690.227	4.73
690.549	4.45
690.871	3.4
691.194	3.54
691.516	4.34
691.838	4.52
692.16	3.79
692.482	4.09
692.804	3.9
