Data from 21-12_forehead_Reflection__3__88.txt Node

Date: Thu Dec 15 17:06:36 CST 2022
User: ToomeyLab
Spectrometer: FLMS14357
Trigger mode: 0
Integration Time (sec): 1.000000E-2
Scans to average: 100
Electric dark correction enabled: true
Nonlinearity correction enabled: false
Boxcar width: 0
XAxis mode: Wavelengths
Number of Pixels in Spectrum: 2048
>>>>>Begin Spectral Data<<<<<
189.047	88.04
189.435	88.04
189.823	88.04
190.211	4197.3
190.599	50.92
190.987	72.11
191.375	247.98
191.763	69.54
192.151	-87.38
192.538	193.98
192.926	-202.2
193.314	131.91
193.702	-33.83
194.089	-2.72
194.477	264.17
194.864	51.52
195.252	21.68
195.639	97.05
196.027	52.27
196.414	42.1
196.801	110.42
197.189	437.45
197.576	66.14
197.963	-1344.21
198.351	5.26
198.738	-33.14
199.125	-37.64
199.512	2.88
199.899	-53.37
200.286	-7.8
200.673	54.34
201.06	12.25
201.447	6.88
201.833	-16.39
202.22	1.79
202.607	-33.77
202.994	-7.88
203.38	36.22
203.767	-29.42
204.154	-0.54
204.54	4.54
204.927	14.76
205.313	61.16
205.699	9.37
206.086	3.31
206.472	21.76
206.858	8.92
207.245	7.78
207.631	23.49
208.017	24.21
208.403	-37.08
208.789	11.11
209.175	9.63
209.561	-53.17
209.947	22.75
210.333	29.06
210.719	13.76
211.105	33.62
211.491	34.45
211.876	-38.45
212.262	29.63
212.648	-9.1
213.034	-1.25
213.419	27.97
213.805	0.94
214.19	-33.32
214.576	-14.53
214.961	19.37
215.346	-12.58
215.732	-7.85
216.117	-2.28
216.502	11.82
216.888	18.8
217.273	-11.72
217.658	10.92
218.043	5.24
218.428	-22.27
218.813	13.23
219.198	-30.31
219.583	-8.73
219.968	-0.16
220.353	-27.3
220.738	-3.2
221.122	-6.34
221.507	-6.84
221.892	-7.45
222.276	-14.4
222.661	0.43
223.046	-7.86
223.43	14.95
223.815	5.49
224.199	4.21
224.583	-9.56
224.968	-10.14
225.352	-3.92
225.736	15.51
226.121	-6.92
226.505	1.29
226.889	-1.67
227.273	0.25
227.657	4.92
228.041	5.97
228.425	2.77
228.809	-0.69
229.193	2.64
229.577	2.13
229.961	2.19
230.344	2.64
230.728	3.74
231.112	4.45
231.495	1.36
231.879	2.82
232.263	2.31
232.646	2.11
233.03	3.92
233.413	3.95
233.797	0.04
234.18	4.11
234.563	5.94
234.946	2.79
235.33	3.26
235.713	4.01
236.096	3.57
236.479	3.7
236.862	2.28
237.245	3.88
237.628	3.32
238.011	1.31
238.394	2.04
238.777	2.05
239.16	4.78
239.543	3.92
239.925	3.62
240.308	2.06
240.691	2.16
241.073	2.21
241.456	3.09
241.838	2.73
242.221	2.74
242.603	3.68
242.986	3.61
243.368	2.79
243.75	3.16
244.133	3.57
244.515	3.2
244.897	2.56
245.279	2.82
245.661	2.86
246.043	3.67
246.425	3.6
246.807	2.3
247.189	3.52
247.571	2.83
247.953	2.87
248.335	2.96
248.717	3.24
249.098	3.27
249.48	3.14
249.862	3.16
250.243	3.19
250.625	3.21
251.006	3.69
251.388	2.55
251.769	2.87
252.151	3.78
252.532	2.68
252.913	2.8
253.295	2.59
253.676	3.39
254.057	3.2
254.438	3.43
254.819	3.69
255.2	3.62
255.581	3.89
255.962	3.74
256.343	4.06
256.724	3.98
257.105	2.64
257.486	1.62
257.867	2.56
258.247	2.8
258.628	2.78
259.009	1.5
259.389	2.39
259.77	2.64
260.15	3.47
260.531	2.78
260.911	2.85
261.292	3.03
261.672	2.96
262.052	3.11
262.432	2.66
262.813	3.23
263.193	3.22
263.573	2.72
263.953	2.93
264.333	2.92
264.713	2.4
265.093	3.02
265.473	1.99
265.853	2.53
266.233	2.83
266.612	3.23
266.992	1.99
267.372	2.31
267.752	3.22
268.131	2.8
268.511	2.75
268.89	3.19
269.27	2.27
269.649	2.58
270.029	2.69
270.408	2.82
270.787	3.16
271.167	3.27
271.546	3.72
271.925	2.87
272.304	2.81
272.683	2.42
273.062	2.75
273.441	2.51
273.82	2.84
274.199	2.64
274.578	2.8
274.957	2.39
275.336	3.24
275.715	2.91
276.093	2
276.472	2.19
276.851	2.69
277.229	2.95
277.608	2.25
277.986	2.72
278.365	3.47
278.743	2.84
279.122	2.29
279.5	2.91
279.878	2.52
280.257	2.75
280.635	2.83
281.013	1.99
281.391	2.28
281.769	2.71
282.147	2.87
282.525	2.73
282.903	2.47
283.281	3.02
283.659	3.04
284.037	2.67
284.415	3.26
284.792	3.41
285.17	2.57
285.548	2.26
285.925	2.87
286.303	3.38
286.68	2.74
287.058	2.75
287.435	2.79
287.813	2.97
288.19	2.65
288.567	2.88
288.945	2.67
289.322	2.78
289.699	3.07
290.076	2.85
290.453	2.98
290.83	3.05
291.207	2.7
291.584	3.15
291.961	3.02
292.338	3.15
292.715	3.38
293.092	3.27
293.469	3.06
293.845	3.21
294.222	3.47
294.599	2.73
294.975	2.1
295.352	3.43
295.728	2.9
296.105	3.3
296.481	3.1
296.858	3.16
297.234	3.28
297.61	3.27
297.986	3.67
298.363	3.21
298.739	3.32
299.115	3.26
299.491	3.81
299.867	3.06
300.243	3.09
300.619	2.78
300.995	3.11
301.371	3.77
301.746	3.15
302.122	3.04
302.498	3.41
302.874	3.46
303.249	3.52
303.625	3.22
304	3.74
304.376	4.25
304.751	3.85
305.127	3.57
305.502	3.51
305.878	3.42
306.253	3.54
306.628	3.7
307.003	3.91
307.378	3.46
307.754	3.92
308.129	3.35
308.504	4.15
308.879	4.07
309.254	4.22
309.629	4.31
310.003	3.63
310.378	4.09
310.753	4.07
311.128	4.06
311.502	3.93
311.877	3.97
312.252	3.85
312.626	4.25
313.001	4.11
313.375	4.14
313.75	4.15
314.124	4.38
314.498	4.51
314.873	3.78
315.247	4.25
315.621	4.03
315.995	4.28
316.369	3.94
316.743	3.9
317.117	4.04
317.491	4.31
317.865	3.7
318.239	4.57
318.613	4.2
318.987	3.71
319.361	4.11
319.734	4.45
320.108	3.73
320.482	4.9
320.855	4.22
321.229	4.94
321.602	4.87
321.976	4.2
322.349	4.84
322.723	4.09
323.096	4.61
323.469	4.51
323.843	4.16
324.216	4.18
324.589	4.18
324.962	4.67
325.335	4.29
325.708	4.44
326.081	4.6
326.454	4.98
326.827	4.49
327.2	4.91
327.573	4.72
327.945	4.32
328.318	4.21
328.691	4.81
329.063	4.07
329.436	4.47
329.809	4.89
330.181	5.07
330.553	5
330.926	5.02
331.298	4.71
331.671	4.8
332.043	4.55
332.415	5.06
332.787	5.28
333.159	5.09
333.532	5.38
333.904	4.69
334.276	4.71
334.648	4.93
335.02	4.95
335.391	4.7
335.763	4.81
336.135	5.2
336.507	4.76
336.879	4.52
337.25	4.76
337.622	4.83
337.993	5.06
338.365	4.82
338.736	4.95
339.108	4.87
339.479	4.77
339.851	4.95
340.222	5.15
340.593	4.85
340.964	4.71
341.336	4.94
341.707	4.96
342.078	4.84
342.449	5.23
342.82	5.17
343.191	5.06
343.562	5.27
343.933	5
344.303	5.18
344.674	5.23
345.045	4.94
345.416	5.45
345.786	5.36
346.157	5.49
346.527	5.15
346.898	4.89
347.268	5.2
347.639	4.72
348.009	5.28
348.38	5.16
348.75	5.26
349.12	5.44
349.49	5.15
349.861	5.16
350.231	5.23
350.601	5.01
350.971	5.18
351.341	5.79
351.711	5.32
352.081	4.89
352.45	4.52
352.82	4.78
353.19	5.05
353.56	5.01
353.929	5.48
354.299	5.35
354.669	5.36
355.038	5.52
355.408	5.27
355.777	5.6
356.147	5.07
356.516	5.16
356.885	5.16
357.254	5.3
357.624	5.02
357.993	5.33
358.362	5.48
358.731	5.32
359.1	5.34
359.469	5.49
359.838	5.47
360.207	5.55
360.576	5.56
360.945	5.5
361.314	5.38
361.682	5.44
362.051	5.57
362.42	5.66
362.788	5.57
363.157	5.53
363.525	5.47
363.894	5.48
364.262	5.71
364.631	5.54
364.999	5.51
365.367	5.67
365.735	5.31
366.104	5.33
366.472	5.45
366.84	5.54
367.208	5.91
367.576	5.64
367.944	5.87
368.312	5.52
368.68	5.87
369.048	5.49
369.416	5.51
369.783	5.6
370.151	5.68
370.519	6.07
370.886	5.75
371.254	5.81
371.621	5.96
371.989	6.01
372.356	5.85
372.724	5.46
373.091	5.45
373.458	5.45
373.826	6.13
374.193	5.55
374.56	5.88
374.927	5.69
375.294	6.09
375.661	5.94
376.028	5.58
376.395	5.95
376.762	5.68
377.129	5.48
377.496	5.8
377.863	5.88
378.229	6.13
378.596	5.84
378.963	5.83
379.329	6.23
379.696	5.6
380.062	6.02
380.429	5.8
380.795	6.12
381.161	5.72
381.528	5.56
381.894	5.92
382.26	6.09
382.626	6.18
382.993	6.35
383.359	5.78
383.725	5.73
384.091	6.16
384.457	5.99
384.823	5.83
385.188	5.77
385.554	6.02
385.92	5.96
386.286	6.06
386.651	5.83
387.017	6.23
387.383	5.86
387.748	6.15
388.114	6.34
388.479	6.14
388.845	5.92
389.21	6.39
389.575	6.29
389.94	6.08
390.306	6.09
390.671	6.04
391.036	5.93
391.401	6.25
391.766	6.08
392.131	6.21
392.496	6.24
392.861	6.11
393.226	5.92
393.591	6.18
393.956	5.98
394.32	6.12
394.685	5.85
395.05	6
395.414	6.09
395.779	6.15
396.143	6
396.508	5.91
396.872	6.02
397.236	6.23
397.601	5.95
397.965	6.13
398.329	6.06
398.694	6.02
399.058	6.19
399.422	6.17
399.786	5.95
400.15	6.08
400.514	6.31
400.878	6.26
401.242	5.89
401.605	6.04
401.969	6.14
402.333	5.93
402.697	6.27
403.06	6.05
403.424	6.01
403.787	6.06
404.151	6.26
404.514	6.18
404.878	5.97
405.241	6.24
405.604	6.06
405.968	6.13
406.331	6.25
406.694	6.11
407.057	6.18
407.42	6.26
407.783	6.09
408.146	6.08
408.509	6.14
408.872	6.01
409.235	6.23
409.598	6.06
409.961	6.36
410.323	6.19
410.686	6.29
411.049	6.07
411.411	6.15
411.774	5.93
412.136	6.08
412.499	6.22
412.861	5.65
413.223	6.16
413.586	6.31
413.948	6.41
414.31	6.23
414.672	6.23
415.035	6.45
415.397	6.15
415.759	6.09
416.121	6.17
416.483	6.27
416.845	6.17
417.206	6.02
417.568	6.15
417.93	6.3
418.292	5.94
418.653	5.9
419.015	6.19
419.377	6.05
419.738	6.21
420.1	6.23
420.461	6.13
420.822	6.31
421.184	6.28
421.545	6.14
421.906	6.2
422.267	6.25
422.629	6.25
422.99	6.12
423.351	6.22
423.712	6.26
424.073	6.36
424.434	6.51
424.795	6.38
425.155	6.26
425.516	6.29
425.877	6.33
426.238	6.4
426.598	6.45
426.959	6.47
427.32	6.42
427.68	6.5
428.041	6.62
428.401	6.56
428.761	6.6
429.122	6.67
429.482	6.55
429.842	6.72
430.202	6.74
430.563	6.59
430.923	6.84
431.283	6.78
431.643	6.83
432.003	6.77
432.363	7.08
432.722	6.93
433.082	6.61
433.442	7.02
433.802	6.82
434.161	6.89
434.521	6.93
434.881	6.87
435.24	6.8
435.6	6.94
435.959	6.94
436.319	6.95
436.678	7.06
437.037	7.03
437.396	7.02
437.756	6.96
438.115	6.98
438.474	7.03
438.833	7.09
439.192	7.08
439.551	6.89
439.91	7.24
440.269	7.16
440.628	7.15
440.987	7.13
441.345	7.2
441.704	7.16
442.063	7.1
442.421	7.14
442.78	7.2
443.138	7.25
443.497	7.16
443.855	7.43
444.214	7.15
444.572	7.33
444.93	7.3
445.288	7.37
445.647	7.2
446.005	7.46
446.363	7.39
446.721	7.4
447.079	7.35
447.437	7.38
447.795	7.38
448.153	7.34
448.51	7.39
448.868	7.2
449.226	7.4
449.584	7.52
449.941	7.52
450.299	7.54
450.656	7.47
451.014	7.6
451.371	7.71
451.729	7.59
452.086	7.63
452.443	7.72
452.801	7.58
453.158	7.84
453.515	7.7
453.872	7.67
454.229	7.58
454.586	7.49
454.943	7.73
455.3	7.86
455.657	7.73
456.014	7.78
456.371	7.81
456.727	8.01
457.084	7.97
457.441	7.88
457.797	7.76
458.154	7.89
458.51	7.84
458.867	7.96
459.223	7.87
459.58	8.05
459.936	7.88
460.292	7.96
460.648	7.88
461.005	7.82
461.361	7.82
461.717	7.89
462.073	7.92
462.429	8
462.785	8.02
463.141	8.02
463.496	8.04
463.852	8.14
464.208	7.98
464.564	8.05
464.919	8.08
465.275	8.12
465.631	8.33
465.986	8.43
466.342	8.19
466.697	8.21
467.052	8.26
467.408	8.37
467.763	8.26
468.118	8.13
468.473	8.25
468.829	8.13
469.184	8.16
469.539	8.17
469.894	8.2
470.249	8.39
470.603	8.4
470.958	8.34
471.313	8.47
471.668	8.39
472.023	8.43
472.377	8.15
472.732	8.36
473.086	8.39
473.441	8.34
473.795	8.46
474.15	8.5
474.504	8.42
474.859	8.26
475.213	8.74
475.567	8.47
475.921	8.64
476.275	8.5
476.63	8.57
476.984	8.47
477.338	8.59
477.692	8.57
478.045	8.51
478.399	8.61
478.753	8.48
479.107	8.66
479.461	8.59
479.814	8.63
480.168	8.65
480.521	8.56
480.875	8.69
481.228	8.62
481.582	8.63
481.935	8.71
482.289	8.62
482.642	8.75
482.995	8.67
483.348	8.59
483.701	8.59
484.055	8.58
484.408	8.5
484.761	8.42
485.114	8.26
485.466	8.31
485.819	8.32
486.172	8.37
486.525	8.39
486.878	8.49
487.23	8.48
487.583	8.62
487.936	8.59
488.288	8.67
488.641	8.5
488.993	8.53
489.345	8.52
489.698	8.53
490.05	8.54
490.402	8.63
490.754	8.66
491.107	8.64
491.459	8.8
491.811	8.83
492.163	8.79
492.515	8.72
492.866	8.65
493.218	8.63
493.57	8.79
493.922	8.8
494.274	8.86
494.625	8.96
494.977	8.9
495.328	8.93
495.68	8.98
496.031	9.06
496.383	9.12
496.734	9.1
497.086	9.28
497.437	9.21
497.788	9.25
498.139	9.07
498.49	9.1
498.842	9.08
499.193	9.18
499.544	9.15
499.894	9.05
500.245	9.19
500.596	9.19
500.947	9.24
501.298	9.24
501.648	9.13
501.999	9.26
502.35	9.24
502.7	9.36
503.051	9.31
503.401	9.43
503.752	9.29
504.102	9.32
504.452	9.23
504.803	9.37
505.153	9.48
505.503	9.38
505.853	9.51
506.203	9.47
506.553	9.41
506.903	9.48
507.253	9.53
507.603	9.5
507.953	9.42
508.303	9.45
508.652	9.43
509.002	9.62
509.352	9.6
509.701	9.41
510.051	9.56
510.4	9.61
510.75	9.44
511.099	9.42
511.449	9.5
511.798	9.48
512.147	9.47
512.496	9.6
512.846	9.48
513.195	9.54
513.544	9.67
513.893	9.52
514.242	9.63
514.591	9.65
514.939	9.71
515.288	9.67
515.637	9.59
515.986	9.65
516.334	9.74
516.683	9.62
517.032	9.69
517.38	9.77
517.729	9.69
518.077	9.78
518.426	9.81
518.774	9.7
519.122	9.75
519.47	9.63
519.819	9.67
520.167	9.62
520.515	9.68
520.863	9.68
521.211	9.71
521.559	9.54
521.907	9.79
522.255	9.7
522.602	9.87
522.95	9.84
523.298	9.88
523.645	9.92
523.993	9.79
524.341	9.88
524.688	9.78
525.036	9.99
525.383	9.89
525.73	9.88
526.078	9.93
526.425	9.81
526.772	9.79
527.119	9.85
527.466	9.74
527.814	9.81
528.161	9.89
528.508	9.88
528.854	9.83
529.201	9.71
529.548	9.64
529.895	9.53
530.242	9.6
530.588	9.61
530.935	9.66
531.282	9.58
531.628	9.68
531.975	9.8
532.321	9.86
532.667	9.89
533.014	9.92
533.36	9.95
533.706	9.97
534.052	9.98
534.399	9.93
534.745	9.82
535.091	9.8
535.437	9.86
535.783	9.88
536.129	9.91
536.474	10.01
536.82	10.04
537.166	10.03
537.512	10.06
537.857	10.11
538.203	10.08
538.549	10.08
538.894	10.06
539.239	10.23
539.585	10.14
539.93	10.16
540.276	10.15
540.621	10.37
540.966	10.34
541.311	10.31
541.656	10.2
542.001	10.16
542.346	10.11
542.691	9.95
543.036	10.04
543.381	10.02
543.726	10.2
544.071	10.08
544.415	10.22
544.76	10.16
545.105	10.29
545.449	10.26
545.794	10.26
546.138	10.39
546.483	10.45
546.827	10.39
547.171	10.5
547.516	10.54
547.86	10.52
548.204	10.57
548.548	10.43
548.892	10.49
549.236	10.43
549.58	10.41
549.924	10.63
550.268	10.66
550.612	10.64
550.956	10.73
551.3	10.8
551.643	10.61
551.987	10.85
552.33	10.93
552.674	10.72
553.017	10.98
553.361	10.82
553.704	10.81
554.048	10.85
554.391	10.91
554.734	10.71
555.077	10.82
555.42	10.74
555.764	10.85
556.107	10.94
556.45	10.93
556.793	10.94
557.135	10.96
557.478	10.81
557.821	10.92
558.164	11.04
558.507	10.89
558.849	11.13
559.192	10.89
559.534	11.13
559.877	11.02
560.219	10.95
560.562	10.97
560.904	11.19
561.246	11.04
561.589	11.31
561.931	11.07
562.273	10.96
562.615	11.02
562.957	11.05
563.299	11.16
563.641	11.07
563.983	10.73
564.325	11.22
564.667	11.16
565.008	11.14
565.35	11.23
565.692	11.08
566.033	11.07
566.375	11.31
566.716	11.08
567.058	11.18
567.399	11.27
567.741	11.21
568.082	11.32
568.423	11.3
568.764	11.28
569.105	11.36
569.447	11.29
569.788	11.25
570.129	11.25
570.47	11.32
570.811	11.24
571.151	11.38
571.492	11.42
571.833	11.25
572.174	11.59
572.514	11.39
572.855	11.48
573.195	11.42
573.536	11.46
573.876	11.37
574.217	11.32
574.557	11.44
574.898	11.43
575.238	11.58
575.578	11.6
575.918	11.51
576.258	11.56
576.598	11.39
576.938	11.6
577.278	11.58
577.618	11.63
577.958	11.54
578.298	11.53
578.638	11.57
578.977	11.7
579.317	11.65
579.657	11.65
579.996	11.59
580.336	11.71
580.675	11.6
581.014	11.9
581.354	11.67
581.693	11.96
582.032	11.97
582.372	11.81
582.711	11.99
583.05	11.77
583.389	11.94
583.728	12.18
584.067	11.82
584.406	11.94
584.745	12.07
585.083	11.88
585.422	12.16
585.761	12.16
586.1	11.93
586.438	11.99
586.777	12.1
587.115	12.16
587.454	12.02
587.792	12.08
588.13	12.15
588.469	12.08
588.807	12.25
589.145	11.98
589.483	11.95
589.821	12.22
590.159	12.01
590.497	12.09
590.835	12.3
591.173	12.44
591.511	12.14
591.849	12.12
592.187	12.29
592.524	11.88
592.862	12.2
593.2	12.25
593.537	12.29
593.875	12.33
594.212	12.39
594.55	12.34
594.887	12.51
595.224	12.35
595.561	12.24
595.899	12.33
596.236	12.25
596.573	12.29
596.91	12.2
597.247	12.56
597.584	12.51
597.921	12.36
598.258	12.41
598.594	12.21
598.931	12.15
599.268	12.28
599.604	12.54
599.941	12.38
600.277	12.5
600.614	12.48
600.95	12.6
601.287	12.3
601.623	12.37
601.959	12.72
602.296	12.55
602.632	12.88
602.968	12.61
603.304	12.86
603.64	12.59
603.976	12.46
604.312	12.42
604.648	12.58
604.984	12.56
605.319	12.7
605.655	12.66
605.991	12.55
606.326	12.56
606.662	12.45
606.998	12.61
607.333	12.7
607.668	12.61
608.004	12.7
608.339	12.68
608.674	12.67
609.01	13.05
609.345	12.79
609.68	12.57
610.015	12.86
610.35	12.86
610.685	12.51
611.02	12.76
611.355	12.76
611.689	12.75
612.024	12.77
612.359	12.85
612.694	12.92
613.028	12.78
613.363	12.8
613.697	13.12
614.032	12.85
614.366	12.86
614.7	12.99
615.035	12.91
615.369	13.06
615.703	13.32
616.037	12.91
616.371	13.23
616.705	13.43
617.039	13.31
617.373	13.33
617.707	12.88
618.041	13.27
618.375	12.84
618.709	13.22
619.042	13.03
619.376	13.08
619.71	13.28
620.043	13.29
620.377	13.43
620.71	13.28
621.043	13.5
621.377	13.48
621.71	13.75
622.043	13.56
622.376	13.72
622.709	13.61
623.043	13.36
623.376	13.15
623.709	13.41
624.041	13.58
624.374	13.19
624.707	13.34
625.04	13.34
625.373	13.48
625.705	13.64
626.038	13.33
626.37	13.17
626.703	13.43
627.035	13.72
627.368	13.78
627.7	13.61
628.032	13.63
628.365	13.36
628.697	13.65
629.029	13.35
629.361	13.75
629.693	13.46
630.025	13.78
630.357	13.59
630.689	13.51
631.021	13.59
631.353	13.37
631.684	13.41
632.016	13.22
632.348	13.55
632.679	13.65
633.011	13.34
633.342	13.99
633.674	13.32
634.005	13.57
634.336	14.37
634.668	13.75
634.999	13.39
635.33	13.85
635.661	13.78
635.992	13.93
636.323	13.88
636.654	13.77
636.985	13.77
637.316	13.69
637.647	13.81
637.977	13.71
638.308	14.32
638.639	13.93
638.969	13.86
639.3	13.8
639.63	14.02
639.961	14.2
640.291	13.92
640.622	13.95
640.952	14.18
641.282	13.66
641.612	14.24
641.943	13.97
642.273	13.74
642.603	14.57
642.933	14.5
643.263	14.29
643.592	14.15
643.922	14.45
644.252	13.83
644.582	14.58
644.911	14.15
645.241	14.11
645.571	14.16
645.9	14.14
646.23	14.75
646.559	14.02
646.888	14.32
647.218	14.41
647.547	14.58
647.876	14.1
648.205	13.75
648.534	14.3
648.863	13.58
649.192	14.51
649.521	14.32
649.85	14.36
650.179	14.41
650.508	14.48
650.837	14.67
651.165	14.92
651.494	14.56
651.822	14.19
652.151	14.13
652.479	14.36
652.808	14.69
653.136	14.07
653.465	14.31
653.793	14.61
654.121	14.29
654.449	13.9
654.777	13.92
655.105	14.01
655.433	14.64
655.761	14.97
656.089	14.42
656.417	14.53
656.745	14.81
657.073	14.62
657.4	14.04
657.728	13.88
658.056	14.7
658.383	14.64
658.711	14.73
659.038	14.61
659.365	15.15
659.693	14.45
660.02	14.51
660.347	14.45
660.674	14.68
661.001	14.39
661.329	14.5
661.656	14.55
661.982	14.6
662.309	14.72
662.636	14.31
662.963	14.45
663.29	14.76
663.616	14.62
663.943	14.73
664.27	14.58
664.596	14.64
664.923	14.99
665.249	15.68
665.576	14.14
665.902	14.71
666.228	14.99
666.554	15.26
666.881	14.42
667.207	15.06
667.533	14.58
667.859	14.89
668.185	14.92
668.511	15.34
668.837	15.06
669.162	15.16
669.488	14.64
669.814	14.98
670.139	15.02
670.465	15.12
670.791	14.34
671.116	14.6
671.442	14.39
671.767	15.02
672.092	14.87
672.418	15.18
672.743	15.12
673.068	15.15
673.393	15.13
673.718	14.94
674.043	15.32
674.368	15.4
674.693	15.31
675.018	15.88
675.343	15.92
675.667	14.94
675.992	15.07
676.317	14.29
676.641	15.43
676.966	15.2
677.29	14.65
677.615	15.3
677.939	15.49
678.264	15.24
678.588	14.95
678.912	15.28
679.236	14.62
679.56	15.44
679.885	14.98
680.209	15.62
680.532	15.66
680.856	15.79
681.18	15.98
681.504	15.44
681.828	15.14
