Data from 21-12_chest_Reflection__4__79.txt Node

Date: Thu Dec 15 17:03:41 CST 2022
User: ToomeyLab
Spectrometer: FLMS14357
Trigger mode: 0
Integration Time (sec): 1.000000E-2
Scans to average: 100
Electric dark correction enabled: true
Nonlinearity correction enabled: false
Boxcar width: 0
XAxis mode: Wavelengths
Number of Pixels in Spectrum: 2048
>>>>>Begin Spectral Data<<<<<
189.047	-52.82
189.435	-52.82
189.823	-52.82
190.211	-454.05
190.599	102.09
190.987	-146.47
191.375	12.63
191.763	299.75
192.151	309.55
192.538	-155.28
192.926	-104.23
193.314	86.84
193.702	-50.63
194.089	-19.33
194.477	416.3
194.864	193.7
195.252	123.88
195.639	112.28
196.027	44.62
196.414	262.75
196.801	-11.17
197.189	165
197.576	24.99
197.963	4488.42
198.351	5.85
198.738	14.13
199.125	69.1
199.512	10.74
199.899	-45.26
200.286	-24.35
200.673	41.32
201.06	-12.19
201.447	59.55
201.833	0.58
202.22	-0.49
202.607	-54.39
202.994	-9.62
203.38	-22.24
203.767	-4.24
204.154	31.4
204.54	22.52
204.927	32.14
205.313	31.47
205.699	27.43
206.086	37.38
206.472	30.55
206.858	33.15
207.245	-6.3
207.631	6.71
208.017	39.2
208.403	-38.1
208.789	9.15
209.175	-20.35
209.561	-24.66
209.947	-9.72
210.333	16.74
210.719	8.43
211.105	38.44
211.491	-1.76
211.876	-27.69
212.262	39.51
212.648	12.01
213.034	2.52
213.419	13.64
213.805	-2.94
214.19	-3.85
214.576	1.06
214.961	5.52
215.346	-25.33
215.732	11.75
216.117	20.72
216.502	8.67
216.888	26.47
217.273	7.45
217.658	20.49
218.043	-12.93
218.428	-19.08
218.813	12.3
219.198	0.5
219.583	-22.44
219.968	12.13
220.353	9.19
220.738	6.71
221.122	-4.78
221.507	0.99
221.892	-6.6
222.276	-17.97
222.661	4.66
223.046	-7.36
223.43	8.72
223.815	3.88
224.199	-4.09
224.583	-7.72
224.968	-2.91
225.352	-1.05
225.736	8.06
226.121	4.21
226.505	-6.81
226.889	3.48
227.273	-4.85
227.657	4.72
228.041	4.15
228.425	2.99
228.809	2.88
229.193	4.67
229.577	2.84
229.961	2.72
230.344	4.15
230.728	4.34
231.112	3.84
231.495	3.52
231.879	3.36
232.263	4.44
232.646	2.08
233.03	4.98
233.413	5.47
233.797	5.46
234.18	5.55
234.563	3.77
234.946	4.81
235.33	3.77
235.713	4.51
236.096	5.39
236.479	4.6
236.862	3.78
237.245	3.36
237.628	5.41
238.011	4.56
238.394	2.7
238.777	4.45
239.16	6.33
239.543	4.87
239.925	3.3
240.308	4.09
240.691	2.01
241.073	4.18
241.456	4.21
241.838	4.02
242.221	4.56
242.603	4.37
242.986	4.58
243.368	4.11
243.75	4.22
244.133	4.5
244.515	4.23
244.897	4.46
245.279	3.85
245.661	4
246.043	4.41
246.425	5.01
246.807	4.36
247.189	4.39
247.571	3.99
247.953	3.78
248.335	4.13
248.717	4.47
249.098	4.21
249.48	3.92
249.862	3.96
250.243	4.46
250.625	4.38
251.006	4.7
251.388	4.03
251.769	2.77
252.151	4.31
252.532	4.32
252.913	3.42
253.295	3.81
253.676	4.42
254.057	4.04
254.438	3.47
254.819	4.79
255.2	3.93
255.581	4.72
255.962	4.57
256.343	3.94
256.724	4.75
257.105	4.11
257.486	3.34
257.867	3.53
258.247	3.94
258.628	4.31
259.009	3.58
259.389	3.32
259.77	4.16
260.15	4.25
260.531	3.97
260.911	4.02
261.292	4.03
261.672	3.97
262.052	3.95
262.432	3.74
262.813	4.21
263.193	4.04
263.573	3.77
263.953	2.84
264.333	3.64
264.713	4.08
265.093	3.23
265.473	2.79
265.853	3.5
266.233	4.35
266.612	3.5
266.992	3.52
267.372	4.09
267.752	3.83
268.131	3.95
268.511	3.91
268.89	4.8
269.27	3.62
269.649	3.51
270.029	3.37
270.408	4.06
270.787	4.25
271.167	4.09
271.546	4.38
271.925	4.25
272.304	3.91
272.683	3.28
273.062	3.79
273.441	3.21
273.82	3.68
274.199	3.61
274.578	3.81
274.957	3.73
275.336	3.49
275.715	3.98
276.093	3.49
276.472	3.06
276.851	4.11
277.229	3.92
277.608	3.51
277.986	3.25
278.365	3.92
278.743	3.79
279.122	3.5
279.5	4.25
279.878	3.61
280.257	3.62
280.635	3.68
281.013	2.87
281.391	3.66
281.769	4.32
282.147	4.03
282.525	3.31
282.903	3.39
283.281	3.96
283.659	3.98
284.037	3.52
284.415	3.32
284.792	3.77
285.17	3.52
285.548	3.71
285.925	3.68
286.303	4.34
286.68	3.84
287.058	3.65
287.435	3.65
287.813	3.69
288.19	3.56
288.567	3.67
288.945	3.23
289.322	4.24
289.699	3.7
290.076	3.43
290.453	3.37
290.83	3.28
291.207	3.29
291.584	3.93
291.961	3.74
292.338	3.7
292.715	3.26
293.092	3.76
293.469	3.48
293.845	3.7
294.222	4.58
294.599	3.9
294.975	3.62
295.352	4.01
295.728	3.79
296.105	3.51
296.481	3.77
296.858	4.1
297.234	3.4
297.61	3.87
297.986	4.43
298.363	3.8
298.739	3.94
299.115	3.8
299.491	4.1
299.867	3.91
300.243	3.99
300.619	3.82
300.995	4.24
301.371	4.24
301.746	4.14
302.122	3.38
302.498	3.9
302.874	4.29
303.249	4.01
303.625	3.5
304	3.79
304.376	4.46
304.751	3.97
305.127	3.98
305.502	4.06
305.878	4.14
306.253	3.49
306.628	4.24
307.003	3.51
307.378	4.25
307.754	4.35
308.129	3.58
308.504	4.57
308.879	3.77
309.254	3.88
309.629	4.49
310.003	3.89
310.378	4.24
310.753	4.2
311.128	3.78
311.502	4.19
311.877	3.82
312.252	4.2
312.626	4.28
313.001	4.33
313.375	4.58
313.75	4.17
314.124	4.56
314.498	4.47
314.873	4.43
315.247	4.44
315.621	4.25
315.995	4.31
316.369	3.66
316.743	4.07
317.117	4.14
317.491	4.45
317.865	3.91
318.239	4.81
318.613	3.95
318.987	3.87
319.361	4.69
319.734	4.58
320.108	4.27
320.482	4.63
320.855	4.37
321.229	4.4
321.602	4.43
321.976	4.14
322.349	5.07
322.723	4.48
323.096	4.6
323.469	4.07
323.843	3.91
324.216	4.23
324.589	4.46
324.962	4.64
325.335	4.79
325.708	4.38
326.081	4.62
326.454	4.66
326.827	4.57
327.2	4.58
327.573	5.25
327.945	4.09
328.318	4.17
328.691	4.39
329.063	3.67
329.436	3.98
329.809	4.57
330.181	5.03
330.553	4.49
330.926	4.7
331.298	4.39
331.671	4.16
332.043	4.36
332.415	4.42
332.787	4.78
333.159	4.73
333.532	4.98
333.904	5.18
334.276	4.4
334.648	4.99
335.02	4.55
335.391	4.3
335.763	4.7
336.135	5.02
336.507	4.63
336.879	4.79
337.25	4.33
337.622	4.7
337.993	4.82
338.365	4.36
338.736	4.75
339.108	4.89
339.479	4.45
339.851	5.01
340.222	4.53
340.593	4.39
340.964	4.33
341.336	4.69
341.707	4.54
342.078	4.42
342.449	4.45
342.82	4.74
343.191	4.32
343.562	4.8
343.933	4.38
344.303	4.67
344.674	4.53
345.045	4.63
345.416	5.18
345.786	4.62
346.157	4.74
346.527	4.42
346.898	4.32
347.268	4.82
347.639	4.4
348.009	4.84
348.38	4.61
348.75	5
349.12	4.86
349.49	4.85
349.861	5.06
350.231	4.44
350.601	4.46
350.971	4.32
351.341	4.61
351.711	4.55
352.081	4.23
352.45	4.14
352.82	4.46
353.19	4.53
353.56	4.6
353.929	4.48
354.299	4.53
354.669	4.83
355.038	4.79
355.408	4.47
355.777	5.01
356.147	4.78
356.516	4.4
356.885	4.68
357.254	4.68
357.624	4.33
357.993	4.98
358.362	4.49
358.731	4.81
359.1	4.76
359.469	4.88
359.838	4.97
360.207	4.99
360.576	4.89
360.945	4.54
361.314	4.54
361.682	4.13
362.051	4.82
362.42	4.67
362.788	4.82
363.157	4.5
363.525	4.78
363.894	4.63
364.262	4.6
364.631	4.9
364.999	4.74
365.367	4.71
365.735	4.57
366.104	4.7
366.472	4.83
366.84	4.65
367.208	4.96
367.576	4.98
367.944	4.87
368.312	4.67
368.68	5.02
369.048	4.48
369.416	4.66
369.783	4.68
370.151	4.84
370.519	5.26
370.886	4.64
371.254	5.08
371.621	4.95
371.989	4.86
372.356	4.72
372.724	4.79
373.091	4.71
373.458	4.61
373.826	4.93
374.193	4.73
374.56	5.11
374.927	4.65
375.294	4.85
375.661	5.12
376.028	5.11
376.395	4.77
376.762	4.75
377.129	4.87
377.496	4.95
377.863	4.83
378.229	5.07
378.596	4.95
378.963	5.01
379.329	5.3
379.696	4.77
380.062	4.73
380.429	4.65
380.795	5.1
381.161	4.55
381.528	4.5
381.894	4.84
382.26	5.03
382.626	4.82
382.993	5.12
383.359	4.79
383.725	4.68
384.091	5.08
384.457	4.75
384.823	4.99
385.188	4.54
385.554	4.99
385.92	4.76
386.286	4.87
386.651	4.7
387.017	5.19
387.383	5.03
387.748	4.85
388.114	4.97
388.479	4.78
388.845	4.92
389.21	5.15
389.575	5.36
389.94	5.03
390.306	4.92
390.671	4.92
391.036	4.95
391.401	5.23
391.766	4.94
392.131	5.21
392.496	4.9
392.861	4.83
393.226	4.83
393.591	5.08
393.956	5.16
394.32	5.27
394.685	4.93
395.05	5.05
395.414	4.88
395.779	5.2
396.143	5.08
396.508	4.92
396.872	4.83
397.236	5.39
397.601	5.06
397.965	4.97
398.329	5.15
398.694	4.69
399.058	4.89
399.422	4.81
399.786	4.81
400.15	4.99
400.514	5.13
400.878	5.12
401.242	5
401.605	4.84
401.969	4.91
402.333	4.75
402.697	5.18
403.06	5.14
403.424	4.9
403.787	5.21
404.151	5.12
404.514	5.2
404.878	4.85
405.241	5.09
405.604	5.1
405.968	5.18
406.331	5.05
406.694	4.99
407.057	5.02
407.42	4.92
407.783	5.15
408.146	4.83
408.509	5.12
408.872	5.17
409.235	5.05
409.598	5.28
409.961	5.15
410.323	5
410.686	4.95
411.049	5.12
411.411	4.88
411.774	4.99
412.136	4.99
412.499	5.18
412.861	4.61
413.223	5.11
413.586	5.02
413.948	5.11
414.31	5.26
414.672	4.85
415.035	5.3
415.397	4.94
415.759	5.03
416.121	5.25
416.483	5.06
416.845	5.12
417.206	5.02
417.568	5
417.93	5.15
418.292	4.99
418.653	4.95
419.015	4.95
419.377	5
419.738	4.96
420.1	5.02
420.461	4.93
420.822	5.1
421.184	5.02
421.545	5.01
421.906	5.03
422.267	4.95
422.629	4.94
422.99	4.93
423.351	4.99
423.712	5.02
424.073	5.08
424.434	5.16
424.795	4.99
425.155	4.99
425.516	4.89
425.877	4.99
426.238	4.98
426.598	5.08
426.959	5.08
427.32	5.01
427.68	5.11
428.041	5.33
428.401	5.17
428.761	5.2
429.122	5.19
429.482	5.22
429.842	5.19
430.202	5.39
430.563	5.05
430.923	5.17
431.283	5.41
431.643	5.4
432.003	5.29
432.363	5.48
432.722	5.31
433.082	5.2
433.442	5.3
433.802	5.2
434.161	5.19
434.521	5.24
434.881	5.3
435.24	5.09
435.6	5.34
435.959	5.32
436.319	5.37
436.678	5.31
437.037	5.3
437.396	5.43
437.756	5.24
438.115	5.25
438.474	5.29
438.833	5.17
439.192	5.38
439.551	5.21
439.91	5.4
440.269	5.28
440.628	5.32
440.987	5.39
441.345	5.29
441.704	5.24
442.063	5.25
442.421	5.3
442.78	5.23
443.138	5.25
443.497	5.24
443.855	5.46
444.214	5.15
444.572	5.53
444.93	5.36
445.288	5.28
445.647	5.21
446.005	5.24
446.363	5.35
446.721	5.4
447.079	5.26
447.437	5.29
447.795	5.36
448.153	5.25
448.51	5.22
448.868	5.28
449.226	5.37
449.584	5.3
449.941	5.42
450.299	5.37
450.656	5.37
451.014	5.47
451.371	5.47
451.729	5.48
452.086	5.41
452.443	5.4
452.801	5.48
453.158	5.63
453.515	5.45
453.872	5.49
454.229	5.24
454.586	5.34
454.943	5.51
455.3	5.55
455.657	5.36
456.014	5.44
456.371	5.51
456.727	5.65
457.084	5.6
457.441	5.53
457.797	5.59
458.154	5.46
458.51	5.51
458.867	5.51
459.223	5.47
459.58	5.56
459.936	5.42
460.292	5.31
460.648	5.43
461.005	5.4
461.361	5.46
461.717	5.36
462.073	5.45
462.429	5.44
462.785	5.6
463.141	5.59
463.496	5.55
463.852	5.65
464.208	5.57
464.564	5.54
464.919	5.62
465.275	5.62
465.631	5.85
465.986	5.68
466.342	5.36
466.697	5.64
467.052	5.68
467.408	5.78
467.763	5.53
468.118	5.54
468.473	5.72
468.829	5.62
469.184	5.75
469.539	5.64
469.894	5.8
470.249	5.67
470.603	5.87
470.958	5.87
471.313	5.56
471.668	5.72
472.023	5.74
472.377	5.84
472.732	5.77
473.086	5.72
473.441	5.74
473.795	5.99
474.15	5.77
474.504	5.76
474.859	5.47
475.213	5.82
475.567	5.54
475.921	5.83
476.275	5.78
476.63	5.71
476.984	5.68
477.338	5.81
477.692	5.45
478.045	5.63
478.399	5.79
478.753	5.66
479.107	5.82
479.461	5.73
479.814	5.79
480.168	5.72
480.521	5.82
480.875	5.79
481.228	5.66
481.582	5.76
481.935	5.88
482.289	5.79
482.642	5.78
482.995	5.84
483.348	5.64
483.701	5.73
484.055	5.65
484.408	5.73
484.761	5.57
485.114	5.48
485.466	5.39
485.819	5.42
486.172	5.52
486.525	5.61
486.878	5.63
487.23	5.73
487.583	5.77
487.936	5.72
488.288	5.65
488.641	5.63
488.993	5.59
489.345	5.6
489.698	5.63
490.05	5.65
490.402	5.67
490.754	5.81
491.107	5.78
491.459	5.9
491.811	5.82
492.163	5.85
492.515	5.74
492.866	5.72
493.218	5.69
493.57	5.77
493.922	5.76
494.274	5.96
494.625	6.03
494.977	5.99
495.328	6.04
495.68	6.03
496.031	5.98
496.383	6
496.734	5.92
497.086	6.15
497.437	6.17
497.788	6.07
498.139	6.02
498.49	6.06
498.842	6.13
499.193	5.99
499.544	6.07
499.894	6
500.245	6.21
500.596	6.16
500.947	6.18
501.298	6.03
501.648	6.13
501.999	6.1
502.35	6.05
502.7	6.35
503.051	6.17
503.401	6.15
503.752	6.05
504.102	6.17
504.452	6.08
504.803	6.24
505.153	6.33
505.503	6.21
505.853	6.25
506.203	6.3
506.553	6.34
506.903	6.25
507.253	6.24
507.603	6.31
507.953	6.29
508.303	6.32
508.652	6.22
509.002	6.38
509.352	6.29
509.701	6.2
510.051	6.27
510.4	6.38
510.75	6.24
511.099	6.31
511.449	6.46
511.798	6.3
512.147	6.31
512.496	6.4
512.846	6.34
513.195	6.35
513.544	6.5
513.893	6.34
514.242	6.4
514.591	6.39
514.939	6.54
515.288	6.54
515.637	6.5
515.986	6.51
516.334	6.45
516.683	6.54
517.032	6.46
517.38	6.56
517.729	6.56
518.077	6.53
518.426	6.53
518.774	6.47
519.122	6.5
519.47	6.47
519.819	6.43
520.167	6.42
520.515	6.5
520.863	6.53
521.211	6.52
521.559	6.49
521.907	6.53
522.255	6.57
522.602	6.68
522.95	6.71
523.298	6.7
523.645	6.73
523.993	6.71
524.341	6.76
524.688	6.7
525.036	6.65
525.383	6.88
525.73	6.66
526.078	6.79
526.425	6.66
526.772	6.64
527.119	6.71
527.466	6.65
527.814	6.67
528.161	6.7
528.508	6.72
528.854	6.75
529.201	6.59
529.548	6.6
529.895	6.51
530.242	6.48
530.588	6.49
530.935	6.61
531.282	6.61
531.628	6.68
531.975	6.73
532.321	6.82
532.667	6.86
533.014	6.92
533.36	6.86
533.706	6.89
534.052	6.91
534.399	6.87
534.745	6.77
535.091	6.74
535.437	6.8
535.783	6.88
536.129	6.99
536.474	7.07
536.82	7.01
537.166	6.89
537.512	7
537.857	6.97
538.203	6.91
538.549	6.99
538.894	7.15
539.239	7.12
539.585	7.27
539.93	7.28
540.276	7.25
540.621	7.31
540.966	7.33
541.311	7.36
541.656	7.21
542.001	7.22
542.346	7.13
542.691	7.04
543.036	7.03
543.381	7.13
543.726	7.25
544.071	7.23
544.415	7.3
544.76	7.22
545.105	7.25
545.449	7.32
545.794	7.43
546.138	7.45
546.483	7.41
546.827	7.4
547.171	7.59
547.516	7.55
547.86	7.54
548.204	7.58
548.548	7.5
548.892	7.46
549.236	7.56
549.58	7.69
549.924	7.67
550.268	7.81
550.612	7.68
550.956	7.88
551.3	7.9
551.643	7.73
551.987	7.89
552.33	8.05
552.674	7.79
553.017	7.96
553.361	7.99
553.704	7.88
554.048	7.91
554.391	8.06
554.734	7.81
555.077	8.06
555.42	7.93
555.764	8.12
556.107	8.07
556.45	8.17
556.793	8.27
557.135	8.04
557.478	8.1
557.821	8.19
558.164	8.26
558.507	8.09
558.849	8.23
559.192	8.09
559.534	8.39
559.877	8.32
560.219	8.16
560.562	8.26
560.904	8.48
561.246	8.3
561.589	8.56
561.931	8.38
562.273	8.36
562.615	8.23
562.957	8.41
563.299	8.45
563.641	8.43
563.983	8.46
564.325	8.52
564.667	8.59
565.008	8.39
565.35	8.29
565.692	8.56
566.033	8.63
566.375	8.57
566.716	8.59
567.058	8.57
567.399	8.64
567.741	8.61
568.082	8.6
568.423	8.59
568.764	8.63
569.105	8.85
569.447	8.6
569.788	8.64
570.129	8.81
570.47	8.8
570.811	8.77
571.151	8.84
571.492	8.99
571.833	8.92
572.174	8.99
572.514	8.99
572.855	8.97
573.195	9.06
573.536	9.04
573.876	8.82
574.217	8.93
574.557	9.11
574.898	8.96
575.238	9.14
575.578	9.09
575.918	9.15
576.258	9.36
576.598	9.05
576.938	9.32
577.278	9.21
577.618	9.17
577.958	9.46
578.298	9.39
578.638	9.25
578.977	9.33
579.317	9.37
579.657	9.44
579.996	9.57
580.336	9.57
580.675	9.6
581.014	9.68
581.354	9.65
581.693	9.81
582.032	9.56
582.372	9.53
582.711	9.78
583.05	9.77
583.389	9.83
583.728	10
584.067	9.74
584.406	9.97
584.745	9.79
585.083	9.97
585.422	9.94
585.761	9.93
586.1	9.87
586.438	10.18
586.777	10.35
587.115	10.15
587.454	10.17
587.792	9.96
588.13	10.32
588.469	10.24
588.807	10.3
589.145	10.35
589.483	10.45
589.821	10.16
590.159	10.45
590.497	10.56
590.835	10.4
591.173	10.45
591.511	10.34
591.849	10.43
592.187	10.6
592.524	10.66
592.862	10.34
593.2	10.42
593.537	10.5
593.875	10.71
594.212	10.7
594.55	10.53
594.887	10.74
595.224	10.72
595.561	10.8
595.899	10.66
596.236	11
596.573	10.62
596.91	10.73
597.247	10.96
597.584	10.97
597.921	10.93
598.258	11.1
598.594	10.66
598.931	10.67
599.268	10.82
599.604	10.97
599.941	10.98
600.277	11.04
600.614	11.06
600.95	11.06
601.287	10.88
601.623	11.09
601.959	11.19
602.296	11.09
602.632	11.11
602.968	11.51
603.304	11.29
603.64	11.22
603.976	11.35
604.312	11.22
604.648	11.67
604.984	11.25
605.319	11.58
605.655	11.32
605.991	11.46
606.326	11.42
606.662	11.36
606.998	11.5
607.333	11.67
607.668	11.64
608.004	11.64
608.339	11.57
608.674	11.73
609.01	12.04
609.345	11.91
609.68	11.62
610.015	11.85
610.35	12.05
610.685	11.52
611.02	11.63
611.355	11.88
611.689	11.8
612.024	11.93
612.359	12.21
612.694	11.96
613.028	12.17
613.363	11.98
613.697	12.4
614.032	12.12
614.366	12.2
614.7	12.27
615.035	12.27
615.369	12.43
615.703	12.18
616.037	12.77
616.371	12.14
616.705	12.54
617.039	12.52
617.373	12.71
617.707	12.59
618.041	12.5
618.375	12.37
618.709	12.76
619.042	12.72
619.376	12.59
619.71	12.77
620.043	12.84
620.377	12.93
620.71	12.93
621.043	13.03
621.377	12.86
621.71	13.21
622.043	13.16
622.376	13.14
622.709	13.37
623.043	13.38
623.376	12.9
623.709	13.52
624.041	13.1
624.374	13.15
624.707	12.93
625.04	12.98
625.373	13.41
625.705	13.24
626.038	13.3
626.37	13.29
626.703	13.36
627.035	13.48
627.368	13.82
627.7	13.54
628.032	13.52
628.365	13.72
628.697	13.81
629.029	13.8
629.361	13.74
629.693	13.61
630.025	14.12
630.357	13.84
630.689	13.44
631.021	13.62
631.353	13.93
631.684	13.67
632.016	13.54
632.348	13.78
632.679	14.21
633.011	13.91
633.342	14.13
633.674	13.64
634.005	14.1
634.336	14.02
634.668	13.95
634.999	14.13
635.33	14.18
635.661	14.04
635.992	14.49
636.323	14.71
636.654	14.04
636.985	14.43
637.316	14.06
637.647	14.63
637.977	14.42
638.308	14.63
638.639	14.13
638.969	14.38
639.3	14.43
639.63	14.66
639.961	14.62
640.291	14.67
640.622	14.9
640.952	15.06
641.282	14.41
641.612	14.8
641.943	14.56
642.273	14.85
642.603	14.86
642.933	14.98
643.263	14.96
643.592	15.42
643.922	15.39
644.252	15.36
644.582	15.21
644.911	15.03
645.241	15.25
645.571	15.29
645.9	15.1
646.23	15.73
646.559	15.32
646.888	16.04
647.218	15.6
647.547	15.58
647.876	15.37
648.205	14.85
648.534	15.71
648.863	15.9
649.192	15.9
649.521	15.55
649.85	15.84
650.179	15.63
650.508	15.58
650.837	16.01
651.165	15.83
651.494	15.78
651.822	15.66
652.151	15.76
652.479	15.99
652.808	15.78
653.136	15.54
653.465	15.93
653.793	15.95
654.121	16.05
654.449	15.88
654.777	16.3
655.105	15.87
655.433	16.57
655.761	15.92
656.089	16.29
656.417	16.4
656.745	16.94
657.073	16.41
657.4	16.11
657.728	15.65
658.056	16.13
658.383	16.13
658.711	16.33
659.038	16.87
659.365	16.47
659.693	16.73
660.02	16.72
660.347	16.51
660.674	16.55
661.001	16.33
661.329	16.47
661.656	16.66
661.982	16.38
662.309	16.45
662.636	16.61
662.963	16.8
663.29	16.67
663.616	16.79
663.943	16.97
664.27	17.1
664.596	16.37
664.923	17.26
665.249	17.47
665.576	17.04
665.902	16.81
666.228	17.61
666.554	17.31
666.881	17.16
667.207	17.62
667.533	17.58
667.859	17.22
668.185	17.33
668.511	17.93
668.837	17.52
669.162	17.56
669.488	16.46
669.814	17.36
670.139	17.1
670.465	17.92
670.791	17.27
671.116	17.65
671.442	17.33
671.767	17.74
672.092	17.86
672.418	17.83
672.743	17.65
673.068	17.71
673.393	18.26
673.718	17.67
674.043	18.22
674.368	18.19
674.693	17.8
675.018	18.12
675.343	18.76
675.667	18.11
675.992	18.49
676.317	17.59
676.641	18.74
676.966	18.14
677.29	17.8
677.615	18.06
677.939	18.49
678.264	18.14
678.588	18.85
678.912	18.36
679.236	18.09
679.56	18.42
679.885	18.81
680.209	18.74
680.532	19.29
680.856	19.1
681.18	19.67
681.504	18.51
681.828	18.55
682.152	18.52
682.475	18.75
682.799	18.53
683.122	18.61
683.446	18.22
683.769	19.44
684.093	19.54
684.416	18.82
684.739	18.65
685.062	19.29
685.386	18.46
685.709	19.16
