Data from 21-12_forehead_Reflection__4__89.txt Node

Date: Thu Dec 15 17:06:48 CST 2022
User: ToomeyLab
Spectrometer: FLMS14357
Trigger mode: 0
Integration Time (sec): 1.000000E-2
Scans to average: 100
Electric dark correction enabled: true
Nonlinearity correction enabled: false
Boxcar width: 0
XAxis mode: Wavelengths
Number of Pixels in Spectrum: 2048
>>>>>Begin Spectral Data<<<<<
189.047	-132.52
189.435	-132.52
189.823	-132.52
190.211	-927.93
190.599	66.85
190.987	-80.16
191.375	119.01
191.763	194.96
192.151	7.71
192.538	-415.21
192.926	-32.06
193.314	-59.17
193.702	-78.88
194.089	25.43
194.477	348.25
194.864	158.98
195.252	101.1
195.639	-12.34
196.027	52.39
196.414	113.3
196.801	1.21
197.189	256.89
197.576	-34.45
197.963	3412.63
198.351	18.01
198.738	-33.04
199.125	-33.6
199.512	25.87
199.899	-12.18
200.286	-15.15
200.673	33.4
201.06	2.76
201.447	30.13
201.833	5.11
202.22	22.32
202.607	30.9
202.994	22.3
203.38	17.28
203.767	-18.4
204.154	14.41
204.54	10.87
204.927	3.44
205.313	40.21
205.699	5.8
206.086	42.55
206.472	20.77
206.858	26.61
207.245	27.69
207.631	26.17
208.017	54.28
208.403	2.33
208.789	1.97
209.175	0.94
209.561	-30.4
209.947	4.66
210.333	0.88
210.719	19.25
211.105	33.25
211.491	-3.16
211.876	13.52
212.262	5.76
212.648	16.1
213.034	26.43
213.419	10.47
213.805	-15.2
214.19	-15.29
214.576	24.43
214.961	31.29
215.346	-18.23
215.732	-0.37
216.117	16.54
216.502	-4.95
216.888	31.31
217.273	5.85
217.658	0.34
218.043	-9.51
218.428	-12.11
218.813	-6.04
219.198	-12.54
219.583	-13.27
219.968	17.53
220.353	-10.55
220.738	-7.59
221.122	22.82
221.507	-4.14
221.892	-12.3
222.276	-25.88
222.661	-7.14
223.046	-8.52
223.43	14.86
223.815	-1.66
224.199	-1.11
224.583	-3.89
224.968	1.46
225.352	-4.83
225.736	11.85
226.121	10.26
226.505	-2.51
226.889	1.66
227.273	-2.76
227.657	3.21
228.041	4.21
228.425	-0.98
228.809	1.29
229.193	3.14
229.577	3.84
229.961	3.13
230.344	4.11
230.728	3.61
231.112	2.98
231.495	1.13
231.879	1.55
232.263	4.24
232.646	2.03
233.03	5.1
233.413	4.32
233.797	3.46
234.18	4.37
234.563	4.51
234.946	2.06
235.33	3.23
235.713	3.43
236.096	4.46
236.479	4.33
236.862	3.21
237.245	4.21
237.628	4.22
238.011	3.1
238.394	3.17
238.777	3.3
239.16	4.1
239.543	3.73
239.925	2.49
240.308	2.2
240.691	2.96
241.073	1.5
241.456	3.67
241.838	3.44
242.221	3.08
242.603	4.17
242.986	2.81
243.368	3.59
243.75	3.64
244.133	3.63
244.515	3
244.897	3.08
245.279	3.98
245.661	3.15
246.043	3.01
246.425	3.46
246.807	3.25
247.189	3.19
247.571	3.44
247.953	3.22
248.335	3.35
248.717	3.54
249.098	3.55
249.48	3.39
249.862	3.48
250.243	3.57
250.625	3.65
251.006	4.39
251.388	3.57
251.769	2.88
252.151	4.32
252.532	2.71
252.913	3.23
253.295	3.43
253.676	3.7
254.057	3.54
254.438	4.4
254.819	2.86
255.2	3.32
255.581	4.46
255.962	4.53
256.343	4.35
256.724	3.97
257.105	2.91
257.486	2.26
257.867	2.88
258.247	4.25
258.628	3.59
259.009	2.83
259.389	3.22
259.77	3
260.15	4.48
260.531	3.55
260.911	3.34
261.292	3.49
261.672	3.18
262.052	3.3
262.432	3.43
262.813	3.63
263.193	3.48
263.573	4.13
263.953	2.99
264.333	3.57
264.713	3.31
265.093	2.62
265.473	2.56
265.853	3.8
266.233	3.39
266.612	3.4
266.992	3.75
267.372	3.34
267.752	4.04
268.131	3
268.511	3.33
268.89	3.93
269.27	2.73
269.649	3.09
270.029	2.71
270.408	3.32
270.787	3.65
271.167	3.72
271.546	4.64
271.925	3.41
272.304	3.26
272.683	2.81
273.062	2.99
273.441	2.91
273.82	3.37
274.199	2.97
274.578	3.36
274.957	3.09
275.336	3.62
275.715	3.72
276.093	3.21
276.472	2.76
276.851	3.26
277.229	3.2
277.608	2.74
277.986	3.57
278.365	3.35
278.743	2.88
279.122	2.74
279.5	3.08
279.878	2.94
280.257	3.73
280.635	4.04
281.013	2.78
281.391	3.06
281.769	3.56
282.147	3.01
282.525	2.88
282.903	3
283.281	3.73
283.659	3.19
284.037	3.25
284.415	3.51
284.792	3.34
285.17	2.8
285.548	2.8
285.925	3.06
286.303	3.5
286.68	3.4
287.058	3.38
287.435	3.32
287.813	3.11
288.19	3.32
288.567	3.42
288.945	3.45
289.322	3.41
289.699	3.66
290.076	3.43
290.453	3.03
290.83	3.45
291.207	3.17
291.584	3.56
291.961	3.69
292.338	3.27
292.715	3.62
293.092	3.61
293.469	3.65
293.845	3.57
294.222	4.07
294.599	2.65
294.975	2.94
295.352	3.88
295.728	3.67
296.105	3.64
296.481	3.45
296.858	3.62
297.234	3.21
297.61	3.75
297.986	4.22
298.363	3.93
298.739	3.85
299.115	3.83
299.491	3.95
299.867	3.77
300.243	3.62
300.619	3.92
300.995	3.91
301.371	3.79
301.746	4.06
302.122	3.74
302.498	3.72
302.874	4.32
303.249	3.99
303.625	3.86
304	4.38
304.376	4.69
304.751	4.09
305.127	4.03
305.502	4.34
305.878	4.42
306.253	3.87
306.628	4.55
307.003	3.99
307.378	4.3
307.754	4.67
308.129	4.79
308.504	4.83
308.879	4.34
309.254	4.47
309.629	4.61
310.003	4.63
310.378	4.85
310.753	4.81
311.128	4.54
311.502	4.79
311.877	4.75
312.252	4.9
312.626	5.11
313.001	5.04
313.375	5.22
313.75	5.08
314.124	5.29
314.498	5.16
314.873	4.99
315.247	5.42
315.621	4.96
315.995	5.57
316.369	4.98
316.743	5.44
317.117	5.5
317.491	5.94
317.865	4.77
318.239	6.12
318.613	5.21
318.987	5.68
319.361	5.7
319.734	5.04
320.108	5.66
320.482	5.58
320.855	5.87
321.229	5.51
321.602	5.77
321.976	5.65
322.349	6.69
322.723	5.89
323.096	5.92
323.469	5.76
323.843	5.93
324.216	6.05
324.589	6.71
324.962	6.19
325.335	5.77
325.708	6.18
326.081	6.47
326.454	6.78
326.827	6.44
327.2	6.19
327.573	6.64
327.945	5.91
328.318	6.27
328.691	6.42
329.063	6.17
329.436	6.33
329.809	6.76
330.181	7.28
330.553	7.16
330.926	7.02
331.298	7.04
331.671	7.08
332.043	6.88
332.415	6.89
332.787	6.88
333.159	6.18
333.532	7.04
333.904	7.41
334.276	6.6
334.648	6.71
335.02	6.56
335.391	6.78
335.763	6.77
336.135	7.32
336.507	6.91
336.879	7.19
337.25	7.08
337.622	7.18
337.993	7.28
338.365	7.34
338.736	7.14
339.108	7.38
339.479	6.68
339.851	7.43
340.222	7.32
340.593	7.18
340.964	7.74
341.336	7.22
341.707	7.09
342.078	6.82
342.449	7.42
342.82	7.36
343.191	7.42
343.562	7.63
343.933	7.27
344.303	7.65
344.674	6.98
345.045	7.44
345.416	7.4
345.786	7.8
346.157	7.83
346.527	7.58
346.898	6.95
347.268	7.16
347.639	7.2
348.009	8.08
348.38	7.48
348.75	7.88
349.12	8.06
349.49	7.68
349.861	7.9
350.231	7.54
350.601	7.88
350.971	7.89
351.341	8.18
351.711	7.89
352.081	7.71
352.45	7.45
352.82	7.44
353.19	7.72
353.56	7.62
353.929	8.32
354.299	8.12
354.669	7.84
355.038	8.25
355.408	8.04
355.777	8.14
356.147	8.07
356.516	8.09
356.885	8.08
357.254	7.9
357.624	7.66
357.993	8.32
358.362	8.34
358.731	8.35
359.1	8.07
359.469	8.06
359.838	8.22
360.207	8.37
360.576	8.04
360.945	8.44
361.314	8.29
361.682	8.41
362.051	8.36
362.42	8.34
362.788	8.4
363.157	8.24
363.525	8.41
363.894	8.04
364.262	8.47
364.631	8.75
364.999	8.69
365.367	8.33
365.735	8.35
366.104	8.52
366.472	8.54
366.84	8.59
367.208	8.91
367.576	8.58
367.944	8.82
368.312	8.55
368.68	8.72
369.048	8.58
369.416	8.65
369.783	8.65
370.151	9.12
370.519	9.1
370.886	8.97
371.254	9.02
371.621	9.09
371.989	9.16
372.356	8.87
372.724	9.09
373.091	8.75
373.458	8.69
373.826	9.03
374.193	9.07
374.56	8.89
374.927	9.03
375.294	8.98
375.661	8.99
376.028	9.07
376.395	9.07
376.762	8.7
377.129	8.98
377.496	9.03
377.863	9.51
378.229	9.48
378.596	9.38
378.963	9.26
379.329	9.35
379.696	9.23
380.062	9.21
380.429	9.14
380.795	9.33
381.161	8.86
381.528	9.02
381.894	9.26
382.26	9.33
382.626	9.5
382.993	9.6
383.359	9.34
383.725	9.18
384.091	9.55
384.457	9.03
384.823	9.31
385.188	9.34
385.554	9.38
385.92	9.46
386.286	9.56
386.651	9.45
387.017	9.68
387.383	9.45
387.748	9.59
388.114	9.59
388.479	9.5
388.845	9.48
389.21	9.84
389.575	9.79
389.94	9.61
390.306	9.6
390.671	9.58
391.036	9.57
391.401	9.47
391.766	9.57
392.131	9.66
392.496	9.59
392.861	9.44
393.226	9.42
393.591	9.47
393.956	9.53
394.32	9.73
394.685	9.53
395.05	9.51
395.414	9.56
395.779	9.53
396.143	9.28
396.508	9.36
396.872	9.54
397.236	9.63
397.601	9.9
397.965	9.61
398.329	9.6
398.694	9.44
399.058	9.46
399.422	9.3
399.786	9.53
400.15	9.76
400.514	9.65
400.878	9.61
401.242	9.62
401.605	9.46
401.969	9.46
402.333	9.43
402.697	9.79
403.06	9.75
403.424	9.57
403.787	9.36
404.151	9.73
404.514	9.4
404.878	9.24
405.241	9.51
405.604	9.24
405.968	9.36
406.331	9.35
406.694	9.4
407.057	9.36
407.42	9.5
407.783	9.29
408.146	9.2
408.509	9.36
408.872	9.34
409.235	9.57
409.598	9.45
409.961	9.42
410.323	9.18
410.686	9.17
411.049	9.22
411.411	9.27
411.774	9.29
412.136	9.33
412.499	9.33
412.861	9.06
413.223	9.12
413.586	9.15
413.948	9.6
414.31	9.42
414.672	9.26
415.035	9.42
415.397	9.31
415.759	9.18
416.121	9.61
416.483	9.44
416.845	9.41
417.206	9.32
417.568	9.55
417.93	9.42
418.292	9.29
418.653	9.47
419.015	9.28
419.377	9.35
419.738	9.41
420.1	9.53
420.461	9.41
420.822	9.46
421.184	9.52
421.545	9.57
421.906	9.62
422.267	9.47
422.629	9.53
422.99	9.53
423.351	9.58
423.712	9.75
424.073	9.78
424.434	9.89
424.795	9.79
425.155	9.8
425.516	9.85
425.877	9.91
426.238	9.97
426.598	10.08
426.959	10.17
427.32	10.26
427.68	10.2
428.041	10.26
428.401	10.35
428.761	10.57
429.122	10.61
429.482	10.58
429.842	10.67
430.202	10.71
430.563	10.77
430.923	10.68
431.283	10.89
431.643	11.06
432.003	10.99
432.363	11.12
432.722	10.99
433.082	11.05
433.442	11.21
433.802	11.14
434.161	11.23
434.521	11.29
434.881	11.35
435.24	11.32
435.6	11.3
435.959	11.37
436.319	11.54
436.678	11.56
437.037	11.63
437.396	11.81
437.756	11.57
438.115	11.68
438.474	11.89
438.833	11.8
439.192	11.89
439.551	11.74
439.91	11.89
440.269	11.97
440.628	11.94
440.987	12.01
441.345	12.1
441.704	11.96
442.063	11.99
442.421	12.03
442.78	12.18
443.138	12.2
443.497	12.27
443.855	12.44
444.214	12.25
444.572	12.57
444.93	12.42
445.288	12.51
445.647	12.38
446.005	12.47
446.363	12.59
446.721	12.55
447.079	12.55
447.437	12.54
447.795	12.6
448.153	12.59
448.51	12.56
448.868	12.63
449.226	12.73
449.584	12.78
449.941	12.84
450.299	12.84
450.656	13.08
451.014	13.12
451.371	13.26
451.729	13.2
452.086	13.18
452.443	13.28
452.801	13.36
453.158	13.4
453.515	13.33
453.872	13.31
454.229	13.27
454.586	13.21
454.943	13.35
455.3	13.6
455.657	13.63
456.014	13.63
456.371	13.61
456.727	13.86
457.084	13.84
457.441	13.84
457.797	13.76
458.154	13.78
458.51	13.78
458.867	13.91
459.223	13.66
459.58	14.01
459.936	14.07
460.292	13.91
460.648	13.74
461.005	13.84
461.361	13.83
461.717	13.95
462.073	13.95
462.429	14.1
462.785	14.25
463.141	14.16
463.496	14.45
463.852	14.42
464.208	14.37
464.564	14.5
464.919	14.4
465.275	14.54
465.631	14.66
465.986	14.56
466.342	14.55
466.697	14.73
467.052	14.72
467.408	14.94
467.763	14.59
468.118	14.72
468.473	14.69
468.829	14.85
469.184	14.92
469.539	14.85
469.894	15.1
470.249	15.07
470.603	15.1
470.958	15.11
471.313	15.19
471.668	15.12
472.023	15.18
472.377	15.13
472.732	15.32
473.086	15.14
473.441	15.39
473.795	15.58
474.15	15.39
474.504	15.27
474.859	15.34
475.213	15.47
475.567	15.38
475.921	15.65
476.275	15.58
476.63	15.67
476.984	15.43
477.338	15.5
477.692	15.53
478.045	15.53
478.399	15.72
478.753	15.65
479.107	15.7
479.461	15.58
479.814	15.85
480.168	15.69
480.521	15.63
480.875	15.82
481.228	15.92
481.582	15.94
481.935	16.09
482.289	15.83
482.642	15.92
482.995	15.97
483.348	15.83
483.701	15.75
484.055	15.8
484.408	15.71
484.761	15.41
485.114	15.23
485.466	15.26
485.819	15.28
486.172	15.34
486.525	15.49
486.878	15.65
487.23	15.8
487.583	15.92
487.936	15.89
488.288	15.75
488.641	15.76
488.993	15.68
489.345	15.64
489.698	15.71
490.05	15.72
490.402	15.92
490.754	16.1
491.107	16.1
491.459	16.34
491.811	16.24
492.163	16.29
492.515	16.2
492.866	16.02
493.218	16.04
493.57	16.14
493.922	16.18
494.274	16.28
494.625	16.67
494.977	16.56
495.328	16.89
495.68	16.88
496.031	16.89
496.383	17
496.734	17.07
497.086	17.31
497.437	17.04
497.788	17.33
498.139	17.05
498.49	17.03
498.842	17.19
499.193	16.99
499.544	17.03
499.894	17.18
500.245	17.3
500.596	17.44
500.947	17.27
501.298	17.5
501.648	17.39
501.999	17.45
502.35	17.31
502.7	17.63
503.051	17.64
503.401	17.58
503.752	17.59
504.102	17.71
504.452	17.64
504.803	17.65
505.153	17.78
505.503	17.86
505.853	17.73
506.203	17.75
506.553	17.88
506.903	17.83
507.253	17.9
507.603	17.97
507.953	18
508.303	17.93
508.652	17.83
509.002	17.94
509.352	17.95
509.701	17.81
510.051	17.99
510.4	17.94
510.75	17.88
511.099	17.83
511.449	18.14
511.798	17.83
512.147	17.88
512.496	17.99
512.846	18.12
513.195	18
513.544	18.16
513.893	18.07
514.242	18.14
514.591	18.1
514.939	18.24
515.288	18.36
515.637	18.11
515.986	18.33
516.334	18.45
516.683	18.34
517.032	18.36
517.38	18.3
517.729	18.28
518.077	18.43
518.426	18.38
518.774	18.28
519.122	18.29
519.47	18.32
519.819	18.18
520.167	18.04
520.515	18.18
520.863	18.1
521.211	18.16
521.559	18.26
521.907	18.38
522.255	18.48
522.602	18.56
522.95	18.71
523.298	18.64
523.645	18.66
523.993	18.63
524.341	18.68
524.688	18.64
525.036	18.57
525.383	18.8
525.73	18.67
526.078	18.7
526.425	18.49
526.772	18.49
527.119	18.37
527.466	18.48
527.814	18.4
528.161	18.45
528.508	18.43
528.854	18.48
529.201	18.37
529.548	18.19
529.895	17.92
530.242	18.06
530.588	18.14
530.935	18.13
531.282	18.18
531.628	18.33
531.975	18.38
532.321	18.51
532.667	18.57
533.014	18.73
533.36	18.73
533.706	18.7
534.052	18.77
534.399	18.64
534.745	18.57
535.091	18.46
535.437	18.59
535.783	18.66
536.129	18.7
536.474	18.85
536.82	19.04
537.166	18.92
537.512	19.05
537.857	18.95
538.203	18.85
538.549	19.05
538.894	19.01
539.239	19.14
539.585	19.32
539.93	19.39
540.276	19.43
540.621	19.48
540.966	19.56
541.311	19.48
541.656	19.38
542.001	19.16
542.346	19.15
542.691	18.96
543.036	18.91
543.381	18.99
543.726	19.12
544.071	19.14
544.415	19.24
544.76	19.22
545.105	19.44
545.449	19.48
545.794	19.5
546.138	19.66
546.483	19.81
546.827	19.71
547.171	19.87
547.516	19.9
547.86	19.92
548.204	19.72
548.548	19.63
548.892	19.81
549.236	19.93
549.58	20.01
549.924	20.15
550.268	20.33
550.612	20.28
550.956	20.36
551.3	20.78
551.643	20.43
551.987	20.56
552.33	20.72
552.674	20.58
553.017	20.61
553.361	20.71
553.704	20.55
554.048	20.66
554.391	20.67
554.734	20.45
555.077	20.72
555.42	20.7
555.764	20.78
556.107	20.79
556.45	20.94
556.793	20.93
557.135	20.92
557.478	21
557.821	20.96
558.164	20.94
558.507	21.04
558.849	21.16
559.192	21.02
559.534	21.06
559.877	21.23
560.219	21.26
560.562	21.19
560.904	21.39
561.246	21.28
561.589	21.17
561.931	21.1
562.273	21.11
562.615	21.22
562.957	21.22
563.299	21.31
563.641	21.24
563.983	21.19
564.325	21.31
564.667	21.5
565.008	21.4
565.35	21.33
565.692	21.44
566.033	21.56
566.375	21.55
566.716	21.53
567.058	21.5
567.399	21.54
567.741	21.56
568.082	21.66
568.423	21.45
568.764	21.65
569.105	21.54
569.447	21.64
569.788	21.57
570.129	21.8
570.47	21.75
570.811	21.83
571.151	21.76
571.492	21.94
571.833	21.76
572.174	21.97
572.514	21.74
572.855	21.93
573.195	21.96
573.536	21.85
573.876	21.84
574.217	21.72
574.557	21.91
574.898	21.96
575.238	22.12
575.578	22.19
575.918	22.18
576.258	22.41
576.598	22.12
576.938	22.27
577.278	22.17
577.618	22.35
577.958	22.47
578.298	22.4
578.638	22.32
578.977	22.56
579.317	22.62
579.657	22.76
579.996	22.77
580.336	22.59
580.675	22.64
581.014	22.92
581.354	22.61
581.693	22.9
582.032	23.11
582.372	22.93
582.711	22.76
583.05	23.02
583.389	23
583.728	23.18
584.067	23.25
584.406	23.27
584.745	23.04
585.083	22.99
585.422	23.39
585.761	23.33
586.1	23.36
586.438	23.24
586.777	23.44
587.115	23.42
587.454	23.27
587.792	23.51
588.13	23.25
588.469	23.32
588.807	23.77
589.145	23.72
589.483	23.58
589.821	23.66
590.159	23.87
590.497	23.8
590.835	23.75
591.173	23.67
591.511	23.71
591.849	23.82
592.187	23.59
592.524	23.74
592.862	23.79
593.2	23.72
593.537	23.82
593.875	23.9
594.212	23.91
594.55	24.07
594.887	24.15
595.224	24.06
595.561	24
595.899	24.25
596.236	24.5
596.573	24.04
596.91	24.09
597.247	24.17
597.584	24.29
597.921	24.11
598.258	24.21
598.594	24.09
598.931	24.19
599.268	24.03
599.604	24.22
599.941	24.39
600.277	24.54
600.614	24.42
600.95	24.66
601.287	24.28
601.623	24.23
601.959	25.19
602.296	24.64
602.632	24.88
602.968	24.73
603.304	24.56
603.64	24.78
603.976	24.75
604.312	24.45
604.648	24.74
604.984	24.79
605.319	24.86
605.655	24.71
605.991	24.73
606.326	24.67
606.662	24.6
606.998	24.95
607.333	24.91
607.668	24.69
608.004	24.83
608.339	25.09
608.674	25.24
609.01	25.44
609.345	25.19
609.68	25.1
610.015	25.4
610.35	25.29
610.685	25.06
611.02	25.12
611.355	25.25
611.689	25.28
612.024	25.43
612.359	25.64
612.694	25.65
613.028	25.49
613.363	25.54
613.697	25.87
614.032	25.38
614.366	25.73
614.7	26.01
615.035	25.85
615.369	25.72
615.703	25.77
616.037	26.04
616.371	25.83
616.705	26.24
617.039	26.29
617.373	26.21
617.707	26.01
618.041	26.02
618.375	25.52
618.709	26.45
619.042	26.27
619.376	26.12
619.71	26.14
620.043	26.23
620.377	26.33
620.71	26.38
621.043	26.6
621.377	26.49
621.71	26.43
622.043	26.42
622.376	26.49
622.709	26.81
623.043	26.39
623.376	26.66
623.709	26.72
624.041	26.52
624.374	26.66
624.707	26.5
625.04	26.33
625.373	26.7
625.705	26.59
626.038	26.45
626.37	26.84
626.703	26.9
627.035	26.59
627.368	26.91
627.7	26.97
628.032	27.03
628.365	26.94
628.697	27.17
629.029	26.53
629.361	26.84
629.693	26.84
630.025	26.93
630.357	27.1
630.689	27.25
631.021	26.69
631.353	26.92
631.684	27
632.016	26.86
632.348	27.06
632.679	27.51
633.011	27.21
633.342	27.32
633.674	27.07
634.005	27.23
634.336	27.2
634.668	27.41
634.999	27.45
635.33	27.56
635.661	27.59
635.992	27.2
636.323	27.28
636.654	27.2
636.985	27.33
637.316	27.41
637.647	27.7
637.977	27.23
638.308	27.98
638.639	27.91
638.969	28.02
639.3	28.2
639.63	27.91
639.961	28.15
640.291	27.68
640.622	28.01
640.952	28.16
641.282	27.73
641.612	28.07
641.943	27.92
642.273	27.84
642.603	28.49
642.933	28.13
643.263	28.35
643.592	28.64
643.922	28.45
644.252	28.61
644.582	28.5
644.911	28.03
645.241	28.41
645.571	28.18
645.9	28.57
646.23	28.95
646.559	28.69
646.888	29.02
647.218	28.75
647.547	28.79
647.876	28.24
648.205	28.47
648.534	28.86
648.863	28.55
649.192	28.33
649.521	28.8
649.85	28.9
650.179	28.8
650.508	28.65
650.837	29.29
651.165	29.05
651.494	29.07
651.822	29.44
652.151	28.66
652.479	28.74
652.808	28.84
653.136	29.06
653.465	28.99
653.793	29.19
654.121	29.29
654.449	28.64
654.777	28.49
655.105	28.77
655.433	29.09
655.761	29.41
656.089	29.39
656.417	29.78
656.745	29.92
657.073	29.67
657.4	28.58
657.728	28.81
658.056	29.57
658.383	29.23
658.711	29.23
659.038	29.78
659.365	29.35
659.693	29.61
660.02	29.58
660.347	29.82
660.674	29.14
661.001	29.34
661.329	29.42
661.656	29.55
661.982	29.44
662.309	29.49
662.636	29.61
662.963	29.73
663.29	29.63
663.616	30.11
663.943	29.38
664.27	29.86
664.596	29.99
664.923	30.23
665.249	30.21
665.576	29.92
665.902	29.2
666.228	30.49
666.554	30.77
666.881	29.81
667.207	30.5
667.533	30.14
667.859	30.59
668.185	30.25
668.511	30.07
668.837	30.82
669.162	30.69
669.488	29.74
669.814	30.22
670.139	29.92
670.465	30.38
670.791	30.68
671.116	30.27
671.442	30.05
671.767	30.62
672.092	30.33
672.418	30.86
672.743	30.17
673.068	30.69
673.393	30.18
673.718	29.96
674.043	30.76
674.368	30.51
674.693	30.8
675.018	30.75
675.343	31.49
