Data from 0219_chest_Reflection__3__238.txt Node

Date: Fri Sep 22 22:43:13 CDT 2023
User: ToomeyLab
Spectrometer: FLMS14357
Trigger mode: 0
Integration Time (sec): 1.000000E-2
Scans to average: 100
Electric dark correction enabled: true
Nonlinearity correction enabled: false
Boxcar width: 0
XAxis mode: Wavelengths
Number of Pixels in Spectrum: 2048
>>>>>Begin Spectral Data<<<<<
189.047	-407.63
189.435	-407.63
189.823	-407.63
190.211	261.14
190.599	129.6
190.987	145.45
191.375	441.62
191.763	123.14
192.151	152.92
192.538	96.65
192.926	104.24
193.314	5775.61
193.702	90.77
194.089	214.35
194.477	-90.43
194.864	598.22
195.252	164.23
195.639	-10.12
196.027	43.24
196.414	-146.2
196.801	-166.19
197.189	-17.15
197.576	42.01
197.963	-67.5
198.351	27.61
198.738	29.68
199.125	-14.16
199.512	6.99
199.899	22.98
200.286	-3.64
200.673	16.8
201.06	15.17
201.447	51.65
201.833	-60.69
202.22	51.15
202.607	10.73
202.994	38.43
203.38	39.12
203.767	-15.19
204.154	45.2
204.54	4.92
204.927	5.86
205.313	102.19
205.699	26.46
206.086	23.83
206.472	44.94
206.858	0.11
207.245	2.17
207.631	28.99
208.017	33.33
208.403	9.5
208.789	17.31
209.175	41.1
209.561	28.81
209.947	20.8
210.333	34.01
210.719	17.51
211.105	40.3
211.491	-0.78
211.876	19.48
212.262	13.73
212.648	19.46
213.034	15.69
213.419	-1.85
213.805	18.67
214.19	-3.82
214.576	42.1
214.961	-2.31
215.346	-15.82
215.732	4.24
216.117	9.33
216.502	53.29
216.888	4.87
217.273	12.95
217.658	-20.12
218.043	-4.19
218.428	33.7
218.813	-25.37
219.198	9.27
219.583	10.82
219.968	-3.69
220.353	25.92
220.738	-3.73
221.122	10.4
221.507	-11.91
221.892	-3.7
222.276	-3.23
222.661	-37.39
223.046	18.58
223.43	14.46
223.815	5.67
224.199	9.18
224.583	10.07
224.968	16.06
225.352	-3.31
225.736	1.31
226.121	6.56
226.505	1.01
226.889	2.65
227.273	-4.74
227.657	1.86
228.041	1.59
228.425	5.41
228.809	3.34
229.193	1.2
229.577	4.72
229.961	3.13
230.344	3.82
230.728	0.56
231.112	2.28
231.495	1.91
231.879	2.21
232.263	1.35
232.646	2.1
233.03	1
233.413	2.82
233.797	2.56
234.18	1.91
234.563	2.43
234.946	7.15
235.33	1.24
235.713	-0.41
236.096	1.59
236.479	1.64
236.862	5.46
237.245	1.3
237.628	3.07
238.011	2.38
238.394	1.09
238.777	2.19
239.16	2.37
239.543	3.65
239.925	4.38
240.308	2.48
240.691	2.98
241.073	2.15
241.456	3.17
241.838	1.18
242.221	1.5
242.603	2.05
242.986	2.68
243.368	0.97
243.75	2.56
244.133	2.19
244.515	1.73
244.897	1.69
245.279	1.7
245.661	1.24
246.043	2.16
246.425	0.79
246.807	1.75
247.189	0.14
247.571	2.06
247.953	2.93
248.335	2.02
248.717	2.26
249.098	1.89
249.48	1.73
249.862	1.64
250.243	1.76
250.625	1.92
251.006	1.58
251.388	2.07
251.769	2.38
252.151	1.87
252.532	2.55
252.913	2.01
253.295	2.51
253.676	1.81
254.057	2.14
254.438	2.36
254.819	1.38
255.2	2.97
255.581	1.76
255.962	1.84
256.343	1.6
256.724	0.74
257.105	1.84
257.486	1.83
257.867	0.23
258.247	2.54
258.628	2.87
259.009	1.6
259.389	1.32
259.77	2.23
260.15	2.64
260.531	1.24
260.911	1.8
261.292	1.84
261.672	1.6
262.052	1.77
262.432	1.93
262.813	1.66
263.193	1.52
263.573	2.32
263.953	1.75
264.333	2.38
264.713	2.04
265.093	1.52
265.473	1.76
265.853	1.64
266.233	1.74
266.612	1.32
266.992	2.61
267.372	2.06
267.752	2.22
268.131	1.19
268.511	1.78
268.89	2.15
269.27	1.65
269.649	1.74
270.029	1.82
270.408	1.99
270.787	1.47
271.167	1.52
271.546	1.38
271.925	1.94
272.304	0.83
272.683	2.11
273.062	2.2
273.441	1.97
273.82	2.23
274.199	2
274.578	2.48
274.957	1.59
275.336	1.94
275.715	1.68
276.093	1.05
276.472	1.59
276.851	2
277.229	1.39
277.608	1.72
277.986	1.28
278.365	2.33
278.743	2.07
279.122	1.69
279.5	1.89
279.878	2.09
280.257	2.27
280.635	1.92
281.013	2.25
281.391	0.71
281.769	1.44
282.147	1.98
282.525	1.95
282.903	2.25
283.281	1.84
283.659	2.2
284.037	1.74
284.415	1.65
284.792	1.84
285.17	2.18
285.548	2.2
285.925	1.83
286.303	1.71
286.68	1.63
287.058	1.67
287.435	1.64
287.813	1.78
288.19	1.35
288.567	1.74
288.945	1.75
289.322	2.03
289.699	2.07
290.076	1.8
290.453	1.6
290.83	1.6
291.207	1.59
291.584	1.91
291.961	1.69
292.338	1.81
292.715	2.17
293.092	1.98
293.469	2.13
293.845	2.09
294.222	2.28
294.599	2.29
294.975	2.43
295.352	2.28
295.728	1.67
296.105	2.1
296.481	1.71
296.858	1.96
297.234	2.25
297.61	1.88
297.986	2.13
298.363	2.03
298.739	1.98
299.115	2.02
299.491	2.2
299.867	2.38
300.243	1.86
300.619	2.13
300.995	1.8
301.371	2.36
301.746	2.24
302.122	2.44
302.498	1.47
302.874	1.84
303.249	1.93
303.625	2.12
304	2.18
304.376	2.25
304.751	2.11
305.127	1.97
305.502	2.11
305.878	2.17
306.253	1.83
306.628	1.52
307.003	2.21
307.378	1.93
307.754	2.1
308.129	2.06
308.504	2.08
308.879	2.24
309.254	2.08
309.629	1.91
310.003	2.4
310.378	2.59
310.753	1.94
311.128	2.36
311.502	2.67
311.877	1.79
312.252	2.56
312.626	2.16
313.001	2.55
313.375	2.03
313.75	2.76
314.124	2.45
314.498	2.03
314.873	2.38
315.247	2.66
315.621	2.18
315.995	2.46
316.369	1.53
316.743	1.86
317.117	2.37
317.491	2.65
317.865	1.97
318.239	2.11
318.613	2.68
318.987	2.5
319.361	1.84
319.734	2.47
320.108	3.11
320.482	2.05
320.855	2.32
321.229	2.73
321.602	2.62
321.976	1.85
322.349	2.34
322.723	2.69
323.096	1.9
323.469	2.62
323.843	2.55
324.216	2.32
324.589	2.56
324.962	2.1
325.335	1.91
325.708	2.24
326.081	2.45
326.454	1.74
326.827	2.06
327.2	2.07
327.573	2.92
327.945	2.59
328.318	2.87
328.691	2.62
329.063	2.3
329.436	2.65
329.809	2.72
330.181	2.54
330.553	2.49
330.926	2.45
331.298	2.27
331.671	2.59
332.043	1.44
332.415	2.62
332.787	2.6
333.159	2.29
333.532	2.49
333.904	2.49
334.276	2.16
334.648	2.16
335.02	2.55
335.391	2.38
335.763	2.7
336.135	2.57
336.507	2.45
336.879	2.09
337.25	2.44
337.622	2.54
337.993	2.34
338.365	2.63
338.736	2.33
339.108	3.11
339.479	2.71
339.851	2.25
340.222	2.15
340.593	2.18
340.964	1.92
341.336	2.2
341.707	2.67
342.078	2.52
342.449	2.46
342.82	2.34
343.191	2.41
343.562	2.6
343.933	2.74
344.303	2.2
344.674	2.72
345.045	2.51
345.416	3.04
345.786	2.3
346.157	2.4
346.527	2.43
346.898	2.48
347.268	1.96
347.639	2.33
348.009	2.17
348.38	2.58
348.75	2.76
349.12	2.57
349.49	2.8
349.861	1.83
350.231	2.23
350.601	2.44
350.971	2.72
351.341	1.88
351.711	2.15
352.081	2.59
352.45	2.48
352.82	2.78
353.19	2.61
353.56	2.45
353.929	2.52
354.299	2.64
354.669	2.36
355.038	2.58
355.408	2.68
355.777	2.56
356.147	2.43
356.516	2.65
356.885	2.39
357.254	3.14
357.624	1.8
357.993	2.66
358.362	2.83
358.731	2.56
359.1	2.49
359.469	2.62
359.838	2.26
360.207	2.31
360.576	2.61
360.945	2.62
361.314	2.67
361.682	2.62
362.051	2.68
362.42	2.54
362.788	2.15
363.157	2.65
363.525	2.66
363.894	2.37
364.262	2.39
364.631	2.39
364.999	2.35
365.367	2.54
365.735	2.58
366.104	2.31
366.472	2.8
366.84	2.32
367.208	2.82
367.576	2.86
367.944	2.64
368.312	2.83
368.68	2.71
369.048	2.73
369.416	2.62
369.783	2.46
370.151	2.06
370.519	2.42
370.886	2.84
371.254	2.95
371.621	2.6
371.989	2.88
372.356	2.72
372.724	2.87
373.091	2.73
373.458	2.44
373.826	2.59
374.193	2.65
374.56	2.76
374.927	2.76
375.294	2.85
375.661	2.85
376.028	2.91
376.395	2.98
376.762	2.65
377.129	2.72
377.496	2.74
377.863	2.56
378.229	2.66
378.596	2.58
378.963	2.7
379.329	2.74
379.696	2.76
380.062	2.39
380.429	2.69
380.795	2.58
381.161	2.49
381.528	2.48
381.894	2.26
382.26	2.71
382.626	2.52
382.993	2.98
383.359	2.37
383.725	2.77
384.091	2.69
384.457	2.77
384.823	2.47
385.188	2.78
385.554	3.06
385.92	2.93
386.286	2.55
386.651	2.72
387.017	2.85
387.383	2.49
387.748	2.57
388.114	2.82
388.479	2.82
388.845	2.49
389.21	2.45
389.575	2.66
389.94	2.64
390.306	3.03
390.671	2.81
391.036	2.29
391.401	2.67
391.766	2.5
392.131	2.9
392.496	2.78
392.861	2.66
393.226	2.76
393.591	2.79
393.956	2.81
394.32	2.66
394.685	2.65
395.05	2.86
395.414	2.65
395.779	2.83
396.143	2.62
396.508	2.98
396.872	2.66
397.236	2.7
397.601	2.57
397.965	2.89
398.329	2.89
398.694	2.73
399.058	2.97
399.422	2.82
399.786	2.8
400.15	2.88
400.514	2.79
400.878	2.73
401.242	2.64
401.605	2.62
401.969	2.33
402.333	2.74
402.697	2.66
403.06	2.89
403.424	2.81
403.787	2.91
404.151	2.76
404.514	2.96
404.878	2.92
405.241	3.15
405.604	2.77
405.968	2.82
406.331	2.91
406.694	2.75
407.057	2.65
407.42	2.99
407.783	2.79
408.146	2.77
408.509	2.79
408.872	2.86
409.235	2.77
409.598	2.76
409.961	2.9
410.323	2.92
410.686	2.68
411.049	3.05
411.411	3.08
411.774	2.73
412.136	2.56
412.499	2.64
412.861	2.85
413.223	2.8
413.586	2.79
413.948	3.05
414.31	2.73
414.672	2.9
415.035	2.57
415.397	3.24
415.759	3.06
416.121	2.65
416.483	2.92
416.845	2.59
417.206	2.86
417.568	2.91
417.93	2.97
418.292	2.87
418.653	2.8
419.015	2.94
419.377	2.62
419.738	2.87
420.1	2.79
420.461	3.05
420.822	2.88
421.184	2.74
421.545	2.79
421.906	2.78
422.267	2.75
422.629	2.85
422.99	2.78
423.351	2.73
423.712	2.82
424.073	2.82
424.434	2.95
424.795	2.8
425.155	2.89
425.516	2.89
425.877	2.85
426.238	2.59
426.598	2.8
426.959	2.77
427.32	2.92
427.68	2.8
428.041	2.64
428.401	2.85
428.761	3.07
429.122	2.89
429.482	2.87
429.842	2.74
430.202	2.79
430.563	3.02
430.923	3.04
431.283	3.06
431.643	2.97
432.003	3.07
432.363	3.07
432.722	3.11
433.082	3.09
433.442	2.88
433.802	3.09
434.161	2.84
434.521	3.03
434.881	2.93
435.24	2.8
435.6	2.9
435.959	2.89
436.319	2.87
436.678	3.03
437.037	3.1
437.396	2.71
437.756	2.93
438.115	3
438.474	2.81
438.833	3.05
439.192	3.04
439.551	3.04
439.91	3.1
440.269	3.04
440.628	2.86
440.987	2.86
441.345	3.18
441.704	3.1
442.063	2.89
442.421	3.02
442.78	3.06
443.138	2.97
443.497	2.9
443.855	3.04
444.214	2.87
444.572	3.02
444.93	3.2
445.288	3
445.647	3.05
446.005	3.16
446.363	2.86
446.721	3.02
447.079	2.9
447.437	3.07
447.795	3.04
448.153	2.99
448.51	3.09
448.868	2.87
449.226	2.91
449.584	3
449.941	3
450.299	3.06
450.656	3.17
451.014	3.1
451.371	3.11
451.729	3.21
452.086	3.05
452.443	3.14
452.801	3.19
453.158	2.92
453.515	3.14
453.872	3.06
454.229	3.12
454.586	3.12
454.943	2.98
455.3	3.19
455.657	3.19
456.014	2.9
456.371	3.18
456.727	3.3
457.084	3.14
457.441	3.01
457.797	2.99
458.154	3.09
458.51	3.07
458.867	3.15
459.223	3.11
459.58	3.36
459.936	3.24
460.292	3.24
460.648	3.3
461.005	3.18
461.361	3.16
461.717	2.94
462.073	3.15
462.429	3.04
462.785	3.09
463.141	3.12
463.496	3.17
463.852	3.1
464.208	3.21
464.564	3.29
464.919	3.2
465.275	3.29
465.631	3.45
465.986	3.35
466.342	3.32
466.697	3.33
467.052	3.22
467.408	3.31
467.763	3.35
468.118	3.31
468.473	3.22
468.829	3.2
469.184	3.3
469.539	3.16
469.894	3.27
470.249	3.4
470.603	3.21
470.958	3.37
471.313	3.29
471.668	3.36
472.023	3.38
472.377	3.33
472.732	3.2
473.086	3.51
473.441	3.01
473.795	3.55
474.15	3.28
474.504	3.24
474.859	3.43
475.213	3.3
475.567	3.09
475.921	3.31
476.275	3.31
476.63	3.26
476.984	3.19
477.338	3.41
477.692	3.34
478.045	3.46
478.399	3.44
478.753	3.37
479.107	3.37
479.461	3.19
479.814	3.39
480.168	3.37
480.521	3.32
480.875	3.4
481.228	3.39
481.582	3.22
481.935	3.33
482.289	3.23
482.642	3.31
482.995	3.43
483.348	3.33
483.701	3.39
484.055	3.34
484.408	3.23
484.761	3.33
485.114	3.24
485.466	3.15
485.819	3.12
486.172	3.11
486.525	3.11
486.878	3.16
487.23	3.18
487.583	3.24
487.936	3.32
488.288	3.26
488.641	3.27
488.993	3.25
489.345	3.23
489.698	3.24
490.05	3.25
490.402	3.23
490.754	3.18
491.107	3.29
491.459	3.36
491.811	3.32
492.163	3.4
492.515	3.34
492.866	3.36
493.218	3.41
493.57	3.38
493.922	3.26
494.274	3.32
494.625	3.31
494.977	3.35
495.328	3.47
495.68	3.49
496.031	3.46
496.383	3.58
496.734	3.57
497.086	3.45
497.437	3.6
497.788	3.46
498.139	3.62
498.49	3.71
498.842	3.41
499.193	3.57
499.544	3.63
499.894	3.51
500.245	3.55
500.596	3.5
500.947	3.7
501.298	3.59
501.648	3.56
501.999	3.62
502.35	3.56
502.7	3.67
503.051	3.58
503.401	3.7
503.752	3.67
504.102	3.52
504.452	3.61
504.803	3.65
505.153	3.73
505.503	3.57
505.853	3.75
506.203	3.65
506.553	3.8
506.903	3.78
507.253	3.66
507.603	3.8
507.953	3.88
508.303	3.71
508.652	3.83
509.002	3.83
509.352	3.78
509.701	3.85
510.051	3.74
510.4	3.77
510.75	3.75
511.099	3.62
511.449	3.8
511.798	3.83
512.147	3.77
512.496	3.76
512.846	3.72
513.195	3.8
513.544	3.73
513.893	3.78
514.242	3.79
514.591	3.84
514.939	3.89
515.288	3.75
515.637	3.76
515.986	3.88
516.334	3.87
516.683	3.87
517.032	3.87
517.38	3.91
517.729	3.82
518.077	3.84
518.426	3.9
518.774	3.93
519.122	3.93
519.47	3.96
519.819	3.85
520.167	4
520.515	3.92
520.863	3.94
521.211	3.86
521.559	3.89
521.907	3.9
522.255	3.88
522.602	4.02
522.95	3.95
523.298	4.12
523.645	4.07
523.993	3.94
524.341	3.92
524.688	4.07
525.036	4.04
525.383	4.07
525.73	4.1
526.078	4.03
526.425	3.96
526.772	4.11
527.119	4.01
527.466	3.9
527.814	3.95
528.161	3.96
528.508	3.94
528.854	4.09
529.201	4.12
529.548	4.06
529.895	4.01
530.242	3.96
530.588	3.92
530.935	3.85
531.282	3.85
531.628	3.94
531.975	3.98
532.321	4
532.667	4.1
533.014	4.2
533.36	4.19
533.706	4.18
534.052	4.24
534.399	4.3
534.745	4.19
535.091	4.05
535.437	4.14
535.783	4.03
536.129	4.21
536.474	4.27
536.82	4.15
537.166	4.26
537.512	4.33
537.857	4.26
538.203	4.39
538.549	4.29
538.894	4.24
539.239	4.25
539.585	4.24
539.93	4.41
540.276	4.46
540.621	4.38
540.966	4.4
541.311	4.46
541.656	4.44
542.001	4.46
542.346	4.49
542.691	4.62
543.036	4.34
543.381	4.3
543.726	4.34
544.071	4.32
544.415	4.31
544.76	4.38
545.105	4.36
545.449	4.35
545.794	4.51
546.138	4.61
546.483	4.51
546.827	4.53
547.171	4.63
547.516	4.69
547.86	4.69
548.204	4.67
548.548	4.73
548.892	4.71
549.236	4.59
549.58	4.68
549.924	4.74
550.268	4.72
550.612	4.78
550.956	4.76
551.3	4.87
551.643	5.01
551.987	4.8
552.33	4.93
552.674	4.99
553.017	5.06
553.361	4.88
553.704	4.92
554.048	5.14
554.391	5.05
554.734	5.05
555.077	4.95
555.42	4.88
555.764	4.97
556.107	5.05
556.45	4.94
556.793	5.07
557.135	5.05
557.478	4.89
557.821	5.17
558.164	5.16
558.507	5.23
558.849	5.09
559.192	5.23
559.534	5.31
559.877	5.29
560.219	5.22
560.562	5.32
560.904	5.37
561.246	5.56
561.589	5.39
561.931	5.37
562.273	5.15
562.615	5.22
562.957	5.35
563.299	5.4
563.641	5.43
563.983	5.54
564.325	5.42
564.667	5.49
565.008	5.37
565.35	5.5
565.692	5.53
566.033	5.47
566.375	5.57
566.716	5.58
567.058	5.39
567.399	5.47
567.741	5.68
568.082	5.51
568.423	5.64
568.764	5.79
569.105	5.51
569.447	5.54
569.788	5.57
570.129	5.8
570.47	5.84
570.811	5.84
571.151	5.91
571.492	5.71
571.833	5.69
572.174	5.72
572.514	5.89
572.855	5.85
573.195	5.83
573.536	5.82
573.876	5.93
574.217	5.86
574.557	5.84
574.898	6.01
575.238	5.92
575.578	6.17
575.918	6.03
576.258	5.86
576.598	6.08
576.938	6.1
577.278	6.16
577.618	5.81
577.958	6.12
578.298	6.26
578.638	6.1
578.977	6.15
579.317	6.22
579.657	6.27
579.996	6.18
580.336	6.25
580.675	6.47
581.014	6.18
581.354	6.26
581.693	6.59
582.032	6.6
582.372	6.55
582.711	6.51
583.05	6.34
583.389	6.63
583.728	6.44
584.067	6.43
584.406	6.6
584.745	6.42
585.083	6.73
585.422	6.71
585.761	6.51
586.1	6.84
586.438	6.8
586.777	6.85
587.115	6.89
587.454	6.53
587.792	6.92
588.13	6.78
588.469	6.69
588.807	7.12
589.145	7.1
589.483	6.96
589.821	7.04
590.159	7.02
590.497	7.05
590.835	7.07
591.173	6.9
591.511	7.19
591.849	7
592.187	7.03
592.524	7.09
592.862	7.05
593.2	6.96
593.537	7.04
593.875	7.15
594.212	7.1
594.55	7.41
594.887	7.24
595.224	7.48
595.561	7.51
595.899	7.49
596.236	7.54
596.573	7.35
596.91	7.52
597.247	7.32
597.584	7.42
597.921	7.64
598.258	7.55
598.594	7.43
598.931	7.46
599.268	7.37
599.604	7.62
599.941	7.52
600.277	7.56
600.614	7.53
600.95	7.63
601.287	7.53
601.623	7.49
601.959	7.57
602.296	7.8
602.632	7.62
602.968	7.73
603.304	7.79
603.64	7.62
603.976	7.69
604.312	7.75
604.648	7.77
604.984	7.81
605.319	7.75
605.655	7.75
605.991	7.92
606.326	7.98
606.662	7.91
606.998	7.7
607.333	8.09
607.668	8.06
608.004	7.93
608.339	7.9
608.674	7.97
609.01	7.85
609.345	8.19
609.68	8.28
610.015	8.28
610.35	8.16
610.685	8.56
611.02	8.45
611.355	8.32
611.689	8.33
612.024	8.4
612.359	8.37
612.694	8.42
613.028	8.46
613.363	8.32
613.697	8.28
614.032	8.53
614.366	8.33
614.7	8.53
615.035	8.53
615.369	8.71
615.703	8.49
616.037	8.86
616.371	8.85
616.705	8.94
617.039	8.99
617.373	8.81
617.707	8.75
618.041	9.04
618.375	8.77
618.709	8.8
619.042	8.89
619.376	9.04
619.71	9.05
620.043	8.6
620.377	8.9
620.71	9.1
621.043	9.08
621.377	9.03
621.71	8.85
622.043	8.86
622.376	9.3
622.709	9.31
623.043	8.88
623.376	9.35
623.709	9.34
624.041	9.35
624.374	9.36
624.707	9.51
625.04	9.54
625.373	9.09
625.705	9.57
626.038	9.52
626.37	9.71
626.703	9.75
627.035	9.53
627.368	9.54
627.7	9.67
628.032	9.63
628.365	9.82
628.697	9.56
629.029	9.75
629.361	9.81
629.693	9.78
630.025	9.67
630.357	9.6
630.689	9.92
631.021	9.75
631.353	9.44
631.684	9.76
632.016	10.29
632.348	9.95
632.679	9.94
633.011	10.21
633.342	10.07
633.674	10.49
634.005	9.7
634.336	10.54
634.668	10.06
634.999	10.02
635.33	10.34
635.661	10.26
635.992	10.11
636.323	10.17
636.654	10.27
636.985	9.95
637.316	10.2
637.647	10.28
637.977	10
638.308	10.38
638.639	10.1
638.969	10.68
639.3	10.31
639.63	10.84
639.961	10.19
640.291	10.45
640.622	10.52
640.952	10.43
641.282	10.87
641.612	10.47
641.943	10.89
642.273	11.18
642.603	10.78
642.933	10.65
643.263	10.32
643.592	10.86
643.922	10.79
644.252	11.13
644.582	11.12
644.911	11.1
645.241	11.1
645.571	11.17
645.9	11.11
646.23	10.93
646.559	11.35
646.888	11.07
647.218	10.84
647.547	11.03
647.876	11.06
648.205	10.98
648.534	11.78
648.863	11.15
649.192	10.81
649.521	11.59
649.85	11.03
650.179	11.33
650.508	10.95
650.837	11.51
651.165	11.26
651.494	11.57
651.822	11.64
652.151	11.19
652.479	11.68
652.808	11.67
653.136	12.38
653.465	11.52
653.793	11.5
654.121	11.65
654.449	11.5
654.777	11.5
655.105	11.79
655.433	12.14
655.761	12.42
656.089	11.87
656.417	11.21
656.745	11.77
657.073	11.87
657.4	12.6
657.728	12.32
658.056	11.95
658.383	12.28
658.711	12
659.038	11.85
659.365	12.15
659.693	12.19
660.02	12.34
660.347	12.36
660.674	11.91
661.001	12.14
661.329	12.18
661.656	12.17
661.982	11.96
662.309	12.1
662.636	12.57
662.963	12.27
663.29	12.62
663.616	12.38
663.943	12.53
664.27	12.51
664.596	12.63
664.923	12.62
665.249	12.3
665.576	12.31
665.902	12.22
666.228	12.76
666.554	11.8
666.881	13.2
667.207	12.84
667.533	12.75
667.859	12.96
668.185	12.82
668.511	13.35
668.837	12.65
669.162	12.8
669.488	12.76
669.814	12.83
670.139	13.52
670.465	13.27
670.791	12.87
671.116	12.87
671.442	13.67
671.767	12.27
672.092	13.51
672.418	13.48
672.743	13.66
673.068	13.36
673.393	13.21
673.718	13.98
674.043	13.88
674.368	13.53
674.693	13.21
675.018	13.32
675.343	13.36
675.667	13.51
675.992	13.51
676.317	13.62
676.641	13.82
676.966	13.61
677.29	13.69
677.615	13.52
677.939	14.36
678.264	13.94
678.588	14.08
678.912	13.68
679.236	13.93
679.56	13.44
679.885	13.73
680.209	14.54
680.532	13.69
680.856	13.52
681.18	13.72
681.504	14.18
681.828	13.65
682.152	13.91
682.475	14.09
682.799	14.47
683.122	14.08
683.446	14.13
683.769	14.26
684.093	14.55
684.416	13.87
684.739	14.08
685.062	15.25
685.386	14.17
685.709	14.26
686.032	14.45
686.355	14.3
686.678	14.89
687.001	14.9
687.324	15.26
687.646	14.73
687.969	15.08
688.292	14.87
688.614	14.66
688.937	13.89
