Data from 0219_forehead_Reflection__4__250.txt Node

Date: Fri Sep 22 22:46:44 CDT 2023
User: ToomeyLab
Spectrometer: FLMS14357
Trigger mode: 0
Integration Time (sec): 1.000000E-2
Scans to average: 100
Electric dark correction enabled: true
Nonlinearity correction enabled: false
Boxcar width: 0
XAxis mode: Wavelengths
Number of Pixels in Spectrum: 2048
>>>>>Begin Spectral Data<<<<<
189.047	-247.82
189.435	-247.82
189.823	-247.82
190.211	-477.98
190.599	-93.24
190.987	178.48
191.375	230.78
191.763	47.77
192.151	68.58
192.538	-144.03
192.926	-7.86
193.314	1008.54
193.702	1.06
194.089	138.15
194.477	-87.74
194.864	229.53
195.252	167.97
195.639	21.1
196.027	-13.76
196.414	273.2
196.801	69.56
197.189	40.61
197.576	65.41
197.963	-43.18
198.351	9.28
198.738	16.19
199.125	35.94
199.512	23.09
199.899	57.15
200.286	80.67
200.673	38.21
201.06	93.22
201.447	48.03
201.833	41.17
202.22	43.86
202.607	32.9
202.994	76.18
203.38	53.62
203.767	21.69
204.154	35.99
204.54	6.66
204.927	16.26
205.313	100.84
205.699	48.34
206.086	79.24
206.472	69.85
206.858	67.86
207.245	30.25
207.631	47
208.017	27.4
208.403	41.42
208.789	37.33
209.175	73.97
209.561	49.68
209.947	67.95
210.333	63.9
210.719	14.14
211.105	24.54
211.491	14.03
211.876	33.98
212.262	56.88
212.648	32.41
213.034	48.79
213.419	39.66
213.805	34.59
214.19	20.65
214.576	11.23
214.961	46.37
215.346	42
215.732	42.49
216.117	33.07
216.502	64.06
216.888	46.7
217.273	45.18
217.658	24.45
218.043	26.84
218.428	36.75
218.813	11.51
219.198	45.38
219.583	31.95
219.968	8.51
220.353	24.51
220.738	42.24
221.122	26.17
221.507	19.27
221.892	16.2
222.276	13.17
222.661	17.13
223.046	27.6
223.43	26.63
223.815	16.18
224.199	10.29
224.583	25.87
224.968	16.8
225.352	13
225.736	13.28
226.121	10.2
226.505	6.57
226.889	12.15
227.273	6.37
227.657	6.87
228.041	5.68
228.425	8.9
228.809	8.84
229.193	9.28
229.577	8.9
229.961	5.3
230.344	7.02
230.728	4.34
231.112	5.59
231.495	4.87
231.879	5.97
232.263	3.51
232.646	4.06
233.03	5.52
233.413	6.07
233.797	6.92
234.18	4.67
234.563	7.87
234.946	6.75
235.33	5.15
235.713	5.91
236.096	5.62
236.479	5.04
236.862	8.05
237.245	6.05
237.628	7.53
238.011	7.03
238.394	6.08
238.777	7.68
239.16	6.13
239.543	6.7
239.925	6.16
240.308	5.84
240.691	7.86
241.073	7.43
241.456	6.82
241.838	6.63
242.221	5.43
242.603	6.07
242.986	6.1
243.368	4.68
243.75	5.52
244.133	5.48
244.515	5.17
244.897	5.06
245.279	5.16
245.661	5.13
246.043	5.2
246.425	4.81
246.807	6.29
247.189	5.27
247.571	5.01
247.953	5.72
248.335	5.74
248.717	5.27
249.098	4.96
249.48	4.69
249.862	4.63
250.243	4.71
250.625	5.06
251.006	4.58
251.388	5.02
251.769	6.07
252.151	4.7
252.532	6.3
252.913	6.38
253.295	6.63
253.676	5.21
254.057	5.25
254.438	5.39
254.819	5.04
255.2	4.83
255.581	5.03
255.962	6.2
256.343	5.25
256.724	5.26
257.105	7.27
257.486	5.2
257.867	5.71
258.247	5.36
258.628	6.34
259.009	5.42
259.389	5.08
259.77	5.33
260.15	6.4
260.531	5.08
260.911	5.58
261.292	5.36
261.672	4.72
262.052	4.78
262.432	4.79
262.813	4.7
263.193	4.62
263.573	5.45
263.953	4.27
264.333	5.2
264.713	4.79
265.093	5.31
265.473	4.5
265.853	4.86
266.233	4.54
266.612	5.47
266.992	5.65
267.372	5.82
267.752	5.81
268.131	5.58
268.511	5.04
268.89	5.95
269.27	4.82
269.649	5.05
270.029	4.62
270.408	5.31
270.787	4.58
271.167	5.19
271.546	4.58
271.925	4.84
272.304	4.88
272.683	5.55
273.062	5.75
273.441	5.01
273.82	5.5
274.199	4.91
274.578	5.01
274.957	4.63
275.336	5.08
275.715	4.93
276.093	4.61
276.472	4.81
276.851	5.24
277.229	5.15
277.608	5.01
277.986	5.09
278.365	4.58
278.743	4.68
279.122	5.28
279.5	5.09
279.878	5.24
280.257	5.42
280.635	4.94
281.013	5.1
281.391	5.26
281.769	5.48
282.147	5.11
282.525	4.96
282.903	4.7
283.281	5.27
283.659	5.17
284.037	4.91
284.415	5.06
284.792	4.98
285.17	4.52
285.548	5.28
285.925	5.56
286.303	4.75
286.68	4.58
287.058	4.95
287.435	5.2
287.813	4.76
288.19	4.38
288.567	5.06
288.945	4.68
289.322	4.79
289.699	5.14
290.076	4.89
290.453	4.9
290.83	4.91
291.207	5.06
291.584	4.71
291.961	4.94
292.338	5.13
292.715	5.51
293.092	5.09
293.469	4.83
293.845	4.87
294.222	5.48
294.599	5.34
294.975	5.89
295.352	5.25
295.728	5.8
296.105	5.78
296.481	5.94
296.858	5.63
297.234	5.77
297.61	5.78
297.986	5.63
298.363	5.52
298.739	5.68
299.115	5.66
299.491	5.69
299.867	5.73
300.243	5.58
300.619	5.28
300.995	5.2
301.371	6.52
301.746	6.53
302.122	6.08
302.498	5.27
302.874	5.66
303.249	5.47
303.625	5.81
304	5.93
304.376	6.2
304.751	6.09
305.127	6.7
305.502	6.5
305.878	5.78
306.253	6.38
306.628	6.33
307.003	6.37
307.378	6.6
307.754	6.76
308.129	6.38
308.504	6.23
308.879	6.68
309.254	6.32
309.629	6.78
310.003	7.54
310.378	7.19
310.753	6.92
311.128	6.53
311.502	7.1
311.877	6.22
312.252	6.75
312.626	6.68
313.001	7.07
313.375	6.64
313.75	7.12
314.124	7.43
314.498	6.63
314.873	7.16
315.247	7.31
315.621	7.22
315.995	6.87
316.369	7.49
316.743	7.35
317.117	7.48
317.491	7.67
317.865	7.68
318.239	7.52
318.613	7.71
318.987	7.46
319.361	7.57
319.734	7.54
320.108	8.24
320.482	8.06
320.855	7.64
321.229	8.53
321.602	7.39
321.976	7.44
322.349	7.93
322.723	8
323.096	7.93
323.469	8.24
323.843	7.81
324.216	7.81
324.589	7.6
324.962	8.03
325.335	8.84
325.708	8.34
326.081	8.78
326.454	7.87
326.827	8.32
327.2	7.86
327.573	8.91
327.945	7.93
328.318	8.54
328.691	8.8
329.063	8.46
329.436	8.47
329.809	8.74
330.181	9.27
330.553	8.66
330.926	8.66
331.298	9.02
331.671	8.74
332.043	8.24
332.415	8.46
332.787	8.66
333.159	8.87
333.532	8.91
333.904	8.37
334.276	9.12
334.648	8.76
335.02	8.78
335.391	9.02
335.763	9.34
336.135	9
336.507	9.45
336.879	9.05
337.25	9.33
337.622	9.54
337.993	9.56
338.365	9.4
338.736	9.28
339.108	9.17
339.479	9.35
339.851	9.08
340.222	8.79
340.593	9.08
340.964	8.72
341.336	9.87
341.707	9.49
342.078	9.79
342.449	9.75
342.82	9.2
343.191	9.46
343.562	9.39
343.933	9.61
344.303	9.93
344.674	10.4
345.045	10.24
345.416	9.96
345.786	9.74
346.157	10.09
346.527	9.48
346.898	9.78
347.268	10.33
347.639	10.27
348.009	10.17
348.38	10.14
348.75	10.29
349.12	10.35
349.49	10.52
349.861	10.04
350.231	10.45
350.601	10.37
350.971	10.43
351.341	10.63
351.711	10.52
352.081	10.17
352.45	10.23
352.82	10.74
353.19	10.75
353.56	10.7
353.929	10.92
354.299	10.89
354.669	10.79
355.038	10.82
355.408	10.47
355.777	11.32
356.147	11.16
356.516	10.92
356.885	11.02
357.254	11.38
357.624	10.66
357.993	11.25
358.362	11.15
358.731	11.06
359.1	10.94
359.469	11.2
359.838	11.1
360.207	11.17
360.576	11.23
360.945	11.17
361.314	11.33
361.682	11.78
362.051	11.6
362.42	11.28
362.788	11.19
363.157	11.66
363.525	11.29
363.894	11.22
364.262	11.39
364.631	11.34
364.999	11.45
365.367	11.8
365.735	11.63
366.104	11.91
366.472	12.2
366.84	11.8
367.208	12.21
367.576	11.78
367.944	12.15
368.312	12.51
368.68	12.1
369.048	12.44
369.416	12.19
369.783	12.07
370.151	12
370.519	12.19
370.886	12.26
371.254	12.39
371.621	12.5
371.989	12.48
372.356	12.56
372.724	12.74
373.091	12.94
373.458	12.79
373.826	12.82
374.193	12.62
374.56	12.94
374.927	12.86
375.294	13.06
375.661	13.15
376.028	13.02
376.395	12.9
376.762	13.17
377.129	13.45
377.496	13.2
377.863	13.02
378.229	13.33
378.596	13.47
378.963	13.31
379.329	13.48
379.696	13.39
380.062	13.04
380.429	13.46
380.795	13.39
381.161	13.37
381.528	13.35
381.894	12.95
382.26	13.65
382.626	13.64
382.993	13.49
383.359	13.54
383.725	13.96
384.091	13.82
384.457	14.14
384.823	14.04
385.188	13.91
385.554	14.09
385.92	14.3
386.286	13.85
386.651	13.97
387.017	14.11
387.383	13.72
387.748	14.14
388.114	14.02
388.479	14.31
388.845	13.91
389.21	14.2
389.575	14.53
389.94	14.26
390.306	14.37
390.671	14.66
391.036	14.25
391.401	14.37
391.766	14.48
392.131	14.73
392.496	14.58
392.861	14.67
393.226	14.91
393.591	14.74
393.956	14.6
394.32	14.52
394.685	14.63
395.05	15.2
395.414	14.66
395.779	15.04
396.143	14.81
396.508	14.86
396.872	14.82
397.236	14.93
397.601	14.65
397.965	15.12
398.329	15.06
398.694	15.27
399.058	15.3
399.422	15.23
399.786	15.26
400.15	15.4
400.514	15.37
400.878	15.22
401.242	15.25
401.605	15.51
401.969	15.39
402.333	15.56
402.697	15.28
403.06	15.36
403.424	15.36
403.787	15.7
404.151	15.46
404.514	16.08
404.878	15.77
405.241	15.93
405.604	15.67
405.968	15.81
406.331	15.84
406.694	15.76
407.057	15.51
407.42	16.01
407.783	15.97
408.146	16.18
408.509	15.94
408.872	16.02
409.235	15.93
409.598	15.86
409.961	16.04
410.323	16.17
410.686	16
411.049	16.22
411.411	16.13
411.774	16.27
412.136	16.16
412.499	16.16
412.861	16.22
413.223	16.34
413.586	16.21
413.948	16.45
414.31	16.6
414.672	16.74
415.035	16.51
415.397	16.65
415.759	16.85
416.121	16.43
416.483	16.64
416.845	16.56
417.206	16.51
417.568	16.66
417.93	16.8
418.292	16.7
418.653	16.62
419.015	16.81
419.377	16.51
419.738	16.6
420.1	16.69
420.461	16.86
420.822	16.71
421.184	16.74
421.545	16.69
421.906	16.79
422.267	16.79
422.629	16.97
422.99	16.8
423.351	16.82
423.712	16.75
424.073	16.82
424.434	17.13
424.795	17.16
425.155	17.07
425.516	17.19
425.877	17.26
426.238	17.07
426.598	17.27
426.959	17.38
427.32	17.49
427.68	17.46
428.041	17.49
428.401	17.83
428.761	17.84
429.122	17.79
429.482	17.97
429.842	17.89
430.202	18.02
430.563	18.4
430.923	18.18
431.283	18.41
431.643	18.49
432.003	18.33
432.363	18.64
432.722	18.5
433.082	18.34
433.442	18.74
433.802	18.77
434.161	18.68
434.521	18.69
434.881	18.78
435.24	18.81
435.6	18.71
435.959	18.72
436.319	18.95
436.678	19.05
437.037	19.04
437.396	18.99
437.756	19.24
438.115	19.49
438.474	19.4
438.833	19.46
439.192	19.67
439.551	19.39
439.91	19.83
440.269	19.58
440.628	19.71
440.987	19.74
441.345	19.79
441.704	19.76
442.063	19.64
442.421	19.83
442.78	19.78
443.138	19.89
443.497	19.81
443.855	19.96
444.214	19.79
444.572	20.27
444.93	20.23
445.288	20.15
445.647	20.42
446.005	20.59
446.363	20.48
446.721	20.58
447.079	20.36
447.437	20.46
447.795	20.34
448.153	20.33
448.51	20.47
448.868	20.42
449.226	20.5
449.584	20.51
449.941	20.63
450.299	20.69
450.656	20.89
451.014	20.79
451.371	20.87
451.729	21
452.086	21.24
452.443	21.44
452.801	21.47
453.158	21.55
453.515	21.63
453.872	21.52
454.229	21.54
454.586	21.69
454.943	21.7
455.3	21.86
455.657	21.75
456.014	21.8
456.371	21.92
456.727	22.11
457.084	22.16
457.441	22.2
457.797	22.24
458.154	22.21
458.51	22.06
458.867	22.5
459.223	22.34
459.58	22.5
459.936	22.51
460.292	22.71
460.648	22.74
461.005	22.55
461.361	22.57
461.717	22.52
462.073	22.45
462.429	22.22
462.785	22.41
463.141	22.56
463.496	22.79
463.852	22.88
464.208	22.82
464.564	23.3
464.919	23.26
465.275	23.38
465.631	23.5
465.986	23.34
466.342	23.47
466.697	23.5
467.052	23.5
467.408	23.61
467.763	23.63
468.118	23.89
468.473	23.89
468.829	23.94
469.184	23.69
469.539	24.02
469.894	23.95
470.249	23.86
470.603	23.93
470.958	24.15
471.313	24.33
471.668	24.5
472.023	24.42
472.377	24.39
472.732	24.44
473.086	24.56
473.441	24.61
473.795	24.92
474.15	24.48
474.504	24.81
474.859	25.07
475.213	24.94
475.567	24.63
475.921	24.98
476.275	24.97
476.63	24.99
476.984	25.01
477.338	25.48
477.692	25.43
478.045	25.33
478.399	25.44
478.753	25.34
479.107	25.28
479.461	25.3
479.814	25.53
480.168	25.42
480.521	25.29
480.875	25.56
481.228	25.52
481.582	25.47
481.935	25.65
482.289	25.63
482.642	25.75
482.995	25.78
483.348	25.85
483.701	25.82
484.055	25.58
484.408	25.66
484.761	25.71
485.114	25.49
485.466	25.4
485.819	25.09
486.172	25.06
486.525	25.09
486.878	25.08
487.23	25.12
487.583	25.27
487.936	25.57
488.288	25.69
488.641	25.85
488.993	25.85
489.345	25.65
489.698	25.76
490.05	25.6
490.402	25.58
490.754	25.7
491.107	25.89
491.459	26.03
491.811	26.29
492.163	26.33
492.515	26.4
492.866	26.71
493.218	26.57
493.57	26.45
493.922	26.36
494.274	26.47
494.625	26.37
494.977	26.55
495.328	26.79
495.68	26.99
496.031	27.14
496.383	27.47
496.734	27.82
497.086	27.54
497.437	27.78
497.788	27.81
498.139	27.88
498.49	28.02
498.842	27.91
499.193	27.87
499.544	27.92
499.894	27.93
500.245	27.98
500.596	27.99
500.947	28.14
501.298	28.3
501.648	28.28
501.999	28.47
502.35	28.32
502.7	28.78
503.051	28.48
503.401	28.7
503.752	28.54
504.102	28.79
504.452	29.02
504.803	29.01
505.153	28.92
505.503	28.97
505.853	29.23
506.203	28.99
506.553	29.09
506.903	29.04
507.253	29.07
507.603	29.39
507.953	29.39
508.303	29.38
508.652	29.38
509.002	29.52
509.352	29.66
509.701	29.5
510.051	29.6
510.4	29.65
510.75	29.66
511.099	29.35
511.449	29.69
511.798	29.66
512.147	29.67
512.496	29.67
512.846	29.61
513.195	29.81
513.544	29.93
513.893	29.94
514.242	29.85
514.591	30
514.939	29.83
515.288	29.83
515.637	30.23
515.986	30.26
516.334	30.13
516.683	30.25
517.032	30.32
517.38	30.68
517.729	30.4
518.077	30.56
518.426	30.7
518.774	30.81
519.122	30.54
519.47	30.65
519.819	30.68
520.167	30.57
520.515	30.46
520.863	30.29
521.211	30.48
521.559	30.51
521.907	30.44
522.255	30.6
522.602	30.61
522.95	30.83
523.298	30.9
523.645	30.98
523.993	31.04
524.341	31.1
524.688	31.45
525.036	31.32
525.383	31.41
525.73	31.49
526.078	31.38
526.425	31.65
526.772	31.36
527.119	31.45
527.466	31.17
527.814	30.96
528.161	31.05
528.508	30.98
528.854	30.98
529.201	31.12
529.548	31.12
529.895	31.12
530.242	30.91
530.588	30.7
530.935	30.72
531.282	30.83
531.628	30.86
531.975	30.82
532.321	30.94
532.667	31.28
533.014	31.41
533.36	31.58
533.706	31.81
534.052	31.91
534.399	31.86
534.745	31.84
535.091	31.7
535.437	31.61
535.783	31.53
536.129	31.61
536.474	31.68
536.82	31.89
537.166	32.04
537.512	32.2
537.857	32.24
538.203	32.35
538.549	32.36
538.894	32.29
539.239	32.28
539.585	32.22
539.93	32.7
540.276	32.73
540.621	32.73
540.966	32.88
541.311	32.9
541.656	33.23
542.001	33.13
542.346	33.11
542.691	32.99
543.036	32.87
543.381	32.59
543.726	32.53
544.071	32.46
544.415	32.55
544.76	32.59
545.105	32.57
545.449	32.71
545.794	32.98
546.138	33.18
546.483	33.16
546.827	33.38
547.171	33.54
547.516	33.73
547.86	33.75
548.204	34.02
548.548	33.85
548.892	33.82
549.236	33.86
549.58	34.05
549.924	34.05
550.268	34.13
550.612	34.09
550.956	34.4
551.3	34.43
551.643	34.62
551.987	34.46
552.33	34.98
552.674	34.85
553.017	34.92
553.361	35.04
553.704	35.08
554.048	35.08
554.391	35.07
554.734	35.25
555.077	35.04
555.42	35.03
555.764	34.89
556.107	35.25
556.45	35.29
556.793	35.38
557.135	35.38
557.478	35.42
557.821	35.5
558.164	36.02
558.507	35.84
558.849	35.62
559.192	35.73
559.534	36.05
559.877	36
560.219	35.91
560.562	36.08
560.904	36.09
561.246	36.19
561.589	36.28
561.931	36.36
562.273	36.16
562.615	36.28
562.957	36.41
563.299	36.48
563.641	36.37
563.983	36.07
564.325	36.35
564.667	36.45
565.008	36.49
565.35	36.63
565.692	36.51
566.033	36.78
566.375	36.76
566.716	36.75
567.058	36.89
567.399	36.73
567.741	36.91
568.082	36.81
568.423	36.77
568.764	36.81
569.105	36.59
569.447	36.78
569.788	36.67
570.129	36.9
570.47	37.07
570.811	37.08
571.151	37.25
571.492	37.4
571.833	37.22
572.174	37.34
572.514	37.26
572.855	37.27
573.195	37.17
573.536	37.27
573.876	37.44
574.217	37.3
574.557	37.43
574.898	37.52
575.238	37.19
575.578	37.62
575.918	37.63
576.258	37.58
576.598	37.88
576.938	37.72
577.278	37.75
577.618	37.65
577.958	37.97
578.298	38
578.638	37.97
578.977	38.12
579.317	38.07
579.657	38.36
579.996	38.31
580.336	38.34
580.675	38.59
581.014	38.5
581.354	38.85
581.693	38.87
582.032	39.06
582.372	38.92
582.711	38.87
583.05	39.15
583.389	38.99
583.728	39.41
584.067	39.33
584.406	39.31
584.745	39.28
585.083	39.62
585.422	39.59
585.761	39.56
586.1	39.33
586.438	39.7
586.777	39.46
587.115	39.67
587.454	39.35
587.792	39.78
588.13	39.63
588.469	39.56
588.807	39.8
589.145	39.66
589.483	39.85
589.821	39.87
590.159	40.32
590.497	40.06
590.835	39.95
591.173	39.99
591.511	39.91
591.849	40.31
592.187	40.06
592.524	40.44
592.862	40.41
593.2	40.39
593.537	40.49
593.875	40.3
594.212	39.87
594.55	40.65
594.887	40.67
595.224	40.72
595.561	40.71
595.899	40.72
596.236	40.96
596.573	41.04
596.91	40.69
597.247	40.83
597.584	41.16
597.921	40.93
598.258	40.91
598.594	41.09
598.931	40.83
599.268	41.09
599.604	41.02
599.941	41.01
600.277	40.92
600.614	40.99
600.95	41.35
601.287	41.03
601.623	41.26
601.959	41.56
602.296	41.17
602.632	41.56
602.968	41.58
603.304	42.07
603.64	41.78
603.976	41.84
604.312	41.52
604.648	41.82
604.984	41.94
605.319	41.86
605.655	42.07
605.991	41.54
606.326	41.82
606.662	41.62
606.998	41.84
607.333	41.71
607.668	41.75
608.004	41.83
608.339	41.8
608.674	42.24
609.01	42.27
609.345	42.32
609.68	42.42
610.015	42.1
610.35	42.67
610.685	42.7
611.02	42.58
611.355	42.75
611.689	42.5
612.024	42.69
612.359	42.54
612.694	42.67
613.028	42.61
613.363	42.74
613.697	42.87
614.032	43.09
614.366	42.72
614.7	43.06
615.035	43.17
615.369	43.26
615.703	43.56
616.037	43.42
616.371	43.62
616.705	43.67
617.039	43.74
617.373	43.52
617.707	43.52
618.041	43.84
618.375	43.74
618.709	44.09
619.042	43.95
619.376	44.13
619.71	44.18
620.043	43.6
620.377	44.41
620.71	44.05
621.043	43.99
621.377	44.19
621.71	44.04
622.043	44.04
622.376	44.51
622.709	44.79
623.043	44.42
623.376	44.27
623.709	44.63
624.041	44.53
624.374	44.43
624.707	44.19
625.04	44.53
625.373	44.27
625.705	44.81
626.038	44.85
626.37	44.93
626.703	45.12
627.035	44.88
627.368	44.73
627.7	44.71
628.032	45.2
628.365	45.48
628.697	45.24
629.029	45.12
629.361	45.46
629.693	45.04
630.025	45.51
630.357	45.22
630.689	45.35
631.021	44.84
631.353	45.37
631.684	45.68
632.016	45.78
632.348	45.5
632.679	45.87
633.011	45.53
633.342	45.79
633.674	46.2
634.005	45.91
634.336	45.86
634.668	45.81
634.999	46.06
635.33	46.16
635.661	45.87
635.992	45.95
636.323	46.4
636.654	46.21
636.985	46.17
637.316	46.6
637.647	46.56
637.977	46.26
638.308	46.34
638.639	46.4
638.969	46.66
639.3	46.67
639.63	46.33
639.961	46.31
640.291	46.81
640.622	46.97
640.952	46.74
641.282	46.68
641.612	47.15
641.943	47.39
642.273	47.52
642.603	47.47
642.933	47.31
643.263	46.92
643.592	47.25
643.922	47.63
644.252	46.66
644.582	47.2
644.911	47.23
645.241	47.5
645.571	47.26
645.9	47.46
646.23	47.45
646.559	47.69
646.888	47.35
647.218	47.63
647.547	47.64
647.876	47.43
648.205	47.67
648.534	48.31
648.863	47.44
649.192	47.89
649.521	47.85
649.85	48.54
650.179	47.9
650.508	47.96
650.837	48.37
651.165	48.23
651.494	48.1
651.822	47.81
652.151	48.18
652.479	48.19
652.808	48.43
653.136	48.53
653.465	48.46
653.793	48.74
654.121	48.59
654.449	48.4
654.777	48.43
655.105	48.91
655.433	48.11
655.761	48.46
656.089	48.39
656.417	48.09
656.745	48.49
657.073	49.07
657.4	49
657.728	49.1
658.056	48.94
658.383	49.27
658.711	48.68
659.038	48.49
659.365	49.15
659.693	48.94
660.02	49.09
660.347	49.16
660.674	49.27
661.001	49.27
661.329	49.41
661.656	49.7
661.982	49.07
662.309	49.46
662.636	49.7
662.963	49.51
663.29	49.93
663.616	49.37
663.943	49.44
664.27	49.62
664.596	49.8
664.923	50.04
665.249	49.96
665.576	49.67
665.902	50.33
666.228	49.98
666.554	50.66
666.881	50.03
667.207	50.05
667.533	50.41
667.859	50.26
668.185	50.2
668.511	50.13
668.837	50.28
669.162	50.17
669.488	50.19
669.814	49.86
670.139	50.7
670.465	50.21
670.791	50.58
671.116	51.04
