Data from 0219_crown_Reflection__5__245.txt Node

Date: Fri Sep 22 22:45:38 CDT 2023
User: ToomeyLab
Spectrometer: FLMS14357
Trigger mode: 0
Integration Time (sec): 1.000000E-2
Scans to average: 100
Electric dark correction enabled: true
Nonlinearity correction enabled: false
Boxcar width: 0
XAxis mode: Wavelengths
Number of Pixels in Spectrum: 2048
>>>>>Begin Spectral Data<<<<<
189.047	143.19
189.435	143.19
189.823	143.19
190.211	-541.71
190.599	64.18
190.987	237.73
191.375	334.21
191.763	-4.4
192.151	133.42
192.538	-291.48
192.926	75.18
193.314	-4110.98
193.702	75.33
194.089	108.85
194.477	5.33
194.864	1242.28
195.252	257.75
195.639	-66.96
196.027	66.32
196.414	135.83
196.801	126.69
197.189	-105.65
197.576	35.06
197.963	-104.76
198.351	-5.53
198.738	7.49
199.125	14.22
199.512	26.82
199.899	36.52
200.286	-2.99
200.673	10.65
201.06	52.76
201.447	38.55
201.833	-11.09
202.22	50.51
202.607	23.63
202.994	28.74
203.38	40.84
203.767	40.16
204.154	38.54
204.54	21.19
204.927	39.52
205.313	53.45
205.699	56.05
206.086	39.34
206.472	45.35
206.858	55.36
207.245	7.11
207.631	26.51
208.017	32.24
208.403	33.42
208.789	15.51
209.175	28.78
209.561	41.2
209.947	27.04
210.333	7.49
210.719	-41.63
211.105	6.58
211.491	18.97
211.876	32.49
212.262	44.72
212.648	15.31
213.034	42.05
213.419	17.59
213.805	17.87
214.19	30.17
214.576	41.39
214.961	21.1
215.346	29.83
215.732	33.83
216.117	10.61
216.502	45.06
216.888	47.09
217.273	11.82
217.658	-12.6
218.043	16.38
218.428	18.86
218.813	13.33
219.198	-4.23
219.583	13.94
219.968	15.54
220.353	33.43
220.738	19.91
221.122	18.05
221.507	-7.89
221.892	14.06
222.276	3.32
222.661	-14.37
223.046	23.29
223.43	16.14
223.815	6.29
224.199	7.81
224.583	11.72
224.968	23.75
225.352	8.42
225.736	11.06
226.121	10.72
226.505	8.22
226.889	9.3
227.273	5.54
227.657	13.6
228.041	6.38
228.425	14.44
228.809	8.31
229.193	9.49
229.577	11.41
229.961	8.49
230.344	11.86
230.728	8.07
231.112	9.77
231.495	8.64
231.879	8.58
232.263	8.08
232.646	9.33
233.03	7.98
233.413	8.7
233.797	8.67
234.18	8.44
234.563	11.15
234.946	6.91
235.33	7.1
235.713	6.41
236.096	8.72
236.479	6.8
236.862	10.96
237.245	8.93
237.628	10.38
238.011	9.9
238.394	8.99
238.777	9.24
239.16	9.94
239.543	9.57
239.925	8.46
240.308	8.68
240.691	8.31
241.073	8.04
241.456	6.05
241.838	7.58
242.221	7.66
242.603	8.9
242.986	7.81
243.368	8.95
243.75	8.31
244.133	8.45
244.515	7.97
244.897	7.81
245.279	8.58
245.661	7.79
246.043	8.43
246.425	7.71
246.807	7.17
247.189	6.84
247.571	7.92
247.953	8.71
248.335	8.01
248.717	8.29
249.098	7.88
249.48	7.63
249.862	7.53
250.243	7.71
250.625	7.62
251.006	7.33
251.388	7.8
251.769	7.89
252.151	6.82
252.532	7.99
252.913	7.6
253.295	8.65
253.676	8.21
254.057	7.71
254.438	7.64
254.819	7.08
255.2	7.83
255.581	7.48
255.962	7.56
256.343	7.85
256.724	5.79
257.105	7.34
257.486	7.3
257.867	7.04
258.247	7.33
258.628	7.79
259.009	7.77
259.389	7.06
259.77	7.33
260.15	7.71
260.531	6.39
260.911	7.06
261.292	6.69
261.672	6.86
262.052	7.06
262.432	7.02
262.813	7.27
263.193	7.08
263.573	8.17
263.953	6.36
264.333	7.2
264.713	7.21
265.093	6.72
265.473	6.57
265.853	6.28
266.233	7.51
266.612	7.27
266.992	6.49
267.372	7.04
267.752	7.3
268.131	7.26
268.511	6.68
268.89	7.47
269.27	6.38
269.649	6.78
270.029	6.99
270.408	7.36
270.787	6.88
271.167	7.06
271.546	6.41
271.925	7.18
272.304	6.25
272.683	7.13
273.062	6.8
273.441	6.44
273.82	7.01
274.199	6.92
274.578	7.2
274.957	6.78
275.336	6.52
275.715	6.66
276.093	6.16
276.472	6.3
276.851	7.06
277.229	5.91
277.608	7.55
277.986	6.71
278.365	6.62
278.743	6.28
279.122	6.79
279.5	7.18
279.878	6.5
280.257	7.55
280.635	7
281.013	6.47
281.391	6.22
281.769	6.8
282.147	7.03
282.525	6.75
282.903	6.35
283.281	6.45
283.659	6.49
284.037	6.16
284.415	6.59
284.792	5.91
285.17	6.1
285.548	6.74
285.925	6.41
286.303	6.2
286.68	5.58
287.058	6.05
287.435	6.04
287.813	6.39
288.19	5.59
288.567	6.24
288.945	6.03
289.322	5.93
289.699	6.32
290.076	6.01
290.453	5.37
290.83	5.65
291.207	5.97
291.584	5.77
291.961	5.84
292.338	5.82
292.715	6.06
293.092	5.85
293.469	5.9
293.845	5.68
294.222	6.1
294.599	6.16
294.975	5.9
295.352	5.76
295.728	5.87
296.105	6.36
296.481	5.95
296.858	5.97
297.234	5.99
297.61	5.84
297.986	5.86
298.363	5.48
298.739	5.52
299.115	6.15
299.491	5.67
299.867	5.89
300.243	5.76
300.619	6.01
300.995	5.53
301.371	5.87
301.746	5.53
302.122	5.35
302.498	5.75
302.874	5.35
303.249	5.49
303.625	5.5
304	5.64
304.376	6.2
304.751	5.91
305.127	5.51
305.502	5.58
305.878	5.84
306.253	5.75
306.628	5.39
307.003	6.07
307.378	5.38
307.754	5.47
308.129	5.62
308.504	5.63
308.879	5.45
309.254	5.83
309.629	5.55
310.003	5.41
310.378	6.14
310.753	6.22
311.128	5.85
311.502	6.04
311.877	5.07
312.252	5.37
312.626	5.59
313.001	6.1
313.375	5.81
313.75	5.73
314.124	5.69
314.498	5.26
314.873	5.02
315.247	5.53
315.621	6.02
315.995	5.24
316.369	5.35
316.743	5.63
317.117	5.7
317.491	5.98
317.865	4.84
318.239	5.52
318.613	5.86
318.987	5.24
319.361	5.12
319.734	5.36
320.108	5.46
320.482	5.15
320.855	5.5
321.229	5.92
321.602	5.35
321.976	4.96
322.349	5.2
322.723	5.49
323.096	5.68
323.469	5.85
323.843	5.21
324.216	6.01
324.589	5.47
324.962	5.01
325.335	5.18
325.708	5.19
326.081	5.41
326.454	4.59
326.827	5.22
327.2	5.49
327.573	5.42
327.945	5.33
328.318	5.51
328.691	5.4
329.063	5.12
329.436	5.66
329.809	5.34
330.181	5.77
330.553	5.62
330.926	5.31
331.298	5.74
331.671	5.34
332.043	4.5
332.415	5.38
332.787	5.64
333.159	5.13
333.532	4.79
333.904	5.41
334.276	4.92
334.648	4.83
335.02	4.47
335.391	5.02
335.763	5.82
336.135	5.43
336.507	5.07
336.879	4.75
337.25	5.46
337.622	5.98
337.993	4.98
338.365	5.28
338.736	5.36
339.108	5.06
339.479	5.15
339.851	5.04
340.222	5.19
340.593	5.57
340.964	4.95
341.336	5.68
341.707	5.21
342.078	5.34
342.449	5.14
342.82	4.88
343.191	4.66
343.562	4.73
343.933	5.18
344.303	4.92
344.674	5.47
345.045	5.24
345.416	5.41
345.786	5.14
346.157	4.99
346.527	5.16
346.898	5.59
347.268	5.16
347.639	5.42
348.009	5.49
348.38	5.64
348.75	5.68
349.12	5.64
349.49	5.78
349.861	5.57
350.231	5.49
350.601	5.44
350.971	5.69
351.341	5.07
351.711	5.14
352.081	5.4
352.45	5.57
352.82	5.63
353.19	5.56
353.56	5.26
353.929	5.6
354.299	5.46
354.669	5.47
355.038	5.38
355.408	5.49
355.777	5.54
356.147	5.61
356.516	5.48
356.885	5.48
357.254	5.73
357.624	5.22
357.993	5.22
358.362	5.5
358.731	5.26
359.1	5.5
359.469	5.73
359.838	5.22
360.207	5.24
360.576	5.61
360.945	5.16
361.314	5.55
361.682	5.88
362.051	5.6
362.42	5.28
362.788	5.39
363.157	5.67
363.525	5.61
363.894	5.17
364.262	5.35
364.631	5.28
364.999	5.26
365.367	5.54
365.735	5.34
366.104	5.29
366.472	5.83
366.84	5.47
367.208	5.5
367.576	5.5
367.944	5.42
368.312	5.66
368.68	5.72
369.048	5.56
369.416	5.75
369.783	5.43
370.151	5.56
370.519	5.4
370.886	5.79
371.254	5.76
371.621	5.42
371.989	5.91
372.356	5.18
372.724	5.97
373.091	5.57
373.458	5.67
373.826	5.45
374.193	5.59
374.56	5.77
374.927	5.73
375.294	5.55
375.661	5.72
376.028	5.7
376.395	5.51
376.762	5.58
377.129	5.91
377.496	6.03
377.863	6.07
378.229	6.02
378.596	5.68
378.963	5.86
379.329	5.67
379.696	5.82
380.062	5.31
380.429	5.73
380.795	5.96
381.161	5.66
381.528	5.66
381.894	5.18
382.26	5.58
382.626	5.7
382.993	5.86
383.359	5.46
383.725	5.48
384.091	5.8
384.457	5.45
384.823	5.76
385.188	5.84
385.554	5.84
385.92	5.95
386.286	5.59
386.651	5.68
387.017	6
387.383	5.48
387.748	5.52
388.114	5.59
388.479	5.88
388.845	5.49
389.21	5.46
389.575	6.12
389.94	5.55
390.306	5.45
390.671	5.93
391.036	5.76
391.401	5.79
391.766	5.64
392.131	5.81
392.496	5.95
392.861	5.65
393.226	6
393.591	5.96
393.956	5.63
394.32	5.9
394.685	5.8
395.05	5.84
395.414	6.09
395.779	5.81
396.143	5.8
396.508	5.71
396.872	5.76
397.236	5.77
397.601	5.72
397.965	6.04
398.329	5.72
398.694	6.02
399.058	5.77
399.422	5.83
399.786	5.94
400.15	6.18
400.514	6.09
400.878	5.83
401.242	6.11
401.605	5.82
401.969	5.73
402.333	5.98
402.697	5.69
403.06	5.82
403.424	5.97
403.787	6.05
404.151	5.83
404.514	5.86
404.878	5.99
405.241	6.26
405.604	6.03
405.968	5.92
406.331	6.01
406.694	6.03
407.057	5.91
407.42	6.04
407.783	5.81
408.146	5.96
408.509	5.94
408.872	5.94
409.235	5.91
409.598	5.91
409.961	6.09
410.323	6.13
410.686	5.88
411.049	6.16
411.411	6.04
411.774	5.82
412.136	5.96
412.499	5.93
412.861	5.99
413.223	6.07
413.586	5.94
413.948	5.92
414.31	5.94
414.672	6.1
415.035	5.98
415.397	6.23
415.759	6.31
416.121	5.95
416.483	5.95
416.845	6.16
417.206	5.96
417.568	6.15
417.93	6.11
418.292	5.98
418.653	5.9
419.015	6.08
419.377	5.96
419.738	6.09
420.1	5.94
420.461	6.06
420.822	6.02
421.184	5.98
421.545	5.94
421.906	5.99
422.267	6.02
422.629	6.06
422.99	6.03
423.351	5.88
423.712	5.88
424.073	5.93
424.434	6.01
424.795	6.03
425.155	6.14
425.516	6.05
425.877	6.05
426.238	5.81
426.598	5.96
426.959	6.08
427.32	6.12
427.68	6.04
428.041	5.96
428.401	6.15
428.761	6.24
429.122	6.11
429.482	6.19
429.842	5.99
430.202	6.14
430.563	6.39
430.923	6.27
431.283	6.25
431.643	6.22
432.003	6.27
432.363	6.41
432.722	6.29
433.082	6.25
433.442	6.19
433.802	6.44
434.161	6.16
434.521	6.24
434.881	6.2
435.24	6.13
435.6	6.26
435.959	6.09
436.319	6.13
436.678	6.18
437.037	6.33
437.396	6.21
437.756	6.44
438.115	6.28
438.474	6.29
438.833	6.31
439.192	6.3
439.551	6.19
439.91	6.36
440.269	6.24
440.628	6.17
440.987	6.34
441.345	6.44
441.704	6.26
442.063	6.25
442.421	6.26
442.78	6.19
443.138	6.19
443.497	6.27
443.855	6.29
444.214	6.09
444.572	6.41
444.93	6.36
445.288	6.35
445.647	6.4
446.005	6.21
446.363	6.24
446.721	6.3
447.079	6.12
447.437	6.25
447.795	6.35
448.153	6.29
448.51	6.28
448.868	6.23
449.226	6.25
449.584	6.24
449.941	6.16
450.299	6.31
450.656	6.31
451.014	6.43
451.371	6.27
451.729	6.27
452.086	6.38
452.443	6.47
452.801	6.32
453.158	6.32
453.515	6.64
453.872	6.41
454.229	6.46
454.586	6.53
454.943	6.35
455.3	6.36
455.657	6.42
456.014	6.39
456.371	6.61
456.727	6.62
457.084	6.59
457.441	6.6
457.797	6.59
458.154	6.5
458.51	6.42
458.867	6.46
459.223	6.51
459.58	6.51
459.936	6.58
460.292	6.54
460.648	6.56
461.005	6.49
461.361	6.48
461.717	6.28
462.073	6.5
462.429	6.28
462.785	6.26
463.141	6.46
463.496	6.58
463.852	6.47
464.208	6.51
464.564	6.6
464.919	6.49
465.275	6.74
465.631	6.58
465.986	6.67
466.342	6.55
466.697	6.56
467.052	6.6
467.408	6.52
467.763	6.7
468.118	6.73
468.473	6.47
468.829	6.54
469.184	6.53
469.539	6.56
469.894	6.53
470.249	6.56
470.603	6.52
470.958	6.63
471.313	6.56
471.668	6.67
472.023	6.63
472.377	6.67
472.732	6.68
473.086	6.58
473.441	6.5
473.795	6.72
474.15	6.52
474.504	6.6
474.859	6.81
475.213	6.46
475.567	6.49
475.921	6.63
476.275	6.72
476.63	6.61
476.984	6.64
477.338	6.51
477.692	6.53
478.045	6.85
478.399	6.7
478.753	6.64
479.107	6.45
479.461	6.51
479.814	6.72
480.168	6.68
480.521	6.54
480.875	6.81
481.228	6.61
481.582	6.44
481.935	6.57
482.289	6.47
482.642	6.46
482.995	6.74
483.348	6.53
483.701	6.54
484.055	6.47
484.408	6.57
484.761	6.49
485.114	6.33
485.466	6.33
485.819	6.26
486.172	6.23
486.525	6.22
486.878	6.19
487.23	6.24
487.583	6.27
487.936	6.42
488.288	6.46
488.641	6.38
488.993	6.35
489.345	6.33
489.698	6.34
490.05	6.36
490.402	6.34
490.754	6.25
491.107	6.32
491.459	6.4
491.811	6.34
492.163	6.46
492.515	6.43
492.866	6.4
493.218	6.41
493.57	6.41
493.922	6.33
494.274	6.35
494.625	6.34
494.977	6.39
495.328	6.48
495.68	6.51
496.031	6.49
496.383	6.54
496.734	6.64
497.086	6.61
497.437	6.52
497.788	6.6
498.139	6.61
498.49	6.72
498.842	6.45
499.193	6.42
499.544	6.55
499.894	6.58
500.245	6.55
500.596	6.55
500.947	6.58
501.298	6.62
501.648	6.69
501.999	6.61
502.35	6.61
502.7	6.6
503.051	6.73
503.401	6.58
503.752	6.85
504.102	6.65
504.452	6.63
504.803	6.68
505.153	6.6
505.503	6.56
505.853	6.68
506.203	6.55
506.553	6.61
506.903	6.57
507.253	6.56
507.603	6.66
507.953	6.73
508.303	6.76
508.652	6.71
509.002	6.84
509.352	6.57
509.701	6.63
510.051	6.67
510.4	6.7
510.75	6.51
511.099	6.4
511.449	6.62
511.798	6.72
512.147	6.5
512.496	6.52
512.846	6.47
513.195	6.48
513.544	6.52
513.893	6.7
514.242	6.64
514.591	6.54
514.939	6.65
515.288	6.48
515.637	6.52
515.986	6.46
516.334	6.56
516.683	6.55
517.032	6.65
517.38	6.66
517.729	6.53
518.077	6.63
518.426	6.63
518.774	6.64
519.122	6.52
519.47	6.62
519.819	6.51
520.167	6.59
520.515	6.52
520.863	6.47
521.211	6.47
521.559	6.46
521.907	6.5
522.255	6.51
522.602	6.5
522.95	6.5
523.298	6.49
523.645	6.69
523.993	6.42
524.341	6.47
524.688	6.64
525.036	6.54
525.383	6.53
525.73	6.56
526.078	6.55
526.425	6.61
526.772	6.61
527.119	6.47
527.466	6.46
527.814	6.38
528.161	6.34
528.508	6.42
528.854	6.43
529.201	6.52
529.548	6.42
529.895	6.36
530.242	6.33
530.588	6.27
530.935	6.18
531.282	6.16
531.628	6.2
531.975	6.25
532.321	6.23
532.667	6.34
533.014	6.31
533.36	6.4
533.706	6.43
534.052	6.48
534.399	6.41
534.745	6.37
535.091	6.33
535.437	6.31
535.783	6.23
536.129	6.32
536.474	6.31
536.82	6.2
537.166	6.48
537.512	6.48
537.857	6.41
538.203	6.51
538.549	6.35
538.894	6.35
539.239	6.23
539.585	6.35
539.93	6.36
540.276	6.37
540.621	6.37
540.966	6.38
541.311	6.6
541.656	6.43
542.001	6.48
542.346	6.44
542.691	6.39
543.036	6.26
543.381	6.36
543.726	6.18
544.071	6.13
544.415	6.18
544.76	6.1
545.105	6.12
545.449	6.28
545.794	6.29
546.138	6.26
546.483	6.23
546.827	6.18
547.171	6.28
547.516	6.45
547.86	6.39
548.204	6.39
548.548	6.49
548.892	6.38
549.236	6.29
549.58	6.34
549.924	6.41
550.268	6.53
550.612	6.37
550.956	6.52
551.3	6.39
551.643	6.4
551.987	6.47
552.33	6.54
552.674	6.36
553.017	6.37
553.361	6.47
553.704	6.53
554.048	6.63
554.391	6.46
554.734	6.54
555.077	6.42
555.42	6.34
555.764	6.18
556.107	6.4
556.45	6.43
556.793	6.41
557.135	6.35
557.478	6.16
557.821	6.41
558.164	6.32
558.507	6.7
558.849	6.33
559.192	6.37
559.534	6.61
559.877	6.45
560.219	6.43
560.562	6.46
560.904	6.54
561.246	6.66
561.589	6.31
561.931	6.46
562.273	6.28
562.615	6.31
562.957	6.31
563.299	6.35
563.641	6.22
563.983	6.49
564.325	6.29
564.667	6.38
565.008	6.11
565.35	6.36
565.692	6.24
566.033	6.3
566.375	6.32
566.716	6.43
567.058	6.2
567.399	6.32
567.741	6.48
568.082	6.31
568.423	6.35
568.764	6.43
569.105	6.16
569.447	6.23
569.788	5.98
570.129	6.33
570.47	6.44
570.811	6.35
571.151	6.5
571.492	6.28
571.833	6.23
572.174	6.41
572.514	6.36
572.855	6.07
573.195	6.17
573.536	6.15
573.876	6.21
574.217	6.16
574.557	6.26
574.898	6.25
575.238	6.19
575.578	6.22
575.918	6.24
576.258	5.98
576.598	6.24
576.938	6.11
577.278	6.23
577.618	6.14
577.958	6.14
578.298	6.35
578.638	6.03
578.977	6.29
579.317	6.1
579.657	6.18
579.996	6.28
580.336	6.26
580.675	6.42
581.014	6.14
581.354	6.06
581.693	6.42
582.032	6.11
582.372	6.28
582.711	6.09
583.05	6.24
583.389	6.11
583.728	6.16
584.067	6.17
584.406	6.27
584.745	5.99
585.083	6.35
585.422	6.26
585.761	6.14
586.1	6.32
586.438	6.17
586.777	6.08
587.115	6.25
587.454	5.89
587.792	6.31
588.13	6.36
588.469	6.11
588.807	6.35
589.145	6.44
589.483	6.12
589.821	6.08
590.159	6.22
590.497	6.35
590.835	6.14
591.173	6.13
591.511	6.02
591.849	6.23
592.187	6.19
592.524	6.24
592.862	6.26
593.2	5.98
593.537	6.01
593.875	6.12
594.212	6.15
594.55	6.36
594.887	5.74
595.224	6.02
595.561	6.08
595.899	6.37
596.236	6.5
596.573	6.32
596.91	6.02
597.247	6.15
597.584	6.42
597.921	6.3
598.258	6.04
598.594	6.03
598.931	6.18
599.268	6.03
599.604	6.11
599.941	6.09
600.277	6.05
600.614	6.02
600.95	6.19
601.287	5.86
601.623	5.93
601.959	6.22
602.296	6.12
602.632	6.03
602.968	5.87
603.304	6.04
603.64	5.94
603.976	6.03
604.312	6.32
604.648	6.21
604.984	5.9
605.319	5.95
605.655	5.89
605.991	5.94
606.326	6.21
606.662	5.84
606.998	5.91
607.333	6.06
607.668	5.84
608.004	6.02
608.339	6.01
608.674	6.16
609.01	6.04
609.345	6.02
609.68	6.24
610.015	5.74
610.35	5.89
610.685	6.12
611.02	5.99
611.355	6.08
611.689	5.89
612.024	6.06
612.359	5.85
612.694	5.91
613.028	5.82
613.363	6.01
613.697	5.92
614.032	5.99
614.366	5.7
614.7	5.81
615.035	6.26
615.369	5.85
615.703	5.85
616.037	6.01
616.371	6.16
616.705	6.27
617.039	6.39
617.373	6.04
617.707	5.94
618.041	6
618.375	6.09
618.709	5.98
619.042	6.68
619.376	6.26
619.71	5.9
620.043	5.55
620.377	6.03
620.71	6.09
621.043	6.19
621.377	5.78
621.71	6.07
622.043	5.88
622.376	6.17
622.709	6
623.043	5.62
623.376	5.95
623.709	6.21
624.041	5.76
624.374	6.23
624.707	5.95
625.04	6.32
625.373	5.94
625.705	6.16
626.038	5.63
626.37	6.15
626.703	5.88
627.035	5.83
627.368	5.86
627.7	6.27
628.032	6.4
628.365	5.9
628.697	6.07
629.029	5.94
629.361	6.06
629.693	5.72
630.025	5.93
630.357	5.64
630.689	6.01
631.021	5.96
631.353	5.93
631.684	6.01
632.016	6.5
632.348	6.12
632.679	5.75
633.011	6.16
633.342	5.84
633.674	6.41
634.005	5.7
634.336	6.11
634.668	5.78
634.999	6.03
635.33	6.32
635.661	5.86
635.992	6.02
636.323	5.94
636.654	6.02
636.985	5.94
637.316	5.97
637.647	5.99
637.977	5.34
638.308	6.26
638.639	5.92
638.969	6.33
639.3	5.87
639.63	6.25
639.961	5.84
640.291	6.13
640.622	5.95
640.952	5.92
641.282	6.25
641.612	5.88
641.943	6.04
642.273	5.89
642.603	5.9
642.933	5.6
643.263	5.75
643.592	5.88
643.922	5.9
644.252	5.69
644.582	6.13
644.911	5.88
645.241	6.22
645.571	5.53
645.9	5.79
646.23	6.31
646.559	6.15
646.888	5.96
647.218	5.85
647.547	5.78
647.876	5.91
648.205	5.84
648.534	6.36
648.863	5.77
649.192	5.59
649.521	6.14
649.85	5.94
650.179	5.99
650.508	5.34
650.837	6.24
651.165	5.93
651.494	5.91
651.822	5.96
652.151	5.61
652.479	5.74
652.808	5.45
653.136	6.42
653.465	6.07
653.793	5.96
654.121	6.05
654.449	5.98
654.777	5.75
655.105	6.38
655.433	5.98
655.761	6.03
656.089	5.91
656.417	5.89
656.745	5.96
657.073	6.1
657.4	6.19
657.728	6.18
658.056	6.45
658.383	5.89
658.711	5.7
659.038	5.46
659.365	5.68
659.693	6.11
660.02	6.32
660.347	6.38
660.674	5.9
661.001	5.85
661.329	5.3
661.656	5.95
661.982	5.52
662.309	6.16
662.636	5.88
662.963	6.06
663.29	5.77
663.616	5.68
663.943	6.34
664.27	5.96
664.596	6.17
664.923	5.5
665.249	5.94
665.576	5.49
665.902	5.6
666.228	5.63
666.554	5.96
666.881	6.3
667.207	5.77
667.533	5.84
667.859	6.18
668.185	6.15
668.511	5.93
668.837	6.14
669.162	6.01
669.488	6.07
669.814	5.85
670.139	6.11
670.465	6.21
670.791	6.1
671.116	5.69
671.442	6.67
671.767	5.14
672.092	6.43
672.418	6.83
672.743	5.81
673.068	6.13
673.393	5.85
673.718	6.22
674.043	6.7
674.368	6.55
674.693	5.8
675.018	6.06
675.343	6.34
675.667	5.73
675.992	5.99
676.317	6.24
676.641	5.69
676.966	6.34
677.29	5.44
677.615	6.16
677.939	6.47
678.264	5.95
678.588	6.9
678.912	5.47
679.236	6.45
679.56	6.63
679.885	5.54
680.209	6.81
680.532	6.4
680.856	5.83
681.18	5.9
681.504	6.27
681.828	6.65
682.152	5.7
682.475	6.58
682.799	6.17
683.122	5.99
683.446	6.43
683.769	5.83
684.093	5.97
684.416	6.76
684.739	6.49
685.062	6.37
685.386	5.97
685.709	5.65
686.032	5.42
686.355	6.03
686.678	6.46
687.001	6.03
687.324	6.8
687.646	6.09
687.969	6.86
688.292	5.49
688.614	6.34
688.937	6.15
689.26	6.18
689.582	7.08
689.904	5.84
690.227	6.56
690.549	6.79
690.871	6.05
691.194	6.63
691.516	6.2
691.838	6.2
