Data from 0219_forehead_Reflection__0__246.txt Node

Date: Fri Sep 22 22:46:06 CDT 2023
User: ToomeyLab
Spectrometer: FLMS14357
Trigger mode: 0
Integration Time (sec): 1.000000E-2
Scans to average: 100
Electric dark correction enabled: true
Nonlinearity correction enabled: false
Boxcar width: 0
XAxis mode: Wavelengths
Number of Pixels in Spectrum: 2048
>>>>>Begin Spectral Data<<<<<
189.047	565.4
189.435	565.4
189.823	565.4
190.211	-867.88
190.599	68.79
190.987	97.81
191.375	186.66
191.763	20.62
192.151	23.78
192.538	8.59
192.926	82.04
193.314	-1392.68
193.702	59.89
194.089	24.95
194.477	71.92
194.864	-444.81
195.252	112.33
195.639	22.66
196.027	86.86
196.414	-203.08
196.801	60.66
197.189	-106.65
197.576	32.51
197.963	-53.54
198.351	24.61
198.738	32.16
199.125	-3.06
199.512	14.12
199.899	56.81
200.286	33.47
200.673	24.7
201.06	31.88
201.447	34.14
201.833	-16.17
202.22	37.43
202.607	70.11
202.994	48.51
203.38	35.58
203.767	33.66
204.154	40.01
204.54	49.96
204.927	23.55
205.313	97.33
205.699	57.81
206.086	53.66
206.472	61.82
206.858	31.27
207.245	27.39
207.631	55.08
208.017	34
208.403	26.26
208.789	26.77
209.175	59.55
209.561	59.82
209.947	47.3
210.333	72.17
210.719	16.72
211.105	26.35
211.491	29.74
211.876	48.83
212.262	56.59
212.648	35.25
213.034	50.01
213.419	38.89
213.805	16.09
214.19	30.11
214.576	40.54
214.961	21.71
215.346	14.14
215.732	30.2
216.117	15.77
216.502	36.01
216.888	5.84
217.273	33.68
217.658	37.33
218.043	24.78
218.428	37.37
218.813	-1.53
219.198	35.34
219.583	36.38
219.968	-25.35
220.353	43.36
220.738	8.44
221.122	16.15
221.507	14.42
221.892	30.99
222.276	27.71
222.661	-14.76
223.046	14.92
223.43	35.48
223.815	23.49
224.199	9.87
224.583	17.03
224.968	16.39
225.352	6.67
225.736	12.58
226.121	18.74
226.505	12.61
226.889	16.07
227.273	6.19
227.657	12.73
228.041	7.21
228.425	10.2
228.809	13.98
229.193	6.39
229.577	8.96
229.961	9.46
230.344	8.93
230.728	4.61
231.112	7.31
231.495	5.87
231.879	5.77
232.263	5.03
232.646	7.49
233.03	5.57
233.413	6.25
233.797	5.15
234.18	6.74
234.563	9.93
234.946	6.71
235.33	2.35
235.713	7.75
236.096	5.4
236.479	6.18
236.862	8.74
237.245	8.45
237.628	8.67
238.011	7.42
238.394	5.59
238.777	7.22
239.16	8.45
239.543	9.08
239.925	6.97
240.308	9.37
240.691	8.38
241.073	9.88
241.456	7.43
241.838	5.87
242.221	6.3
242.603	6.93
242.986	5.95
243.368	5.74
243.75	6.31
244.133	7.14
244.515	5.66
244.897	5.35
245.279	6.01
245.661	6.21
246.043	6.23
246.425	5.02
246.807	6.06
247.189	4.73
247.571	6.44
247.953	6.46
248.335	5.93
248.717	6.04
249.098	5.9
249.48	5.64
249.862	5.9
250.243	5.85
250.625	6.4
251.006	5.57
251.388	6.29
251.769	6.46
252.151	6.67
252.532	5.97
252.913	6.71
253.295	6.92
253.676	5.89
254.057	6.73
254.438	6.29
254.819	5.7
255.2	6.19
255.581	6.43
255.962	7.19
256.343	5.75
256.724	6.94
257.105	7.33
257.486	6.44
257.867	6
258.247	7.18
258.628	6.66
259.009	5.71
259.389	6.01
259.77	6.28
260.15	6.72
260.531	6.26
260.911	5.29
261.292	5.76
261.672	5.59
262.052	5.61
262.432	5.75
262.813	5.75
263.193	5.11
263.573	6.23
263.953	5.72
264.333	5.67
264.713	6.16
265.093	5.44
265.473	5.95
265.853	5.23
266.233	6.33
266.612	5.74
266.992	6.61
267.372	6.65
267.752	6.63
268.131	5.83
268.511	5.93
268.89	5.95
269.27	5.17
269.649	5.87
270.029	5.35
270.408	6.14
270.787	5.76
271.167	5.78
271.546	4.82
271.925	5.98
272.304	5.58
272.683	5.53
273.062	6.52
273.441	5.94
273.82	6.24
274.199	6.01
274.578	5.86
274.957	5.75
275.336	5.78
275.715	5.59
276.093	5.44
276.472	6.36
276.851	6.21
277.229	5
277.608	5.66
277.986	5.75
278.365	5.93
278.743	6.26
279.122	5.78
279.5	6.22
279.878	5.11
280.257	6.46
280.635	5.18
281.013	6.26
281.391	5.2
281.769	5.84
282.147	6.21
282.525	5.81
282.903	5.67
283.281	5.9
283.659	6.04
284.037	5.93
284.415	6.07
284.792	5.88
285.17	6.11
285.548	6.01
285.925	5.65
286.303	5.51
286.68	5.44
287.058	5.86
287.435	5.93
287.813	5.58
288.19	5.13
288.567	5.63
288.945	5.56
289.322	5.96
289.699	6.28
290.076	5.93
290.453	5.68
290.83	5.89
291.207	5.95
291.584	5.88
291.961	6.02
292.338	6.25
292.715	6.29
293.092	5.96
293.469	5.62
293.845	5.97
294.222	5.24
294.599	6.41
294.975	6.32
295.352	5.58
295.728	6.38
296.105	6.41
296.481	6.72
296.858	6.44
297.234	6.53
297.61	6.48
297.986	6.49
298.363	6.53
298.739	6.38
299.115	6.54
299.491	6.36
299.867	6.46
300.243	6.39
300.619	7.05
300.995	6.11
301.371	7.12
301.746	7.11
302.122	6.81
302.498	6.71
302.874	7
303.249	6.67
303.625	6.64
304	7.23
304.376	7.04
304.751	7.1
305.127	7.13
305.502	7.02
305.878	6.92
306.253	7.44
306.628	7.03
307.003	7.13
307.378	7.5
307.754	6.93
308.129	7.28
308.504	7.61
308.879	7.49
309.254	6.85
309.629	6.88
310.003	7.71
310.378	7.93
310.753	7.63
311.128	7.83
311.502	8.27
311.877	7.68
312.252	7.63
312.626	7.77
313.001	8.1
313.375	7.84
313.75	8.07
314.124	7.85
314.498	7.48
314.873	7.98
315.247	8.06
315.621	7.9
315.995	8.09
316.369	8.34
316.743	8.04
317.117	8.23
317.491	8.5
317.865	7.86
318.239	7.62
318.613	8.12
318.987	7.9
319.361	8.32
319.734	7.89
320.108	8.63
320.482	8.23
320.855	8.68
321.229	8.83
321.602	8.96
321.976	8.7
322.349	8.17
322.723	8.87
323.096	8.64
323.469	8.52
323.843	7.75
324.216	8.88
324.589	8.83
324.962	8.53
325.335	8.87
325.708	8.46
326.081	8.88
326.454	8.56
326.827	8.67
327.2	8.4
327.573	9.66
327.945	8.62
328.318	9.31
328.691	9.19
329.063	9.07
329.436	9.37
329.809	9.16
330.181	9.21
330.553	9.08
330.926	9.36
331.298	9.4
331.671	9.5
332.043	8.99
332.415	8.93
332.787	9.98
333.159	9.15
333.532	9.44
333.904	9.3
334.276	9.14
334.648	8.58
335.02	9.34
335.391	9.75
335.763	9.65
336.135	9.25
336.507	9.79
336.879	9.54
337.25	9.64
337.622	9.85
337.993	9.65
338.365	9.9
338.736	9.45
339.108	10.12
339.479	9.84
339.851	9.45
340.222	9.93
340.593	9.55
340.964	9.68
341.336	9.89
341.707	9.81
342.078	9.73
342.449	10.11
342.82	9.65
343.191	10.09
343.562	9.62
343.933	10.12
344.303	10.35
344.674	10.52
345.045	10.01
345.416	10.48
345.786	10.5
346.157	10.52
346.527	10.13
346.898	10.71
347.268	10.36
347.639	10.24
348.009	10.18
348.38	10.79
348.75	10.63
349.12	10.78
349.49	10.6
349.861	10.69
350.231	10.7
350.601	11.07
350.971	10.81
351.341	10.72
351.711	10.17
352.081	11
352.45	10.5
352.82	11.25
353.19	10.93
353.56	10.76
353.929	10.79
354.299	11.05
354.669	10.78
355.038	10.77
355.408	11.19
355.777	11.48
356.147	11.68
356.516	11.57
356.885	11.28
357.254	11.36
357.624	11.15
357.993	11.75
358.362	11.24
358.731	11.25
359.1	10.94
359.469	11.23
359.838	11.16
360.207	11.27
360.576	11.51
360.945	11.48
361.314	11.84
361.682	11.5
362.051	11.82
362.42	11.4
362.788	11.51
363.157	11.97
363.525	11.6
363.894	11.48
364.262	11.52
364.631	11.85
364.999	11.52
365.367	11.78
365.735	11.76
366.104	11.67
366.472	12.35
366.84	11.79
367.208	12.44
367.576	12.13
367.944	12.14
368.312	12.36
368.68	12.32
369.048	12.8
369.416	12.14
369.783	12.23
370.151	11.95
370.519	12.47
370.886	12.3
371.254	12.41
371.621	12.04
371.989	12.81
372.356	12.38
372.724	12.78
373.091	12.73
373.458	12.44
373.826	12.76
374.193	12.6
374.56	12.62
374.927	12.69
375.294	12.62
375.661	12.71
376.028	12.98
376.395	13.02
376.762	12.69
377.129	13.24
377.496	13.08
377.863	13.18
378.229	12.98
378.596	12.93
378.963	13.32
379.329	13.08
379.696	13.29
380.062	12.59
380.429	13.09
380.795	13.25
381.161	13.42
381.528	12.96
381.894	12.86
382.26	13.31
382.626	13.56
382.993	13.38
383.359	13.03
383.725	13.06
384.091	13.59
384.457	13.71
384.823	13.6
385.188	13.58
385.554	13.61
385.92	13.74
386.286	13.68
386.651	13.35
387.017	13.36
387.383	13.64
387.748	13.64
388.114	13.83
388.479	13.86
388.845	13.64
389.21	13.65
389.575	13.82
389.94	13.79
390.306	14.15
390.671	14.31
391.036	13.68
391.401	13.94
391.766	13.7
392.131	13.88
392.496	14.14
392.861	13.99
393.226	14.39
393.591	14.13
393.956	14.16
394.32	14.09
394.685	13.97
395.05	14.51
395.414	14.17
395.779	14.32
396.143	14.32
396.508	14.27
396.872	14.25
397.236	14.33
397.601	14.09
397.965	14.48
398.329	14.4
398.694	14.36
399.058	14.15
399.422	14.51
399.786	14.63
400.15	14.64
400.514	14.71
400.878	14.37
401.242	14.65
401.605	14.46
401.969	14.4
402.333	14.77
402.697	14.36
403.06	14.45
403.424	14.39
403.787	14.57
404.151	14.39
404.514	14.76
404.878	14.61
405.241	15.11
405.604	14.85
405.968	14.86
406.331	14.77
406.694	14.63
407.057	14.38
407.42	14.73
407.783	14.52
408.146	14.87
408.509	14.68
408.872	14.9
409.235	14.83
409.598	14.81
409.961	14.55
410.323	14.85
410.686	14.74
411.049	15.2
411.411	14.93
411.774	14.77
412.136	14.66
412.499	14.72
412.861	14.78
413.223	14.74
413.586	15.05
413.948	15
414.31	14.95
414.672	15.14
415.035	14.92
415.397	15.34
415.759	15.08
416.121	14.94
416.483	14.87
416.845	15.27
417.206	14.96
417.568	15.07
417.93	15.35
418.292	15.21
418.653	14.9
419.015	15.25
419.377	14.98
419.738	15.06
420.1	15.12
420.461	15.23
420.822	15.24
421.184	15.15
421.545	15.24
421.906	15.18
422.267	15.2
422.629	15.29
422.99	15.25
423.351	15.22
423.712	15.26
424.073	15.4
424.434	15.51
424.795	15.67
425.155	15.62
425.516	15.7
425.877	15.76
426.238	15.74
426.598	15.73
426.959	15.83
427.32	15.86
427.68	15.87
428.041	15.94
428.401	16.13
428.761	16.34
429.122	16.23
429.482	16.47
429.842	16.61
430.202	16.47
430.563	16.79
430.923	16.88
431.283	17.02
431.643	17.2
432.003	16.94
432.363	17.17
432.722	17.27
433.082	17.38
433.442	17.29
433.802	17.51
434.161	17.48
434.521	17.43
434.881	17.4
435.24	17.43
435.6	17.4
435.959	17.45
436.319	17.47
436.678	17.8
437.037	17.66
437.396	17.88
437.756	17.75
438.115	17.78
438.474	18.08
438.833	18.01
439.192	18.38
439.551	18.01
439.91	18.31
440.269	18.3
440.628	18.16
440.987	18.26
441.345	18.43
441.704	18.34
442.063	18.28
442.421	18.38
442.78	18.52
443.138	18.39
443.497	18.49
443.855	18.56
444.214	18.73
444.572	18.87
444.93	18.89
445.288	19.04
445.647	19
446.005	18.97
446.363	19.17
446.721	19.19
447.079	19.1
447.437	19.28
447.795	19.19
448.153	19.11
448.51	19.11
448.868	19.25
449.226	19.28
449.584	19.29
449.941	19.34
450.299	19.53
450.656	19.67
451.014	19.79
451.371	19.8
451.729	19.86
452.086	20.19
452.443	20.14
452.801	20.18
453.158	20.21
453.515	20.75
453.872	20.26
454.229	20.62
454.586	20.64
454.943	20.53
455.3	20.72
455.657	20.7
456.014	20.77
456.371	20.91
456.727	21.19
457.084	21.14
457.441	21.06
457.797	20.99
458.154	21.17
458.51	21.02
458.867	21.17
459.223	21.4
459.58	21.53
459.936	21.59
460.292	21.46
460.648	21.6
461.005	21.45
461.361	21.57
461.717	21.4
462.073	21.5
462.429	21.33
462.785	21.44
463.141	21.55
463.496	21.78
463.852	21.86
464.208	22.08
464.564	22.45
464.919	22.17
465.275	22.66
465.631	22.6
465.986	22.42
466.342	22.77
466.697	22.86
467.052	22.78
467.408	22.77
467.763	22.79
468.118	23
468.473	23.06
468.829	23.01
469.184	22.9
469.539	23.13
469.894	23.11
470.249	23.25
470.603	23.33
470.958	23.63
471.313	23.52
471.668	23.39
472.023	23.53
472.377	23.42
472.732	23.66
473.086	23.96
473.441	23.53
473.795	24.07
474.15	23.88
474.504	24.15
474.859	24.15
475.213	23.95
475.567	24.01
475.921	23.96
476.275	24.43
476.63	24.2
476.984	24.25
477.338	24.82
477.692	24.38
478.045	24.78
478.399	24.8
478.753	24.71
479.107	24.59
479.461	24.74
479.814	24.97
480.168	24.77
480.521	24.89
480.875	24.87
481.228	24.99
481.582	24.98
481.935	24.99
482.289	25.02
482.642	25.12
482.995	25.14
483.348	25.24
483.701	25.16
484.055	25.26
484.408	25.24
484.761	25.17
485.114	24.82
485.466	24.71
485.819	24.42
486.172	24.33
486.525	24.38
486.878	24.5
487.23	24.7
487.583	24.85
487.936	25.02
488.288	25.12
488.641	25.36
488.993	25.17
489.345	25.24
489.698	25.05
490.05	25.17
490.402	25.13
490.754	25.22
491.107	25.43
491.459	25.52
491.811	25.91
492.163	26.03
492.515	26.06
492.866	26.18
493.218	26.19
493.57	26.04
493.922	25.82
494.274	25.89
494.625	25.97
494.977	26.32
495.328	26.54
495.68	26.64
496.031	26.96
496.383	27.11
496.734	27.38
497.086	27.31
497.437	27.66
497.788	27.4
498.139	27.64
498.49	27.69
498.842	27.55
499.193	27.38
499.544	27.52
499.894	27.61
500.245	27.57
500.596	27.8
500.947	27.83
501.298	27.98
501.648	28.05
501.999	27.99
502.35	28.07
502.7	28.36
503.051	28.39
503.401	28.55
503.752	28.41
504.102	28.41
504.452	28.45
504.803	28.7
505.153	28.78
505.503	28.73
505.853	28.89
506.203	28.76
506.553	28.94
506.903	29.02
507.253	28.96
507.603	29.07
507.953	29.05
508.303	29.23
508.652	29.16
509.002	29.47
509.352	29.26
509.701	29.42
510.051	29.35
510.4	29.54
510.75	29.38
511.099	29.19
511.449	29.28
511.798	29.43
512.147	29.36
512.496	29.55
512.846	29.51
513.195	29.51
513.544	29.49
513.893	29.66
514.242	29.54
514.591	29.68
514.939	29.65
515.288	29.59
515.637	29.94
515.986	29.89
516.334	29.99
516.683	30.12
517.032	30.17
517.38	30.22
517.729	30.1
518.077	30.25
518.426	30.23
518.774	30.53
519.122	30.15
519.47	30.33
519.819	30.31
520.167	30.39
520.515	30.27
520.863	30.1
521.211	29.97
521.559	30.09
521.907	30.25
522.255	30.3
522.602	30.45
522.95	30.46
523.298	30.61
523.645	30.86
523.993	30.6
524.341	30.89
524.688	31.03
525.036	31.13
525.383	31.16
525.73	31.15
526.078	30.93
526.425	31.03
526.772	31.19
527.119	31.04
527.466	30.86
527.814	30.59
528.161	30.69
528.508	30.62
528.854	30.66
529.201	30.73
529.548	30.73
529.895	30.85
530.242	30.67
530.588	30.26
530.935	30.14
531.282	30.2
531.628	30.41
531.975	30.54
532.321	30.61
532.667	30.87
533.014	31.15
533.36	31.25
533.706	31.3
534.052	31.48
534.399	31.54
534.745	31.46
535.091	31.26
535.437	31.18
535.783	31.02
536.129	31.28
536.474	31.34
536.82	31.54
537.166	31.67
537.512	31.85
537.857	31.96
538.203	32.09
538.549	31.84
538.894	31.84
539.239	31.9
539.585	31.91
539.93	32.31
540.276	32.28
540.621	32.4
540.966	32.64
541.311	32.83
541.656	32.89
542.001	32.72
542.346	32.59
542.691	32.46
543.036	32.25
543.381	32.14
543.726	31.96
544.071	31.95
544.415	32.2
544.76	32.23
545.105	32.35
545.449	32.4
545.794	32.54
546.138	32.84
546.483	32.89
546.827	33.2
547.171	33.12
547.516	33.28
547.86	33.4
548.204	33.56
548.548	33.4
548.892	33.54
549.236	33.39
549.58	33.54
549.924	33.51
550.268	34.01
550.612	33.72
550.956	34.05
551.3	34.15
551.643	34.23
551.987	34.43
552.33	34.46
552.674	34.73
553.017	34.63
553.361	34.48
553.704	34.72
554.048	34.77
554.391	34.92
554.734	34.85
555.077	34.78
555.42	34.5
555.764	34.76
556.107	34.95
556.45	34.81
556.793	35.06
557.135	35.13
557.478	35.04
557.821	35.18
558.164	35.44
558.507	35.35
558.849	35.25
559.192	35.62
559.534	35.67
559.877	35.87
560.219	35.77
560.562	35.61
560.904	35.67
561.246	35.93
561.589	35.95
561.931	36.11
562.273	35.74
562.615	35.85
562.957	36.06
563.299	35.95
563.641	36.14
563.983	36.08
564.325	36.18
564.667	36.08
565.008	36.12
565.35	36.29
565.692	36.49
566.033	36.73
566.375	36.17
566.716	36.37
567.058	36.61
567.399	36.49
567.741	36.4
568.082	36.3
568.423	36.38
568.764	36.23
569.105	36.4
569.447	36.41
569.788	36.41
570.129	36.84
570.47	36.8
570.811	36.88
571.151	36.99
571.492	37.31
571.833	37.22
572.174	36.84
572.514	37.19
572.855	37.06
573.195	37.09
573.536	37.18
573.876	37.26
574.217	37.01
574.557	37.16
574.898	37.21
575.238	37.14
575.578	37.51
575.918	37.46
576.258	37.35
576.598	37.56
576.938	37.85
577.278	37.84
577.618	37.7
577.958	37.85
578.298	37.83
578.638	37.81
578.977	37.9
579.317	37.98
579.657	38.45
579.996	38.43
580.336	38.36
580.675	38.36
581.014	38.11
581.354	38.44
581.693	38.73
582.032	38.7
582.372	39.26
582.711	38.83
583.05	39.15
583.389	39.03
583.728	39.05
584.067	39.07
584.406	39.17
584.745	39.24
585.083	39.58
585.422	39.23
585.761	39.41
586.1	39.56
586.438	39.77
586.777	39.63
587.115	39.5
587.454	39.72
587.792	39.78
588.13	39.79
588.469	39.8
588.807	39.75
589.145	39.68
589.483	39.82
589.821	40.18
590.159	39.84
590.497	40.48
590.835	40.07
591.173	40.28
591.511	40.11
591.849	40.32
592.187	40.11
592.524	40.27
592.862	40.15
593.2	40.43
593.537	40.25
593.875	40.4
594.212	40.72
594.55	40.98
594.887	40.98
595.224	40.69
595.561	40.92
595.899	41.04
596.236	41.09
596.573	40.81
596.91	40.67
597.247	40.85
597.584	41.37
597.921	41.2
598.258	41.04
598.594	41.03
598.931	41.09
599.268	40.99
599.604	41.08
599.941	41.11
600.277	41.19
600.614	41.03
600.95	41.62
601.287	41.51
601.623	41.48
601.959	41.92
602.296	42.02
602.632	41.88
602.968	42.24
603.304	42.4
603.64	41.72
603.976	42.39
604.312	42.58
604.648	41.9
604.984	42.31
605.319	41.98
605.655	42.28
605.991	42.43
606.326	42.11
606.662	42.15
606.998	42.17
607.333	41.83
607.668	42.37
608.004	42.17
608.339	42.28
608.674	42.68
609.01	42.99
609.345	43.08
609.68	43.12
610.015	42.94
610.35	43.03
610.685	43.55
611.02	43.31
611.355	43.39
611.689	42.89
612.024	43.25
612.359	43.15
612.694	43.39
613.028	43.46
613.363	43.36
613.697	43.68
614.032	43.64
614.366	43.67
614.7	43.82
615.035	43.6
615.369	43.94
615.703	43.92
616.037	43.71
616.371	44.62
616.705	44.08
617.039	44.54
617.373	44.31
617.707	44.37
618.041	44.61
618.375	44.42
618.709	44.33
619.042	44.98
619.376	45.05
619.71	44.87
620.043	44.61
620.377	44.89
620.71	44.88
621.043	44.8
621.377	44.97
621.71	45.02
622.043	45.18
622.376	45.24
622.709	45.41
623.043	44.9
623.376	45.19
623.709	45.69
624.041	45.64
624.374	45.84
624.707	45.74
625.04	45.33
625.373	45.11
625.705	45.98
626.038	45.42
626.37	45.69
626.703	45.98
627.035	45.86
627.368	46.05
627.7	46
628.032	46.31
628.365	46.51
628.697	45.59
629.029	46.19
629.361	45.92
629.693	46.33
630.025	46.1
630.357	46.56
630.689	46.61
631.021	46.39
631.353	46.71
631.684	46.14
632.016	47.31
632.348	47.11
632.679	47.05
633.011	47.06
633.342	47.06
633.674	47.33
634.005	46.64
634.336	47.13
634.668	47.4
634.999	47.19
635.33	47.07
635.661	47.29
635.992	47.39
636.323	47.72
636.654	47.67
636.985	47.46
637.316	47.96
637.647	47.31
637.977	47.37
638.308	47.74
638.639	47.92
638.969	47.78
639.3	48.1
639.63	48.33
639.961	47.78
640.291	48.4
640.622	48.14
640.952	48.5
641.282	48.88
641.612	48.55
641.943	48.76
642.273	48.87
642.603	48.64
642.933	48.8
643.263	47.92
643.592	48.36
643.922	48.6
644.252	48.59
644.582	48.5
644.911	49.7
645.241	48.87
645.571	49.86
645.9	49.28
646.23	49.21
646.559	48.8
646.888	49.2
647.218	49.44
647.547	49.22
647.876	48.95
648.205	49.19
648.534	49.8
648.863	49.04
649.192	49.36
649.521	50.03
649.85	50.11
650.179	50.14
650.508	49.47
650.837	50.05
651.165	50.31
651.494	50.23
651.822	49.97
652.151	49.97
652.479	50.15
652.808	50.29
653.136	50.4
653.465	50.5
653.793	50.18
654.121	50.83
654.449	50.07
654.777	50.55
655.105	50.49
655.433	50.25
655.761	50.54
656.089	50.56
656.417	50.45
656.745	50.7
657.073	51.28
657.4	51.01
657.728	51.05
658.056	51.36
658.383	50.79
658.711	51.01
659.038	51
659.365	51.16
659.693	50.77
660.02	51.9
660.347	51.94
660.674	51.58
661.001	51.13
661.329	51.41
661.656	51.77
661.982	51.78
662.309	51.64
662.636	51.53
662.963	51.59
663.29	51.8
663.616	51.56
663.943	52.31
664.27	51.79
664.596	51.84
664.923	52.02
665.249	52.2
665.576	51.79
665.902	52.25
666.228	52.22
666.554	51.75
666.881	53.18
667.207	52.84
667.533	52.97
667.859	52.46
668.185	53.11
668.511	52.74
668.837	53.08
669.162	52.68
669.488	52.42
669.814	52.69
670.139	52.51
670.465	53.1
