Data from 0219_crown_Reflection__0__240.txt Node

Date: Fri Sep 22 22:44:27 CDT 2023
User: ToomeyLab
Spectrometer: FLMS14357
Trigger mode: 0
Integration Time (sec): 1.000000E-2
Scans to average: 100
Electric dark correction enabled: true
Nonlinearity correction enabled: false
Boxcar width: 0
XAxis mode: Wavelengths
Number of Pixels in Spectrum: 2048
>>>>>Begin Spectral Data<<<<<
189.047	-153.81
189.435	-153.81
189.823	-153.81
190.211	263.47
190.599	0.68
190.987	289.65
191.375	115.12
191.763	1.21
192.151	-1.68
192.538	-62.37
192.926	21.24
193.314	3035.37
193.702	16.12
194.089	149.28
194.477	-213.26
194.864	1000.74
195.252	161.01
195.639	23.9
196.027	65.68
196.414	209.34
196.801	-26.02
197.189	-13.27
197.576	20.45
197.963	-70.79
198.351	-2.78
198.738	23.14
199.125	17.09
199.512	-10.7
199.899	51.58
200.286	0.69
200.673	14.49
201.06	48.8
201.447	41.6
201.833	-32.28
202.22	51.91
202.607	45.85
202.994	35.24
203.38	54.06
203.767	24.01
204.154	21.4
204.54	34.2
204.927	24.97
205.313	71.17
205.699	43.18
206.086	28.79
206.472	42.82
206.858	59.43
207.245	-19.49
207.631	42.42
208.017	39.28
208.403	23.85
208.789	41.72
209.175	55.4
209.561	25.3
209.947	21.58
210.333	50.31
210.719	5.62
211.105	29.17
211.491	7.48
211.876	51.1
212.262	47.21
212.648	13.47
213.034	-9.28
213.419	10.86
213.805	1.86
214.19	15.25
214.576	30.67
214.961	8.51
215.346	5.01
215.732	1.75
216.117	-22.8
216.502	28.02
216.888	9.86
217.273	7.78
217.658	12.77
218.043	-3.61
218.428	25.93
218.813	-14.05
219.198	3.55
219.583	17.06
219.968	-9.01
220.353	37.43
220.738	7.83
221.122	-2.81
221.507	-14.94
221.892	-6.75
222.276	-13.01
222.661	-27.8
223.046	21
223.43	27.19
223.815	17.65
224.199	9.74
224.583	5.22
224.968	10.2
225.352	1.78
225.736	11.81
226.121	17.49
226.505	9.03
226.889	5.7
227.273	6.19
227.657	7.41
228.041	4.57
228.425	8.14
228.809	4.69
229.193	5.95
229.577	4.11
229.961	7.84
230.344	6.76
230.728	3.98
231.112	5.25
231.495	5.15
231.879	5.09
232.263	4.5
232.646	5.92
233.03	4.94
233.413	4.6
233.797	5.57
234.18	4.57
234.563	5.4
234.946	5.69
235.33	3.56
235.713	6.85
236.096	4.74
236.479	4.5
236.862	5.78
237.245	6.13
237.628	6.23
238.011	3.86
238.394	4.43
238.777	6.02
239.16	5.35
239.543	5.33
239.925	6.18
240.308	4.96
240.691	5.54
241.073	5.94
241.456	4.9
241.838	4
242.221	4.88
242.603	5.05
242.986	4.34
243.368	2.81
243.75	4.81
244.133	4.54
244.515	4.41
244.897	4.11
245.279	4.09
245.661	3.98
246.043	4.83
246.425	4.33
246.807	4.11
247.189	3.1
247.571	4.48
247.953	4.77
248.335	4.81
248.717	4.16
249.098	4.15
249.48	3.75
249.862	3.89
250.243	4.14
250.625	4.29
251.006	3.76
251.388	3.79
251.769	5.15
252.151	4.26
252.532	3.44
252.913	3.94
253.295	4.17
253.676	4.06
254.057	4.27
254.438	3.94
254.819	3.68
255.2	4.21
255.581	3.85
255.962	4.37
256.343	3.75
256.724	3.73
257.105	5.22
257.486	3.64
257.867	4.05
258.247	4.94
258.628	4.45
259.009	4.76
259.389	4.19
259.77	3.83
260.15	3.88
260.531	3.96
260.911	4.1
261.292	3.92
261.672	3.47
262.052	3.9
262.432	3.64
262.813	3.79
263.193	3.02
263.573	3.55
263.953	4.02
264.333	3.89
264.713	3.57
265.093	3.83
265.473	3.26
265.853	2.7
266.233	3.79
266.612	2.19
266.992	4.34
267.372	4.13
267.752	4.12
268.131	4.09
268.511	3.68
268.89	3.68
269.27	3.5
269.649	3.65
270.029	3.38
270.408	3.63
270.787	3.16
271.167	3.37
271.546	3.79
271.925	3.59
272.304	3
272.683	3.7
273.062	4.61
273.441	3.2
273.82	3.66
274.199	3.52
274.578	3.63
274.957	3.59
275.336	3.17
275.715	3.57
276.093	3.07
276.472	3.04
276.851	3.9
277.229	2.83
277.608	3.77
277.986	3.46
278.365	3.74
278.743	3.66
279.122	3.45
279.5	3.72
279.878	3.62
280.257	4.24
280.635	3.19
281.013	3.74
281.391	3.09
281.769	3.66
282.147	3.81
282.525	3.66
282.903	3.31
283.281	3.87
283.659	3.27
284.037	2.54
284.415	3.54
284.792	3.16
285.17	4.07
285.548	3.47
285.925	3.55
286.303	3.63
286.68	2.78
287.058	3.59
287.435	3.37
287.813	3.22
288.19	2.8
288.567	3.44
288.945	3.14
289.322	3.25
289.699	3.48
290.076	2.96
290.453	2.78
290.83	3.43
291.207	3.1
291.584	3.45
291.961	3.26
292.338	3.29
292.715	3.56
293.092	3.26
293.469	3.1
293.845	3.09
294.222	3.46
294.599	4.13
294.975	3.76
295.352	3.65
295.728	3.37
296.105	3.34
296.481	3.2
296.858	3.38
297.234	3.07
297.61	2.92
297.986	3.5
298.363	2.84
298.739	3.34
299.115	3.3
299.491	3.28
299.867	3.27
300.243	2.85
300.619	3.18
300.995	2.71
301.371	3.42
301.746	3.42
302.122	3.05
302.498	2.82
302.874	3
303.249	3.14
303.625	2.63
304	3.1
304.376	3.58
304.751	3.11
305.127	3.24
305.502	3.35
305.878	3.16
306.253	3.19
306.628	2.79
307.003	3.18
307.378	2.78
307.754	3.45
308.129	3.29
308.504	3.21
308.879	3.14
309.254	3.5
309.629	3.47
310.003	3.52
310.378	3.22
310.753	3.18
311.128	3
311.502	3.23
311.877	2.66
312.252	3.36
312.626	3.1
313.001	3.26
313.375	3.23
313.75	3.16
314.124	3.56
314.498	2.68
314.873	3.28
315.247	3.21
315.621	3.38
315.995	3.97
316.369	3.51
316.743	2.96
317.117	3.83
317.491	3.48
317.865	2.79
318.239	3.34
318.613	3.29
318.987	2.77
319.361	3.1
319.734	2.57
320.108	3.45
320.482	3.01
320.855	3.18
321.229	3.81
321.602	3.49
321.976	2.8
322.349	3.51
322.723	3.44
323.096	2.86
323.469	3.08
323.843	3.24
324.216	3.21
324.589	2.87
324.962	2.94
325.335	3.09
325.708	2.93
326.081	3.36
326.454	2.7
326.827	2.95
327.2	3.41
327.573	3.42
327.945	3.71
328.318	3.27
328.691	2.97
329.063	3.22
329.436	3.36
329.809	3.24
330.181	3.07
330.553	3.23
330.926	3.15
331.298	3.1
331.671	3.47
332.043	2.92
332.415	3.06
332.787	3.12
333.159	2.67
333.532	3.25
333.904	3.28
334.276	3.11
334.648	2.15
335.02	2.96
335.391	3.36
335.763	3.63
336.135	3.61
336.507	2.99
336.879	2.71
337.25	3.23
337.622	3.82
337.993	3.32
338.365	3.34
338.736	3.52
339.108	3.45
339.479	3.55
339.851	2.83
340.222	2.59
340.593	3.06
340.964	3.29
341.336	3.32
341.707	3.08
342.078	3.12
342.449	3.17
342.82	2.82
343.191	3.39
343.562	3.17
343.933	3.23
344.303	3.25
344.674	3.6
345.045	3.59
345.416	4.22
345.786	2.89
346.157	3.32
346.527	3.15
346.898	3.36
347.268	3.33
347.639	3.32
348.009	3.29
348.38	2.98
348.75	3.38
349.12	3.29
349.49	3.75
349.861	3.01
350.231	3.62
350.601	3.61
350.971	3.31
351.341	3.03
351.711	2.71
352.081	3.41
352.45	3.15
352.82	3.49
353.19	3.63
353.56	3.45
353.929	3.54
354.299	3.19
354.669	3.14
355.038	3.07
355.408	3.37
355.777	3.7
356.147	3.64
356.516	3.37
356.885	3.18
357.254	3.36
357.624	3.18
357.993	3.46
358.362	3.19
358.731	3.08
359.1	2.95
359.469	3.3
359.838	2.99
360.207	3.05
360.576	3.32
360.945	3.61
361.314	3.33
361.682	3.81
362.051	3.46
362.42	3.15
362.788	3.14
363.157	3.63
363.525	3.27
363.894	3.3
364.262	3.29
364.631	3.13
364.999	3.08
365.367	3.38
365.735	3.42
366.104	3.51
366.472	3.39
366.84	3.17
367.208	3.4
367.576	3.49
367.944	3.5
368.312	3.54
368.68	3.37
369.048	3.82
369.416	3.24
369.783	3.14
370.151	3.01
370.519	3.64
370.886	3.57
371.254	3.65
371.621	3.01
371.989	3.48
372.356	3.28
372.724	3.38
373.091	3.48
373.458	3.58
373.826	3.61
374.193	3.27
374.56	3.6
374.927	3.43
375.294	3.4
375.661	3.35
376.028	3.64
376.395	3.87
376.762	3.29
377.129	3.48
377.496	3.85
377.863	3.49
378.229	3.31
378.596	3.25
378.963	3.9
379.329	3.7
379.696	3.87
380.062	3.4
380.429	3.22
380.795	3.42
381.161	3.17
381.528	3.49
381.894	3.25
382.26	3.19
382.626	3.28
382.993	3.83
383.359	3.19
383.725	3.52
384.091	3.88
384.457	3.63
384.823	3.56
385.188	3.87
385.554	3.32
385.92	3.77
386.286	3.48
386.651	3.46
387.017	3.34
387.383	3.37
387.748	3.23
388.114	3.43
388.479	3.55
388.845	3.32
389.21	3.34
389.575	3.51
389.94	3.45
390.306	3.51
390.671	3.58
391.036	3.46
391.401	3.36
391.766	3.47
392.131	3.35
392.496	3.53
392.861	3.3
393.226	3.6
393.591	3.5
393.956	3.47
394.32	3.6
394.685	3.56
395.05	3.68
395.414	3.74
395.779	3.47
396.143	3.55
396.508	3.44
396.872	3.4
397.236	3.54
397.601	3.39
397.965	3.84
398.329	3.78
398.694	3.73
399.058	3.32
399.422	3.19
399.786	3.71
400.15	3.75
400.514	3.56
400.878	3.46
401.242	3.48
401.605	3.62
401.969	3.24
402.333	3.46
402.697	3.44
403.06	3.38
403.424	3.59
403.787	3.69
404.151	3.28
404.514	3.7
404.878	3.73
405.241	3.91
405.604	3.46
405.968	3.78
406.331	3.7
406.694	3.58
407.057	3.37
407.42	3.6
407.783	3.84
408.146	3.53
408.509	3.47
408.872	3.46
409.235	3.46
409.598	3.56
409.961	3.87
410.323	3.56
410.686	3.65
411.049	3.67
411.411	3.77
411.774	3.43
412.136	3.4
412.499	3.54
412.861	3.65
413.223	3.72
413.586	3.36
413.948	3.75
414.31	3.49
414.672	3.79
415.035	3.72
415.397	3.7
415.759	4.04
416.121	3.44
416.483	3.61
416.845	3.69
417.206	3.59
417.568	3.45
417.93	3.85
418.292	3.58
418.653	3.52
419.015	3.59
419.377	3.38
419.738	3.53
420.1	3.42
420.461	3.61
420.822	3.57
421.184	3.43
421.545	3.46
421.906	3.43
422.267	3.6
422.629	3.43
422.99	3.48
423.351	3.47
423.712	3.4
424.073	3.42
424.434	3.53
424.795	3.51
425.155	3.62
425.516	3.43
425.877	3.54
426.238	3.41
426.598	3.45
426.959	3.53
427.32	3.49
427.68	3.49
428.041	3.4
428.401	3.65
428.761	3.62
429.122	3.53
429.482	3.53
429.842	3.53
430.202	3.48
430.563	3.71
430.923	3.63
431.283	3.68
431.643	3.72
432.003	3.77
432.363	3.77
432.722	3.68
433.082	3.59
433.442	3.73
433.802	3.71
434.161	3.63
434.521	3.57
434.881	3.77
435.24	3.59
435.6	3.46
435.959	3.52
436.319	3.52
436.678	3.72
437.037	3.77
437.396	3.54
437.756	3.6
438.115	3.64
438.474	3.61
438.833	3.7
439.192	3.53
439.551	3.59
439.91	3.57
440.269	3.81
440.628	3.55
440.987	3.55
441.345	3.64
441.704	3.56
442.063	3.57
442.421	3.65
442.78	3.66
443.138	3.51
443.497	3.5
443.855	3.59
444.214	3.51
444.572	3.7
444.93	3.6
445.288	3.61
445.647	3.66
446.005	3.55
446.363	3.38
446.721	3.61
447.079	3.61
447.437	3.6
447.795	3.78
448.153	3.63
448.51	3.53
448.868	3.49
449.226	3.52
449.584	3.51
449.941	3.41
450.299	3.47
450.656	3.6
451.014	3.64
451.371	3.57
451.729	3.53
452.086	3.57
452.443	3.65
452.801	3.49
453.158	3.65
453.515	3.72
453.872	3.58
454.229	3.67
454.586	3.72
454.943	3.59
455.3	3.61
455.657	3.64
456.014	3.59
456.371	3.62
456.727	3.77
457.084	3.69
457.441	3.54
457.797	3.68
458.154	3.68
458.51	3.56
458.867	3.55
459.223	3.73
459.58	3.75
459.936	3.57
460.292	3.82
460.648	3.65
461.005	3.66
461.361	3.82
461.717	3.45
462.073	3.49
462.429	3.54
462.785	3.48
463.141	3.6
463.496	3.65
463.852	3.64
464.208	3.7
464.564	3.78
464.919	3.56
465.275	3.8
465.631	3.81
465.986	3.68
466.342	3.74
466.697	3.8
467.052	3.58
467.408	3.72
467.763	3.69
468.118	3.9
468.473	3.76
468.829	3.48
469.184	3.6
469.539	3.64
469.894	3.6
470.249	3.71
470.603	3.77
470.958	3.83
471.313	3.76
471.668	3.82
472.023	3.72
472.377	3.74
472.732	3.64
473.086	3.89
473.441	3.44
473.795	4
474.15	3.69
474.504	3.51
474.859	3.84
475.213	3.47
475.567	3.54
475.921	3.68
476.275	3.66
476.63	3.68
476.984	3.53
477.338	3.74
477.692	3.76
478.045	3.78
478.399	3.78
478.753	3.63
479.107	3.65
479.461	3.61
479.814	3.58
480.168	3.67
480.521	3.76
480.875	3.64
481.228	3.61
481.582	3.62
481.935	3.6
482.289	3.45
482.642	3.62
482.995	3.58
483.348	3.61
483.701	3.62
484.055	3.56
484.408	3.56
484.761	3.59
485.114	3.51
485.466	3.4
485.819	3.35
486.172	3.3
486.525	3.37
486.878	3.36
487.23	3.41
487.583	3.44
487.936	3.47
488.288	3.47
488.641	3.48
488.993	3.44
489.345	3.36
489.698	3.37
490.05	3.43
490.402	3.4
490.754	3.34
491.107	3.35
491.459	3.52
491.811	3.42
492.163	3.5
492.515	3.54
492.866	3.58
493.218	3.54
493.57	3.5
493.922	3.41
494.274	3.39
494.625	3.44
494.977	3.49
495.328	3.55
495.68	3.64
496.031	3.56
496.383	3.64
496.734	3.57
497.086	3.58
497.437	3.77
497.788	3.55
498.139	3.68
498.49	3.78
498.842	3.54
499.193	3.57
499.544	3.63
499.894	3.47
500.245	3.67
500.596	3.66
500.947	3.76
501.298	3.74
501.648	3.51
501.999	3.64
502.35	3.62
502.7	3.66
503.051	3.63
503.401	3.67
503.752	3.62
504.102	3.56
504.452	3.6
504.803	3.61
505.153	3.59
505.503	3.73
505.853	3.7
506.203	3.56
506.553	3.61
506.903	3.53
507.253	3.5
507.603	3.63
507.953	3.81
508.303	3.62
508.652	3.64
509.002	3.75
509.352	3.6
509.701	3.59
510.051	3.71
510.4	3.71
510.75	3.59
511.099	3.47
511.449	3.67
511.798	3.62
512.147	3.59
512.496	3.59
512.846	3.62
513.195	3.66
513.544	3.55
513.893	3.68
514.242	3.58
514.591	3.57
514.939	3.58
515.288	3.49
515.637	3.61
515.986	3.51
516.334	3.72
516.683	3.58
517.032	3.69
517.38	3.66
517.729	3.63
518.077	3.63
518.426	3.54
518.774	3.63
519.122	3.57
519.47	3.63
519.819	3.62
520.167	3.62
520.515	3.59
520.863	3.51
521.211	3.57
521.559	3.53
521.907	3.5
522.255	3.61
522.602	3.57
522.95	3.46
523.298	3.51
523.645	3.67
523.993	3.5
524.341	3.48
524.688	3.58
525.036	3.64
525.383	3.61
525.73	3.65
526.078	3.5
526.425	3.47
526.772	3.56
527.119	3.53
527.466	3.47
527.814	3.33
528.161	3.37
528.508	3.34
528.854	3.48
529.201	3.52
529.548	3.45
529.895	3.41
530.242	3.37
530.588	3.28
530.935	3.19
531.282	3.24
531.628	3.33
531.975	3.28
532.321	3.35
532.667	3.42
533.014	3.45
533.36	3.49
533.706	3.46
534.052	3.54
534.399	3.49
534.745	3.41
535.091	3.32
535.437	3.31
535.783	3.18
536.129	3.36
536.474	3.43
536.82	3.33
537.166	3.5
537.512	3.49
537.857	3.49
538.203	3.56
538.549	3.4
538.894	3.35
539.239	3.37
539.585	3.36
539.93	3.52
540.276	3.42
540.621	3.45
540.966	3.55
541.311	3.48
541.656	3.4
542.001	3.46
542.346	3.37
542.691	3.52
543.036	3.4
543.381	3.29
543.726	3.28
544.071	3.3
544.415	3.28
544.76	3.32
545.105	3.28
545.449	3.24
545.794	3.37
546.138	3.43
546.483	3.43
546.827	3.36
547.171	3.39
547.516	3.44
547.86	3.44
548.204	3.48
548.548	3.39
548.892	3.45
549.236	3.33
549.58	3.4
549.924	3.57
550.268	3.5
550.612	3.44
550.956	3.5
551.3	3.43
551.643	3.43
551.987	3.48
552.33	3.62
552.674	3.58
553.017	3.36
553.361	3.45
553.704	3.58
554.048	3.68
554.391	3.49
554.734	3.53
555.077	3.4
555.42	3.45
555.764	3.42
556.107	3.68
556.45	3.41
556.793	3.39
557.135	3.54
557.478	3.31
557.821	3.44
558.164	3.71
558.507	3.65
558.849	3.49
559.192	3.58
559.534	3.63
559.877	3.73
560.219	3.58
560.562	3.58
560.904	3.58
561.246	3.72
561.589	3.56
561.931	3.59
562.273	3.44
562.615	3.45
562.957	3.52
563.299	3.41
563.641	3.55
563.983	3.48
564.325	3.64
564.667	3.56
565.008	3.33
565.35	3.59
565.692	3.33
566.033	3.39
566.375	3.56
566.716	3.43
567.058	3.44
567.399	3.59
567.741	3.65
568.082	3.4
568.423	3.52
568.764	3.58
569.105	3.46
569.447	3.35
569.788	3.36
570.129	3.52
570.47	3.34
570.811	3.35
571.151	3.51
571.492	3.37
571.833	3.5
572.174	3.39
572.514	3.66
572.855	3.38
573.195	3.4
573.536	3.54
573.876	3.47
574.217	3.22
574.557	3.43
574.898	3.45
575.238	3.35
575.578	3.4
575.918	3.42
576.258	3.16
576.598	3.41
576.938	3.41
577.278	3.48
577.618	3.24
577.958	3.53
578.298	3.5
578.638	3.32
578.977	3.47
579.317	3.54
579.657	3.47
579.996	3.62
580.336	3.57
580.675	3.56
581.014	3.27
581.354	3.2
581.693	3.49
582.032	3.49
582.372	3.49
582.711	3.51
583.05	3.63
583.389	3.35
583.728	3.34
584.067	3.62
584.406	3.57
584.745	3.31
585.083	3.67
585.422	3.58
585.761	3.32
586.1	3.52
586.438	3.53
586.777	3.66
587.115	3.47
587.454	3.57
587.792	3.57
588.13	3.45
588.469	3.53
588.807	3.7
589.145	3.53
589.483	3.66
589.821	3.32
590.159	3.61
590.497	3.72
590.835	3.65
591.173	3.44
591.511	3.27
591.849	3.73
592.187	3.2
592.524	3.54
592.862	3.4
593.2	3.27
593.537	3.37
593.875	3.55
594.212	3.54
594.55	3.66
594.887	3.4
595.224	3.45
595.561	3.54
595.899	3.72
596.236	3.68
596.573	3.56
596.91	3.52
597.247	3.49
597.584	3.71
597.921	3.66
598.258	3.78
598.594	3.49
598.931	3.39
599.268	3.54
599.604	3.44
599.941	3.51
600.277	3.32
600.614	3.4
600.95	3.54
601.287	3.44
601.623	3.55
601.959	3.39
602.296	3.51
602.632	3.32
602.968	3.49
603.304	3.47
603.64	3.44
603.976	3.3
604.312	3.44
604.648	3.47
604.984	3.5
605.319	3.25
605.655	3.32
605.991	3.34
606.326	3.61
606.662	3.42
606.998	3.36
607.333	3.38
607.668	3.41
608.004	3.53
608.339	3.28
608.674	3.46
609.01	3.44
609.345	3.34
609.68	3.59
610.015	3.41
610.35	3.65
610.685	3.7
611.02	3.65
611.355	3.64
611.689	3.35
612.024	3.33
612.359	3.34
612.694	3.42
613.028	3.53
613.363	3.37
613.697	3.49
614.032	3.24
614.366	3.47
614.7	3.61
615.035	3.56
615.369	3.56
615.703	3.25
616.037	3.46
616.371	3.88
616.705	3.52
617.039	3.69
617.373	3.37
617.707	3.52
618.041	3.6
618.375	3.53
618.709	3.5
619.042	3.72
619.376	3.41
619.71	3.61
620.043	3.41
620.377	3.35
620.71	3.33
621.043	3.43
621.377	3.57
621.71	3.59
622.043	3.25
622.376	3.74
622.709	3.5
623.043	3.52
623.376	3.5
623.709	3.69
624.041	3.42
624.374	3.64
624.707	4.08
625.04	3.67
625.373	3.01
625.705	3.59
626.038	3.69
626.37	3.68
626.703	3.71
627.035	3.15
627.368	3.47
627.7	3.74
628.032	3.58
628.365	3.47
628.697	3.4
629.029	3.71
629.361	3.74
629.693	3.55
630.025	3.45
630.357	3.49
630.689	3.35
631.021	3.43
631.353	3.26
631.684	3.1
632.016	3.59
632.348	3.66
632.679	3.44
633.011	3.94
633.342	3.64
633.674	3.74
634.005	3.26
634.336	3.9
634.668	3.71
634.999	3.44
635.33	3.71
635.661	3.41
635.992	3.75
636.323	3.43
636.654	3.2
636.985	3.63
637.316	3.43
637.647	3.69
637.977	3.27
638.308	3.79
638.639	3.26
638.969	3.55
639.3	3.29
639.63	3.85
639.961	3.32
640.291	3.48
640.622	3.43
640.952	3.17
641.282	3.78
641.612	3.69
641.943	3.93
642.273	3.46
642.603	3.16
642.933	3.41
643.263	3.23
643.592	3.43
643.922	3.81
644.252	3.11
644.582	3.96
644.911	3.78
645.241	3.63
645.571	3.27
645.9	3.42
646.23	3.63
646.559	3.81
646.888	3.78
647.218	3.48
647.547	3.7
647.876	3.41
648.205	3.44
648.534	3.57
648.863	3.5
649.192	2.82
649.521	3.83
649.85	3.84
650.179	3.61
650.508	3.52
650.837	3.95
651.165	3.28
651.494	3.43
651.822	3.45
652.151	3.64
652.479	3.59
652.808	3.48
653.136	4.18
653.465	3.73
653.793	3.47
654.121	4.11
654.449	3.67
654.777	3.77
655.105	3.64
655.433	3.68
655.761	3.67
656.089	3.77
656.417	3.23
656.745	3.61
657.073	3.84
657.4	4.37
657.728	4.01
658.056	3.81
658.383	3.47
658.711	3.16
659.038	3.72
659.365	3.45
659.693	3.73
660.02	3.91
660.347	3.93
660.674	3.59
661.001	3.9
661.329	3.95
661.656	3.66
661.982	3.4
662.309	3.84
662.636	3.56
662.963	3.34
663.29	3.96
663.616	3.91
663.943	4.03
664.27	3.71
664.596	3.24
664.923	3.55
665.249	3.59
665.576	3.07
665.902	3.17
666.228	2.91
666.554	3.46
666.881	4.41
667.207	3.47
667.533	4.02
667.859	4.08
668.185	3.41
668.511	3.75
668.837	3.42
669.162	3.01
669.488	3.94
669.814	3.56
670.139	4.12
670.465	4.33
670.791	4.37
671.116	3.33
671.442	4.42
671.767	3.21
672.092	4.35
672.418	4.29
672.743	3.97
673.068	3.77
673.393	3.46
673.718	3.53
674.043	4.06
674.368	4.03
674.693	3.76
675.018	3.56
675.343	4.29
675.667	3.59
675.992	3.76
676.317	4.27
676.641	4.23
676.966	3.36
677.29	3.76
677.615	4.85
677.939	3.92
678.264	4.1
678.588	4.58
678.912	4.17
679.236	4.16
679.56	4.65
679.885	3.56
680.209	4.84
680.532	3.69
680.856	3.45
681.18	3.6
681.504	3.75
681.828	4.09
682.152	3.61
682.475	4.4
682.799	3.9
683.122	3.53
683.446	3.64
683.769	3.83
684.093	4.05
684.416	3.6
684.739	4.19
685.062	4.49
685.386	4.08
685.709	3.94
686.032	3.59
686.355	3.7
686.678	3.91
687.001	3.89
687.324	4.42
687.646	3.52
687.969	4.6
688.292	4.3
688.614	4.43
688.937	3.94
689.26	4.16
689.582	4.19
689.904	3.8
690.227	4.05
690.549	4.19
690.871	4.63
691.194	3.9
691.516	3.84
691.838	4.48
692.16	3.64
692.482	3.66
