Data from 0219_crown_Reflection__1__241.txt Node

Date: Fri Sep 22 22:44:37 CDT 2023
User: ToomeyLab
Spectrometer: FLMS14357
Trigger mode: 0
Integration Time (sec): 1.000000E-2
Scans to average: 100
Electric dark correction enabled: true
Nonlinearity correction enabled: false
Boxcar width: 0
XAxis mode: Wavelengths
Number of Pixels in Spectrum: 2048
>>>>>Begin Spectral Data<<<<<
189.047	-201.23
189.435	-201.23
189.823	-201.23
190.211	51.04
190.599	37.49
190.987	106.3
191.375	110.95
191.763	-43.9
192.151	121.15
192.538	-180.86
192.926	121.15
193.314	532.93
193.702	39.53
194.089	157.31
194.477	143.16
194.864	250
195.252	139.34
195.639	-51.15
196.027	45.97
196.414	-240.35
196.801	-79.28
197.189	54.58
197.576	58.02
197.963	-12.55
198.351	16.06
198.738	3.28
199.125	36.04
199.512	-10.01
199.899	19.64
200.286	7.18
200.673	-0.07
201.06	32.79
201.447	45.92
201.833	-17.82
202.22	47.64
202.607	32.67
202.994	32.87
203.38	26.64
203.767	26.64
204.154	18.8
204.54	26.31
204.927	-32.14
205.313	24.91
205.699	30.2
206.086	37.11
206.472	61.56
206.858	4.3
207.245	-73.86
207.631	25.25
208.017	8.97
208.403	33.04
208.789	15.97
209.175	35.77
209.561	33.5
209.947	48.08
210.333	62.03
210.719	-45.82
211.105	39.24
211.491	21.29
211.876	37.44
212.262	13.57
212.648	16.74
213.034	27.05
213.419	-17.41
213.805	11.78
214.19	-5.01
214.576	22.75
214.961	17.97
215.346	13.33
215.732	5.83
216.117	3.11
216.502	37.14
216.888	35.01
217.273	6.79
217.658	-6.85
218.043	0.1
218.428	29.54
218.813	-31.33
219.198	12.99
219.583	29.21
219.968	4.88
220.353	20.44
220.738	11.23
221.122	2.41
221.507	4.02
221.892	0.48
222.276	-5.57
222.661	-27.61
223.046	5.83
223.43	16.88
223.815	1.87
224.199	8.44
224.583	11.17
224.968	13.23
225.352	7.92
225.736	11.93
226.121	8.02
226.505	11.18
226.889	12.64
227.273	3.34
227.657	13.89
228.041	10.92
228.425	12.42
228.809	2.21
229.193	7.83
229.577	11.49
229.961	7.86
230.344	9.58
230.728	4.89
231.112	7.35
231.495	6.08
231.879	7.27
232.263	6.5
232.646	6.09
233.03	6.77
233.413	7.67
233.797	9.11
234.18	5.7
234.563	6.98
234.946	8.41
235.33	5.78
235.713	6.32
236.096	7.47
236.479	7.26
236.862	8.3
237.245	8.17
237.628	7.57
238.011	6.92
238.394	6.94
238.777	9.02
239.16	7.93
239.543	7.15
239.925	6.7
240.308	7.13
240.691	7.29
241.073	7.99
241.456	6.33
241.838	6.84
242.221	7.15
242.603	6.04
242.986	5.97
243.368	6.47
243.75	7.04
244.133	6.96
244.515	6.61
244.897	6.31
245.279	6.5
245.661	5.94
246.043	6.72
246.425	6.74
246.807	5.73
247.189	5.36
247.571	6.64
247.953	6.12
248.335	6.05
248.717	6.43
249.098	5.78
249.48	6.01
249.862	5.95
250.243	5.79
250.625	6.39
251.006	5.63
251.388	6.41
251.769	5.71
252.151	5.74
252.532	5.79
252.913	6.29
253.295	7.6
253.676	5.87
254.057	6.3
254.438	6.49
254.819	5.46
255.2	6.3
255.581	4.72
255.962	6.29
256.343	6.67
256.724	4.91
257.105	5.79
257.486	5.67
257.867	4.97
258.247	5.75
258.628	6.67
259.009	4.74
259.389	5.84
259.77	5.97
260.15	6.15
260.531	5.49
260.911	5.61
261.292	5.94
261.672	5.52
262.052	5.39
262.432	5.68
262.813	5.64
263.193	4.96
263.573	5.97
263.953	5.64
264.333	5.67
264.713	5.28
265.093	5.19
265.473	6.16
265.853	5.13
266.233	5.27
266.612	5.76
266.992	5.48
267.372	6.41
267.752	6.47
268.131	5.75
268.511	5.81
268.89	5.7
269.27	5.53
269.649	5.34
270.029	5.49
270.408	5.23
270.787	5.37
271.167	5.68
271.546	5.54
271.925	5.24
272.304	4.72
272.683	5.19
273.062	5.47
273.441	5.91
273.82	5.51
274.199	5.31
274.578	5.29
274.957	4.94
275.336	4.83
275.715	5.77
276.093	5.22
276.472	5.03
276.851	5.33
277.229	4.62
277.608	4.72
277.986	5.05
278.365	5.22
278.743	5.63
279.122	5.5
279.5	5.73
279.878	4.43
280.257	5.46
280.635	5.29
281.013	5.97
281.391	4.48
281.769	5.11
282.147	5.24
282.525	5.62
282.903	5.4
283.281	5.16
283.659	5.04
284.037	5.14
284.415	5.22
284.792	5.42
285.17	5.21
285.548	5.84
285.925	5.39
286.303	4.59
286.68	4.58
287.058	5.18
287.435	5.22
287.813	4.64
288.19	4.34
288.567	5.11
288.945	4.67
289.322	4.92
289.699	4.78
290.076	4.91
290.453	4.98
290.83	4.56
291.207	4.8
291.584	4.73
291.961	5.14
292.338	4.73
292.715	5.21
293.092	4.96
293.469	4.94
293.845	5.36
294.222	5.16
294.599	5.11
294.975	5.62
295.352	4.63
295.728	5.36
296.105	5.25
296.481	4.86
296.858	5.14
297.234	4.85
297.61	4.73
297.986	4.83
298.363	4.46
298.739	4.66
299.115	4.71
299.491	4.75
299.867	4.9
300.243	4.73
300.619	4.68
300.995	4.32
301.371	4.88
301.746	5.18
302.122	4.85
302.498	4.74
302.874	4.4
303.249	4.81
303.625	4.12
304	4.62
304.376	4.49
304.751	4.79
305.127	4.44
305.502	5.25
305.878	4.88
306.253	4.77
306.628	4.69
307.003	4.99
307.378	4.47
307.754	4.34
308.129	4.8
308.504	4.71
308.879	4.83
309.254	4.83
309.629	4.37
310.003	5.07
310.378	5.07
310.753	4.8
311.128	4.92
311.502	4.91
311.877	4.4
312.252	4.63
312.626	4.4
313.001	4.96
313.375	4.86
313.75	4.63
314.124	5.01
314.498	4.28
314.873	4.25
315.247	4.97
315.621	4.96
315.995	4.57
316.369	4.41
316.743	4.47
317.117	5.23
317.491	4.59
317.865	4.09
318.239	4.62
318.613	4.79
318.987	4.84
319.361	4.22
319.734	4.37
320.108	4.94
320.482	4.61
320.855	4.72
321.229	5.34
321.602	4.82
321.976	4.21
322.349	4.72
322.723	4.49
323.096	4.39
323.469	4.63
323.843	3.64
324.216	5.08
324.589	4.69
324.962	3.93
325.335	4.24
325.708	3.94
326.081	4.12
326.454	3.61
326.827	4.24
327.2	4.67
327.573	4.83
327.945	3.99
328.318	4.98
328.691	4.46
329.063	3.74
329.436	4.8
329.809	4.74
330.181	4.63
330.553	4.04
330.926	4.67
331.298	4.77
331.671	4.36
332.043	3.82
332.415	4.41
332.787	4.68
333.159	4.53
333.532	4.26
333.904	4.72
334.276	4.04
334.648	4.17
335.02	4.22
335.391	4.4
335.763	4.41
336.135	4.49
336.507	4.35
336.879	4.04
337.25	4.63
337.622	4.52
337.993	4.63
338.365	4.75
338.736	4.29
339.108	4.51
339.479	4.72
339.851	3.99
340.222	4.17
340.593	3.92
340.964	3.84
341.336	3.95
341.707	4.43
342.078	4.53
342.449	4.93
342.82	4.07
343.191	4.33
343.562	4.29
343.933	4.27
344.303	4.5
344.674	4.35
345.045	4.75
345.416	4.4
345.786	4.39
346.157	4.19
346.527	4.12
346.898	4.34
347.268	4.57
347.639	4.62
348.009	4.38
348.38	4.59
348.75	4.68
349.12	4.47
349.49	4.71
349.861	4.34
350.231	4.66
350.601	4.74
350.971	4.29
351.341	4.23
351.711	4.14
352.081	4.02
352.45	4.05
352.82	4.44
353.19	4.66
353.56	4.21
353.929	4.25
354.299	4.28
354.669	3.9
355.038	4.4
355.408	4
355.777	4.59
356.147	4.67
356.516	4.59
356.885	4.6
357.254	4.83
357.624	4.24
357.993	4.41
358.362	4.46
358.731	4.25
359.1	4.57
359.469	4.35
359.838	4.04
360.207	4.13
360.576	4.3
360.945	4.2
361.314	4.41
361.682	4.74
362.051	4.71
362.42	4.33
362.788	4.14
363.157	4.73
363.525	4.41
363.894	4.22
364.262	4.34
364.631	4.38
364.999	4.34
365.367	4.24
365.735	4.23
366.104	4.29
366.472	4.51
366.84	4.28
367.208	4.38
367.576	4.36
367.944	4.52
368.312	4.75
368.68	4.62
369.048	4.62
369.416	4.71
369.783	4.21
370.151	4.44
370.519	4.88
370.886	4.44
371.254	4.77
371.621	4.43
371.989	4.28
372.356	4.42
372.724	4.79
373.091	4.79
373.458	4.62
373.826	4.6
374.193	4.64
374.56	4.72
374.927	4.43
375.294	4.37
375.661	4.4
376.028	4.82
376.395	4.73
376.762	4.51
377.129	4.72
377.496	4.81
377.863	4.64
378.229	4.63
378.596	4.65
378.963	4.66
379.329	4.52
379.696	4.88
380.062	4.41
380.429	4.32
380.795	4.77
381.161	4.43
381.528	4.51
381.894	3.93
382.26	4.49
382.626	4.9
382.993	4.89
383.359	4.27
383.725	4.31
384.091	4.61
384.457	4.38
384.823	4.76
385.188	4.93
385.554	4.58
385.92	4.68
386.286	4.79
386.651	4.63
387.017	4.77
387.383	4.33
387.748	4.56
388.114	4.43
388.479	4.68
388.845	4.36
389.21	4.34
389.575	4.87
389.94	4.37
390.306	4.77
390.671	4.91
391.036	4.35
391.401	4.62
391.766	4.75
392.131	4.56
392.496	4.63
392.861	4.55
393.226	4.9
393.591	4.83
393.956	4.64
394.32	4.46
394.685	4.57
395.05	4.94
395.414	4.9
395.779	4.57
396.143	4.65
396.508	4.73
396.872	4.66
397.236	4.71
397.601	4.48
397.965	4.83
398.329	4.75
398.694	4.78
399.058	4.62
399.422	4.76
399.786	4.63
400.15	4.58
400.514	5.03
400.878	4.69
401.242	4.72
401.605	4.78
401.969	4.55
402.333	4.74
402.697	4.41
403.06	4.68
403.424	4.39
403.787	4.76
404.151	4.7
404.514	4.79
404.878	4.74
405.241	4.82
405.604	4.91
405.968	4.76
406.331	4.6
406.694	4.73
407.057	4.55
407.42	4.68
407.783	4.69
408.146	4.67
408.509	4.6
408.872	4.93
409.235	4.72
409.598	4.7
409.961	4.97
410.323	4.7
410.686	4.61
411.049	4.84
411.411	4.78
411.774	4.86
412.136	4.39
412.499	4.64
412.861	4.92
413.223	4.73
413.586	4.51
413.948	4.9
414.31	4.85
414.672	4.75
415.035	4.8
415.397	4.99
415.759	5.24
416.121	4.73
416.483	4.81
416.845	4.86
417.206	4.7
417.568	4.85
417.93	4.68
418.292	4.62
418.653	4.61
419.015	4.73
419.377	4.85
419.738	4.79
420.1	4.6
420.461	4.81
420.822	4.71
421.184	4.74
421.545	4.74
421.906	4.76
422.267	4.65
422.629	4.84
422.99	4.65
423.351	4.65
423.712	4.69
424.073	4.73
424.434	4.8
424.795	4.6
425.155	4.75
425.516	4.7
425.877	4.71
426.238	4.59
426.598	4.56
426.959	4.75
427.32	4.83
427.68	4.68
428.041	4.7
428.401	4.88
428.761	4.91
429.122	4.72
429.482	4.86
429.842	4.72
430.202	4.61
430.563	4.81
430.923	4.8
431.283	4.86
431.643	4.97
432.003	4.97
432.363	4.98
432.722	5.09
433.082	5.02
433.442	4.87
433.802	4.93
434.161	4.81
434.521	4.86
434.881	4.91
435.24	4.91
435.6	4.82
435.959	4.75
436.319	4.87
436.678	4.96
437.037	4.86
437.396	4.84
437.756	4.88
438.115	5.02
438.474	4.88
438.833	4.89
439.192	4.89
439.551	4.87
439.91	5.14
440.269	4.99
440.628	4.77
440.987	4.87
441.345	4.91
441.704	4.93
442.063	4.87
442.421	4.82
442.78	4.95
443.138	4.91
443.497	4.78
443.855	4.89
444.214	4.74
444.572	5.02
444.93	4.95
445.288	4.84
445.647	4.93
446.005	4.87
446.363	4.82
446.721	4.91
447.079	4.8
447.437	5.04
447.795	4.95
448.153	4.81
448.51	4.86
448.868	4.84
449.226	4.94
449.584	4.91
449.941	4.75
450.299	4.9
450.656	4.94
451.014	4.97
451.371	4.88
451.729	4.9
452.086	4.9
452.443	5.01
452.801	4.87
453.158	4.96
453.515	5.02
453.872	4.92
454.229	5.14
454.586	4.97
454.943	4.96
455.3	4.95
455.657	4.97
456.014	5.13
456.371	5.03
456.727	5.39
457.084	5.04
457.441	4.94
457.797	5.09
458.154	4.93
458.51	5.01
458.867	5.08
459.223	5.21
459.58	5.06
459.936	4.93
460.292	5.03
460.648	5.24
461.005	5.06
461.361	5.18
461.717	4.86
462.073	4.94
462.429	4.86
462.785	4.96
463.141	4.91
463.496	5.15
463.852	5
464.208	5.02
464.564	5.2
464.919	4.99
465.275	5.17
465.631	5.09
465.986	5.09
466.342	5.19
466.697	5.16
467.052	5.02
467.408	5.06
467.763	4.98
468.118	5.42
468.473	5.06
468.829	5.13
469.184	5.23
469.539	5.14
469.894	5.15
470.249	5.29
470.603	5.09
470.958	5.23
471.313	5.34
471.668	5.27
472.023	5.12
472.377	5.15
472.732	5.11
473.086	5.44
473.441	4.96
473.795	5.45
474.15	5.2
474.504	5.14
474.859	5.34
475.213	5.12
475.567	4.96
475.921	5.19
476.275	5.24
476.63	5.11
476.984	5.17
477.338	5.32
477.692	5.09
478.045	5.29
478.399	5.23
478.753	5.16
479.107	5.13
479.461	5.14
479.814	5.14
480.168	5.16
480.521	5.21
480.875	5.3
481.228	5.25
481.582	5.03
481.935	5.12
482.289	5.08
482.642	5.06
482.995	5.12
483.348	5.18
483.701	5.13
484.055	5.13
484.408	5.1
484.761	5.07
485.114	4.92
485.466	4.96
485.819	4.86
486.172	4.81
486.525	4.81
486.878	4.82
487.23	4.89
487.583	4.95
487.936	5.01
488.288	5.06
488.641	5.01
488.993	4.96
489.345	4.94
489.698	4.88
490.05	4.95
490.402	4.96
490.754	4.96
491.107	4.92
491.459	5
491.811	5.03
492.163	5.13
492.515	5
492.866	5.18
493.218	5.04
493.57	5.1
493.922	4.94
494.274	4.99
494.625	5
494.977	5.11
495.328	5.15
495.68	5.19
496.031	5.12
496.383	5.28
496.734	5.18
497.086	5.23
497.437	5.15
497.788	5.25
498.139	5.3
498.49	5.29
498.842	5.15
499.193	5.18
499.544	5.14
499.894	5.17
500.245	5.28
500.596	5.22
500.947	5.27
501.298	5.21
501.648	5.24
501.999	5.25
502.35	5.29
502.7	5.33
503.051	5.23
503.401	5.21
503.752	5.27
504.102	5.22
504.452	5.26
504.803	5.31
505.153	5.21
505.503	5.15
505.853	5.3
506.203	5.25
506.553	5.37
506.903	5.33
507.253	5.2
507.603	5.24
507.953	5.41
508.303	5.52
508.652	5.25
509.002	5.39
509.352	5.17
509.701	5.26
510.051	5.29
510.4	5.33
510.75	5.19
511.099	5.1
511.449	5.34
511.798	5.38
512.147	5.33
512.496	5.28
512.846	5.24
513.195	5.29
513.544	5.3
513.893	5.33
514.242	5.27
514.591	5.23
514.939	5.28
515.288	5.13
515.637	5.24
515.986	5.1
516.334	5.27
516.683	5.31
517.032	5.37
517.38	5.39
517.729	5.18
518.077	5.47
518.426	5.44
518.774	5.38
519.122	5.29
519.47	5.28
519.819	5.33
520.167	5.32
520.515	5.36
520.863	5.22
521.211	5.13
521.559	5.28
521.907	5.2
522.255	5.22
522.602	5.17
522.95	5.23
523.298	5.31
523.645	5.39
523.993	5.28
524.341	5.28
524.688	5.22
525.036	5.36
525.383	5.28
525.73	5.32
526.078	5.28
526.425	5.26
526.772	5.3
527.119	5.28
527.466	5.14
527.814	5.09
528.161	5.11
528.508	5.18
528.854	5.15
529.201	5.23
529.548	5.06
529.895	5.14
530.242	5.06
530.588	5.01
530.935	4.93
531.282	4.97
531.628	5
531.975	4.99
532.321	5.01
532.667	5.15
533.014	5.17
533.36	5.2
533.706	5.12
534.052	5.21
534.399	5.22
534.745	5.16
535.091	5.06
535.437	5.1
535.783	4.98
536.129	5.09
536.474	5.14
536.82	4.99
537.166	5.2
537.512	5.22
537.857	5.18
538.203	5.31
538.549	5.12
538.894	5.14
539.239	5.1
539.585	5.15
539.93	5.25
540.276	5.21
540.621	5.19
540.966	5.26
541.311	5.33
541.656	5.27
542.001	5.25
542.346	5.28
542.691	5.39
543.036	5.07
543.381	5.03
543.726	5.02
544.071	5.07
544.415	5.02
544.76	5.01
545.105	5.08
545.449	5.04
545.794	5.12
546.138	5.26
546.483	5.24
546.827	5.22
547.171	5.17
547.516	5.32
547.86	5.25
548.204	5.2
548.548	5.21
548.892	5.23
549.236	5.13
549.58	5.14
549.924	5.35
550.268	5.33
550.612	5.26
550.956	5.29
551.3	5.25
551.643	5.32
551.987	5.29
552.33	5.62
552.674	5.36
553.017	5.24
553.361	5.12
553.704	5.34
554.048	5.33
554.391	5.41
554.734	5.42
555.077	5.24
555.42	5.24
555.764	5.24
556.107	5.24
556.45	5.29
556.793	5.15
557.135	5.31
557.478	5.24
557.821	5.3
558.164	5.29
558.507	5.42
558.849	5.36
559.192	5.5
559.534	5.48
559.877	5.36
560.219	5.46
560.562	5.38
560.904	5.49
561.246	5.57
561.589	5.38
561.931	5.24
562.273	5.17
562.615	5.31
562.957	5.27
563.299	5.39
563.641	5.45
563.983	5.42
564.325	5.3
564.667	5.33
565.008	5.32
565.35	5.44
565.692	5.39
566.033	5.36
566.375	5.54
566.716	5.5
567.058	5.32
567.399	5.45
567.741	5.36
568.082	5.3
568.423	5.24
568.764	5.48
569.105	5.18
569.447	5.33
569.788	5.23
570.129	5.39
570.47	5.32
570.811	5.28
571.151	5.43
571.492	5.41
571.833	5.12
572.174	5.2
572.514	5.19
572.855	5.2
573.195	5.11
573.536	5.13
573.876	5.26
574.217	5.16
574.557	5.18
574.898	5.28
575.238	5.17
575.578	5.39
575.918	5.27
576.258	5.19
576.598	5.24
576.938	5.22
577.278	5.32
577.618	5.23
577.958	5.25
578.298	5.29
578.638	5.16
578.977	5.33
579.317	5.42
579.657	5.43
579.996	5.31
580.336	5.38
580.675	5.33
581.014	5.26
581.354	5.23
581.693	5.49
582.032	5.37
582.372	5.51
582.711	5.33
583.05	5.51
583.389	5.18
583.728	5.43
584.067	5.23
584.406	5.33
584.745	5.15
585.083	5.52
585.422	5.38
585.761	5.27
586.1	5.35
586.438	5.3
586.777	5.28
587.115	5.42
587.454	5.16
587.792	5.32
588.13	5.16
588.469	5.4
588.807	5.39
589.145	5.47
589.483	5.34
589.821	5.37
590.159	5.29
590.497	5.36
590.835	5.33
591.173	5.26
591.511	5.18
591.849	5.26
592.187	5.2
592.524	5.45
592.862	5.21
593.2	5.27
593.537	5.13
593.875	5.36
594.212	5.16
594.55	5.39
594.887	5.37
595.224	5.39
595.561	5.51
595.899	5.41
596.236	5.62
596.573	5.66
596.91	5.19
597.247	5.24
597.584	5.35
597.921	5.49
598.258	5.36
598.594	5.11
598.931	5.4
599.268	5.34
599.604	5.58
599.941	5.33
600.277	5.27
600.614	5.28
600.95	5.5
601.287	5.05
601.623	5.37
601.959	5.53
602.296	5.36
602.632	5.2
602.968	5.31
603.304	5.22
603.64	5.13
603.976	5.29
604.312	5.2
604.648	5.36
604.984	5.25
605.319	5
605.655	5.18
605.991	5.22
606.326	5.31
606.662	5.3
606.998	5.27
607.333	5.44
607.668	5.27
608.004	5.46
608.339	5.26
608.674	5.52
609.01	5.31
609.345	5.45
609.68	5.41
610.015	5.37
610.35	5.27
610.685	5.43
611.02	5.38
611.355	5.53
611.689	5.29
612.024	5.37
612.359	5.29
612.694	5.32
613.028	5.41
613.363	5.03
613.697	5.17
614.032	5.15
614.366	5.18
614.7	5.11
615.035	5.48
615.369	5.15
615.703	5.06
616.037	5.3
616.371	5.62
616.705	5.52
617.039	5.25
617.373	5.15
617.707	5.14
618.041	5.45
618.375	5.41
618.709	5.41
619.042	5.52
619.376	5.63
619.71	5.3
620.043	5.24
620.377	5.23
620.71	5.46
621.043	5.39
621.377	5.16
621.71	5.44
622.043	5.3
622.376	5.72
622.709	5.24
623.043	5.18
623.376	5.57
623.709	5.59
624.041	4.98
624.374	5.27
624.707	5.37
625.04	5.57
625.373	5.17
625.705	5.22
626.038	5.14
626.37	5.68
626.703	5.39
627.035	5.28
627.368	5.51
627.7	5.49
628.032	5.32
628.365	5.24
628.697	5.45
629.029	5.29
629.361	5.18
629.693	5.39
630.025	5.67
630.357	5.49
630.689	5.39
631.021	5.15
631.353	5.37
631.684	5.11
632.016	5.67
632.348	5.24
632.679	5.22
633.011	5.42
633.342	5.54
633.674	5.84
634.005	5.08
634.336	5.54
634.668	5.41
634.999	5.67
635.33	5.26
635.661	5.55
635.992	5.23
636.323	5.24
636.654	5.28
636.985	5.29
637.316	5.19
637.647	5.44
637.977	5.16
638.308	5.45
638.639	5.51
638.969	5.54
639.3	5.65
639.63	5.59
639.961	5.35
640.291	4.77
640.622	5.55
640.952	5.47
641.282	5.38
641.612	5.25
641.943	5.42
642.273	5.21
642.603	5.02
642.933	5.12
643.263	4.71
643.592	5.22
643.922	5.6
644.252	5.23
644.582	5.78
644.911	5.45
645.241	5.89
645.571	5.39
645.9	5.54
646.23	5.87
646.559	5.61
646.888	6.06
647.218	5.47
647.547	5.39
647.876	5.6
648.205	5.17
648.534	5.95
648.863	5.33
649.192	4.83
649.521	5.24
649.85	5.29
650.179	5.06
650.508	4.98
650.837	5.75
651.165	5.52
651.494	5.32
651.822	5.41
652.151	5.38
652.479	5.5
652.808	5.51
653.136	5.88
653.465	5.75
653.793	5.32
654.121	5.58
654.449	5.21
654.777	5.53
655.105	5.73
655.433	5.79
655.761	5.8
656.089	5.25
656.417	5.48
656.745	5.41
657.073	5.83
657.4	6.51
657.728	5.13
658.056	5.48
658.383	5.76
658.711	5.43
659.038	5.07
659.365	5.38
659.693	5.01
660.02	5.7
660.347	5.63
660.674	5.36
661.001	5.55
661.329	5.22
661.656	5.73
661.982	5.27
662.309	5.53
662.636	5.67
662.963	5.67
663.29	5.75
663.616	5.6
663.943	5.85
664.27	5.45
664.596	5.34
664.923	5.58
665.249	5.9
665.576	5.29
665.902	5.51
666.228	4.85
666.554	4.68
666.881	5.79
667.207	5
667.533	4.85
667.859	5.35
668.185	5.48
668.511	5.95
668.837	5.3
669.162	5.7
669.488	5.55
669.814	5.5
670.139	5.64
670.465	5.95
670.791	5.29
671.116	5.21
671.442	5.88
671.767	5.25
672.092	5.91
672.418	6.08
672.743	5.36
673.068	5.72
673.393	5.59
673.718	6.15
674.043	6.08
674.368	5.6
674.693	5.42
675.018	5.38
675.343	5.4
675.667	5.6
675.992	5.59
676.317	6.36
676.641	5.4
676.966	5.02
677.29	5.37
677.615	6.38
677.939	5.69
678.264	5.74
678.588	5.83
678.912	5.98
679.236	6
679.56	5.21
679.885	5.23
680.209	6.18
680.532	5.27
680.856	5.16
681.18	6.36
681.504	5.25
681.828	5.53
682.152	5.4
682.475	6.19
682.799	6.07
683.122	5.36
683.446	5.48
683.769	5.36
684.093	6.15
684.416	5.73
684.739	5.5
685.062	6.39
685.386	5.52
685.709	5.75
686.032	5.23
686.355	6
686.678	6.41
687.001	5.66
687.324	6.24
687.646	5.87
687.969	6.47
688.292	5.05
688.614	5.85
688.937	5.9
689.26	4.96
689.582	5.69
689.904	6.09
690.227	5.89
690.549	6.2
690.871	6.1
691.194	6.3
691.516	6.14
691.838	6.04
692.16	4.89
692.482	5.7
