Data from 0219_forehead_Reflection__1__247.txt Node

Date: Fri Sep 22 22:46:17 CDT 2023
User: ToomeyLab
Spectrometer: FLMS14357
Trigger mode: 0
Integration Time (sec): 1.000000E-2
Scans to average: 100
Electric dark correction enabled: true
Nonlinearity correction enabled: false
Boxcar width: 0
XAxis mode: Wavelengths
Number of Pixels in Spectrum: 2048
>>>>>Begin Spectral Data<<<<<
189.047	-1.36
189.435	-1.36
189.823	-1.36
190.211	-154.92
190.599	99.76
190.987	211.72
191.375	180.78
191.763	116.65
192.151	-1.71
192.538	175.11
192.926	64.96
193.314	2568.29
193.702	-3.72
194.089	265.11
194.477	1.91
194.864	780.12
195.252	114.45
195.639	-35.86
196.027	86.01
196.414	86.04
196.801	-24.2
197.189	-162.23
197.576	80.7
197.963	-52.1
198.351	25.07
198.738	13.77
199.125	45.93
199.512	21.74
199.899	90.25
200.286	44.7
200.673	26.45
201.06	63.83
201.447	41.23
201.833	66.64
202.22	61.91
202.607	54.72
202.994	51.58
203.38	45.72
203.767	26.78
204.154	44.36
204.54	44.64
204.927	17.83
205.313	74.5
205.699	52.81
206.086	48.65
206.472	76.95
206.858	32.95
207.245	20.6
207.631	59.03
208.017	56.36
208.403	53.03
208.789	21.23
209.175	58.42
209.561	51.23
209.947	41.66
210.333	52.97
210.719	9.57
211.105	53.92
211.491	23.21
211.876	48.83
212.262	31.4
212.648	42.45
213.034	37.71
213.419	19.8
213.805	30.64
214.19	5.18
214.576	29.43
214.961	44.05
215.346	11.81
215.732	16.05
216.117	16.34
216.502	44.19
216.888	21.11
217.273	43.53
217.658	20.26
218.043	40.3
218.428	31.23
218.813	1.29
219.198	40.17
219.583	49.91
219.968	21.27
220.353	45.71
220.738	24.78
221.122	20.69
221.507	7.2
221.892	17.55
222.276	40.97
222.661	-9.57
223.046	25.69
223.43	20.45
223.815	26.98
224.199	7.74
224.583	13.44
224.968	24.14
225.352	7.35
225.736	12.78
226.121	15.19
226.505	13.3
226.889	8.81
227.273	6.28
227.657	9.54
228.041	7.02
228.425	13.85
228.809	6.23
229.193	7.84
229.577	9.97
229.961	5.03
230.344	6.26
230.728	3.49
231.112	4.89
231.495	3.51
231.879	4.17
232.263	4.13
232.646	4.23
233.03	5.25
233.413	3.88
233.797	5.54
234.18	3.85
234.563	8.5
234.946	7.79
235.33	4.12
235.713	5.05
236.096	4.34
236.479	5.71
236.862	7
237.245	4.59
237.628	6.67
238.011	6.57
238.394	3.75
238.777	7.81
239.16	5.34
239.543	4.98
239.925	5.77
240.308	5.38
240.691	6.33
241.073	5.6
241.456	4.49
241.838	5.45
242.221	5.37
242.603	3.72
242.986	4.69
243.368	3.9
243.75	4.66
244.133	4.71
244.515	4.12
244.897	3.69
245.279	4.22
245.661	3.89
246.043	4.23
246.425	3.63
246.807	5.35
247.189	3.67
247.571	5.42
247.953	4.68
248.335	3.98
248.717	4.5
249.098	4.23
249.48	3.9
249.862	3.78
250.243	3.92
250.625	4.15
251.006	3.92
251.388	4.65
251.769	4.32
252.151	5.39
252.532	5.41
252.913	4.5
253.295	5.63
253.676	4.4
254.057	4.52
254.438	4.53
254.819	3.93
255.2	4.75
255.581	4.5
255.962	5.26
256.343	5.29
256.724	5.52
257.105	4.85
257.486	5.03
257.867	3.84
258.247	4.9
258.628	5.07
259.009	5.22
259.389	3.7
259.77	4.67
260.15	4.97
260.531	4.56
260.911	4.01
261.292	4.25
261.672	3.56
262.052	3.64
262.432	3.93
262.813	3.96
263.193	3.62
263.573	4.82
263.953	4.52
264.333	4.55
264.713	3.77
265.093	4.18
265.473	4.65
265.853	4.23
266.233	4.99
266.612	4.4
266.992	5.35
267.372	4.46
267.752	5.44
268.131	4.03
268.511	4.17
268.89	4.88
269.27	3.89
269.649	4.07
270.029	4
270.408	4.27
270.787	4.3
271.167	4.23
271.546	3.86
271.925	4.68
272.304	3.87
272.683	4.48
273.062	4.39
273.441	4.33
273.82	4.59
274.199	4.27
274.578	4.56
274.957	3.93
275.336	4.04
275.715	4.02
276.093	4.04
276.472	3.66
276.851	3.75
277.229	3.91
277.608	4.94
277.986	4.39
278.365	4.57
278.743	3.96
279.122	4.96
279.5	4.75
279.878	3.72
280.257	4.12
280.635	4.46
281.013	5.04
281.391	4.47
281.769	3.64
282.147	4.49
282.525	4.46
282.903	4.61
283.281	4.37
283.659	4.53
284.037	4.13
284.415	4.64
284.792	4.46
285.17	4.24
285.548	4.55
285.925	4.64
286.303	4.18
286.68	3.87
287.058	4.28
287.435	3.9
287.813	4.02
288.19	4.12
288.567	4.44
288.945	4.02
289.322	4.21
289.699	4.56
290.076	4.34
290.453	3.68
290.83	3.96
291.207	4.2
291.584	4.64
291.961	4.36
292.338	4.55
292.715	4.59
293.092	4.92
293.469	4.23
293.845	4.39
294.222	4.88
294.599	4.84
294.975	5.38
295.352	5.06
295.728	4.79
296.105	5.04
296.481	4.96
296.858	5.37
297.234	4.7
297.61	5.26
297.986	4.89
298.363	4.91
298.739	5.04
299.115	5.32
299.491	5.18
299.867	5.13
300.243	5.11
300.619	5.12
300.995	5.04
301.371	5.77
301.746	5.15
302.122	5.6
302.498	5.09
302.874	5.57
303.249	5.17
303.625	5.23
304	5.88
304.376	5.83
304.751	5.87
305.127	5.5
305.502	6.12
305.878	6.01
306.253	6.29
306.628	5.96
307.003	6.35
307.378	6.15
307.754	5.48
308.129	5.97
308.504	6.72
308.879	5.96
309.254	6.31
309.629	6.55
310.003	7.36
310.378	6.77
310.753	6.54
311.128	6.47
311.502	6.42
311.877	6.4
312.252	6.83
312.626	6.61
313.001	6.41
313.375	6.43
313.75	6.86
314.124	7.38
314.498	6.62
314.873	6.88
315.247	6.73
315.621	7.15
315.995	7.07
316.369	7
316.743	7.26
317.117	7.74
317.491	7.54
317.865	7.03
318.239	7.55
318.613	8.15
318.987	7.41
319.361	7.59
319.734	7.64
320.108	8.37
320.482	8
320.855	7.86
321.229	8.65
321.602	8.16
321.976	7.92
322.349	8.34
322.723	7.53
323.096	8.34
323.469	8.45
323.843	8.05
324.216	8.64
324.589	8.6
324.962	7.83
325.335	8.16
325.708	8.15
326.081	8.59
326.454	7.82
326.827	8.19
327.2	8.37
327.573	8.72
327.945	8.33
328.318	9.1
328.691	8.83
329.063	8.57
329.436	8.66
329.809	9.11
330.181	8.94
330.553	8.8
330.926	8.83
331.298	8.4
331.671	9.08
332.043	8.52
332.415	9.09
332.787	9.09
333.159	9.01
333.532	9.45
333.904	9.05
334.276	9.13
334.648	8.98
335.02	8.74
335.391	9.02
335.763	10.1
336.135	9.53
336.507	9.5
336.879	8.91
337.25	10.38
337.622	9.78
337.993	9.34
338.365	10.31
338.736	10.09
339.108	9.77
339.479	9.47
339.851	9.27
340.222	9.54
340.593	9.78
340.964	9.99
341.336	9.5
341.707	9.7
342.078	10.19
342.449	10.1
342.82	9.83
343.191	10.09
343.562	10.39
343.933	10.17
344.303	10.21
344.674	10.59
345.045	10.51
345.416	10.09
345.786	10.8
346.157	10.03
346.527	9.99
346.898	10.55
347.268	10.63
347.639	10.52
348.009	10.85
348.38	10.83
348.75	11.16
349.12	10.89
349.49	10.87
349.861	10.86
350.231	11.26
350.601	11
350.971	11.36
351.341	10.85
351.711	11.09
352.081	11.26
352.45	11.38
352.82	11.58
353.19	11.84
353.56	11.5
353.929	11.74
354.299	11.68
354.669	11.25
355.038	11.67
355.408	11.71
355.777	11.65
356.147	11.77
356.516	12.17
356.885	11.57
357.254	12.09
357.624	11.57
357.993	12.15
358.362	12.27
358.731	11.92
359.1	11.88
359.469	12.24
359.838	12.25
360.207	12.14
360.576	12.43
360.945	12.18
361.314	12.38
361.682	12.93
362.051	12.5
362.42	12.88
362.788	12.5
363.157	12.59
363.525	12.57
363.894	12.78
364.262	12.68
364.631	12.55
364.999	12.38
365.367	12.97
365.735	12.83
366.104	12.99
366.472	13.46
366.84	13.17
367.208	13.45
367.576	13.37
367.944	13.03
368.312	13.58
368.68	13.43
369.048	13.56
369.416	13.73
369.783	13.49
370.151	13.38
370.519	13.68
370.886	13.77
371.254	13.99
371.621	13.96
371.989	13.97
372.356	13.69
372.724	14.18
373.091	14.12
373.458	14.07
373.826	14.25
374.193	14.38
374.56	14.32
374.927	14.37
375.294	14.43
375.661	14.45
376.028	14.52
376.395	14.92
376.762	15.01
377.129	14.94
377.496	15.21
377.863	15.04
378.229	14.81
378.596	14.97
378.963	15.14
379.329	14.92
379.696	15.03
380.062	14.78
380.429	15.19
380.795	15.35
381.161	15.02
381.528	15.3
381.894	15.15
382.26	15.1
382.626	15.47
382.993	15.59
383.359	15.61
383.725	14.97
384.091	15.87
384.457	15.8
384.823	15.82
385.188	16.13
385.554	15.98
385.92	16.38
386.286	16.13
386.651	15.86
387.017	16.03
387.383	16.14
387.748	16.14
388.114	16.23
388.479	16.37
388.845	15.96
389.21	16.39
389.575	16.74
389.94	16.39
390.306	16.43
390.671	16.63
391.036	16.42
391.401	16.77
391.766	16.5
392.131	16.79
392.496	16.96
392.861	16.85
393.226	17.05
393.591	17.11
393.956	16.91
394.32	16.99
394.685	17.08
395.05	17.3
395.414	17.08
395.779	17.41
396.143	17.44
396.508	17.32
396.872	17.2
397.236	17.48
397.601	17.23
397.965	17.82
398.329	17.9
398.694	17.85
399.058	17.67
399.422	17.69
399.786	17.86
400.15	18.14
400.514	18.22
400.878	18.29
401.242	18.44
401.605	18.24
401.969	18.08
402.333	18.57
402.697	17.96
403.06	18.46
403.424	18.49
403.787	18.72
404.151	18.68
404.514	19.09
404.878	18.71
405.241	19.12
405.604	19.07
405.968	19.06
406.331	18.91
406.694	18.77
407.057	18.85
407.42	19.07
407.783	19.24
408.146	19.23
408.509	19.16
408.872	19.28
409.235	19.3
409.598	19.22
409.961	19.53
410.323	19.66
410.686	19.55
411.049	19.81
411.411	19.8
411.774	19.7
412.136	19.9
412.499	19.8
412.861	19.73
413.223	19.81
413.586	20
413.948	19.98
414.31	20.02
414.672	20.25
415.035	20.16
415.397	20.43
415.759	20.33
416.121	19.99
416.483	20.18
416.845	20.37
417.206	20.3
417.568	20.58
417.93	20.79
418.292	20.76
418.653	20.32
419.015	20.42
419.377	20.44
419.738	20.82
420.1	20.59
420.461	20.73
420.822	20.62
421.184	20.62
421.545	20.73
421.906	20.69
422.267	20.65
422.629	20.73
422.99	20.76
423.351	20.73
423.712	20.77
424.073	20.95
424.434	20.97
424.795	21.01
425.155	21.08
425.516	21.1
425.877	21.11
426.238	21.12
426.598	21.17
426.959	21.22
427.32	21.52
427.68	21.47
428.041	21.5
428.401	21.77
428.761	22
429.122	22.1
429.482	22.09
429.842	22.14
430.202	22.15
430.563	22.24
430.923	22.47
431.283	22.71
431.643	22.52
432.003	22.54
432.363	22.74
432.722	22.75
433.082	22.7
433.442	22.7
433.802	22.96
434.161	22.8
434.521	22.9
434.881	23.01
435.24	22.93
435.6	22.89
435.959	22.94
436.319	22.99
436.678	23.15
437.037	23.23
437.396	23.37
437.756	23.32
438.115	23.41
438.474	23.46
438.833	23.68
439.192	23.71
439.551	23.62
439.91	23.88
440.269	23.77
440.628	23.7
440.987	23.86
441.345	23.9
441.704	23.82
442.063	23.75
442.421	23.78
442.78	23.83
443.138	23.88
443.497	24.04
443.855	24.11
444.214	23.9
444.572	24.11
444.93	24.27
445.288	24.49
445.647	24.55
446.005	24.53
446.363	24.48
446.721	24.77
447.079	24.37
447.437	24.75
447.795	24.74
448.153	24.42
448.51	24.52
448.868	24.44
449.226	24.59
449.584	24.7
449.941	24.79
450.299	24.98
450.656	25
451.014	25.15
451.371	25.18
451.729	25.18
452.086	25.37
452.443	25.37
452.801	25.6
453.158	25.68
453.515	25.79
453.872	25.65
454.229	26.02
454.586	25.9
454.943	25.74
455.3	25.86
455.657	25.97
456.014	26.19
456.371	26.25
456.727	26.3
457.084	26.23
457.441	26.34
457.797	26.4
458.154	26.49
458.51	26.47
458.867	26.78
459.223	26.74
459.58	26.74
459.936	26.77
460.292	26.9
460.648	26.99
461.005	26.66
461.361	26.93
461.717	26.59
462.073	26.45
462.429	26.39
462.785	26.48
463.141	26.87
463.496	27.08
463.852	27.25
464.208	27.23
464.564	27.56
464.919	27.29
465.275	27.95
465.631	27.77
465.986	27.66
466.342	27.78
466.697	27.91
467.052	27.83
467.408	27.96
467.763	28.06
468.118	28.15
468.473	28.09
468.829	28.28
469.184	28.22
469.539	28.13
469.894	28.19
470.249	28.29
470.603	28.35
470.958	28.71
471.313	28.59
471.668	28.89
472.023	28.5
472.377	29
472.732	28.78
473.086	28.88
473.441	28.68
473.795	29.23
474.15	28.94
474.504	29.11
474.859	29.13
475.213	29.15
475.567	29.19
475.921	29.18
476.275	29.44
476.63	29.48
476.984	29.33
477.338	29.4
477.692	29.44
478.045	29.74
478.399	29.55
478.753	29.52
479.107	29.32
479.461	29.47
479.814	29.68
480.168	29.82
480.521	29.69
480.875	29.9
481.228	29.93
481.582	29.94
481.935	29.83
482.289	29.89
482.642	30.01
482.995	30.11
483.348	30.17
483.701	29.97
484.055	29.97
484.408	29.99
484.761	29.92
485.114	29.63
485.466	29.51
485.819	29.1
486.172	29.08
486.525	29.15
486.878	29.39
487.23	29.57
487.583	29.54
487.936	29.91
488.288	30.19
488.641	30.31
488.993	29.98
489.345	29.94
489.698	29.9
490.05	29.94
490.402	29.96
490.754	30.01
491.107	30.24
491.459	30.48
491.811	30.65
492.163	30.87
492.515	30.95
492.866	31.18
493.218	30.84
493.57	30.87
493.922	30.5
494.274	30.68
494.625	30.76
494.977	30.99
495.328	31.39
495.68	31.5
496.031	31.8
496.383	31.89
496.734	32.34
497.086	32.17
497.437	32.35
497.788	32.36
498.139	32.59
498.49	32.26
498.842	32.07
499.193	32.17
499.544	32.23
499.894	32.4
500.245	32.49
500.596	32.51
500.947	32.71
501.298	32.75
501.648	32.8
501.999	32.98
502.35	32.75
502.7	33.17
503.051	33.26
503.401	33.45
503.752	33.41
504.102	33.42
504.452	33.56
504.803	33.51
505.153	33.62
505.503	33.68
505.853	33.91
506.203	33.79
506.553	33.73
506.903	33.53
507.253	33.74
507.603	33.73
507.953	34
508.303	34.06
508.652	34.17
509.002	34.16
509.352	34.13
509.701	34.35
510.051	34.27
510.4	34.32
510.75	34.34
511.099	34.23
511.449	34.36
511.798	34.36
512.147	34.41
512.496	34.52
512.846	34.24
513.195	34.52
513.544	34.53
513.893	34.77
514.242	34.78
514.591	34.66
514.939	34.64
515.288	34.67
515.637	34.91
515.986	34.85
516.334	35.13
516.683	35.17
517.032	35.38
517.38	35.34
517.729	35.35
518.077	35.5
518.426	35.57
518.774	35.62
519.122	35.42
519.47	35.34
519.819	35.57
520.167	35.52
520.515	35.28
520.863	35.13
521.211	35.29
521.559	35.56
521.907	35.41
522.255	35.53
522.602	35.76
522.95	35.72
523.298	35.94
523.645	36.07
523.993	36.13
524.341	36.47
524.688	36.4
525.036	36.52
525.383	36.46
525.73	36.4
526.078	36.34
526.425	36.59
526.772	36.59
527.119	36.53
527.466	36.2
527.814	35.97
528.161	36.08
528.508	36.17
528.854	36.26
529.201	36.35
529.548	36.56
529.895	36.38
530.242	36.2
530.588	35.76
530.935	35.79
531.282	35.91
531.628	36.09
531.975	36.15
532.321	36.28
532.667	36.56
533.014	36.88
533.36	36.97
533.706	37.15
534.052	37.39
534.399	37.15
534.745	37.04
535.091	37.08
535.437	36.91
535.783	36.67
536.129	36.93
536.474	37.24
536.82	37.43
537.166	37.57
537.512	37.78
537.857	37.84
538.203	38.16
538.549	37.82
538.894	37.73
539.239	37.81
539.585	37.89
539.93	38.2
540.276	38.27
540.621	38.47
540.966	38.62
541.311	38.69
541.656	38.79
542.001	38.73
542.346	38.67
542.691	38.73
543.036	38.26
543.381	38.21
543.726	37.9
544.071	37.94
544.415	38.25
544.76	38.28
545.105	38.39
545.449	38.65
545.794	38.68
546.138	38.82
546.483	38.92
546.827	39.23
547.171	39.36
547.516	39.44
547.86	39.4
548.204	39.74
548.548	39.69
548.892	39.68
549.236	39.84
549.58	39.72
549.924	39.98
550.268	40.14
550.612	40.09
550.956	40.33
551.3	40.37
551.643	40.62
551.987	40.57
552.33	40.87
552.674	40.64
553.017	40.92
553.361	40.88
553.704	41.11
554.048	41.26
554.391	41.05
554.734	41.11
555.077	40.97
555.42	40.94
555.764	41.05
556.107	41.09
556.45	41.3
556.793	41.28
557.135	41.41
557.478	41.58
557.821	41.5
558.164	41.66
558.507	41.84
558.849	41.74
559.192	42
559.534	42.01
559.877	42.17
560.219	41.9
560.562	42.03
560.904	42.25
561.246	42.82
561.589	42.4
561.931	42.58
562.273	42.48
562.615	42.46
562.957	42.63
563.299	42.56
563.641	42.57
563.983	42.43
564.325	42.68
564.667	42.54
565.008	42.91
565.35	43.01
565.692	42.89
566.033	42.99
566.375	43.19
566.716	42.99
567.058	43.21
567.399	43.04
567.741	43.33
568.082	42.92
568.423	43.22
568.764	43.08
569.105	43
569.447	43.05
569.788	43.15
570.129	43.43
570.47	43.28
570.811	43.76
571.151	43.63
571.492	43.53
571.833	43.44
572.174	43.67
572.514	43.62
572.855	43.91
573.195	43.95
573.536	43.87
573.876	44.03
574.217	43.78
574.557	43.82
574.898	43.85
575.238	43.7
575.578	44.04
575.918	44.19
576.258	44.1
576.598	44.33
576.938	44
577.278	44.52
577.618	44.3
577.958	44.49
578.298	44.56
578.638	44.44
578.977	44.66
579.317	45.02
579.657	45
579.996	44.94
580.336	45.07
580.675	45.44
581.014	45.25
581.354	45.1
581.693	45.91
582.032	45.41
582.372	45.77
582.711	45.7
583.05	45.72
583.389	46.1
583.728	46.09
584.067	46.29
584.406	46.15
584.745	46.22
585.083	46.14
585.422	46.37
585.761	46.17
586.1	45.98
586.438	46.44
586.777	46.17
587.115	46.42
587.454	46.23
587.792	46.84
588.13	46.34
588.469	46.38
588.807	46.56
589.145	46.73
589.483	46.95
589.821	46.82
590.159	46.79
590.497	47.14
590.835	46.98
591.173	46.85
591.511	46.9
591.849	46.97
592.187	47.24
592.524	47.07
592.862	47.12
593.2	47.14
593.537	47.19
593.875	47.55
594.212	47.04
594.55	47.56
594.887	47.6
595.224	47.62
595.561	47.82
595.899	47.62
596.236	48.05
596.573	47.67
596.91	47.59
597.247	47.43
597.584	47.92
597.921	47.6
598.258	47.81
598.594	47.9
598.931	47.54
599.268	47.75
599.604	47.63
599.941	47.58
600.277	47.67
600.614	47.9
600.95	48.31
601.287	48.27
601.623	48.43
601.959	48.85
602.296	48.49
602.632	48.96
602.968	48.7
603.304	48.85
603.64	48.21
603.976	48.85
604.312	48.86
604.648	48.69
604.984	48.91
605.319	48.93
605.655	48.93
605.991	48.65
606.326	49.05
606.662	48.77
606.998	48.94
607.333	48.67
607.668	48.83
608.004	48.93
608.339	49.06
608.674	49.3
609.01	49.21
609.345	49.82
609.68	49.98
610.015	49.46
610.35	49.56
610.685	50.08
611.02	49.78
611.355	49.94
611.689	49.78
612.024	49.55
612.359	49.47
612.694	49.82
613.028	49.56
613.363	49.72
613.697	50.06
614.032	50.58
614.366	50.04
614.7	50.28
615.035	50.33
615.369	50.41
615.703	50.51
616.037	50.85
616.371	51.13
616.705	50.89
617.039	50.82
617.373	50.5
617.707	50.86
618.041	51.13
618.375	50.7
618.709	51.25
619.042	51.49
619.376	51.46
619.71	51.33
620.043	51.14
620.377	51.53
620.71	51.24
621.043	51.2
621.377	51.14
621.71	51.71
622.043	51.39
622.376	51.41
622.709	51.36
623.043	51.31
623.376	51.23
623.709	51.76
624.041	51.95
624.374	52.57
624.707	51.82
625.04	51.88
625.373	51.99
625.705	51.74
626.038	51.94
626.37	52.44
626.703	52.46
627.035	52.49
627.368	52.08
627.7	52.42
628.032	52.46
628.365	52.26
628.697	52.14
629.029	51.97
629.361	51.95
629.693	52.07
630.025	52.38
630.357	52.79
630.689	52.53
631.021	52.39
631.353	52.42
631.684	52.09
632.016	52.96
632.348	53.12
632.679	52.99
633.011	53.1
633.342	53.02
633.674	53.29
634.005	53.03
634.336	52.79
634.668	53.59
634.999	53
635.33	53.43
635.661	53.54
635.992	53.76
636.323	53.26
636.654	52.86
636.985	53.17
637.316	53.81
637.647	53.43
637.977	53.25
638.308	53.56
638.639	53.6
638.969	54.03
639.3	53.8
639.63	54.1
639.961	53.79
640.291	53.76
640.622	53.72
640.952	54.08
641.282	54.17
641.612	54.23
641.943	54.2
642.273	54.34
642.603	54.6
642.933	54.41
643.263	53.84
643.592	54.63
643.922	54.43
644.252	54.28
644.582	54.17
644.911	54.64
645.241	54.56
645.571	54.96
645.9	54.4
646.23	54.43
646.559	54.86
646.888	55.24
647.218	55.38
647.547	54.82
647.876	55.13
648.205	55.24
648.534	55.31
648.863	54.88
649.192	55.31
649.521	55.08
649.85	55.73
650.179	55.15
650.508	55.47
650.837	54.75
651.165	55.37
651.494	55.69
651.822	55.47
652.151	55.44
652.479	55.36
652.808	55.68
653.136	56.46
653.465	55.52
653.793	55.43
654.121	55.88
654.449	55.41
654.777	55.52
655.105	55.48
655.433	55.61
655.761	56.15
656.089	55.77
656.417	55.45
656.745	56
657.073	55.84
657.4	57.21
657.728	56
658.056	56.38
658.383	55.38
658.711	56.1
659.038	56.06
659.365	56.04
659.693	55.65
660.02	55.97
660.347	56.35
660.674	56.56
661.001	56.29
661.329	56.62
661.656	55.93
661.982	56.23
662.309	56.56
662.636	56.63
662.963	56.47
663.29	57.56
663.616	56.96
663.943	57.14
664.27	56.55
664.596	56.58
664.923	56.42
665.249	56.61
665.576	56.6
665.902	57.33
666.228	56.92
666.554	57.03
666.881	57.66
667.207	56.9
667.533	57.64
667.859	57.23
668.185	57.33
668.511	57.62
668.837	57.36
669.162	57.7
669.488	57.45
669.814	57.34
670.139	57.09
670.465	57.3
670.791	57.43
671.116	57.49
