Data from 0219_forehead_Reflection__2__248.txt Node

Date: Fri Sep 22 22:46:27 CDT 2023
User: ToomeyLab
Spectrometer: FLMS14357
Trigger mode: 0
Integration Time (sec): 1.000000E-2
Scans to average: 100
Electric dark correction enabled: true
Nonlinearity correction enabled: false
Boxcar width: 0
XAxis mode: Wavelengths
Number of Pixels in Spectrum: 2048
>>>>>Begin Spectral Data<<<<<
189.047	449.18
189.435	449.18
189.823	449.18
190.211	-207.51
190.599	-2.35
190.987	221.63
191.375	202.63
191.763	47.19
192.151	75.07
192.538	57.13
192.926	39.17
193.314	291.46
193.702	40.93
194.089	175.41
194.477	-62.76
194.864	1141.69
195.252	196.7
195.639	60.72
196.027	75.75
196.414	-128.03
196.801	-123.81
197.189	35.44
197.576	35.49
197.963	-35.06
198.351	32.26
198.738	-2.17
199.125	77.47
199.512	13.16
199.899	54.34
200.286	46.11
200.673	31.33
201.06	51.42
201.447	61.65
201.833	31.13
202.22	61.68
202.607	31.43
202.994	60.59
203.38	60.3
203.767	31.25
204.154	48.66
204.54	46.94
204.927	-11.02
205.313	98.31
205.699	18.49
206.086	61.94
206.472	77.98
206.858	28.05
207.245	-14.68
207.631	44.24
208.017	26.11
208.403	9.69
208.789	28.47
209.175	63.8
209.561	31.62
209.947	39.91
210.333	23.28
210.719	4.31
211.105	37.3
211.491	57.02
211.876	45.61
212.262	6.53
212.648	21.24
213.034	38.53
213.419	26.49
213.805	21.21
214.19	22.32
214.576	41.15
214.961	36.79
215.346	21.35
215.732	5.21
216.117	44.92
216.502	34.95
216.888	32.63
217.273	23.76
217.658	14.28
218.043	35.3
218.428	35.58
218.813	-11.9
219.198	28.75
219.583	16.13
219.968	10.44
220.353	46.34
220.738	4.53
221.122	20.64
221.507	9.99
221.892	10.71
222.276	1.36
222.661	-37.82
223.046	35.17
223.43	25.5
223.815	6.38
224.199	3.63
224.583	15.37
224.968	12.33
225.352	4.63
225.736	21.6
226.121	24.97
226.505	6.07
226.889	8.55
227.273	7.46
227.657	13.27
228.041	6.04
228.425	12.93
228.809	6.78
229.193	4.6
229.577	8.83
229.961	7.31
230.344	7.11
230.728	4.19
231.112	5.2
231.495	4.82
231.879	5.4
232.263	4.73
232.646	4.51
233.03	4.32
233.413	5.58
233.797	5.03
234.18	5.08
234.563	8.65
234.946	7.59
235.33	4.12
235.713	2.63
236.096	3.51
236.479	3.24
236.862	5.74
237.245	5.26
237.628	5.45
238.011	6.59
238.394	7.7
238.777	6.56
239.16	7.05
239.543	6.96
239.925	6.11
240.308	3.06
240.691	7.1
241.073	5.21
241.456	5.68
241.838	4.2
242.221	4.87
242.603	4.82
242.986	4.36
243.368	3.84
243.75	4.86
244.133	5.16
244.515	4.98
244.897	4.47
245.279	4.41
245.661	4.75
246.043	4.54
246.425	4.94
246.807	5.58
247.189	4.02
247.571	5.84
247.953	5.42
248.335	5.03
248.717	4.8
249.098	5.05
249.48	4.46
249.862	4.67
250.243	5.06
250.625	4.78
251.006	4.89
251.388	4.58
251.769	4.9
252.151	5.22
252.532	5.14
252.913	4.91
253.295	5.98
253.676	4.59
254.057	4.79
254.438	5.04
254.819	4.17
255.2	5.2
255.581	4.28
255.962	5.58
256.343	4.8
256.724	4.83
257.105	6.1
257.486	4.96
257.867	5.29
258.247	6.12
258.628	6.17
259.009	4.5
259.389	4.58
259.77	5.17
260.15	5.17
260.531	4.87
260.911	4.21
261.292	4.49
261.672	4.52
262.052	4.44
262.432	4.32
262.813	4.57
263.193	4.53
263.573	4.58
263.953	4.54
264.333	4.4
264.713	4.83
265.093	4.4
265.473	4.87
265.853	4.58
266.233	5.28
266.612	4.07
266.992	5.11
267.372	4.73
267.752	5.19
268.131	4.93
268.511	4.81
268.89	5.33
269.27	4.38
269.649	4.52
270.029	4.19
270.408	4.49
270.787	4.66
271.167	4.8
271.546	4.33
271.925	5.14
272.304	4.49
272.683	5.11
273.062	5.43
273.441	4.78
273.82	4.86
274.199	4.82
274.578	4.6
274.957	4.1
275.336	4.09
275.715	4.82
276.093	4.4
276.472	5.13
276.851	4.11
277.229	3.72
277.608	5.4
277.986	4.63
278.365	4.09
278.743	4.77
279.122	4.6
279.5	4.57
279.878	4.85
280.257	5.07
280.635	4.26
281.013	4.95
281.391	5.19
281.769	4.98
282.147	4.58
282.525	4.69
282.903	4.96
283.281	4.6
283.659	4.12
284.037	4.06
284.415	4.89
284.792	4.62
285.17	4.46
285.548	5.02
285.925	4.77
286.303	4.45
286.68	4.21
287.058	4.13
287.435	4.74
287.813	4.44
288.19	4.26
288.567	4.35
288.945	4.65
289.322	5.06
289.699	4.61
290.076	4.38
290.453	4.53
290.83	4.1
291.207	4.64
291.584	4.29
291.961	3.97
292.338	4.36
292.715	4.75
293.092	4.47
293.469	4.53
293.845	4.53
294.222	4.85
294.599	5.03
294.975	4.81
295.352	5.06
295.728	5.24
296.105	5.1
296.481	4.81
296.858	5.17
297.234	5.12
297.61	4.73
297.986	5.22
298.363	4.89
298.739	4.72
299.115	5.48
299.491	5.13
299.867	5.16
300.243	4.92
300.619	5.45
300.995	5.14
301.371	5.56
301.746	5.41
302.122	5.36
302.498	5.12
302.874	5.22
303.249	5.13
303.625	5.47
304	5.87
304.376	6.02
304.751	5.75
305.127	5.61
305.502	5.66
305.878	5.64
306.253	5.78
306.628	5.52
307.003	5.99
307.378	5.41
307.754	5.53
308.129	5.32
308.504	5.79
308.879	5.89
309.254	6.28
309.629	5.78
310.003	5.79
310.378	6.44
310.753	5.59
311.128	5.68
311.502	5.95
311.877	5.29
312.252	5.78
312.626	5.93
313.001	5.9
313.375	6.08
313.75	6.12
314.124	6.12
314.498	5.95
314.873	5.82
315.247	6.15
315.621	6.17
315.995	6.4
316.369	6.29
316.743	6.14
317.117	6.37
317.491	6.48
317.865	6.13
318.239	6.84
318.613	6.68
318.987	6.42
319.361	6.65
319.734	6
320.108	6.62
320.482	6.27
320.855	6.61
321.229	7.41
321.602	6.77
321.976	6.85
322.349	6.57
322.723	6.68
323.096	6.61
323.469	6.97
323.843	6.56
324.216	7.02
324.589	6.9
324.962	6.43
325.335	6.85
325.708	6.7
326.081	7.1
326.454	6.4
326.827	6.84
327.2	6.88
327.573	7.09
327.945	6.92
328.318	6.93
328.691	7.4
329.063	6.95
329.436	6.76
329.809	6.94
330.181	6.55
330.553	7.01
330.926	7.16
331.298	7.19
331.671	7.44
332.043	7.13
332.415	7.05
332.787	7.72
333.159	6.84
333.532	6.7
333.904	7.57
334.276	7.4
334.648	6.73
335.02	7.33
335.391	7.48
335.763	7.67
336.135	7.48
336.507	7.93
336.879	6.98
337.25	7.3
337.622	7.71
337.993	7.61
338.365	7.82
338.736	7.67
339.108	8.24
339.479	7.65
339.851	7.32
340.222	7.18
340.593	7.31
340.964	7.49
341.336	7.35
341.707	7.68
342.078	8.08
342.449	8.16
342.82	7.62
343.191	7.28
343.562	7.59
343.933	7.74
344.303	7.8
344.674	7.79
345.045	7.72
345.416	8.11
345.786	7.81
346.157	7.95
346.527	8.09
346.898	7.91
347.268	7.82
347.639	7.85
348.009	8.09
348.38	7.89
348.75	8.01
349.12	7.76
349.49	8.14
349.861	7.72
350.231	8.06
350.601	8.34
350.971	8.53
351.341	8.31
351.711	8.34
352.081	8.55
352.45	8.21
352.82	8.43
353.19	8.05
353.56	8.25
353.929	8.66
354.299	9.04
354.669	8
355.038	8.14
355.408	8.34
355.777	8.82
356.147	8.85
356.516	8.72
356.885	8.84
357.254	9.25
357.624	8.31
357.993	8.77
358.362	8.71
358.731	8.64
359.1	8.38
359.469	8.86
359.838	8.39
360.207	8.67
360.576	8.72
360.945	8.69
361.314	8.98
361.682	9.18
362.051	9.29
362.42	9.26
362.788	8.7
363.157	9.13
363.525	8.77
363.894	8.84
364.262	8.81
364.631	8.73
364.999	8.95
365.367	9.15
365.735	9.29
366.104	9.1
366.472	9.39
366.84	9.02
367.208	9.63
367.576	9.57
367.944	9.01
368.312	9.25
368.68	9.13
369.048	9.68
369.416	9.58
369.783	9.21
370.151	9.46
370.519	9.67
370.886	9.61
371.254	9.73
371.621	9.14
371.989	9.62
372.356	9.42
372.724	9.9
373.091	9.79
373.458	9.67
373.826	9.61
374.193	9.65
374.56	10.07
374.927	9.86
375.294	9.86
375.661	9.75
376.028	10.1
376.395	10.07
376.762	10.03
377.129	10.35
377.496	10.21
377.863	10
378.229	9.89
378.596	9.89
378.963	10.6
379.329	10.1
379.696	10.14
380.062	9.72
380.429	10.5
380.795	10.03
381.161	10.21
381.528	10.15
381.894	9.77
382.26	10.3
382.626	10.25
382.993	10.21
383.359	9.86
383.725	10.48
384.091	10.69
384.457	10.18
384.823	10.42
385.188	10.96
385.554	10.61
385.92	10.97
386.286	10.41
386.651	10.39
387.017	10.63
387.383	10.5
387.748	10.61
388.114	10.65
388.479	10.6
388.845	10.58
389.21	10.25
389.575	10.76
389.94	10.55
390.306	10.68
390.671	11.05
391.036	10.3
391.401	10.89
391.766	10.77
392.131	10.79
392.496	11.02
392.861	11.18
393.226	10.94
393.591	10.96
393.956	11.02
394.32	10.99
394.685	10.81
395.05	11.2
395.414	11.05
395.779	10.85
396.143	11.05
396.508	10.91
396.872	10.9
397.236	11.1
397.601	11.12
397.965	11.32
398.329	11.24
398.694	11.09
399.058	11.41
399.422	11.15
399.786	11.1
400.15	11.29
400.514	11.38
400.878	11.04
401.242	11.35
401.605	11.33
401.969	11.04
402.333	11.44
402.697	11.17
403.06	11.32
403.424	11.24
403.787	11.41
404.151	11.11
404.514	11.38
404.878	11.38
405.241	11.62
405.604	11.61
405.968	11.44
406.331	11.54
406.694	11.43
407.057	11.24
407.42	11.58
407.783	11.39
408.146	11.48
408.509	11.11
408.872	11.42
409.235	11.63
409.598	11.6
409.961	11.54
410.323	11.55
410.686	11.6
411.049	11.92
411.411	11.81
411.774	11.53
412.136	11.47
412.499	11.69
412.861	11.7
413.223	11.54
413.586	11.73
413.948	11.73
414.31	11.91
414.672	11.82
415.035	11.97
415.397	11.97
415.759	12.2
416.121	11.55
416.483	11.76
416.845	11.76
417.206	11.8
417.568	11.84
417.93	11.86
418.292	11.71
418.653	11.84
419.015	11.94
419.377	11.84
419.738	12.18
420.1	11.88
420.461	11.93
420.822	11.9
421.184	11.91
421.545	11.92
421.906	11.9
422.267	11.95
422.629	12.11
422.99	12.05
423.351	12.07
423.712	12
424.073	11.93
424.434	12.29
424.795	12.23
425.155	12.31
425.516	12.44
425.877	12.29
426.238	12.31
426.598	12.44
426.959	12.45
427.32	12.54
427.68	12.56
428.041	12.48
428.401	12.81
428.761	12.95
429.122	12.94
429.482	12.81
429.842	12.97
430.202	13.16
430.563	13.25
430.923	13.37
431.283	13.29
431.643	13.61
432.003	13.46
432.363	13.45
432.722	13.58
433.082	13.61
433.442	13.55
433.802	13.81
434.161	13.62
434.521	13.6
434.881	13.9
435.24	13.77
435.6	13.86
435.959	13.65
436.319	13.81
436.678	13.93
437.037	13.86
437.396	14.04
437.756	14.12
438.115	14.05
438.474	14.2
438.833	14.42
439.192	14.35
439.551	14.43
439.91	14.56
440.269	14.56
440.628	14.21
440.987	14.57
441.345	14.71
441.704	14.56
442.063	14.77
442.421	14.61
442.78	14.6
443.138	14.71
443.497	14.63
443.855	14.82
444.214	14.8
444.572	15.13
444.93	15.07
445.288	15.11
445.647	15.15
446.005	14.97
446.363	15.09
446.721	15.29
447.079	15.12
447.437	15.32
447.795	15.5
448.153	15.25
448.51	15.36
448.868	15.33
449.226	15.33
449.584	15.39
449.941	15.31
450.299	15.62
450.656	15.65
451.014	15.79
451.371	15.77
451.729	15.87
452.086	15.8
452.443	16.04
452.801	16.11
453.158	16.17
453.515	16.32
453.872	16.27
454.229	16.15
454.586	16.29
454.943	16.43
455.3	16.44
455.657	16.42
456.014	16.43
456.371	16.61
456.727	16.75
457.084	16.59
457.441	16.79
457.797	16.84
458.154	16.87
458.51	16.64
458.867	16.88
459.223	17.04
459.58	17.12
459.936	17.24
460.292	17.18
460.648	17.22
461.005	17.2
461.361	17.2
461.717	17.04
462.073	17.04
462.429	16.91
462.785	17.07
463.141	17.18
463.496	17.45
463.852	17.63
464.208	17.64
464.564	17.78
464.919	17.68
465.275	17.99
465.631	18.14
465.986	18.01
466.342	18.25
466.697	18.18
467.052	18.1
467.408	18.05
467.763	18.27
468.118	18.37
468.473	18.42
468.829	18.36
469.184	18.36
469.539	18.34
469.894	18.46
470.249	18.73
470.603	18.55
470.958	18.63
471.313	19.14
471.668	18.8
472.023	18.82
472.377	18.97
472.732	18.95
473.086	19.11
473.441	18.89
473.795	19.18
474.15	19.07
474.504	19.1
474.859	19.34
475.213	19.06
475.567	19.11
475.921	19.25
476.275	19.36
476.63	19.53
476.984	19.38
477.338	19.64
477.692	19.61
478.045	19.6
478.399	19.89
478.753	19.7
479.107	19.65
479.461	19.76
479.814	20
480.168	19.88
480.521	19.91
480.875	20.02
481.228	19.94
481.582	19.79
481.935	20.17
482.289	20.09
482.642	20.16
482.995	20.19
483.348	20.37
483.701	20.12
484.055	20.28
484.408	20.12
484.761	20.07
485.114	19.89
485.466	19.78
485.819	19.45
486.172	19.45
486.525	19.49
486.878	19.53
487.23	19.72
487.583	19.87
487.936	20.1
488.288	20.17
488.641	20.34
488.993	20.29
489.345	20.12
489.698	20.08
490.05	20
490.402	20.18
490.754	20.31
491.107	20.4
491.459	20.51
491.811	20.79
492.163	20.82
492.515	21.02
492.866	21.15
493.218	20.87
493.57	20.97
493.922	20.73
494.274	20.73
494.625	20.85
494.977	21.11
495.328	21.3
495.68	21.57
496.031	21.46
496.383	21.82
496.734	21.99
497.086	21.91
497.437	22.16
497.788	22.14
498.139	22.33
498.49	22.23
498.842	22
499.193	22.03
499.544	22.17
499.894	22.18
500.245	22.28
500.596	22.24
500.947	22.51
501.298	22.48
501.648	22.57
501.999	22.72
502.35	22.77
502.7	22.83
503.051	22.76
503.401	22.96
503.752	23.1
504.102	23.07
504.452	23.14
504.803	23.07
505.153	23.19
505.503	23.24
505.853	23.27
506.203	23.21
506.553	23.37
506.903	23.32
507.253	23.35
507.603	23.41
507.953	23.62
508.303	23.52
508.652	23.71
509.002	23.68
509.352	23.66
509.701	23.57
510.051	23.66
510.4	23.71
510.75	23.7
511.099	23.51
511.449	23.59
511.798	23.82
512.147	23.78
512.496	23.66
512.846	23.68
513.195	23.9
513.544	23.98
513.893	24.04
514.242	24.02
514.591	23.91
514.939	23.88
515.288	24
515.637	24.07
515.986	24.03
516.334	24.39
516.683	24.19
517.032	24.48
517.38	24.26
517.729	24.49
518.077	24.39
518.426	24.67
518.774	24.7
519.122	24.42
519.47	24.39
519.819	24.58
520.167	24.53
520.515	24.34
520.863	24.28
521.211	24.39
521.559	24.34
521.907	24.46
522.255	24.48
522.602	24.63
522.95	24.56
523.298	24.79
523.645	24.97
523.993	25.04
524.341	24.99
524.688	25.11
525.036	25.14
525.383	25.13
525.73	25.09
526.078	25.04
526.425	25.35
526.772	25.32
527.119	25.18
527.466	24.99
527.814	24.78
528.161	24.8
528.508	24.89
528.854	25.04
529.201	24.98
529.548	24.96
529.895	24.97
530.242	24.67
530.588	24.55
530.935	24.41
531.282	24.46
531.628	24.64
531.975	24.75
532.321	24.8
532.667	24.96
533.014	25.08
533.36	25.26
533.706	25.5
534.052	25.58
534.399	25.49
534.745	25.63
535.091	25.36
535.437	25.32
535.783	25.11
536.129	25.19
536.474	25.31
536.82	25.5
537.166	25.73
537.512	25.94
537.857	25.95
538.203	26.09
538.549	25.96
538.894	25.94
539.239	25.98
539.585	25.98
539.93	26.1
540.276	26.27
540.621	26.43
540.966	26.54
541.311	26.65
541.656	26.64
542.001	26.79
542.346	26.54
542.691	26.52
543.036	26.25
543.381	26.16
543.726	25.95
544.071	25.96
544.415	26.12
544.76	26.21
545.105	26.19
545.449	26.44
545.794	26.58
546.138	26.67
546.483	26.82
546.827	26.91
547.171	27.08
547.516	27.26
547.86	27.17
548.204	27.45
548.548	27.21
548.892	27.37
549.236	27.34
549.58	27.35
549.924	27.6
550.268	27.68
550.612	27.58
550.956	27.75
551.3	27.87
551.643	28.1
551.987	27.96
552.33	28.21
552.674	28.28
553.017	28.3
553.361	28.47
553.704	28.63
554.048	28.53
554.391	28.58
554.734	28.59
555.077	28.35
555.42	28.34
555.764	28.37
556.107	28.69
556.45	28.61
556.793	28.53
557.135	28.78
557.478	28.64
557.821	28.89
558.164	29.01
558.507	29.16
558.849	28.91
559.192	29.13
559.534	29.19
559.877	29.35
560.219	29.15
560.562	29.27
560.904	29.55
561.246	29.52
561.589	29.53
561.931	29.58
562.273	29.49
562.615	29.52
562.957	29.47
563.299	29.74
563.641	29.64
563.983	29.59
564.325	29.64
564.667	29.83
565.008	29.57
565.35	29.91
565.692	29.84
566.033	29.86
566.375	29.72
566.716	29.87
567.058	29.84
567.399	30.02
567.741	29.98
568.082	29.86
568.423	30.03
568.764	30.01
569.105	29.96
569.447	29.95
569.788	29.84
570.129	30.15
570.47	30.37
570.811	30.23
571.151	30.38
571.492	30.46
571.833	30.38
572.174	30.59
572.514	30.59
572.855	30.56
573.195	30.46
573.536	30.73
573.876	30.38
574.217	30.36
574.557	30.45
574.898	30.79
575.238	30.52
575.578	30.71
575.918	30.72
576.258	30.56
576.598	30.89
576.938	31
577.278	31.16
577.618	30.85
577.958	30.95
578.298	31.14
578.638	31.09
578.977	31.12
579.317	31.21
579.657	31.51
579.996	31.53
580.336	31.52
580.675	31.74
581.014	31.65
581.354	31.97
581.693	32.08
582.032	31.95
582.372	32.1
582.711	32.1
583.05	32.17
583.389	32.01
583.728	32.13
584.067	32.34
584.406	32.3
584.745	32.16
585.083	32.39
585.422	32.66
585.761	32.71
586.1	32.27
586.438	32.6
586.777	32.73
587.115	32.65
587.454	32.55
587.792	33.05
588.13	32.62
588.469	32.73
588.807	32.81
589.145	32.64
589.483	32.95
589.821	33.15
590.159	32.93
590.497	33.38
590.835	33.19
591.173	33.14
591.511	33
591.849	33.17
592.187	33.05
592.524	33.45
592.862	33.18
593.2	33.23
593.537	33.21
593.875	33.33
594.212	33.51
594.55	33.58
594.887	33.43
595.224	33.77
595.561	33.81
595.899	33.9
596.236	34.16
596.573	33.53
596.91	33.79
597.247	33.88
597.584	33.85
597.921	33.81
598.258	33.83
598.594	34.04
598.931	33.74
599.268	33.86
599.604	34.07
599.941	33.92
600.277	33.77
600.614	34.07
600.95	34
601.287	33.99
601.623	34.35
601.959	34.56
602.296	34.6
602.632	34.38
602.968	34.92
603.304	34.87
603.64	34.54
603.976	34.73
604.312	34.82
604.648	34.75
604.984	35.16
605.319	34.72
605.655	34.79
605.991	34.72
606.326	34.75
606.662	34.8
606.998	34.88
607.333	34.55
607.668	34.67
608.004	35.03
608.339	35.19
608.674	35.02
609.01	35.39
609.345	35.42
609.68	35.64
610.015	35.22
610.35	35.42
610.685	35.82
611.02	35.6
611.355	36.01
611.689	35.58
612.024	35.53
612.359	35.54
612.694	35.64
613.028	35.7
613.363	35.81
613.697	35.48
614.032	36.01
614.366	36.05
614.7	36.18
615.035	36.29
615.369	36.07
615.703	36.59
616.037	36.59
616.371	36.69
616.705	36.59
617.039	36.22
617.373	36.36
617.707	36.45
618.041	36.63
618.375	36.33
618.709	36.32
619.042	37.04
619.376	36.65
619.71	36.76
620.043	36.37
620.377	37
620.71	37.02
621.043	36.95
621.377	36.62
621.71	37.26
622.043	37.07
622.376	37.15
622.709	37.17
623.043	37.18
623.376	37.14
623.709	37.39
624.041	37.57
624.374	37.97
624.707	37.56
625.04	37.43
625.373	37.41
625.705	37.35
626.038	37.69
626.37	38.13
626.703	38.05
627.035	37.45
627.368	37.88
627.7	37.64
628.032	37.73
628.365	38.15
628.697	37.65
629.029	37.93
629.361	37.98
629.693	38.32
630.025	38.17
630.357	37.89
630.689	38.24
631.021	38.11
631.353	38.23
631.684	38.25
632.016	38.81
632.348	38.55
632.679	38.74
633.011	38.84
633.342	38.96
633.674	39.04
634.005	38.72
634.336	38.87
634.668	38.85
634.999	38.63
635.33	39.11
635.661	38.86
635.992	38.95
636.323	39.28
636.654	38.89
636.985	38.79
637.316	39.02
637.647	39.54
637.977	38.94
638.308	39.29
638.639	39.19
638.969	39.53
639.3	38.85
639.63	39.52
639.961	39.38
640.291	39.41
640.622	40.05
640.952	40.1
641.282	39.82
641.612	39.7
641.943	39.84
642.273	39.86
642.603	39.68
642.933	40.03
643.263	39.46
643.592	40.18
643.922	39.96
644.252	40.21
644.582	40.08
644.911	40.01
645.241	39.97
645.571	40.46
645.9	40.83
646.23	40.46
646.559	40.25
646.888	40.2
647.218	40.45
647.547	40.39
647.876	40.43
648.205	40.23
648.534	41.1
648.863	40.66
649.192	40.68
649.521	40.65
649.85	41.2
650.179	41.28
650.508	41.21
650.837	40.88
651.165	41.01
651.494	41.67
651.822	41.48
652.151	41.06
652.479	41.09
652.808	40.83
653.136	41.76
653.465	41.43
653.793	41.12
654.121	41.59
654.449	41.36
654.777	40.98
655.105	41.76
655.433	41.67
655.761	41.68
656.089	41.46
656.417	41.11
656.745	41.41
657.073	41.92
657.4	41.77
657.728	41.93
658.056	42.25
658.383	41.63
658.711	42.03
659.038	41.56
659.365	42.48
659.693	41.71
660.02	41.79
660.347	42.18
660.674	42.42
661.001	41.72
661.329	41.93
661.656	42.39
661.982	42.04
662.309	42.61
662.636	42.46
662.963	42.44
663.29	42.61
663.616	42.24
663.943	42.64
664.27	42.63
664.596	42.8
664.923	42.56
665.249	42.4
665.576	42.21
665.902	42.68
666.228	42.68
666.554	42.64
666.881	43.33
667.207	43.21
667.533	42.72
667.859	43.29
668.185	43.41
668.511	43.47
668.837	42.7
669.162	42.96
669.488	43.04
669.814	42.94
670.139	43.05
670.465	43.32
670.791	43.44
671.116	43.59
671.442	43.59
671.767	43.12
672.092	44.04
672.418	43.87
