Data from 0219_forehead_Reflection__3__249.txt Node

Date: Fri Sep 22 22:46:35 CDT 2023
User: ToomeyLab
Spectrometer: FLMS14357
Trigger mode: 0
Integration Time (sec): 1.000000E-2
Scans to average: 100
Electric dark correction enabled: true
Nonlinearity correction enabled: false
Boxcar width: 0
XAxis mode: Wavelengths
Number of Pixels in Spectrum: 2048
>>>>>Begin Spectral Data<<<<<
189.047	-281.61
189.435	-281.61
189.823	-281.61
190.211	-1027.2
190.599	-27.72
190.987	94.8
191.375	69.71
191.763	-37.8
192.151	15.96
192.538	317.69
192.926	81.93
193.314	1428.05
193.702	18.8
194.089	89.43
194.477	170.05
194.864	112.02
195.252	173.26
195.639	-9.75
196.027	16.34
196.414	219.82
196.801	170.77
197.189	168.63
197.576	75.1
197.963	3.79
198.351	26.72
198.738	58.19
199.125	3.53
199.512	14.89
199.899	47.07
200.286	55.25
200.673	8.16
201.06	56.09
201.447	53.65
201.833	-51.99
202.22	44.75
202.607	33.13
202.994	60.45
203.38	21.78
203.767	10.99
204.154	53.76
204.54	48.24
204.927	35.07
205.313	98.17
205.699	41.56
206.086	50.05
206.472	40.86
206.858	51.98
207.245	25.84
207.631	41.75
208.017	53.67
208.403	47.33
208.789	34.18
209.175	56.83
209.561	40.9
209.947	43.48
210.333	64.36
210.719	22.58
211.105	55.52
211.491	37.22
211.876	47.66
212.262	37.42
212.648	30.86
213.034	29.66
213.419	48.76
213.805	35.78
214.19	27.21
214.576	35.39
214.961	31.61
215.346	8.17
215.732	31.21
216.117	32.21
216.502	49.21
216.888	60.58
217.273	17.6
217.658	22.05
218.043	15.39
218.428	46.48
218.813	10.15
219.198	-5.85
219.583	25.72
219.968	11.09
220.353	43.33
220.738	43.81
221.122	37.14
221.507	25.99
221.892	20.16
222.276	14.13
222.661	-18.62
223.046	29.36
223.43	22.75
223.815	18.01
224.199	11.35
224.583	23.67
224.968	27.44
225.352	14.88
225.736	18.42
226.121	9.87
226.505	17.88
226.889	5.38
227.273	12.49
227.657	5.22
228.041	4
228.425	10.77
228.809	5.18
229.193	6.52
229.577	9.07
229.961	7.96
230.344	8.04
230.728	5.84
231.112	6.67
231.495	5.22
231.879	5.96
232.263	4.72
232.646	7.3
233.03	6.12
233.413	6.84
233.797	6.99
234.18	6
234.563	9.19
234.946	7.65
235.33	4.68
235.713	5.88
236.096	6.34
236.479	5.71
236.862	7.95
237.245	6.46
237.628	7.32
238.011	8.39
238.394	8.06
238.777	8.11
239.16	6.33
239.543	7.03
239.925	6.84
240.308	5.11
240.691	7.59
241.073	6.7
241.456	4.84
241.838	6.81
242.221	6.71
242.603	6.16
242.986	5.9
243.368	5.5
243.75	6.07
244.133	6.43
244.515	5.35
244.897	5.27
245.279	5.77
245.661	5.48
246.043	5.57
246.425	4.56
246.807	6.73
247.189	3.92
247.571	5.87
247.953	6.69
248.335	5.51
248.717	6.3
249.098	5.48
249.48	5.28
249.862	5.29
250.243	5.32
250.625	5.69
251.006	5.57
251.388	5.88
251.769	6.21
252.151	5.49
252.532	5.84
252.913	7.53
253.295	6.89
253.676	5.58
254.057	6.65
254.438	6
254.819	5.51
255.2	6.12
255.581	6.1
255.962	6.88
256.343	6.6
256.724	6.03
257.105	5.91
257.486	7.14
257.867	6.72
258.247	7.52
258.628	6.03
259.009	6.08
259.389	5.58
259.77	6.72
260.15	6.35
260.531	5.74
260.911	5.68
261.292	5.28
261.672	5.3
262.052	5.34
262.432	5.55
262.813	5.42
263.193	5.34
263.573	6.21
263.953	5.31
264.333	5.56
264.713	5.88
265.093	5.87
265.473	5.84
265.853	5.92
266.233	5.78
266.612	4.99
266.992	6.54
267.372	5.57
267.752	6.3
268.131	5.32
268.511	5.19
268.89	5.94
269.27	5.57
269.649	5.68
270.029	5.38
270.408	5.21
270.787	5.54
271.167	5.56
271.546	5.27
271.925	6.01
272.304	5.85
272.683	6.27
273.062	6.15
273.441	5.33
273.82	5.99
274.199	5.58
274.578	6.35
274.957	5.64
275.336	5.3
275.715	5.5
276.093	5.65
276.472	5.78
276.851	5.6
277.229	4.73
277.608	5.84
277.986	5.51
278.365	5.59
278.743	5.57
279.122	5.63
279.5	5.75
279.878	5.1
280.257	6.01
280.635	6.04
281.013	6.49
281.391	5.38
281.769	5.22
282.147	5.46
282.525	6.14
282.903	5.87
283.281	5.75
283.659	5.55
284.037	5.53
284.415	5.12
284.792	5.73
285.17	5.73
285.548	5.6
285.925	5.69
286.303	5.89
286.68	5.12
287.058	5.5
287.435	5.34
287.813	5.31
288.19	5.19
288.567	5.41
288.945	5.66
289.322	5.57
289.699	5.96
290.076	5.97
290.453	5.43
290.83	5.09
291.207	5.98
291.584	5.5
291.961	5.39
292.338	5.64
292.715	5.9
293.092	5.7
293.469	5.91
293.845	5.53
294.222	5.81
294.599	6
294.975	6.11
295.352	6.55
295.728	5.79
296.105	6.29
296.481	5.84
296.858	5.97
297.234	6.38
297.61	6.04
297.986	6.24
298.363	6.28
298.739	6.04
299.115	6.22
299.491	6.23
299.867	6.04
300.243	6.17
300.619	5.71
300.995	5.79
301.371	6.4
301.746	6.7
302.122	6.24
302.498	6.22
302.874	6.28
303.249	6.39
303.625	6.24
304	6.55
304.376	7.03
304.751	7.38
305.127	7.01
305.502	7.38
305.878	6.68
306.253	6.65
306.628	6.75
307.003	6.71
307.378	6.79
307.754	6.71
308.129	7.09
308.504	6.84
308.879	7.11
309.254	7.66
309.629	6.76
310.003	7.41
310.378	7.6
310.753	7.77
311.128	7.01
311.502	7.44
311.877	6.92
312.252	7.08
312.626	7.17
313.001	7.26
313.375	7.54
313.75	7.7
314.124	7.76
314.498	7.1
314.873	7.26
315.247	7.91
315.621	7.26
315.995	8.06
316.369	7.61
316.743	7.52
317.117	7.59
317.491	8.51
317.865	7.94
318.239	7.99
318.613	8.15
318.987	7.71
319.361	7.91
319.734	7.9
320.108	8.8
320.482	7.92
320.855	7.99
321.229	8.32
321.602	8.57
321.976	7.96
322.349	8.06
322.723	8.26
323.096	8.59
323.469	8
323.843	8.48
324.216	8.38
324.589	8.25
324.962	8.39
325.335	8.41
325.708	8.03
326.081	8.5
326.454	7.9
326.827	8.69
327.2	8.52
327.573	8.91
327.945	8.21
328.318	8.74
328.691	8.56
329.063	8.51
329.436	8.75
329.809	9.02
330.181	8.75
330.553	8.83
330.926	8.87
331.298	8.89
331.671	9.02
332.043	8.82
332.415	9.06
332.787	9.22
333.159	8.23
333.532	8.6
333.904	8.71
334.276	8.62
334.648	8.8
335.02	9.23
335.391	9.17
335.763	9.21
336.135	8.81
336.507	9.29
336.879	8.91
337.25	9.66
337.622	9.45
337.993	9.36
338.365	9.51
338.736	9.46
339.108	9.43
339.479	9.03
339.851	8.68
340.222	9.25
340.593	9.35
340.964	9.21
341.336	9.53
341.707	9.33
342.078	9.76
342.449	9.55
342.82	9.72
343.191	9.1
343.562	9.59
343.933	9.87
344.303	9.32
344.674	9.73
345.045	9.3
345.416	10.23
345.786	9.82
346.157	9.99
346.527	9.45
346.898	9.9
347.268	9.55
347.639	9.79
348.009	10
348.38	10.16
348.75	10.14
349.12	9.85
349.49	10.33
349.861	10.16
350.231	10.14
350.601	10.16
350.971	10.41
351.341	10.34
351.711	10.53
352.081	10.12
352.45	10.32
352.82	10.56
353.19	10.63
353.56	9.92
353.929	10.21
354.299	10.49
354.669	10.09
355.038	10.3
355.408	10.31
355.777	10.49
356.147	10.43
356.516	11.06
356.885	10.37
357.254	10.52
357.624	10.41
357.993	10.53
358.362	10.8
358.731	10.54
359.1	10.54
359.469	10.71
359.838	10.92
360.207	10.64
360.576	10.81
360.945	10.82
361.314	10.91
361.682	11.07
362.051	11.25
362.42	10.87
362.788	10.77
363.157	11.38
363.525	11.17
363.894	10.87
364.262	11
364.631	10.99
364.999	10.86
365.367	11.74
365.735	11.15
366.104	11.41
366.472	11.64
366.84	11.1
367.208	11.53
367.576	11.57
367.944	11.66
368.312	11.81
368.68	11.8
369.048	11.51
369.416	11.89
369.783	11.61
370.151	11.55
370.519	11.93
370.886	11.59
371.254	11.8
371.621	11.7
371.989	12.11
372.356	11.72
372.724	12.05
373.091	12.06
373.458	11.84
373.826	12.03
374.193	12.19
374.56	11.99
374.927	12.12
375.294	12.36
375.661	12.08
376.028	12.52
376.395	12.44
376.762	12.23
377.129	12.67
377.496	12.43
377.863	12.27
378.229	12.32
378.596	12.34
378.963	12.48
379.329	12.45
379.696	12.62
380.062	12.21
380.429	12.61
380.795	12.67
381.161	12.81
381.528	12.65
381.894	12.34
382.26	12.89
382.626	12.86
382.993	13.06
383.359	12.55
383.725	12.78
384.091	12.68
384.457	12.76
384.823	12.68
385.188	13.13
385.554	13.13
385.92	13.36
386.286	13.32
386.651	12.84
387.017	13.13
387.383	12.68
387.748	13
388.114	13.19
388.479	13.13
388.845	13.14
389.21	13.2
389.575	13.11
389.94	12.94
390.306	13.29
390.671	13.55
391.036	12.85
391.401	13.44
391.766	13.29
392.131	13.01
392.496	13.47
392.861	13.36
393.226	13.65
393.591	13.59
393.956	13.53
394.32	13.62
394.685	13.26
395.05	13.55
395.414	13.61
395.779	13.44
396.143	13.69
396.508	13.54
396.872	13.53
397.236	13.59
397.601	13.62
397.965	13.76
398.329	13.82
398.694	13.64
399.058	13.79
399.422	13.9
399.786	13.86
400.15	14.07
400.514	14.08
400.878	13.58
401.242	13.82
401.605	13.76
401.969	13.66
402.333	14.15
402.697	13.87
403.06	13.82
403.424	13.74
403.787	13.67
404.151	13.98
404.514	14.03
404.878	14.23
405.241	14.39
405.604	13.94
405.968	13.8
406.331	14.09
406.694	14.08
407.057	13.82
407.42	14.18
407.783	13.95
408.146	14.14
408.509	13.8
408.872	13.86
409.235	14.11
409.598	13.89
409.961	14.29
410.323	14.27
410.686	14.07
411.049	14.29
411.411	14.28
411.774	14.07
412.136	13.97
412.499	14.14
412.861	14.1
413.223	14.33
413.586	14.04
413.948	14.09
414.31	14.38
414.672	14.34
415.035	14.38
415.397	14.55
415.759	14.52
416.121	14.12
416.483	14.19
416.845	14.22
417.206	14.21
417.568	14.37
417.93	14.35
418.292	14.41
418.653	14.37
419.015	14.49
419.377	14.43
419.738	14.74
420.1	14.41
420.461	14.44
420.822	14.45
421.184	14.45
421.545	14.54
421.906	14.49
422.267	14.52
422.629	14.59
422.99	14.69
423.351	14.66
423.712	14.58
424.073	14.69
424.434	14.85
424.795	14.89
425.155	14.86
425.516	15.03
425.877	14.95
426.238	14.87
426.598	14.92
426.959	14.93
427.32	15.18
427.68	15.23
428.041	15.21
428.401	15.45
428.761	15.58
429.122	15.62
429.482	15.69
429.842	15.7
430.202	15.78
430.563	15.94
430.923	16.12
431.283	16.09
431.643	16.46
432.003	16.32
432.363	16.31
432.722	16.3
433.082	16.57
433.442	16.41
433.802	16.7
434.161	16.34
434.521	16.51
434.881	16.67
435.24	16.45
435.6	16.47
435.959	16.6
436.319	16.78
436.678	16.91
437.037	16.89
437.396	16.92
437.756	17.1
438.115	16.93
438.474	17.03
438.833	17.12
439.192	17.39
439.551	17.19
439.91	17.59
440.269	17.24
440.628	17.36
440.987	17.44
441.345	17.58
441.704	17.61
442.063	17.5
442.421	17.54
442.78	17.54
443.138	17.57
443.497	17.56
443.855	17.7
444.214	17.67
444.572	17.94
444.93	17.97
445.288	18.14
445.647	18.23
446.005	18.14
446.363	18.09
446.721	18.44
447.079	18.21
447.437	18.24
447.795	18.22
448.153	18.18
448.51	18.35
448.868	18.34
449.226	18.3
449.584	18.32
449.941	18.43
450.299	18.56
450.656	18.84
451.014	18.85
451.371	18.83
451.729	18.84
452.086	19.11
452.443	19.15
452.801	19.28
453.158	19.08
453.515	19.57
453.872	19.34
454.229	19.39
454.586	19.59
454.943	19.53
455.3	19.55
455.657	19.8
456.014	19.72
456.371	19.75
456.727	19.97
457.084	20.05
457.441	20
457.797	19.93
458.154	20.13
458.51	20.17
458.867	20.01
459.223	20.24
459.58	20.48
459.936	20.5
460.292	20.4
460.648	20.68
461.005	20.39
461.361	20.52
461.717	20.32
462.073	20.37
462.429	20.33
462.785	20.47
463.141	20.6
463.496	20.89
463.852	20.93
464.208	20.92
464.564	21.05
464.919	21.12
465.275	21.33
465.631	21.36
465.986	21.44
466.342	21.55
466.697	21.39
467.052	21.44
467.408	21.44
467.763	21.67
468.118	21.92
468.473	21.98
468.829	21.85
469.184	21.71
469.539	21.84
469.894	22.01
470.249	22.1
470.603	22.08
470.958	22.26
471.313	22.25
471.668	22.28
472.023	22.44
472.377	22.45
472.732	22.47
473.086	22.56
473.441	22.41
473.795	22.91
474.15	22.75
474.504	22.69
474.859	22.96
475.213	22.99
475.567	22.67
475.921	22.89
476.275	23.09
476.63	22.97
476.984	22.94
477.338	23.19
477.692	23.35
478.045	23.53
478.399	23.4
478.753	23.33
479.107	23.42
479.461	23.39
479.814	23.52
480.168	23.66
480.521	23.57
480.875	23.55
481.228	23.69
481.582	23.52
481.935	23.86
482.289	23.7
482.642	23.84
482.995	23.96
483.348	23.96
483.701	23.69
484.055	23.8
484.408	23.91
484.761	23.76
485.114	23.61
485.466	23.55
485.819	23.14
486.172	23.09
486.525	23.14
486.878	23.32
487.23	23.44
487.583	23.51
487.936	23.72
488.288	23.87
488.641	23.93
488.993	23.95
489.345	23.9
489.698	23.78
490.05	23.82
490.402	23.89
490.754	23.88
491.107	24.12
491.459	24.35
491.811	24.44
492.163	24.78
492.515	24.8
492.866	24.95
493.218	24.82
493.57	24.68
493.922	24.48
494.274	24.55
494.625	24.76
494.977	24.83
495.328	25.16
495.68	25.29
496.031	25.61
496.383	25.67
496.734	25.85
497.086	25.88
497.437	26.09
497.788	25.99
498.139	26.11
498.49	25.97
498.842	26.22
499.193	25.94
499.544	26
499.894	26.07
500.245	26.22
500.596	26.37
500.947	26.43
501.298	26.48
501.648	26.51
501.999	26.68
502.35	26.56
502.7	26.8
503.051	27.09
503.401	26.84
503.752	26.98
504.102	27.08
504.452	27.2
504.803	27.28
505.153	27.43
505.503	27.18
505.853	27.48
506.203	27.28
506.553	27.45
506.903	27.17
507.253	27.37
507.603	27.61
507.953	27.46
508.303	27.78
508.652	27.68
509.002	27.83
509.352	27.77
509.701	27.91
510.051	27.79
510.4	27.91
510.75	27.71
511.099	27.76
511.449	27.82
511.798	27.98
512.147	27.81
512.496	27.94
512.846	27.89
513.195	27.94
513.544	27.96
513.893	28.14
514.242	28.09
514.591	28.02
514.939	28
515.288	28.12
515.637	28.24
515.986	28.29
516.334	28.45
516.683	28.5
517.032	28.65
517.38	28.69
517.729	28.49
518.077	28.79
518.426	28.75
518.774	28.84
519.122	28.58
519.47	28.8
519.819	28.79
520.167	28.72
520.515	28.62
520.863	28.5
521.211	28.43
521.559	28.49
521.907	28.64
522.255	28.69
522.602	28.9
522.95	28.89
523.298	29
523.645	29.21
523.993	29.01
524.341	29.27
524.688	29.41
525.036	29.37
525.383	29.49
525.73	29.39
526.078	29.18
526.425	29.37
526.772	29.38
527.119	29.34
527.466	29.12
527.814	29.03
528.161	29.01
528.508	28.95
528.854	29.06
529.201	29.06
529.548	29.15
529.895	29.22
530.242	28.94
530.588	28.77
530.935	28.62
531.282	28.75
531.628	28.88
531.975	28.85
532.321	29
532.667	29.16
533.014	29.37
533.36	29.64
533.706	29.7
534.052	29.82
534.399	29.66
534.745	29.67
535.091	29.66
535.437	29.54
535.783	29.36
536.129	29.42
536.474	29.74
536.82	29.8
537.166	30.03
537.512	30.15
537.857	30.18
538.203	30.29
538.549	30.22
538.894	30.18
539.239	30.21
539.585	30.25
539.93	30.5
540.276	30.48
540.621	30.62
540.966	30.84
541.311	30.98
541.656	30.96
542.001	31.08
542.346	30.79
542.691	30.94
543.036	30.73
543.381	30.44
543.726	30.37
544.071	30.3
544.415	30.49
544.76	30.51
545.105	30.59
545.449	30.76
545.794	30.73
546.138	30.95
546.483	31.31
546.827	31.36
547.171	31.47
547.516	31.61
547.86	31.73
548.204	31.89
548.548	31.68
548.892	31.81
549.236	31.8
549.58	31.79
549.924	31.95
550.268	32.05
550.612	32.15
550.956	32.25
551.3	32.47
551.643	32.23
551.987	32.36
552.33	32.62
552.674	32.66
553.017	32.92
553.361	32.85
553.704	32.89
554.048	32.87
554.391	32.93
554.734	33.09
555.077	33.02
555.42	32.79
555.764	33.04
556.107	33
556.45	32.93
556.793	33.23
557.135	33.42
557.478	33.15
557.821	33.42
558.164	33.66
558.507	33.71
558.849	33.62
559.192	33.61
559.534	33.6
559.877	33.75
560.219	33.66
560.562	33.84
560.904	34.03
561.246	34.02
561.589	34.12
561.931	34.05
562.273	34.11
562.615	34.26
562.957	34.07
563.299	34.24
563.641	34.29
563.983	34.15
564.325	34.18
564.667	34.22
565.008	34.23
565.35	34.39
565.692	34.33
566.033	34.56
566.375	34.58
566.716	34.69
567.058	34.62
567.399	34.55
567.741	34.57
568.082	34.41
568.423	34.64
568.764	34.48
569.105	34.41
569.447	34.64
569.788	34.44
570.129	34.96
570.47	34.78
570.811	34.96
571.151	35.21
571.492	35.04
571.833	35.02
572.174	35.02
572.514	35.04
572.855	35.13
573.195	35.03
573.536	35.16
573.876	34.94
574.217	34.99
574.557	35.12
574.898	35.29
575.238	35.2
575.578	35.5
575.918	35.44
576.258	35.21
576.598	35.58
576.938	35.33
577.278	35.7
577.618	35.62
577.958	35.69
578.298	35.7
578.638	35.69
578.977	35.9
579.317	35.79
579.657	36.11
579.996	36.14
580.336	36.32
580.675	36.28
581.014	36.47
581.354	36.35
581.693	36.98
582.032	36.51
582.372	36.72
582.711	36.76
583.05	36.73
583.389	37.01
583.728	37.11
584.067	37.26
584.406	37.11
584.745	37.02
585.083	37.21
585.422	37.49
585.761	37.32
586.1	37.68
586.438	37.94
586.777	37.61
587.115	37.53
587.454	37.51
587.792	38.03
588.13	37.45
588.469	37.6
588.807	37.65
589.145	37.83
589.483	37.75
589.821	38.12
590.159	37.85
590.497	38.37
590.835	38.14
591.173	38.06
591.511	38.2
591.849	37.91
592.187	37.91
592.524	38.16
592.862	38.48
593.2	38.04
593.537	38.34
593.875	38.45
594.212	38.1
594.55	38.83
594.887	38.47
595.224	38.66
595.561	38.71
595.899	38.99
596.236	38.74
596.573	38.76
596.91	38.81
597.247	38.7
597.584	38.88
597.921	38.88
598.258	38.76
598.594	39.04
598.931	39.03
599.268	38.92
599.604	38.96
599.941	38.74
600.277	38.89
600.614	38.96
600.95	39.35
601.287	39.23
601.623	39.61
601.959	39.78
602.296	39.6
602.632	39.66
602.968	40
603.304	39.97
603.64	39.69
603.976	40.35
604.312	39.87
604.648	39.65
604.984	40.13
605.319	39.62
605.655	39.74
605.991	39.98
606.326	40.09
606.662	39.89
606.998	39.78
607.333	39.89
607.668	39.77
608.004	40.2
608.339	40.1
608.674	40.07
609.01	40.38
609.345	40.3
609.68	40.92
610.015	40.44
610.35	40.77
610.685	41.15
611.02	40.78
611.355	40.84
611.689	40.54
612.024	40.91
612.359	40.9
612.694	40.87
613.028	40.77
613.363	40.86
613.697	41.4
614.032	41.25
614.366	41.26
614.7	41.27
615.035	41.48
615.369	41.13
615.703	41.36
616.037	41.43
616.371	42.13
616.705	41.85
617.039	41.84
617.373	41.62
617.707	41.78
618.041	41.94
618.375	42.23
618.709	42
619.042	42.26
619.376	42.36
619.71	42.55
620.043	42.39
620.377	42.19
620.71	42.53
621.043	42.58
621.377	42.79
621.71	42.26
622.043	42.43
622.376	42.73
622.709	42.79
623.043	42.61
623.376	42.82
623.709	43.14
624.041	43.11
624.374	43.59
624.707	43.3
625.04	43.07
625.373	42.93
625.705	43.28
626.038	43.12
626.37	43.47
626.703	43.15
627.035	43.59
627.368	43.73
627.7	43.34
628.032	43.68
628.365	43.4
628.697	43.43
629.029	43.61
629.361	43.38
629.693	43.52
630.025	44.07
630.357	43.8
630.689	43.79
631.021	43.68
631.353	43.88
631.684	44.05
632.016	44.13
632.348	44.28
632.679	44.61
633.011	44.17
633.342	44.71
633.674	44.23
634.005	44.14
634.336	44.5
634.668	44.62
634.999	44.31
635.33	44.53
635.661	44.6
635.992	44.67
636.323	44.94
636.654	44.91
636.985	44.44
637.316	45.22
637.647	44.8
637.977	44.72
638.308	45.53
638.639	45.06
638.969	44.74
639.3	45.7
639.63	45.5
639.961	44.96
640.291	45.42
640.622	46.08
640.952	45.78
641.282	45.88
641.612	45.85
641.943	46.15
642.273	46.1
642.603	46.04
642.933	46.16
643.263	45.7
643.592	45.76
643.922	46.12
644.252	46.22
644.582	45.55
644.911	46.05
645.241	46.28
645.571	46.76
645.9	46.37
646.23	46.18
646.559	46.08
646.888	46.52
647.218	47.09
647.547	46.81
647.876	46.58
648.205	46.25
648.534	46.96
648.863	46.65
649.192	46.8
649.521	46.64
649.85	47.4
650.179	46.96
650.508	46.56
650.837	47.21
651.165	46.75
651.494	46.94
651.822	47.08
652.151	47.7
652.479	47.51
652.808	47.36
653.136	47.31
653.465	47.59
653.793	47.33
654.121	47.88
654.449	47.94
654.777	47.84
655.105	47.99
655.433	47.68
655.761	47.93
656.089	47.78
656.417	47.75
656.745	48.01
657.073	48.03
657.4	47.97
657.728	48.03
658.056	48.32
658.383	47.62
658.711	47.91
659.038	48.16
659.365	48.42
659.693	48.15
660.02	49.04
660.347	48.88
660.674	48.39
661.001	48.68
661.329	48.5
661.656	48.66
661.982	48.51
662.309	48.93
662.636	49.31
662.963	48.92
663.29	49.2
663.616	49.17
663.943	49.07
664.27	48.96
664.596	49.23
664.923	48.82
665.249	49.05
665.576	49.7
665.902	49.24
666.228	49.31
666.554	50.16
666.881	49.72
667.207	49.06
667.533	49.53
667.859	49.84
668.185	49.99
668.511	49.57
668.837	49.84
669.162	49.99
669.488	50.03
669.814	49.1
670.139	50.06
670.465	50.58
670.791	49.9
671.116	50.13
