Data from 0219_chest_Reflection__1__236.txt Node

Date: Fri Sep 22 22:42:44 CDT 2023
User: ToomeyLab
Spectrometer: FLMS14357
Trigger mode: 0
Integration Time (sec): 1.000000E-2
Scans to average: 100
Electric dark correction enabled: true
Nonlinearity correction enabled: false
Boxcar width: 0
XAxis mode: Wavelengths
Number of Pixels in Spectrum: 2048
>>>>>Begin Spectral Data<<<<<
189.047	390.33
189.435	390.33
189.823	390.33
190.211	-228.24
190.599	-90.5
190.987	197.1
191.375	144.86
191.763	183.49
192.151	134.07
192.538	179.4
192.926	16.56
193.314	5384.15
193.702	92.71
194.089	112.74
194.477	-110.89
194.864	524.48
195.252	289.74
195.639	95.51
196.027	73.49
196.414	-218.38
196.801	139.61
197.189	-39.06
197.576	58.28
197.963	-22.71
198.351	9.2
198.738	15.86
199.125	-19.84
199.512	-2.87
199.899	57.61
200.286	-4.11
200.673	17
201.06	21.07
201.447	49
201.833	-4.97
202.22	28.99
202.607	38.61
202.994	53.23
203.38	24.45
203.767	32.92
204.154	62.84
204.54	67.8
204.927	21.16
205.313	-20.26
205.699	50.33
206.086	39.15
206.472	68.33
206.858	51.73
207.245	14.66
207.631	46.31
208.017	38.3
208.403	0.86
208.789	22.32
209.175	73.82
209.561	20.66
209.947	45.8
210.333	38.09
210.719	-2.47
211.105	57.77
211.491	26.79
211.876	39.52
212.262	19.97
212.648	12.26
213.034	6.45
213.419	-0.99
213.805	7.23
214.19	9.12
214.576	17.61
214.961	47.56
215.346	8.05
215.732	31.04
216.117	19.44
216.502	30.15
216.888	37.83
217.273	33.81
217.658	-4.53
218.043	11.26
218.428	16.04
218.813	2.46
219.198	30.74
219.583	24.63
219.968	3.9
220.353	29.78
220.738	-23.01
221.122	25.72
221.507	5.61
221.892	8.3
222.276	5.16
222.661	-20.03
223.046	11.11
223.43	15.2
223.815	4.03
224.199	0.25
224.583	15.85
224.968	18.75
225.352	2.23
225.736	11.75
226.121	1.21
226.505	12.71
226.889	12.08
227.273	9.01
227.657	12.07
228.041	3.28
228.425	11.82
228.809	5.37
229.193	2.8
229.577	8.2
229.961	6.92
230.344	6.06
230.728	2.57
231.112	4.71
231.495	4.64
231.879	4.67
232.263	3.92
232.646	2.47
233.03	3.08
233.413	4.58
233.797	3.77
234.18	3.49
234.563	8.15
234.946	4.24
235.33	3.61
235.713	3.01
236.096	5.54
236.479	3.2
236.862	5.67
237.245	3.82
237.628	6.22
238.011	4.43
238.394	5.65
238.777	5.07
239.16	6
239.543	7.96
239.925	6.02
240.308	2.72
240.691	5.99
241.073	5.82
241.456	5.31
241.838	3.56
242.221	3.83
242.603	4.56
242.986	3.41
243.368	4.04
243.75	4.31
244.133	4.51
244.515	3.5
244.897	3.77
245.279	4.03
245.661	3.15
246.043	4.22
246.425	3.47
246.807	4.22
247.189	2.68
247.571	5.04
247.953	4.04
248.335	4.38
248.717	3.7
249.098	3.62
249.48	3.5
249.862	3.33
250.243	3.37
250.625	3.68
251.006	3.57
251.388	3.58
251.769	3.58
252.151	2.98
252.532	3.58
252.913	4.26
253.295	4.34
253.676	3
254.057	3.41
254.438	4.53
254.819	3.14
255.2	3.94
255.581	3.54
255.962	4.27
256.343	4.54
256.724	2.89
257.105	3.95
257.486	4.59
257.867	3.61
258.247	4.33
258.628	3.82
259.009	3.72
259.389	3.26
259.77	3.69
260.15	4.16
260.531	3.69
260.911	3.63
261.292	3.52
261.672	2.74
262.052	3.34
262.432	3.43
262.813	3.4
263.193	3.13
263.573	4.18
263.953	3.37
264.333	3.62
264.713	3.42
265.093	3
265.473	3.02
265.853	2.71
266.233	3.39
266.612	3.54
266.992	4.29
267.372	3.8
267.752	3.62
268.131	3.56
268.511	2.85
268.89	3.39
269.27	2.84
269.649	3.28
270.029	2.95
270.408	3.72
270.787	3.68
271.167	3.17
271.546	3.26
271.925	3.41
272.304	2.8
272.683	3.81
273.062	3.39
273.441	3.17
273.82	3.51
274.199	3.37
274.578	3.69
274.957	3.23
275.336	3.17
275.715	3.59
276.093	3.37
276.472	2.93
276.851	3.77
277.229	2.48
277.608	3.39
277.986	3.11
278.365	3.21
278.743	2.78
279.122	2.82
279.5	3.02
279.878	2.98
280.257	3.74
280.635	3.1
281.013	3.52
281.391	2.92
281.769	3.27
282.147	3.64
282.525	3.78
282.903	4.25
283.281	3.54
283.659	3.25
284.037	3.46
284.415	3.32
284.792	3.24
285.17	3.56
285.548	3.97
285.925	3.39
286.303	2.86
286.68	3.28
287.058	2.9
287.435	3.33
287.813	3.12
288.19	2.95
288.567	3.05
288.945	2.83
289.322	3.12
289.699	3.19
290.076	3.16
290.453	3.39
290.83	2.93
291.207	3.08
291.584	2.88
291.961	2.78
292.338	3.26
292.715	3.65
293.092	3.08
293.469	3.29
293.845	3.04
294.222	3.56
294.599	3.89
294.975	3.05
295.352	3.09
295.728	3.47
296.105	3.86
296.481	3.67
296.858	3.12
297.234	3.04
297.61	3.32
297.986	3.41
298.363	3.1
298.739	2.87
299.115	3.66
299.491	3.15
299.867	3.09
300.243	3.03
300.619	3.09
300.995	3.19
301.371	3.64
301.746	3.26
302.122	3.27
302.498	3.05
302.874	2.48
303.249	3.71
303.625	2.72
304	3.76
304.376	3.69
304.751	3.45
305.127	3.51
305.502	3.54
305.878	3.07
306.253	3.66
306.628	3.4
307.003	3.13
307.378	2.92
307.754	3.55
308.129	3.58
308.504	2.85
308.879	3.49
309.254	3.39
309.629	3.24
310.003	3.49
310.378	3.66
310.753	3.41
311.128	3.26
311.502	3.25
311.877	3.31
312.252	3.45
312.626	3.4
313.001	3.31
313.375	3.44
313.75	3.65
314.124	3.57
314.498	3.12
314.873	3.55
315.247	3.1
315.621	3.47
315.995	3.46
316.369	3.76
316.743	3.22
317.117	3.91
317.491	3.91
317.865	3.13
318.239	3.28
318.613	3.37
318.987	3.51
319.361	2.69
319.734	3.17
320.108	3.7
320.482	3.5
320.855	3.51
321.229	4.12
321.602	3.61
321.976	3.62
322.349	3.45
322.723	3.38
323.096	3.5
323.469	3.41
323.843	3.74
324.216	3.84
324.589	3.49
324.962	3.35
325.335	3.32
325.708	3.29
326.081	3.64
326.454	2.92
326.827	3.29
327.2	3.25
327.573	3.85
327.945	3.2
328.318	3.69
328.691	3.97
329.063	3.36
329.436	3.61
329.809	3.81
330.181	4.08
330.553	3.79
330.926	3.43
331.298	3.77
331.671	4.31
332.043	3.13
332.415	3.11
332.787	3.12
333.159	3.46
333.532	3.09
333.904	3.12
334.276	3.31
334.648	3.19
335.02	3
335.391	3.11
335.763	3.83
336.135	3.24
336.507	3.77
336.879	3.22
337.25	3.77
337.622	4.08
337.993	3.78
338.365	4.1
338.736	3.82
339.108	3.68
339.479	3.87
339.851	3.44
340.222	3
340.593	3.04
340.964	3.18
341.336	3.05
341.707	2.99
342.078	3.56
342.449	3.29
342.82	3.73
343.191	2.88
343.562	3.4
343.933	3.35
344.303	3.28
344.674	3.68
345.045	3.55
345.416	3.4
345.786	3.05
346.157	3.29
346.527	3.44
346.898	3.32
347.268	3.45
347.639	3.65
348.009	3.47
348.38	3.4
348.75	3.35
349.12	3.29
349.49	3.58
349.861	3.35
350.231	3.37
350.601	3.59
350.971	3.52
351.341	3.4
351.711	3.51
352.081	3.26
352.45	3.59
352.82	3.82
353.19	3.34
353.56	3.23
353.929	3.58
354.299	3.32
354.669	3.31
355.038	3.42
355.408	3.41
355.777	4.2
356.147	3.73
356.516	3.93
356.885	3.33
357.254	3.93
357.624	3.35
357.993	3.42
358.362	3.57
358.731	3.55
359.1	3.42
359.469	3.64
359.838	3.31
360.207	3.14
360.576	3.41
360.945	3.35
361.314	3.54
361.682	3.8
362.051	3.78
362.42	3.3
362.788	3.27
363.157	3.42
363.525	3.44
363.894	3.28
364.262	3.34
364.631	3.32
364.999	3.37
365.367	3.49
365.735	3.57
366.104	3.63
366.472	3.72
366.84	3.32
367.208	3.71
367.576	3.83
367.944	3.53
368.312	3.36
368.68	3.49
369.048	3.35
369.416	3.63
369.783	3.44
370.151	3.38
370.519	3.58
370.886	3.73
371.254	3.65
371.621	3.45
371.989	3.54
372.356	3.42
372.724	3.81
373.091	3.59
373.458	3.87
373.826	3.56
374.193	3.73
374.56	3.62
374.927	3.83
375.294	3.47
375.661	3.48
376.028	3.65
376.395	3.59
376.762	3.53
377.129	3.54
377.496	3.89
377.863	3.72
378.229	3.72
378.596	3.52
378.963	3.65
379.329	3.73
379.696	3.73
380.062	3.4
380.429	3.58
380.795	3.57
381.161	3.48
381.528	3.54
381.894	3.41
382.26	3.69
382.626	3.55
382.993	3.89
383.359	3.19
383.725	3.54
384.091	3.81
384.457	3.6
384.823	3.44
385.188	3.63
385.554	3.51
385.92	4.06
386.286	3.55
386.651	3.59
387.017	3.72
387.383	3.21
387.748	3.47
388.114	3.32
388.479	3.65
388.845	3.2
389.21	3.52
389.575	3.96
389.94	3.2
390.306	3.84
390.671	4.09
391.036	3.52
391.401	3.36
391.766	3.47
392.131	3.43
392.496	3.6
392.861	3.49
393.226	3.7
393.591	3.57
393.956	3.58
394.32	3.57
394.685	3.31
395.05	3.82
395.414	3.61
395.779	3.75
396.143	3.39
396.508	3.26
396.872	3.59
397.236	3.55
397.601	3.46
397.965	3.87
398.329	3.62
398.694	3.79
399.058	3.55
399.422	3.71
399.786	3.83
400.15	3.77
400.514	3.86
400.878	3.54
401.242	3.59
401.605	3.54
401.969	3.37
402.333	3.81
402.697	3.54
403.06	3.54
403.424	3.56
403.787	3.68
404.151	3.67
404.514	3.89
404.878	3.91
405.241	3.81
405.604	3.76
405.968	3.75
406.331	3.8
406.694	3.69
407.057	3.65
407.42	3.74
407.783	3.61
408.146	3.55
408.509	3.53
408.872	3.57
409.235	3.88
409.598	3.66
409.961	4.15
410.323	3.97
410.686	3.69
411.049	3.76
411.411	3.93
411.774	3.41
412.136	3.59
412.499	3.37
412.861	3.61
413.223	3.65
413.586	3.66
413.948	3.62
414.31	3.77
414.672	3.57
415.035	3.44
415.397	3.82
415.759	3.91
416.121	3.57
416.483	3.43
416.845	3.78
417.206	3.43
417.568	3.5
417.93	3.54
418.292	3.61
418.653	3.47
419.015	3.61
419.377	3.49
419.738	3.76
420.1	3.49
420.461	3.64
420.822	3.65
421.184	3.69
421.545	3.58
421.906	3.54
422.267	3.42
422.629	3.63
422.99	3.58
423.351	3.49
423.712	3.62
424.073	3.49
424.434	3.65
424.795	3.57
425.155	3.6
425.516	3.63
425.877	3.65
426.238	3.41
426.598	3.55
426.959	3.59
427.32	3.6
427.68	3.56
428.041	3.52
428.401	3.66
428.761	3.64
429.122	3.67
429.482	3.68
429.842	3.47
430.202	3.54
430.563	3.89
430.923	3.68
431.283	3.72
431.643	3.8
432.003	3.62
432.363	3.95
432.722	3.93
433.082	3.83
433.442	3.77
433.802	3.92
434.161	3.73
434.521	3.63
434.881	3.78
435.24	3.66
435.6	3.6
435.959	3.61
436.319	3.62
436.678	3.82
437.037	3.7
437.396	3.61
437.756	3.78
438.115	3.79
438.474	3.66
438.833	3.76
439.192	3.75
439.551	3.59
439.91	3.83
440.269	3.88
440.628	3.67
440.987	3.73
441.345	3.79
441.704	3.81
442.063	3.76
442.421	3.78
442.78	3.71
443.138	3.68
443.497	3.65
443.855	3.81
444.214	3.61
444.572	3.87
444.93	3.68
445.288	3.73
445.647	3.85
446.005	3.78
446.363	3.66
446.721	3.78
447.079	3.61
447.437	3.71
447.795	3.87
448.153	3.76
448.51	3.81
448.868	3.69
449.226	3.79
449.584	3.73
449.941	3.64
450.299	3.76
450.656	3.88
451.014	3.88
451.371	3.8
451.729	3.84
452.086	3.62
452.443	3.83
452.801	3.82
453.158	3.72
453.515	3.95
453.872	3.8
454.229	3.86
454.586	3.84
454.943	3.68
455.3	3.92
455.657	3.88
456.014	3.79
456.371	3.91
456.727	3.98
457.084	3.91
457.441	3.87
457.797	3.96
458.154	3.92
458.51	3.75
458.867	3.76
459.223	3.86
459.58	3.99
459.936	4.15
460.292	4.06
460.648	3.92
461.005	3.87
461.361	3.94
461.717	3.71
462.073	3.77
462.429	3.68
462.785	3.78
463.141	3.78
463.496	4.03
463.852	3.92
464.208	3.83
464.564	4.03
464.919	3.91
465.275	4.03
465.631	4.1
465.986	3.91
466.342	4.15
466.697	4.13
467.052	4.02
467.408	3.99
467.763	4.01
468.118	4.04
468.473	4.02
468.829	4.03
469.184	3.89
469.539	3.93
469.894	4.05
470.249	4.09
470.603	3.84
470.958	4.09
471.313	4.09
471.668	4.05
472.023	3.98
472.377	4.09
472.732	4.04
473.086	4.12
473.441	3.86
473.795	4.12
474.15	3.95
474.504	4.01
474.859	4.1
475.213	3.9
475.567	4.02
475.921	3.96
476.275	3.97
476.63	3.99
476.984	3.98
477.338	4.07
477.692	4.02
478.045	4.19
478.399	4.08
478.753	3.97
479.107	4.06
479.461	4.01
479.814	4.03
480.168	4.12
480.521	4.11
480.875	4.17
481.228	4.14
481.582	3.93
481.935	4.11
482.289	4.02
482.642	3.94
482.995	3.98
483.348	4.06
483.701	4.05
484.055	4.02
484.408	3.99
484.761	4.07
485.114	3.89
485.466	3.85
485.819	3.79
486.172	3.73
486.525	3.76
486.878	3.84
487.23	3.87
487.583	3.95
487.936	3.94
488.288	3.99
488.641	3.89
488.993	3.88
489.345	3.9
489.698	3.86
490.05	3.88
490.402	3.89
490.754	3.86
491.107	3.93
491.459	4
491.811	4.03
492.163	4.05
492.515	4.02
492.866	4
493.218	3.98
493.57	4.05
493.922	3.95
494.274	3.94
494.625	3.97
494.977	4.1
495.328	4.12
495.68	4.17
496.031	4.11
496.383	4.36
496.734	4.23
497.086	4.19
497.437	4.31
497.788	4.21
498.139	4.24
498.49	4.38
498.842	4.12
499.193	4.14
499.544	4.24
499.894	4.18
500.245	4.19
500.596	4.21
500.947	4.19
501.298	4.39
501.648	4.29
501.999	4.41
502.35	4.39
502.7	4.4
503.051	4.34
503.401	4.41
503.752	4.3
504.102	4.34
504.452	4.32
504.803	4.28
505.153	4.49
505.503	4.27
505.853	4.42
506.203	4.28
506.553	4.42
506.903	4.35
507.253	4.42
507.603	4.43
507.953	4.51
508.303	4.4
508.652	4.3
509.002	4.5
509.352	4.3
509.701	4.44
510.051	4.43
510.4	4.52
510.75	4.42
511.099	4.27
511.449	4.41
511.798	4.54
512.147	4.46
512.496	4.35
512.846	4.38
513.195	4.47
513.544	4.51
513.893	4.54
514.242	4.46
514.591	4.42
514.939	4.51
515.288	4.38
515.637	4.48
515.986	4.5
516.334	4.54
516.683	4.61
517.032	4.66
517.38	4.63
517.729	4.59
518.077	4.64
518.426	4.57
518.774	4.58
519.122	4.51
519.47	4.58
519.819	4.57
520.167	4.61
520.515	4.6
520.863	4.51
521.211	4.49
521.559	4.45
521.907	4.57
522.255	4.6
522.602	4.67
522.95	4.64
523.298	4.61
523.645	4.73
523.993	4.61
524.341	4.56
524.688	4.76
525.036	4.67
525.383	4.74
525.73	4.84
526.078	4.75
526.425	4.75
526.772	4.69
527.119	4.6
527.466	4.57
527.814	4.53
528.161	4.59
528.508	4.61
528.854	4.66
529.201	4.77
529.548	4.63
529.895	4.56
530.242	4.6
530.588	4.52
530.935	4.45
531.282	4.48
531.628	4.57
531.975	4.6
532.321	4.65
532.667	4.74
533.014	4.83
533.36	4.78
533.706	4.83
534.052	4.87
534.399	4.86
534.745	4.88
535.091	4.77
535.437	4.77
535.783	4.67
536.129	4.75
536.474	4.87
536.82	4.81
537.166	4.95
537.512	4.95
537.857	4.88
538.203	5.06
538.549	4.88
538.894	4.83
539.239	4.95
539.585	4.91
539.93	5.15
540.276	5.07
540.621	5.02
540.966	5.08
541.311	5.12
541.656	5.11
542.001	5.09
542.346	5.07
542.691	5.09
543.036	5.04
543.381	5.03
543.726	4.92
544.071	4.98
544.415	4.97
544.76	5.03
545.105	5.02
545.449	5.05
545.794	5.17
546.138	5.2
546.483	5.2
546.827	5.24
547.171	5.32
547.516	5.43
547.86	5.31
548.204	5.35
548.548	5.37
548.892	5.4
549.236	5.38
549.58	5.36
549.924	5.45
550.268	5.58
550.612	5.44
550.956	5.49
551.3	5.44
551.643	5.52
551.987	5.55
552.33	5.84
552.674	5.7
553.017	5.58
553.361	5.68
553.704	5.85
554.048	5.93
554.391	5.75
554.734	5.76
555.077	5.67
555.42	5.78
555.764	5.72
556.107	5.91
556.45	5.86
556.793	5.8
557.135	5.9
557.478	5.96
557.821	5.92
558.164	5.87
558.507	6.07
558.849	5.96
559.192	6.09
559.534	6.1
559.877	6.18
560.219	6.17
560.562	6.22
560.904	6.01
561.246	6.37
561.589	6.31
561.931	6.14
562.273	6.19
562.615	6.12
562.957	6.23
563.299	6.36
563.641	6.14
563.983	6.4
564.325	6.44
564.667	6.43
565.008	6.18
565.35	6.25
565.692	6.28
566.033	6.44
566.375	6.49
566.716	6.34
567.058	6.31
567.399	6.33
567.741	6.59
568.082	6.46
568.423	6.42
568.764	6.57
569.105	6.2
569.447	6.54
569.788	6.37
570.129	6.66
570.47	6.7
570.811	6.47
571.151	6.69
571.492	6.5
571.833	6.69
572.174	6.69
572.514	6.73
572.855	6.66
573.195	6.71
573.536	6.73
573.876	6.71
574.217	6.71
574.557	6.71
574.898	6.87
575.238	6.79
575.578	6.88
575.918	6.83
576.258	6.81
576.598	6.8
576.938	7
577.278	6.89
577.618	6.71
577.958	7.01
578.298	6.97
578.638	6.98
578.977	7.08
579.317	7.16
579.657	7.06
579.996	7.13
580.336	7.06
580.675	7.52
581.014	7.1
581.354	7.21
581.693	7.53
582.032	7.48
582.372	7.48
582.711	7.38
583.05	7.59
583.389	7.3
583.728	7.49
584.067	7.59
584.406	7.65
584.745	7.33
585.083	7.73
585.422	7.56
585.761	7.6
586.1	7.56
586.438	7.63
586.777	7.63
587.115	7.81
587.454	7.55
587.792	7.94
588.13	7.9
588.469	7.62
588.807	7.97
589.145	7.93
589.483	7.94
589.821	7.98
590.159	7.79
590.497	8.29
590.835	8.08
591.173	8
591.511	7.88
591.849	8.32
592.187	7.97
592.524	8.43
592.862	8.15
593.2	8.2
593.537	7.85
593.875	8.28
594.212	8.09
594.55	8.45
594.887	8.25
595.224	8.33
595.561	8.44
595.899	8.61
596.236	8.63
596.573	8.54
596.91	8.36
597.247	8.31
597.584	8.41
597.921	8.58
598.258	8.54
598.594	8.59
598.931	8.7
599.268	8.62
599.604	8.46
599.941	8.59
600.277	8.55
600.614	8.77
600.95	8.74
601.287	8.51
601.623	8.78
601.959	9.03
602.296	9.02
602.632	8.62
602.968	9.2
603.304	8.99
603.64	8.78
603.976	9.01
604.312	9.14
604.648	8.89
604.984	9.16
605.319	9.06
605.655	8.94
605.991	9.05
606.326	9.12
606.662	9.06
606.998	9.11
607.333	8.98
607.668	9.14
608.004	9.34
608.339	9.28
608.674	9.32
609.01	9.55
609.345	9.48
609.68	9.77
610.015	9.6
610.35	9.5
610.685	9.6
611.02	9.8
611.355	9.92
611.689	9.62
612.024	9.61
612.359	9.55
612.694	9.58
613.028	9.53
613.363	9.56
613.697	9.98
614.032	10
614.366	9.6
614.7	9.93
615.035	10.01
615.369	9.82
615.703	9.73
616.037	9.81
616.371	10.22
616.705	10.41
617.039	10.05
617.373	10.15
617.707	9.83
618.041	10.49
618.375	10.19
618.709	10.22
619.042	10.51
619.376	10.69
619.71	10.72
620.043	10.13
620.377	10.68
620.71	10.41
621.043	10.73
621.377	10.58
621.71	10.49
622.043	10.61
622.376	10.54
622.709	10.7
623.043	11.13
623.376	10.67
623.709	10.96
624.041	10.75
624.374	10.8
624.707	11.08
625.04	11.38
625.373	10.81
625.705	10.87
626.038	11.13
626.37	11.39
626.703	11.19
627.035	11.01
627.368	11.03
627.7	11.25
628.032	11.24
628.365	11.11
628.697	11.04
629.029	11.13
629.361	11.13
629.693	11.35
630.025	11.21
630.357	11.08
630.689	11.15
631.021	11.06
631.353	11.23
631.684	11.29
632.016	11.62
632.348	11.73
632.679	11.53
633.011	11.23
633.342	11.75
633.674	11.89
634.005	11.33
634.336	11.81
634.668	11.72
634.999	11.75
635.33	12.11
635.661	11.92
635.992	11.84
636.323	12.15
636.654	11.98
636.985	11.61
637.316	12.05
637.647	12.06
637.977	11.56
638.308	12.2
638.639	12.21
638.969	12.18
639.3	12.08
639.63	11.95
639.961	11.99
640.291	12.16
640.622	12.57
640.952	12.39
641.282	12.57
641.612	12.54
641.943	12.78
642.273	12.33
642.603	12.76
642.933	12.52
643.263	12.28
643.592	12.46
643.922	13.08
644.252	12.86
644.582	12.87
644.911	12.98
645.241	13.16
645.571	12.41
645.9	13.11
646.23	13.04
646.559	13.51
646.888	13.42
647.218	12.68
647.547	13.29
647.876	12.82
648.205	12.77
648.534	13.37
648.863	13.39
649.192	12.73
649.521	13.36
649.85	13.64
650.179	13.69
650.508	12.9
650.837	13.46
651.165	13.36
651.494	13.47
651.822	13.49
652.151	13.42
652.479	13.42
652.808	13.63
653.136	13.93
653.465	13.07
653.793	13.38
654.121	14
654.449	12.89
654.777	13.83
655.105	13.75
655.433	13.66
655.761	14.22
656.089	13.85
656.417	14.21
656.745	13.97
657.073	13.91
657.4	14.66
657.728	14.17
658.056	14.01
658.383	14.55
658.711	14.38
659.038	13.9
659.365	14.39
659.693	13.58
660.02	14.32
660.347	14.22
660.674	13.85
661.001	13.85
661.329	14.33
661.656	14.22
661.982	13.97
662.309	14.07
662.636	14.15
662.963	14.62
663.29	14.67
663.616	14.69
663.943	14.78
664.27	14.82
664.596	14.57
664.923	14.64
665.249	14.98
665.576	13.73
665.902	14.7
666.228	14.88
666.554	15.12
666.881	15.63
667.207	14.83
667.533	15.02
667.859	15.25
668.185	15.09
668.511	15.53
668.837	14.16
669.162	14.97
669.488	14.81
669.814	15.25
670.139	15.49
670.465	15.49
670.791	14.72
671.116	15.67
671.442	16.04
671.767	14.64
672.092	15.66
672.418	16.36
672.743	15.85
673.068	15.96
673.393	15.05
673.718	15.33
674.043	16
674.368	16.41
674.693	15.44
675.018	15.8
675.343	15.81
675.667	15.53
675.992	16.03
676.317	16.25
676.641	15.86
676.966	16.28
677.29	16.17
677.615	16.3
677.939	15.98
678.264	16.15
678.588	16.59
678.912	16.07
679.236	15.92
679.56	16.29
679.885	15.54
680.209	17.1
680.532	15.94
680.856	15.74
681.18	16.07
681.504	16.72
681.828	16.27
682.152	16.71
682.475	17.02
682.799	16.82
683.122	16.66
683.446	16.43
683.769	16.77
684.093	16.58
684.416	16.99
684.739	16.65
685.062	17.36
685.386	16.49
685.709	16.55
686.032	17.18
686.355	16.44
686.678	17.76
687.001	16.45
687.324	17.92
