Data from 0219_crown_Reflection__4__244.txt Node

Date: Fri Sep 22 22:45:29 CDT 2023
User: ToomeyLab
Spectrometer: FLMS14357
Trigger mode: 0
Integration Time (sec): 1.000000E-2
Scans to average: 100
Electric dark correction enabled: true
Nonlinearity correction enabled: false
Boxcar width: 0
XAxis mode: Wavelengths
Number of Pixels in Spectrum: 2048
>>>>>Begin Spectral Data<<<<<
189.047	275.48
189.435	275.48
189.823	275.48
190.211	135.23
190.599	-48.9
190.987	80.28
191.375	-1.35
191.763	149.18
192.151	86.55
192.538	-64.77
192.926	55.42
193.314	2568.29
193.702	73.63
194.089	95
194.477	-22.88
194.864	82.2
195.252	63.7
195.639	42.59
196.027	34.58
196.414	-175.15
196.801	-113.48
197.189	-69.4
197.576	37.23
197.963	-50.09
198.351	25.86
198.738	17.38
199.125	-9.23
199.512	5.79
199.899	43.31
200.286	3.89
200.673	16.14
201.06	39.71
201.447	39.62
201.833	-63.59
202.22	27.03
202.607	34.94
202.994	21.08
203.38	16.3
203.767	7.27
204.154	66.2
204.54	34.7
204.927	33.27
205.313	77.08
205.699	43.26
206.086	24.59
206.472	25.91
206.858	52.14
207.245	13.26
207.631	35.42
208.017	50.87
208.403	-3.01
208.789	48.64
209.175	55.92
209.561	37.97
209.947	21.74
210.333	6.91
210.719	3.28
211.105	22.98
211.491	24.54
211.876	44.53
212.262	59.71
212.648	11.79
213.034	25.77
213.419	21.44
213.805	1.53
214.19	13.35
214.576	16.27
214.961	9.79
215.346	6.56
215.732	1.16
216.117	-26.77
216.502	11.99
216.888	14.98
217.273	4.02
217.658	-9.18
218.043	27.06
218.428	39.54
218.813	-16.42
219.198	30.8
219.583	37.16
219.968	-6.79
220.353	48.92
220.738	2.38
221.122	-17.67
221.507	-0.11
221.892	1.18
222.276	16.6
222.661	-12.96
223.046	11.01
223.43	20.4
223.815	4.78
224.199	5.62
224.583	20.34
224.968	18.98
225.352	-8.53
225.736	5.11
226.121	2.66
226.505	10.04
226.889	7.68
227.273	2.07
227.657	5.18
228.041	5.18
228.425	8.21
228.809	3.91
229.193	1.47
229.577	9.07
229.961	6.1
230.344	6.14
230.728	3.09
231.112	5.09
231.495	4.98
231.879	4.89
232.263	4.36
232.646	3.99
233.03	5.8
233.413	6.77
233.797	5.97
234.18	3.63
234.563	4.7
234.946	6.17
235.33	2.01
235.713	3.18
236.096	3.06
236.479	4.54
236.862	6.32
237.245	5.14
237.628	6.22
238.011	2.92
238.394	3.99
238.777	4.93
239.16	6.1
239.543	6.63
239.925	5.61
240.308	5.98
240.691	4.48
241.073	6.05
241.456	4.35
241.838	2.79
242.221	4.51
242.603	4.32
242.986	3.75
243.368	3.32
243.75	5.21
244.133	3.89
244.515	3.85
244.897	4.11
245.279	4.21
245.661	4.25
246.043	3.93
246.425	2.54
246.807	5.02
247.189	3.54
247.571	4.69
247.953	5.15
248.335	4.35
248.717	4.4
249.098	4.02
249.48	4.15
249.862	4
250.243	4.22
250.625	4.23
251.006	3.87
251.388	4.11
251.769	4.07
252.151	4
252.532	4.81
252.913	3.94
253.295	4.96
253.676	4.54
254.057	4.28
254.438	4.1
254.819	3.77
255.2	4.18
255.581	3.58
255.962	4.7
256.343	2.68
256.724	3.93
257.105	4.18
257.486	4.4
257.867	4.08
258.247	4.4
258.628	3.89
259.009	4.62
259.389	3.42
259.77	4.67
260.15	4.9
260.531	3.51
260.911	4.01
261.292	3.86
261.672	3.64
262.052	3.99
262.432	3.92
262.813	3.93
263.193	3.72
263.573	4.78
263.953	3.83
264.333	3.86
264.713	4.92
265.093	3.91
265.473	3.52
265.853	3.84
266.233	4.09
266.612	3.66
266.992	4.38
267.372	3.93
267.752	4.39
268.131	3.84
268.511	3.45
268.89	4.14
269.27	3.72
269.649	4.16
270.029	3.72
270.408	3.51
270.787	3.85
271.167	4.16
271.546	4.05
271.925	4.33
272.304	3.42
272.683	4.12
273.062	4.12
273.441	3.9
273.82	4
274.199	3.78
274.578	4.56
274.957	3.93
275.336	3.42
275.715	4.02
276.093	3.8
276.472	3.19
276.851	3.78
277.229	3.09
277.608	3.83
277.986	3.82
278.365	3.94
278.743	3.81
279.122	3.59
279.5	4.24
279.878	3.76
280.257	4.46
280.635	3.39
281.013	3.98
281.391	3.03
281.769	3.65
282.147	3.86
282.525	3.88
282.903	3.86
283.281	3.41
283.659	3.89
284.037	3.44
284.415	4.37
284.792	3.71
285.17	3.61
285.548	3.85
285.925	3.35
286.303	3.38
286.68	3.07
287.058	3.56
287.435	3.66
287.813	3.44
288.19	2.98
288.567	3.57
288.945	3.21
289.322	3.53
289.699	3.08
290.076	3.26
290.453	3.39
290.83	2.89
291.207	3.72
291.584	3.31
291.961	3.06
292.338	3.9
292.715	3.47
293.092	3.47
293.469	3.43
293.845	3.17
294.222	3.52
294.599	3.24
294.975	3.99
295.352	3.96
295.728	3.71
296.105	3.51
296.481	3.66
296.858	3.31
297.234	3.17
297.61	3.61
297.986	3.37
298.363	3.22
298.739	3.47
299.115	3.48
299.491	3.42
299.867	3.44
300.243	3.13
300.619	3.77
300.995	3.62
301.371	3.68
301.746	3.3
302.122	3.3
302.498	2.84
302.874	3.26
303.249	3.55
303.625	2.87
304	3.54
304.376	3.76
304.751	3.91
305.127	3.09
305.502	3.83
305.878	3.09
306.253	3.46
306.628	3.41
307.003	3.6
307.378	3.32
307.754	2.97
308.129	3.52
308.504	3.46
308.879	2.9
309.254	3.48
309.629	3.9
310.003	4.04
310.378	3.37
310.753	3.37
311.128	3.36
311.502	3.53
311.877	2.74
312.252	3.09
312.626	3.34
313.001	3.59
313.375	3.51
313.75	3.8
314.124	3.74
314.498	3.31
314.873	3.6
315.247	3.47
315.621	3.21
315.995	3.09
316.369	3.09
316.743	3.48
317.117	3.87
317.491	3.92
317.865	2.83
318.239	3.13
318.613	4.28
318.987	3.18
319.361	2.69
319.734	2.78
320.108	3.56
320.482	3.39
320.855	3.79
321.229	4.01
321.602	3.67
321.976	2.62
322.349	3.73
322.723	3.42
323.096	3.59
323.469	3.28
323.843	3.53
324.216	3.85
324.589	3.68
324.962	2.82
325.335	3.84
325.708	3.39
326.081	4.01
326.454	3.2
326.827	3.26
327.2	3.52
327.573	3.82
327.945	3.39
328.318	3.76
328.691	3.44
329.063	3.4
329.436	3.41
329.809	3.04
330.181	3.78
330.553	3.46
330.926	3.36
331.298	3.39
331.671	3.45
332.043	2.82
332.415	3.37
332.787	3.55
333.159	2.88
333.532	3.14
333.904	3.12
334.276	3.19
334.648	3.19
335.02	2.68
335.391	3.09
335.763	3.92
336.135	3.5
336.507	3.45
336.879	2.63
337.25	3.45
337.622	3.61
337.993	2.66
338.365	3.93
338.736	3.47
339.108	3.88
339.479	3.28
339.851	3.03
340.222	3
340.593	3.49
340.964	2.99
341.336	3.42
341.707	2.97
342.078	3.67
342.449	3.39
342.82	2.98
343.191	3.11
343.562	3.2
343.933	3.19
344.303	3.27
344.674	3.38
345.045	3.12
345.416	4.02
345.786	3.54
346.157	3.58
346.527	3.15
346.898	3.25
347.268	3.57
347.639	3.4
348.009	3.12
348.38	3.52
348.75	3.2
349.12	3.01
349.49	3.65
349.861	3.01
350.231	3.21
350.601	3.5
350.971	3.13
351.341	3.01
351.711	2.97
352.081	2.99
352.45	3.02
352.82	3.62
353.19	3.53
353.56	3.33
353.929	3.36
354.299	3.55
354.669	2.87
355.038	3.21
355.408	3.43
355.777	3.29
356.147	3.24
356.516	3.51
356.885	3.25
357.254	3.36
357.624	3.19
357.993	3.31
358.362	3.26
358.731	3.35
359.1	3.23
359.469	3.57
359.838	3.25
360.207	3.4
360.576	3.39
360.945	3.26
361.314	3.25
361.682	3.64
362.051	3.68
362.42	3.21
362.788	3.03
363.157	3.6
363.525	3.24
363.894	3.21
364.262	3.26
364.631	3.46
364.999	3.06
365.367	3.63
365.735	3.45
366.104	3.4
366.472	3.8
366.84	3.25
367.208	3.46
367.576	3.32
367.944	3.38
368.312	3.24
368.68	3.59
369.048	3.28
369.416	3.18
369.783	3.38
370.151	3.33
370.519	3.5
370.886	3.49
371.254	3.73
371.621	3.26
371.989	3.56
372.356	3.38
372.724	3.72
373.091	3.34
373.458	3.51
373.826	3.53
374.193	3.54
374.56	3.63
374.927	3.58
375.294	3.33
375.661	3.05
376.028	3.78
376.395	3.29
376.762	3.31
377.129	3.67
377.496	3.69
377.863	3.54
378.229	3.63
378.596	3.6
378.963	3.74
379.329	3.37
379.696	3.66
380.062	3.02
380.429	3.21
380.795	3.43
381.161	3.5
381.528	3.26
381.894	3.15
382.26	3.4
382.626	3.6
382.993	3.66
383.359	3.18
383.725	3.52
384.091	3.53
384.457	3.48
384.823	3.48
385.188	3.61
385.554	3.58
385.92	4.04
386.286	3.63
386.651	3.34
387.017	3.68
387.383	3.55
387.748	3.78
388.114	3.5
388.479	3.52
388.845	3.55
389.21	3.28
389.575	3.91
389.94	3.46
390.306	3.69
390.671	3.81
391.036	3.28
391.401	3.46
391.766	3.26
392.131	3.4
392.496	3.56
392.861	3.57
393.226	3.77
393.591	3.72
393.956	3.61
394.32	3.67
394.685	3.62
395.05	3.73
395.414	3.9
395.779	3.49
396.143	3.48
396.508	3.84
396.872	3.52
397.236	3.79
397.601	3.41
397.965	3.76
398.329	3.69
398.694	3.79
399.058	3.58
399.422	3.67
399.786	3.63
400.15	3.6
400.514	3.71
400.878	3.6
401.242	3.56
401.605	3.33
401.969	3.34
402.333	3.94
402.697	3.71
403.06	3.61
403.424	3.53
403.787	3.76
404.151	3.77
404.514	3.81
404.878	3.63
405.241	3.68
405.604	3.87
405.968	3.7
406.331	3.66
406.694	3.75
407.057	3.61
407.42	3.69
407.783	3.59
408.146	3.72
408.509	3.46
408.872	3.69
409.235	3.48
409.598	3.61
409.961	3.69
410.323	3.71
410.686	3.69
411.049	3.94
411.411	3.8
411.774	3.5
412.136	3.47
412.499	3.51
412.861	3.7
413.223	3.81
413.586	3.64
413.948	3.77
414.31	3.84
414.672	3.83
415.035	3.73
415.397	3.85
415.759	4.03
416.121	3.63
416.483	3.94
416.845	3.64
417.206	3.72
417.568	3.72
417.93	3.74
418.292	3.88
418.653	3.58
419.015	3.69
419.377	3.56
419.738	3.82
420.1	3.74
420.461	3.66
420.822	3.7
421.184	3.62
421.545	3.72
421.906	3.65
422.267	3.63
422.629	3.76
422.99	3.53
423.351	3.64
423.712	3.58
424.073	3.66
424.434	3.72
424.795	3.75
425.155	3.86
425.516	3.73
425.877	3.7
426.238	3.48
426.598	3.64
426.959	3.68
427.32	3.7
427.68	3.48
428.041	3.53
428.401	3.73
428.761	3.77
429.122	3.82
429.482	3.82
429.842	3.78
430.202	3.82
430.563	3.87
430.923	3.85
431.283	3.87
431.643	3.83
432.003	3.75
432.363	3.97
432.722	3.82
433.082	3.86
433.442	3.82
433.802	3.88
434.161	3.81
434.521	3.9
434.881	3.79
435.24	3.83
435.6	3.68
435.959	3.75
436.319	3.77
436.678	4.03
437.037	3.92
437.396	3.72
437.756	3.89
438.115	3.97
438.474	3.95
438.833	3.9
439.192	3.83
439.551	3.89
439.91	3.95
440.269	4.06
440.628	3.85
440.987	3.87
441.345	3.94
441.704	4.03
442.063	3.82
442.421	3.84
442.78	3.9
443.138	3.81
443.497	3.91
443.855	3.86
444.214	3.72
444.572	3.93
444.93	3.99
445.288	3.94
445.647	3.81
446.005	3.86
446.363	3.71
446.721	3.79
447.079	3.8
447.437	3.89
447.795	3.99
448.153	3.77
448.51	3.86
448.868	3.86
449.226	3.82
449.584	3.8
449.941	3.73
450.299	3.93
450.656	3.99
451.014	3.92
451.371	3.91
451.729	3.94
452.086	3.96
452.443	3.94
452.801	3.93
453.158	3.96
453.515	4.25
453.872	4.09
454.229	4.13
454.586	4.07
454.943	3.96
455.3	3.98
455.657	3.92
456.014	4.11
456.371	4.14
456.727	4.23
457.084	4.13
457.441	3.95
457.797	4.09
458.154	4.2
458.51	3.93
458.867	3.97
459.223	3.93
459.58	4.11
459.936	4.16
460.292	4.07
460.648	4.23
461.005	4.14
461.361	4.06
461.717	3.84
462.073	3.94
462.429	3.92
462.785	3.96
463.141	4.01
463.496	4.18
463.852	4.01
464.208	3.95
464.564	4.16
464.919	3.99
465.275	4.26
465.631	4.13
465.986	4.22
466.342	4.14
466.697	4.22
467.052	4.02
467.408	4.23
467.763	4
468.118	4.4
468.473	4.27
468.829	4.01
469.184	4.03
469.539	4.2
469.894	4.21
470.249	4.11
470.603	4.08
470.958	4.05
471.313	4.08
471.668	4.07
472.023	4.22
472.377	4.1
472.732	4.15
473.086	4.46
473.441	4.05
473.795	4.34
474.15	3.99
474.504	4.16
474.859	4.27
475.213	4.04
475.567	3.98
475.921	4.14
476.275	4.15
476.63	4.26
476.984	4.2
477.338	4.2
477.692	4.26
478.045	4.32
478.399	4.3
478.753	4.15
479.107	4.23
479.461	4.2
479.814	4.17
480.168	4.2
480.521	4.26
480.875	4.25
481.228	4.26
481.582	3.98
481.935	4.3
482.289	4.2
482.642	4.24
482.995	4.16
483.348	4.22
483.701	4.22
484.055	4.03
484.408	4.06
484.761	4.13
485.114	3.98
485.466	3.98
485.819	3.92
486.172	3.9
486.525	3.9
486.878	3.94
487.23	4.03
487.583	4.02
487.936	4.1
488.288	4.1
488.641	4.08
488.993	4.02
489.345	3.98
489.698	3.93
490.05	4
490.402	4.05
490.754	3.96
491.107	3.99
491.459	4.13
491.811	4.12
492.163	4.11
492.515	4.19
492.866	4.14
493.218	4.14
493.57	4.16
493.922	3.98
494.274	4.03
494.625	4.09
494.977	4.2
495.328	4.24
495.68	4.2
496.031	4.21
496.383	4.19
496.734	4.26
497.086	4.18
497.437	4.27
497.788	4.3
498.139	4.22
498.49	4.47
498.842	4.25
499.193	4.15
499.544	4.27
499.894	4.22
500.245	4.31
500.596	4.28
500.947	4.31
501.298	4.38
501.648	4.38
501.999	4.38
502.35	4.23
502.7	4.5
503.051	4.41
503.401	4.38
503.752	4.44
504.102	4.35
504.452	4.39
504.803	4.34
505.153	4.48
505.503	4.38
505.853	4.5
506.203	4.41
506.553	4.29
506.903	4.42
507.253	4.22
507.603	4.36
507.953	4.44
508.303	4.45
508.652	4.35
509.002	4.47
509.352	4.24
509.701	4.37
510.051	4.35
510.4	4.35
510.75	4.29
511.099	4.21
511.449	4.34
511.798	4.44
512.147	4.44
512.496	4.38
512.846	4.33
513.195	4.29
513.544	4.44
513.893	4.48
514.242	4.38
514.591	4.41
514.939	4.44
515.288	4.26
515.637	4.36
515.986	4.28
516.334	4.52
516.683	4.48
517.032	4.44
517.38	4.46
517.729	4.42
518.077	4.4
518.426	4.47
518.774	4.47
519.122	4.45
519.47	4.27
519.819	4.5
520.167	4.42
520.515	4.43
520.863	4.23
521.211	4.23
521.559	4.34
521.907	4.37
522.255	4.42
522.602	4.4
522.95	4.37
523.298	4.45
523.645	4.48
523.993	4.4
524.341	4.46
524.688	4.53
525.036	4.41
525.383	4.39
525.73	4.43
526.078	4.44
526.425	4.36
526.772	4.5
527.119	4.43
527.466	4.26
527.814	4.31
528.161	4.29
528.508	4.35
528.854	4.41
529.201	4.35
529.548	4.35
529.895	4.27
530.242	4.21
530.588	4.15
530.935	4.06
531.282	4.13
531.628	4.19
531.975	4.2
532.321	4.16
532.667	4.25
533.014	4.38
533.36	4.4
533.706	4.45
534.052	4.42
534.399	4.4
534.745	4.36
535.091	4.26
535.437	4.26
535.783	4.22
536.129	4.24
536.474	4.29
536.82	4.3
537.166	4.45
537.512	4.47
537.857	4.33
538.203	4.41
538.549	4.35
538.894	4.29
539.239	4.35
539.585	4.37
539.93	4.46
540.276	4.43
540.621	4.47
540.966	4.42
541.311	4.55
541.656	4.41
542.001	4.45
542.346	4.38
542.691	4.45
543.036	4.38
543.381	4.28
543.726	4.23
544.071	4.24
544.415	4.27
544.76	4.26
545.105	4.27
545.449	4.3
545.794	4.37
546.138	4.42
546.483	4.39
546.827	4.36
547.171	4.4
547.516	4.52
547.86	4.53
548.204	4.52
548.548	4.43
548.892	4.47
549.236	4.4
549.58	4.39
549.924	4.53
550.268	4.58
550.612	4.38
550.956	4.54
551.3	4.6
551.643	4.57
551.987	4.58
552.33	4.63
552.674	4.55
553.017	4.33
553.361	4.55
553.704	4.62
554.048	4.68
554.391	4.59
554.734	4.64
555.077	4.57
555.42	4.62
555.764	4.4
556.107	4.66
556.45	4.62
556.793	4.59
557.135	4.55
557.478	4.24
557.821	4.52
558.164	4.76
558.507	4.69
558.849	4.59
559.192	4.59
559.534	4.65
559.877	4.52
560.219	4.59
560.562	4.62
560.904	4.66
561.246	4.91
561.589	4.58
561.931	4.46
562.273	4.52
562.615	4.33
562.957	4.57
563.299	4.62
563.641	4.47
563.983	4.62
564.325	4.5
564.667	4.73
565.008	4.61
565.35	4.73
565.692	4.61
566.033	4.72
566.375	4.86
566.716	4.74
567.058	4.69
567.399	4.57
567.741	4.82
568.082	4.56
568.423	4.61
568.764	4.74
569.105	4.3
569.447	4.56
569.788	4.42
570.129	4.55
570.47	4.65
570.811	4.65
571.151	4.71
571.492	4.55
571.833	4.57
572.174	4.63
572.514	4.66
572.855	4.7
573.195	4.51
573.536	4.6
573.876	4.45
574.217	4.41
574.557	4.6
574.898	4.64
575.238	4.57
575.578	4.7
575.918	4.63
576.258	4.37
576.598	4.64
576.938	4.62
577.278	4.75
577.618	4.38
577.958	4.69
578.298	4.67
578.638	4.48
578.977	4.77
579.317	4.66
579.657	4.82
579.996	4.62
580.336	4.76
580.675	4.85
581.014	4.46
581.354	4.82
581.693	4.89
582.032	4.55
582.372	4.81
582.711	4.75
583.05	4.73
583.389	4.71
583.728	4.87
584.067	4.53
584.406	4.84
584.745	4.47
585.083	4.88
585.422	5
585.761	4.57
586.1	4.67
586.438	4.86
586.777	4.8
587.115	4.6
587.454	4.42
587.792	4.87
588.13	5
588.469	4.61
588.807	4.76
589.145	4.94
589.483	4.69
589.821	4.72
590.159	4.76
590.497	5.03
590.835	4.76
591.173	4.76
591.511	4.77
591.849	4.87
592.187	4.8
592.524	4.79
592.862	4.93
593.2	4.67
593.537	4.73
593.875	4.48
594.212	4.71
594.55	4.82
594.887	4.58
595.224	4.91
595.561	4.92
595.899	4.96
596.236	5.1
596.573	4.9
596.91	4.69
597.247	4.76
597.584	4.84
597.921	4.8
598.258	4.77
598.594	4.72
598.931	4.53
599.268	4.58
599.604	4.63
599.941	4.74
600.277	4.71
600.614	4.86
600.95	4.75
601.287	4.67
601.623	4.83
601.959	4.97
602.296	4.7
602.632	4.79
602.968	4.77
603.304	4.85
603.64	4.73
603.976	4.92
604.312	4.93
604.648	4.76
604.984	4.77
605.319	4.69
605.655	4.47
605.991	4.72
606.326	5
606.662	4.77
606.998	4.62
607.333	4.71
607.668	4.62
608.004	4.79
608.339	4.54
608.674	4.71
609.01	4.6
609.345	4.85
609.68	5.14
610.015	4.67
610.35	4.7
610.685	4.97
611.02	4.99
611.355	4.82
611.689	4.75
612.024	4.89
612.359	4.67
612.694	4.54
613.028	4.63
613.363	4.76
613.697	4.81
614.032	4.91
614.366	4.6
614.7	4.86
615.035	4.97
615.369	4.68
615.703	5.03
616.037	4.87
616.371	5.22
616.705	4.9
617.039	4.85
617.373	4.45
617.707	5.16
618.041	4.92
618.375	5.03
618.709	5.18
619.042	5.03
619.376	4.91
619.71	4.55
620.043	4.51
620.377	4.59
620.71	5.1
621.043	4.98
621.377	4.85
621.71	4.98
622.043	4.87
622.376	5.21
622.709	4.91
623.043	5.07
623.376	4.93
623.709	5.13
624.041	4.8
624.374	5.02
624.707	5.12
625.04	5.12
625.373	4.18
625.705	4.61
626.038	4.82
626.37	5.13
626.703	5.1
627.035	4.99
627.368	5.18
627.7	4.89
628.032	5.15
628.365	4.98
628.697	4.86
629.029	4.88
629.361	4.72
629.693	5.09
630.025	4.84
630.357	4.8
630.689	4.87
631.021	4.61
631.353	4.87
631.684	4.51
632.016	5.27
632.348	5
632.679	4.77
633.011	4.88
633.342	5.13
633.674	5.22
634.005	4.82
634.336	5.4
634.668	5.11
634.999	5.25
635.33	4.65
635.661	4.88
635.992	4.81
636.323	4.62
636.654	4.91
636.985	4.96
637.316	4.93
637.647	5.27
637.977	4.89
638.308	5.42
638.639	5.09
638.969	5.5
639.3	5.09
639.63	5
639.961	5.15
640.291	4.66
640.622	4.91
640.952	5.2
641.282	5.07
641.612	5
641.943	5.09
642.273	5.41
642.603	5.01
642.933	5.18
643.263	4.86
643.592	5.02
643.922	5.4
644.252	4.77
644.582	5.56
644.911	5.15
645.241	5.33
645.571	4.99
645.9	4.99
646.23	5.36
646.559	5.11
646.888	5.23
647.218	4.76
647.547	4.74
647.876	5.19
648.205	4.83
648.534	5.41
648.863	5.37
649.192	4.76
649.521	5.45
649.85	5.4
650.179	5.27
650.508	4.53
650.837	5.56
651.165	5.39
651.494	5.29
651.822	4.87
652.151	5.1
652.479	5.51
652.808	5.16
653.136	5.43
653.465	5.39
653.793	4.99
654.121	5.39
654.449	4.43
654.777	5.54
655.105	5.32
655.433	5.31
655.761	5.37
656.089	5.77
656.417	5.05
656.745	5.63
657.073	5.02
657.4	5.48
657.728	5.39
658.056	5.52
658.383	5.54
658.711	5.1
659.038	4.65
659.365	5.42
659.693	5.26
660.02	5.44
660.347	5.61
660.674	5.01
661.001	4.91
661.329	5.13
661.656	5.28
661.982	4.88
662.309	5.38
662.636	5.13
662.963	5.47
663.29	5.35
663.616	5.39
663.943	5.84
664.27	5.81
664.596	5.5
664.923	5.17
665.249	5.43
665.576	5.08
665.902	5.02
666.228	5.27
666.554	4.82
666.881	5.22
667.207	5.49
667.533	4.97
667.859	5.46
668.185	5.43
668.511	5.65
668.837	4.92
669.162	4.87
669.488	5.22
669.814	4.57
670.139	5.58
670.465	6.14
670.791	5.58
671.116	4.69
671.442	5.32
671.767	4.5
672.092	5.93
672.418	6.22
672.743	6.05
673.068	6.32
673.393	5.41
673.718	5.61
674.043	6.01
674.368	4.98
674.693	5.49
675.018	5.62
675.343	5.44
675.667	5.26
675.992	5.21
676.317	5.7
676.641	5.75
676.966	5.75
677.29	5.57
677.615	5.25
677.939	5.6
678.264	5.65
678.588	6.09
678.912	5.49
679.236	6.06
679.56	5.57
679.885	4.77
680.209	6.63
680.532	5.87
680.856	5.02
681.18	5.25
681.504	5.37
681.828	5.8
682.152	5.67
682.475	5.98
682.799	5.9
683.122	5.68
683.446	5.61
683.769	5.68
684.093	5.58
684.416	5.47
684.739	5.91
685.062	6.06
685.386	5.37
685.709	5.75
686.032	5.75
686.355	5.58
686.678	6.02
687.001	6.11
687.324	5.73
687.646	5.5
687.969	6.21
688.292	6.09
688.614	5.62
688.937	5.75
689.26	5.35
689.582	6.03
689.904	5.25
690.227	6.5
690.549	6.21
690.871	5.24
691.194	6.08
691.516	5.7
691.838	6.31
692.16	4.94
692.482	5.59
692.804	5.61
693.126	5.51
