Data from 0073_chest_Reflection__4__333.txt Node

Date: Fri Dec 16 16:43:54 CST 2022
User: ToomeyLab
Spectrometer: FLMS14357
Trigger mode: 0
Integration Time (sec): 1.000000E-2
Scans to average: 100
Electric dark correction enabled: true
Nonlinearity correction enabled: false
Boxcar width: 0
XAxis mode: Wavelengths
Number of Pixels in Spectrum: 2048
>>>>>Begin Spectral Data<<<<<
189.047	-1616.82
189.435	-1616.82
189.823	-1616.82
190.211	1215.99
190.599	1618.78
190.987	13.52
191.375	-152.88
191.763	76.35
192.151	-65.2
192.538	333.23
192.926	8.06
193.314	70.34
193.702	26.39
194.089	138.49
194.477	65.79
194.864	34.95
195.252	203.18
195.639	178.82
196.027	-1036.44
196.414	-8.91
196.801	42.67
197.189	91.54
197.576	91.15
197.963	42.24
198.351	-10.22
198.738	-255.29
199.125	25.48
199.512	41.11
199.899	-99.98
200.286	-23.23
200.673	13.44
201.06	28.7
201.447	10.79
201.833	28.3
202.22	39.98
202.607	-56.06
202.994	41.59
203.38	-110.53
203.767	29.71
204.154	-27.98
204.54	-1.81
204.927	18.34
205.313	-10.44
205.699	5.98
206.086	12.55
206.472	-39.58
206.858	8.85
207.245	-10.02
207.631	4.17
208.017	15.84
208.403	-24.37
208.789	-2.98
209.175	30.72
209.561	-35.12
209.947	-100.22
210.333	-56.18
210.719	-32.67
211.105	-18.11
211.491	-18.16
211.876	-22.46
212.262	-43
212.648	-99.57
213.034	1.27
213.419	23.99
213.805	-16.43
214.19	-28.68
214.576	0.77
214.961	-40.56
215.346	-75.27
215.732	-8.96
216.117	-23.4
216.502	-95.45
216.888	-42.95
217.273	18.05
217.658	-38.78
218.043	-22.28
218.428	-0.06
218.813	-24.31
219.198	-82.77
219.583	-14.01
219.968	-12.24
220.353	-7.92
220.738	-11.59
221.122	-11.33
221.507	-15.77
221.892	-1.63
222.276	-4.16
222.661	-3.05
223.046	2.31
223.43	-14.7
223.815	-6.97
224.199	-3.75
224.583	2.29
224.968	2.13
225.352	3.36
225.736	-4.65
226.121	-11.3
226.505	-0.9
226.889	0.43
227.273	0.88
227.657	0.44
228.041	-0.02
228.425	1
228.809	-0.43
229.193	-0.7
229.577	-0.75
229.961	2.3
230.344	2.11
230.728	1.21
231.112	0.94
231.495	0.22
231.879	0.15
232.263	-0.09
232.646	-0.86
233.03	-0.26
233.413	-0.67
233.797	3.2
234.18	-2.14
234.563	0.95
234.946	0.73
235.33	-0.28
235.713	0.02
236.096	1.52
236.479	1.16
236.862	1.87
237.245	2.9
237.628	1.83
238.011	0.79
238.394	4.1
238.777	1.13
239.16	-1.35
239.543	-0.96
239.925	0.91
240.308	1.66
240.691	0.37
241.073	0.53
241.456	0.76
241.838	1.67
242.221	1.12
242.603	1.28
242.986	2.06
243.368	1.47
243.75	1.06
244.133	1.17
244.515	1.29
244.897	1.79
245.279	1.41
245.661	0.72
246.043	1.47
246.425	1.37
246.807	2.23
247.189	1.55
247.571	1.57
247.953	1.52
248.335	1.64
248.717	1.46
249.098	1.62
249.48	1.03
249.862	1.74
250.243	1.63
250.625	1.38
251.006	1.89
251.388	1.85
251.769	0.56
252.151	0.72
252.532	1.27
252.913	1.4
253.295	1.13
253.676	2.04
254.057	0.9
254.438	1.08
254.819	0.19
255.2	1.6
255.581	2.08
255.962	1.18
256.343	1.42
256.724	1.45
257.105	0.66
257.486	0.38
257.867	0.67
258.247	0.74
258.628	1.24
259.009	1.19
259.389	1.55
259.77	1.13
260.15	2.21
260.531	1.43
260.911	1.45
261.292	1.41
261.672	1.44
262.052	1.68
262.432	1.62
262.813	1.67
263.193	0.84
263.573	1.66
263.953	1.38
264.333	1.29
264.713	0.49
265.093	0.24
265.473	2.1
265.853	0.93
266.233	0.38
266.612	1
266.992	1.15
267.372	1.09
267.752	0.84
268.131	0.99
268.511	1.19
268.89	1.6
269.27	1.69
269.649	1.67
270.029	1.28
270.408	1.02
270.787	0.71
271.167	1.58
271.546	1.14
271.925	1.66
272.304	1.63
272.683	1.13
273.062	1.76
273.441	1.63
273.82	1.77
274.199	1.87
274.578	1.06
274.957	1.2
275.336	1.38
275.715	1.94
276.093	1.51
276.472	1.44
276.851	1.24
277.229	1.98
277.608	1.27
277.986	1.47
278.365	0.97
278.743	1.34
279.122	1.29
279.5	1.33
279.878	0.22
280.257	1.71
280.635	0.96
281.013	1.58
281.391	1.47
281.769	1.44
282.147	1.55
282.525	1.32
282.903	1.69
283.281	1.37
283.659	1.9
284.037	1.09
284.415	1.34
284.792	1.62
285.17	0.76
285.548	1.33
285.925	1.33
286.303	1.12
286.68	1.33
287.058	1.29
287.435	1.36
287.813	1.43
288.19	1.89
288.567	1.4
288.945	1.45
289.322	1.36
289.699	1.95
290.076	1.99
290.453	1.31
290.83	1.54
291.207	1.28
291.584	1.3
291.961	1.8
292.338	1.55
292.715	2.11
293.092	1.34
293.469	1.77
293.845	1.69
294.222	1.91
294.599	2.04
294.975	1.2
295.352	1.29
295.728	1.6
296.105	1.39
296.481	2.11
296.858	1.57
297.234	1.65
297.61	1.31
297.986	1.88
298.363	1.4
298.739	1.63
299.115	1.63
299.491	1.65
299.867	1.64
300.243	1.43
300.619	1.24
300.995	2.11
301.371	2.03
301.746	1.66
302.122	2.02
302.498	1.73
302.874	1.35
303.249	1.92
303.625	1.68
304	1.47
304.376	1.77
304.751	2.06
305.127	1.56
305.502	1.97
305.878	1.61
306.253	1.88
306.628	1.55
307.003	1.85
307.378	1.76
307.754	1.53
308.129	1.27
308.504	1.52
308.879	1.49
309.254	1.96
309.629	1.23
310.003	2.14
310.378	2.13
310.753	2.06
311.128	1.76
311.502	1.67
311.877	1.75
312.252	1.83
312.626	1.55
313.001	1.63
313.375	1.73
313.75	2.23
314.124	2.06
314.498	1.65
314.873	1.53
315.247	2.06
315.621	1.71
315.995	1.65
316.369	1.98
316.743	1.94
317.117	1.94
317.491	1.43
317.865	1.12
318.239	2.37
318.613	1.91
318.987	1.6
319.361	2.03
319.734	1.49
320.108	1.58
320.482	1.72
320.855	1.8
321.229	2.02
321.602	1.71
321.976	1.94
322.349	1.33
322.723	0.94
323.096	1.22
323.469	0.98
323.843	1.76
324.216	1.1
324.589	2.35
324.962	1.98
325.335	1.74
325.708	2.15
326.081	2.35
326.454	2.14
326.827	2.05
327.2	2.25
327.573	1.81
327.945	1.86
328.318	2.27
328.691	1.83
329.063	1.98
329.436	1.55
329.809	1.57
330.181	1.64
330.553	2.69
330.926	2.12
331.298	1.83
331.671	2.21
332.043	2.13
332.415	2.36
332.787	2.4
333.159	1.42
333.532	1.97
333.904	2.11
334.276	2.39
334.648	2.07
335.02	1.58
335.391	2.28
335.763	1.96
336.135	1.85
336.507	2.22
336.879	1.59
337.25	2.11
337.622	1.98
337.993	2.32
338.365	2.04
338.736	2.11
339.108	1.06
339.479	1.99
339.851	2.43
340.222	2.37
340.593	1.65
340.964	2.09
341.336	1.48
341.707	1.69
342.078	1.65
342.449	2.3
342.82	1.9
343.191	1.68
343.562	2.11
343.933	2.09
344.303	2.03
344.674	2.38
345.045	2.65
345.416	2.21
345.786	1.67
346.157	2.02
346.527	2.21
346.898	1.95
347.268	2.32
347.639	1.88
348.009	1.74
348.38	2.14
348.75	2.08
349.12	2.07
349.49	2.1
349.861	2.3
350.231	2.46
350.601	2.28
350.971	2.25
351.341	2.34
351.711	1.88
352.081	1.83
352.45	2.53
352.82	2.17
353.19	2.16
353.56	2.16
353.929	1.92
354.299	2.14
354.669	2.22
355.038	1.86
355.408	2.24
355.777	2.11
356.147	2.51
356.516	2.66
356.885	2.17
357.254	2.32
357.624	2.21
357.993	2.26
358.362	2.21
358.731	1.93
359.1	2.29
359.469	2.28
359.838	2.24
360.207	2.01
360.576	2.25
360.945	2.26
361.314	2.35
361.682	1.97
362.051	2.16
362.42	2.46
362.788	2.27
363.157	2.01
363.525	2.11
363.894	1.98
364.262	2.04
364.631	2.48
364.999	1.66
365.367	2.55
365.735	2.13
366.104	2.07
366.472	2.52
366.84	2.24
367.208	2.05
367.576	2.07
367.944	2.16
368.312	1.92
368.68	2.41
369.048	2.46
369.416	2.23
369.783	2.47
370.151	2.32
370.519	2.13
370.886	2.4
371.254	2.25
371.621	2.3
371.989	2.29
372.356	2.52
372.724	2.39
373.091	2.26
373.458	2.41
373.826	2.27
374.193	2.69
374.56	2.42
374.927	2.68
375.294	2.75
375.661	2.63
376.028	2.29
376.395	2.2
376.762	2.52
377.129	2.28
377.496	2.39
377.863	2.31
378.229	2.45
378.596	2.43
378.963	2.2
379.329	2.2
379.696	2.48
380.062	2.61
380.429	2.39
380.795	2.01
381.161	2.64
381.528	2
381.894	2.47
382.26	2.26
382.626	2.27
382.993	2.18
383.359	2.19
383.725	2.57
384.091	2.32
384.457	2.3
384.823	2.56
385.188	2.6
385.554	2.5
385.92	2.88
386.286	2.69
386.651	2.29
387.017	2.54
387.383	2.27
387.748	2.03
388.114	2.54
388.479	2.37
388.845	2.33
389.21	2.41
389.575	2.47
389.94	2.65
390.306	2.41
390.671	2.45
391.036	2.52
391.401	2.58
391.766	2.66
392.131	2.49
392.496	2.54
392.861	2.19
393.226	2.32
393.591	2.64
393.956	2.57
394.32	2.45
394.685	2.51
395.05	2.46
395.414	2.61
395.779	2.37
396.143	2.56
396.508	2.68
396.872	2.66
397.236	2.16
397.601	2.48
397.965	2.14
398.329	2.64
398.694	2.22
399.058	2.51
399.422	2.72
399.786	2.29
400.15	2.46
400.514	2.62
400.878	2.27
401.242	2.53
401.605	2.59
401.969	2.35
402.333	2.42
402.697	2.73
403.06	2.69
403.424	2.52
403.787	2.57
404.151	2.42
404.514	2.72
404.878	2.58
405.241	2.57
405.604	2.73
405.968	2.44
406.331	2.6
406.694	2.58
407.057	2.97
407.42	2.68
407.783	2.49
408.146	2.55
408.509	2.56
408.872	2.45
409.235	2.86
409.598	2.59
409.961	2.56
410.323	2.68
410.686	2.74
411.049	2.45
411.411	2.58
411.774	2.69
412.136	2.71
412.499	2.69
412.861	2.33
413.223	2.65
413.586	2.57
413.948	2.79
414.31	2.63
414.672	2.63
415.035	2.87
415.397	2.65
415.759	2.55
416.121	2.78
416.483	2.87
416.845	2.73
417.206	2.98
417.568	2.72
417.93	2.77
418.292	2.75
418.653	2.8
419.015	2.83
419.377	2.74
419.738	2.71
420.1	2.6
420.461	2.66
420.822	2.65
421.184	2.62
421.545	2.65
421.906	2.81
422.267	2.62
422.629	2.67
422.99	2.62
423.351	2.66
423.712	2.71
424.073	2.74
424.434	2.72
424.795	2.64
425.155	2.62
425.516	2.64
425.877	2.77
426.238	2.64
426.598	2.74
426.959	2.65
427.32	2.81
427.68	2.9
428.041	2.82
428.401	2.71
428.761	2.67
429.122	2.82
429.482	2.72
429.842	2.81
430.202	2.76
430.563	2.78
430.923	2.73
431.283	2.99
431.643	2.8
432.003	2.75
432.363	2.85
432.722	2.68
433.082	2.88
433.442	2.87
433.802	2.85
434.161	2.77
434.521	2.94
434.881	2.9
435.24	2.76
435.6	2.86
435.959	2.86
436.319	2.87
436.678	2.89
437.037	2.99
437.396	2.83
437.756	2.89
438.115	2.83
438.474	3.05
438.833	2.94
439.192	2.97
439.551	2.97
439.91	2.82
440.269	3.02
440.628	2.9
440.987	2.79
441.345	2.87
441.704	2.9
442.063	2.92
442.421	2.94
442.78	2.83
443.138	2.87
443.497	2.75
443.855	2.96
444.214	2.93
444.572	2.88
444.93	2.8
445.288	2.99
445.647	2.87
446.005	2.83
446.363	2.86
446.721	2.77
447.079	2.88
447.437	2.92
447.795	2.93
448.153	2.86
448.51	2.85
448.868	3
449.226	2.92
449.584	2.87
449.941	3.12
450.299	2.8
450.656	2.97
451.014	2.99
451.371	2.97
451.729	2.91
452.086	2.86
452.443	2.97
452.801	2.96
453.158	3.07
453.515	3
453.872	3.25
454.229	2.97
454.586	3.08
454.943	2.97
455.3	3.08
455.657	3.1
456.014	3.03
456.371	3.04
456.727	2.9
457.084	3
457.441	2.86
457.797	3.14
458.154	3.02
458.51	3.08
458.867	3.02
459.223	3.11
459.58	2.96
459.936	2.92
460.292	3.21
460.648	2.93
461.005	2.99
461.361	2.96
461.717	2.94
462.073	2.99
462.429	3
462.785	3.16
463.141	3.17
463.496	3.05
463.852	3.16
464.208	3.16
464.564	3.09
464.919	2.98
465.275	3.09
465.631	3.1
465.986	3.04
466.342	3.2
466.697	3.19
467.052	3.28
467.408	3.26
467.763	2.9
468.118	3.09
468.473	3.31
468.829	3
469.184	3.27
469.539	3.09
469.894	3.14
470.249	3.06
470.603	3.33
470.958	3.05
471.313	3.12
471.668	3.31
472.023	3.3
472.377	3.05
472.732	3.16
473.086	3.22
473.441	3.26
473.795	3.24
474.15	3.12
474.504	3.15
474.859	3.19
475.213	3.28
475.567	3.07
475.921	3.21
476.275	3.24
476.63	3.21
476.984	3.29
477.338	3.46
477.692	3.27
478.045	3.21
478.399	3.26
478.753	3.19
479.107	3.15
479.461	3.28
479.814	3.15
480.168	3.35
480.521	3.22
480.875	3.44
481.228	3.3
481.582	3.24
481.935	3.21
482.289	3.1
482.642	3.3
482.995	3.31
483.348	3.16
483.701	3.32
484.055	3.19
484.408	3.15
484.761	3.02
485.114	3.01
485.466	3.03
485.819	3.1
486.172	3.15
486.525	3.24
486.878	3.25
487.23	3.23
487.583	3.24
487.936	3.24
488.288	3.17
488.641	3.19
488.993	3.12
489.345	3.11
489.698	3.22
490.05	3.25
490.402	3.32
490.754	3.34
491.107	3.25
491.459	3.39
491.811	3.42
492.163	3.37
492.515	3.32
492.866	3.15
493.218	3.27
493.57	3.27
493.922	3.33
494.274	3.37
494.625	3.32
494.977	3.37
495.328	3.46
495.68	3.5
496.031	3.43
496.383	3.43
496.734	3.55
497.086	3.35
497.437	3.5
497.788	3.36
498.139	3.57
498.49	3.36
498.842	3.5
499.193	3.48
499.544	3.59
499.894	3.5
500.245	3.48
500.596	3.49
500.947	3.51
501.298	3.47
501.648	3.52
501.999	3.69
502.35	3.63
502.7	3.67
503.051	3.71
503.401	3.63
503.752	3.49
504.102	3.56
504.452	3.46
504.803	3.46
505.153	3.69
505.503	3.5
505.853	3.58
506.203	3.53
506.553	3.56
506.903	3.64
507.253	3.63
507.603	3.56
507.953	3.72
508.303	3.8
508.652	3.64
509.002	3.68
509.352	3.68
509.701	3.53
510.051	3.71
510.4	3.6
510.75	3.64
511.099	3.64
511.449	3.7
511.798	3.85
512.147	3.67
512.496	3.8
512.846	3.72
513.195	3.68
513.544	3.72
513.893	3.59
514.242	3.77
514.591	3.78
514.939	3.74
515.288	3.75
515.637	3.79
515.986	3.77
516.334	3.88
516.683	3.78
517.032	3.72
517.38	3.85
517.729	3.84
518.077	3.89
518.426	3.69
518.774	3.81
519.122	3.78
519.47	3.77
519.819	3.81
520.167	3.75
520.515	3.7
520.863	3.89
521.211	3.78
521.559	3.75
521.907	3.84
522.255	3.96
522.602	3.91
522.95	3.89
523.298	3.9
523.645	3.96
523.993	4.04
524.341	3.86
524.688	3.93
525.036	4.1
525.383	4
525.73	3.94
526.078	3.98
526.425	4.01
526.772	3.85
527.119	3.81
527.466	3.88
527.814	3.93
528.161	4
528.508	3.95
528.854	3.81
529.201	3.88
529.548	3.86
529.895	3.79
530.242	3.86
530.588	3.86
530.935	3.92
531.282	3.97
531.628	3.97
531.975	4.01
532.321	4.06
532.667	4.09
533.014	4.1
533.36	4.01
533.706	4.04
534.052	4.02
534.399	3.99
534.745	3.99
535.091	4.01
535.437	4.05
535.783	4.14
536.129	4.19
536.474	4.28
536.82	4.21
537.166	4.22
537.512	4.22
537.857	4.24
538.203	4.19
538.549	4.34
538.894	4.19
539.239	4.34
539.585	4.42
539.93	4.4
540.276	4.32
540.621	4.35
540.966	4.36
541.311	4.42
541.656	4.28
542.001	4.37
542.346	4.25
542.691	4.2
543.036	4.24
543.381	4.27
543.726	4.33
544.071	4.4
544.415	4.39
544.76	4.36
545.105	4.44
545.449	4.38
545.794	4.42
546.138	4.64
546.483	4.43
546.827	4.68
547.171	4.5
547.516	4.64
547.86	4.45
548.204	4.54
548.548	4.61
548.892	4.64
549.236	4.66
549.58	4.64
549.924	4.67
550.268	4.74
550.612	4.83
550.956	4.59
551.3	4.81
551.643	4.79
551.987	4.74
552.33	4.76
552.674	5.03
553.017	4.85
553.361	4.94
553.704	4.72
554.048	4.89
554.391	4.89
554.734	4.84
555.077	5.08
555.42	4.91
555.764	4.94
556.107	4.91
556.45	4.95
556.793	5.07
557.135	5.21
557.478	5.13
557.821	4.93
558.164	5.07
558.507	5.05
558.849	5.01
559.192	5.18
559.534	4.92
559.877	5.19
560.219	5.24
560.562	5.26
560.904	5.13
561.246	5.15
561.589	5.33
561.931	5.22
562.273	5.17
562.615	5.34
562.957	5.34
563.299	5.3
563.641	5.32
563.983	5.21
564.325	5.12
564.667	5.49
565.008	5.39
565.35	5.51
565.692	5.46
566.033	5.55
566.375	5.21
566.716	5.35
567.058	5.33
567.399	5.48
567.741	5.51
568.082	5.46
568.423	5.58
568.764	5.58
569.105	5.49
569.447	5.56
569.788	5.63
570.129	5.47
570.47	5.58
570.811	5.48
571.151	5.6
571.492	5.67
571.833	5.59
572.174	5.74
572.514	5.44
572.855	5.79
573.195	5.65
573.536	5.77
573.876	5.7
574.217	5.76
574.557	5.86
574.898	5.69
575.238	5.71
575.578	5.93
575.918	5.87
576.258	5.89
576.598	5.87
576.938	6.12
577.278	5.75
577.618	5.87
577.958	6.05
578.298	6.01
578.638	5.86
578.977	6.04
579.317	6.2
579.657	5.81
579.996	6.02
580.336	6.01
580.675	6.25
581.014	6.2
581.354	6.17
581.693	6.1
582.032	6.23
582.372	6.33
582.711	6.41
583.05	6.48
583.389	6.35
583.728	6.5
584.067	6.39
584.406	6.46
584.745	6.37
585.083	6.65
585.422	6.53
585.761	6.41
586.1	6.68
586.438	6.47
586.777	6.55
587.115	6.71
587.454	6.66
587.792	6.34
588.13	6.93
588.469	6.93
588.807	6.93
589.145	6.81
589.483	6.63
589.821	6.65
590.159	6.67
590.497	6.54
590.835	6.62
591.173	6.86
591.511	6.89
591.849	6.97
592.187	6.66
592.524	6.78
592.862	6.89
593.2	6.88
593.537	6.96
593.875	7.12
594.212	6.95
594.55	7.07
594.887	6.87
595.224	6.92
595.561	7.2
595.899	7.07
596.236	7.26
596.573	7.01
596.91	6.97
597.247	7.01
597.584	7.06
597.921	7.27
598.258	7.11
598.594	7.16
598.931	7.03
599.268	7.1
599.604	7.31
599.941	7.37
600.277	7.22
600.614	7.19
600.95	7.54
601.287	7.42
601.623	7.59
601.959	7.44
602.296	7.39
602.632	7.7
602.968	7.5
603.304	7.51
603.64	7.31
603.976	7.47
604.312	7.51
604.648	7.74
604.984	7.65
605.319	7.59
605.655	7.71
605.991	7.7
606.326	7.53
606.662	7.71
606.998	7.66
607.333	7.7
607.668	7.71
608.004	7.78
608.339	7.86
608.674	7.57
609.01	7.71
609.345	8.03
609.68	7.73
610.015	7.93
610.35	7.84
610.685	7.72
611.02	7.97
611.355	7.95
611.689	8
612.024	8.27
612.359	8.13
612.694	8.22
613.028	8.55
613.363	8.09
613.697	8.27
614.032	8.22
614.366	8.05
614.7	8.53
615.035	8.44
615.369	8.26
615.703	8.97
616.037	8.63
616.371	8.36
616.705	8.23
617.039	8.42
617.373	8.42
617.707	8.42
618.041	8.93
618.375	8.43
618.709	8.52
619.042	8.69
619.376	8.32
619.71	8.45
620.043	8.61
620.377	8.83
620.71	8.99
621.043	8.6
621.377	8.7
621.71	8.98
622.043	8.83
622.376	8.88
622.709	8.94
623.043	9.08
623.376	8.77
623.709	8.79
624.041	8.85
624.374	8.93
624.707	8.97
625.04	9.06
625.373	9.26
625.705	9.45
626.038	8.97
626.37	9.32
626.703	9.07
627.035	9.42
627.368	9.39
627.7	9.22
628.032	9.18
628.365	8.98
628.697	9.06
629.029	9.46
629.361	9.34
629.693	9.63
630.025	9.57
630.357	9.18
630.689	9.74
631.021	9.52
631.353	9.66
631.684	9.32
632.016	9.15
632.348	9.52
632.679	9.46
633.011	9.45
633.342	9.71
633.674	9.51
634.005	9.79
634.336	9.7
634.668	9.69
634.999	9.51
635.33	9.77
635.661	9.68
635.992	9.55
636.323	9.67
636.654	9.58
636.985	9.66
637.316	9.8
637.647	10.22
637.977	9.81
638.308	9.81
638.639	9.89
638.969	9.88
639.3	10.09
639.63	9.86
639.961	9.89
640.291	10.47
640.622	10.35
640.952	10.08
641.282	10.07
641.612	10.1
641.943	10.47
642.273	10.11
642.603	10.19
642.933	10.53
643.263	10.22
643.592	10.52
643.922	11
644.252	10.19
644.582	10.59
644.911	10.65
645.241	10.39
645.571	10.47
645.9	10.62
646.23	10.27
646.559	10.49
646.888	10.52
647.218	10.72
647.547	11.08
647.876	11.08
648.205	10.24
648.534	10.61
648.863	10.8
649.192	10.22
649.521	10.37
649.85	10.54
650.179	10.61
650.508	10.9
650.837	10.92
651.165	11.06
651.494	10.71
651.822	10.92
652.151	11.15
652.479	11.43
652.808	10.57
653.136	10.97
653.465	10.85
653.793	11.26
654.121	11.65
654.449	11.25
654.777	11.44
655.105	11.17
655.433	11.46
655.761	11.1
656.089	11.49
656.417	11.23
656.745	11.99
657.073	11.76
657.4	11.46
657.728	11.38
658.056	11.41
658.383	11.48
658.711	11.06
659.038	11.7
659.365	11.51
659.693	11.2
660.02	11.31
660.347	11.51
660.674	11.38
661.001	11.4
661.329	11.44
661.656	11.73
661.982	11.62
662.309	11.45
662.636	11.91
662.963	12.38
663.29	11.86
663.616	12.14
663.943	12.02
664.27	11.64
664.596	11.81
664.923	12.08
665.249	12.09
665.576	12.23
665.902	11.62
666.228	11.81
666.554	12.07
666.881	12.17
667.207	11.85
667.533	11.96
667.859	12.3
668.185	12.03
668.511	11.93
668.837	11.16
669.162	11.82
669.488	11.98
669.814	12.38
670.139	12.58
670.465	12.34
670.791	12.51
671.116	12.07
671.442	12.27
671.767	12.18
672.092	12.43
672.418	11.67
672.743	12.18
673.068	12.13
673.393	12.88
673.718	12.38
674.043	12.5
674.368	13.1
674.693	12.42
675.018	12.77
675.343	13.29
675.667	12.89
675.992	12.46
676.317	13.13
676.641	12.87
676.966	12.65
677.29	12.64
677.615	12.81
677.939	13.08
678.264	12.95
678.588	12.46
678.912	12.7
679.236	13.13
679.56	12.79
679.885	13.62
680.209	13.05
680.532	12.98
680.856	13.37
681.18	13.14
681.504	12.73
681.828	12.88
682.152	12.76
682.475	13.02
682.799	12.93
683.122	12.88
683.446	13.25
683.769	13.88
684.093	13.28
684.416	13.6
684.739	13.71
685.062	13.08
685.386	12.89
685.709	13.51
686.032	12.93
686.355	13.37
686.678	13
687.001	12.38
687.324	12.63
687.646	13.46
687.969	13.03
