Data from 0073_crown_Reflection__2__336.txt Node

Date: Fri Dec 16 16:45:26 CST 2022
User: ToomeyLab
Spectrometer: FLMS14357
Trigger mode: 0
Integration Time (sec): 1.000000E-2
Scans to average: 100
Electric dark correction enabled: true
Nonlinearity correction enabled: false
Boxcar width: 0
XAxis mode: Wavelengths
Number of Pixels in Spectrum: 2048
>>>>>Begin Spectral Data<<<<<
189.047	-926.3
189.435	-926.3
189.823	-926.3
190.211	1089.59
190.599	979.1
190.987	-207.22
191.375	-13.05
191.763	72.99
192.151	84.24
192.538	731.29
192.926	-110
193.314	26.51
193.702	111.29
194.089	-97.77
194.477	-40.93
194.864	-30.13
195.252	261.03
195.639	107.04
196.027	9.32
196.414	11.63
196.801	40.22
197.189	150.62
197.576	-103.52
197.963	30.17
198.351	54.29
198.738	210.35
199.125	28.92
199.512	-21.18
199.899	-47.71
200.286	-46.62
200.673	61.42
201.06	40.92
201.447	62.31
201.833	6.78
202.22	15.76
202.607	47.61
202.994	-62.3
203.38	31.48
203.767	-67.35
204.154	-43.72
204.54	26.76
204.927	13.15
205.313	49.68
205.699	17.94
206.086	-16.97
206.472	-33.53
206.858	20.91
207.245	34.61
207.631	-13.33
208.017	-1.12
208.403	-10.38
208.789	13.91
209.175	71.57
209.561	19.83
209.947	2.46
210.333	-15.79
210.719	8.77
211.105	-3.76
211.491	-16.31
211.876	-25.26
212.262	-61.49
212.648	-13.99
213.034	-10.74
213.419	-10.69
213.805	-10.39
214.19	-56.96
214.576	-13.16
214.961	-5.09
215.346	-56.78
215.732	-11.51
216.117	-5.16
216.502	13.5
216.888	-35.78
217.273	28.17
217.658	-31.09
218.043	-11.03
218.428	-0.48
218.813	6.55
219.198	-75.82
219.583	3.18
219.968	-10.24
220.353	16.01
220.738	-11.83
221.122	-18.82
221.507	-11.3
221.892	-5.15
222.276	10.62
222.661	-1.26
223.046	-4.42
223.43	-3.97
223.815	6.47
224.199	13.06
224.583	-6.87
224.968	9.88
225.352	-1.37
225.736	6.41
226.121	-2.07
226.505	7.82
226.889	8.68
227.273	6.18
227.657	1
228.041	3.89
228.425	9.68
228.809	5.25
229.193	5.32
229.577	5.29
229.961	6.47
230.344	7.05
230.728	6.75
231.112	6.82
231.495	4.99
231.879	7.26
232.263	4.86
232.646	5.19
233.03	4.47
233.413	4.37
233.797	8.41
234.18	2.42
234.563	5.4
234.946	4.59
235.33	7.12
235.713	6.31
236.096	4.83
236.479	6.23
236.862	6.12
237.245	5.74
237.628	6.47
238.011	4.78
238.394	6.64
238.777	5.79
239.16	3.03
239.543	3.11
239.925	6.43
240.308	6.26
240.691	6.84
241.073	6.07
241.456	5.9
241.838	5.78
242.221	5.42
242.603	5.75
242.986	7.37
243.368	6.01
243.75	6.05
244.133	5.83
244.515	6.21
244.897	5.64
245.279	5.84
245.661	6.48
246.043	6.64
246.425	5.18
246.807	6.84
247.189	5.53
247.571	5.86
247.953	5.88
248.335	6.16
248.717	6.03
249.098	6.09
249.48	5.73
249.862	5.71
250.243	6
250.625	5.97
251.006	4.88
251.388	5.54
251.769	4.99
252.151	5.91
252.532	5.66
252.913	6.49
253.295	5.77
253.676	5.62
254.057	5.3
254.438	5.72
254.819	5.52
255.2	5.43
255.581	4.19
255.962	5.18
256.343	5.78
256.724	4.73
257.105	5.76
257.486	5.38
257.867	4.31
258.247	4.33
258.628	5.27
259.009	5.14
259.389	5.1
259.77	5.12
260.15	6.32
260.531	5.33
260.911	5.36
261.292	5.56
261.672	5.55
262.052	5.33
262.432	5.18
262.813	5.6
263.193	4.66
263.573	4.78
263.953	5.11
264.333	5.43
264.713	4.86
265.093	4.7
265.473	5.84
265.853	5.06
266.233	5.64
266.612	5.48
266.992	4.7
267.372	5.27
267.752	4.67
268.131	5.32
268.511	5.38
268.89	5.16
269.27	5.7
269.649	5.7
270.029	5.37
270.408	5.05
270.787	5.41
271.167	5.55
271.546	4.49
271.925	5.11
272.304	5.18
272.683	5.02
273.062	5.08
273.441	5.54
273.82	5.54
274.199	5.31
274.578	5.37
274.957	4.83
275.336	5.18
275.715	5.3
276.093	5.68
276.472	5.48
276.851	5.33
277.229	5.42
277.608	4.28
277.986	4.58
278.365	4.88
278.743	4.85
279.122	4.7
279.5	4.58
279.878	4.64
280.257	4.72
280.635	4.77
281.013	5.23
281.391	5.15
281.769	4.67
282.147	4.97
282.525	4.74
282.903	4.85
283.281	4.66
283.659	4.71
284.037	4.9
284.415	5.3
284.792	5.03
285.17	4.64
285.548	4.54
285.925	4.67
286.303	4.68
286.68	5.29
287.058	4.66
287.435	4.73
287.813	5
288.19	5
288.567	4.95
288.945	4.67
289.322	4.62
289.699	4.79
290.076	4.81
290.453	4.69
290.83	4.81
291.207	4.66
291.584	4.66
291.961	4.67
292.338	4.67
292.715	4.71
293.092	4.39
293.469	4.47
293.845	4.3
294.222	4.51
294.599	4.53
294.975	4.61
295.352	3.91
295.728	4.57
296.105	4.18
296.481	4.88
296.858	4.62
297.234	4.57
297.61	4.58
297.986	4.7
298.363	4.24
298.739	4.65
299.115	4.29
299.491	4.49
299.867	4.3
300.243	4.45
300.619	4.53
300.995	4.66
301.371	4.37
301.746	4.29
302.122	4.58
302.498	4.18
302.874	4.63
303.249	4.33
303.625	4.56
304	4.06
304.376	4.8
304.751	4.42
305.127	4.59
305.502	4.75
305.878	4.39
306.253	3.93
306.628	4.82
307.003	4.86
307.378	3.84
307.754	4.75
308.129	3.72
308.504	3.92
308.879	4.45
309.254	4.19
309.629	4.44
310.003	4.5
310.378	4.31
310.753	4.41
311.128	4.17
311.502	3.93
311.877	4.33
312.252	4.05
312.626	3.68
313.001	4
313.375	4.28
313.75	3.79
314.124	4.76
314.498	3.34
314.873	4.04
315.247	3.74
315.621	4.31
315.995	4.23
316.369	4.68
316.743	4.36
317.117	4.39
317.491	3.92
317.865	3.77
318.239	4.11
318.613	4.73
318.987	4.64
319.361	4.08
319.734	4.55
320.108	4.51
320.482	4.12
320.855	4.28
321.229	4.99
321.602	3.85
321.976	4.21
322.349	3.48
322.723	4.08
323.096	3.73
323.469	3.56
323.843	3.74
324.216	3.71
324.589	5.05
324.962	4.23
325.335	4.49
325.708	4.38
326.081	4.59
326.454	4.62
326.827	4.16
327.2	4.95
327.573	4.15
327.945	3.97
328.318	4.61
328.691	4.28
329.063	4.11
329.436	3.93
329.809	4.12
330.181	4.08
330.553	4.12
330.926	3.57
331.298	3.55
331.671	4.04
332.043	4.44
332.415	4.34
332.787	5.04
333.159	4.29
333.532	3.85
333.904	4.14
334.276	3.98
334.648	4.34
335.02	3.74
335.391	4.27
335.763	4.39
336.135	4.4
336.507	4.72
336.879	4.29
337.25	4.19
337.622	4.4
337.993	4.46
338.365	4.4
338.736	4.38
339.108	3.75
339.479	4.04
339.851	4.69
340.222	3.91
340.593	4.07
340.964	4.08
341.336	3.64
341.707	3.92
342.078	4.06
342.449	4.57
342.82	4.32
343.191	4.1
343.562	4.35
343.933	4.36
344.303	4.53
344.674	4.23
345.045	4.57
345.416	4.14
345.786	4.17
346.157	3.82
346.527	4.22
346.898	4.14
347.268	3.92
347.639	4.18
348.009	4.15
348.38	4.16
348.75	4.3
349.12	3.86
349.49	4.4
349.861	4.15
350.231	4.35
350.601	4.07
350.971	4.32
351.341	4.25
351.711	3.98
352.081	4.4
352.45	4.69
352.82	4.6
353.19	4.44
353.56	4.26
353.929	4.4
354.299	4.39
354.669	4.53
355.038	4.51
355.408	5.03
355.777	4.43
356.147	4.56
356.516	4.6
356.885	4.24
357.254	4.49
357.624	4.46
357.993	4.1
358.362	4.38
358.731	4.27
359.1	4.85
359.469	4.16
359.838	4.26
360.207	4.58
360.576	4.81
360.945	4.39
361.314	4.65
361.682	4.01
362.051	4.36
362.42	4.51
362.788	4.68
363.157	4.31
363.525	4.53
363.894	4.32
364.262	4.31
364.631	5.08
364.999	4.38
365.367	4.98
365.735	4.38
366.104	4.16
366.472	4.6
366.84	4.75
367.208	4.28
367.576	4.51
367.944	4.9
368.312	4.04
368.68	4.59
369.048	4.45
369.416	4.61
369.783	4.87
370.151	4.54
370.519	4.26
370.886	4.47
371.254	4.77
371.621	4.71
371.989	4.58
372.356	4.71
372.724	4.67
373.091	4.63
373.458	4.42
373.826	4.44
374.193	5.14
374.56	4.11
374.927	4.67
375.294	5.07
375.661	4.57
376.028	4.56
376.395	4.82
376.762	5.17
377.129	5.06
377.496	4.61
377.863	4.93
378.229	4.47
378.596	4.71
378.963	4.54
379.329	4.64
379.696	4.75
380.062	4.98
380.429	4.67
380.795	4.54
381.161	4.59
381.528	4.42
381.894	5
382.26	4.69
382.626	4.79
382.993	4.37
383.359	4.81
383.725	4.71
384.091	4.73
384.457	4.81
384.823	4.93
385.188	4.83
385.554	4.75
385.92	4.84
386.286	4.67
386.651	4.68
387.017	4.96
387.383	4.77
387.748	4.7
388.114	4.64
388.479	4.81
388.845	4.71
389.21	4.71
389.575	5.09
389.94	4.57
390.306	5.19
390.671	4.87
391.036	4.8
391.401	5.25
391.766	5.04
392.131	4.77
392.496	4.78
392.861	4.72
393.226	4.88
393.591	4.78
393.956	4.9
394.32	4.74
394.685	5.2
395.05	4.67
395.414	4.79
395.779	4.87
396.143	4.93
396.508	5.03
396.872	5.06
397.236	4.67
397.601	5.1
397.965	4.66
398.329	4.96
398.694	4.51
399.058	4.81
399.422	4.84
399.786	4.89
400.15	5.04
400.514	5.08
400.878	4.75
401.242	5.25
401.605	4.9
401.969	4.92
402.333	4.83
402.697	5.24
403.06	4.93
403.424	4.93
403.787	5.28
404.151	4.71
404.514	4.88
404.878	5.2
405.241	5.13
405.604	5.02
405.968	4.98
406.331	4.98
406.694	5.03
407.057	5.36
407.42	4.92
407.783	5
408.146	4.84
408.509	4.89
408.872	4.96
409.235	5.09
409.598	5.17
409.961	5.22
410.323	5.16
410.686	4.93
411.049	4.87
411.411	5.07
411.774	4.94
412.136	5.26
412.499	4.83
412.861	5.01
413.223	5.07
413.586	4.9
413.948	5.16
414.31	5.24
414.672	5.3
415.035	5.33
415.397	5.19
415.759	5.1
416.121	5.27
416.483	5.08
416.845	5.25
417.206	5.09
417.568	5.07
417.93	5.02
418.292	4.95
418.653	5.02
419.015	5.17
419.377	5.09
419.738	5.04
420.1	5
420.461	5
420.822	5.11
421.184	5
421.545	5.04
421.906	5.15
422.267	4.88
422.629	4.95
422.99	5.01
423.351	5.09
423.712	5.17
424.073	5.16
424.434	4.98
424.795	5.05
425.155	5.06
425.516	4.99
425.877	5.05
426.238	5.08
426.598	5.03
426.959	4.88
427.32	5.14
427.68	5.14
428.041	5.14
428.401	5.1
428.761	5.17
429.122	4.98
429.482	5.08
429.842	5.23
430.202	5.1
430.563	5.17
430.923	5.2
431.283	5.29
431.643	5.27
432.003	5.22
432.363	5.38
432.722	5.09
433.082	4.93
433.442	5.19
433.802	5.21
434.161	5.2
434.521	5.28
434.881	5.14
435.24	5.14
435.6	5.11
435.959	5.19
436.319	5.17
436.678	5.19
437.037	5.25
437.396	5.21
437.756	5.29
438.115	5.3
438.474	5.44
438.833	5.37
439.192	5.38
439.551	5.25
439.91	5.26
440.269	5.37
440.628	5.24
440.987	5.16
441.345	5.16
441.704	5.37
442.063	5.27
442.421	5.26
442.78	5.16
443.138	5.19
443.497	5.12
443.855	5.16
444.214	5.34
444.572	5.28
444.93	5.31
445.288	5.41
445.647	5.34
446.005	5.07
446.363	5.2
446.721	5.22
447.079	5.2
447.437	5.24
447.795	5.19
448.153	5.18
448.51	5.15
448.868	5.4
449.226	5.18
449.584	5.24
449.941	5.34
450.299	5.24
450.656	5.41
451.014	5.4
451.371	5.45
451.729	5.31
452.086	5.26
452.443	5.3
452.801	5.38
453.158	5.46
453.515	5.29
453.872	5.3
454.229	5.28
454.586	5.27
454.943	5.29
455.3	5.55
455.657	5.33
456.014	5.46
456.371	5.48
456.727	5.42
457.084	5.19
457.441	5.39
457.797	5.46
458.154	5.37
458.51	5.42
458.867	5.33
459.223	5.18
459.58	5.3
459.936	5.18
460.292	5.32
460.648	5.18
461.005	5.13
461.361	5.22
461.717	5.25
462.073	5.38
462.429	5.42
462.785	5.55
463.141	5.47
463.496	5.32
463.852	5.6
464.208	5.46
464.564	5.42
464.919	5.42
465.275	5.51
465.631	5.58
465.986	5.32
466.342	5.44
466.697	5.41
467.052	5.51
467.408	5.5
467.763	5.29
468.118	5.41
468.473	5.63
468.829	5.37
469.184	5.46
469.539	5.44
469.894	5.49
470.249	5.42
470.603	5.73
470.958	5.62
471.313	5.35
471.668	5.5
472.023	5.62
472.377	5.44
472.732	5.55
473.086	5.33
473.441	5.45
473.795	5.47
474.15	5.4
474.504	5.44
474.859	5.59
475.213	5.59
475.567	5.46
475.921	5.59
476.275	5.55
476.63	5.51
476.984	5.4
477.338	5.85
477.692	5.49
478.045	5.46
478.399	5.47
478.753	5.27
479.107	5.39
479.461	5.53
479.814	5.46
480.168	5.52
480.521	5.52
480.875	5.67
481.228	5.63
481.582	5.45
481.935	5.39
482.289	5.44
482.642	5.59
482.995	5.52
483.348	5.32
483.701	5.39
484.055	5.39
484.408	5.32
484.761	5.11
485.114	5.01
485.466	5.08
485.819	5.15
486.172	5.23
486.525	5.29
486.878	5.34
487.23	5.36
487.583	5.31
487.936	5.37
488.288	5.22
488.641	5.24
488.993	5.12
489.345	5.17
489.698	5.24
490.05	5.26
490.402	5.31
490.754	5.4
491.107	5.38
491.459	5.45
491.811	5.44
492.163	5.44
492.515	5.31
492.866	5.24
493.218	5.24
493.57	5.34
493.922	5.33
494.274	5.42
494.625	5.39
494.977	5.53
495.328	5.6
495.68	5.66
496.031	5.57
496.383	5.5
496.734	5.6
497.086	5.46
497.437	5.52
497.788	5.42
498.139	5.45
498.49	5.51
498.842	5.43
499.193	5.54
499.544	5.64
499.894	5.55
500.245	5.49
500.596	5.53
500.947	5.42
501.298	5.5
501.648	5.54
501.999	5.77
502.35	5.71
502.7	5.63
503.051	5.68
503.401	5.51
503.752	5.5
504.102	5.52
504.452	5.4
504.803	5.5
505.153	5.68
505.503	5.47
505.853	5.42
506.203	5.48
506.553	5.65
506.903	5.56
507.253	5.53
507.603	5.49
507.953	5.56
508.303	5.53
508.652	5.4
509.002	5.6
509.352	5.65
509.701	5.55
510.051	5.53
510.4	5.41
510.75	5.6
511.099	5.51
511.449	5.5
511.798	5.59
512.147	5.44
512.496	5.57
512.846	5.48
513.195	5.43
513.544	5.41
513.893	5.25
514.242	5.53
514.591	5.54
514.939	5.35
515.288	5.58
515.637	5.63
515.986	5.53
516.334	5.52
516.683	5.6
517.032	5.49
517.38	5.57
517.729	5.54
518.077	5.52
518.426	5.42
518.774	5.51
519.122	5.47
519.47	5.43
519.819	5.36
520.167	5.39
520.515	5.4
520.863	5.47
521.211	5.36
521.559	5.4
521.907	5.48
522.255	5.48
522.602	5.53
522.95	5.52
523.298	5.53
523.645	5.45
523.993	5.48
524.341	5.53
524.688	5.53
525.036	5.57
525.383	5.55
525.73	5.43
526.078	5.56
526.425	5.46
526.772	5.32
527.119	5.24
527.466	5.3
527.814	5.35
528.161	5.42
528.508	5.37
528.854	5.28
529.201	5.31
529.548	5.21
529.895	5.15
530.242	5.15
530.588	5.16
530.935	5.27
531.282	5.29
531.628	5.29
531.975	5.36
532.321	5.37
532.667	5.37
533.014	5.4
533.36	5.39
533.706	5.38
534.052	5.42
534.399	5.24
534.745	5.2
535.091	5.28
535.437	5.33
535.783	5.35
536.129	5.33
536.474	5.33
536.82	5.41
537.166	5.46
537.512	5.39
537.857	5.37
538.203	5.22
538.549	5.41
538.894	5.39
539.239	5.56
539.585	5.59
539.93	5.4
540.276	5.41
540.621	5.35
540.966	5.48
541.311	5.52
541.656	5.24
542.001	5.31
542.346	5.24
542.691	5.18
543.036	5.14
543.381	5.24
543.726	5.25
544.071	5.36
544.415	5.28
544.76	5.24
545.105	5.32
545.449	5.27
545.794	5.36
546.138	5.46
546.483	5.38
546.827	5.34
547.171	5.39
547.516	5.46
547.86	5.29
548.204	5.37
548.548	5.5
548.892	5.36
549.236	5.41
549.58	5.34
549.924	5.56
550.268	5.59
550.612	5.51
550.956	5.31
551.3	5.38
551.643	5.41
551.987	5.44
552.33	5.42
552.674	5.48
553.017	5.61
553.361	5.32
553.704	5.3
554.048	5.43
554.391	5.39
554.734	5.38
555.077	5.52
555.42	5.32
555.764	5.44
556.107	5.45
556.45	5.42
556.793	5.5
557.135	5.61
557.478	5.36
557.821	5.22
558.164	5.48
558.507	5.37
558.849	5.29
559.192	5.55
559.534	5.44
559.877	5.68
560.219	5.55
560.562	5.52
560.904	5.44
561.246	5.61
561.589	5.32
561.931	5.6
562.273	5.45
562.615	5.46
562.957	5.65
563.299	5.47
563.641	5.48
563.983	5.42
564.325	5.35
564.667	5.42
565.008	5.17
565.35	5.48
565.692	5.48
566.033	5.48
566.375	5.3
566.716	5.52
567.058	5.55
567.399	5.42
567.741	5.42
568.082	5.19
568.423	5.28
568.764	5.36
569.105	5.45
569.447	5.31
569.788	5.38
570.129	5.22
570.47	5.42
570.811	5.38
571.151	5.49
571.492	5.52
571.833	5.19
572.174	5.41
572.514	5.18
572.855	5.43
573.195	5.32
573.536	5.14
573.876	5.19
574.217	5.37
574.557	5.44
574.898	5.38
575.238	5.03
575.578	5.4
575.918	5.12
576.258	5.38
576.598	5.18
576.938	5.4
577.278	5.19
577.618	5.21
577.958	5.27
578.298	5.41
578.638	5.4
578.977	5.4
579.317	5.47
579.657	5.45
579.996	5.26
580.336	5.23
580.675	5.46
581.014	5.35
581.354	5.38
581.693	5.28
582.032	5.28
582.372	5.44
582.711	5.26
583.05	5.52
583.389	5.42
583.728	5.48
584.067	5.08
584.406	5.17
584.745	5.29
585.083	5.57
585.422	5.17
585.761	5.62
586.1	5.37
586.438	5.48
586.777	5.11
587.115	5.29
587.454	5.46
587.792	5.25
588.13	5.67
588.469	5.41
588.807	5.46
589.145	5.49
589.483	5.14
589.821	5.51
590.159	5.33
590.497	5.12
590.835	5.2
591.173	5.31
591.511	5.34
591.849	5.3
592.187	5.43
592.524	5.17
592.862	5.43
593.2	5.12
593.537	4.99
593.875	5.33
594.212	5.45
594.55	5.08
594.887	5.66
595.224	5.21
595.561	5.16
595.899	5.26
596.236	5.49
596.573	5.18
596.91	5.19
597.247	5.28
597.584	5.36
597.921	5.13
598.258	5.25
598.594	5.09
598.931	5.29
599.268	5.23
599.604	5.23
599.941	5.29
600.277	5.35
600.614	5.4
600.95	5.44
601.287	5.16
601.623	5.41
601.959	5.08
602.296	5.4
602.632	5.33
602.968	5.25
603.304	5.53
603.64	5.14
603.976	5.46
604.312	5.41
604.648	5.45
604.984	5.15
605.319	5.26
605.655	5.2
605.991	5.16
606.326	5.17
606.662	5.24
606.998	5.21
607.333	5.28
607.668	5.12
608.004	5.19
608.339	5.19
608.674	5.05
609.01	5.4
609.345	5.49
609.68	5.02
610.015	5.24
610.35	5.12
610.685	5.12
611.02	5.2
611.355	5.4
611.689	5.03
612.024	5.45
612.359	5.22
612.694	5.41
613.028	5.43
613.363	5.08
613.697	5.45
614.032	5.38
614.366	5.06
614.7	5.45
615.035	5.28
615.369	5.29
615.703	5.43
616.037	5.35
616.371	5
616.705	5.09
617.039	5.75
617.373	5.31
617.707	5.13
618.041	5.89
618.375	5.22
618.709	5.18
619.042	5.42
619.376	5.03
619.71	5.12
620.043	4.84
620.377	5.22
620.71	5.39
621.043	5.07
621.377	5.18
621.71	5.22
622.043	5.31
622.376	4.89
622.709	5.4
623.043	5.24
623.376	5.42
623.709	5.42
624.041	4.93
624.374	5.17
624.707	5.59
625.04	5.63
625.373	4.9
625.705	5.35
626.038	5.3
626.37	5.46
626.703	5.24
627.035	5.25
627.368	5.39
627.7	5.29
628.032	5.19
628.365	5.25
628.697	5.21
629.029	5.57
629.361	5.29
629.693	5.43
630.025	5.13
630.357	5.11
630.689	5.5
631.021	5.28
631.353	5.22
631.684	5.09
632.016	5.29
632.348	5.41
632.679	5.3
633.011	5.33
633.342	5.22
633.674	5.21
634.005	5.36
634.336	5.39
634.668	5.2
634.999	5.34
635.33	5.19
635.661	5.42
635.992	5.18
636.323	5.39
636.654	5.31
636.985	5.23
637.316	5.19
637.647	5.32
637.977	5.02
638.308	5.14
638.639	5.08
638.969	4.97
639.3	4.97
639.63	5.04
639.961	5.36
640.291	5.52
640.622	5.23
640.952	5.1
641.282	4.74
641.612	4.95
641.943	5.54
642.273	5.57
642.603	5.13
642.933	5.22
643.263	5.32
643.592	5.23
643.922	6.19
644.252	5.23
644.582	5.51
644.911	4.87
645.241	5.16
645.571	5.36
645.9	5.37
646.23	5.47
646.559	5.29
646.888	4.99
647.218	5.41
647.547	5.49
647.876	5.73
648.205	5.15
648.534	5.54
648.863	5.39
649.192	5.24
649.521	5.03
649.85	5.67
650.179	5.47
650.508	5.06
650.837	5.19
651.165	5.21
651.494	5.39
651.822	5.59
652.151	5.88
652.479	5.79
652.808	5.12
653.136	5.12
653.465	5.44
653.793	5.41
654.121	5.53
654.449	5.29
654.777	5.31
655.105	5.46
655.433	5.7
655.761	5.05
656.089	5.62
656.417	5.29
656.745	6.29
657.073	5.64
657.4	5.37
657.728	5.22
658.056	5.3
658.383	5.46
658.711	5.21
659.038	5.27
659.365	5.51
659.693	5.43
660.02	5.28
660.347	5.59
660.674	5.34
661.001	5
661.329	4.98
661.656	5.45
661.982	5.37
662.309	5.5
662.636	5.2
662.963	5.43
663.29	5.43
663.616	5.49
663.943	5.27
664.27	5.62
664.596	5.56
664.923	5.48
665.249	5.7
665.576	5.36
665.902	5.38
666.228	4.81
666.554	4.98
666.881	5.71
667.207	5.25
667.533	5.52
667.859	5
668.185	5.57
668.511	5.37
668.837	4.52
669.162	5.49
669.488	5.07
669.814	5.71
670.139	5.64
670.465	5.28
670.791	5.76
671.116	5.08
671.442	5.3
671.767	5.08
672.092	6.1
672.418	5.69
672.743	4.65
673.068	5.31
673.393	5.27
673.718	5.11
674.043	5.82
674.368	5.6
674.693	5.84
675.018	5.37
675.343	5.29
675.667	5.37
675.992	4.93
676.317	5.03
676.641	5.43
676.966	5.15
677.29	4.8
677.615	5.39
677.939	5.06
678.264	5.39
678.588	5.24
678.912	5.45
679.236	5.15
679.56	4.79
679.885	5.93
680.209	4.95
680.532	5.47
680.856	6.17
681.18	5.31
681.504	5.43
681.828	5.01
682.152	5.62
682.475	5.01
682.799	5.85
683.122	5.32
683.446	5.31
683.769	5.67
684.093	5.5
684.416	5.15
684.739	5.56
685.062	6.08
685.386	5.69
685.709	4.8
686.032	5.72
686.355	5.71
686.678	5.42
687.001	4.69
687.324	4.88
687.646	5.19
687.969	5.43
688.292	6.09
688.614	6.08
688.937	5.77
689.26	5.24
689.582	5.07
689.904	5.08
690.227	6.01
690.549	5.84
690.871	6
691.194	5.71
691.516	5.12
691.838	5.57
692.16	4.9
