Data from 0073_forehead_Reflection__2__341.txt Node

Date: Fri Dec 16 16:46:45 CST 2022
User: ToomeyLab
Spectrometer: FLMS14357
Trigger mode: 0
Integration Time (sec): 1.000000E-2
Scans to average: 100
Electric dark correction enabled: true
Nonlinearity correction enabled: false
Boxcar width: 0
XAxis mode: Wavelengths
Number of Pixels in Spectrum: 2048
>>>>>Begin Spectral Data<<<<<
189.047	-650
189.435	-650
189.823	-650
190.211	480.96
190.599	1170.11
190.987	803.02
191.375	-170.77
191.763	95.41
192.151	-102.99
192.538	2279.03
192.926	266.13
193.314	41.47
193.702	-75.81
194.089	-10.66
194.477	-21.11
194.864	80.37
195.252	127.37
195.639	165.24
196.027	1878.81
196.414	-74.31
196.801	138.55
197.189	76.26
197.576	174.73
197.963	-16.53
198.351	40.75
198.738	816.08
199.125	56.07
199.512	4.76
199.899	-84.95
200.286	-7.76
200.673	47.25
201.06	53.99
201.447	85.01
201.833	-18.39
202.22	28.18
202.607	-6.03
202.994	43.95
203.38	-11.42
203.767	13.57
204.154	-44.42
204.54	33.36
204.927	3.85
205.313	11.33
205.699	-42.15
206.086	-0.34
206.472	-18.15
206.858	22.01
207.245	45.59
207.631	-5.71
208.017	37.18
208.403	8.1
208.789	35.53
209.175	24.94
209.561	3.03
209.947	-12.53
210.333	13.98
210.719	-2.53
211.105	-28.85
211.491	20.12
211.876	-27.64
212.262	-42.01
212.648	-27.18
213.034	8.98
213.419	46.34
213.805	22.69
214.19	-6.08
214.576	16.85
214.961	14.03
215.346	-13.96
215.732	1.2
216.117	17.96
216.502	-19.66
216.888	-4.46
217.273	82.14
217.658	-17.05
218.043	-19.59
218.428	8.54
218.813	-5.27
219.198	-39.84
219.583	15.8
219.968	1.16
220.353	9.72
220.738	-11.29
221.122	-1.01
221.507	-10.23
221.892	23.33
222.276	22.84
222.661	4.78
223.046	12.25
223.43	-6.2
223.815	12.9
224.199	13.76
224.583	8.35
224.968	15.36
225.352	-3.21
225.736	9.81
226.121	2.34
226.505	7.4
226.889	8.2
227.273	0.69
227.657	4.53
228.041	8.03
228.425	2.89
228.809	3.8
229.193	4.12
229.577	4.66
229.961	5.26
230.344	5.5
230.728	4.87
231.112	4.98
231.495	3.48
231.879	5.26
232.263	3.47
232.646	4.93
233.03	4.5
233.413	3.23
233.797	5.97
234.18	3.24
234.563	2.72
234.946	6.55
235.33	5.25
235.713	4.39
236.096	4.72
236.479	5.33
236.862	5.5
237.245	6.19
237.628	5
238.011	5.15
238.394	5.47
238.777	5.91
239.16	0.79
239.543	2.2
239.925	4.51
240.308	4.81
240.691	4.32
241.073	5.75
241.456	4.72
241.838	4.58
242.221	5.66
242.603	5.29
242.986	5.98
243.368	5.09
243.75	4.39
244.133	5.16
244.515	5.34
244.897	4.37
245.279	4.22
245.661	5.1
246.043	5.62
246.425	4.53
246.807	4.91
247.189	5.02
247.571	5.46
247.953	5.27
248.335	5.15
248.717	5.1
249.098	5
249.48	4.68
249.862	5.41
250.243	5.21
250.625	5.39
251.006	5.59
251.388	5.27
251.769	5
252.151	4.71
252.532	5.84
252.913	5.74
253.295	4.77
253.676	5.56
254.057	4.78
254.438	5.04
254.819	5.31
255.2	5.46
255.581	5.79
255.962	5.21
256.343	6.1
256.724	4.86
257.105	4.22
257.486	4.91
257.867	3.4
258.247	5.48
258.628	5.93
259.009	4.77
259.389	5.16
259.77	4.76
260.15	5.64
260.531	5.15
260.911	5.18
261.292	5.13
261.672	4.72
262.052	5.06
262.432	4.69
262.813	5.2
263.193	5.08
263.573	5.1
263.953	4.77
264.333	4.66
264.713	3.93
265.093	5.3
265.473	6.04
265.853	4.94
266.233	4.9
266.612	4.3
266.992	4.69
267.372	4.69
267.752	4.73
268.131	4.95
268.511	4.8
268.89	5.64
269.27	5.18
269.649	5.26
270.029	4.52
270.408	5.11
270.787	5.09
271.167	4.94
271.546	4.22
271.925	4.97
272.304	5.22
272.683	4.71
273.062	4.78
273.441	4.89
273.82	4.61
274.199	5
274.578	4.71
274.957	4.63
275.336	5.02
275.715	4.54
276.093	4.64
276.472	4.58
276.851	5.2
277.229	5.2
277.608	4.52
277.986	4.98
278.365	4.73
278.743	5.04
279.122	3.82
279.5	4.34
279.878	4.04
280.257	4.96
280.635	4.54
281.013	5.37
281.391	4.92
281.769	4.66
282.147	4.89
282.525	4.34
282.903	4.64
283.281	5.1
283.659	5.03
284.037	4.84
284.415	4.67
284.792	4.91
285.17	4.19
285.548	4.76
285.925	4.88
286.303	4.6
286.68	4.68
287.058	4.61
287.435	4.42
287.813	4.66
288.19	4.88
288.567	4.51
288.945	4.71
289.322	4.79
289.699	4.64
290.076	5.14
290.453	4.71
290.83	4.8
291.207	4.83
291.584	4.64
291.961	5.31
292.338	5.35
292.715	5.05
293.092	4.94
293.469	5.34
293.845	5.25
294.222	5.39
294.599	5.33
294.975	5.4
295.352	4.85
295.728	5.77
296.105	4.89
296.481	5.63
296.858	5.81
297.234	5.21
297.61	5.75
297.986	5.51
298.363	5.29
298.739	5.6
299.115	4.99
299.491	5.58
299.867	5.48
300.243	5.56
300.619	5.59
300.995	5.68
301.371	5.63
301.746	5.42
302.122	5.98
302.498	5.69
302.874	5.84
303.249	6.09
303.625	5.91
304	5.39
304.376	6.19
304.751	6.08
305.127	5.62
305.502	5.98
305.878	5.86
306.253	5.78
306.628	5.76
307.003	5.94
307.378	5.64
307.754	6.14
308.129	6.15
308.504	6.25
308.879	6.25
309.254	6.17
309.629	6.04
310.003	6.12
310.378	6.67
310.753	6.76
311.128	6.22
311.502	6.09
311.877	6.41
312.252	6.15
312.626	5.81
313.001	6.39
313.375	5.95
313.75	6.39
314.124	6.95
314.498	6.24
314.873	6.44
315.247	6.04
315.621	6.61
315.995	6.66
316.369	7.07
316.743	6.76
317.117	6.33
317.491	7.14
317.865	6.5
318.239	7.14
318.613	6.57
318.987	7.11
319.361	6.44
319.734	7
320.108	7.04
320.482	6.85
320.855	6.88
321.229	7.59
321.602	7.01
321.976	6.85
322.349	7.19
322.723	6.34
323.096	6.89
323.469	6.58
323.843	7.94
324.216	6.4
324.589	7.38
324.962	7.17
325.335	6.95
325.708	7.52
326.081	7.36
326.454	7.38
326.827	7.02
327.2	7.68
327.573	7.79
327.945	7.61
328.318	7.14
328.691	7.51
329.063	6.85
329.436	7.29
329.809	7.01
330.181	7.04
330.553	7.6
330.926	7.17
331.298	7.17
331.671	7.33
332.043	7.55
332.415	7.95
332.787	8.12
333.159	7.78
333.532	7.64
333.904	7.3
334.276	8.06
334.648	7.92
335.02	7.26
335.391	7.58
335.763	7.77
336.135	8.33
336.507	8.15
336.879	7.55
337.25	7.64
337.622	8.1
337.993	7.85
338.365	8.24
338.736	7.95
339.108	7.93
339.479	7.89
339.851	7.86
340.222	7.93
340.593	7.7
340.964	8.09
341.336	7.65
341.707	7.88
342.078	7.67
342.449	8.67
342.82	8.22
343.191	8.35
343.562	8.27
343.933	8.41
344.303	7.77
344.674	8.75
345.045	8.45
345.416	7.99
345.786	8.2
346.157	8.46
346.527	8.24
346.898	8.61
347.268	8.29
347.639	8.11
348.009	8.67
348.38	8.7
348.75	8.56
349.12	8.51
349.49	8.52
349.861	8.79
350.231	8.69
350.601	8.96
350.971	8.26
351.341	8.73
351.711	8.51
352.081	8.74
352.45	8.88
352.82	8.75
353.19	8.65
353.56	8.71
353.929	8.99
354.299	8.91
354.669	8.6
355.038	8.87
355.408	9.41
355.777	8.81
356.147	9.24
356.516	8.97
356.885	8.79
357.254	9.1
357.624	9.04
357.993	9.23
358.362	9.2
358.731	8.9
359.1	9.23
359.469	9.25
359.838	9
360.207	9.25
360.576	9.12
360.945	9.31
361.314	9.31
361.682	9.05
362.051	9.31
362.42	9.42
362.788	9.24
363.157	9.17
363.525	9.14
363.894	9.08
364.262	9.09
364.631	9.97
364.999	8.84
365.367	9.52
365.735	9.09
366.104	9.53
366.472	9.63
366.84	9.83
367.208	9.29
367.576	9.64
367.944	9.97
368.312	9.56
368.68	9.89
369.048	9.94
369.416	9.66
369.783	9.71
370.151	9.75
370.519	9.53
370.886	10.27
371.254	9.93
371.621	9.96
371.989	10.21
372.356	9.7
372.724	10.08
373.091	9.86
373.458	9.98
373.826	10.01
374.193	10.49
374.56	9.74
374.927	10.07
375.294	10.37
375.661	10.08
376.028	9.93
376.395	9.85
376.762	10.31
377.129	10.18
377.496	10.47
377.863	10.21
378.229	10.37
378.596	10.31
378.963	10.39
379.329	10.28
379.696	10.29
380.062	10.66
380.429	10.8
380.795	10.54
381.161	10.46
381.528	10.06
381.894	10.83
382.26	10.57
382.626	10.6
382.993	10.54
383.359	10.77
383.725	11.05
384.091	10.69
384.457	10.61
384.823	10.95
385.188	10.93
385.554	11.11
385.92	10.92
386.286	10.97
386.651	10.77
387.017	11.02
387.383	11.05
387.748	11.12
388.114	11.11
388.479	11.38
388.845	10.96
389.21	11.04
389.575	11.18
389.94	11.11
390.306	11.35
390.671	10.87
391.036	11.47
391.401	11.67
391.766	11.22
392.131	11.43
392.496	11.27
392.861	11.25
393.226	11.56
393.591	11.43
393.956	11.55
394.32	11.32
394.685	11.4
395.05	11.35
395.414	11.4
395.779	11.53
396.143	11.66
396.508	11.77
396.872	11.77
397.236	11.25
397.601	11.75
397.965	11.48
398.329	12.01
398.694	11.79
399.058	11.75
399.422	11.99
399.786	11.96
400.15	11.9
400.514	11.93
400.878	12.11
401.242	12.31
401.605	11.77
401.969	12.06
402.333	12.02
402.697	12.18
403.06	12.34
403.424	12
403.787	12.01
404.151	11.92
404.514	12.43
404.878	12.3
405.241	12.29
405.604	12.22
405.968	12.26
406.331	12.17
406.694	12.22
407.057	12.47
407.42	12.08
407.783	12.3
408.146	12.42
408.509	12.33
408.872	12.43
409.235	12.72
409.598	12.5
409.961	12.51
410.323	12.3
410.686	12.61
411.049	12.58
411.411	12.57
411.774	12.45
412.136	12.84
412.499	12.43
412.861	12.55
413.223	12.79
413.586	12.78
413.948	12.8
414.31	13.08
414.672	12.87
415.035	12.88
415.397	12.92
415.759	12.96
416.121	12.95
416.483	13.08
416.845	12.91
417.206	12.92
417.568	12.96
417.93	12.97
418.292	13.16
418.653	13
419.015	13.14
419.377	13.07
419.738	13.01
420.1	13.12
420.461	13.11
420.822	13.03
421.184	13.04
421.545	13.05
421.906	13.1
422.267	12.98
422.629	13.05
422.99	13.1
423.351	13.18
423.712	13.11
424.073	13.27
424.434	13.22
424.795	13.22
425.155	13.29
425.516	13.3
425.877	13.34
426.238	13.45
426.598	13.48
426.959	13.39
427.32	13.57
427.68	13.71
428.041	13.83
428.401	13.64
428.761	13.87
429.122	13.77
429.482	13.95
429.842	14.31
430.202	14.04
430.563	14.25
430.923	14.27
431.283	14.21
431.643	14.19
432.003	14.28
432.363	14.32
432.722	14.33
433.082	14.22
433.442	14.31
433.802	14.59
434.161	14.36
434.521	14.42
434.881	14.59
435.24	14.43
435.6	14.51
435.959	14.42
436.319	14.63
436.678	14.8
437.037	14.88
437.396	14.86
437.756	14.96
438.115	14.92
438.474	15.09
438.833	14.89
439.192	15.21
439.551	15.17
439.91	15.02
440.269	15.21
440.628	15.08
440.987	15.1
441.345	15.02
441.704	15.11
442.063	15.06
442.421	15.08
442.78	15.05
443.138	14.98
443.497	15.16
443.855	15.18
444.214	15.47
444.572	15.36
444.93	15.52
445.288	15.65
445.647	15.44
446.005	15.53
446.363	15.7
446.721	15.54
447.079	15.6
447.437	15.65
447.795	15.47
448.153	15.49
448.51	15.45
448.868	15.59
449.226	15.69
449.584	15.77
449.941	15.77
450.299	15.86
450.656	15.86
451.014	15.86
451.371	16.04
451.729	16.27
452.086	16.09
452.443	16.22
452.801	16.42
453.158	16.33
453.515	16.28
453.872	16.48
454.229	16.25
454.586	16.23
454.943	16.35
455.3	16.77
455.657	16.59
456.014	16.59
456.371	16.66
456.727	16.79
457.084	16.71
457.441	16.66
457.797	16.73
458.154	17.04
458.51	17.11
458.867	16.93
459.223	17.12
459.58	17.02
459.936	16.96
460.292	17.09
460.648	16.87
461.005	17.05
461.361	16.89
461.717	16.91
462.073	16.97
462.429	17.01
462.785	17.16
463.141	17.16
463.496	17.34
463.852	17.67
464.208	17.48
464.564	17.59
464.919	17.74
465.275	17.68
465.631	17.56
465.986	17.77
466.342	17.72
466.697	17.72
467.052	17.83
467.408	17.95
467.763	17.76
468.118	18.19
468.473	18.12
468.829	18.13
469.184	18.25
469.539	18.03
469.894	18.09
470.249	18.36
470.603	18.29
470.958	18.49
471.313	18.4
471.668	18.3
472.023	18.63
472.377	18.57
472.732	18.74
473.086	18.46
473.441	18.57
473.795	18.9
474.15	18.61
474.504	18.71
474.859	18.72
475.213	18.68
475.567	18.88
475.921	19.01
476.275	19.08
476.63	18.86
476.984	19.23
477.338	19.28
477.692	19.09
478.045	19.12
478.399	18.99
478.753	18.97
479.107	19.01
479.461	19.26
479.814	19.11
480.168	19.19
480.521	19.23
480.875	19.41
481.228	19.42
481.582	19.5
481.935	19.36
482.289	19.39
482.642	19.55
482.995	19.55
483.348	19.38
483.701	19.34
484.055	19.35
484.408	19.2
484.761	18.97
485.114	18.93
485.466	18.73
485.819	18.57
486.172	18.56
486.525	18.59
486.878	18.78
487.23	19.05
487.583	19.25
487.936	19.52
488.288	19.4
488.641	19.41
488.993	19.22
489.345	19.2
489.698	19.24
490.05	19.23
490.402	19.31
490.754	19.53
491.107	19.74
491.459	19.96
491.811	20.03
492.163	20.18
492.515	20.05
492.866	19.99
493.218	19.75
493.57	19.6
493.922	19.63
494.274	19.93
494.625	19.96
494.977	20.32
495.328	20.69
495.68	20.71
496.031	21.01
496.383	20.91
496.734	21.02
497.086	21.06
497.437	21.18
497.788	21
498.139	21.03
498.49	21.04
498.842	20.94
499.193	21.01
499.544	21.19
499.894	21.14
500.245	21.29
500.596	21.29
500.947	21.4
501.298	21.5
501.648	21.62
501.999	21.63
502.35	21.81
502.7	21.89
503.051	21.79
503.401	21.82
503.752	21.81
504.102	21.98
504.452	21.79
504.803	22.02
505.153	22.15
505.503	21.94
505.853	21.97
506.203	22.03
506.553	22.04
506.903	22.25
507.253	22.24
507.603	22
507.953	22.44
508.303	22.22
508.652	22.37
509.002	22.38
509.352	22.29
509.701	22.35
510.051	22.3
510.4	22.35
510.75	22.27
511.099	22.5
511.449	22.37
511.798	22.55
512.147	22.49
512.496	22.59
512.846	22.57
513.195	22.56
513.544	22.5
513.893	22.61
514.242	22.66
514.591	22.93
514.939	22.73
515.288	22.91
515.637	22.96
515.986	23.04
516.334	23.33
516.683	23.22
517.032	23.1
517.38	23.2
517.729	23.06
518.077	23.32
518.426	23.33
518.774	23.36
519.122	23.22
519.47	23.09
519.819	23.1
520.167	22.96
520.515	22.95
520.863	22.92
521.211	23.06
521.559	23.28
521.907	23.17
522.255	23.39
522.602	23.39
522.95	23.53
523.298	23.54
523.645	23.54
523.993	23.88
524.341	23.94
524.688	23.97
525.036	23.94
525.383	24.01
525.73	24.15
526.078	24.01
526.425	24.05
526.772	23.75
527.119	23.71
527.466	23.5
527.814	23.56
528.161	23.64
528.508	23.73
528.854	23.76
529.201	23.74
529.548	23.71
529.895	23.53
530.242	23.45
530.588	23.33
530.935	23.15
531.282	23.19
531.628	23.39
531.975	23.7
532.321	23.82
532.667	23.99
533.014	24.15
533.36	24.26
533.706	24.33
534.052	24.31
534.399	24.28
534.745	24.1
535.091	24.05
535.437	23.94
535.783	24.07
536.129	24.18
536.474	24.38
536.82	24.52
537.166	24.82
537.512	24.88
537.857	24.85
538.203	24.69
538.549	24.75
538.894	24.54
539.239	24.78
539.585	25.12
539.93	24.99
540.276	25.39
540.621	25.45
540.966	25.47
541.311	25.51
541.656	25.42
542.001	25.36
542.346	25.19
542.691	25.04
543.036	24.79
543.381	24.74
543.726	24.68
544.071	24.81
544.415	24.97
544.76	25.06
545.105	25.26
545.449	25.41
545.794	25.5
546.138	25.66
546.483	25.8
546.827	25.92
547.171	25.95
547.516	26.25
547.86	26
548.204	26.01
548.548	26.01
548.892	26.07
549.236	26.19
549.58	26.08
549.924	26.31
550.268	26.49
550.612	26.64
550.956	26.77
551.3	26.9
551.643	27.01
551.987	26.94
552.33	26.99
552.674	27.16
553.017	27.39
553.361	27.09
553.704	27.1
554.048	27.37
554.391	27.11
554.734	27.02
555.077	27.35
555.42	27.1
555.764	27.28
556.107	27.32
556.45	27.53
556.793	27.56
557.135	27.6
557.478	27.58
557.821	27.56
558.164	27.95
558.507	27.66
558.849	27.9
559.192	28.01
559.534	27.72
559.877	27.84
560.219	27.95
560.562	27.9
560.904	28.02
561.246	28.02
561.589	28.17
561.931	28.08
562.273	28.16
562.615	27.92
562.957	28.01
563.299	28.31
563.641	28.01
563.983	28.28
564.325	28.28
564.667	28.52
565.008	28.54
565.35	28.52
565.692	28.48
566.033	28.78
566.375	28.46
566.716	28.54
567.058	28.57
567.399	28.38
567.741	28.41
568.082	28.3
568.423	28.31
568.764	28.55
569.105	28.51
569.447	28.58
569.788	28.51
570.129	28.65
570.47	29.02
570.811	28.86
571.151	28.57
571.492	28.93
571.833	28.87
572.174	28.88
572.514	29.03
572.855	29
573.195	29.17
573.536	28.86
573.876	28.89
574.217	28.75
574.557	29.11
574.898	29.05
575.238	28.89
575.578	29.34
575.918	29.26
576.258	29.41
576.598	29.35
576.938	29.39
577.278	29.22
577.618	29.32
577.958	29.5
578.298	29.49
578.638	29.49
578.977	29.68
579.317	29.61
579.657	29.78
579.996	29.84
580.336	30.05
580.675	30.1
581.014	30.4
581.354	29.86
581.693	30.21
582.032	30.06
582.372	30.21
582.711	30.41
583.05	30.49
583.389	30.79
583.728	30.49
584.067	30.49
584.406	30.34
584.745	30.32
585.083	30.69
585.422	30.72
585.761	30.8
586.1	30.89
586.438	30.8
586.777	30.7
587.115	30.79
587.454	31.03
587.792	30.76
588.13	31.17
588.469	31.41
588.807	31.03
589.145	31.07
589.483	30.91
589.821	31.26
590.159	31.17
590.497	30.74
590.835	31
591.173	31.19
591.511	31.17
591.849	31.52
592.187	31.3
592.524	31.09
592.862	31.65
593.2	31.21
593.537	31.42
593.875	31.55
594.212	31.44
594.55	31.43
594.887	31.71
595.224	31.3
595.561	31.61
595.899	31.49
596.236	31.89
596.573	31.57
596.91	31.61
597.247	31.62
597.584	31.86
597.921	31.83
598.258	31.68
598.594	31.41
598.931	31.56
599.268	31.45
599.604	31.47
599.941	31.7
600.277	31.71
600.614	31.98
600.95	32.01
601.287	32.2
601.623	32.46
601.959	32.23
602.296	32.37
602.632	32.47
602.968	32.65
603.304	32.17
603.64	32.4
603.976	32.49
604.312	32.77
604.648	32.53
604.984	32.34
605.319	32.47
605.655	32.35
605.991	32.31
606.326	32.32
606.662	32.08
606.998	32.22
607.333	32.07
607.668	32.31
608.004	32.38
608.339	32.57
608.674	32.67
609.01	33
609.345	33.05
609.68	32.75
610.015	32.89
610.35	32.87
610.685	32.91
611.02	32.99
611.355	32.91
611.689	32.69
612.024	32.8
612.359	32.91
612.694	32.89
613.028	33.14
613.363	32.93
613.697	33.59
614.032	33.39
614.366	33.2
614.7	33.62
615.035	33.4
615.369	33.42
615.703	33.61
616.037	33.65
616.371	33.33
616.705	33.57
617.039	33.63
617.373	33.75
617.707	33.77
618.041	34.05
618.375	33.55
618.709	33.88
619.042	34.3
619.376	33.63
619.71	34.12
620.043	34.31
620.377	33.82
620.71	34.02
621.043	34.11
621.377	34
621.71	34.27
622.043	34.2
622.376	34.17
622.709	34.85
623.043	34.34
623.376	34.48
623.709	34.47
624.041	34.77
624.374	34.64
624.707	34.64
625.04	34.66
625.373	34.91
625.705	35.23
626.038	34.7
626.37	34.37
626.703	34.52
627.035	34.42
627.368	34.62
627.7	34.67
628.032	34.74
628.365	34.67
628.697	34.76
629.029	34.65
629.361	34.59
629.693	34.8
630.025	34.63
630.357	34.7
630.689	35.04
631.021	34.66
631.353	35.26
631.684	34.79
632.016	34.79
632.348	35.29
632.679	35.11
633.011	35.31
633.342	35.09
633.674	35.22
634.005	35.31
634.336	35.24
634.668	35.24
634.999	35.39
635.33	35.49
635.661	35.43
635.992	35.22
636.323	35.18
636.654	35.16
636.985	35.38
637.316	35.59
637.647	35.38
637.977	35.21
638.308	35.43
638.639	35.59
638.969	35.52
639.3	35.64
639.63	35.92
639.961	36.06
640.291	36.04
640.622	36.17
640.952	35.98
641.282	35.64
641.612	35.45
641.943	36.3
642.273	36.19
642.603	35.88
642.933	36.19
643.263	36.15
643.592	36.32
643.922	36.22
644.252	36.69
644.582	36.4
644.911	36.34
645.241	36.38
645.571	36.51
645.9	36.57
646.23	36.45
646.559	36.42
646.888	36.19
647.218	36.55
647.547	36.03
647.876	36.79
648.205	36.54
648.534	36.56
648.863	36.88
649.192	36.77
649.521	35.97
649.85	36.67
650.179	36.51
650.508	36.77
650.837	36.48
651.165	37.18
651.494	36.94
651.822	37.13
652.151	37.16
652.479	37.25
652.808	36.73
653.136	36.51
653.465	36.7
653.793	37.14
654.121	36.87
654.449	36.46
654.777	36.78
655.105	37.42
655.433	37.02
655.761	36.68
656.089	37.52
656.417	37.35
656.745	37.77
657.073	37.49
657.4	37.52
657.728	37.29
658.056	37.94
658.383	37.66
658.711	37.2
659.038	37.81
659.365	37.68
659.693	37.4
660.02	37.39
660.347	37.65
660.674	37.8
661.001	37.3
661.329	37.31
661.656	37.18
661.982	37.29
662.309	37.62
662.636	37.43
662.963	37.7
663.29	37.47
663.616	38.09
663.943	38.78
664.27	38
664.596	37.62
664.923	38.41
665.249	37.85
665.576	37.78
665.902	38.44
666.228	37.78
666.554	37.61
666.881	38.5
667.207	38.25
667.533	38.36
667.859	37.62
668.185	38.61
668.511	38.04
668.837	38.2
669.162	38.19
669.488	38.46
669.814	38.84
670.139	38.55
670.465	38.56
670.791	38.62
671.116	38.44
671.442	38.76
671.767	38.54
672.092	38.53
672.418	38.41
