Data from 0073_forehead_Reflection__0__339.txt Node

Date: Fri Dec 16 16:46:18 CST 2022
User: ToomeyLab
Spectrometer: FLMS14357
Trigger mode: 0
Integration Time (sec): 1.000000E-2
Scans to average: 100
Electric dark correction enabled: true
Nonlinearity correction enabled: false
Boxcar width: 0
XAxis mode: Wavelengths
Number of Pixels in Spectrum: 2048
>>>>>Begin Spectral Data<<<<<
189.047	-948.58
189.435	-948.58
189.823	-948.58
190.211	1832.23
190.599	81.22
190.987	-3.81
191.375	-203.78
191.763	3.38
192.151	187.05
192.538	-269.35
192.926	-579.03
193.314	92.8
193.702	-4.08
194.089	24.57
194.477	97.82
194.864	-21.51
195.252	-70.37
195.639	196.4
196.027	-1399.15
196.414	48.31
196.801	8.68
197.189	5.53
197.576	181.13
197.963	84.34
198.351	56.6
198.738	48.68
199.125	58.45
199.512	18.57
199.899	31.02
200.286	-37.26
200.673	36.26
201.06	20.62
201.447	60.6
201.833	65.92
202.22	13.43
202.607	1.18
202.994	11.09
203.38	-54.17
203.767	-39.46
204.154	-41.24
204.54	14.19
204.927	17.15
205.313	32.68
205.699	-17.66
206.086	1.62
206.472	50.32
206.858	21.49
207.245	8.86
207.631	-14.57
208.017	15.81
208.403	27.18
208.789	-0.69
209.175	43.85
209.561	20.53
209.947	31.02
210.333	-24.84
210.719	2.78
211.105	-35.81
211.491	-16.32
211.876	7.23
212.262	-32.33
212.648	18.29
213.034	-2.37
213.419	28.14
213.805	35.95
214.19	-16.26
214.576	-69.43
214.961	-25.77
215.346	-11.68
215.732	-45.18
216.117	-22.04
216.502	-41.36
216.888	-11.99
217.273	37.68
217.658	-7.06
218.043	7.36
218.428	23.26
218.813	22.97
219.198	-8.97
219.583	-3.58
219.968	10.28
220.353	-19.99
220.738	-13.95
221.122	-17.85
221.507	6.21
221.892	9.91
222.276	-1.59
222.661	-0.16
223.046	3.57
223.43	9.83
223.815	0.73
224.199	4.26
224.583	7.64
224.968	11.06
225.352	-0.66
225.736	9.44
226.121	-6.08
226.505	2.99
226.889	5.12
227.273	4.16
227.657	2.97
228.041	4.62
228.425	1.42
228.809	0.91
229.193	1.33
229.577	3.21
229.961	3.29
230.344	3.53
230.728	3.26
231.112	3.4
231.495	1.82
231.879	1.44
232.263	1.48
232.646	2.46
233.03	1.07
233.413	1.14
233.797	4.26
234.18	2.36
234.563	1.71
234.946	2.44
235.33	3.47
235.713	3.81
236.096	2.25
236.479	3.47
236.862	3.63
237.245	2.84
237.628	2.58
238.011	2.69
238.394	4.25
238.777	3.54
239.16	0.96
239.543	0.47
239.925	2.46
240.308	3.07
240.691	2.1
241.073	2.98
241.456	2.37
241.838	2.9
242.221	3.33
242.603	3.39
242.986	3.95
243.368	3.54
243.75	3.22
244.133	2.92
244.515	2.85
244.897	3.22
245.279	1.69
245.661	3.15
246.043	2.26
246.425	2.48
246.807	4.18
247.189	2.74
247.571	2.87
247.953	3.01
248.335	2.95
248.717	2.9
249.098	3.11
249.48	2.82
249.862	3.51
250.243	2.59
250.625	3
251.006	3.37
251.388	3.42
251.769	3.41
252.151	2.25
252.532	3.24
252.913	3.46
253.295	3.56
253.676	3.46
254.057	3.16
254.438	2.16
254.819	2.4
255.2	2.67
255.581	3.44
255.962	2.05
256.343	3.56
256.724	2.29
257.105	2.15
257.486	3.34
257.867	1.91
258.247	3.71
258.628	3.55
259.009	2.97
259.389	2.63
259.77	2.88
260.15	4.08
260.531	3.37
260.911	3.11
261.292	2.99
261.672	3.12
262.052	2.91
262.432	2.85
262.813	3.44
263.193	2.73
263.573	3.12
263.953	2.53
264.333	2.96
264.713	2.49
265.093	2.67
265.473	2.97
265.853	2.11
266.233	3.35
266.612	3.37
266.992	2.77
267.372	3.09
267.752	2.79
268.131	2.6
268.511	2.63
268.89	3.33
269.27	3.24
269.649	3.3
270.029	2.79
270.408	1.95
270.787	2.82
271.167	2.13
271.546	2.22
271.925	3.07
272.304	2.95
272.683	3.04
273.062	3.22
273.441	2.75
273.82	3.08
274.199	3
274.578	2.56
274.957	2.83
275.336	2.78
275.715	3.14
276.093	2.82
276.472	3.41
276.851	2.83
277.229	3.67
277.608	2.92
277.986	3.12
278.365	3.08
278.743	2.98
279.122	2.57
279.5	2.48
279.878	2.33
280.257	2.74
280.635	2.15
281.013	2.86
281.391	2.76
281.769	2.74
282.147	2.95
282.525	3.05
282.903	2.72
283.281	2.85
283.659	2.86
284.037	3.01
284.415	3.12
284.792	3.07
285.17	2.66
285.548	2.84
285.925	2.96
286.303	2.82
286.68	3.04
287.058	2.83
287.435	2.83
287.813	2.81
288.19	3.28
288.567	3.21
288.945	3.12
289.322	2.68
289.699	2.67
290.076	3.18
290.453	2.8
290.83	2.89
291.207	3.21
291.584	2.68
291.961	3.34
292.338	3.24
292.715	3.12
293.092	3.12
293.469	3.63
293.845	3.46
294.222	3.25
294.599	3.55
294.975	3.24
295.352	2.69
295.728	3.79
296.105	3.41
296.481	3.46
296.858	3.59
297.234	3.28
297.61	3.4
297.986	3.28
298.363	3.17
298.739	3.72
299.115	3.18
299.491	3.36
299.867	3.2
300.243	3.24
300.619	3.59
300.995	3.54
301.371	3.7
301.746	3.45
302.122	3.4
302.498	3.34
302.874	4.16
303.249	3.5
303.625	3.88
304	3.36
304.376	3.81
304.751	3.79
305.127	3.28
305.502	3.71
305.878	3.58
306.253	3.38
306.628	3.58
307.003	3.57
307.378	3.46
307.754	3.93
308.129	2.95
308.504	3.82
308.879	4.44
309.254	4.03
309.629	4.12
310.003	4.39
310.378	4.03
310.753	3.68
311.128	4
311.502	3.59
311.877	3.79
312.252	3.82
312.626	3.61
313.001	4
313.375	4
313.75	3.76
314.124	4.41
314.498	3.58
314.873	4.05
315.247	3.96
315.621	4.39
315.995	4.21
316.369	4.3
316.743	4.46
317.117	4.33
317.491	4.21
317.865	3.62
318.239	4.41
318.613	4.07
318.987	4.14
319.361	4.3
319.734	4.3
320.108	4.33
320.482	3.8
320.855	4.72
321.229	4.46
321.602	4.57
321.976	4.89
322.349	3.55
322.723	4.03
323.096	4.01
323.469	3.87
323.843	4.67
324.216	4.11
324.589	4.93
324.962	4.45
325.335	4.42
325.708	4.36
326.081	5.21
326.454	4.45
326.827	4.46
327.2	4.61
327.573	4.47
327.945	4.78
328.318	4.76
328.691	4.82
329.063	4.71
329.436	4.56
329.809	3.98
330.181	4.5
330.553	5.47
330.926	4.71
331.298	4.59
331.671	4.85
332.043	4.28
332.415	5.03
332.787	5.35
333.159	4.08
333.532	4.7
333.904	4.85
334.276	4.6
334.648	4.82
335.02	4.73
335.391	4.63
335.763	4.85
336.135	5
336.507	5.46
336.879	5.48
337.25	5.02
337.622	4.86
337.993	4.98
338.365	5.16
338.736	5.3
339.108	4.53
339.479	5.4
339.851	5.46
340.222	5.08
340.593	4.86
340.964	4.87
341.336	4.9
341.707	4.93
342.078	4.56
342.449	5.7
342.82	5.21
343.191	4.95
343.562	5.18
343.933	5.31
344.303	5.09
344.674	5.51
345.045	5.48
345.416	5.31
345.786	5.04
346.157	5.18
346.527	5.13
346.898	5.04
347.268	5.51
347.639	5.05
348.009	5.91
348.38	5.29
348.75	5.3
349.12	5.46
349.49	5.02
349.861	5.58
350.231	5.39
350.601	5.72
350.971	5.28
351.341	5.2
351.711	5.54
352.081	5.63
352.45	5.6
352.82	5.74
353.19	5.62
353.56	5.55
353.929	5.93
354.299	5.52
354.669	6.09
355.038	5.52
355.408	5.82
355.777	5.37
356.147	5.92
356.516	5.71
356.885	5.8
357.254	5.92
357.624	5.67
357.993	5.49
358.362	5.95
358.731	6.02
359.1	6.09
359.469	5.8
359.838	5.49
360.207	5.73
360.576	5.88
360.945	5.87
361.314	6.1
361.682	5.8
362.051	5.73
362.42	5.81
362.788	6.05
363.157	5.85
363.525	5.77
363.894	5.76
364.262	5.93
364.631	6.8
364.999	5.74
365.367	6.41
365.735	5.84
366.104	6.05
366.472	6.49
366.84	6.26
367.208	5.94
367.576	6
367.944	6.37
368.312	6.08
368.68	6.4
369.048	6.34
369.416	6.31
369.783	6.23
370.151	6.27
370.519	6.04
370.886	6.68
371.254	6.28
371.621	6.53
371.989	6.38
372.356	6.27
372.724	6.55
373.091	6.42
373.458	6.23
373.826	6.45
374.193	7.13
374.56	6.61
374.927	6.4
375.294	6.87
375.661	6.69
376.028	6.77
376.395	6.57
376.762	6.95
377.129	6.81
377.496	6.73
377.863	6.64
378.229	6.62
378.596	6.7
378.963	6.58
379.329	6.71
379.696	6.85
380.062	7.14
380.429	7
380.795	6.76
381.161	6.88
381.528	6.65
381.894	7.01
382.26	6.97
382.626	7.09
382.993	6.9
383.359	7.13
383.725	7.34
384.091	7.02
384.457	7.19
384.823	7.01
385.188	7.12
385.554	7.12
385.92	7.45
386.286	7.4
386.651	7.12
387.017	7.42
387.383	7.08
387.748	7.05
388.114	7.63
388.479	7.53
388.845	7.37
389.21	7.56
389.575	7.57
389.94	7.44
390.306	7.01
390.671	7.53
391.036	7.82
391.401	7.9
391.766	7.55
392.131	7.52
392.496	7.29
392.861	7.51
393.226	7.63
393.591	7.78
393.956	7.71
394.32	7.41
394.685	7.81
395.05	7.74
395.414	7.66
395.779	7.61
396.143	7.95
396.508	7.77
396.872	7.95
397.236	7.59
397.601	8.11
397.965	7.91
398.329	8
398.694	7.71
399.058	8.01
399.422	8.1
399.786	8
400.15	8.05
400.514	8.09
400.878	8.09
401.242	7.98
401.605	8.12
401.969	8.21
402.333	8.04
402.697	8.2
403.06	8.16
403.424	8.28
403.787	8.53
404.151	8.18
404.514	8.23
404.878	8.23
405.241	8.41
405.604	8.42
405.968	8.24
406.331	8.56
406.694	8.37
407.057	8.47
407.42	8.42
407.783	8.27
408.146	8.41
408.509	8.26
408.872	8.44
409.235	8.6
409.598	8.53
409.961	8.56
410.323	8.6
410.686	8.53
411.049	8.68
411.411	8.66
411.774	8.49
412.136	8.8
412.499	8.68
412.861	8.51
413.223	8.86
413.586	8.57
413.948	8.84
414.31	9.23
414.672	8.77
415.035	8.93
415.397	8.84
415.759	8.85
416.121	9.32
416.483	8.96
416.845	8.96
417.206	9.03
417.568	8.84
417.93	8.93
418.292	9.16
418.653	8.95
419.015	9.21
419.377	9.06
419.738	8.97
420.1	8.98
420.461	8.99
420.822	9.08
421.184	9.01
421.545	8.99
421.906	9.11
422.267	8.92
422.629	9.04
422.99	8.99
423.351	9.08
423.712	9.05
424.073	9.14
424.434	9.09
424.795	9.17
425.155	9.28
425.516	9.26
425.877	9.27
426.238	9.02
426.598	9.24
426.959	9.18
427.32	9.39
427.68	9.47
428.041	9.51
428.401	9.47
428.761	9.49
429.122	9.59
429.482	9.51
429.842	9.75
430.202	9.75
430.563	9.68
430.923	9.72
431.283	9.95
431.643	9.97
432.003	9.95
432.363	9.94
432.722	9.67
433.082	9.71
433.442	9.98
433.802	9.97
434.161	9.86
434.521	10.05
434.881	10.03
435.24	9.81
435.6	9.94
435.959	9.99
436.319	9.93
436.678	10.01
437.037	9.96
437.396	10.23
437.756	10.12
438.115	10.2
438.474	10.36
438.833	10.35
439.192	10.36
439.551	10.54
439.91	10.41
440.269	10.44
440.628	10.34
440.987	10.34
441.345	10.35
441.704	10.41
442.063	10.32
442.421	10.34
442.78	10.37
443.138	10.36
443.497	10.42
443.855	10.46
444.214	10.64
444.572	10.56
444.93	10.75
445.288	10.61
445.647	10.8
446.005	10.69
446.363	10.79
446.721	10.61
447.079	10.73
447.437	10.69
447.795	10.68
448.153	10.61
448.51	10.71
448.868	10.7
449.226	10.69
449.584	10.75
449.941	10.93
450.299	10.78
450.656	10.8
451.014	10.94
451.371	11.11
451.729	11.18
452.086	11.07
452.443	10.95
452.801	11.29
453.158	11.23
453.515	11.03
453.872	11.18
454.229	11.2
454.586	11.27
454.943	11.24
455.3	11.36
455.657	11.37
456.014	11.47
456.371	11.45
456.727	11.41
457.084	11.47
457.441	11.48
457.797	11.53
458.154	11.51
458.51	11.58
458.867	11.54
459.223	11.68
459.58	11.61
459.936	11.51
460.292	11.71
460.648	11.56
461.005	11.59
461.361	11.57
461.717	11.46
462.073	11.49
462.429	11.6
462.785	11.67
463.141	11.87
463.496	11.88
463.852	11.9
464.208	12.08
464.564	11.9
464.919	11.9
465.275	12.1
465.631	12.02
465.986	12.1
466.342	12.11
466.697	12.28
467.052	12.32
467.408	12.15
467.763	12.18
468.118	12.35
468.473	12.43
468.829	12.49
469.184	12.4
469.539	12.28
469.894	12.31
470.249	12.46
470.603	12.62
470.958	12.52
471.313	12.27
471.668	12.53
472.023	12.93
472.377	12.54
472.732	12.56
473.086	12.52
473.441	12.82
473.795	12.93
474.15	12.67
474.504	12.92
474.859	12.69
475.213	12.82
475.567	12.76
475.921	12.75
476.275	12.88
476.63	12.83
476.984	12.84
477.338	13.2
477.692	13.15
478.045	12.88
478.399	13.12
478.753	12.87
479.107	12.89
479.461	12.94
479.814	13.04
480.168	13.03
480.521	13.09
480.875	13.23
481.228	13.3
481.582	13.09
481.935	13.13
482.289	13.12
482.642	13.29
482.995	13.24
483.348	13.18
483.701	13.14
484.055	13.15
484.408	13.12
484.761	12.81
485.114	12.84
485.466	12.69
485.819	12.55
486.172	12.48
486.525	12.58
486.878	12.68
487.23	12.91
487.583	13.12
487.936	13.17
488.288	13.2
488.641	13.19
488.993	13.07
489.345	12.97
489.698	13.06
490.05	12.95
490.402	13.11
490.754	13.3
491.107	13.35
491.459	13.61
491.811	13.67
492.163	13.82
492.515	13.75
492.866	13.46
493.218	13.46
493.57	13.39
493.922	13.32
494.274	13.52
494.625	13.63
494.977	13.77
495.328	14.11
495.68	14.11
496.031	14.15
496.383	14.22
496.734	14.45
497.086	14.25
497.437	14.47
497.788	14.46
498.139	14.39
498.49	14.37
498.842	14.22
499.193	14.35
499.544	14.46
499.894	14.37
500.245	14.4
500.596	14.42
500.947	14.49
501.298	14.5
501.648	14.6
501.999	14.69
502.35	14.84
502.7	14.77
503.051	14.94
503.401	14.89
503.752	14.81
504.102	14.91
504.452	14.84
504.803	14.78
505.153	14.96
505.503	14.93
505.853	14.9
506.203	14.89
506.553	15.01
506.903	14.92
507.253	15.11
507.603	15.07
507.953	15.26
508.303	15.11
508.652	15.11
509.002	15.29
509.352	15.28
509.701	15.23
510.051	15.42
510.4	15.28
510.75	15.15
511.099	15.16
511.449	15.24
511.798	15.5
512.147	15.31
512.496	15.41
512.846	15.4
513.195	15.4
513.544	15.41
513.893	15.39
514.242	15.5
514.591	15.48
514.939	15.53
515.288	15.68
515.637	15.81
515.986	15.72
516.334	15.78
516.683	15.75
517.032	15.78
517.38	15.86
517.729	15.85
518.077	15.97
518.426	15.84
518.774	15.86
519.122	15.85
519.47	15.82
519.819	15.75
520.167	15.74
520.515	15.65
520.863	15.6
521.211	15.65
521.559	15.67
521.907	15.87
522.255	15.99
522.602	16.17
522.95	16.16
523.298	16.19
523.645	16.21
523.993	16.4
524.341	16.41
524.688	16.42
525.036	16.37
525.383	16.28
525.73	16.44
526.078	16.43
526.425	16.3
526.772	16.2
527.119	16.18
527.466	16.08
527.814	16.13
528.161	16.15
528.508	16.16
528.854	16.08
529.201	16.21
529.548	16.05
529.895	16.06
530.242	15.93
530.588	15.81
530.935	15.63
531.282	15.78
531.628	15.88
531.975	16.09
532.321	16.29
532.667	16.33
533.014	16.44
533.36	16.6
533.706	16.54
534.052	16.57
534.399	16.65
534.745	16.42
535.091	16.43
535.437	16.38
535.783	16.43
536.129	16.4
536.474	16.71
536.82	16.77
537.166	17.05
537.512	17.03
537.857	16.97
538.203	16.98
538.549	16.96
538.894	16.85
539.239	17.03
539.585	17.2
539.93	17.14
540.276	17.29
540.621	17.24
540.966	17.36
541.311	17.6
541.656	17.39
542.001	17.49
542.346	17.28
542.691	17.2
543.036	16.96
543.381	16.9
543.726	16.87
544.071	16.99
544.415	17.1
544.76	17.2
545.105	17.39
545.449	17.28
545.794	17.31
546.138	17.64
546.483	17.73
546.827	17.77
547.171	17.81
547.516	17.98
547.86	17.98
548.204	17.88
548.548	17.89
548.892	17.93
549.236	17.93
549.58	18.01
549.924	17.98
550.268	18.22
550.612	18.46
550.956	18.4
551.3	18.58
551.643	18.33
551.987	18.45
552.33	18.5
552.674	18.71
553.017	18.7
553.361	18.69
553.704	18.71
554.048	18.8
554.391	18.58
554.734	18.58
555.077	18.67
555.42	18.61
555.764	18.72
556.107	18.88
556.45	18.88
556.793	18.84
557.135	19.04
557.478	19.17
557.821	18.83
558.164	19.1
558.507	18.97
558.849	18.99
559.192	18.97
559.534	18.94
559.877	19.11
560.219	19.44
560.562	19.3
560.904	19.11
561.246	19.25
561.589	19.28
561.931	19.45
562.273	19.45
562.615	19.51
562.957	19.41
563.299	19.45
563.641	19.45
563.983	19.46
564.325	19.37
564.667	19.38
565.008	19.41
565.35	19.77
565.692	19.64
566.033	19.77
566.375	19.55
566.716	19.68
567.058	19.69
567.399	19.68
567.741	19.62
568.082	19.5
568.423	19.75
568.764	19.63
569.105	19.67
569.447	19.55
569.788	19.63
570.129	19.83
570.47	19.96
570.811	20.01
571.151	19.9
571.492	19.92
571.833	19.87
572.174	19.84
572.514	19.9
572.855	20.06
573.195	20.07
573.536	20
573.876	20.01
574.217	19.91
574.557	20.05
574.898	19.91
575.238	20
575.578	20.4
575.918	20.09
576.258	20.36
576.598	20.32
576.938	20.49
577.278	20.25
577.618	20.16
577.958	20.4
578.298	20.29
578.638	20.32
578.977	20.66
579.317	20.49
579.657	20.41
579.996	20.53
580.336	20.71
580.675	20.81
581.014	20.94
581.354	20.83
581.693	20.79
582.032	20.77
582.372	20.78
582.711	20.87
583.05	20.95
583.389	21.11
583.728	21.01
584.067	21.03
584.406	21.32
584.745	21.15
585.083	21.31
585.422	21.29
585.761	21.28
586.1	21.58
586.438	21.46
586.777	21.29
587.115	20.99
587.454	21.44
587.792	21.18
588.13	21.37
588.469	21.32
588.807	21.58
589.145	21.44
589.483	21.13
589.821	21.7
590.159	21.45
590.497	21.18
590.835	21.49
591.173	21.48
591.511	21.6
591.849	21.77
592.187	21.52
592.524	21.65
592.862	21.68
593.2	21.56
593.537	21.41
593.875	21.65
594.212	21.64
594.55	21.69
594.887	21.99
595.224	21.65
595.561	22.01
595.899	21.82
596.236	21.83
596.573	21.56
596.91	21.95
597.247	21.83
597.584	21.84
597.921	22
598.258	21.89
598.594	21.8
598.931	21.69
599.268	21.79
599.604	21.94
599.941	21.99
600.277	21.83
600.614	22.27
600.95	21.98
601.287	22.35
601.623	22.55
601.959	22.47
602.296	22.07
602.632	22.6
602.968	22.36
603.304	22.43
603.64	22.48
603.976	22.42
604.312	22.44
604.648	22.47
604.984	22.62
605.319	22.46
605.655	22.45
605.991	22.49
606.326	22.19
606.662	22.42
606.998	22.14
607.333	22.32
607.668	22.26
608.004	22.65
608.339	22.67
608.674	22.67
609.01	22.95
609.345	22.89
609.68	22.73
610.015	23
610.35	22.61
610.685	23.03
611.02	23.06
611.355	22.93
611.689	22.51
612.024	23.12
612.359	22.67
612.694	22.71
613.028	23.05
613.363	23.08
613.697	23.28
614.032	23.22
614.366	22.59
614.7	23.45
615.035	23.22
615.369	23.15
615.703	23.36
616.037	23.19
616.371	22.93
616.705	23.12
617.039	23.34
617.373	23.26
617.707	23.42
618.041	23.59
618.375	23.48
618.709	23.7
619.042	23.66
619.376	23.87
619.71	23.99
620.043	24.09
620.377	23.67
620.71	23.79
621.043	23.86
621.377	23.43
621.71	23.85
622.043	24.15
622.376	23.61
622.709	24.04
623.043	23.99
623.376	23.95
623.709	24.08
624.041	24.27
624.374	24.06
624.707	24.08
625.04	24.27
625.373	24.04
625.705	24.02
626.038	23.98
626.37	24.24
626.703	24.07
627.035	24.68
627.368	24.24
627.7	24.32
628.032	24.28
628.365	23.78
628.697	24.45
629.029	24.37
629.361	24.18
629.693	24.41
630.025	24.4
630.357	24.29
630.689	24.45
631.021	24.46
631.353	24.77
631.684	24.37
632.016	24.61
632.348	24.7
632.679	24.52
633.011	24.49
633.342	24.68
633.674	24.81
634.005	24.27
634.336	24.78
634.668	25.12
634.999	25.19
635.33	24.08
635.661	24.72
635.992	24.81
636.323	24.78
636.654	24.74
636.985	24.41
637.316	24.93
637.647	24.7
637.977	24.95
638.308	24.75
638.639	24.9
638.969	24.93
639.3	24.98
639.63	25.24
639.961	24.92
640.291	25.41
640.622	25.26
640.952	25.17
641.282	25.01
641.612	25.18
641.943	25.18
642.273	25.39
642.603	25.22
642.933	25.76
643.263	25.4
643.592	25.54
643.922	25.6
644.252	25.13
644.582	25.02
644.911	25.24
645.241	25.45
645.571	25.6
645.9	25.66
646.23	24.99
646.559	25.43
646.888	25.41
647.218	25.2
647.547	25.6
647.876	26.16
648.205	25.62
648.534	25.61
648.863	26
649.192	25.85
649.521	24.94
649.85	26.15
650.179	25.16
650.508	25.98
650.837	25.46
651.165	25.77
651.494	25.96
651.822	26.09
652.151	26.19
652.479	26.1
652.808	25.46
653.136	26.03
653.465	26.05
653.793	25.99
654.121	26.13
654.449	26.01
654.777	25.8
655.105	26.42
655.433	26.25
655.761	25.86
656.089	26.55
656.417	26.03
656.745	26.58
657.073	26.3
657.4	26.46
657.728	26.45
658.056	26.39
658.383	26.68
658.711	25.93
659.038	26.6
659.365	26.49
659.693	26.16
660.02	25.75
660.347	26.51
660.674	26.54
661.001	26.3
661.329	26.38
661.656	26.41
661.982	25.91
662.309	26.21
662.636	26.42
662.963	26.58
663.29	27
663.616	26.26
663.943	26.58
664.27	27.01
664.596	26.22
664.923	26.64
665.249	27.04
665.576	27.19
665.902	26.95
666.228	26.87
666.554	26.83
666.881	27.22
667.207	26.49
667.533	27.33
667.859	26.77
668.185	26.83
668.511	26.36
668.837	26.72
669.162	27.01
669.488	26.95
669.814	26.93
670.139	27.13
670.465	27.08
670.791	26.86
671.116	27.26
671.442	27.09
671.767	27.38
672.092	26.86
672.418	27.17
672.743	26.55
673.068	26.98
673.393	27.25
673.718	27.14
674.043	27.5
674.368	27.57
674.693	26.85
675.018	27.43
675.343	27.33
675.667	27.8
675.992	26.74
676.317	27.39
