Data from 0073_crown_Reflection__3__337.txt Node

Date: Fri Dec 16 16:45:38 CST 2022
User: ToomeyLab
Spectrometer: FLMS14357
Trigger mode: 0
Integration Time (sec): 1.000000E-2
Scans to average: 100
Electric dark correction enabled: true
Nonlinearity correction enabled: false
Boxcar width: 0
XAxis mode: Wavelengths
Number of Pixels in Spectrum: 2048
>>>>>Begin Spectral Data<<<<<
189.047	-803.32
189.435	-803.32
189.823	-803.32
190.211	1043.15
190.599	329.63
190.987	430.18
191.375	-206.92
191.763	12.97
192.151	233.28
192.538	816.13
192.926	-76.77
193.314	71.18
193.702	3.75
194.089	1.17
194.477	122.62
194.864	30.05
195.252	-6.65
195.639	117.43
196.027	422.03
196.414	64.14
196.801	115.86
197.189	133.13
197.576	274.41
197.963	20.12
198.351	-9.06
198.738	1498.24
199.125	52
199.512	25.17
199.899	-34.31
200.286	-99.24
200.673	18.64
201.06	21.1
201.447	56.71
201.833	52.67
202.22	8.16
202.607	-9.38
202.994	-5.1
203.38	-75.34
203.767	-118.51
204.154	-40.05
204.54	46.84
204.927	0.73
205.313	31.35
205.699	-19.81
206.086	3.7
206.472	7.4
206.858	12.75
207.245	-25.98
207.631	-45.33
208.017	13.77
208.403	4.64
208.789	-2.18
209.175	55.05
209.561	-18.26
209.947	-29.34
210.333	-18.67
210.719	-6.75
211.105	-17.67
211.491	-30.51
211.876	-0.77
212.262	-28.42
212.648	-99.9
213.034	-33.6
213.419	11.62
213.805	2.96
214.19	-49.05
214.576	-31.8
214.961	-36.79
215.346	-50.77
215.732	-17.54
216.117	-21.04
216.502	-57.83
216.888	-30.79
217.273	32.26
217.658	-23.45
218.043	0.19
218.428	-30.63
218.813	-21.46
219.198	-28
219.583	2.51
219.968	-30.65
220.353	-2.53
220.738	-13.15
221.122	-19.3
221.507	-36.18
221.892	-3.58
222.276	-8.49
222.661	-6.21
223.046	-4.98
223.43	-14.29
223.815	0.96
224.199	5.35
224.583	4.94
224.968	-0.22
225.352	-11.23
225.736	9.4
226.121	-4.2
226.505	0.61
226.889	8.34
227.273	3.32
227.657	1.8
228.041	2.56
228.425	1.41
228.809	-2.77
229.193	1.83
229.577	2.32
229.961	2.75
230.344	3.27
230.728	2.57
231.112	1.85
231.495	1.51
231.879	0.84
232.263	0.49
232.646	2.04
233.03	-0.01
233.413	1.1
233.797	4.5
234.18	0.78
234.563	2.06
234.946	-0.8
235.33	3.36
235.713	2.52
236.096	1.45
236.479	2.99
236.862	2.28
237.245	5.41
237.628	2.38
238.011	1.81
238.394	3
238.777	2.4
239.16	1.87
239.543	1.55
239.925	2.82
240.308	2.06
240.691	0.15
241.073	2.13
241.456	2.14
241.838	2.95
242.221	2.87
242.603	2.51
242.986	3
243.368	2.49
243.75	2.31
244.133	2.95
244.515	2.24
244.897	2.69
245.279	2.06
245.661	2.14
246.043	3.28
246.425	1.15
246.807	1.95
247.189	1.8
247.571	2.5
247.953	2.33
248.335	2.72
248.717	2.73
249.098	2.87
249.48	2.47
249.862	2.55
250.243	2.72
250.625	2.26
251.006	2.59
251.388	3.23
251.769	1.48
252.151	2.18
252.532	2.02
252.913	2.76
253.295	2.35
253.676	2.5
254.057	1.92
254.438	1.4
254.819	1.95
255.2	1.22
255.581	2.27
255.962	0.99
256.343	2.26
256.724	1.54
257.105	1.63
257.486	1.67
257.867	-0.16
258.247	2.34
258.628	3.02
259.009	2.32
259.389	2.5
259.77	1.56
260.15	2.73
260.531	2.78
260.911	2.61
261.292	2.42
261.672	2.46
262.052	2.26
262.432	2.26
262.813	2.41
263.193	2.04
263.573	2.52
263.953	1.95
264.333	2.52
264.713	1.81
265.093	1.63
265.473	2.68
265.853	2.01
266.233	3.27
266.612	3.08
266.992	2.1
267.372	2.69
267.752	2.02
268.131	2.7
268.511	2.17
268.89	2.86
269.27	2.32
269.649	2.71
270.029	1.9
270.408	2.34
270.787	1.94
271.167	2.28
271.546	1.69
271.925	2.24
272.304	2.2
272.683	2.03
273.062	2.62
273.441	2.15
273.82	2.19
274.199	2.56
274.578	1.93
274.957	2.53
275.336	2.44
275.715	1.91
276.093	3.06
276.472	2.45
276.851	2.53
277.229	2.98
277.608	1.83
277.986	2.43
278.365	1.8
278.743	2.11
279.122	2.1
279.5	1.61
279.878	1.73
280.257	2.29
280.635	1.85
281.013	2.82
281.391	2.53
281.769	2.44
282.147	2.34
282.525	1.82
282.903	2.63
283.281	2.06
283.659	2.04
284.037	2.23
284.415	2.43
284.792	2.21
285.17	2.44
285.548	2.33
285.925	2.2
286.303	2.3
286.68	2.44
287.058	1.93
287.435	2.12
287.813	2.45
288.19	2.78
288.567	2.09
288.945	2.07
289.322	2.03
289.699	2.3
290.076	2.52
290.453	2.09
290.83	2.31
291.207	2.08
291.584	2.08
291.961	2.55
292.338	1.93
292.715	2.79
293.092	1.73
293.469	2.33
293.845	2.68
294.222	2.64
294.599	2.6
294.975	2.18
295.352	1.68
295.728	2.86
296.105	2.21
296.481	2.68
296.858	2.25
297.234	2.16
297.61	2.16
297.986	2.16
298.363	1.86
298.739	2.41
299.115	2.09
299.491	2.07
299.867	2.51
300.243	2.05
300.619	2.02
300.995	2.13
301.371	2.37
301.746	1.97
302.122	2.71
302.498	2.25
302.874	2.39
303.249	2.15
303.625	2.02
304	1.69
304.376	2.26
304.751	2.05
305.127	2.54
305.502	2.37
305.878	1.93
306.253	2.21
306.628	2.59
307.003	2.24
307.378	1.92
307.754	2.55
308.129	1.51
308.504	2.01
308.879	2.01
309.254	2.95
309.629	1.93
310.003	2.41
310.378	2.55
310.753	2.56
311.128	2.12
311.502	2.28
311.877	2.15
312.252	2.01
312.626	1.77
313.001	2.11
313.375	2.04
313.75	2.27
314.124	2.81
314.498	1.85
314.873	2.04
315.247	2.05
315.621	2.65
315.995	2.64
316.369	2.4
316.743	2.3
317.117	1.83
317.491	2.11
317.865	1.83
318.239	2.37
318.613	1.51
318.987	2.27
319.361	2.32
319.734	2.3
320.108	2.97
320.482	2.2
320.855	2.3
321.229	2.67
321.602	2.69
321.976	1.66
322.349	1.7
322.723	1.57
323.096	2.24
323.469	2.57
323.843	1.73
324.216	1.69
324.589	2.22
324.962	2.53
325.335	1.93
325.708	2.04
326.081	2.68
326.454	2.08
326.827	2.49
327.2	2.73
327.573	2.11
327.945	1.71
328.318	2.71
328.691	1.94
329.063	2.34
329.436	1.67
329.809	1.74
330.181	2.18
330.553	2.36
330.926	2.05
331.298	2.2
331.671	2.06
332.043	1.98
332.415	2.66
332.787	2.02
333.159	2.06
333.532	2.07
333.904	2.19
334.276	2.12
334.648	2.11
335.02	1.78
335.391	2.3
335.763	1.8
336.135	2.32
336.507	2.4
336.879	2.12
337.25	2.26
337.622	2.26
337.993	2.32
338.365	2.61
338.736	2.27
339.108	1.99
339.479	2.13
339.851	2.49
340.222	2.32
340.593	1.79
340.964	2.11
341.336	1.52
341.707	1.98
342.078	1.44
342.449	1.88
342.82	1.97
343.191	1.83
343.562	2.26
343.933	1.89
344.303	2.02
344.674	2.01
345.045	2.45
345.416	2
345.786	1.52
346.157	2.34
346.527	1.99
346.898	1.86
347.268	2.13
347.639	2.45
348.009	2.43
348.38	2.27
348.75	2.18
349.12	2.43
349.49	2.04
349.861	2.11
350.231	2.38
350.601	2.04
350.971	2.3
351.341	2.36
351.711	1.79
352.081	2.37
352.45	2.35
352.82	2.02
353.19	2.22
353.56	1.9
353.929	2.41
354.299	2.23
354.669	2.14
355.038	1.91
355.408	2.62
355.777	2.05
356.147	2.7
356.516	2.1
356.885	1.98
357.254	2.42
357.624	2.36
357.993	2.11
358.362	2.38
358.731	2.24
359.1	2.34
359.469	2.49
359.838	2.08
360.207	2.08
360.576	2.32
360.945	2.18
361.314	2.45
361.682	2.08
362.051	2.2
362.42	2.45
362.788	2.42
363.157	2.19
363.525	2.25
363.894	2.16
364.262	2.23
364.631	2.74
364.999	1.71
365.367	2.49
365.735	2.39
366.104	2.29
366.472	2.13
366.84	2.2
367.208	1.9
367.576	2.43
367.944	2.77
368.312	2.05
368.68	2.34
369.048	2.57
369.416	2.32
369.783	2.26
370.151	2.35
370.519	2.03
370.886	2.21
371.254	2.34
371.621	2.03
371.989	2.38
372.356	2.08
372.724	2.06
373.091	2.25
373.458	2.07
373.826	2.02
374.193	2.72
374.56	2.1
374.927	2.23
375.294	2.44
375.661	2.36
376.028	2.57
376.395	2.11
376.762	2.53
377.129	2.6
377.496	2.39
377.863	2.47
378.229	2.02
378.596	2.14
378.963	2.35
379.329	2.24
379.696	2.46
380.062	2.53
380.429	2.52
380.795	2.19
381.161	2.27
381.528	1.67
381.894	2.63
382.26	1.97
382.626	2.32
382.993	2.21
383.359	2.08
383.725	2.71
384.091	2.42
384.457	2.38
384.823	2.36
385.188	2.59
385.554	2.31
385.92	2.55
386.286	2.26
386.651	2.11
387.017	2.67
387.383	2.3
387.748	2.21
388.114	2.31
388.479	2.63
388.845	2.44
389.21	2.61
389.575	2.2
389.94	2.25
390.306	2.34
390.671	2.35
391.036	2.6
391.401	2.69
391.766	2.52
392.131	2.37
392.496	2.5
392.861	2.29
393.226	2.5
393.591	2.37
393.956	2.59
394.32	2.46
394.685	2.49
395.05	2.31
395.414	2.3
395.779	2.37
396.143	2.63
396.508	2.55
396.872	2.46
397.236	2.3
397.601	2.61
397.965	2.07
398.329	2.54
398.694	2.39
399.058	2.37
399.422	2.6
399.786	2.43
400.15	2.53
400.514	2.37
400.878	2.59
401.242	2.61
401.605	2.48
401.969	2.72
402.333	2.3
402.697	2.49
403.06	2.58
403.424	2.33
403.787	2.85
404.151	2.54
404.514	2.24
404.878	2.47
405.241	2.55
405.604	2.55
405.968	2.5
406.331	2.43
406.694	2.45
407.057	2.97
407.42	2.41
407.783	2.58
408.146	2.52
408.509	2.29
408.872	2.25
409.235	2.51
409.598	2.48
409.961	2.61
410.323	2.34
410.686	2.49
411.049	2.42
411.411	2.62
411.774	2.54
412.136	2.64
412.499	2.47
412.861	2.25
413.223	2.7
413.586	2.41
413.948	2.38
414.31	2.67
414.672	2.59
415.035	2.53
415.397	2.79
415.759	2.48
416.121	2.45
416.483	2.53
416.845	2.51
417.206	2.54
417.568	2.56
417.93	2.35
418.292	2.51
418.653	2.66
419.015	2.64
419.377	2.51
419.738	2.48
420.1	2.53
420.461	2.48
420.822	2.63
421.184	2.58
421.545	2.53
421.906	2.62
422.267	2.45
422.629	2.55
422.99	2.58
423.351	2.65
423.712	2.61
424.073	2.64
424.434	2.56
424.795	2.51
425.155	2.42
425.516	2.53
425.877	2.55
426.238	2.41
426.598	2.58
426.959	2.53
427.32	2.56
427.68	2.68
428.041	2.69
428.401	2.62
428.761	2.55
429.122	2.72
429.482	2.54
429.842	2.61
430.202	2.64
430.563	2.53
430.923	2.68
431.283	2.62
431.643	2.52
432.003	2.64
432.363	2.94
432.722	2.56
433.082	2.56
433.442	2.63
433.802	2.66
434.161	2.53
434.521	2.63
434.881	2.72
435.24	2.54
435.6	2.55
435.959	2.71
436.319	2.6
436.678	2.62
437.037	2.7
437.396	2.76
437.756	2.64
438.115	2.54
438.474	2.71
438.833	2.74
439.192	2.82
439.551	2.71
439.91	2.71
440.269	2.78
440.628	2.73
440.987	2.67
441.345	2.65
441.704	2.68
442.063	2.69
442.421	2.59
442.78	2.63
443.138	2.61
443.497	2.56
443.855	2.59
444.214	2.72
444.572	2.67
444.93	2.8
445.288	2.77
445.647	2.89
446.005	2.6
446.363	2.61
446.721	2.58
447.079	2.65
447.437	2.72
447.795	2.66
448.153	2.72
448.51	2.61
448.868	2.69
449.226	2.73
449.584	2.66
449.941	2.79
450.299	2.72
450.656	2.68
451.014	2.61
451.371	2.76
451.729	2.69
452.086	2.72
452.443	2.73
452.801	2.78
453.158	2.56
453.515	2.74
453.872	2.7
454.229	2.58
454.586	2.54
454.943	2.79
455.3	2.97
455.657	2.73
456.014	2.8
456.371	2.86
456.727	2.63
457.084	2.62
457.441	2.66
457.797	2.6
458.154	2.81
458.51	2.7
458.867	2.69
459.223	2.78
459.58	2.68
459.936	2.58
460.292	2.69
460.648	2.61
461.005	2.63
461.361	2.69
461.717	2.76
462.073	2.78
462.429	2.82
462.785	2.79
463.141	2.84
463.496	2.77
463.852	2.88
464.208	2.93
464.564	2.65
464.919	2.77
465.275	2.79
465.631	2.9
465.986	2.6
466.342	2.82
466.697	2.83
467.052	2.8
467.408	2.79
467.763	2.68
468.118	2.88
468.473	2.94
468.829	2.74
469.184	2.91
469.539	2.65
469.894	2.72
470.249	2.81
470.603	2.81
470.958	3.04
471.313	2.76
471.668	2.87
472.023	2.89
472.377	2.7
472.732	2.83
473.086	2.75
473.441	2.83
473.795	3.01
474.15	2.9
474.504	2.77
474.859	2.97
475.213	2.88
475.567	2.76
475.921	2.89
476.275	2.8
476.63	2.84
476.984	2.81
477.338	3.02
477.692	2.97
478.045	2.89
478.399	2.86
478.753	2.81
479.107	2.82
479.461	2.93
479.814	2.83
480.168	2.93
480.521	2.71
480.875	2.89
481.228	2.86
481.582	2.8
481.935	2.82
482.289	2.83
482.642	2.88
482.995	2.91
483.348	2.83
483.701	2.88
484.055	2.78
484.408	2.77
484.761	2.65
485.114	2.62
485.466	2.67
485.819	2.76
486.172	2.77
486.525	2.79
486.878	2.77
487.23	2.83
487.583	2.83
487.936	2.86
488.288	2.78
488.641	2.76
488.993	2.71
489.345	2.74
489.698	2.77
490.05	2.82
490.402	2.84
490.754	3
491.107	2.89
491.459	2.89
491.811	2.95
492.163	2.94
492.515	2.86
492.866	2.71
493.218	2.73
493.57	2.83
493.922	2.83
494.274	2.89
494.625	2.91
494.977	2.93
495.328	2.97
495.68	3.11
496.031	2.97
496.383	2.97
496.734	2.99
497.086	2.81
497.437	3.09
497.788	2.89
498.139	3.01
498.49	3.02
498.842	2.93
499.193	2.95
499.544	3.09
499.894	3.03
500.245	2.91
500.596	3
500.947	2.93
501.298	2.93
501.648	3.07
501.999	3.04
502.35	3.07
502.7	3.09
503.051	3.09
503.401	3.14
503.752	2.87
504.102	3
504.452	2.92
504.803	2.93
505.153	3.04
505.503	2.99
505.853	2.9
506.203	3.04
506.553	3.09
506.903	2.94
507.253	3.08
507.603	2.95
507.953	3.11
508.303	3.1
508.652	3.01
509.002	3.04
509.352	3.03
509.701	3.04
510.051	2.97
510.4	2.89
510.75	2.92
511.099	3.02
511.449	3.03
511.798	3.24
512.147	2.99
512.496	3.24
512.846	3.08
513.195	3
513.544	3.03
513.893	2.83
514.242	3.18
514.591	3.08
514.939	3.07
515.288	3.06
515.637	3.07
515.986	2.99
516.334	3.16
516.683	3.01
517.032	2.99
517.38	3.09
517.729	3.09
518.077	3.07
518.426	2.99
518.774	3.09
519.122	3.02
519.47	3
519.819	3.11
520.167	3.11
520.515	3
520.863	3.08
521.211	3.05
521.559	3.11
521.907	3.12
522.255	3.15
522.602	3.13
522.95	3.2
523.298	3.1
523.645	3.15
523.993	3.12
524.341	3.02
524.688	3.14
525.036	3.15
525.383	3.04
525.73	3.15
526.078	3.2
526.425	3
526.772	2.89
527.119	3.06
527.466	3.01
527.814	2.97
528.161	3.1
528.508	3.03
528.854	2.93
529.201	2.98
529.548	2.96
529.895	2.89
530.242	2.93
530.588	2.96
530.935	2.99
531.282	3.06
531.628	3.04
531.975	3.1
532.321	3.1
532.667	3.19
533.014	3.08
533.36	3.02
533.706	3.16
534.052	3.01
534.399	2.95
534.745	2.97
535.091	3.02
535.437	3.02
535.783	3.15
536.129	3.14
536.474	3.19
536.82	3.09
537.166	3.12
537.512	3.07
537.857	3.12
538.203	3.09
538.549	3.19
538.894	3.08
539.239	3.25
539.585	3.2
539.93	3.22
540.276	3.23
540.621	3.22
540.966	3.14
541.311	3.2
541.656	3.08
542.001	3.22
542.346	3.15
542.691	3
543.036	2.97
543.381	3.12
543.726	3.15
544.071	3.19
544.415	3.18
544.76	3.06
545.105	3.19
545.449	3.1
545.794	3.13
546.138	3.16
546.483	3.2
546.827	3.23
547.171	3.19
547.516	3.29
547.86	3.2
548.204	3.1
548.548	3.25
548.892	3.25
549.236	3.21
549.58	3.27
549.924	3.22
550.268	3.32
550.612	3.34
550.956	3.16
551.3	3.43
551.643	3.3
551.987	3.23
552.33	3.14
552.674	3.33
553.017	3.3
553.361	3.21
553.704	3.11
554.048	3.35
554.391	3.19
554.734	3.17
555.077	3.37
555.42	3.3
555.764	3.17
556.107	3.27
556.45	3.37
556.793	3.43
557.135	3.43
557.478	3.29
557.821	3.18
558.164	3.38
558.507	3.22
558.849	3.12
559.192	3.37
559.534	3.26
559.877	3.5
560.219	3.41
560.562	3.55
560.904	3.21
561.246	3.48
561.589	3.43
561.931	3.49
562.273	3.25
562.615	3.39
562.957	3.41
563.299	3.4
563.641	3.33
563.983	3.34
564.325	3.01
564.667	3.29
565.008	3.28
565.35	3.47
565.692	3.46
566.033	3.53
566.375	3.23
566.716	3.42
567.058	3.31
567.399	3.43
567.741	3.49
568.082	3.24
568.423	3.28
568.764	3.39
569.105	3.56
569.447	3.42
569.788	3.34
570.129	3.18
570.47	3.57
570.811	3.51
571.151	3.42
571.492	3.49
571.833	3.4
572.174	3.29
572.514	3.32
572.855	3.5
573.195	3.36
573.536	3.17
573.876	3.36
574.217	3.48
574.557	3.42
574.898	3.24
575.238	3.22
575.578	3.51
575.918	3.44
576.258	3.33
576.598	3.52
576.938	3.53
577.278	3.35
577.618	3.49
577.958	3.49
578.298	3.57
578.638	3.4
578.977	3.59
579.317	3.37
579.657	3.4
579.996	3.43
580.336	3.41
580.675	3.61
581.014	3.39
581.354	3.57
581.693	3.36
582.032	3.18
582.372	3.55
582.711	3.45
583.05	3.61
583.389	3.53
583.728	3.62
584.067	3.4
584.406	3.51
584.745	3.55
585.083	3.69
585.422	3.61
585.761	3.68
586.1	3.67
586.438	3.46
586.777	3.42
587.115	3.65
587.454	3.52
587.792	3.3
588.13	3.72
588.469	3.6
588.807	3.56
589.145	3.46
589.483	3.29
589.821	3.69
590.159	3.44
590.497	3.26
590.835	3.47
591.173	3.61
591.511	3.43
591.849	3.66
592.187	3.6
592.524	3.52
592.862	3.47
593.2	3.46
593.537	3.29
593.875	3.61
594.212	3.66
594.55	3.59
594.887	3.64
595.224	3.45
595.561	3.58
595.899	3.32
596.236	3.59
596.573	3.48
596.91	3.67
597.247	3.56
597.584	3.56
597.921	3.61
598.258	3.57
598.594	3.36
598.931	3.67
599.268	3.57
599.604	3.89
599.941	3.36
600.277	3.64
600.614	3.8
600.95	3.79
601.287	3.77
601.623	3.62
601.959	3.64
602.296	3.62
602.632	3.68
602.968	3.47
603.304	3.43
603.64	3.42
603.976	3.47
604.312	3.8
604.648	3.44
604.984	3.63
605.319	3.64
605.655	3.78
605.991	3.59
606.326	3.51
606.662	3.55
606.998	3.58
607.333	3.68
607.668	3.57
608.004	3.54
608.339	3.56
608.674	3.56
609.01	3.61
609.345	3.96
609.68	3.25
610.015	3.62
610.35	3.55
610.685	3.58
611.02	3.64
611.355	3.69
611.689	3.59
612.024	3.71
612.359	3.94
612.694	3.67
613.028	3.99
613.363	3.66
613.697	3.86
614.032	3.76
614.366	3.39
614.7	3.94
615.035	3.73
615.369	3.79
615.703	4.08
616.037	3.53
616.371	3.66
616.705	3.66
617.039	4.23
617.373	3.49
617.707	3.28
618.041	3.65
618.375	3.72
618.709	3.79
619.042	3.66
619.376	3.55
619.71	3.5
620.043	3.77
620.377	3.97
620.71	3.68
621.043	3.59
621.377	4.02
621.71	3.79
622.043	3.8
622.376	3.64
622.709	3.9
623.043	3.6
623.376	3.81
623.709	4.11
624.041	3.66
624.374	3.51
624.707	3.75
625.04	4.19
625.373	3.63
625.705	3.75
626.038	3.94
626.37	3.6
626.703	3.66
627.035	3.72
627.368	3.67
627.7	3.94
628.032	3.74
628.365	3.42
628.697	3.68
629.029	3.98
629.361	3.64
629.693	4.04
630.025	3.82
630.357	3.73
630.689	3.93
631.021	3.86
631.353	3.85
631.684	3.87
632.016	3.79
632.348	4
632.679	4.04
633.011	3.98
633.342	3.72
633.674	3.77
634.005	3.86
634.336	3.85
634.668	3.71
634.999	3.64
635.33	3.73
635.661	3.77
635.992	3.81
636.323	3.93
636.654	3.83
636.985	3.7
637.316	3.9
637.647	3.81
637.977	3.93
638.308	3.94
638.639	3.58
638.969	3.92
639.3	3.97
639.63	3.7
639.961	3.67
640.291	4.46
640.622	4.17
640.952	4.23
641.282	3.53
641.612	3.56
641.943	3.93
642.273	3.93
642.603	3.95
642.933	3.95
643.263	3.98
643.592	4.01
643.922	4.13
644.252	3.83
644.582	3.67
644.911	4.04
645.241	3.94
645.571	4
645.9	4.02
646.23	3.83
646.559	3.7
646.888	3.45
647.218	3.99
647.547	4.3
647.876	4.37
648.205	3.77
648.534	3.9
648.863	3.79
649.192	3.77
649.521	3.55
649.85	4.32
650.179	3.45
650.508	4.02
650.837	4.22
651.165	3.86
651.494	4.24
651.822	3.97
652.151	4.4
652.479	4.71
652.808	3.84
653.136	3.68
653.465	4.03
653.793	3.87
654.121	4.38
654.449	4.12
654.777	3.95
655.105	4.35
655.433	4.37
655.761	4.12
656.089	3.73
656.417	4.03
656.745	4.67
657.073	4.49
657.4	4.52
657.728	3.86
658.056	3.97
658.383	3.97
658.711	4.31
659.038	4.24
659.365	3.83
659.693	4.19
660.02	3.84
660.347	4.23
660.674	4.06
661.001	3.72
661.329	3.9
661.656	3.98
661.982	4.22
662.309	4.1
662.636	3.77
662.963	4.42
663.29	4.19
663.616	4.42
663.943	4.37
664.27	4.25
664.596	3.13
664.923	4
665.249	4.32
665.576	4
665.902	4.26
666.228	3.84
666.554	3.85
666.881	4.59
667.207	4.08
667.533	4.59
667.859	3.98
668.185	4.74
668.511	3.59
668.837	3.55
669.162	4.69
669.488	4.3
669.814	4.52
670.139	4.87
670.465	4.16
670.791	4.78
671.116	3.56
671.442	4.6
671.767	4.07
672.092	4.18
672.418	4.14
672.743	4.05
673.068	4.3
673.393	4.48
673.718	3.62
674.043	4.48
674.368	4.48
674.693	4.69
675.018	4.33
675.343	4.3
675.667	3.97
675.992	4.13
676.317	3.97
676.641	4.05
676.966	3.79
677.29	4.48
677.615	3.58
677.939	4.07
678.264	4.15
678.588	4.32
678.912	4.88
679.236	4.25
679.56	3.98
679.885	4.23
680.209	3.25
680.532	3.55
680.856	4.27
681.18	4.05
681.504	4.14
681.828	3.77
682.152	4.06
682.475	4.64
682.799	4.2
683.122	4.64
683.446	4.03
683.769	4.08
684.093	4.52
684.416	3.46
684.739	4.4
685.062	4.77
685.386	4.58
685.709	4
686.032	4.22
686.355	4.08
686.678	3.91
687.001	3.83
687.324	3.74
687.646	4.44
687.969	4.17
688.292	5.04
688.614	4.42
688.937	3.92
689.26	4.05
689.582	4.18
689.904	4.47
690.227	4.24
690.549	4.41
690.871	5.24
691.194	4.65
691.516	3.7
691.838	4.79
692.16	4.4
692.482	4.89
