Data from 0073_forehead_Reflection__4__343.txt Node

Date: Fri Dec 16 16:47:10 CST 2022
User: ToomeyLab
Spectrometer: FLMS14357
Trigger mode: 0
Integration Time (sec): 1.000000E-2
Scans to average: 100
Electric dark correction enabled: true
Nonlinearity correction enabled: false
Boxcar width: 0
XAxis mode: Wavelengths
Number of Pixels in Spectrum: 2048
>>>>>Begin Spectral Data<<<<<
189.047	-1175.36
189.435	-1175.36
189.823	-1175.36
190.211	1076.14
190.599	-685.71
190.987	75.59
191.375	19.6
191.763	56.26
192.151	158.82
192.538	1367.74
192.926	-190.97
193.314	67.3
193.702	52.48
194.089	-10.97
194.477	172.9
194.864	-0.43
195.252	-97.31
195.639	156.32
196.027	461.02
196.414	-19.62
196.801	37.21
197.189	118.4
197.576	146.7
197.963	74.64
198.351	-18.86
198.738	-317.18
199.125	54.96
199.512	-10.08
199.899	-84.48
200.286	-83.43
200.673	27.31
201.06	15.81
201.447	31.14
201.833	-9.48
202.22	0.4
202.607	-58.06
202.994	23.75
203.38	-51.52
203.767	-37.41
204.154	-17.51
204.54	46.23
204.927	23.69
205.313	37.97
205.699	-39.19
206.086	-36.94
206.472	4.89
206.858	9.2
207.245	3.69
207.631	-20.83
208.017	-11.1
208.403	13.34
208.789	-2.16
209.175	6.22
209.561	-4.89
209.947	-7.63
210.333	-34.34
210.719	-22.64
211.105	-48.94
211.491	-21.83
211.876	-18.85
212.262	-55.6
212.648	-64.2
213.034	-31.7
213.419	34.33
213.805	-21.9
214.19	-14.13
214.576	-19.55
214.961	-28.65
215.346	-50.61
215.732	-33.77
216.117	-20.22
216.502	-9.43
216.888	-21.44
217.273	16.29
217.658	-13.26
218.043	8.68
218.428	0.1
218.813	-27.26
219.198	-47.11
219.583	-1.62
219.968	-8.82
220.353	-6.93
220.738	-11.93
221.122	9.27
221.507	16.37
221.892	-1.09
222.276	16.45
222.661	-13.16
223.046	-1.85
223.43	-9.33
223.815	5.17
224.199	11.78
224.583	-8.29
224.968	0.89
225.352	-7.44
225.736	3.72
226.121	-4.38
226.505	-4.45
226.889	4.47
227.273	-2.6
227.657	-5.43
228.041	-0.15
228.425	-1.95
228.809	2.18
229.193	-0.97
229.577	3.53
229.961	3.82
230.344	3.16
230.728	1.62
231.112	1.17
231.495	0.91
231.879	3.11
232.263	2.65
232.646	0.5
233.03	-0.37
233.413	0.45
233.797	5.91
234.18	2.28
234.563	1.56
234.946	0.41
235.33	2.68
235.713	1.96
236.096	1.29
236.479	1.84
236.862	3.35
237.245	3.78
237.628	2.99
238.011	2.14
238.394	3.22
238.777	1.9
239.16	1.47
239.543	1.03
239.925	2.24
240.308	2.19
240.691	1.72
241.073	1.86
241.456	2.87
241.838	1.93
242.221	3.18
242.603	1.97
242.986	3.65
243.368	2.73
243.75	2.3
244.133	2.52
244.515	2.86
244.897	2.76
245.279	2.52
245.661	2.6
246.043	3.34
246.425	2.2
246.807	2.83
247.189	2.16
247.571	2.73
247.953	2.74
248.335	2.99
248.717	2.73
249.098	3.02
249.48	2.55
249.862	2.94
250.243	2.72
250.625	2.69
251.006	2.85
251.388	2.67
251.769	2.55
252.151	3.48
252.532	2.47
252.913	2.85
253.295	1.96
253.676	2.9
254.057	2.52
254.438	2.25
254.819	2.44
255.2	3.21
255.581	1.01
255.962	2.36
256.343	2.82
256.724	3.28
257.105	2.18
257.486	2.28
257.867	1.06
258.247	2.4
258.628	2.92
259.009	3.26
259.389	3.37
259.77	2.38
260.15	3.3
260.531	2.48
260.911	2.54
261.292	2.83
261.672	2.68
262.052	2.67
262.432	2.48
262.813	2.81
263.193	2.25
263.573	2.95
263.953	2.51
264.333	2.78
264.713	2.05
265.093	2.02
265.473	2.81
265.853	2.9
266.233	3.09
266.612	3.21
266.992	1.55
267.372	2.58
267.752	2.37
268.131	2.64
268.511	2.86
268.89	2.92
269.27	2.62
269.649	3.24
270.029	3.1
270.408	2.76
270.787	3.11
271.167	3.14
271.546	1.72
271.925	3.02
272.304	2.78
272.683	2.13
273.062	2.77
273.441	2.95
273.82	2.94
274.199	2.47
274.578	2.46
274.957	2.88
275.336	2.2
275.715	3.01
276.093	3.61
276.472	2.9
276.851	3.03
277.229	2.63
277.608	2.71
277.986	2.24
278.365	2.18
278.743	2.76
279.122	1.88
279.5	2.76
279.878	1.95
280.257	3.15
280.635	2.27
281.013	3.03
281.391	3.2
281.769	2.62
282.147	2.95
282.525	2.51
282.903	3.19
283.281	2.18
283.659	2.88
284.037	2.76
284.415	2.67
284.792	2.67
285.17	2.41
285.548	2.73
285.925	2.65
286.303	2.7
286.68	2.89
287.058	2.62
287.435	2.46
287.813	2.83
288.19	3.49
288.567	2.8
288.945	2.8
289.322	2.75
289.699	2.45
290.076	2.72
290.453	2.99
290.83	3.13
291.207	2.92
291.584	2.67
291.961	2.95
292.338	3.13
292.715	3.23
293.092	3.02
293.469	3.27
293.845	3.44
294.222	3.01
294.599	3.52
294.975	3.14
295.352	2.8
295.728	3.25
296.105	3.52
296.481	3.5
296.858	3.36
297.234	3.31
297.61	3.81
297.986	3.46
298.363	3.31
298.739	3.89
299.115	3.51
299.491	3.6
299.867	3.36
300.243	3.53
300.619	3.64
300.995	3.78
301.371	4.04
301.746	3.61
302.122	3.77
302.498	3.66
302.874	3.57
303.249	3.52
303.625	3.96
304	3.17
304.376	3.22
304.751	3.79
305.127	3.86
305.502	4.16
305.878	3.28
306.253	3.9
306.628	4.33
307.003	4.13
307.378	3.69
307.754	4.08
308.129	3.75
308.504	3.85
308.879	4.64
309.254	4.11
309.629	4.36
310.003	4.68
310.378	4.66
310.753	4.51
311.128	4.01
311.502	3.86
311.877	4.41
312.252	3.97
312.626	3.92
313.001	4.34
313.375	4.6
313.75	4.37
314.124	4.86
314.498	4.31
314.873	4.41
315.247	4.38
315.621	4.8
315.995	4.12
316.369	4.56
316.743	4.34
317.117	5.13
317.491	4.49
317.865	4.29
318.239	4.53
318.613	4.26
318.987	4.62
319.361	4.8
319.734	4.44
320.108	4.52
320.482	4.32
320.855	4.66
321.229	5.51
321.602	4.28
321.976	5.75
322.349	4.22
322.723	4.27
323.096	4.95
323.469	5
323.843	4.88
324.216	4.32
324.589	5.41
324.962	4.98
325.335	4.79
325.708	5.15
326.081	5.29
326.454	5.69
326.827	5.42
327.2	6.13
327.573	5.23
327.945	5.22
328.318	5.19
328.691	5.03
329.063	5.22
329.436	5.24
329.809	4.67
330.181	5.49
330.553	5.27
330.926	5.98
331.298	5.18
331.671	5.21
332.043	5.65
332.415	5.52
332.787	6
333.159	5.13
333.532	5.63
333.904	6.26
334.276	5.62
334.648	5.13
335.02	5.61
335.391	5.14
335.763	5.44
336.135	5.54
336.507	6.03
336.879	5.82
337.25	5.62
337.622	5.58
337.993	5.66
338.365	6.23
338.736	5.93
339.108	5.43
339.479	5.66
339.851	5.74
340.222	5.5
340.593	5.55
340.964	5.7
341.336	5.66
341.707	5.74
342.078	5.41
342.449	5.81
342.82	5.46
343.191	5.83
343.562	6.02
343.933	5.97
344.303	5.95
344.674	5.67
345.045	5.89
345.416	5.93
345.786	5.81
346.157	5.79
346.527	6.18
346.898	5.91
347.268	5.87
347.639	6.18
348.009	6.46
348.38	6.02
348.75	6.06
349.12	5.86
349.49	5.95
349.861	6.23
350.231	6.41
350.601	6.02
350.971	5.88
351.341	5.95
351.711	5.78
352.081	6.26
352.45	6.39
352.82	6.11
353.19	6.08
353.56	6.07
353.929	6.26
354.299	6.34
354.669	6.4
355.038	6.34
355.408	6.69
355.777	6.39
356.147	6.56
356.516	6.54
356.885	5.92
357.254	6.57
357.624	6.41
357.993	6.46
358.362	6.29
358.731	6.19
359.1	6.66
359.469	6.47
359.838	6.49
360.207	6.3
360.576	6.61
360.945	6.28
361.314	6.74
361.682	6.25
362.051	6.24
362.42	6.83
362.788	6.78
363.157	6.38
363.525	6.42
363.894	6.46
364.262	6.71
364.631	7.26
364.999	6.68
365.367	6.94
365.735	6.31
366.104	6.71
366.472	7.02
366.84	6.92
367.208	6.49
367.576	7.05
367.944	6.98
368.312	6.48
368.68	6.95
369.048	7.16
369.416	6.97
369.783	7.06
370.151	7.3
370.519	6.96
370.886	6.97
371.254	7.1
371.621	7.06
371.989	7.06
372.356	6.83
372.724	7.25
373.091	7.08
373.458	7.1
373.826	7.14
374.193	7.58
374.56	7.16
374.927	6.84
375.294	7.7
375.661	7.42
376.028	7.22
376.395	7.25
376.762	7.42
377.129	7.4
377.496	7.29
377.863	7.59
378.229	7.24
378.596	7.17
378.963	7.12
379.329	7.24
379.696	7.21
380.062	7.71
380.429	7.73
380.795	7.34
381.161	7.41
381.528	7.35
381.894	7.8
382.26	7.66
382.626	7.45
382.993	7.51
383.359	7.15
383.725	7.86
384.091	7.4
384.457	7.68
384.823	7.49
385.188	7.67
385.554	7.86
385.92	8.11
386.286	7.82
386.651	7.67
387.017	7.71
387.383	7.74
387.748	7.6
388.114	7.96
388.479	7.8
388.845	7.79
389.21	7.88
389.575	7.76
389.94	7.8
390.306	7.93
390.671	7.9
391.036	8.05
391.401	8.17
391.766	7.93
392.131	7.97
392.496	8.09
392.861	7.83
393.226	7.84
393.591	8.21
393.956	8.25
394.32	7.95
394.685	8.29
395.05	7.96
395.414	8.11
395.779	8.1
396.143	8.23
396.508	8.32
396.872	8.28
397.236	8.05
397.601	8.24
397.965	8.15
398.329	8.43
398.694	8.14
399.058	8.64
399.422	8.61
399.786	8.44
400.15	8.43
400.514	8.34
400.878	8.17
401.242	8.66
401.605	8.57
401.969	8.42
402.333	8.48
402.697	8.77
403.06	8.48
403.424	8.36
403.787	8.62
404.151	8.41
404.514	8.71
404.878	8.63
405.241	8.61
405.604	8.77
405.968	8.47
406.331	8.52
406.694	8.71
407.057	8.74
407.42	8.54
407.783	8.67
408.146	8.6
408.509	8.76
408.872	8.59
409.235	8.8
409.598	9.01
409.961	8.97
410.323	8.79
410.686	8.71
411.049	8.68
411.411	8.83
411.774	8.82
412.136	8.92
412.499	8.8
412.861	8.44
413.223	8.87
413.586	8.73
413.948	9.07
414.31	8.97
414.672	8.98
415.035	9.29
415.397	9.01
415.759	8.89
416.121	9.24
416.483	9.28
416.845	9.05
417.206	9.02
417.568	9.09
417.93	8.87
418.292	9.03
418.653	9.19
419.015	9.19
419.377	9.2
419.738	8.98
420.1	9.03
420.461	8.97
420.822	9.1
421.184	9.09
421.545	9.02
421.906	9.09
422.267	8.88
422.629	9.12
422.99	9.13
423.351	9.29
423.712	9.26
424.073	9.32
424.434	9.29
424.795	9.27
425.155	9.19
425.516	9.19
425.877	9.19
426.238	9.3
426.598	9.4
426.959	9.24
427.32	9.68
427.68	9.68
428.041	9.69
428.401	9.56
428.761	9.74
429.122	9.75
429.482	9.63
429.842	9.92
430.202	9.64
430.563	9.64
430.923	9.6
431.283	10.04
431.643	9.76
432.003	9.78
432.363	9.97
432.722	9.78
433.082	9.89
433.442	9.89
433.802	9.99
434.161	9.9
434.521	9.97
434.881	9.96
435.24	9.9
435.6	9.95
435.959	10.01
436.319	10.1
436.678	10.1
437.037	10.08
437.396	10
437.756	9.94
438.115	10.06
438.474	10.06
438.833	10.27
439.192	10.26
439.551	10.26
439.91	10.18
440.269	10.37
440.628	10.22
440.987	10.12
441.345	10.16
441.704	10.25
442.063	10.22
442.421	10.3
442.78	10.24
443.138	10.37
443.497	10.3
443.855	10.51
444.214	10.47
444.572	10.54
444.93	10.53
445.288	10.61
445.647	10.55
446.005	10.28
446.363	10.36
446.721	10.26
447.079	10.38
447.437	10.39
447.795	10.34
448.153	10.37
448.51	10.48
448.868	10.63
449.226	10.67
449.584	10.78
449.941	10.8
450.299	10.83
450.656	10.87
451.014	10.87
451.371	11.07
451.729	10.99
452.086	11.02
452.443	10.79
452.801	11.2
453.158	11.02
453.515	11.02
453.872	11
454.229	11.03
454.586	10.96
454.943	11.07
455.3	11.34
455.657	11.13
456.014	11.25
456.371	11.28
456.727	11.16
457.084	11.35
457.441	11.45
457.797	11.35
458.154	11.28
458.51	11.3
458.867	11.15
459.223	11.27
459.58	11.29
459.936	11.21
460.292	11.29
460.648	10.91
461.005	11.04
461.361	11.03
461.717	11.33
462.073	11.54
462.429	11.64
462.785	11.66
463.141	11.84
463.496	11.84
463.852	11.69
464.208	11.74
464.564	11.84
464.919	11.81
465.275	11.89
465.631	11.87
465.986	11.83
466.342	11.61
466.697	11.84
467.052	12.01
467.408	11.91
467.763	11.64
468.118	11.91
468.473	12.05
468.829	11.9
469.184	12.02
469.539	11.9
469.894	12.27
470.249	12.08
470.603	12.14
470.958	12.3
471.313	12.02
471.668	12.3
472.023	12.36
472.377	12.1
472.732	12.23
473.086	12.09
473.441	12.14
473.795	12.55
474.15	12.15
474.504	12.33
474.859	12.38
475.213	12.43
475.567	12.21
475.921	12.42
476.275	12.41
476.63	12.45
476.984	12.33
477.338	12.72
477.692	12.38
478.045	12.39
478.399	12.42
478.753	12.55
479.107	12.3
479.461	12.63
479.814	12.36
480.168	12.63
480.521	12.52
480.875	12.89
481.228	12.79
481.582	12.71
481.935	12.69
482.289	12.52
482.642	12.66
482.995	12.5
483.348	12.47
483.701	12.46
484.055	12.27
484.408	12.14
484.761	11.7
485.114	11.51
485.466	11.7
485.819	12.12
486.172	12.57
486.525	12.84
486.878	12.82
487.23	12.84
487.583	12.78
487.936	12.63
488.288	12.21
488.641	12.16
488.993	12.22
489.345	12.38
489.698	12.6
490.05	12.69
490.402	12.97
490.754	13.2
491.107	13.1
491.459	13.19
491.811	13.17
492.163	13.01
492.515	12.64
492.866	12.4
493.218	12.49
493.57	12.94
493.922	13.23
494.274	13.55
494.625	13.51
494.977	13.62
495.328	13.67
495.68	13.73
496.031	13.72
496.383	13.67
496.734	13.73
497.086	13.48
497.437	13.64
497.788	13.44
498.139	13.47
498.49	13.61
498.842	13.63
499.193	13.87
499.544	14.01
499.894	13.86
500.245	13.65
500.596	13.9
500.947	13.92
501.298	13.88
501.648	14.02
501.999	14.19
502.35	14.11
502.7	14.14
503.051	14.3
503.401	14.16
503.752	14.05
504.102	14.22
504.452	14.05
504.803	14.04
505.153	14.12
505.503	14.09
505.853	14.14
506.203	14.23
506.553	14.26
506.903	14.38
507.253	14.45
507.603	14.21
507.953	14.31
508.303	14.29
508.652	14.21
509.002	14.4
509.352	14.25
509.701	14.17
510.051	14.29
510.4	14.3
510.75	14.45
511.099	14.5
511.449	14.4
511.798	14.65
512.147	14.47
512.496	14.54
512.846	14.51
513.195	14.49
513.544	14.52
513.893	14.35
514.242	14.67
514.591	14.67
514.939	14.66
515.288	14.78
515.637	14.9
515.986	14.93
516.334	14.89
516.683	14.93
517.032	14.77
517.38	15.04
517.729	14.93
518.077	15.03
518.426	14.8
518.774	14.82
519.122	14.66
519.47	14.55
519.819	14.45
520.167	14.62
520.515	14.59
520.863	14.9
521.211	15.03
521.559	15.16
521.907	15.21
522.255	15.25
522.602	15.31
522.95	15.16
523.298	15.23
523.645	15.25
523.993	15.31
524.341	15.44
524.688	15.25
525.036	15.36
525.383	15.26
525.73	15.36
526.078	15.28
526.425	15.14
526.772	14.79
527.119	14.88
527.466	14.98
527.814	15.08
528.161	15.25
528.508	15.21
528.854	15.03
529.201	14.79
529.548	14.45
529.895	14.13
530.242	14.34
530.588	14.89
530.935	15.16
531.282	15.4
531.628	15.54
531.975	15.62
532.321	15.54
532.667	15.83
533.014	15.59
533.36	15.52
533.706	15.36
534.052	15.32
534.399	15
534.745	14.88
535.091	15.14
535.437	15.48
535.783	15.88
536.129	15.95
536.474	15.98
536.82	15.96
537.166	16.1
537.512	15.83
537.857	15.59
538.203	15.61
538.549	15.81
538.894	15.99
539.239	16.24
539.585	16.25
539.93	16.31
540.276	16.37
540.621	16.35
540.966	16.3
541.311	16.33
541.656	15.99
542.001	15.83
542.346	15.53
542.691	15.21
543.036	15.39
543.381	15.76
543.726	16.14
544.071	16.26
544.415	16.19
544.76	16.09
545.105	16.23
545.449	16.45
545.794	16.57
546.138	16.56
546.483	16.58
546.827	16.62
547.171	16.61
547.516	16.77
547.86	16.47
548.204	16.34
548.548	16.52
548.892	16.64
549.236	16.98
549.58	16.92
549.924	17.13
550.268	17.21
550.612	17.11
550.956	17.12
551.3	17.42
551.643	17.25
551.987	17.26
552.33	17.19
552.674	17.06
553.017	17.43
553.361	17.34
553.704	16.86
554.048	17.09
554.391	16.92
554.734	17.19
555.077	17.31
555.42	17.31
555.764	17.65
556.107	17.53
556.45	17.41
556.793	17.6
557.135	17.81
557.478	17.55
557.821	17.55
558.164	17.72
558.507	17.31
558.849	17.45
559.192	17.67
559.534	17.54
559.877	17.88
560.219	17.89
560.562	17.89
560.904	17.94
561.246	17.86
561.589	17.83
561.931	17.98
562.273	17.62
562.615	17.79
562.957	17.79
563.299	17.89
563.641	18.02
563.983	18.03
564.325	17.78
564.667	18.1
565.008	18.09
565.35	18.17
565.692	18.06
566.033	18.19
566.375	17.83
566.716	17.96
567.058	18
567.399	17.92
567.741	17.89
568.082	17.87
568.423	18.12
568.764	18.2
569.105	18.34
569.447	18.28
569.788	18.31
570.129	18.33
570.47	18.35
570.811	18.45
571.151	18.38
571.492	18.55
571.833	18.57
572.174	18.2
572.514	18.27
572.855	18.41
573.195	18.32
573.536	18.3
573.876	18.19
574.217	18.31
574.557	18.72
574.898	18.47
575.238	18.43
575.578	18.73
575.918	18.49
576.258	18.44
576.598	18.62
576.938	18.67
577.278	18.46
577.618	18.77
577.958	18.9
578.298	18.94
578.638	18.88
578.977	19.09
579.317	18.95
579.657	19.06
579.996	19.13
580.336	19.22
580.675	19.07
581.014	18.97
581.354	19.3
581.693	19.14
582.032	19.29
582.372	19.26
582.711	19.19
583.05	19.22
583.389	19.34
583.728	19.46
584.067	19.11
584.406	19.83
584.745	19.24
585.083	19.71
585.422	19.42
585.761	19.62
586.1	19.63
586.438	19.66
586.777	19.44
587.115	19.68
587.454	19.7
587.792	19.57
588.13	19.72
588.469	19.61
588.807	19.99
589.145	19.48
589.483	19.65
589.821	19.59
590.159	19.85
590.497	19.43
590.835	20.04
591.173	19.73
591.511	19.96
591.849	19.88
592.187	19.7
592.524	19.88
592.862	20.13
593.2	20.12
593.537	19.72
593.875	20.02
594.212	20.04
594.55	19.94
594.887	20.28
595.224	19.69
595.561	19.87
595.899	20.04
596.236	20
596.573	19.97
596.91	20.07
597.247	20.02
597.584	20.19
597.921	19.92
598.258	19.78
598.594	19.6
598.931	19.99
599.268	20
599.604	20.46
599.941	20.27
600.277	20.41
600.614	20.55
600.95	20.45
601.287	20.28
601.623	20.8
601.959	20.62
602.296	20.39
602.632	20.44
602.968	20.49
603.304	20.39
603.64	20.58
603.976	20.5
604.312	20.44
604.648	20.46
604.984	20.34
605.319	20.27
605.655	20.33
605.991	20.34
606.326	20.08
606.662	20.3
606.998	20.61
607.333	20.95
607.668	20.95
608.004	20.83
608.339	20.81
608.674	21.3
609.01	21.04
609.345	21.01
609.68	20.69
610.015	20.6
610.35	20.57
610.685	20.55
611.02	20.55
611.355	20.69
611.689	20.61
612.024	21.17
612.359	21.16
612.694	21.17
613.028	21.47
613.363	21.06
613.697	21.06
614.032	21.39
614.366	21.08
614.7	21.6
615.035	21.68
615.369	21.54
615.703	21.73
616.037	21.58
616.371	21.7
616.705	21.22
617.039	21.9
617.373	21.85
617.707	21.19
618.041	22.03
618.375	21.11
618.709	21.45
619.042	21.92
619.376	21.54
619.71	21.41
620.043	21.64
620.377	21.49
620.71	21.48
621.043	21.58
621.377	21.48
621.71	22.17
622.043	21.65
622.376	21.91
622.709	22.15
623.043	21.53
623.376	21.87
623.709	22.12
624.041	21.56
624.374	21.68
624.707	22.08
625.04	22.02
625.373	21.9
625.705	21.91
626.038	21.71
626.37	21.75
626.703	21.9
627.035	21.92
627.368	21.66
627.7	21.72
628.032	21.71
628.365	21.55
628.697	21.7
629.029	21.76
629.361	22.23
629.693	22.38
630.025	22.03
630.357	22.3
630.689	22.67
631.021	22.25
631.353	22.05
631.684	22.1
632.016	22.37
632.348	22.22
632.679	22.3
633.011	22.73
633.342	22.07
633.674	22.32
634.005	22.33
634.336	22.46
634.668	22.06
634.999	22.27
635.33	22.6
635.661	22.63
635.992	22.48
636.323	22.51
636.654	22.66
636.985	22.79
637.316	22.63
637.647	22.79
637.977	22.56
638.308	22.5
638.639	22.68
638.969	22.55
639.3	22.88
639.63	22.76
639.961	22.53
640.291	23.25
640.622	23.56
640.952	23.36
641.282	22.75
641.612	22.58
641.943	23.03
642.273	23.41
642.603	22.97
642.933	23.35
643.263	23.44
643.592	23.15
643.922	23.46
644.252	22.88
644.582	23.04
644.911	22.51
645.241	23.14
645.571	23.15
645.9	23.49
646.23	23.15
646.559	23.14
646.888	22.84
647.218	23.29
647.547	23.57
647.876	23.32
648.205	23.22
648.534	23.17
648.863	23.48
649.192	23.24
649.521	23.42
649.85	23.82
650.179	22.83
650.508	23.81
650.837	23.12
651.165	23.55
651.494	23.42
651.822	23.56
652.151	24.03
652.479	23.63
652.808	23.57
653.136	24.19
653.465	23.63
653.793	23.34
654.121	24.33
654.449	23.45
654.777	23.16
655.105	23.36
655.433	23.61
655.761	23.56
656.089	23.84
656.417	23.57
656.745	24.4
657.073	24.33
657.4	24.39
657.728	23.7
658.056	24
658.383	24.37
658.711	24.13
659.038	24.08
659.365	23.86
659.693	24.45
660.02	23.33
660.347	23.75
660.674	23.94
661.001	23.5
661.329	23.64
661.656	23.94
661.982	24.68
662.309	24.29
662.636	24.71
662.963	24.8
663.29	24.15
663.616	24.45
663.943	24.71
664.27	24.39
664.596	23.7
664.923	24.51
665.249	23.94
665.576	24.12
665.902	24.34
666.228	24.34
666.554	24.11
666.881	24.49
667.207	24.37
667.533	24.73
667.859	24.49
668.185	24.66
668.511	24.33
668.837	24.15
669.162	24.57
669.488	24.94
669.814	25.04
670.139	24.51
670.465	24.19
670.791	24.26
671.116	24.23
671.442	24.56
671.767	24.82
672.092	25.1
672.418	24.91
672.743	24.27
673.068	23.99
673.393	24.68
673.718	24.47
674.043	25.06
674.368	25.38
674.693	25.22
675.018	25.31
675.343	25.14
