Data from 0073_crown_Reflection__4__338.txt Node

Date: Fri Dec 16 16:45:47 CST 2022
User: ToomeyLab
Spectrometer: FLMS14357
Trigger mode: 0
Integration Time (sec): 1.000000E-2
Scans to average: 100
Electric dark correction enabled: true
Nonlinearity correction enabled: false
Boxcar width: 0
XAxis mode: Wavelengths
Number of Pixels in Spectrum: 2048
>>>>>Begin Spectral Data<<<<<
189.047	-1203.55
189.435	-1203.55
189.823	-1203.55
190.211	1163.2
190.599	340.48
190.987	362.07
191.375	-238.07
191.763	21.91
192.151	151.48
192.538	348.71
192.926	-53.87
193.314	91.14
193.702	32.95
194.089	67.75
194.477	-9.46
194.864	-52.46
195.252	28.93
195.639	79.84
196.027	3655.08
196.414	1.12
196.801	-49.88
197.189	20.44
197.576	106.5
197.963	95.89
198.351	50.1
198.738	234.58
199.125	47.77
199.512	4.4
199.899	-74.73
200.286	-106.66
200.673	11.28
201.06	23.8
201.447	45.67
201.833	9.58
202.22	24.35
202.607	-9.08
202.994	3.16
203.38	-7.01
203.767	-59.54
204.154	-52.81
204.54	-2.43
204.927	3.54
205.313	-4.35
205.699	-36.06
206.086	24.9
206.472	-30.13
206.858	18.94
207.245	-22.89
207.631	-45.25
208.017	-19.2
208.403	17.45
208.789	-12.52
209.175	45.89
209.561	17.22
209.947	-21.82
210.333	-50.56
210.719	19.04
211.105	0.44
211.491	4.87
211.876	-13.86
212.262	-49.16
212.648	-51.31
213.034	-77.2
213.419	9.87
213.805	-40.99
214.19	-16.55
214.576	-27.06
214.961	-31.72
215.346	-20.61
215.732	4.12
216.117	-7.46
216.502	-42.53
216.888	-36.3
217.273	20.97
217.658	-20.9
218.043	-16.28
218.428	-20.02
218.813	-0.26
219.198	-47.06
219.583	-14.37
219.968	-21.46
220.353	21.46
220.738	-21.56
221.122	-16.64
221.507	-2
221.892	-13.31
222.276	-0.95
222.661	-16.73
223.046	-12.89
223.43	-2.65
223.815	-4.06
224.199	-4.89
224.583	5.63
224.968	-2.09
225.352	-8.53
225.736	-0.67
226.121	-6.32
226.505	0.52
226.889	3.24
227.273	-1.26
227.657	-0.61
228.041	1.21
228.425	0.25
228.809	1.33
229.193	0.7
229.577	2.08
229.961	2.82
230.344	2.51
230.728	2.53
231.112	2.83
231.495	3.58
231.879	2.8
232.263	-0.02
232.646	0.45
233.03	1.16
233.413	1.79
233.797	3.07
234.18	-0.84
234.563	3.82
234.946	-0.43
235.33	2.16
235.713	4.38
236.096	2.77
236.479	2.05
236.862	3.27
237.245	3.41
237.628	4.71
238.011	4.88
238.394	3.24
238.777	2.2
239.16	1.9
239.543	-0.3
239.925	3.34
240.308	3.42
240.691	1.08
241.073	1.98
241.456	1.85
241.838	2.22
242.221	3.33
242.603	2.64
242.986	3.85
243.368	2.48
243.75	2.11
244.133	2.69
244.515	2.34
244.897	2.34
245.279	2.05
245.661	2.47
246.043	2.85
246.425	2.9
246.807	2.5
247.189	2.32
247.571	2.78
247.953	2.77
248.335	2.74
248.717	2.67
249.098	2.9
249.48	2.35
249.862	2.9
250.243	2.26
250.625	2.84
251.006	2.57
251.388	2.93
251.769	3.31
252.151	1.83
252.532	2.14
252.913	2.9
253.295	2.75
253.676	3.24
254.057	2.72
254.438	1.88
254.819	2.42
255.2	2.08
255.581	2.72
255.962	1.54
256.343	3.01
256.724	2.02
257.105	2.23
257.486	2.96
257.867	1.32
258.247	2.77
258.628	3.33
259.009	2.55
259.389	3.15
259.77	2.09
260.15	2.95
260.531	2.87
260.911	2.27
261.292	2.66
261.672	2.67
262.052	2.66
262.432	2.44
262.813	2.62
263.193	1.31
263.573	2.57
263.953	2.7
264.333	2.7
264.713	1.71
265.093	1.66
265.473	3.05
265.853	1.65
266.233	2.81
266.612	2.36
266.992	2.09
267.372	2.86
267.752	1.99
268.131	2.75
268.511	2.62
268.89	2.52
269.27	2.77
269.649	2.45
270.029	2.47
270.408	2.89
270.787	2.21
271.167	2.35
271.546	2.02
271.925	2.13
272.304	2.77
272.683	2.83
273.062	3.05
273.441	2.84
273.82	2.99
274.199	2.71
274.578	2.29
274.957	2.47
275.336	2.62
275.715	2.58
276.093	3.28
276.472	2.41
276.851	3.06
277.229	3.15
277.608	2.32
277.986	2.81
278.365	2.07
278.743	2.64
279.122	1.7
279.5	2.13
279.878	1.98
280.257	2.89
280.635	2.31
281.013	2.54
281.391	2.45
281.769	1.74
282.147	2.13
282.525	1.98
282.903	2.27
283.281	2.12
283.659	2.03
284.037	2.49
284.415	2.73
284.792	2.64
285.17	1.76
285.548	2.69
285.925	2.42
286.303	1.73
286.68	2.42
287.058	2.28
287.435	2.28
287.813	2.35
288.19	2.96
288.567	2.15
288.945	2.28
289.322	1.79
289.699	2.35
290.076	2.2
290.453	2
290.83	2.24
291.207	2.2
291.584	2.05
291.961	2.3
292.338	2.44
292.715	2.51
293.092	2.15
293.469	2.6
293.845	2.48
294.222	2.05
294.599	2.43
294.975	2.63
295.352	1.97
295.728	2.19
296.105	2.17
296.481	2.54
296.858	2.55
297.234	2.31
297.61	2.13
297.986	2.15
298.363	1.77
298.739	2.41
299.115	1.81
299.491	2.44
299.867	2.34
300.243	2.3
300.619	2.16
300.995	2.14
301.371	1.9
301.746	2.04
302.122	2.39
302.498	2.3
302.874	1.96
303.249	2.41
303.625	2.5
304	1.63
304.376	1.98
304.751	2
305.127	2.23
305.502	2.73
305.878	2.03
306.253	1.96
306.628	2.93
307.003	2.55
307.378	2.43
307.754	2.4
308.129	1.99
308.504	1.78
308.879	2.4
309.254	2.32
309.629	2.4
310.003	2.45
310.378	2.4
310.753	2.47
311.128	2.29
311.502	2
311.877	2.51
312.252	2.32
312.626	1.91
313.001	2.1
313.375	2.17
313.75	1.7
314.124	2.74
314.498	2.6
314.873	2
315.247	1.91
315.621	2.17
315.995	2.35
316.369	2.75
316.743	2.62
317.117	2.25
317.491	1.93
317.865	2.16
318.239	2.47
318.613	2.49
318.987	2.21
319.361	2.22
319.734	1.89
320.108	2.45
320.482	2.08
320.855	2.26
321.229	2.41
321.602	2.24
321.976	2.25
322.349	1.86
322.723	1.89
323.096	2.28
323.469	1.92
323.843	2.09
324.216	1.83
324.589	2.13
324.962	2.48
325.335	2.19
325.708	2.38
326.081	2.76
326.454	2.63
326.827	2.37
327.2	3.19
327.573	2.24
327.945	2.32
328.318	1.99
328.691	2.22
329.063	2.2
329.436	2.19
329.809	1.96
330.181	1.99
330.553	2.37
330.926	2.85
331.298	1.54
331.671	2.24
332.043	2.36
332.415	2.82
332.787	2.43
333.159	1.88
333.532	2.35
333.904	2.3
334.276	2.27
334.648	2.65
335.02	2.51
335.391	2.26
335.763	2.22
336.135	2.43
336.507	2.61
336.879	2.21
337.25	2.16
337.622	2.22
337.993	2.3
338.365	2.33
338.736	2.96
339.108	2.43
339.479	1.68
339.851	2.58
340.222	2.09
340.593	2.31
340.964	2.2
341.336	1.96
341.707	2.31
342.078	2.13
342.449	2.56
342.82	2.46
343.191	2.04
343.562	2.02
343.933	2.55
344.303	2.6
344.674	2.39
345.045	2.62
345.416	2.04
345.786	1.99
346.157	2.16
346.527	2.45
346.898	2.16
347.268	2.29
347.639	2.34
348.009	2.63
348.38	2.18
348.75	2.56
349.12	2.6
349.49	2.18
349.861	2.36
350.231	2.75
350.601	2.3
350.971	2.34
351.341	2.33
351.711	2.28
352.081	2.31
352.45	2.24
352.82	2.46
353.19	2.31
353.56	2.18
353.929	2.64
354.299	2.34
354.669	2.86
355.038	2.36
355.408	3.13
355.777	2.08
356.147	2.5
356.516	2.64
356.885	1.99
357.254	2.36
357.624	2.54
357.993	2.3
358.362	2.48
358.731	2.35
359.1	2.73
359.469	2.46
359.838	2.38
360.207	2.07
360.576	2.53
360.945	2.31
361.314	2.67
361.682	2.09
362.051	2.12
362.42	2.8
362.788	2.52
363.157	2.39
363.525	2.34
363.894	2.15
364.262	2.19
364.631	3.19
364.999	2.08
365.367	2.59
365.735	2.03
366.104	2.3
366.472	2.65
366.84	2.67
367.208	2.28
367.576	2.47
367.944	2.5
368.312	2.13
368.68	2.72
369.048	2.84
369.416	2.48
369.783	2.43
370.151	2.19
370.519	2.35
370.886	2.63
371.254	2.59
371.621	2.58
371.989	2.52
372.356	2.69
372.724	2.52
373.091	2.21
373.458	2.59
373.826	2.27
374.193	3.02
374.56	2.31
374.927	2.19
375.294	2.77
375.661	2.6
376.028	2.71
376.395	2.46
376.762	2.59
377.129	2.63
377.496	2.67
377.863	2.79
378.229	2.59
378.596	2.43
378.963	2.44
379.329	2.35
379.696	2.54
380.062	2.99
380.429	2.71
380.795	2.46
381.161	2.42
381.528	2.28
381.894	2.83
382.26	2.53
382.626	2.41
382.993	2.31
383.359	2.21
383.725	2.75
384.091	2.56
384.457	2.62
384.823	2.56
385.188	2.8
385.554	2.42
385.92	2.82
386.286	2.81
386.651	2.56
387.017	2.55
387.383	2.85
387.748	2.45
388.114	2.61
388.479	2.63
388.845	2.69
389.21	2.61
389.575	2.74
389.94	2.41
390.306	2.63
390.671	2.38
391.036	2.71
391.401	3.01
391.766	2.49
392.131	2.31
392.496	2.7
392.861	2.52
393.226	2.39
393.591	2.56
393.956	2.8
394.32	2.54
394.685	2.75
395.05	2.53
395.414	2.69
395.779	2.5
396.143	2.79
396.508	2.8
396.872	2.74
397.236	2.36
397.601	2.73
397.965	2.36
398.329	2.76
398.694	2.37
399.058	2.79
399.422	2.78
399.786	2.59
400.15	2.38
400.514	2.77
400.878	2.81
401.242	2.83
401.605	2.68
401.969	2.68
402.333	2.33
402.697	3.2
403.06	3.01
403.424	2.62
403.787	2.9
404.151	2.52
404.514	2.82
404.878	2.8
405.241	2.76
405.604	2.67
405.968	2.68
406.331	2.81
406.694	2.73
407.057	2.93
407.42	2.79
407.783	2.5
408.146	2.7
408.509	2.78
408.872	2.54
409.235	2.87
409.598	2.69
409.961	2.69
410.323	2.95
410.686	2.66
411.049	2.71
411.411	2.69
411.774	2.85
412.136	2.73
412.499	2.82
412.861	2.47
413.223	2.76
413.586	2.86
413.948	2.83
414.31	2.76
414.672	2.62
415.035	2.94
415.397	2.82
415.759	2.67
416.121	2.85
416.483	3.03
416.845	2.84
417.206	2.86
417.568	2.85
417.93	2.7
418.292	2.7
418.653	2.76
419.015	2.78
419.377	2.75
419.738	2.57
420.1	2.67
420.461	2.64
420.822	2.78
421.184	2.77
421.545	2.77
421.906	2.8
422.267	2.62
422.629	2.74
422.99	2.77
423.351	2.76
423.712	2.81
424.073	2.81
424.434	2.64
424.795	2.75
425.155	2.76
425.516	2.71
425.877	2.81
426.238	2.73
426.598	2.78
426.959	2.72
427.32	2.86
427.68	2.87
428.041	2.78
428.401	2.76
428.761	2.61
429.122	2.71
429.482	2.82
429.842	2.84
430.202	2.64
430.563	2.79
430.923	2.75
431.283	2.84
431.643	2.82
432.003	2.91
432.363	2.93
432.722	2.66
433.082	3
433.442	2.81
433.802	2.87
434.161	2.7
434.521	2.7
434.881	3
435.24	2.71
435.6	2.86
435.959	2.77
436.319	2.79
436.678	2.81
437.037	2.83
437.396	2.71
437.756	2.84
438.115	2.68
438.474	2.98
438.833	2.83
439.192	2.91
439.551	2.89
439.91	2.88
440.269	2.97
440.628	2.76
440.987	2.76
441.345	2.66
441.704	2.88
442.063	2.68
442.421	2.72
442.78	2.75
443.138	2.88
443.497	2.79
443.855	2.95
444.214	3.04
444.572	2.85
444.93	2.87
445.288	2.9
445.647	2.92
446.005	2.74
446.363	2.78
446.721	2.66
447.079	2.73
447.437	2.81
447.795	2.81
448.153	2.85
448.51	2.86
448.868	2.87
449.226	2.93
449.584	2.85
449.941	3.01
450.299	2.93
450.656	2.92
451.014	2.81
451.371	3.02
451.729	2.85
452.086	2.7
452.443	2.88
452.801	2.84
453.158	2.96
453.515	2.86
453.872	2.85
454.229	2.79
454.586	2.76
454.943	2.91
455.3	3.16
455.657	2.93
456.014	2.91
456.371	2.79
456.727	2.77
457.084	2.83
457.441	2.79
457.797	2.88
458.154	3.02
458.51	2.96
458.867	2.82
459.223	2.88
459.58	2.77
459.936	2.78
460.292	2.89
460.648	2.84
461.005	2.8
461.361	2.73
461.717	2.8
462.073	2.87
462.429	2.93
462.785	2.93
463.141	3.12
463.496	2.97
463.852	3.07
464.208	2.97
464.564	2.95
464.919	3.08
465.275	2.99
465.631	2.93
465.986	2.73
466.342	3.04
466.697	2.85
467.052	2.94
467.408	2.86
467.763	2.8
468.118	3.09
468.473	3.15
468.829	3
469.184	2.98
469.539	2.94
469.894	2.98
470.249	3.06
470.603	3.05
470.958	3.1
471.313	2.87
471.668	3.1
472.023	3.04
472.377	2.9
472.732	3.06
473.086	2.9
473.441	2.91
473.795	3.18
474.15	2.99
474.504	2.9
474.859	3.03
475.213	2.95
475.567	2.99
475.921	3.08
476.275	2.87
476.63	2.96
476.984	2.93
477.338	3.17
477.692	2.89
478.045	2.94
478.399	2.99
478.753	2.77
479.107	2.89
479.461	3.02
479.814	3.02
480.168	3.07
480.521	2.86
480.875	3.06
481.228	3.03
481.582	2.89
481.935	3.1
482.289	2.79
482.642	2.94
482.995	2.94
483.348	2.95
483.701	2.97
484.055	2.87
484.408	2.79
484.761	2.63
485.114	2.66
485.466	2.66
485.819	2.79
486.172	2.89
486.525	3.03
486.878	2.97
487.23	2.96
487.583	2.93
487.936	2.91
488.288	2.83
488.641	2.75
488.993	2.74
489.345	2.82
489.698	2.9
490.05	2.89
490.402	2.99
490.754	3.04
491.107	2.99
491.459	3.05
491.811	3
492.163	2.94
492.515	2.82
492.866	2.7
493.218	2.78
493.57	2.91
493.922	2.94
494.274	3.06
494.625	3.06
494.977	3.02
495.328	3.06
495.68	3.2
496.031	3.02
496.383	3.05
496.734	3.1
497.086	2.88
497.437	3.08
497.788	2.99
498.139	3.04
498.49	2.94
498.842	3.07
499.193	3
499.544	3.15
499.894	3.06
500.245	3.01
500.596	3.07
500.947	3.02
501.298	2.94
501.648	3.09
501.999	3.11
502.35	3.06
502.7	3
503.051	3.17
503.401	3.11
503.752	3
504.102	2.92
504.452	3.01
504.803	2.97
505.153	3.09
505.503	2.99
505.853	2.97
506.203	3.12
506.553	3.08
506.903	2.98
507.253	3.05
507.603	3.13
507.953	3.2
508.303	3.08
508.652	3.09
509.002	2.99
509.352	2.95
509.701	3.1
510.051	3.07
510.4	3.03
510.75	3.01
511.099	2.97
511.449	3.01
511.798	3.17
512.147	3.04
512.496	3.09
512.846	2.93
513.195	3.08
513.544	2.9
513.893	2.95
514.242	3.07
514.591	3.13
514.939	3.06
515.288	3.06
515.637	3.08
515.986	3.06
516.334	3.05
516.683	3
517.032	3.08
517.38	2.96
517.729	2.94
518.077	3.03
518.426	2.95
518.774	3
519.122	2.9
519.47	3.04
519.819	2.94
520.167	3.02
520.515	3.01
520.863	2.98
521.211	3.08
521.559	3.06
521.907	3.09
522.255	3.07
522.602	3.04
522.95	3.11
523.298	3.18
523.645	3.08
523.993	3.24
524.341	3.12
524.688	3.08
525.036	3.19
525.383	3.22
525.73	3.14
526.078	3.09
526.425	2.92
526.772	2.89
527.119	2.98
527.466	2.9
527.814	2.94
528.161	3.02
528.508	3.06
528.854	2.87
529.201	2.89
529.548	2.8
529.895	2.73
530.242	2.78
530.588	2.91
530.935	2.97
531.282	3.03
531.628	3.03
531.975	3.08
532.321	3.08
532.667	3.03
533.014	3.04
533.36	2.99
533.706	2.98
534.052	2.95
534.399	2.8
534.745	2.83
535.091	2.93
535.437	2.97
535.783	3.08
536.129	3.05
536.474	3.09
536.82	3.03
537.166	3.15
537.512	3.03
537.857	2.95
538.203	2.97
538.549	2.99
538.894	3.05
539.239	3.17
539.585	3.19
539.93	3.09
540.276	2.96
540.621	3.02
540.966	3.05
541.311	3.02
541.656	2.96
542.001	2.99
542.346	2.9
542.691	2.82
543.036	2.82
543.381	2.99
543.726	3.05
544.071	3.1
544.415	3.04
544.76	2.94
545.105	3.04
545.449	3.05
545.794	3.03
546.138	3.05
546.483	3
546.827	3.07
547.171	3.01
547.516	3.18
547.86	3.08
548.204	2.94
548.548	3.07
548.892	3.14
549.236	3.12
549.58	3.18
549.924	3.2
550.268	3.16
550.612	3.26
550.956	3.09
551.3	3.13
551.643	3.17
551.987	3.03
552.33	3.09
552.674	3.1
553.017	3.12
553.361	2.99
553.704	2.97
554.048	3.01
554.391	2.87
554.734	3.02
555.077	3.1
555.42	3.15
555.764	3.2
556.107	3.11
556.45	3.11
556.793	3.35
557.135	3.26
557.478	3.21
557.821	3.01
558.164	3.3
558.507	3.01
558.849	3.01
559.192	3.13
559.534	2.87
559.877	3.14
560.219	3.41
560.562	3.16
560.904	3.07
561.246	3.27
561.589	3.16
561.931	3.31
562.273	3
562.615	3.1
562.957	3.13
563.299	3.3
563.641	3.29
563.983	3.3
564.325	3.06
564.667	3.23
565.008	2.97
565.35	3.22
565.692	3.21
566.033	3.16
566.375	3.16
566.716	3.18
567.058	3.17
567.399	3.19
567.741	3.12
568.082	3.04
568.423	3.22
568.764	3.11
569.105	3.15
569.447	3.1
569.788	3.03
570.129	2.92
570.47	3.2
570.811	3.24
571.151	3.15
571.492	3.43
571.833	3.21
572.174	3.06
572.514	3.1
572.855	3.05
573.195	2.95
573.536	3.08
573.876	3.08
574.217	3.19
574.557	3.15
574.898	3.08
575.238	3.06
575.578	3.3
575.918	3.32
576.258	3.06
576.598	3.1
576.938	3.24
577.278	3.14
577.618	3.17
577.958	3.29
578.298	3.3
578.638	3.14
578.977	3.3
579.317	3.19
579.657	3.23
579.996	3.33
580.336	2.78
580.675	3.31
581.014	3.3
581.354	3.21
581.693	3.13
582.032	3.05
582.372	3.31
582.711	3.2
583.05	3.24
583.389	3.29
583.728	3.36
584.067	3.13
584.406	3.44
584.745	3.16
585.083	3.65
585.422	3.41
585.761	3.32
586.1	3.24
586.438	3.28
586.777	3.17
587.115	3.2
587.454	3.18
587.792	3.18
588.13	3.41
588.469	3.34
588.807	3.1
589.145	3.29
589.483	3.18
589.821	3.3
590.159	3.04
590.497	3.08
590.835	3.21
591.173	3.18
591.511	3.38
591.849	3.17
592.187	3.23
592.524	3.13
592.862	3.3
593.2	3.09
593.537	3.21
593.875	3.15
594.212	3.09
594.55	2.99
594.887	3.44
595.224	3.23
595.561	3.34
595.899	2.99
596.236	3.35
596.573	3.27
596.91	3.27
597.247	3.11
597.584	3.24
597.921	3.15
598.258	3.16
598.594	3
598.931	3.04
599.268	3.09
599.604	3.41
599.941	3.1
600.277	3.09
600.614	3.29
600.95	3.37
601.287	3.4
601.623	3.12
601.959	3.06
602.296	3.35
602.632	3.38
602.968	2.95
603.304	3.21
603.64	3.08
603.976	3.43
604.312	3.5
604.648	3.23
604.984	3.17
605.319	3.31
605.655	3.23
605.991	3.25
606.326	3.02
606.662	3.09
606.998	3.19
607.333	3.42
607.668	3.08
608.004	3.12
608.339	3.38
608.674	3.3
609.01	3.31
609.345	3.36
609.68	3.05
610.015	3.17
610.35	3.12
610.685	3.22
611.02	3.26
611.355	3.31
611.689	3.13
612.024	3.45
612.359	3.39
612.694	3.57
613.028	3.71
613.363	3.12
613.697	3.32
614.032	3.3
614.366	3.21
614.7	3.64
615.035	3.12
615.369	3.19
615.703	3.67
616.037	3.45
616.371	3.35
616.705	3.32
617.039	3.41
617.373	3.03
617.707	3.2
618.041	3.12
618.375	2.97
618.709	3.15
619.042	3.17
619.376	3.19
619.71	3.12
620.043	3.14
620.377	3.16
620.71	3.42
621.043	3.02
621.377	3.28
621.71	3.6
622.043	3.35
622.376	2.99
622.709	3.48
623.043	3.09
623.376	3.31
623.709	3.36
624.041	3.31
624.374	2.93
624.707	3.24
625.04	3.44
625.373	3.22
625.705	3.5
626.038	3.1
626.37	3.17
626.703	3.11
627.035	3.39
627.368	3.42
627.7	3.18
628.032	3.23
628.365	3.25
628.697	3
629.029	3.57
629.361	3.21
629.693	3.44
630.025	3.25
630.357	3.35
630.689	3.84
631.021	3.48
631.353	3.24
631.684	3.45
632.016	2.96
632.348	3.41
632.679	3.32
633.011	3.65
633.342	3.39
633.674	2.95
634.005	3.16
634.336	3.31
634.668	3.18
634.999	3.34
635.33	2.98
635.661	3.24
635.992	3.36
636.323	3.35
636.654	3.14
636.985	3.45
637.316	3.32
637.647	3.57
637.977	3.4
638.308	3.25
638.639	3.01
638.969	3.16
639.3	3.28
639.63	3.06
639.961	3.14
640.291	3.84
640.622	3.08
640.952	3.43
641.282	3.18
641.612	3.03
641.943	3.72
642.273	3.34
642.603	3.81
642.933	3.26
643.263	3.57
643.592	3.36
643.922	3.62
644.252	3.42
644.582	3.18
644.911	3.08
645.241	3.08
645.571	3.24
645.9	3.17
646.23	2.66
646.559	3.67
646.888	3.2
647.218	3.38
647.547	3.34
647.876	3.5
648.205	3
648.534	3.34
648.863	3.64
649.192	3.21
649.521	3
649.85	3.46
650.179	3.27
650.508	3.2
650.837	3.04
651.165	3.83
651.494	3.98
651.822	3.72
652.151	3.88
652.479	3.72
652.808	3.02
653.136	3.52
653.465	3.55
653.793	4.03
654.121	3.47
654.449	3.39
654.777	3.41
655.105	3.56
655.433	3.41
655.761	3.01
656.089	3.35
656.417	3.01
656.745	4.3
657.073	3.82
657.4	3.42
657.728	2.97
658.056	2.97
658.383	3.58
658.711	3.6
659.038	3.32
659.365	3.41
659.693	3.32
660.02	3.54
660.347	3.88
660.674	3.2
661.001	2.9
661.329	3.53
661.656	3.44
661.982	3.94
662.309	3.68
662.636	3.54
662.963	3.68
663.29	3.59
663.616	3.21
663.943	3.84
664.27	3.47
664.596	3.24
664.923	3.94
665.249	3.4
665.576	3.68
665.902	3.09
666.228	2.88
666.554	3.4
666.881	3.77
667.207	3.07
667.533	3.95
667.859	3.41
668.185	3.7
668.511	3.55
668.837	3.03
669.162	3.68
669.488	3.46
669.814	3.98
670.139	4.03
670.465	3.86
670.791	3.46
671.116	3.22
671.442	3.29
671.767	3.16
672.092	3.56
672.418	3.6
672.743	3.17
673.068	3.42
673.393	3.92
673.718	4.12
674.043	3.61
674.368	3.84
674.693	3.21
675.018	3.74
675.343	3.65
675.667	3.47
675.992	2.86
676.317	3.68
676.641	3.75
676.966	3.65
677.29	3.26
677.615	3.61
677.939	2.37
678.264	3.2
678.588	3.61
678.912	3.56
679.236	3.93
679.56	2.95
679.885	4.32
680.209	3.23
680.532	3.39
680.856	3.95
681.18	3.54
681.504	2.82
681.828	2.43
682.152	3.69
682.475	3.91
682.799	3.71
683.122	3.3
683.446	3.38
683.769	4.03
684.093	3.76
684.416	3.21
684.739	4.39
685.062	3.94
685.386	3.92
685.709	3.49
686.032	3.47
686.355	3.24
686.678	3.64
687.001	2.81
687.324	3.43
687.646	3.05
687.969	3.9
688.292	4.86
688.614	3.61
688.937	3.34
689.26	2.84
689.582	3.01
689.904	3.21
690.227	3.51
690.549	4.03
690.871	3.33
691.194	3.81
691.516	3.73
691.838	3.71
692.16	2.7
692.482	3.47
692.804	3.44
